##NAMES=Chloritoid
##RRUFFID=R050334
##IDEAL CHEMISTRY=Fe^2+^Al_2_OSiO_4_(OH)_2_
##LOCALITY=Selçuk, Mugla Province, Turkey
##OWNER=RRUFF
##SOURCE=George Rossman
##DESCRIPTION=Dark greenish-black foliated cleavage fragments
##STATUS=The identification of this mineral is confirmed by single-crystal X-ray diffraction and chemical analysis.
##URL=rruff.info/R050334
##MEASURED CHEMISTRY=(Fe^2+^_1.84_Mg_0.12_Mn_0.04_)_Σ=2_(Al_3.95_Fe^3+^_0.05_)_Σ=4_Si_2.00_O_10_(OH)_4_ ; H not measured but estimated by difference and stoichiometry
##PIN_ID=M01684
##ORIENTATION=Laser parallel to c* (0 0 1). Fiducial mark perpendicular to laser is parallel to a [1 0 0]
152.4080, 0.0000000E+00
153.6380, 0.2290040
154.8690, 146.1167
156.0980, 140.6816
157.3280, 49.08301
158.5580, 5.767578
159.7870, 24.60596
161.0170, 6.645996
162.2460, 165.9219
163.4750, 118.1436
164.7030, 235.5308
165.9320, 239.3110
167.1600, 229.2266
168.3890, 297.5923
169.6170, 196.5620
170.8450, 359.0972
172.0730, 288.1592
173.3000, 259.1729
174.5280, 257.2886
175.7550, 228.1582
176.9820, 234.5439
178.2090, 209.4521
179.4350, 250.6494
180.6620, 207.6758
181.8880, 137.8433
183.1150, 216.2476
184.3410, 276.9692
185.5670, 407.0806
186.7920, 367.6436
188.0180, 413.7148
189.2430, 377.0029
190.4690, 436.5903
191.6940, 609.0381
192.9180, 740.5786
194.1430, 814.6816
195.3680, 871.3926
196.5920, 885.5610
197.8160, 901.2163
199.0400, 829.6772
200.2640, 1046.082
201.4880, 1080.438
202.7110, 1056.808
203.9350, 839.2334
205.1580, 702.6162
206.3810, 661.9604
207.6040, 559.2715
208.8270, 607.5522
210.0490, 476.8018
211.2710, 554.0132
212.4940, 578.1865
213.7160, 536.3276
214.9370, 501.4404
216.1590, 536.5312
217.3810, 458.6045
218.6020, 459.6641
219.8230, 562.7134
221.0440, 431.7578
222.2650, 420.7998
223.4860, 353.8442
224.7060, 267.8936
225.9260, 153.9775
227.1470, 84.15430
228.3670, 47.39551
229.5860, 18.32959
230.8060, 39.98877
232.0260, 17.63721
233.2450, 28.75000
234.4640, 87.64990
235.6830, 0.4345700
236.9020, 141.5127
238.1200, 16.03857
239.3390, 9.186523
240.5570, 106.7134
241.7750, 150.6577
242.9930, 137.6455
244.2110, 399.6753
245.4290, 333.7456
246.6460, 672.8472
247.8630, 700.9697
249.0810, 790.1108
250.2980, 811.2710
251.5140, 829.0957
252.7310, 772.7168
253.9470, 742.2393
255.1640, 689.4155
256.3800, 849.6147
257.5960, 965.8374
258.8120, 1456.084
260.0270, 1729.356
261.2430, 950.6528
262.4580, 451.9736
263.6730, 291.3066
264.8880, 240.6055
266.1030, 164.8569
267.3170, 235.0000
268.5320, 176.9878
269.7460, 144.9253
270.9600, 113.8931
272.1740, 272.8945
273.3880, 311.9316
274.6010, 423.0044
275.8150, 660.1143
277.0280, 912.2603
278.2410, 1136.445
279.4540, 1240.669
280.6670, 1304.933
281.8790, 1412.237
283.0920, 1238.582
284.3040, 1259.970
285.5160, 873.4014
286.7280, 871.8755
287.9400, 669.3940
289.1510, 687.9575
290.3630, 567.5649
291.5740, 540.2173
292.7850, 518.9146
293.9960, 680.6572
295.2070, 697.4438
296.4170, 805.2764
297.6280, 924.1533
298.8380, 1057.377
300.0480, 1179.651
301.2580, 1249.847
302.4680, 1213.660
303.6770, 1216.087
304.8870, 1000.521
306.0960, 757.7700
307.3050, 704.7881
308.5140, 520.4829
309.7230, 259.1646
310.9310, 246.8262
312.1400, 98.46631
313.3480, 42.91895
314.5560, 34.33057
315.7640, 63.76465
316.9720, 20.22510
318.1790, 151.7065
319.3870, 132.2529
320.5940, 178.8730
321.8010, 96.57666
323.0080, 45.33350
324.2150, 159.8716
325.4210, 6.050781
326.6280, 186.2080
327.8340, 112.2236
329.0400, 262.3477
330.2460, 478.4595
331.4510, 495.5635
332.6570, 750.6602
333.8620, 577.7529
335.0680, 554.8408
336.2730, 477.8994
337.4780, 243.8726
338.6820, 42.71777
339.8870, 38.39551
341.0910, 177.8198
342.2950, 336.1875
343.5000, 250.5703
344.7030, 170.9746
345.9070, 226.4014
347.1110, 96.85107
348.3140, 9.677734
349.5170, 21.18457
350.7200, 38.67041
351.9230, 47.13574
353.1260, 68.58252
354.3290, 21.98730
355.5310, 21.58203
356.7330, 34.20215
357.9350, 249.8467
359.1370, 285.5181
360.3390, 229.2163
361.5400, 483.9404
362.7420, 577.6914
363.9430, 654.4697
365.1440, 688.2759
366.3450, 727.1094
367.5460, 659.9707
368.7460, 566.8599
369.9470, 494.7769
371.1470, 419.8105
372.3470, 339.8901
373.5470, 299.8442
374.7460, 202.6641
375.9460, 201.5469
377.1450, 173.6318
378.3450, 247.1147
379.5440, 290.7197
380.7430, 302.4497
381.9410, 495.4189
383.1400, 594.0317
384.3380, 663.2334
385.5370, 787.8560
386.7350, 856.7656
387.9320, 972.6724
389.1300, 1053.800
390.3280, 1040.957
391.5250, 954.1465
392.7220, 1001.366
393.9190, 1055.616
395.1160, 1016.898
396.3130, 1192.210
397.5100, 1251.549
398.7060, 1348.929
399.9020, 1306.370
401.0980, 1255.868
402.2940, 1196.433
403.4900, 1272.043
404.6860, 1339.690
405.8810, 1266.370
407.0760, 1400.081
408.2710, 1426.847
409.4660, 1595.645
410.6610, 1601.491
411.8550, 1701.406
413.0500, 1675.374
414.2440, 1612.389
415.4380, 1540.464
416.6320, 1521.585
417.8260, 1220.738
419.0190, 1450.925
420.2130, 1023.152
421.4060, 929.4121
422.5990, 890.7051
423.7920, 817.0312
424.9850, 772.3877
426.1770, 820.7773
427.3700, 774.2061
428.5620, 716.6729
429.7540, 713.1709
430.9460, 550.7002
432.1380, 511.2607
433.3290, 520.8535
434.5210, 404.4775
435.7120, 355.1328
436.9030, 353.8184
438.0940, 276.5342
439.2850, 306.4121
440.4750, 392.0576
441.6660, 331.8643
442.8560, 366.6865
444.0460, 341.9443
445.2360, 340.3936
446.4260, 373.2793
447.6160, 342.1885
448.8050, 392.1260
449.9940, 487.0879
451.1830, 354.0752
452.3720, 616.0850
453.5610, 472.1182
454.7500, 449.1738
455.9380, 553.2520
457.1260, 470.0186
458.3150, 559.1562
459.5020, 487.0576
460.6900, 649.7441
461.8780, 569.5811
463.0650, 627.7275
464.2530, 591.0361
465.4400, 770.5459
466.6270, 687.5557
467.8130, 729.8760
469.0000, 706.2227
470.1870, 731.5957
471.3730, 764.9941
472.5590, 793.4189
473.7450, 837.9268
474.9310, 905.3486
476.1160, 906.8535
477.3020, 950.3896
478.4870, 931.9629
479.6720, 951.5850
480.8570, 793.2480
482.0420, 859.9570
483.2270, 895.6973
484.4110, 958.4873
485.5960, 1025.328
486.7800, 1035.212
487.9640, 1252.159
489.1480, 1371.169
490.3310, 1500.242
491.5150, 1862.249
492.6980, 1994.098
493.8810, 2201.618
495.0640, 2423.978
496.2470, 2978.709
497.4300, 3273.145
498.6120, 3251.644
499.7950, 3061.177
500.9770, 2664.761
502.1590, 2415.430
503.3410, 2527.141
504.5220, 2261.906
505.7040, 2214.700
506.8850, 1905.521
508.0660, 1789.371
509.2470, 1831.245
510.4280, 1555.147
511.6090, 1449.076
512.7890, 1267.031
513.9700, 1131.483
515.1500, 1041.688
516.3300, 938.0918
517.5100, 920.1934
518.6900, 891.3271
519.8690, 944.5020
521.0490, 970.5957
522.2280, 1032.606
523.4070, 1113.324
524.5860, 1213.724
525.7640, 1338.173
526.9430, 1475.668
528.1210, 1612.361
529.3000, 1696.907
530.4780, 1719.478
531.6560, 1591.071
532.8330, 1314.688
534.0110, 1194.329
535.1880, 1042.993
536.3650, 775.6797
537.5430, 864.7783
538.7190, 746.2490
539.8960, 566.6230
541.0730, 634.1191
542.2490, 655.7422
543.4250, 676.2549
544.6020, 789.4619
545.7780, 924.9736
546.9530, 1093.931
548.1290, 1334.352
549.3040, 1541.370
550.4800, 1832.391
551.6550, 2078.345
552.8300, 1987.537
554.0040, 1891.562
555.1790, 1448.623
556.3540, 1198.988
557.5280, 967.3799
558.7020, 767.4551
559.8760, 640.9062
561.0500, 544.0039
562.2230, 507.2773
563.3970, 459.3711
564.5700, 504.4775
565.7430, 489.5957
566.9160, 436.8027
568.0890, 597.1201
569.2620, 450.3682
570.4340, 565.5332
571.6070, 476.7109
572.7790, 629.8994
573.9510, 468.3086
575.1230, 610.5176
576.2940, 703.7363
577.4660, 895.9668
578.6370, 897.2061
579.8080, 1034.454
580.9790, 1268.711
582.1500, 1623.977
583.3210, 2256.251
584.4910, 2927.534
585.6620, 4129.825
586.8320, 5795.125
588.0020, 8267.431
589.1720, 11687.75
590.3410, 17348.06
591.5110, 26743.40
592.6800, 38070.73
593.8500, 44393.07
595.0190, 41337.42
596.1880, 31162.77
597.3560, 21726.14
598.5250, 14905.51
599.6930, 10389.89
600.8620, 7330.287
602.0300, 5211.695
603.1970, 3833.139
604.3650, 2929.613
605.5330, 2384.133
606.7000, 1950.672
607.8680, 1804.222
609.0350, 1453.775
610.2020, 1264.332
611.3680, 1095.893
612.5350, 938.4541
613.7010, 820.2236
614.8680, 714.9209
616.0340, 639.3662
617.2000, 570.0527
618.3660, 529.7529
619.5310, 497.6641
620.6970, 465.4629
621.8620, 405.7480
623.0270, 394.8018
624.1920, 368.1182
625.3570, 269.4092
626.5220, 331.9219
627.6860, 208.1855
628.8500, 326.5596
630.0140, 353.7305
631.1780, 314.8877
632.3420, 356.5967
633.5060, 269.4492
634.6700, 250.2988
635.8330, 190.8828
636.9960, 172.4688
638.1590, 240.5488
639.3220, 166.2471
640.4850, 161.9336
641.6470, 211.8564
642.8100, 188.1270
643.9720, 202.0586
645.1340, 201.7852
646.2960, 186.3701
647.4570, 180.4180
648.6190, 253.2588
649.7800, 132.9043
650.9420, 104.3164
652.1030, 40.90430
653.2640, 156.6475
654.4240, 109.2305
655.5850, 118.4707
656.7450, 159.8574
657.9060, 53.26953
659.0660, 128.5811
660.2260, 84.87695
661.3850, 84.15723
662.5450, 117.4199
663.7040, 163.6680
664.8640, 23.89746
666.0230, 77.11133
667.1820, 0.3056640
668.3410, 100.4795
669.4990, 76.63477
670.6580, 208.7734
671.8160, 67.89258
672.9740, 106.9922
674.1320, 74.07422
675.2900, 102.1377
676.4480, 0.8203130
677.6050, 21.80176
678.7630, 66.82227
679.9200, 99.41406
681.0770, 84.32324
682.2340, 113.3018
683.3900, 43.62500
684.5470, 5.999023
685.7030, 20.59180
686.8590, 46.85840
688.0150, 68.29102
689.1710, 41.18945
690.3270, 49.35254
691.4830, 115.9531
692.6380, 48.64844
693.7930, 32.40234
694.9480, 84.20703
696.1030, 20.08984
697.2580, 64.98145
698.4130, 70.03027
699.5670, 3.944336
700.7210, 43.04199
701.8750, 186.0049
703.0290, 120.9463
704.1830, 202.8633
705.3370, 64.75586
706.4900, 3.625977
707.6430, 5.459961
708.7970, 128.2578
709.9490, 127.0312
711.1020, 133.7812
712.2550, 42.50781
713.4070, 143.2080
714.5600, 147.8848
715.7120, 100.5371
716.8640, 157.1660
718.0160, 226.7705
719.1670, 272.3506
720.3190, 314.8037
721.4700, 318.4375
722.6210, 391.9443
723.7720, 391.4258
724.9230, 444.6641
726.0740, 405.3154
727.2250, 481.7227
728.3750, 552.1064
729.5250, 663.4648
730.6750, 746.7969
731.8250, 706.1045
732.9750, 740.3867
734.1240, 686.6436
735.2740, 756.8760
736.4230, 740.0830
737.5720, 666.2646
738.7210, 716.4199
739.8700, 637.5508
741.0190, 728.6543
742.1670, 724.7334
743.3150, 589.7852
744.4630, 388.8125
745.6110, 338.8135
746.7590, 298.7871
747.9070, 322.7344
749.0540, 159.6562
750.2020, 152.5518
751.3490, 69.41992
752.4960, 118.2588
753.6430, 121.0723
754.7890, 22.85938
755.9360, 2.610352
757.0820, 44.68750
758.2280, 6.057617
759.3740, 34.47754
760.5200, 49.03418
761.6660, 38.48535
762.8120, 38.07324
763.9570, 9.730469
765.1020, 85.44141
766.2470, 87.24609
767.3920, 84.14551
768.5370, 68.13672
769.6810, 22.78711
770.8260, 143.3262
771.9700, 127.5635
773.1140, 43.91602
774.2580, 117.3398
775.4020, 90.87207
776.5460, 20.49902
777.6890, 47.16699
778.8320, 178.9043
779.9750, 9.782227
781.1180, 68.71289
782.2610, 60.27441
783.4040, 79.23535
784.5460, 190.1699
785.6890, 190.0801
786.8310, 59.96484
787.9730, 178.8242
789.1150, 61.66016
790.2560, 44.46875
791.3980, 11.25000
792.5390, 1.004883
793.6810, 86.69824
794.8220, 75.37598
795.9630, 153.0303
797.1030, 177.4502
798.2440, 199.0703
799.3840, 243.8545
800.5240, 234.4160
801.6650, 282.9561
802.8040, 273.4736
803.9440, 274.9678
805.0840, 260.2666
806.2230, 233.7178
807.3630, 227.1465
808.5020, 245.5537
809.6410, 326.9395
810.7790, 309.3037
811.9180, 179.6465
813.0570, 320.9697
814.1950, 218.8809
815.3330, 297.4238
816.4710, 270.0645
817.6090, 388.5850
818.7470, 362.9805
819.8840, 364.4873
821.0220, 474.3008
822.1590, 398.4102
823.2960, 527.4033
824.4330, 623.4844
825.5690, 658.4932
826.7060, 717.5010
827.8420, 853.5771
828.9790, 1011.414
830.1150, 1185.421
831.2510, 1363.392
832.3860, 1494.060
833.5220, 1669.703
834.6570, 1846.492
835.7930, 2053.625
836.9280, 2219.138
838.0630, 2421.949
839.1980, 2630.893
840.3320, 2639.825
841.4670, 2731.484
842.6010, 2697.577
843.7350, 2657.296
844.8690, 2401.088
846.0030, 2165.961
847.1370, 2048.821
848.2700, 2105.672
849.4040, 1900.302
850.5370, 1901.131
851.6700, 1748.949
852.8030, 1696.758
853.9360, 1610.558
855.0680, 1507.347
856.2000, 1507.126
857.3330, 1490.896
858.4650, 1496.657
859.5970, 1410.409
860.7290, 1364.153
861.8600, 1393.889
862.9920, 1391.615
864.1230, 1516.335
865.2540, 1629.046
866.3850, 1802.750
867.5160, 1928.445
868.6460, 2037.135
869.7770, 2255.816
870.9070, 2526.490
872.0370, 2810.817
873.1670, 3203.821
874.2970, 3562.477
875.4270, 3982.133
876.5570, 4480.792
877.6860, 4722.446
878.8150, 5048.096
879.9440, 5142.740
881.0730, 5082.379
882.2020, 5020.014
883.3300, 4594.656
884.4590, 4293.295
885.5870, 3932.947
886.7150, 3687.597
887.8430, 3269.033
888.9710, 3096.727
890.0990, 2673.416
891.2260, 2550.991
892.3530, 2336.564
893.4810, 2136.156
894.6080, 1995.164
895.7340, 1821.379
896.8610, 1768.592
897.9880, 1686.557
899.1140, 1669.557
900.2400, 1479.332
901.3660, 1548.355
902.4920, 1445.273
903.6180, 1332.390
904.7430, 1414.521
905.8690, 1381.104
906.9940, 1358.546
908.1190, 1283.993
909.2440, 1297.709
910.3690, 1157.847
911.4930, 1115.670
912.6180, 1043.284
913.7420, 1078.906
914.8660, 1096.314
915.9900, 1060.372
917.1140, 1185.770
918.2380, 1056.410
919.3610, 980.2168
920.4850, 956.1562
921.6080, 1001.135
922.7310, 1008.901
923.8540, 988.9004
924.9760, 930.7217
926.0990, 940.3838
927.2210, 905.2031
928.3440, 906.3691
929.4660, 844.3867
930.5880, 912.3760
931.7090, 985.4629
932.8310, 954.5635
933.9520, 1004.677
935.0740, 931.8027
936.1950, 937.9424
937.3160, 889.1143
938.4360, 977.2998
939.5570, 984.4990
940.6780, 1065.713
941.7980, 1118.957
942.9180, 1154.272
944.0380, 1209.487
945.1580, 1215.784
946.2780, 1219.096
947.3970, 1190.440
948.5170, 1155.799
949.6360, 1314.177
950.7550, 1217.578
951.8740, 1396.016
952.9930, 1262.498
954.1110, 1310.023
955.2300, 1302.597
956.3480, 1185.202
957.4660, 1230.830
958.5840, 1194.480
959.7020, 1097.145
960.8190, 1191.850
961.9370, 945.5723
963.0540, 1043.329
964.1710, 958.1396
965.2880, 766.9941
966.4050, 860.8799
967.5220, 690.8096
968.6380, 740.7725
969.7550, 911.7520
970.8710, 698.7490
971.9870, 640.7715
973.1030, 818.8125
974.2190, 639.7314
975.3340, 738.9473
976.4500, 588.0430
977.5650, 312.1553
978.6800, 394.2930
979.7950, 380.4561
980.9100, 402.6357
982.0250, 340.8350
983.1390, 370.0527
984.2530, 315.2891
985.3680, 495.5449
986.4820, 456.8193
987.5950, 283.1152
988.7090, 208.4316
989.8230, 424.7656
990.9360, 211.1191
992.0490, 308.4912
993.1620, 261.8838
994.2750, 327.2939
995.3880, 254.7246
996.5010, 460.1748
997.6130, 530.6455
998.7250, 394.1338
999.8370, 425.6445
1000.949, 415.1719
1002.061, 434.7207
1003.173, 436.4902
1004.284, 398.8779
1005.396, 433.4863
1006.507, 368.2412
1007.618, 352.8896
1008.729, 359.5518
1009.839, 301.5957
1010.950, 297.2354
1012.060, 289.7451
1013.171, 255.7852
1014.281, 287.5547
1015.391, 281.3467
1016.500, 286.8955
1017.610, 371.7266
1018.719, 159.0527
1019.829, 171.9238
1020.938, 342.8164
1022.047, 345.4336
1023.156, 122.3652
1024.264, 241.7891
1025.373, 219.6318
1026.481, 385.6387
1027.589, 147.6875
1028.697, 229.7695
1029.805, 340.8906
1030.913, 198.0508
1032.020, 167.8340
1033.128, 323.0596
1034.235, 217.2861
1035.342, 261.6514
1036.449, 197.0156
1037.556, 184.4326
1038.663, 162.4258
1039.769, 165.0459
1040.875, 160.7305
1041.981, 168.2920
1043.087, 212.6133
1044.193, 146.3379
1045.299, 255.1143
1046.404, 243.9170
1047.510, 184.1641
1048.615, 299.0830
1049.720, 147.4971
1050.825, 296.2012
1051.930, 287.2100
1053.034, 159.2783
1054.139, 284.7393
1055.243, 187.8076
1056.347, 210.8955
1057.451, 131.9990
1058.555, 218.1211
1059.658, 97.26074
1060.762, 192.6602
1061.865, 198.8486
1062.968, 351.2373
1064.071, 212.4580
1065.174, 234.6963
1066.277, 271.9521
1067.380, 195.2217
1068.482, 157.5088
1069.584, 52.56348
1070.686, 329.8818
1071.788, 371.2158
1072.890, 214.5645
1073.992, 48.08887
1075.093, 274.4668
1076.194, 392.3984
1077.295, 222.8398
1078.396, 82.26367
1079.497, 366.7236
1080.598, 232.1758
1081.698, 289.6426
1082.799, 182.1230
1083.899, 289.6172
1084.999, 192.1250
1086.099, 285.6484
1087.199, 264.1836
1088.298, 238.7324
1089.398, 286.2939
1090.497, 210.6416
1091.596, 174.2295
1092.695, 316.8291
1093.794, 291.4414
1094.892, 302.0654
1095.991, 180.7021
1097.089, 316.2695
1098.187, 250.9307
1099.285, 341.6025
1100.383, 295.6465
1101.481, 196.3398
1102.579, 335.0439
1103.676, 308.7598
1104.773, 384.4863
1105.870, 296.2236
1106.967, 272.9717
1108.064, 255.7295
1109.161, 177.4980
1110.257, 254.2764
1111.353, 309.0654
1112.449, 153.8662
1113.545, 362.6758
1114.641, 214.4951
1115.737, 262.3242
1116.832, 382.1631
1117.928, 499.0117
1119.023, 344.4863
1120.118, 416.3525
1121.213, 362.2285
1122.308, 339.1133
1123.402, 257.0068
1124.497, 263.9102
1125.591, 422.8213
1126.685, 192.7422
1127.779, 294.6719
1128.873, 240.6094
1129.967, 167.5557
1131.060, 45.50977
1132.153, 61.81152
1133.247, 308.4414
1134.340, 79.42188
1135.433, 82.41016
1136.525, 115.4141
1137.618, 6.573242
1138.710, 37.44434
1139.802, 30.52734
1140.895, 56.50391
1141.987, 120.5068
1143.078, 72.52441
1144.170, 107.5488
1145.261, 75.58008
1146.353, 7.618164
1147.444, 59.33789
1148.535, 19.68848
1149.626, 88.27930
1150.716, 37.71973
1151.807, 111.7246
1152.897, 204.2637
1153.988, 29.65332
1155.078, 11.42383
1156.168, 56.50098
1157.257, 128.4014
1158.347, 22.30957
1159.436, 12.22168
1160.526, 40.14062
1161.615, 55.93652
1162.704, 48.03613
1163.793, 37.84473
1164.881, 20.73047
1165.970, 17.37988
1167.058, 107.5049
1168.147, 38.39062
1169.235, 25.71680
1170.323, 29.16211
1171.410, 5.044922
1172.498, 3.927734
1173.585, 25.18652
1174.673, 16.68359
1175.760, 11.55566
1176.847, 29.42969
1177.934, 87.69434
1179.020, 51.13672
1180.107, 3.2226998E-02
1181.193, 155.2051
1182.279, 95.46094
1183.365, 12.23145
1184.451, 101.0771
1185.537, 119.5596
1186.623, 74.19629
1187.708, 24.83301
1188.793, 49.47168
1189.878, 66.10938
1190.963, 10.25195
1192.048, 21.82324
1193.133, 11.62012
1194.217, 25.62207
1195.302, 29.24512
1196.386, 52.86816
1197.470, 69.48926
1198.554, 55.29102
1199.638, 67.74805
1200.721, 42.62207
1201.805, 105.3906
1202.888, 123.1084
1203.971, 39.12500
1205.054, 30.99316
1206.137, 7.969727
1207.219, 18.87012
1208.302, 83.91016
1209.384, 52.20020
1210.466, 48.48242
1211.548, 54.62305
1212.630, 104.0332
1213.712, 59.75195
1214.794, 44.39941
1215.875, 122.7744
1216.956, 149.2393
1218.037, 94.16309
1219.118, 146.3027
1220.199, 6.863281
1221.280, 35.53320
1222.360, 136.7314
1223.441, 86.34766
1224.521, 140.1826
1225.601, 154.3242
1226.681, 11.95410
1227.760, 135.5068
1228.840, 147.2754
1229.919, 19.71289
1230.999, 90.92285
1232.078, 142.3535
1233.157, 73.78223
1234.236, 145.2090
1235.314, 157.6377
1236.393, 55.06445
1237.471, 47.49414
1238.549, 119.9199
1239.627, 134.3447
1240.705, 104.7656
1241.783, 204.1855
1242.860, 146.6025
1243.938, 132.0166
1245.015, 200.4277
1246.092, 264.8369
1247.169, 155.2441
1248.246, 16.64844
1249.323, 173.0430
1250.399, 48.43848
1251.475, 69.83398
1252.552, 278.2266
1253.628, 153.6172
1254.703, 204.0049
1255.779, 168.3906
1256.855, 263.7734
1257.930, 80.15332
1259.005, 161.5391
1260.080, 233.9238
1261.155, 217.3047
1262.230, 388.6836
1263.305, 240.2529
1264.379, 184.6270
1265.454, 258.0469
1266.528, 235.4150
1267.602, 265.6553
1268.676, 220.4844
1269.750, 264.8496
1270.823, 329.8496
1271.897, 153.2031
1272.970, 262.5537
1274.043, 190.9014
1275.116, 294.2451
1276.189, 309.5879
1277.261, 437.1924
1278.334, 370.5283
1279.406, 409.4863
1280.478, 214.2773
1281.550, 334.3867
1282.622, 395.1992
1283.694, 422.6660
1284.766, 269.7100
1285.837, 346.7158
1286.908, 333.4580
1287.979, 316.3867
1289.050, 428.9551
1290.121, 302.6201
1291.192, 410.1172
1292.262, 423.4668
1293.333, 482.6982
1294.403, 448.2158
1295.473, 441.6475
1296.543, 529.8320
1297.613, 566.1143
1298.682, 519.2568
1299.752, 581.2061
1300.821, 451.5166
1301.890, 489.8721
1302.959, 599.2295
1304.028, 558.6426
1305.096, 543.7832
1306.165, 563.0732
1307.233, 591.2285
1308.301, 594.7559
1309.370, 622.0703
1310.437, 600.6533
1311.505, 553.9512
1312.573, 560.2041
1313.640, 528.0820
1314.708, 437.3691
1315.775, 743.6543
1316.842, 572.9404
1317.908, 648.2266
