##NAMES=Chloritoid
##RRUFFID=R050334
##IDEAL CHEMISTRY=Fe^2+^Al_2_OSiO_4_(OH)_2_
##LOCALITY=Selçuk, Mugla Province, Turkey
##OWNER=RRUFF
##SOURCE=George Rossman
##DESCRIPTION=Dark greenish-black foliated cleavage fragments
##STATUS=The identification of this mineral is confirmed by single-crystal X-ray diffraction and chemical analysis.
##URL=rruff.info/R050334
##MEASURED CHEMISTRY=(Fe^2+^_1.84_Mg_0.12_Mn_0.04_)_Σ=2_(Al_3.95_Fe^3+^_0.05_)_Σ=4_Si_2.00_O_10_(OH)_4_ ; H not measured but estimated by difference and stoichiometry
##PIN_ID=M00341
##ORIENTATION=Laser parallel to b* (0 1 0). Fiducial mark perpendicular to laser is parallel to -c [0 0 -1]
89.77700, 0.0000000E+00
91.01200, 9.145996
92.24600, 29.81250
93.48000, 69.08984
94.71400, 7.940918
95.94800, 96.08789
97.18200, 146.9917
98.41600, 192.5830
99.64900, 275.7544
100.8830, 570.1035
102.1160, 1171.585
103.3490, 1921.996
104.5820, 2803.800
105.8150, 2918.475
107.0470, 2884.010
108.2800, 3263.370
109.5120, 2393.282
110.7440, 2615.217
111.9760, 3040.525
113.2080, 3604.239
114.4400, 3386.780
115.6710, 3072.536
116.9030, 2522.653
118.1340, 1931.500
119.3650, 1440.145
120.5960, 1159.825
121.8270, 833.1274
123.0580, 487.4111
124.2880, 280.9036
125.5190, 391.6143
126.7490, 610.0742
127.9790, 512.3408
129.2090, 333.7896
130.4390, 290.5840
131.6680, 193.6570
132.8980, 220.5420
134.1270, 297.5566
135.3560, 454.6912
136.5850, 515.9351
137.8140, 514.2786
139.0430, 296.7139
140.2710, 184.2334
141.5000, 134.8330
142.7280, 210.5088
143.9560, 177.2476
145.1840, 123.0327
146.4120, 39.85986
147.6390, 101.7275
148.8670, 117.5923
150.0940, 121.0068
151.3210, 126.3750
152.5490, 120.5664
153.7750, 80.61035
155.0020, 43.31396
156.2290, 105.1138
157.4550, 138.3584
158.6810, 161.2358
159.9080, 4.186035
161.1340, 88.61230
162.3590, 149.0049
163.5850, 269.3813
164.8110, 123.7886
166.0360, 148.2163
167.2610, 213.6655
168.4860, 291.1416
169.7110, 181.6436
170.9360, 149.1670
172.1610, 140.7104
173.3850, 157.2690
174.6100, 227.8394
175.8340, 185.4185
177.0580, 302.0054
178.2820, 169.5962
179.5050, 189.1904
180.7290, 240.7788
181.9520, 283.3496
183.1760, 247.9053
184.3990, 379.4458
185.6220, 424.9722
186.8450, 542.4868
188.0670, 548.9912
189.2900, 683.4834
190.5120, 732.9697
191.7340, 955.4868
192.9560, 1023.037
194.1780, 1227.584
195.4000, 1366.119
196.6220, 1634.526
197.8430, 1974.675
199.0640, 2425.728
200.2860, 2715.781
201.5070, 2675.839
202.7270, 2571.901
203.9480, 2607.969
205.1690, 2739.041
206.3890, 2860.119
207.6090, 3199.203
208.8290, 3353.291
210.0490, 3533.386
211.2690, 3599.485
212.4890, 3462.592
213.7080, 3356.702
214.9280, 3102.819
216.1470, 2983.940
217.3660, 2787.067
218.5850, 2594.200
219.8030, 2383.339
221.0220, 2239.482
222.2400, 2075.102
223.4590, 1864.238
224.6770, 1757.273
225.8950, 1688.630
227.1120, 1560.329
228.3300, 1532.242
229.5480, 1484.699
230.7650, 1577.485
231.9820, 1563.061
233.1990, 1578.817
234.4160, 1723.404
235.6330, 1965.999
236.8490, 2211.070
238.0660, 2770.719
239.2820, 3404.194
240.4980, 4048.801
241.7140, 4533.766
242.9300, 5293.405
244.1460, 5676.042
245.3610, 6389.668
246.5770, 7295.274
247.7920, 8156.854
249.0070, 8688.400
250.2220, 8807.921
251.4370, 8862.410
252.6510, 8009.869
253.8660, 6853.266
255.0800, 5818.593
256.2940, 5344.863
257.5080, 4867.077
258.7220, 3299.249
259.9360, 2237.384
261.1490, 1738.488
262.3630, 1579.555
263.5760, 1264.597
264.7890, 1156.579
266.0020, 1083.529
267.2150, 1160.456
268.4270, 1385.375
269.6400, 1527.995
270.8520, 1777.191
272.0640, 2152.356
273.2760, 2467.539
274.4880, 2774.785
275.7000, 3210.995
276.9120, 3464.220
278.1230, 4216.302
279.3340, 4265.699
280.5450, 4841.791
281.7560, 4372.070
282.9670, 4284.360
284.1780, 3914.664
285.3880, 3527.978
286.5980, 2900.201
287.8090, 2477.303
289.0190, 2058.812
290.2290, 1819.299
291.4380, 1396.640
292.6480, 1347.525
293.8570, 1221.595
295.0670, 1045.291
296.2760, 983.4160
297.4850, 921.6338
298.6930, 913.8130
299.9020, 948.7031
301.1110, 951.7871
302.3190, 962.3013
303.5270, 977.3169
304.7350, 995.1738
305.9430, 957.4443
307.1510, 1007.513
308.3580, 977.8887
309.5660, 1033.351
310.7730, 967.6357
311.9800, 1029.031
313.1870, 1018.501
314.3940, 896.9736
315.6010, 776.4492
316.8070, 696.8745
318.0130, 740.2710
319.2200, 772.7432
320.4260, 839.2266
321.6310, 1031.712
322.8370, 1200.199
324.0430, 1400.688
325.2480, 1596.179
326.4540, 1793.671
327.6590, 2021.166
328.8640, 2244.663
330.0680, 2468.161
331.2730, 2740.661
332.4780, 2832.164
333.6820, 2794.669
334.8860, 2671.176
336.0900, 2309.685
337.2940, 1873.195
338.4980, 1550.708
339.7010, 1298.252
340.9050, 958.7402
342.1080, 934.2588
343.3110, 735.7808
344.5140, 683.3076
345.7170, 689.8369
346.9200, 640.3711
348.1220, 474.9092
349.3240, 279.4502
350.5270, 196.9951
351.7290, 71.45654
352.9310, 60.92432
354.1320, 118.4072
355.3340, 126.9199
356.5350, 69.46387
357.7370, 106.0210
358.9380, 94.60303
360.1390, 30.20508
361.3400, 134.8125
362.5400, 11.43555
363.7410, 104.0566
364.9410, 50.70312
366.1410, 52.34619
367.3410, 1.041016
368.5410, 39.19092
369.7410, 53.09717
370.9400, 72.57471
372.1400, 76.72900
373.3390, 66.84863
374.5380, 28.96240
375.7370, 148.0815
376.9360, 123.2061
378.1350, 147.3374
379.3330, 367.4736
380.5310, 327.6172
381.7300, 477.7573
382.9280, 538.8955
384.1260, 552.0327
385.3230, 590.1689
386.5210, 757.3057
387.7180, 699.4404
388.9160, 729.5732
390.1130, 737.7041
391.3100, 679.8335
392.5060, 689.4360
393.7030, 630.0923
394.9000, 615.2275
396.0960, 594.3857
397.2920, 492.5654
398.4880, 587.7622
399.6840, 488.9717
400.8800, 369.2202
402.0750, 394.4727
403.2710, 223.7563
404.4660, 174.0781
405.6610, 196.4233
406.8560, 75.81836
408.0510, 78.22607
409.2450, 63.66943
410.4400, 153.1187
411.6340, 45.57178
412.8280, 68.05322
414.0220, 65.57568
415.2160, 90.11084
416.4100, 162.6519
417.6030, 36.19678
418.7970, 190.7441
419.9900, 133.2939
421.1830, 81.84766
422.3760, 124.4053
423.5690, 168.9653
424.7610, 94.52783
425.9540, 173.0923
427.1460, 112.6592
428.3380, 86.22754
429.5300, 47.79736
430.7220, 32.36914
431.9140, 7.944336
433.1050, 0.5180660
434.2970, 3.908691
435.4880, 123.3364
436.6790, 11.18164
437.8700, 38.29785
439.0610, 75.20752
440.2510, 33.71533
441.4420, 41.22363
442.6320, 102.7339
443.8220, 70.24707
445.0120, 130.7842
446.2020, 87.36035
447.3910, 157.9849
448.5810, 247.6631
449.7700, 263.3521
450.9600, 283.0420
452.1490, 353.7324
453.3370, 381.4224
454.5260, 477.1138
455.7150, 462.8047
456.9030, 420.4951
458.0910, 484.1855
459.2800, 512.8745
460.4670, 520.5635
461.6550, 616.2515
462.8430, 702.9390
464.0300, 784.6255
465.2180, 841.3110
466.4050, 1085.996
467.5920, 1185.680
468.7790, 1275.361
469.9650, 1509.042
471.1520, 1634.722
472.3380, 1831.399
473.5250, 1834.076
474.7110, 2006.750
475.8970, 2061.423
477.0820, 2223.094
478.2680, 2152.763
479.4540, 2270.430
480.6390, 2315.094
481.8240, 2333.756
483.0090, 2283.417
484.1940, 2401.074
485.3780, 2468.729
486.5630, 2640.382
487.7470, 2896.032
488.9320, 3263.679
490.1160, 3499.322
491.3000, 3813.964
492.4830, 4000.602
493.6670, 4363.325
494.8500, 4622.322
496.0340, 4953.996
497.2170, 4996.076
498.4000, 5237.630
499.5820, 5227.656
500.7650, 5241.877
501.9480, 5157.186
503.1300, 5216.903
504.3120, 5097.237
505.4940, 5271.565
506.6760, 5261.788
507.8580, 5457.555
509.0390, 5584.619
510.2210, 5628.922
511.4020, 5715.942
512.5830, 5728.893
513.7640, 5702.284
514.9450, 5453.982
516.1250, 5549.233
517.3060, 5683.906
518.4860, 6225.659
519.6660, 6864.416
520.8460, 7642.181
522.0260, 8470.959
523.2060, 9504.732
524.3850, 10630.52
525.5650, 11771.30
526.7440, 12840.08
527.9230, 13831.86
529.1020, 14575.63
530.2810, 14621.40
531.4590, 14420.16
532.6380, 13729.98
533.8160, 12933.88
534.9940, 12070.36
536.1720, 11612.63
537.3500, 11463.77
538.5270, 12162.73
539.7050, 13485.69
540.8820, 16133.28
542.0590, 19539.28
543.2360, 24062.06
544.4130, 28009.76
545.5900, 31593.54
546.7660, 35394.59
547.9430, 40057.92
549.1190, 44603.38
550.2950, 47959.06
551.4710, 49992.13
552.6470, 48684.43
553.8220, 43941.63
554.9980, 36442.46
556.1730, 27874.02
557.3480, 19893.05
558.5230, 14111.82
559.6980, 9916.344
560.8730, 7618.909
562.0470, 5912.696
563.2220, 4796.236
564.3960, 3747.764
565.5700, 3213.279
566.7440, 2702.781
567.9170, 2415.271
569.0910, 2151.748
570.2640, 2012.212
571.4380, 1836.199
572.6110, 1772.040
573.7840, 1701.302
574.9570, 1702.488
576.1290, 1831.585
577.3020, 1858.021
578.4740, 2243.246
579.6460, 2461.995
580.8180, 3167.339
581.9900, 4239.620
583.1620, 6145.919
584.3330, 9060.223
585.5040, 12460.52
586.6760, 15601.79
587.8470, 17842.05
589.0180, 20888.30
590.1880, 25025.54
591.3590, 29799.75
592.5290, 33244.96
593.7000, 35785.14
594.8700, 34464.32
596.0400, 30233.47
597.2090, 23425.62
598.3790, 16333.75
599.5490, 10862.86
600.7180, 7412.959
601.8870, 5225.041
603.0560, 3992.106
604.2250, 3304.156
605.3940, 2714.190
606.5620, 2313.208
607.7300, 2039.210
608.8990, 1841.197
610.0670, 1587.167
611.2350, 1347.121
612.4020, 1217.059
613.5700, 1005.980
614.7370, 933.8853
615.9050, 832.7744
617.0720, 694.6460
618.2390, 728.5020
619.4060, 593.4302
620.5720, 533.1636
621.7390, 452.9692
622.9050, 377.7583
624.0710, 364.5303
625.2370, 347.2856
626.4030, 349.0239
627.5690, 301.7451
628.7340, 159.4492
629.9000, 313.1367
631.0650, 131.8066
632.2300, 222.4590
633.3950, 82.38721
634.5600, 103.0039
635.7240, 162.1006
636.8890, 205.1343
638.0530, 108.8472
639.2170, 18.50195
640.3810, 51.70947
641.5450, 27.36719
642.7080, 94.05176
643.8720, 40.51562
645.0350, 41.78906
646.1980, 86.27490
647.3610, 19.00488
648.5240, 49.05176
649.6870, 120.6548
650.8490, 0.4829100
652.0120, 76.99805
653.1740, 55.15186
654.3360, 43.45557
655.4980, 25.88623
656.6600, 108.2314
657.8210, 162.7290
658.9830, 193.2891
660.1440, 226.0205
661.3050, 317.1304
662.4660, 262.4697
663.6270, 261.8989
664.7870, 362.2886
665.9480, 297.4663
667.1080, 337.1475
668.2680, 484.7690
669.4280, 249.8882
670.5880, 363.9858
671.7480, 120.0625
672.9070, 108.1182
674.0670, 67.15039
675.2260, 37.15479
676.3850, 33.87695
677.5440, 30.97656
678.7030, 15.14404
679.8610, 6.629395
681.0200, 95.64551
682.1780, 50.97852
683.3360, 59.42920
684.4940, 92.91943
685.6520, 33.50977
686.8090, 134.1685
687.9670, 7.051758
689.1240, 76.77441
690.2810, 37.30762
691.4380, 63.35498
692.5950, 54.62451
693.7520, 96.68213
694.9080, 21.15967
696.0650, 70.96143
697.2210, 85.73926
698.3770, 182.4932
699.5330, 144.2280
700.6880, 77.94189
701.8440, 257.6318
702.9990, 121.3032
704.1550, 245.9536
705.3100, 183.5840
706.4650, 346.1943
707.6190, 298.7847
708.7740, 503.3555
709.9290, 608.9072
711.0830, 554.4390
712.2370, 808.9517
713.3910, 871.4463
714.5450, 1002.923
715.6980, 1140.382
716.8520, 1304.854
718.0050, 1518.161
719.1580, 1756.749
720.3110, 1952.173
721.4640, 2222.578
722.6170, 2365.966
723.7700, 2702.334
724.9220, 3143.687
726.0740, 3337.020
727.2260, 3726.334
728.3780, 4028.631
729.5300, 4257.910
730.6810, 4361.173
731.8330, 4616.417
732.9840, 4517.645
734.1350, 4641.855
735.2860, 4624.048
736.4370, 4474.225
737.5880, 4349.385
738.7380, 4177.088
739.8880, 3884.654
741.0390, 3699.766
742.1890, 3405.859
743.3380, 3036.938
744.4880, 2766.000
745.6380, 2356.047
746.7870, 2085.078
747.9360, 1869.096
749.0850, 1511.097
750.2340, 1290.083
751.3830, 1282.053
752.5310, 1060.010
753.6800, 931.9517
754.8280, 810.8799
755.9760, 732.7925
757.1240, 549.6914
758.2720, 491.5767
759.4190, 366.4487
760.5670, 387.3066
761.7140, 300.1514
762.8610, 254.9829
764.0080, 276.8013
765.1550, 240.6069
766.3020, 188.4004
767.4480, 116.1812
768.5950, 182.9497
769.7410, 54.70557
770.8870, 15.45020
772.0330, 131.0938
773.1780, 9.188965
774.3240, 10.50146
775.4690, 20.17529
776.6140, 34.83594
777.7590, 5.628906
778.9040, 29.92920
780.0490, 4.138672
781.1940, 18.57861
782.3380, 36.04541
783.4820, 57.21143
784.6260, 78.82422
785.7700, 69.65137
786.9140, 79.89697
788.0580, 14.58203
789.2010, 16.29883
790.3450, 26.70410
791.4880, 49.08887
792.6310, 34.26172
793.7730, 12.89648
794.9160, 37.98828
796.0590, 20.81006
797.2010, 44.50977
798.3430, 52.58545
799.4850, 19.42578
800.6270, 42.34668
801.7690, 0.7055660
802.9100, 47.75000
804.0520, 56.00391
805.1930, 80.03857
806.3340, 148.0679
807.4750, 128.0933
808.6160, 101.1143
809.7560, 144.3794
810.8970, 135.2490
812.0370, 234.5332
813.1770, 238.0161
814.3170, 246.7290
815.4570, 316.6064
816.5960, 242.3828
817.7360, 332.5166
818.8750, 326.2441
820.0140, 405.1719
821.1530, 361.1836
822.2920, 565.1030
823.4310, 517.7627
824.5690, 671.1187
825.7070, 787.3442
826.8460, 847.3394
827.9840, 917.9512
829.1220, 1013.316
830.2590, 1164.770
831.3970, 1346.610
832.5340, 1430.691
833.6710, 1655.315
834.8080, 1763.194
835.9450, 1906.262
837.0820, 1913.338
838.2190, 2314.188
839.3550, 2334.281
840.4910, 2551.383
841.6270, 2522.495
842.7630, 2728.616
843.8990, 2724.747
845.0350, 3059.889
846.1700, 3128.040
847.3060, 3304.202
848.4410, 3441.376
849.5760, 3560.561
850.7100, 3892.757
851.8450, 3990.965
852.9800, 4310.185
854.1140, 4509.418
855.2480, 4843.662
856.3820, 5102.921
857.5160, 5402.191
858.6500, 5741.474
859.7830, 6161.771
860.9170, 6752.082
862.0500, 7245.408
863.1830, 8025.749
864.3160, 8877.104
865.4480, 9761.473
866.5810, 10836.86
867.7130, 12128.26
868.8460, 13720.67
869.9780, 15318.11
871.1100, 16857.55
872.2410, 18596.02
873.3730, 20152.50
874.5050, 21789.00
875.6360, 22705.52
876.7670, 23539.05
877.8980, 23908.61
879.0290, 23855.17
880.1590, 22984.76
881.2900, 21583.37
882.4200, 19754.99
883.5500, 17769.64
884.6800, 15895.31
885.8100, 13904.99
886.9400, 12115.69
888.0690, 10661.42
889.1990, 9290.166
890.3280, 8001.933
891.4570, 7130.720
892.5860, 6480.527
893.7140, 5949.358
894.8430, 5378.209
895.9710, 5192.083
897.1000, 5043.979
898.2280, 4595.898
899.3560, 4723.841
900.4830, 4762.807
901.6110, 4615.797
902.7380, 4543.810
903.8660, 4302.847
904.9930, 4252.908
906.1200, 3979.995
907.2460, 3712.813
908.3730, 3379.949
909.5000, 3133.635
910.6260, 2762.409
911.7520, 2413.546
912.8780, 2211.802
914.0040, 1890.529
915.1290, 1792.843
916.2550, 1644.163
917.3800, 1357.752
918.5050, 1236.498
919.6300, 911.0742
920.7550, 839.4551
921.8800, 716.5098
923.0040, 702.0444
924.1290, 558.3662
925.2530, 458.9985
926.3770, 463.9785
927.5010, 402.8115
928.6250, 191.5259
929.7480, 162.3281
930.8720, 157.9907
931.9950, 86.61523
933.1180, 162.0840
934.2410, 85.18652
935.3640, 8.093750
936.4860, 39.92285
937.6090, 27.80420
938.7310, 83.08691
939.8530, 32.05664
940.9750, 50.23877
942.0970, 12.47070
943.2180, 46.73975
944.3400, 32.95703
945.4610, 21.37891
946.5820, 81.75098
947.7030, 30.16406
948.8240, 25.36475
949.9450, 146.1733
951.0650, 81.77148
952.1860, 87.42334
953.3060, 201.1255
954.4260, 196.9033
955.5460, 201.7266
956.6650, 282.6235
957.7850, 321.5962
958.9040, 278.6299
960.0230, 423.7500
961.1420, 395.9204
962.2610, 309.1626
963.3800, 461.4487
964.4990, 239.7759
965.6170, 561.1694
966.7350, 426.6401
967.8530, 514.1582
968.9710, 336.7207
970.0890, 507.3232
971.2070, 310.9634
972.3240, 390.6416
973.4410, 407.3599
974.5580, 236.1157
975.6750, 374.9097
976.7920, 298.7427
977.9090, 208.6138
979.0250, 300.5229
980.1410, 229.4785
981.2580, 291.4893
982.3740, 277.5386
983.4890, 288.6284
984.6050, 343.7563
985.7200, 331.9326
986.8360, 256.1465
987.9510, 206.4062
989.0660, 211.0649
990.1810, 239.0503
991.2950, 201.4390
992.4100, 304.8682
993.5240, 274.3472
994.6390, 366.8652
995.7530, 445.4263
996.8660, 310.0264
997.9800, 297.6729
999.0940, 287.3706
1000.207, 347.1074
1001.320, 274.8857
1002.433, 291.7036
1003.546, 403.5615
1004.659, 245.4585
1005.772, 282.3950
1006.884, 334.3706
1007.996, 321.3857
1009.108, 298.4409
1010.220, 219.5347
1011.332, 318.6714
1012.444, 333.8477
1013.555, 245.0679
1014.666, 404.3281
1015.777, 254.6313
1016.888, 339.9746
1017.999, 325.3564
1019.110, 252.8057
1020.220, 347.2949
1021.331, 283.8232
1022.441, 333.3911
1023.551, 273.9990
1024.661, 211.6450
1025.770, 266.3325
1026.880, 311.0640
1027.989, 455.8359
1029.098, 309.6470
1030.207, 325.4990
1031.316, 283.3896
1032.425, 403.7144
1033.533, 331.6953
1034.642, 352.7485
1035.750, 333.8511
1036.858, 398.0015
1037.966, 350.1909
1039.073, 337.4194
1040.181, 294.6875
1041.288, 300.8555
1042.396, 417.3423
1043.503, 344.7354
1044.610, 399.1685
1045.716, 483.3696
1046.823, 481.8813
1047.929, 496.4360
1049.036, 564.0293
1050.142, 522.6650
1051.248, 500.4033
1052.353, 503.1455
1053.459, 503.9468
1054.564, 655.1230
1055.670, 500.6982
1056.775, 554.6968
1057.880, 629.9678
1058.985, 523.0479
1060.089, 553.1729
1061.194, 695.3467
1062.298, 630.5659
1063.402, 748.8228
1064.506, 622.0161
1065.610, 757.2446
1066.713, 716.6353
1067.817, 652.1289
1068.920, 853.6074
1070.023, 792.1304
1071.126, 703.3696
1072.229, 833.3896
1073.332, 865.9922
1074.435, 750.1016
1075.537, 1023.139
1076.639, 961.8882
1077.741, 1080.368
1078.843, 1055.182
1079.945, 1151.500
1081.046, 1215.768
1082.148, 1309.066
1083.249, 1597.672
1084.350, 1559.645
1085.451, 1758.648
1086.551, 1921.684
1087.652, 1919.374
1088.752, 1956.945
1089.853, 2005.071
1090.953, 2052.226
1092.053, 1944.410
1093.152, 1963.623
1094.252, 1819.863
1095.351, 1619.132
1096.451, 1464.428
1097.550, 1354.751
1098.649, 1134.102
1099.748, 1144.490
1100.846, 1001.104
1101.945, 797.5547
1103.043, 712.0308
1104.141, 627.5332
1105.239, 583.0601
1106.337, 504.9766
1107.434, 484.1968
1108.532, 396.8027
1109.629, 374.4326
1110.726, 358.0874
1111.823, 311.3804
1112.920, 329.8271
1114.017, 445.5566
1115.113, 338.4961
1116.210, 435.2720
1117.306, 355.0459
1118.402, 387.8691
1119.498, 353.9697
1120.593, 481.8384
1121.689, 526.3638
1122.784, 441.1055
1123.879, 302.4351
1124.974, 421.6167
1126.069, 319.6001
1127.164, 305.2798
1128.259, 254.3027
1129.353, 190.2329
1130.447, 199.7959
1131.541, 99.74121
1132.635, 156.2285
1133.729, 161.3599
1134.822, 59.51025
1135.916, 176.6797
1137.009, 266.8687
1138.102, 175.0757
1139.195, 256.3003
1140.288, 126.5430
1141.380, 59.80176
1142.473, 77.63965
1143.565, 32.93359
1144.657, 150.2798
1145.749, 74.60596
1146.841, 105.8618
1147.932, 86.21973
1149.024, 79.59180
1150.115, 127.3721
1151.206, 174.7754
1152.297, 132.3003
1153.388, 112.7329
1154.479, 46.17920
1155.569, 139.6387
1156.659, 38.40137
1157.750, 11.91895
1158.839, 99.78613
1159.929, 63.29639
1161.019, 51.11182
1162.108, 4.646484
1163.198, 20.19922
1164.287, 15.56543
1165.376, 14.30322
1166.465, 29.76367
1167.553, 82.49219
1168.642, 39.09180
1169.730, 107.9297
1170.818, 94.30859
1171.906, 34.21143
1172.994, 84.84619
1174.082, 36.48926
1175.170, 6.140625
1176.257, 94.20068
1177.344, 45.72168
1178.431, 95.84619
1179.518, 185.4937
1180.605, 17.14697
1181.691, 0.8720700
1182.778, 55.79297
1183.864, 16.52979
1184.950, 10.79443
1186.036, 19.07178
1187.122, 31.60449
1188.207, 6.447266
1189.292, 16.59131
1190.378, 15.06836
1191.463, 43.50684
1192.548, 7.086914
1193.632, 41.43652
1194.717, 63.86768
1195.801, 21.19482
1196.886, 34.47070
1197.970, 101.8633
1199.054, 13.76172
1200.137, 162.3862
1201.221, 13.98828
1202.305, 54.17236
1203.388, 19.57129
1204.471, 67.61475
1205.554, 4.053711
1206.637, 19.32178
1207.719, 112.8770
1208.802, 59.43262
1209.884, 5.012207
1210.966, 61.46436
1212.048, 39.94824
1213.130, 35.54590
1214.212, 18.03809
1215.293, 82.52783
1216.374, 55.36084
1217.456, 5.053711
1218.536, 21.52637
1219.617, 53.93066
1220.698, 31.38428
1221.778, 149.8496
1222.859, 103.2944
1223.939, 16.73535
1225.019, 19.17139
1226.099, 134.6025
1227.178, 103.0288
1228.258, 39.49658
1229.337, 119.1748
1230.417, 9.415039
1231.496, 46.31787
1232.574, 105.7046
1233.653, 113.0854
1234.732, 207.4600
1235.810, 116.3154
1236.888, 67.67578
1237.966, 103.0288
1239.044, 40.37451
1240.122, 109.7129
1241.199, 10.64502
1242.277, 46.33740
1243.354, 146.1880
1244.431, 22.44727
1245.508, 127.6943
1246.585, 13.52393
1247.661, 93.68848
1248.738, 4.3950002E-03
1249.814, 109.1782
1250.890, 5.260742
1251.966, 10.38330
1253.042, 22.51367
1254.117, 13.36963
1255.193, 69.71777
1256.268, 16.79395
1257.343, 109.8530
1258.418, 0.8764650
1259.493, 17.37646
1260.567, 58.66992
1261.642, 29.65039
1262.716, 68.55322
1263.790, 74.50635
