##NAMES=Chloritoid
##RRUFFID=R050334
##IDEAL CHEMISTRY=Fe^2+^Al_2_OSiO_4_(OH)_2_
##LOCALITY=Selçuk, Mugla Province, Turkey
##OWNER=RRUFF
##SOURCE=George Rossman
##DESCRIPTION=Dark greenish-black foliated cleavage fragments
##STATUS=The identification of this mineral is confirmed by single-crystal X-ray diffraction and chemical analysis.
##URL=rruff.info/R050334
##MEASURED CHEMISTRY=(Fe^2+^_1.84_Mg_0.12_Mn_0.04_)_Σ=2_(Al_3.95_Fe^3+^_0.05_)_Σ=4_Si_2.00_O_10_(OH)_4_ ; H not measured but estimated by difference and stoichiometry
##PIN_ID=M01684
##ORIENTATION=Laser parallel to c* (0 0 1). Fiducial mark perpendicular to laser is parallel to a [1 0 0]
147.4850, 0.0000000E+00
148.7160, 1.635254
149.9470, 24.45996
151.1780, 161.9253
152.4080, 358.6592
153.6380, 107.4321
154.8690, 161.5522
156.0980, 68.46729
157.3280, 114.7573
158.5580, 10.20312
159.7870, 22.82568
161.0170, 206.3486
162.2460, 259.5664
163.4750, 226.3364
164.7030, 216.5474
165.9320, 247.1084
167.1600, 298.9478
168.3890, 394.2236
169.6170, 424.5503
170.8450, 483.8726
172.0730, 412.1792
173.3000, 406.3647
174.5280, 368.5723
175.7550, 524.8569
176.9820, 373.2002
178.2090, 417.5747
179.4350, 340.9595
180.6620, 280.3403
181.8880, 288.7056
183.1150, 349.0469
184.3410, 297.3594
185.5670, 425.6392
186.7920, 520.8857
188.0180, 489.0430
189.2430, 614.3848
190.4690, 616.7427
191.6940, 819.6284
192.9180, 782.5029
194.1430, 924.8672
195.3680, 855.9897
196.5920, 934.1387
197.8160, 1052.540
199.0400, 1084.610
200.2640, 1146.498
201.4880, 1159.211
202.7110, 1248.462
203.9350, 1099.922
205.1580, 1067.253
206.3810, 943.4600
207.6040, 944.5508
208.8270, 972.5308
210.0490, 841.4092
211.2710, 831.1929
212.4940, 770.8867
213.7160, 714.4980
214.9370, 739.0317
216.1590, 579.4922
217.3810, 455.8848
218.6020, 392.2153
219.8230, 356.4868
221.0440, 365.7124
222.2650, 299.8926
223.4860, 202.0449
224.7060, 216.1768
225.9260, 115.2910
227.1470, 78.39209
228.3670, 7.517578
229.5860, 73.56348
230.8060, 29.36328
232.0260, 4.703125
233.2450, 36.23633
234.4640, 60.81885
235.6830, 89.13135
236.9020, 30.08691
238.1200, 28.04736
239.3390, 36.01123
240.5570, 2.679199
241.7750, 76.04688
242.9930, 9.068359
244.2110, 124.0820
245.4290, 101.0889
246.6460, 203.7812
247.8630, 122.8745
249.0810, 315.1284
250.2980, 224.0815
251.5140, 219.4097
252.7310, 169.0425
253.9470, 85.64795
255.1640, 191.6416
256.3800, 91.43555
257.5960, 282.9502
258.8120, 733.6621
260.0270, 508.4927
261.2430, 539.6904
262.4580, 360.9985
263.6730, 268.7798
264.8880, 246.5410
266.1030, 334.2690
267.3170, 306.9878
268.5320, 355.7222
269.7460, 432.4727
270.9600, 716.2388
272.1740, 810.0181
273.3880, 952.8086
274.6010, 1381.605
275.8150, 1804.410
277.0280, 2251.223
278.2410, 3062.045
279.4540, 3585.875
280.6670, 3927.716
281.8790, 3961.568
283.0920, 3637.432
284.3040, 3044.308
285.5160, 2313.198
286.7280, 1810.103
287.9400, 1374.021
289.1510, 1074.953
290.3630, 852.8994
291.5740, 616.8604
292.7850, 444.8354
293.9960, 341.8564
295.2070, 369.6323
296.4170, 371.1602
297.6280, 300.8418
298.8380, 259.6030
300.0480, 299.4282
301.2580, 357.3071
302.4680, 316.2310
303.6770, 277.1924
304.8870, 332.1870
306.0960, 306.2090
307.3050, 313.2529
308.5140, 288.3169
309.7230, 339.3979
310.9310, 209.4937
312.1400, 289.6021
313.3480, 217.1753
314.5560, 225.8521
315.7640, 146.9873
316.9720, 75.12207
318.1790, 92.25781
319.3870, 147.3940
320.5940, 105.5312
321.8010, 185.6685
323.0080, 174.8062
324.2150, 244.9434
325.4210, 282.0815
326.6280, 397.2188
327.8340, 485.3569
329.0400, 528.4951
330.2460, 842.6338
331.4510, 922.7725
332.6570, 920.9131
333.8620, 844.0479
335.0680, 709.1641
336.2730, 477.2573
337.4780, 262.2822
338.6820, 180.2764
339.8870, 237.2495
341.0910, 31.22949
342.2950, 33.21484
343.5000, 156.2056
344.7030, 39.80225
345.9070, 24.17383
347.1110, 78.85498
348.3140, 105.9131
349.5170, 7.3239999E-03
350.7200, 78.08057
351.9230, 152.2393
353.1260, 90.41650
354.3290, 82.62256
355.5310, 70.85596
356.7330, 88.11279
357.9350, 127.3979
359.1370, 59.72070
360.3390, 20.06201
361.5400, 59.41211
362.7420, 74.21924
363.9430, 69.85205
365.1440, 13.51367
366.3450, 47.11523
367.5460, 41.25391
368.7460, 21.81982
369.9470, 45.99219
371.1470, 97.61279
372.3470, 146.2412
373.5470, 104.6084
374.7460, 170.2520
375.9460, 157.6919
377.1450, 143.3643
378.3450, 108.4912
379.5440, 156.2100
380.7430, 281.0391
381.9410, 245.5420
383.1400, 344.1631
384.3380, 439.3633
385.5370, 262.0137
386.7350, 419.7715
387.9320, 512.5327
389.1300, 468.2969
390.3280, 533.0688
391.5250, 565.8218
392.7220, 516.5430
393.9190, 612.2173
395.1160, 605.7988
396.3130, 647.3149
397.5100, 610.7705
398.7060, 724.1689
399.9020, 723.5664
401.0980, 782.9736
402.2940, 814.4111
403.4900, 903.7271
404.6860, 1043.303
405.8810, 1147.774
407.0760, 1286.289
408.2710, 1493.831
409.4660, 1821.382
410.6610, 1990.955
411.8550, 2371.562
413.0500, 2560.192
414.2440, 2737.851
415.4380, 2536.544
416.6320, 2267.271
417.8260, 1970.017
419.0190, 1670.811
420.2130, 1547.622
421.4060, 1350.457
422.5990, 1335.304
423.7920, 1243.160
424.9850, 1107.025
426.1770, 1122.898
427.3700, 992.7812
428.5620, 896.6729
429.7540, 786.5732
430.9460, 806.4819
432.1380, 680.3994
433.3290, 655.3247
434.5210, 751.2603
435.7120, 740.2041
436.9030, 630.1553
438.0940, 604.1113
439.2850, 609.0762
440.4750, 564.0464
441.6660, 745.0229
442.8560, 730.0039
444.0460, 737.9893
445.2360, 644.9795
446.4260, 755.9727
447.6160, 676.9707
448.8050, 773.9717
449.9940, 809.9775
451.1830, 800.9849
452.3720, 777.9966
453.5610, 923.0117
454.7500, 888.0293
455.9380, 960.0498
457.1260, 933.0732
458.3150, 996.1001
459.5020, 1004.129
460.6900, 1051.691
461.8780, 1095.663
463.0650, 1174.233
464.2530, 1182.273
465.4400, 1265.317
466.6270, 1305.362
467.8130, 1304.410
469.0000, 1356.755
470.1870, 1416.515
471.3730, 1398.570
472.5590, 1400.629
473.7450, 1404.690
474.9310, 1622.753
476.1160, 1547.820
477.3020, 1547.888
478.4870, 1533.959
479.6720, 1347.033
480.8570, 1557.109
482.0420, 1497.188
483.2270, 1655.271
484.4110, 1439.356
485.5960, 1461.444
486.7800, 1661.535
487.9640, 1808.431
489.1480, 1887.531
490.3310, 1985.001
491.5150, 2167.824
492.6980, 2585.309
493.8810, 2884.908
495.0640, 3344.870
496.2470, 3709.729
497.4300, 3920.097
498.6120, 3839.224
499.7950, 3533.288
500.9770, 3223.919
502.1590, 2835.821
503.3410, 2575.236
504.5220, 2630.206
505.7040, 2445.431
506.8850, 2253.663
508.0660, 2037.615
509.2470, 1931.868
510.4280, 1740.157
511.6090, 1669.582
512.7890, 1548.132
513.9700, 1540.463
515.1500, 1494.803
516.3300, 1414.967
517.5100, 1354.623
518.6900, 1350.381
519.8690, 1305.372
521.0490, 1360.751
522.2280, 1411.333
523.4070, 1435.742
524.5860, 1541.190
525.7640, 1772.199
526.9430, 1842.685
528.1210, 1971.126
529.3000, 2052.570
530.4780, 2077.019
531.6560, 1873.021
532.8330, 2047.474
534.0110, 1367.930
535.1880, 1400.389
536.3650, 1250.852
537.5430, 1116.925
538.7190, 1092.396
539.8960, 1047.456
541.0730, 1042.117
542.2490, 991.1094
543.4250, 1091.360
544.6020, 1130.372
545.7780, 1172.338
546.9530, 1501.145
548.1290, 1690.605
549.3040, 2275.947
550.4800, 2359.451
551.6550, 2500.338
552.8300, 2435.453
554.0040, 2127.087
555.1790, 1623.629
556.3540, 1330.960
557.5280, 1168.137
558.7020, 1091.081
559.8760, 861.9688
561.0500, 913.1763
562.2230, 733.7412
563.3970, 776.7422
564.5700, 679.2402
565.7430, 761.7358
566.9160, 692.2295
568.0890, 770.7212
569.2620, 706.2100
570.4340, 753.6968
571.6070, 825.1812
572.7790, 799.6621
573.9510, 941.1406
575.1230, 1046.746
576.2940, 1147.219
577.4660, 1231.688
578.6370, 1387.155
579.8080, 1686.619
580.9790, 2186.079
582.1500, 2576.264
583.3210, 3504.988
584.4910, 4349.439
585.6620, 6053.885
586.8320, 8594.327
588.0020, 12124.77
589.1720, 17294.20
590.3410, 25920.64
591.5110, 39126.06
592.6800, 52302.49
593.8500, 56065.91
595.0190, 48011.32
596.1880, 34857.73
597.3560, 24186.14
598.5250, 16664.54
599.6930, 11690.93
600.8620, 8264.327
602.0300, 8076.716
603.1970, 4585.102
604.3650, 3356.479
605.5330, 2647.854
606.7000, 2326.225
607.8680, 1884.590
609.0350, 1619.951
610.2020, 1337.306
611.3680, 1192.656
612.5350, 1059.001
613.7010, 933.3423
614.8680, 891.6772
616.0340, 724.0073
617.2000, 522.3320
618.3660, 608.6509
619.5310, 529.9648
620.6970, 571.2734
621.8620, 467.5762
623.0270, 406.8730
624.1920, 406.1655
625.3570, 344.4517
626.5220, 332.7319
627.6860, 316.3403
628.8500, 343.6240
630.0140, 233.9023
631.1780, 230.7549
632.3420, 191.0771
633.5060, 257.3965
634.6700, 226.7344
635.8330, 187.1099
636.9960, 191.5063
638.1590, 93.92139
639.3220, 135.3525
640.4850, 76.12842
641.6470, 62.05225
642.8100, 66.01416
643.9720, 41.59717
645.1340, 61.09277
646.2960, 64.59180
647.4570, 63.45947
648.6190, 108.9502
649.7800, 59.47070
650.9420, 179.4204
652.1030, 18.10498
653.2640, 113.5718
654.4240, 77.69189
655.5850, 11.12354
656.7450, 22.82227
657.9060, 56.76904
659.0660, 129.4126
660.2260, 68.85449
661.3850, 0.1123050
662.5450, 194.3477
663.7040, 46.57324
664.8640, 21.21143
666.0230, 44.96924
667.1820, 100.1401
668.3410, 76.30029
669.4990, 97.22656
670.6580, 16.59131
671.8160, 68.71582
672.9740, 58.83008
674.1320, 53.93457
675.2900, 81.02881
676.4480, 16.11230
677.6050, 73.17969
678.7630, 18.76367
679.9200, 82.74219
681.0770, 43.21143
682.2340, 84.84619
683.3900, 20.02588
684.5470, 48.11768
685.7030, 28.68799
686.8590, 103.5205
688.0150, 37.80859
689.1710, 51.85791
690.3270, 14.48682
691.4830, 65.86377
692.6380, 26.30176
693.7930, 40.77832
694.9480, 69.30225
696.1030, 66.88818
697.2580, 0.4658200
698.4130, 126.2056
699.5670, 3.969238
700.7210, 25.75928
701.8750, 19.41113
703.0290, 84.56641
704.1830, 101.7109
705.3370, 137.8159
706.4900, 144.9888
707.6430, 137.4922
708.7970, 162.1851
709.9490, 70.27832
711.1020, 121.3613
712.2550, 111.4341
713.4070, 30.49658
714.5600, 201.5469
715.7120, 261.5874
716.8640, 259.6177
718.0160, 252.6382
719.1670, 374.6484
720.3190, 439.6494
721.4700, 556.6396
722.6210, 546.6201
723.7720, 663.5918
724.9230, 766.5532
726.0740, 904.5049
727.2250, 987.4468
728.3750, 1096.379
729.5250, 1149.303
730.6750, 1219.561
731.8250, 1288.365
732.9750, 1296.016
734.1240, 1351.900
735.2740, 1325.777
736.4230, 1235.645
737.5720, 1247.482
738.7210, 1124.351
739.8700, 1143.190
741.0190, 1086.021
742.1670, 955.8428
743.3150, 876.6558
744.4630, 802.4600
745.6110, 633.2559
746.7590, 511.0430
747.9070, 388.8213
749.0540, 316.8350
750.2020, 253.1079
751.3490, 233.1064
752.4960, 193.8521
753.6430, 187.5889
754.7890, 195.3179
755.9360, 121.0391
757.0820, 203.7520
758.2280, 161.4570
759.3740, 131.1548
760.5200, 103.8481
761.6660, 60.53369
762.8120, 89.21240
763.9570, 102.8838
765.1020, 5.550781
766.2470, 89.20605
767.3920, 45.85352
768.5370, 127.5063
769.6810, 31.05273
770.8260, 46.60449
771.9700, 30.14893
773.1140, 123.6860
774.2580, 39.21582
775.4020, 126.7388
776.5460, 22.25342
777.6890, 31.23730
778.8320, 50.24268
779.9750, 59.71631
781.1180, 135.1816
782.2610, 59.35352
783.4040, 102.0684
784.5460, 34.51758
785.6890, 17.86768
786.8310, 93.75537
787.9730, 53.17529
789.1150, 49.57910
790.2560, 37.73926
791.3980, 12.02441
792.5390, 44.19531
793.6810, 60.59180
794.8220, 63.49512
795.9630, 33.97656
797.1030, 66.87402
798.2440, 98.06445
799.3840, 22.05127
800.5240, 51.23242
801.6650, 103.3789
802.8040, 38.96777
803.9440, 36.08838
805.0840, 24.25342
806.2230, 66.41406
807.3630, 15.57129
808.5020, 33.65527
809.6410, 105.3237
810.7790, 27.47070
811.9180, 29.61426
813.0570, 16.75635
814.1950, 118.2876
815.3330, 52.42383
816.4710, 73.63623
817.6090, 11.48779
818.7470, 128.5376
819.8840, 14.90137
821.0220, 211.5049
822.1590, 166.1572
823.2960, 212.9717
824.4330, 308.1348
825.5690, 172.4189
826.7060, 480.5449
827.8420, 250.2900
828.9790, 346.8101
830.1150, 460.8149
831.2510, 535.9141
832.3860, 681.2275
833.5220, 744.6992
834.6570, 592.4062
835.7930, 671.1729
836.9280, 945.6240
838.0630, 807.7202
839.1980, 1011.384
840.3320, 975.5547
841.4670, 933.7305
842.6010, 1029.913
843.7350, 1084.101
844.8690, 980.2944
846.0030, 1011.495
847.1370, 889.7012
848.2700, 939.9136
849.4040, 1009.134
850.5370, 957.7305
851.6700, 988.4639
852.8030, 985.7041
853.9360, 1026.952
855.0680, 1046.525
856.2000, 1122.469
857.3330, 1110.738
858.4650, 1133.017
859.5970, 1184.302
860.7290, 1343.596
861.8600, 1290.897
862.9920, 1538.208
864.1230, 1642.526
865.2540, 1795.853
866.3850, 1918.189
867.5160, 2163.533
868.6460, 2466.887
869.7770, 2879.250
870.9070, 3073.621
872.0370, 3604.002
873.1670, 3970.394
874.2970, 4609.802
875.4270, 4976.220
876.5570, 5609.647
877.6860, 6048.085
878.8150, 6237.633
879.9440, 6535.993
881.0730, 6362.470
882.2020, 6175.959
883.3300, 5833.929
884.4590, 5404.911
885.5870, 5051.494
886.7150, 4449.028
887.8430, 3863.575
888.9710, 3567.133
890.0990, 3167.706
891.2260, 2870.289
892.3530, 2568.885
893.4810, 2396.493
894.6080, 2008.112
895.7340, 2027.541
896.8610, 1752.185
897.9880, 1657.920
899.1140, 1633.588
900.2400, 1548.005
901.3660, 1439.363
902.4920, 1459.074
903.6180, 1371.798
904.7430, 1284.978
905.8690, 1207.728
906.9940, 1234.502
908.1190, 1129.291
909.2440, 1289.094
910.3690, 1085.910
911.4930, 1164.740
912.6180, 1093.823
913.7420, 1093.356
914.8660, 1047.529
915.9900, 1146.417
917.1140, 1082.624
918.2380, 1163.560
919.3610, 928.4980
920.4850, 986.0762
921.6080, 948.0449
922.7310, 938.9971
923.8540, 871.5410
924.9760, 898.3584
926.0990, 768.3984
927.2210, 740.5332
928.3440, 893.6074
929.4660, 760.7090
930.5880, 804.8281
931.7090, 705.9854
932.8310, 836.2881
933.9520, 934.5430
935.0740, 853.8184
936.1950, 841.1113
937.3160, 846.4229
938.4360, 932.7812
939.5570, 880.1582
940.6780, 1026.554
941.7980, 935.9658
942.9180, 944.3965
944.0380, 959.8477
945.1580, 986.5068
946.2780, 1022.079
947.3970, 1141.340
948.5170, 1089.882
949.6360, 1212.456
950.7550, 1207.048
951.8740, 1116.670
952.9930, 1111.340
954.1110, 1241.029
955.2300, 1198.767
956.3480, 1093.529
957.4660, 1218.368
958.5840, 1148.228
959.7020, 996.1533
960.8190, 1059.145
961.9370, 979.1553
963.0540, 1010.215
964.1710, 862.3193
965.2880, 921.4639
966.4050, 701.6543
967.5220, 819.8887
968.6380, 807.1670
969.7550, 637.4805
970.8710, 657.8584
971.9870, 640.2627
973.1030, 564.7012
974.2190, 656.1621
975.3340, 581.6406
976.4500, 522.1396
977.5650, 451.6562
978.6800, 573.1924
979.7950, 426.7480
980.9100, 473.3242
982.0250, 409.9199
983.1390, 414.5498
984.2530, 410.1992
985.3680, 417.8691
986.4820, 395.5576
987.5950, 444.2656
988.7090, 363.9932
989.8230, 403.9033
990.9360, 500.1865
992.0490, 548.8887
993.1620, 552.5684
994.2750, 376.3320
995.3880, 432.4824
996.5010, 395.5283
997.6130, 354.7861
998.7250, 443.7080
999.8370, 293.7490
1000.949, 380.6533
1002.061, 373.0332
1003.173, 408.7197
1004.284, 350.7354
1005.396, 225.4082
1006.507, 230.4717
1007.618, 203.2783
1008.729, 235.3799
1009.839, 224.4980
1010.950, 229.6367
1012.060, 261.7930
1013.171, 113.9678
1014.281, 117.3047
1015.391, 262.5186
1016.500, 105.7500
1017.610, 8.308594
1018.719, 177.5771
1019.829, 77.86230
1020.938, 50.43555
1022.047, 8.757813
1023.156, 22.75000
1024.264, 137.1074
1025.373, 216.4824
1026.481, 94.87500
1027.589, 88.28516
1028.697, 47.28809
1029.805, 57.15039
1030.913, 9.393555
1032.020, 155.0781
1033.128, 44.43262
1034.235, 110.0664
1035.342, 62.87109
1036.449, 5.407227
1037.556, 106.9600
1038.663, 24.56738
1039.769, 50.93262
1040.875, 92.57324
1041.981, 53.23047
1043.087, 77.90430
1044.193, 11.59570
1045.299, 19.69824
1046.404, 21.02344
1047.510, 23.22949
1048.615, 18.53125
1049.720, 60.99707
1050.825, 25.78418
1051.930, 140.5996
1053.034, 46.43066
1054.139, 50.28809
1055.243, 85.31836
1056.347, 10.23242
1057.451, 67.18066
1058.555, 45.15625
1059.658, 23.14844
1060.762, 93.16016
1061.865, 90.37891
1062.968, 56.42090
1064.071, 3.478516
1065.174, 8.450195
1066.277, 1.902344
1067.380, 31.31445
1068.482, 84.42676
1069.584, 29.55371
1070.686, 144.8975
1071.788, 14.05078
1072.890, 73.21777
1073.992, 130.3965
1075.093, 97.45605
1076.194, 178.7939
1077.295, 91.01270
1078.396, 222.7686
1079.497, 139.7119
1080.598, 53.96680
1081.698, 125.2881
1082.799, 202.5674
1083.899, 107.8594
1084.999, 217.1621
1086.099, 291.4766
1087.199, 245.8027
1088.298, 296.0439
1089.398, 215.9688
1090.497, 369.4678
1091.596, 358.5889
1092.695, 372.8701
1093.794, 478.2568
1094.892, 309.9404
1095.991, 458.6641
1097.089, 502.4658
1098.187, 282.7012
1099.285, 340.1299
1100.383, 230.5654
1101.481, 308.8008
1102.579, 276.2520
1103.676, 185.7119
1104.773, 158.1748
1105.870, 254.6455
1106.967, 197.1221
1108.064, 129.6055
1109.161, 201.0947
1110.257, 141.5879
1111.353, 221.0898
1112.449, 212.8047
1113.545, 146.3604
1114.641, 196.6113
1115.737, 274.1338
1116.832, 291.6621
1117.928, 315.1953
1119.023, 246.7324
1120.118, 279.4141
1121.213, 351.9619
1122.308, 258.5127
1123.402, 125.0693
1124.497, 232.6289
1125.591, 177.6035
1126.685, 190.1729
1127.779, 129.7451
1128.873, 139.7812
1129.967, 129.9766
1131.060, 121.7305
1132.153, 132.3242
1133.247, 58.91406
1134.340, 70.58105
1135.433, 21.17578
1136.525, 54.77441
1137.618, 45.22461
1138.710, 34.02148
1139.802, 75.56836
1140.895, 39.16016
1141.987, 84.75586
1143.078, 144.3516
1144.170, 37.99707
1145.261, 38.95605
1146.353, 87.62598
1147.444, 35.21094
1148.535, 1.203125
1149.626, 168.3789
1150.716, 185.9639
1151.807, 0.5507810
1152.897, 100.1348
1153.988, 7.280273
1155.078, 94.29883
1156.168, 58.87891
1157.257, 35.45996
1158.347, 98.04102
1159.436, 51.69043
1160.526, 60.47461
1161.615, 84.05762
1162.704, 43.56055
1163.793, 122.1436
1164.881, 46.98926
1165.970, 16.42773
1167.058, 39.14355
1168.147, 133.7148
1169.235, 80.28516
1170.323, 40.14453
1171.410, 70.40137
1172.498, 35.94531
1173.585, 79.48926
1174.673, 186.0312
1175.760, 49.57422
1176.847, 21.87598
1177.934, 80.41504
1179.020, 58.65332
1180.107, 18.80957
1181.193, 100.4141
1182.279, 54.93164
1183.365, 88.44922
1184.451, 23.96484
1185.537, 8.522461
1186.623, 22.97852
1187.708, 103.4766
1188.793, 105.9727
1189.878, 156.4658
1190.963, 72.95703
1192.048, 13.44531
1193.133, 153.9287
1194.217, 39.40918
1195.302, 37.88574
1196.386, 66.27246
1197.470, 61.27930
1198.554, 48.14941
1199.638, 111.5732
1200.721, 54.00488
1201.805, 75.37598
1202.888, 62.75293
1203.971, 37.12695
1205.054, 95.49805
1206.137, 59.86328
1207.219, 70.22656
1208.302, 24.41504
1209.384, 10.00781
1210.466, 56.22949
1211.548, 15.46094
1212.630, 44.82520
1213.712, 73.10645
1214.794, 234.3848
1215.875, 113.8789
1216.956, 70.92676
1218.037, 6.191406
1219.118, 117.5576
1220.199, 27.61621
1221.280, 24.21777
1222.360, 90.07910
1223.441, 63.99414
1224.521, 47.93652
1225.601, 23.08984
1226.681, 0.8916020
1227.760, 7.890625
1228.840, 102.0889
1229.919, 63.06250
1230.999, 6.967773
1232.078, 6.979492
1233.157, 41.91309
1234.236, 96.84082
1235.314, 57.76367
1236.393, 110.6826
1237.471, 75.59473
1238.549, 113.5029
1239.627, 144.4053
1240.705, 85.30176
1241.783, 31.19434
1242.860, 40.07910
1243.938, 36.04199
1245.015, 197.7988
1246.092, 198.6338
1247.169, 64.46387
1248.246, 170.2891
1249.323, 36.10742
1250.399, 125.9199
1251.475, 48.72656
1252.552, 64.53125
1253.628, 104.3301
1254.703, 29.87598
1255.779, 107.8818
1256.855, 51.63574
1257.930, 32.38281
1259.005, 140.1230
1260.080, 88.85742
1261.155, 48.60352
1262.230, 131.3438
1263.305, 39.92188
1264.379, 154.7725
1265.454, 146.4600
1266.528, 79.14258
1267.602, 151.8213
1268.676, 205.7686
1269.750, 137.4365
1270.823, 83.09863
1271.897, 153.7549
1272.970, 44.40723
1274.043, 24.05273
1275.116, 209.5488
1276.189, 104.1807
1277.261, 117.8076
1278.334, 295.1201
1279.406, 203.7373
1280.478, 199.3496
1281.550, 116.6885
1282.622, 94.29102
1283.694, 175.2363
1284.766, 218.8301
1285.837, 172.4189
1286.908, 68.00391
1287.979, 40.58301
1289.050, 230.1582
1290.121, 124.7314
1291.192, 188.3008
1292.262, 145.8643
1293.333, 216.4307
1294.403, 205.3867
1295.473, 167.2725
1296.543, 188.8291
1297.613, 133.3818
1298.682, 90.92969
1299.752, 168.7314
1300.821, 188.2715
1301.890, 208.8057
1302.959, 251.3369
1304.028, 105.8633
1305.096, 180.3848
1306.165, 189.9033
1307.233, 269.4170
1308.301, 293.9326
1309.370, 194.7451
1310.437, 272.2568
1311.505, 283.7617
1312.573, 192.2607
1313.640, 227.7549
