##NAMES=Chloritoid
##RRUFFID=R060292
##IDEAL CHEMISTRY=Fe^2+^Al_2_OSiO_4_(OH)_2_
##LOCALITY=Pech, Kunar Province, Afghanistan
##OWNER=RRUFF
##SOURCE=Herb Obodda
##DESCRIPTION=Black tabular crystal
##STATUS=The identification of this mineral has been confirmed by X-ray diffraction and chemical analysis
##URL=rruff.info/R060292
##MEASURED CHEMISTRY=(Fe^2+^_1.55_Mg_0.43_Mn_0.02_)_Σ=2_(Al_3.93_Fe^3+^_0.07_)_Σ=4_Si_2.00_O_10_(OH)_4_
##PIN_ID=M00356
##ORIENTATION=Laser parallel to b* (0 1 0). Fiducial mark perpendicular to laser is parallel to -c [0 0 -1]
89.77700, 0.0000000E+00
91.01200, 56.33789
92.24600, 3.518066
93.48000, 118.6694
94.71400, 79.97852
95.94800, 113.7354
97.18200, 158.3755
98.41600, 191.3413
99.64900, 279.1460
100.8830, 661.6387
102.1160, 1245.249
103.3490, 1946.911
104.5820, 2948.969
105.8150, 2541.826
107.0470, 3776.470
108.2800, 1935.025
109.5120, 1360.964
110.7440, 1434.610
111.9760, 1961.210
113.2080, 2381.952
114.4400, 2270.986
115.6710, 1981.160
116.9030, 1758.413
118.1340, 1557.775
119.3650, 1076.803
120.5960, 1014.779
121.8270, 722.1890
123.0580, 398.3481
124.2880, 328.2812
125.5190, 384.8955
126.7490, 359.7319
127.9790, 439.7686
129.2090, 391.9873
130.4390, 214.3711
131.6680, 173.9058
132.8980, 243.5791
134.1270, 308.3784
135.3560, 317.2920
136.5850, 443.3101
137.8140, 290.4224
139.0430, 236.6201
140.2710, 11.89697
141.5000, 57.75684
142.7280, 20.65527
143.9560, 141.1235
145.1840, 45.63916
146.4120, 58.80176
147.6390, 104.7993
148.8670, 293.4390
150.0940, 247.1152
151.3210, 99.82471
152.5490, 71.56641
153.7750, 13.66211
155.0020, 60.95850
156.2290, 69.99121
157.4550, 52.81445
158.6810, 34.13135
159.9080, 125.0288
161.1340, 250.3853
162.3590, 365.7056
163.5850, 386.0269
164.8110, 375.3374
166.0360, 427.6372
167.2610, 415.0386
168.4860, 464.2407
169.7110, 416.5454
170.9360, 356.8501
172.1610, 355.1523
173.3850, 455.4517
174.6100, 423.7456
175.8340, 425.0332
177.0580, 331.3101
178.2820, 479.5742
179.5050, 479.8237
180.7290, 392.0537
181.9520, 455.2612
183.1760, 433.4375
184.3990, 445.6177
185.6220, 474.7695
186.8450, 592.9062
188.0670, 655.0430
189.2900, 730.1187
190.5120, 795.1694
191.7340, 755.2310
192.9560, 875.2773
194.1780, 991.3135
195.4000, 836.3247
196.6220, 1133.229
197.8430, 1185.040
199.0640, 1478.844
200.2860, 1433.651
201.5070, 1182.455
202.7270, 838.2539
203.9480, 753.0474
205.1690, 785.8369
206.3890, 750.6221
207.6090, 849.4023
208.8290, 904.1782
210.0490, 1016.949
211.2690, 1115.716
212.4890, 1131.479
213.7080, 997.2368
214.9280, 1121.990
216.1470, 1118.739
217.3660, 1146.484
218.5850, 1188.225
219.8030, 1121.960
221.0220, 1089.693
222.2400, 1056.679
223.4590, 1041.477
224.6770, 1201.363
225.8950, 1084.287
227.1120, 1224.260
228.3300, 1344.639
229.5480, 1236.886
230.7650, 1425.546
231.9820, 1529.339
233.1990, 1719.678
234.4160, 1870.936
235.6330, 2096.397
236.8490, 2247.822
238.0660, 2620.057
239.2820, 2971.625
240.4980, 3670.159
241.7140, 4134.736
242.9300, 4260.340
244.1460, 4213.957
245.3610, 4475.572
246.5770, 5073.179
247.7920, 5866.772
249.0070, 6892.352
250.2220, 8323.904
251.4370, 9155.419
252.6510, 9350.905
253.8660, 8535.348
255.0800, 7075.745
256.2940, 6406.108
257.5080, 4972.439
258.7220, 3242.747
259.9360, 2354.033
261.1490, 1886.300
262.3630, 1856.401
263.5760, 1789.479
264.7890, 1884.433
266.0020, 2053.384
267.2150, 2324.333
268.4270, 2713.242
269.6400, 3188.964
270.8520, 3957.564
272.0640, 4377.178
273.2760, 5103.803
274.4880, 4997.442
275.7000, 4933.088
276.9120, 5053.746
278.1230, 5218.412
279.3340, 5737.086
280.5450, 6350.921
281.7560, 7208.610
282.9670, 7608.306
284.1780, 7892.869
285.3880, 7288.575
286.5980, 6383.328
287.8090, 5167.936
289.0190, 4167.941
290.2290, 3183.036
291.4380, 2690.466
292.6480, 2183.544
293.8570, 1802.227
295.0670, 1600.104
296.2760, 1372.848
297.4850, 1357.494
298.6930, 1313.031
299.9020, 1159.007
301.1110, 1090.054
302.3190, 978.5830
303.5270, 1596.229
304.7350, 1328.041
305.9430, 1344.268
307.1510, 1317.595
308.3580, 1108.871
309.5660, 1204.612
310.7730, 1230.347
311.9800, 1285.078
313.1870, 1248.805
314.3940, 1233.528
315.6010, 1299.247
316.8070, 1409.961
318.0130, 1402.671
319.2200, 1528.376
320.4260, 1632.079
321.6310, 1773.776
322.8370, 1790.469
324.0430, 1885.158
325.2480, 2038.843
326.4540, 2042.523
327.6590, 2111.200
328.8640, 2151.874
330.0680, 2531.543
331.2730, 2990.208
332.4780, 3282.871
333.6820, 3493.528
334.8860, 3426.183
336.0900, 3226.834
337.2940, 2604.482
338.4980, 1869.127
339.7010, 1471.769
340.9050, 1039.407
342.1080, 951.0425
343.3110, 815.6758
344.5140, 880.3057
345.7170, 865.9341
346.9200, 1056.561
348.1220, 935.1836
349.3240, 755.8052
350.5270, 452.4238
351.7290, 224.0400
352.9310, 42.65430
354.1320, 57.26465
355.3340, 118.1255
356.5350, 89.55518
357.7370, 171.0088
358.9380, 42.51465
360.1390, 66.04004
361.3400, 135.5903
362.5400, 11.82422
363.7410, 109.7485
364.9410, 133.3442
366.1410, 24.05078
367.3410, 103.5542
368.5410, 60.22461
369.7410, 42.98438
370.9400, 10.21143
372.1400, 22.35791
373.3390, 130.4238
374.5380, 17.47363
375.7370, 25.48535
376.9360, 113.4980
378.1350, 6.488281
379.3330, 21.52051
380.5310, 68.52197
381.7300, 60.51709
382.9280, 149.5093
384.1260, 345.5029
385.3230, 354.4946
386.5210, 510.4819
387.7180, 588.4673
388.9160, 609.4902
390.1130, 676.4277
391.3100, 630.4033
392.5060, 593.3760
393.7030, 540.3457
394.9000, 674.3125
396.0960, 724.2788
397.2920, 797.2422
398.4880, 688.2065
399.6840, 702.5518
400.8800, 785.1289
402.0750, 586.0869
403.2710, 458.0508
404.4660, 370.0127
405.6610, 352.9761
406.8560, 320.9507
408.0510, 245.9248
409.2450, 458.9082
410.4400, 356.8955
411.6340, 346.8857
412.8280, 298.8760
414.0220, 489.8672
415.2160, 428.0601
416.4100, 465.2593
417.6030, 446.8467
418.7970, 384.8413
419.9900, 375.8379
421.1830, 145.8345
422.3760, 198.8315
423.5690, 15.82959
424.7610, 76.82715
425.9540, 124.8257
427.1460, 12.17578
428.3380, 120.8130
429.5300, 137.8022
430.7220, 96.79590
431.9140, 71.81250
433.1050, 69.16748
434.2970, 15.81299
435.4880, 68.20605
436.6790, 32.75879
437.8700, 10.72363
439.0610, 100.6865
440.2510, 78.94971
441.4420, 83.08350
442.6320, 37.57812
443.8220, 66.55127
445.0120, 52.54492
446.2020, 54.56152
447.3910, 34.40381
448.5810, 97.62402
449.7700, 76.65234
450.9600, 9.319824
452.1490, 53.70117
453.3370, 111.7217
454.5260, 138.7427
455.7150, 250.7632
456.9030, 298.7837
458.0910, 268.8047
459.2800, 377.8252
460.4670, 381.1382
461.6550, 387.8657
462.8430, 450.8862
464.0300, 496.7949
465.2180, 540.9268
466.4050, 694.9473
467.5920, 751.9673
468.7790, 871.9873
469.9650, 991.5498
471.1520, 1011.028
472.3380, 1253.048
473.5250, 1308.067
474.7110, 1486.087
475.8970, 1501.107
477.0820, 1683.127
478.2680, 1830.146
479.4540, 1921.166
480.6390, 1895.186
481.8240, 1898.204
483.0090, 1989.224
484.1940, 1884.242
485.3780, 2148.260
486.5630, 2136.279
487.7470, 2551.298
488.9320, 2756.314
490.1160, 3019.332
491.3000, 3238.570
492.4830, 3495.368
493.6670, 3600.385
494.8500, 3869.402
496.0340, 4094.185
497.2170, 4516.237
498.4000, 4993.798
499.5820, 5503.761
500.7650, 5496.018
501.9480, 5095.350
503.1300, 4796.216
504.3120, 4068.552
505.4940, 3624.632
506.6760, 3200.932
507.8580, 2996.001
509.0390, 2993.612
510.2210, 2968.403
511.4020, 2857.077
512.5830, 3142.850
513.7640, 3172.591
514.9450, 3373.470
516.1250, 3727.646
517.3060, 4113.553
518.4860, 4622.459
519.6660, 5389.807
520.8460, 6114.998
522.0260, 6753.801
523.2060, 7535.492
524.3850, 8227.875
525.5650, 8982.375
526.7440, 9908.892
527.9230, 11420.43
529.1020, 12856.00
530.2810, 13891.60
531.4590, 14083.22
532.6380, 13477.84
533.8160, 12383.46
534.9940, 11005.08
536.1720, 9876.737
537.3500, 8976.628
538.5270, 8759.255
539.7050, 9097.508
540.8820, 9927.137
542.0590, 11343.77
543.2360, 13411.41
544.4130, 15890.61
545.5900, 17911.24
546.7660, 19934.39
547.9430, 22006.72
549.1190, 25260.44
550.2950, 31077.09
551.4710, 38538.53
552.6470, 46620.85
553.8220, 51241.48
554.9980, 49699.11
556.1730, 42246.74
557.3480, 31819.37
558.5230, 22722.00
559.6980, 15515.63
560.8730, 10927.26
562.0470, 8003.894
563.2220, 6108.522
564.3960, 4907.149
565.5700, 4003.622
566.7440, 3437.248
567.9170, 2897.871
569.0910, 2601.633
570.2640, 2236.254
571.4380, 2107.873
572.6110, 1962.492
573.7840, 1799.108
574.9570, 1917.355
576.1290, 1900.844
577.3020, 1882.176
578.4740, 2163.738
579.6460, 2640.210
580.8180, 3164.817
581.9900, 4260.423
583.1620, 6352.027
584.3330, 9432.618
585.5040, 13998.22
586.6760, 18134.82
587.8470, 19217.42
589.0180, 18167.98
590.1880, 17586.57
591.3590, 19168.15
592.5290, 23315.22
593.7000, 30934.80
594.8700, 38791.38
596.0400, 42514.96
597.2090, 38415.54
598.3790, 29891.11
599.5490, 20063.68
600.7180, 12735.25
601.8870, 8659.813
603.0560, 6106.378
604.2250, 4631.938
605.3940, 3727.494
606.5620, 3044.048
607.7300, 2786.598
608.8990, 2276.146
610.0670, 1943.688
611.2350, 1780.230
612.4020, 1529.768
613.5700, 1211.302
614.7370, 1100.832
615.9050, 918.3594
617.0720, 906.8828
618.2390, 736.4033
619.4060, 730.9199
620.5720, 617.4326
621.7390, 439.9414
622.9050, 406.4463
624.0710, 474.9463
625.2370, 349.4443
626.4030, 276.9385
627.5690, 283.4277
628.7340, 216.9121
629.9000, 187.3945
631.0650, 232.8711
632.2300, 142.3447
633.3950, 213.8135
634.5600, 23.27734
635.7240, 133.7373
636.8890, 7.805664
638.0530, 21.64355
639.2170, 32.66797
640.3810, 27.82129
641.5450, 23.35840
642.7080, 17.90723
643.8720, 34.81055
645.0350, 62.22559
646.1980, 55.67480
647.3610, 120.7578
648.5240, 15.00488
649.6870, 35.25977
650.8490, 61.83301
652.0120, 42.71875
653.1740, 68.89941
654.3360, 46.71973
655.4980, 45.54980
656.6600, 112.2578
657.8210, 11.61133
658.9830, 101.3564
660.1440, 240.3760
661.3050, 271.6836
662.4660, 270.5586
663.6270, 296.7275
664.7870, 313.7041
665.9480, 318.0596
667.1080, 378.2100
668.2680, 349.6211
669.4280, 440.0264
670.5880, 478.6191
671.7480, 425.5010
672.9070, 301.7588
674.0670, 241.0049
675.2260, 113.7324
676.3850, 91.00293
677.5440, 360.2051
678.7030, 70.81250
679.8610, 220.8057
681.0200, 298.1455
682.1780, 306.7529
683.3360, 40.77148
684.4940, 129.3184
685.6520, 75.76172
686.8090, 16.36719
687.9670, 107.2764
689.1240, 30.29102
690.2810, 63.27441
691.4380, 68.23535
692.5950, 151.1758
693.7520, 171.1035
694.9080, 275.0176
696.0650, 250.9180
697.2210, 325.8047
698.3770, 428.6797
699.5330, 396.5400
700.6880, 399.3867
701.8440, 522.2217
702.9990, 686.0430
704.1550, 762.8506
705.3100, 892.6465
706.4650, 876.4297
707.6190, 986.1982
708.7740, 1166.960
709.9290, 1315.826
711.0830, 1560.444
712.2370, 1775.166
713.3910, 2062.876
714.5450, 2330.593
715.6980, 2554.297
716.8520, 2838.007
718.0050, 3444.706
719.1580, 3719.393
720.3110, 4319.427
721.4640, 4973.728
722.6170, 5556.377
723.7700, 6004.012
724.9220, 6758.636
726.0740, 7505.246
727.2260, 8050.846
728.3780, 8533.312
729.5300, 8967.027
730.6810, 9278.597
731.8330, 9450.164
732.9840, 9808.712
734.1350, 10023.25
735.2860, 9966.779
736.4370, 9865.294
737.5880, 9418.797
738.7380, 8747.289
739.8880, 8185.770
741.0390, 7502.238
742.1890, 6915.694
743.3380, 6453.139
744.4880, 6035.574
745.6380, 5268.995
746.7870, 4743.406
747.9360, 4142.806
749.0850, 3744.194
750.2340, 3105.572
751.3830, 2778.938
752.5310, 2339.295
753.6800, 2118.639
754.8280, 1813.974
755.9760, 1395.296
757.1240, 1229.610
758.2720, 1095.912
759.4190, 1053.205
760.5670, 892.4863
761.7140, 805.1084
762.8610, 702.0205
764.0080, 613.6787
765.1550, 641.5137
766.3020, 602.7461
767.4480, 454.9688
768.5950, 289.1816
769.7410, 401.3867
770.8870, 361.5811
772.0330, 221.7656
773.1780, 266.9414
774.3240, 124.1084
775.4690, 139.0576
776.6140, 59.20703
777.7590, 138.7441
778.9040, 110.8721
780.0490, 92.99219
781.1940, 13.10449
782.3380, 86.37402
783.4820, 158.9199
784.6260, 38.14746
785.7700, 22.48145
786.9140, 6.392578
788.0580, 198.5957
789.2010, 68.01562
790.3450, 111.4697
791.4880, 31.77930
792.6310, 65.12500
793.7730, 86.45605
794.9160, 128.9189
796.0590, 87.35449
797.2010, 125.9629
798.3430, 81.65430
799.4850, 109.4023
800.6270, 64.22266
801.7690, 72.84375
802.9100, 38.00977
804.0520, 70.96387
805.1930, 106.9678
806.3340, 91.03613
807.4750, 27.16504
808.6160, 2.681641
809.7560, 32.51758
810.8970, 78.34961
812.0370, 2.179688
813.1770, 11.96875
814.3170, 21.52344
815.4570, 75.33594
816.5960, 39.53223
817.7360, 140.3438
818.8750, 155.1543
820.0140, 142.9639
821.1530, 201.2061
822.2920, 276.0146
823.4310, 260.3066
824.5690, 284.4258
825.7070, 386.1504
826.8460, 503.9541
827.9840, 437.9580
829.1220, 624.0967
830.2590, 677.9141
831.3970, 800.7324
832.5340, 1011.554
833.6710, 1004.378
834.8080, 1015.206
835.9450, 1167.035
837.0820, 1402.870
838.2190, 1430.708
839.3550, 1723.549
840.4910, 1732.396
841.6270, 1966.245
842.7630, 2063.101
843.8990, 2127.961
845.0350, 2205.825
846.1700, 2478.697
847.3060, 2519.573
848.4410, 2771.456
849.5760, 2874.344
850.7100, 3022.238
851.8450, 3335.141
852.9800, 3646.048
854.1140, 4062.964
855.2480, 4119.885
856.3820, 4506.814
857.5160, 4713.752
858.6500, 5085.697
859.7830, 5461.650
860.9170, 5991.612
862.0500, 6450.582
863.1830, 6923.562
864.3160, 7914.553
865.4480, 8436.552
866.5810, 9146.559
867.7130, 10317.58
868.8460, 11633.61
869.9780, 12878.64
871.1100, 14545.69
872.2410, 15759.75
873.3730, 17433.83
874.5050, 19055.91
875.6360, 20649.01
876.7670, 21892.11
877.8980, 23393.23
879.0290, 24053.36
880.1590, 24076.51
881.2900, 23510.66
882.4200, 22411.83
883.5500, 20675.02
884.6800, 18610.21
885.8100, 16603.42
886.9400, 14324.65
888.0690, 12558.89
889.1990, 10738.15
890.3280, 8956.416
891.4570, 7848.701
892.5860, 6691.002
893.7140, 5859.320
894.8430, 4931.652
895.9710, 4284.003
897.1000, 3791.369
898.2280, 3426.754
899.3560, 3154.155
900.4830, 2817.582
901.6110, 2518.026
902.7380, 2261.490
903.8660, 2054.113
904.9930, 1864.475
906.1200, 1786.994
907.2460, 1678.533
908.3730, 1695.092
909.5000, 1563.670
910.6260, 1398.268
911.7520, 1296.888
912.8780, 1346.321
914.0040, 1449.991
915.1290, 1266.683
916.2550, 1299.394
917.3800, 1119.412
918.5050, 1157.177
919.6300, 910.9844
920.7550, 974.4648
921.8800, 899.1338
923.0040, 767.8252
924.1290, 765.8730
925.2530, 607.2676
926.3770, 618.1777
927.5010, 478.9092
928.6250, 546.7520
929.7480, 450.5361
930.8720, 348.8037
931.9950, 319.6924
933.1180, 341.3398
934.2410, 323.7383
935.3640, 276.5977
936.4860, 237.1914
937.6090, 235.2734
938.7310, 175.6602
939.8530, 226.1152
940.9750, 193.5508
942.0970, 177.0303
943.2180, 199.9160
944.3400, 92.39062
945.4610, 188.0820
946.5820, 245.8076
947.7030, 176.0723
948.8240, 131.8271
949.9450, 177.6826
951.0650, 141.5732
952.1860, 126.5020
953.3060, 164.4668
954.4260, 319.4678
955.5460, 212.5049
956.6650, 293.5967
957.7850, 370.7305
958.9040, 278.9023
960.0230, 451.1260
961.1420, 399.3848
962.2610, 471.6924
963.3800, 461.0527
964.4990, 670.4531
965.6170, 631.8926
966.7350, 682.8203
967.8530, 525.8838
968.9710, 659.4365
970.0890, 539.0283
971.2070, 412.6592
972.3240, 552.3301
973.4410, 408.0400
974.5580, 382.7891
975.6750, 411.5762
976.7920, 422.4033
977.9090, 363.2715
979.0250, 341.1777
980.1410, 390.1230
981.2580, 338.1094
982.3740, 330.1348
983.4890, 302.2002
984.6050, 265.3047
985.7200, 369.4492
986.8360, 303.6357
987.9510, 343.8604
989.0660, 289.1260
990.1810, 375.4326
991.2950, 413.7773
992.4100, 325.1689
993.5240, 484.6006
994.6390, 248.0791
995.7530, 329.6123
996.8660, 383.1855
997.9800, 337.8008
999.0940, 284.4570
1000.207, 416.1543
1001.320, 307.8936
1002.433, 260.6738
1003.546, 342.4951
1004.659, 446.3574
1005.772, 209.2627
1006.884, 384.2119
1007.996, 253.2012
1009.108, 170.2334
1010.220, 235.3252
1011.332, 290.4590
1012.444, 393.6348
1013.555, 298.8516
1014.666, 266.1104
1015.777, 280.4160
1016.888, 245.7656
1017.999, 318.1572
1019.110, 254.5908
1020.220, 250.0693
1021.331, 244.5908
1022.441, 408.1602
1023.551, 435.7764
1024.661, 271.4463
1025.770, 373.2207
1026.880, 255.9932
1027.989, 298.8262
1029.098, 329.7051
1030.207, 313.6367
1031.316, 452.6104
1032.425, 373.6289
1033.533, 335.6152
1034.642, 426.7197
1035.750, 421.8682
1036.858, 357.2129
1037.966, 390.4727
1039.073, 548.7754
1040.181, 484.1201
1041.288, 592.5283
1042.396, 474.9805
1043.503, 524.4844
1044.610, 474.0312
1045.716, 475.6240
1046.823, 496.8955
1047.929, 511.9551
1049.036, 527.6982
1050.142, 523.4854
1051.248, 533.3379
1052.353, 520.5400
1053.459, 590.4746
1054.564, 549.4736
1055.670, 572.5303
1056.775, 648.6465
1057.880, 663.5498
1058.985, 647.8359
1060.089, 540.6943
1061.194, 631.1152
1062.298, 615.6318
1063.402, 552.7637
1064.506, 701.3975
1065.610, 708.7598
1066.713, 530.4258
1067.817, 684.8633
1068.920, 689.1895
1070.023, 688.1670
1071.126, 824.2070
1072.229, 918.3027
1073.332, 778.6914
1074.435, 844.3896
1075.537, 934.6807
1076.639, 910.0215
1077.741, 892.4053
1078.843, 831.8262
1079.945, 1035.284
1081.046, 1192.318
1082.148, 1221.180
1083.249, 1251.753
1084.350, 1328.363
1085.451, 1660.010
1086.551, 1596.692
1087.652, 1847.410
1088.752, 1767.625
1089.853, 1971.408
1090.953, 1981.234
1092.053, 1879.094
1093.152, 1717.988
1094.252, 1554.917
1095.351, 1508.654
1096.451, 1448.651
1097.550, 1235.683
1098.649, 1099.748
1099.748, 983.8457
1100.846, 1017.978
1101.945, 925.1416
1103.043, 780.5312
1104.141, 595.1904
1105.239, 568.4521
1106.337, 645.7715
1107.434, 449.0977
1108.532, 560.4600
1109.629, 416.1660
1110.726, 403.6104
1111.823, 443.0869
1112.920, 399.5928
1114.017, 450.1348
1115.113, 272.7031
1116.210, 379.3037
1117.306, 331.9346
1118.402, 291.5967
1119.498, 401.2861
1120.593, 358.0078
1121.689, 228.7598
1122.784, 259.5400
1123.879, 322.1543
1124.974, 186.9971
1126.069, 211.4082
1127.164, 198.0625
1128.259, 183.0000
1129.353, 190.9648
1130.447, 215.9561
1131.541, 277.0967
1132.635, 212.1465
1133.729, 111.2227
1134.822, 32.32715
1135.916, 125.4580
1137.009, 26.61914
1138.102, 84.05176
1139.195, 71.26758
1140.288, 126.5078
1141.380, 135.9199
1142.473, 116.2109
1143.565, 103.5254
1144.657, 76.86230
1145.749, 89.22461
1146.841, 23.36035
1147.932, 129.3057
1149.024, 129.7393
1150.115, 103.1953
1151.206, 91.99805
1152.297, 76.81055
1153.388, 58.29102
1154.479, 27.81250
1155.569, 51.17090
1156.659, 4.841797
1157.750, 35.97754
1158.839, 97.16602
1159.929, 40.46680
1161.019, 91.09082
1162.108, 59.78320
1163.198, 94.17480
1164.287, 77.02148
1165.376, 33.70801
1166.465, 56.57812
1167.553, 12.65625
1168.642, 85.53809
1169.730, 12.33496
1170.818, 58.14746
1171.906, 16.69043
1172.994, 81.07910
1174.082, 149.1963
1175.170, 74.08789
1176.257, 70.62109
1177.344, 13.08984
1178.431, 60.93164
1179.518, 70.40137
1180.605, 14.99316
1181.691, 44.28418
1182.778, 48.01660
1183.864, 12.97363
1184.950, 85.56055
1186.036, 43.68750
1187.122, 119.1826
1188.207, 77.23633
1189.292, 59.06836
1190.378, 20.77930
1191.463, 83.28613
1192.548, 101.6689
1193.632, 48.65137
1194.717, 9.510742
1195.801, 71.47070
1196.886, 75.46875
1197.970, 46.48730
1199.054, 41.51367
1200.137, 41.45312
1201.221, 83.42578
1202.305, 3.404297
1203.388, 7.612305
1204.471, 100.6289
1205.554, 61.58496
1206.637, 9.478516
1207.719, 15.49512
1208.802, 7.737305
1209.884, 32.70117
1210.966, 58.33203
1212.048, 53.38574
1213.130, 25.54199
1214.212, 123.4717
1215.293, 18.40332
1216.374, 43.33594
1217.456, 239.2705
1218.536, 51.79492
1219.617, 20.88086
1220.698, 112.0234
1221.778, 45.92871
1222.859, 31.83398
1223.939, 57.73730
1225.019, 53.35742
1226.099, 74.52148
1227.178, 92.39844
1228.258, 55.27441
1229.337, 49.14844
1230.417, 11.02148
1231.496, 42.89160
1232.574, 3.888672
1233.653, 1.246094
1234.732, 74.60938
1235.810, 11.46289
1236.888, 80.31152
1237.966, 18.86426
1239.044, 4.885742
1240.122, 83.01270
1241.199, 28.84668
1242.277, 69.67090
1243.354, 18.49121
1244.431, 78.37305
1245.508, 55.68066
1246.585, 42.48535
1247.661, 50.37305
1248.738, 59.83594
1249.814, 41.80273
1250.890, 85.20020
1251.966, 41.97363
1253.042, 2.600586
1254.117, 59.35156
1255.193, 9.672852
1256.268, 29.95117
1257.343, 41.14453
1258.418, 35.82520
1259.493, 56.49902
1260.567, 27.22461
1261.642, 63.87793
1262.716, 94.52246
1263.790, 104.6680
1264.864, 111.2949
1265.938, 229.9512
1267.011, 28.35840
1268.085, 140.0303
1269.158, 80.74316
1270.231, 43.66211
