##NAMES=Chloritoid
##RRUFFID=R060292
##IDEAL CHEMISTRY=Fe^2+^Al_2_OSiO_4_(OH)_2_
##LOCALITY=Pech, Kunar Province, Afghanistan
##OWNER=RRUFF
##SOURCE=Herb Obodda
##DESCRIPTION=Black tabular crystal
##STATUS=The identification of this mineral has been confirmed by X-ray diffraction and chemical analysis
##URL=rruff.info/R060292
##MEASURED CHEMISTRY=(Fe^2+^_1.55_Mg_0.43_Mn_0.02_)_Σ=2_(Al_3.93_Fe^3+^_0.07_)_Σ=4_Si_2.00_O_10_(OH)_4_
##PIN_ID=M00356
##ORIENTATION=Laser parallel to b* (0 1 0). Fiducial mark perpendicular to laser is parallel to -c [0 0 -1]
51.43100, 0.0000000E+00
52.67100, 14.41809
53.91000, 26.83197
55.14900, 11.75104
56.38700, 29.94470
57.62600, 12.58716
58.86400, 1.166809
60.10300, 23.98193
61.34100, 5.738525
62.57900, 18.01721
63.81700, 58.45581
65.05400, 60.90771
66.29200, 175.1281
67.52900, 302.9395
68.76700, 373.1919
70.00400, 454.0918
71.24100, 449.5273
72.47700, 586.3928
73.71400, 617.2627
74.95100, 716.0566
76.18700, 732.7045
77.42300, 764.1438
78.65900, 828.3196
79.89500, 928.1837
81.13100, 1070.695
82.36700, 1037.817
83.60200, 998.5161
84.83700, 989.7638
86.07200, 1121.533
87.30800, 1191.798
88.54200, 1215.417
89.77700, 1374.709
91.01200, 1264.281
92.24600, 1259.220
93.48000, 1239.505
94.71400, 1304.124
95.94800, 1284.066
97.18200, 1284.318
98.41600, 1327.863
99.64900, 1330.691
100.8830, 1370.788
102.1160, 1484.146
103.3490, 1613.753
104.5820, 2035.602
105.8150, 1867.831
107.0470, 2424.009
108.2800, 1776.559
109.5120, 1574.338
110.7440, 1717.340
111.9760, 1862.556
113.2080, 1915.983
114.4400, 1912.620
115.6710, 1797.462
116.9030, 1701.504
118.1340, 1509.741
119.3650, 1416.167
120.5960, 1359.775
121.8270, 1216.562
123.0580, 1107.521
124.2880, 1017.650
125.5190, 1065.903
126.7490, 1020.156
127.9790, 1109.407
129.2090, 1013.671
130.4390, 958.9492
131.6680, 897.2896
132.8980, 957.7014
134.1270, 983.1836
135.3560, 974.7974
136.5850, 1024.605
137.8140, 1021.543
139.0430, 892.5669
140.2710, 823.7163
141.5000, 808.9463
142.7280, 829.2561
143.9560, 771.6509
145.1840, 833.1323
146.4120, 801.6934
147.6390, 786.3359
148.8670, 835.0598
150.0940, 801.8662
151.3210, 783.7546
152.5490, 823.7261
153.7750, 692.7800
155.0020, 663.9170
156.2290, 649.1360
157.4550, 634.4443
158.6810, 704.8823
159.9080, 722.4651
161.1340, 716.1638
162.3590, 769.9844
163.5850, 784.9436
164.8110, 779.0217
166.0360, 780.2434
167.2610, 772.5393
168.4860, 762.9097
169.7110, 783.3535
170.9360, 748.8669
172.1610, 781.4497
173.3850, 795.1382
174.6100, 745.9717
175.8340, 787.9336
177.0580, 795.9871
178.2820, 814.1401
179.5050, 822.3711
180.7290, 787.6633
181.9520, 888.0171
183.1760, 852.4307
184.3990, 856.9043
185.6220, 908.4373
186.8450, 983.0293
188.0670, 941.6785
189.2900, 1068.386
190.5120, 1148.151
191.7340, 1105.972
192.9560, 1183.848
194.1780, 1308.781
195.4000, 1299.767
196.6220, 1485.808
197.8430, 1506.903
199.0640, 1620.836
200.2860, 1622.695
201.5070, 1606.539
202.7270, 1565.202
203.9480, 1590.296
205.1690, 1572.700
206.3890, 1636.831
207.6090, 1602.685
208.8290, 1651.614
210.0490, 1730.665
211.2690, 1736.070
212.4890, 1704.524
213.7080, 1678.106
214.9280, 1846.022
216.1470, 1746.562
217.3660, 1752.344
218.5850, 1906.374
219.8030, 1813.027
221.0220, 1701.429
222.2400, 1780.483
223.4590, 1802.143
224.6770, 1810.799
225.8950, 1798.229
227.1120, 1859.429
228.3300, 1892.705
229.5480, 1985.731
230.7650, 2047.021
231.9820, 2160.233
233.1990, 2297.508
234.4160, 2403.862
235.6330, 2690.157
236.8490, 2910.661
238.0660, 3280.237
239.2820, 3785.884
240.4980, 4313.598
241.7140, 4734.382
242.9300, 4886.231
244.1460, 5179.146
245.3610, 5602.125
246.5770, 6218.164
247.7920, 7351.265
249.0070, 8571.425
250.2220, 9616.646
251.4370, 10247.92
252.6510, 9852.255
253.8660, 8531.646
255.0800, 6944.089
256.2940, 5367.587
257.5080, 3855.138
258.7220, 2656.741
259.9360, 1955.394
261.1490, 1685.099
262.3630, 1369.839
263.5760, 1221.330
264.7890, 1094.190
266.0020, 935.2576
267.2150, 919.2075
268.4270, 941.7451
269.6400, 967.4736
270.8520, 1062.193
272.0640, 1192.361
273.2760, 1440.730
274.4880, 1369.041
275.7000, 1595.157
276.9120, 1651.918
278.1230, 1823.328
279.3340, 2176.193
280.5450, 2516.614
281.7560, 2738.075
282.9670, 3114.579
284.1780, 3117.592
285.3880, 3070.174
286.5980, 2793.796
287.8090, 2547.458
289.0190, 2215.157
290.2290, 1895.895
291.4380, 1774.671
292.6480, 1531.832
293.8570, 1476.567
295.0670, 1245.843
296.2760, 1281.659
297.4850, 1162.171
298.6930, 1253.916
299.9020, 1155.132
301.1110, 1135.196
302.3190, 1250.663
303.5270, 1231.960
304.7350, 1258.457
305.9430, 1285.654
307.1510, 1344.884
308.3580, 1320.144
309.5660, 1527.436
310.7730, 1536.762
311.9800, 1626.113
313.1870, 1613.493
314.3940, 1643.903
315.6010, 1658.341
316.8070, 1784.808
318.0130, 1817.302
319.2200, 1954.824
320.4260, 2032.374
321.6310, 2131.294
322.8370, 2299.552
324.0430, 2362.178
325.2480, 2509.832
326.4540, 2665.510
327.6590, 2780.213
328.8640, 2995.940
330.0680, 3404.691
331.2730, 3717.467
332.4780, 3889.266
333.6820, 3832.089
334.8860, 3560.936
336.0900, 2902.805
337.2940, 2395.697
338.4980, 1677.612
339.7010, 1269.550
340.9050, 917.5093
342.1080, 673.4907
343.3110, 681.4941
344.5140, 539.5393
345.7170, 479.6267
346.9200, 390.7559
348.1220, 277.9285
349.3240, 169.1421
350.5270, 208.3965
351.7290, 15.69043
352.9310, 44.02661
354.1320, 46.60010
355.3340, 8.201416
356.5350, 39.76904
357.7370, 19.68750
358.9380, 10.82153
360.1390, 28.30005
361.3400, 56.75269
362.5400, 102.1892
363.7410, 143.6294
364.9410, 19.07666
366.1410, 93.49536
367.3410, 4.916260
368.5410, 53.69141
369.7410, 49.67139
370.9400, 64.01733
372.1400, 13.35571
373.3390, 11.33569
374.5380, 6.944092
375.7370, 1.809082
376.9360, 62.58838
378.1350, 25.40332
379.3330, 25.75293
380.5310, 30.10913
381.7300, 16.99707
382.9280, 41.91064
384.1260, 84.84985
385.3230, 54.81372
386.5210, 115.8020
387.7180, 182.8142
388.9160, 189.8501
390.1130, 129.9094
391.3100, 183.9915
392.5060, 151.0967
393.7030, 168.2256
394.9000, 197.3784
396.0960, 284.5557
397.2920, 226.7612
398.4880, 229.9917
399.6840, 244.2546
400.8800, 209.5540
402.0750, 88.89722
403.2710, 38.29150
404.4660, 36.73926
405.6610, 15.78760
406.8560, 30.17383
408.0510, 55.78442
409.2450, 58.26611
410.4400, 13.75342
411.6340, 3.223877
412.8280, 66.65942
414.0220, 4.089600
415.2160, 32.49609
416.4100, 54.89697
417.6030, 32.30371
418.7970, 6.704102
419.9900, 58.09375
421.1830, 68.49487
422.3760, 3.087646
423.5690, 28.68091
424.7610, 85.29468
425.9540, 115.4221
427.1460, 5.580078
428.3380, 137.2451
429.5300, 93.92578
430.7220, 30.62158
431.9140, 58.33276
433.1050, 32.05835
434.2970, 44.79883
435.4880, 28.44629
436.6790, 18.69897
437.8700, 64.95508
439.0610, 55.23633
440.2510, 10.53857
441.4420, 69.84229
442.6320, 22.82544
443.8220, 51.50342
445.0120, 42.80542
446.2020, 25.86816
447.3910, 3.448242
448.5810, 57.23511
449.7700, 46.93091
450.9600, 85.63843
452.1490, 62.35815
453.3370, 41.08984
454.5260, 122.8325
455.7150, 171.5864
456.9030, 160.3521
458.0910, 140.1287
459.2800, 217.9163
460.4670, 231.7146
461.6550, 194.5239
462.8430, 235.3438
464.0300, 396.1736
465.2180, 462.0142
466.4050, 585.8645
467.5920, 749.7251
468.7790, 818.9741
469.9650, 926.4751
471.1520, 1017.364
472.3380, 1091.263
473.5250, 1200.171
474.7110, 1308.829
475.8970, 1552.014
477.0820, 1543.950
478.2680, 1632.894
479.4540, 1735.846
480.6390, 1691.807
481.8240, 1657.776
483.0090, 1565.753
484.1940, 1545.739
485.3780, 1485.732
486.5630, 1557.734
487.7470, 1681.744
488.9320, 1539.761
490.1160, 1776.786
491.3000, 1853.819
492.4830, 1992.858
493.6670, 2070.905
494.8500, 2275.957
496.0340, 2475.017
497.2170, 2740.845
498.4000, 2895.786
499.5820, 2981.844
500.7650, 3028.940
501.9480, 2819.849
503.1300, 2621.292
504.3120, 2462.831
505.4940, 2397.097
506.6760, 2330.843
507.8580, 2379.885
509.0390, 2395.465
510.2210, 2470.615
511.4020, 2668.910
512.5830, 2889.307
513.7640, 3038.284
514.9450, 3278.539
516.1250, 3487.965
517.3060, 3967.835
518.4860, 4535.065
519.6660, 5119.222
520.8460, 5935.013
522.0260, 6843.766
523.2060, 7587.027
524.3850, 8625.479
525.5650, 9684.812
526.7440, 11025.09
527.9230, 12366.37
529.1020, 13796.65
530.2810, 14750.93
531.4590, 14638.21
532.6380, 13982.50
533.8160, 12859.79
534.9940, 11793.32
536.1720, 10632.91
537.3500, 9870.781
538.5270, 10205.50
539.7050, 10831.62
540.8820, 12162.32
542.0590, 14634.25
543.2360, 18048.72
544.4130, 21228.13
545.5900, 24499.99
546.7660, 26915.62
547.9430, 29868.07
549.1190, 34460.11
550.2950, 40980.93
551.4710, 50800.01
552.6470, 56114.05
553.8220, 58585.09
554.9980, 54697.25
556.1730, 45300.73
557.3480, 34013.53
558.5230, 24142.84
559.6980, 16615.82
560.8730, 11883.77
562.0470, 8678.261
563.2220, 6572.206
564.3960, 5206.978
565.5700, 4193.195
566.7440, 3501.494
567.9170, 2968.676
569.0910, 2639.452
570.2640, 2327.695
571.4380, 2026.935
572.6110, 1924.171
573.7840, 1804.404
574.9570, 1651.632
576.1290, 1671.856
577.3020, 1626.729
578.4740, 1948.061
579.6460, 2039.884
580.8180, 2403.201
581.9900, 3104.854
583.1620, 4126.305
584.3330, 5855.315
585.5040, 8454.510
586.6760, 11206.33
587.8470, 12888.36
589.0180, 13731.21
590.1880, 15183.39
591.3590, 19023.57
592.5290, 25125.73
593.7000, 33304.91
594.8700, 39673.07
596.0400, 40297.23
597.2090, 34602.38
598.3790, 25844.53
599.5490, 17289.68
600.7180, 11183.83
601.8870, 7396.967
603.0560, 5297.103
604.2250, 4071.233
605.3940, 3144.360
606.5620, 2617.481
607.7300, 2242.599
608.8990, 1738.711
610.0670, 1511.819
611.2350, 1432.922
612.4020, 1175.020
613.5700, 1178.112
614.7370, 936.1997
615.9050, 836.2817
617.0720, 782.3594
618.2390, 645.4316
619.4060, 561.4980
620.5720, 538.5596
621.7390, 434.6152
622.9050, 473.6660
624.0710, 517.7109
625.2370, 448.7500
626.4030, 370.7837
627.5690, 325.0137
628.7340, 352.0356
629.9000, 291.2334
631.0650, 262.3564
632.2300, 215.3613
633.3950, 262.3594
634.5600, 207.4253
635.7240, 157.4116
636.8890, 232.4663
638.0530, 121.4468
639.2170, 158.1016
640.3810, 104.4067
641.5450, 185.4595
642.7080, 133.0166
643.8720, 74.38330
645.0350, 104.3970
646.1980, 22.05566
647.3610, 42.20117
648.5240, 121.8320
649.6870, 94.10791
650.8490, 90.05859
652.0120, 34.99951
653.1740, 86.93408
654.3360, 18.14990
655.4980, 83.72266
656.6600, 5.794434
657.8210, 108.6792
658.9830, 3.556641
660.1440, 56.40820
661.3050, 69.24658
662.4660, 141.0898
663.6270, 83.98779
664.7870, 98.82959
665.9480, 107.2441
667.1080, 136.0874
668.2680, 149.9321
669.4280, 189.7705
670.5880, 199.6055
671.7480, 193.4390
672.9070, 123.2690
674.0670, 78.09033
675.2260, 73.90869
676.3850, 52.72217
677.5440, 14.54346
678.7030, 38.34473
679.8610, 5.836914
681.0200, 27.11523
682.1780, 53.40039
683.3360, 84.73926
684.4940, 92.14795
685.6520, 16.36963
686.8090, 19.13330
687.9670, 12.33252
689.1240, 43.21436
690.2810, 29.20459
691.4380, 3.621582
692.5950, 56.98145
693.7520, 44.63525
694.9080, 15.32129
696.0650, 6.963379
697.2210, 16.23486
698.3770, 1.502441
699.5330, 48.75488
700.6880, 38.99854
701.8440, 35.24512
702.9990, 133.4941
704.1550, 24.73877
705.3100, 92.96729
706.4650, 1.812500
707.6190, 125.3823
708.7740, 159.5723
709.9290, 156.7554
711.0830, 123.9307
712.2370, 195.1147
713.3910, 338.2593
714.5450, 340.4126
715.6980, 349.5591
716.8520, 484.7095
718.0050, 510.8608
719.1580, 627.0249
720.3110, 799.1997
721.4640, 706.3755
722.6170, 909.5654
723.7700, 1031.749
724.9220, 1112.927
726.0740, 1239.111
727.2260, 1371.747
728.3780, 1527.473
729.5300, 1654.646
730.6810, 1780.814
731.8330, 1917.976
732.9840, 1940.130
734.1350, 2030.279
735.2860, 1898.421
736.4370, 2022.558
737.5880, 1743.688
738.7380, 1790.813
739.8880, 1737.932
741.0390, 1658.045
742.1890, 1595.152
743.3380, 1487.253
744.4880, 1335.349
745.6380, 1236.438
746.7870, 976.5225
747.9360, 945.6021
749.0850, 745.6758
750.2340, 626.7446
751.3830, 582.8076
752.5310, 423.8657
753.6800, 425.9189
754.8280, 336.9673
755.9760, 250.0107
757.1240, 269.0498
758.2720, 168.0835
759.4190, 165.1128
760.5670, 155.1377
761.7140, 184.1582
762.8610, 96.17432
764.0080, 123.1860
765.1550, 38.19336
766.3020, 71.19482
767.4480, 38.19287
768.5950, 45.18408
769.7410, 67.17090
770.8870, 87.15381
772.0330, 47.13281
773.1780, 78.10791
774.3240, 45.07861
775.4690, 61.04590
776.6140, 6.010254
777.7590, 23.03662
778.9040, 39.89258
780.0490, 45.18262
781.1940, 42.29248
782.3380, 40.37500
783.4820, 28.77197
784.6260, 8.214355
785.7700, 1.899902
786.9140, 9.297852
788.0580, 65.42969
789.2010, 52.12061
790.3450, 86.03564
791.4880, 61.30615
792.6310, 7.4219003E-02
793.7730, 14.62061
794.9160, 69.54639
796.0590, 74.69482
797.2010, 118.0962
798.3430, 61.28564
799.4850, 62.21582
800.6270, 20.53857
801.7690, 28.09570
802.9100, 3.491211
804.0520, 29.99902
805.1930, 126.2925
806.3340, 109.5332
807.4750, 153.0566
808.6160, 222.4097
809.7560, 238.8643
810.8970, 201.5762
812.0370, 242.6001
813.1770, 167.4561
814.3170, 250.6069
815.4570, 421.8936
816.5960, 351.7734
817.7360, 357.0884
818.8750, 383.1611
820.0140, 364.6992
821.1530, 516.3057
822.2920, 544.4556
823.4310, 544.8389
824.5690, 555.4233
825.7070, 648.7021
826.8460, 684.6206
827.9840, 720.6636
829.1220, 851.6328
830.2590, 955.0674
831.3970, 1068.241
832.5340, 1170.148
833.6710, 1228.331
834.8080, 1344.844
835.9450, 1404.788
837.0820, 1534.015
838.2190, 1788.093
839.3550, 1833.118
840.4910, 2025.904
841.6270, 2137.736
842.7630, 2338.489
843.8990, 2377.362
845.0350, 2613.174
846.1700, 2714.991
847.3060, 2853.817
848.4410, 3118.649
849.5760, 3374.487
850.7100, 3617.334
851.8450, 3867.188
852.9800, 4156.050
854.1140, 4380.920
855.2480, 4678.798
856.3820, 5113.683
857.5160, 5319.575
858.6500, 5841.478
859.7830, 6219.387
860.9170, 6800.304
862.0500, 7223.230
863.1830, 7842.164
864.3160, 8729.108
865.4480, 9454.061
866.5810, 10367.02
867.7130, 11559.99
868.8460, 12714.97
869.9780, 14110.96
871.1100, 15662.95
872.2410, 17276.96
873.3730, 18907.98
874.5050, 20663.00
875.6360, 21908.04
876.7670, 23552.08
877.8980, 24613.14
879.0290, 24614.21
880.1590, 24624.29
881.2900, 23768.37
882.4200, 22201.47
883.5500, 20254.58
884.6800, 17914.70
885.8100, 15951.84
886.9400, 13548.98
888.0690, 11953.14
889.1990, 10014.30
890.3280, 8533.486
891.4570, 7382.675
892.5860, 6315.878
893.7140, 5487.095
894.8430, 4723.321
895.9710, 4076.957
897.1000, 3635.816
898.2280, 3163.081
899.3560, 2876.360
900.4830, 2708.652
901.6110, 2416.756
902.7380, 2198.075
903.8660, 2135.225
904.9930, 1926.457
906.1200, 1803.817
907.2460, 1748.190
908.3730, 1566.505
909.5000, 1398.907
910.6260, 1277.250
911.7520, 1108.681
912.8780, 1022.447
914.0040, 908.5762
915.1290, 822.9663
916.2550, 654.8638
917.3800, 584.9639
918.5050, 523.4326
919.6300, 376.3955
920.7550, 466.6694
921.8800, 324.5786
923.0040, 454.8682
924.1290, 326.4941
925.2530, 275.1377
926.3770, 157.8022
927.5010, 134.2051
928.6250, 102.2666
929.7480, 239.8369
930.8720, 180.6113
931.9950, 67.40430
933.1180, 33.22461
934.2410, 74.92529
935.3640, 75.85889
936.4860, 36.28320
937.6090, 79.42725
938.7310, 46.13818
939.8530, 62.27100
940.9750, 21.39600
942.0970, 30.49854
943.2180, 53.58887
944.3400, 28.67432
945.4610, 9.253418
946.5820, 51.79834
947.7030, 48.84424
948.8240, 129.8813
949.9450, 11.06152
951.0650, 4.031738
952.1860, 33.02588
953.3060, 111.0557
954.4260, 151.1230
955.5460, 177.2334
956.6650, 220.3965
957.7850, 266.6187
958.9040, 329.1201
960.0230, 411.1538
961.1420, 491.4678
962.2610, 525.8223
963.3800, 644.2036
964.4990, 611.6152
965.6170, 640.0718
966.7350, 760.5703
967.8530, 738.1084
968.9710, 687.6753
970.0890, 748.2700
971.2070, 634.8960
972.3240, 698.5469
973.4410, 515.2231
974.5580, 647.9258
975.6750, 620.6528
976.7920, 622.4067
977.9090, 463.1841
979.0250, 490.9932
980.1410, 539.8252
981.2580, 510.6807
982.3740, 617.5586
983.4890, 543.4658
984.6050, 610.3965
985.7200, 513.3496
986.8360, 507.3267
987.9510, 504.3271
989.0660, 495.3506
990.1810, 504.3975
991.2950, 533.4678
992.4100, 507.5625
993.5240, 424.6797
994.6390, 463.8213
995.7530, 550.9863
996.8660, 434.1748
997.9800, 495.3872
999.0940, 473.6240
1000.207, 480.8838
1001.320, 470.1685
1002.433, 466.4766
1003.546, 457.8091
1004.659, 420.1650
1005.772, 460.5454
1006.884, 419.9507
1007.996, 450.3799
1009.108, 402.8335
1010.220, 407.2134
1011.332, 466.8296
1012.444, 394.3643
1013.555, 401.9238
1014.666, 386.5073
1015.777, 442.1162
1016.888, 371.7500
1017.999, 373.4082
1019.110, 351.0903
1020.220, 405.7979
1021.331, 309.5298
1022.441, 373.2856
1023.551, 440.0732
1024.661, 359.8848
1025.770, 414.7222
1026.880, 391.5840
1027.989, 489.4702
1029.098, 407.3818
1030.207, 393.3179
1031.316, 401.2793
1032.425, 473.2666
1033.533, 426.2783
1034.642, 500.3164
1035.750, 457.3838
1036.858, 384.4800
1037.966, 537.6025
1039.073, 503.7510
1040.181, 469.9238
1041.288, 503.1362
1042.396, 513.3740
1043.503, 495.6455
1044.610, 564.9424
1045.716, 543.2651
1046.823, 460.6162
1047.929, 493.0029
1049.036, 499.4272
1050.142, 569.8916
1051.248, 594.3955
1052.353, 640.9248
1053.459, 554.4902
1054.564, 513.0908
1055.670, 554.7192
1056.775, 647.3784
1057.880, 583.0674
1058.985, 602.7803
1060.089, 618.5176
1061.194, 592.0781
1062.298, 629.8862
1063.402, 580.9087
1064.506, 695.7646
1065.610, 670.6450
1066.713, 698.1118
1067.817, 646.1221
1068.920, 720.4873
1070.023, 743.8066
1071.126, 736.6611
1072.229, 832.7905
1073.332, 892.4106
1074.435, 872.7041
1075.537, 905.2427
1076.639, 862.8081
1077.741, 939.3013
1078.843, 1034.561
1079.945, 1078.299
1081.046, 1201.178
1082.148, 1273.441
1083.249, 1377.875
1084.350, 1488.265
1085.451, 1656.484
1086.551, 1827.921
1087.652, 1778.380
1088.752, 1890.863
1089.853, 1929.438
1090.953, 1919.965
1092.053, 1880.514
1093.152, 1765.086
1094.252, 1686.679
1095.351, 1533.294
1096.451, 1414.931
1097.550, 1197.588
1098.649, 1071.268
1099.748, 965.8818
1100.846, 879.5278
1101.945, 830.3462
1103.043, 809.1089
1104.141, 733.8926
1105.239, 731.6968
1106.337, 680.5215
1107.434, 580.7520
1108.532, 477.6255
1109.629, 422.5259
1110.726, 413.4468
1111.823, 500.3867
1112.920, 308.3467
1114.017, 400.3257
1115.113, 255.6387
1116.210, 396.6567
1117.306, 451.6938
1118.402, 267.7500
1119.498, 424.8257
1120.593, 426.9199
1121.689, 417.0322
1122.784, 419.1641
1123.879, 401.3145
1124.974, 315.4844
1126.069, 305.6733
1127.164, 289.8833
1128.259, 188.1113
1129.353, 207.3569
1130.447, 152.6201
1131.541, 169.9106
1132.635, 162.2188
1133.729, 244.5479
1134.822, 163.8936
1135.916, 194.2568
1137.009, 237.6475
1138.102, 211.0552
1139.195, 138.5283
1140.288, 162.9727
1141.380, 86.11670
1142.473, 89.68994
1143.565, 191.1860
1144.657, 170.6978
1145.749, 91.22559
1146.841, 191.9004
1147.932, 156.4609
1149.024, 266.0352
1150.115, 125.6250
1151.206, 199.2310
1152.297, 121.8516
1153.388, 152.4873
1154.479, 97.47363
1155.569, 149.1392
1156.659, 185.0127
1157.750, 76.71289
1158.839, 16.42725
1159.929, 59.15674
1161.019, 93.89990
1162.108, 108.6704
1163.198, 71.74072
1164.287, 155.5522
1165.376, 107.6787
1166.465, 106.1523
1167.553, 121.9443
1168.642, 97.94385
1169.730, 156.7925
1170.818, 95.65381
1171.906, 131.9546
1172.994, 63.84082
1174.082, 110.7676
1175.170, 11.78223
1176.257, 16.93115
1177.344, 63.86670
1178.431, 83.86768
1179.518, 44.58545
1180.605, 47.55273
1181.691, 38.66309
1182.778, 26.51123
1183.864, 28.51660
1184.950, 27.47559
1186.036, 38.49463
1187.122, 54.52246
1188.207, 84.70312
1189.292, 60.75000
1190.378, 12.80664
1191.463, 48.12695
1192.548, 4.932617
1193.632, 76.00000
1194.717, 4.047363
1195.801, 16.10254
1196.886, 46.52539
1197.970, 13.47119
1199.054, 37.59814
1200.137, 12.31445
1201.221, 39.62402
1202.305, 13.95654
1203.388, 38.20996
1204.471, 39.90332
1205.554, 5.697754
1206.637, 5.175293
1207.719, 75.86035
1208.802, 122.9907
1209.884, 26.31396
1210.966, 91.46191
1212.048, 2.620117
1213.130, 45.80518
1214.212, 66.99316
1215.293, 15.81445
1216.374, 74.37451
1217.456, 58.56641
1218.536, 25.76221
1219.617, 20.03857
1220.698, 60.15332
1221.778, 23.34863
1222.859, 64.54688
1223.939, 16.74854
1225.019, 57.95215
1226.099, 62.15820
1227.178, 65.36719
1228.258, 12.57812
1229.337, 14.20850
1230.417, 67.99756
1231.496, 137.2764
1232.574, 42.48584
1233.653, 109.6963
1234.732, 45.90771
1235.810, 93.12061
