##NAMES=Chondrodite
##RRUFFID=R040016
##IDEAL CHEMISTRY=Mg_5_(SiO_4_)_2_F_2_
##LOCALITY=Vastmanland, Kafveltorp, Sweden
##OWNER=RRUFF
##SOURCE=University of Arizona Mineral Museum
##DESCRIPTION=Deep red single crystals embedded in matrix
##STATUS=The identification of this mineral has been confirmed by X-ray diffraction and chemical analysis
##URL=rruff.info/R040016
##MEASURED CHEMISTRY=(Mg_4.61_Fe_0.31_Mn_0.07_Ca_0.01_)_Σ=5_(Si_1.00_O_4_)_2_(F_1.16_(OH)_0.84_)_Σ=2_
##PIN_ID=M00385
##ORIENTATION=Laser parallel to -c [0 0 -1]. Fiducial mark perpendicular to laser is parallel to b* (0 1 0)
164.702, 0.000
166.082, 4.692
167.461, 21.958
168.841, 26.053
170.220, 94.962
171.600, 51.015
172.979, 126.075
174.357, 112.116
175.736, 134.209
177.114, 291.353
178.492, 272.473
179.870, 389.557
181.247, 387.582
182.625, 451.523
184.002, 378.578
185.379, 270.849
186.756, 221.287
188.132, 111.670
189.508, 155.816
190.884, 63.696
192.260, 59.851
193.636, 2.467
195.011, 43.692
196.386, 68.298
197.761, 72.728
199.136, 147.039
200.510, 146.833
201.885, 217.021
203.259, 265.862
204.632, 212.647
206.006, 259.150
207.379, 190.939
208.753, 227.448
210.125, 184.525
211.498, 131.669
212.871, 108.692
214.243, 31.260
215.615, 91.811
216.987, 24.682
218.358, 26.646
219.730, 20.636
221.101, 8.154
222.472, 16.308
223.843, 44.249
225.213, 37.175
226.583, 26.421
227.953, 17.002
229.323, 33.754
230.693, 25.365
232.062, 20.461
233.431, 25.370
234.800, 0.268
236.169, 53.584
237.537, 65.704
238.906, 68.472
240.274, 72.247
241.642, 54.951
243.009, 123.786
244.377, 73.602
245.744, 164.402
247.111, 95.188
248.478, 103.969
249.844, 131.745
251.210, 68.512
252.576, 102.273
253.942, 61.036
255.308, 93.800
256.673, 55.566
258.039, 46.337
259.404, 30.112
260.768, 63.106
262.133, 4.317
263.497, 137.782
264.861, 100.974
266.225, 141.160
267.589, 214.337
268.952, 113.745
270.315, 112.901
271.678, 93.049
273.041, 183.190
274.404, 185.321
275.766, 286.438
277.128, 450.539
278.490, 365.623
279.852, 486.685
281.213, 386.728
282.575, 335.754
283.936, 282.766
285.296, 178.765
286.657, 158.755
288.017, 24.739
289.378, 59.717
290.738, 3.310
292.097, 36.343
293.457, 27.618
294.816, 45.426
296.175, 6.476
297.534, 43.532
298.893, 6.593
300.251, 21.660
301.609, 66.733
302.967, 75.812
304.325, 65.900
305.682, 108.995
307.040, 92.983
308.397, 108.902
309.754, 72.947
311.110, 83.748
312.467, 33.822
313.823, 69.217
315.179, 49.519
316.535, 5.938
317.890, 10.374
319.246, 36.510
320.601, 72.070
321.956, 131.910
323.311, 156.464
324.665, 236.067
326.019, 275.057
327.373, 276.414
328.727, 344.050
330.081, 319.375
331.434, 342.726
332.787, 309.104
334.140, 230.383
335.493, 287.994
336.846, 235.577
338.198, 273.966
339.550, 243.195
340.902, 249.383
342.254, 262.669
343.605, 236.826
344.956, 231.986
346.307, 170.114
347.658, 171.225
349.009, 197.338
350.359, 147.406
351.709, 153.539
353.059, 79.553
354.409, 101.542
355.758, 62.527
357.108, 97.480
358.457, 27.419
359.806, 37.649
361.154, 10.276
362.503, 0.196
363.851, 44.110
365.199, 37.057
366.547, 13.964
367.894, 23.823
369.242, 29.799
370.589, 22.479
371.936, 36.605
373.282, 28.147
374.629, 37.069
375.975, 3.968
377.321, 68.705
378.667, 79.570
380.013, 88.393
381.358, 174.290
382.703, 231.855
384.048, 318.353
385.393, 303.958
386.738, 459.407
388.082, 360.934
389.426, 398.136
390.770, 388.569
392.114, 236.576
393.457, 343.901
394.800, 209.183
396.143, 246.333
397.486, 223.773
398.829, 155.051
400.171, 213.517
401.513, 181.829
402.855, 210.315
404.197, 244.842
405.539, 270.440
406.880, 353.176
408.221, 389.908
409.562, 436.912
410.903, 487.625
412.243, 517.082
413.583, 553.800
414.923, 574.514
416.263, 572.224
417.603, 528.933
418.942, 548.637
420.282, 507.338
421.620, 464.035
422.959, 438.729
424.298, 327.419
425.636, 347.105
426.974, 268.786
428.312, 247.466
429.650, 275.141
430.987, 182.814
432.325, 231.483
433.662, 177.148
434.999, 217.809
436.335, 202.450
437.672, 141.933
439.008, 169.583
440.344, 68.016
441.680, 107.627
443.015, 63.062
444.350, 53.664
445.686, 101.192
447.021, 23.493
448.355, 33.775
449.690, 40.914
451.024, 17.809
452.358, 6.366
453.692, 37.538
455.026, 13.279
456.359, 82.075
457.692, 12.651
459.025, 40.398
460.358, 45.062
461.691, 18.531
463.023, 91.029
464.355, 13.488
465.687, 99.953
467.019, 30.430
468.350, 44.914
469.682, 131.406
471.013, 20.090
472.344, 62.421
473.675, 1.060
475.005, 8.465
476.335, 17.997
477.665, 0.535
478.995, 76.079
480.325, 73.632
481.654, 35.194
482.983, 4.763
484.312, 16.661
485.641, 23.919
486.970, 0.494
488.298, 3.099
489.626, 40.303
490.954, 36.700
492.282, 3.908
493.609, 35.478
494.937, 18.140
496.264, 25.235
497.591, 45.606
498.917, 2.028
500.244, 73.334
501.570, 32.691
502.896, 65.043
504.222, 41.215
505.548, 34.559
506.873, 87.898
508.198, 28.767
509.523, 78.562
510.848, 25.888
512.172, 16.791
513.497, 21.525
514.821, 6.162
516.145, 22.974
517.469, 9.721
518.792, 6.422
520.115, 22.874
521.439, 23.835
522.761, 19.451
524.084, 13.266
525.407, 48.011
526.729, 49.395
528.051, 26.333
529.373, 86.120
530.694, 5.660
532.016, 15.923
533.337, 64.482
534.658, 27.830
535.979, 90.476
537.299, 41.068
538.620, 110.488
539.940, 131.070
541.260, 69.322
542.580, 151.677
543.899, 122.425
545.218, 202.921
546.538, 194.638
547.857, 275.078
549.175, 340.492
550.494, 276.139
551.812, 366.551
553.130, 278.188
554.448, 236.434
555.766, 261.929
557.083, 226.560
558.400, 269.890
559.717, 218.547
561.034, 220.899
562.351, 264.242
563.667, 247.685
564.983, 354.906
566.299, 287.202
567.615, 324.383
568.931, 354.560
570.246, 303.014
571.561, 424.187
572.876, 393.709
574.191, 460.871
575.505, 477.027
576.820, 482.180
578.134, 670.329
579.448, 599.474
580.761, 725.616
582.075, 784.754
583.388, 802.890
584.701, 941.021
586.014, 1000.150
587.327, 1203.275
588.639, 1302.396
589.952, 1461.403
591.264, 1711.521
592.575, 1913.442
593.887, 2366.469
595.198, 2579.581
596.510, 3042.514
597.821, 3795.557
599.132, 4241.279
600.442, 4973.320
601.752, 5638.231
603.063, 6351.117
604.373, 7091.124
605.682, 7405.790
606.992, 7609.916
608.301, 7614.594
609.610, 7398.369
610.919, 6950.236
612.228, 6406.697
613.537, 5553.771
614.845, 4699.547
616.153, 3970.615
617.461, 3421.636
618.769, 2904.610
620.076, 2549.662
621.383, 2142.360
622.691, 1902.066
623.997, 1643.948
625.304, 1383.970
626.611, 1384.015
627.917, 1145.941
629.223, 1097.979
630.529, 972.997
631.834, 765.031
633.140, 762.063
634.445, 550.070
635.750, 521.096
637.055, 500.032
638.359, 333.054
639.664, 379.073
640.968, 312.076
642.272, 339.092
643.576, 244.104
644.879, 275.115
646.183, 360.124
647.486, 236.131
648.789, 295.136
650.092, 300.999
651.394, 195.000
652.697, 265.998
653.999, 152.910
655.301, 248.905
656.602, 175.863
657.904, 149.854
659.205, 213.792
660.506, 63.744
661.807, 93.729
663.108, 72.596
664.409, 16.577
665.709, 58.489
667.009, 19.532
668.309, 48.443
669.609, 35.713
670.908, 54.743
672.207, 38.223
673.506, 59.813
674.805, 14.854
676.104, 78.896
677.402, 67.945
678.701, 30.998
679.999, 66.055
681.297, 6.884
682.594, 18.179
683.892, 103.245
685.189, 49.317
686.486, 97.392
687.783, 38.474
689.079, 33.560
690.376, 84.648
691.672, 34.742
692.968, 83.840
694.264, 0.942
695.560, 55.046
696.855, 85.154
698.150, 21.267
699.445, 92.383
700.740, 27.504
702.035, 26.628
703.329, 48.755
704.623, 1.885
705.917, 19.017
707.211, 22.849
708.504, 14.715
709.798, 55.421
711.091, 4.440
712.384, 71.700
713.677, 20.155
714.969, 44.010
716.262, 9.864
717.554, 110.718
718.846, 5.570
720.138, 41.422
721.429, 105.274
722.720, 78.125
724.012, 104.976
725.303, 83.826
726.593, 144.676
727.884, 161.525
729.174, 104.375
730.464, 213.224
731.754, 143.073
733.044, 215.923
734.333, 190.773
735.623, 211.623
736.912, 297.474
738.201, 222.325
739.490, 297.178
740.778, 264.031
742.066, 243.884
743.355, 356.739
744.642, 289.595
745.930, 375.452
747.218, 339.311
748.505, 343.171
749.792, 439.032
751.079, 398.895
752.366, 474.760
753.652, 510.627
754.939, 470.495
756.225, 539.363
757.511, 473.232
758.796, 554.102
760.082, 504.973
761.367, 493.845
762.652, 594.720
763.937, 550.597
765.222, 600.474
766.506, 572.352
767.790, 545.231
769.075, 625.111
770.358, 613.992
771.642, 601.874
772.926, 644.756
774.209, 627.640
775.492, 735.524
776.775, 650.410
778.058, 718.298
779.340, 782.186
780.622, 748.075
781.904, 866.965
783.186, 849.857
784.468, 877.750
785.750, 958.644
787.031, 882.539
788.312, 1084.435
789.593, 964.333
790.873, 962.233
792.154, 1088.134
793.434, 1030.037
794.714, 1155.942
795.994, 1084.847
797.274, 1143.755
798.553, 1274.664
799.833, 1272.575
801.112, 1298.488
802.391, 1346.402
803.669, 1379.319
804.948, 1478.237
806.226, 1493.049
807.504, 1606.970
808.782, 1712.710
810.060, 1675.363
811.337, 1879.291
812.615, 1880.923
813.892, 2110.767
815.168, 2234.314
816.445, 2261.914
817.722, 2569.688
818.998, 2661.301
820.274, 2868.242
821.550, 3191.081
822.826, 3442.527
824.101, 3880.226
825.376, 4139.703
826.652, 4651.456
827.926, 5272.234
829.201, 6045.777
830.476, 7072.555
831.750, 7968.105
833.024, 9556.045
834.298, 11343.735
835.572, 13111.288
836.845, 16399.141
838.119, 19976.666
839.392, 24884.496
840.665, 31112.330
841.937, 38990.066
843.210, 47758.023
844.482, 56005.902
845.754, 60673.895
847.026, 62411.891
848.298, 57329.609
849.569, 50347.609
850.841, 42165.258
852.112, 34033.270
853.383, 28311.281
854.654, 22919.297
855.924, 19147.316
857.195, 15875.338
858.465, 13453.363
859.735, 11611.393
861.004, 10289.425
862.274, 9047.460
863.543, 8425.500
864.812, 7443.542
866.081, 7311.587
867.350, 7029.637
868.619, 6739.690
869.887, 6923.747
871.155, 6483.807
872.423, 6439.871
873.691, 5947.939
874.959, 5365.012
876.226, 4860.087
877.493, 4313.168
878.760, 3854.252
880.027, 3434.341
881.294, 3061.387
882.560, 2837.529
883.826, 2454.631
885.092, 2308.736
886.358, 2083.844
887.624, 1819.959
888.889, 1866.077
890.154, 1677.200
891.419, 1547.326
892.684, 1510.456
893.949, 1363.591
895.213, 1323.729
896.477, 1187.871
897.742, 1145.018
899.005, 1130.169
900.269, 1026.323
901.532, 1077.482
902.796, 1073.644
904.059, 964.813
905.322, 1048.987
906.584, 1017.167
907.847, 936.352
909.109, 917.540
910.371, 791.731
911.633, 923.926
912.895, 777.125
914.156, 858.328
915.418, 919.535
916.679, 736.745
917.940, 836.961
919.200, 757.180
920.461, 761.403
921.721, 852.630
922.981, 702.860
924.241, 814.095
925.501, 823.334
926.760, 932.576
928.020, 1098.822
929.279, 1201.072
930.538, 1355.326
931.797, 1543.584
933.055, 1463.845
934.314, 1631.110
935.572, 1582.378
936.830, 1617.650
938.088, 1795.925
939.345, 1738.217
940.603, 1937.500
941.860, 1824.785
943.117, 1537.074
944.374, 1351.368
945.630, 1041.666
946.887, 973.968
948.143, 908.273
949.399, 814.584
950.655, 930.898
951.910, 900.218
953.166, 1032.542
954.421, 1160.871
955.676, 1134.204
956.931, 1358.542
958.186, 1488.883
959.440, 1715.229
960.695, 2162.580
961.949, 2491.937
963.203, 3271.298
964.456, 4151.663
965.710, 5424.074
966.963, 7060.449
968.216, 7986.828
969.469, 8785.211
970.722, 8483.598
971.974, 7422.186
973.227, 6312.582
974.479, 5031.983
975.731, 3980.388
976.983, 3363.797
978.234, 2559.211
979.486, 2288.627
980.737, 1956.047
981.988, 1649.471
983.239, 1482.896
984.489, 1167.327
985.740, 1135.822
986.990, 1031.259
988.240, 832.700
989.490, 875.155
990.740, 689.601
991.989, 711.102
993.238, 732.553
994.487, 510.008
995.736, 647.514
996.985, 532.973
998.233, 472.516
999.482, 627.982
1000.730, 500.449
1001.978, 709.048
1003.225, 807.521
1004.473, 617.008
1005.720, 677.666
1006.967, 533.146
1008.214, 411.944
1009.461, 379.428
1010.708, 231.997
1011.954, 456.720
1013.200, 255.211
1014.446, 263.095
1015.692, 389.594
1016.938, 266.091
1018.183, 368.086
1019.428, 356.643
1020.673, 254.146
1021.918, 407.172
1023.163, 291.679
1024.407, 319.495
1025.652, 387.027
1026.896, 255.538
1028.140, 352.390
1029.383, 334.905
1030.627, 222.574
1031.870, 332.349
1033.113, 226.869
1034.356, 241.540
1035.599, 252.155
1036.841, 189.774
1038.084, 255.048
1039.326, 135.731
1040.568, 138.915
1041.810, 226.703
1043.051, 103.236
1044.293, 169.774
1045.534, 193.318
1046.775, 87.863
1048.016, 251.660
1049.256, 93.212
1050.497, 99.887
1051.737, 225.700
1052.977, 60.254
1054.217, 184.000
1055.457, 165.556
1056.696, 39.113
1057.935, 175.948
1059.174, 67.506
1060.413, 93.069
1061.652, 48.794
1062.891, 11.353
1064.129, 120.090
1065.367, 31.649
1066.605, 15.209
1067.843, 130.867
1069.080, 25.427
1070.318, 145.988
1071.555, 95.601
1072.792, 3.163
1074.029, 154.725
1075.266, 111.289
1076.502, 82.854
1077.738, 182.506
1078.974, 47.072
1080.210, 197.638
1081.446, 111.204
1082.681, 72.769
1083.917, 245.334
1085.152, 61.901
1086.387, 127.468
1087.621, 124.098
1088.856, 5.666
1090.090, 144.233
1091.325, 63.800
1092.559, 23.367
1093.792, 98.935
1095.026, 6.502
1096.259, 129.068
1097.493, 94.634
1098.726, 3.801
1099.958, 146.764
1101.191, 13.327
1102.424, 113.891
1103.656, 136.453
1104.888, 36.985
1106.120, 127.574
1107.352, 104.133
1108.583, 83.689
1109.814, 188.245
1111.046, 15.799
1112.277, 99.353
1113.507, 115.906
1114.738, 4.457
1115.968, 79.007
1117.198, 63.555
1118.428, 8.898
1119.658, 124.645
1120.888, 15.188
1122.117, 1.728
1123.347, 96.266
1124.576, 7.198
1125.805, 157.337
1127.033, 27.869
1128.262, 6.600
1129.490, 172.928
1130.718, 13.360
1131.946, 69.163
1133.174, 90.684
1134.402, 23.797
1135.629, 110.719
1136.856, 1.233
1138.083, 35.256
1139.310, 109.252
1140.537, 64.243
1141.763, 82.257
1142.989, 14.246
1144.215, 46.752
1145.441, 98.738
1146.667, 80.775
1147.892, 2.706
1149.118, 38.185
1150.343, 103.339
1151.568, 8.870
1152.793, 17.596
1154.017, 108.940
1155.241, 104.515
1156.466, 63.032
1157.690, 1.586
1158.913, 50.858
1160.137, 69.702
1161.361, 42.731
1162.584, 29.838
1163.807, 52.412
1165.030, 108.009
1166.252, 29.573
1167.475, 17.160
1168.697, 17.751
1169.919, 158.347
1171.141, 30.953
1172.363, 138.564
1173.585, 52.613
1174.806, 302.994
1176.027, 198.185
1177.248, 92.633
1178.469, 101.070
1179.690, 50.562
1180.910, 104.791
1182.131, 23.860
1183.351, 53.386
1184.571, 87.951
1185.790, 38.716
1187.010, 48.611
1188.229, 112.934
1189.448, 57.747
1190.667, 92.565
1191.886, 0.873
1193.105, 33.823
1194.323, 118.474
1195.541, 36.232
1196.759, 46.104
1197.977, 75.387
1199.195, 19.328
1200.412, 89.031
1201.630, 46.300
1202.847, 9.034
1204.064, 175.226
1205.280, 12.468
1206.497, 67.297
1207.713, 118.543
1208.930, 17.216
1210.146, 131.502
1211.361, 88.733
1212.577, 27.959
1213.792, 126.227
1215.008, 9.443
1216.223, 110.096
1217.438, 194.303
1218.652, 12.495
1219.867, 175.255
1221.081, 114.447
1222.295, 3.764
1223.509, 211.315
1224.723, 84.491
1225.937, 59.893
1227.150, 157.059
1228.363, 38.219
1229.576, 193.724
1230.789, 180.833
1232.002, 50.979
1233.214, 289.456
1234.427, 155.591
1235.639, 192.720
1236.851, 274.999
1238.062, 103.118
1239.274, 289.241
1240.485, 209.349
1241.697, 133.452
1242.908, 320.865
1244.118, 170.957
1245.329, 143.043
1246.540, 332.280
1247.750, 93.355
1248.960, 262.424
1250.170, 217.427
1251.380, 79.485
1252.589, 284.538
1253.799, 167.574
1255.008, 128.616
1256.217, 225.872
1257.425, 65.902
1258.634, 199.927
1259.843, 164.053
1261.051, 38.933
1262.259, 260.992
1263.467, 13.993
1264.674, 68.988
1265.882, 315.040
1267.089, 60.023
1268.296, 223.990
1269.503, 285.037
1270.710, 135.003
1271.917, 305.649
1273.123, 187.674
1274.330, 155.544
1275.536, 301.418
1276.741, 163.362
1277.947, 193.910
1279.153, 230.156
1280.358, 15.086
1281.563, 172.516
1282.768, 211.553
1283.973, 7.470
1285.177, 201.860
1286.382, 54.768
1287.586, 79.360
1288.790, 199.229
1289.994, 6.107
1291.198, 176.638
1292.401, 202.555
1293.604, 19.261
1294.808, 275.858
1296.011, 123.871
1297.213, 119.565
1298.416, 234.312
1299.618, 79.052
1300.821, 105.132
1302.023, 30.798
1303.224, 122.042
1304.426, 49.492
1305.628, 175.629
1306.829, 231.840
1308.030, 15.061
1309.231, 216.290
1310.432, 11.222
1311.632, 120.974
1312.833, 27.404
1314.033, 159.074
1315.233, 189.804
1316.433, 103.338
1317.633, 277.056
1318.832, 76.766
1320.031, 107.192
1321.231, 324.891
1322.429, 84.578
1323.628, 185.096
1324.827, 223.777
1326.025, 9.726
1327.223, 177.945
1328.421, 0.393
1329.619, 17.834
1330.817, 218.817
1332.015, 85.538
1333.212, 106.048
1334.409, 159.679
1335.606, 123.697
1336.803, 51.919
1337.999, 44.527
1339.196, 102.958
1340.392, 97.634
1341.588, 3.218
1342.784, 9.203
1343.980, 139.369
1345.175, 94.064
1346.370, 42.495
1347.566, 63.048
1348.761, 118.471
1349.955, 149.066
1351.150, 27.403
1352.344, 78.878
1353.539, 152.639
1354.733, 48.851
1355.927, 33.653
1357.120, 154.151
1358.314, 74.356
1359.507, 126.130
1360.700, 45.610
1361.893, 71.916
1363.086, 134.551
1364.279, 21.013
1365.471, 74.531
1366.663, 144.918
1367.855, 1.638
1369.047, 99.801
1370.239, 110.233
1371.431, 67.339
1372.622, 185.081
1373.813, 71.497
1375.004, 33.094
1376.195, 236.311
1377.386, 0.709
1378.576, 17.140
1379.766, 140.529
1380.957, 20.913
1382.146, 133.292
1383.336, 159.667
1384.526, 57.963
1385.715, 177.401
1386.904, 163.760
1388.093, 32.885
1389.282, 259.462
1390.471, 27.620
1391.659, 100.038
1392.848, 249.373
1394.036, 40.297
1395.224, 80.084
1396.412, 133.390
1397.599, 54.337
1398.787, 191.905
1399.974, 59.482
1401.161, 13.947
1402.348, 159.618
1403.535, 33.822
1404.721, 80.731
1405.907, 217.279
1407.094, 67.176
1408.280, 200.366
1409.465, 128.902
1410.651, 36.566
1411.836, 284.961
1413.022, 83.483
1414.207, 13.004
1415.392, 225.870
1416.577, 32.161
1417.761, 107.299
1418.945, 197.576
1420.130, 11.122
1421.314, 181.333
1422.498, 103.783
1423.681, 34.771
1424.865, 279.671
1426.048, 113.109
1427.231, 43.480
1428.414, 267.789
1429.597, 34.682
1430.780, 130.092
1431.962, 235.715
1433.144, 13.555
1434.326, 223.822
1435.508, 213.129
1436.690, 174.867
1437.871, 325.420
1439.053, 296.566
1440.234, 241.346
1441.415, 508.316
1442.596, 276.091
1443.776, 412.384
1444.957, 623.142
1446.137, 308.860
1447.317, 539.104
1448.497, 589.359
1449.677, 355.082
1450.857, 647.053
1452.036, 520.280
1453.215, 446.500
1454.394, 780.715
1455.573, 541.433
1456.752, 558.628
1457.930, 726.527
1459.109, 428.709
1460.287, 543.517
1461.465, 649.679
1462.643, 273.324
1463.820, 645.322
1464.998, 493.104
1466.175, 295.196
1467.352, 616.585
1468.529, 284.243
1469.706, 303.254
1470.883, 526.250
1472.059, 229.273
1473.235, 328.188
1474.411, 394.214
1475.587, 163.806
1476.763, 378.782
1477.938, 359.747
1479.114, 167.705
1480.289, 481.485
1481.464, 239.432
1482.639, 196.390
1483.813, 486.349
1484.988, 154.309
1486.162, 280.274
1487.336, 346.230
1488.510, 94.188
1489.684, 319.133
1490.858, 234.068
1492.031, 107.998
1493.204, 271.922
1494.377, 171.844
1495.550, 87.772
1496.723, 336.707
1497.895, 44.665
1499.068, 193.617
1500.240, 299.569
1501.412, 9.535
1502.584, 171.502
1503.755, 226.480
1504.927, 7.540
1506.098, 249.442
1507.269, 148.427
1508.440, 80.416
1509.611, 262.414
1510.782, 60.423
1511.952, 66.443
1513.122, 243.474
1514.292, 97.518
1515.462, 128.106
1516.632, 196.116
1517.802, 16.873
1518.971, 182.130
1520.140, 248.109
1521.309, 11.824
1522.478, 244.846
1523.647, 135.734
1524.815, 0.000
##END=



