##NAMES=Chondrodite
##RRUFFID=R040016
##IDEAL CHEMISTRY=Mg_5_(SiO_4_)_2_F_2_
##LOCALITY=Vastmanland, Kafveltorp, Sweden
##OWNER=RRUFF
##SOURCE=University of Arizona Mineral Museum
##DESCRIPTION=Deep red single crystals embedded in matrix
##STATUS=The identification of this mineral has been confirmed by X-ray diffraction and chemical analysis
##URL=rruff.info/R040016
##MEASURED CHEMISTRY=(Mg_4.61_Fe_0.31_Mn_0.07_Ca_0.01_)_Σ=5_(Si_1.00_O_4_)_2_(F_1.16_(OH)_0.84_)_Σ=2_
##PIN_ID=M00452
##ORIENTATION=Laser parallel to -a [-1 0 0]. Fiducial mark perpendicular to laser is parallel to b* (0 1 0)
203.259, 0.000
204.632, 10.557
206.006, 21.149
207.379, 17.726
208.753, 18.395
210.125, 48.778
211.498, 1.602
212.871, 3.386
214.243, 7.147
215.615, 63.907
216.987, 33.059
218.358, 6.169
219.730, 38.743
221.101, 239.606
222.472, 2.485
223.843, 22.356
225.213, 150.801
226.583, 2.301
227.953, 52.889
229.323, 25.736
230.693, 42.573
232.062, 3.601
233.431, 5.558
234.800, 10.004
236.169, 28.194
237.537, 28.376
238.906, 31.553
240.274, 19.276
241.642, 13.890
243.009, 45.053
244.377, 15.213
245.744, 69.370
247.111, 91.525
248.478, 65.678
249.844, 141.831
251.210, 82.983
252.576, 174.134
253.942, 115.283
255.308, 162.432
256.673, 187.804
258.039, 113.945
259.404, 186.173
260.768, 144.663
262.133, 165.436
263.497, 149.549
264.861, 137.661
266.225, 170.773
267.589, 137.176
268.952, 228.995
270.315, 107.105
271.678, 194.213
273.041, 202.320
274.404, 312.425
275.766, 504.528
277.128, 602.633
278.490, 766.747
279.852, 751.867
281.213, 710.989
282.575, 639.112
283.936, 531.230
285.296, 424.349
286.657, 322.472
288.017, 275.601
289.378, 243.732
290.738, 262.864
292.097, 258.999
293.457, 246.140
294.816, 372.284
296.175, 331.429
297.534, 440.572
298.893, 381.713
300.251, 355.853
301.609, 306.992
302.967, 217.130
304.325, 139.266
305.682, 58.401
307.040, 24.188
308.397, 15.666
309.754, 17.203
311.110, 3.926
312.467, 9.053
313.823, 6.821
315.179, 1.304
316.535, 8.573
317.890, 20.452
319.246, 35.333
320.601, 19.800
321.956, 17.900
323.311, 34.013
324.665, 48.125
326.019, 116.234
327.373, 110.341
328.727, 103.446
330.081, 173.548
331.434, 185.647
332.787, 184.743
334.140, 194.836
335.493, 165.924
336.846, 222.008
338.198, 199.090
339.550, 234.169
340.902, 183.246
342.254, 200.319
343.605, 212.390
344.956, 133.458
346.307, 158.522
347.658, 155.584
349.009, 134.643
350.359, 184.047
351.709, 113.410
353.059, 206.733
354.409, 147.012
355.758, 172.260
357.108, 277.461
358.457, 227.617
359.806, 323.766
361.154, 287.903
362.503, 365.724
363.851, 396.868
365.199, 428.030
366.547, 510.095
367.894, 421.441
369.242, 498.704
370.589, 550.035
371.936, 500.292
373.282, 536.490
374.629, 460.639
375.975, 473.788
377.321, 396.960
378.667, 485.061
380.013, 416.639
381.358, 493.979
382.703, 624.100
384.048, 629.443
385.393, 742.548
386.738, 782.785
388.082, 744.883
389.426, 743.979
390.770, 689.075
392.114, 613.170
393.457, 454.266
394.800, 465.362
396.143, 423.457
397.486, 404.552
398.829, 393.647
400.171, 389.742
401.513, 411.836
402.855, 371.929
404.197, 492.020
405.539, 546.109
406.880, 525.196
408.221, 642.279
409.562, 640.361
410.903, 748.442
412.243, 751.521
413.583, 782.600
414.923, 814.676
416.263, 694.750
417.603, 717.823
418.942, 691.894
420.282, 605.963
421.620, 594.031
422.959, 497.097
424.298, 526.161
425.636, 421.222
426.974, 385.280
428.312, 391.336
429.650, 355.390
430.987, 363.440
432.325, 355.488
433.662, 385.534
434.999, 329.576
436.335, 372.616
437.672, 371.653
439.008, 303.687
440.344, 302.718
441.680, 263.747
443.015, 247.772
444.350, 236.794
445.686, 171.813
447.021, 252.829
448.355, 224.843
449.690, 251.852
451.024, 200.859
452.358, 251.863
453.692, 252.864
455.026, 151.779
456.359, 253.773
457.692, 219.764
459.025, 198.718
460.358, 242.703
461.691, 208.642
463.023, 236.522
464.355, 233.331
465.687, 242.208
467.019, 302.176
468.350, 209.140
469.682, 310.102
471.013, 249.060
472.344, 305.014
473.675, 266.965
475.005, 253.913
476.335, 264.857
477.665, 181.798
478.995, 224.735
480.325, 149.669
481.654, 130.599
482.983, 99.526
484.312, 85.449
485.641, 90.369
486.970, 67.285
488.298, 97.198
489.626, 81.107
490.954, 44.013
492.282, 58.915
493.609, 39.813
494.937, 45.707
496.264, 123.759
497.591, 44.642
498.917, 40.835
500.244, 2.846
501.570, 52.257
502.896, 5.424
504.222, 22.470
505.548, 11.683
506.873, 41.285
508.198, 12.379
509.523, 30.115
510.848, 52.113
512.172, 34.786
513.497, 71.494
514.821, 33.426
516.145, 23.089
517.469, 63.018
518.792, 35.730
520.115, 57.740
521.439, 0.296
522.761, 102.413
524.084, 51.250
525.407, 3.898
526.729, 51.682
528.051, 0.593
529.373, 48.476
530.694, 27.580
532.016, 21.642
533.337, 15.557
534.658, 117.597
535.979, 93.887
537.299, 86.038
538.620, 107.133
539.940, 144.198
541.260, 166.199
542.580, 207.455
543.899, 326.371
545.218, 361.357
546.538, 419.114
547.857, 604.029
549.175, 570.194
550.494, 663.973
551.812, 598.877
553.130, 502.781
554.448, 450.433
555.766, 312.424
557.083, 311.065
558.400, 191.875
559.717, 164.526
561.034, 185.181
562.351, 93.934
563.667, 215.765
564.983, 175.429
566.299, 228.031
567.615, 212.627
568.931, 197.218
570.246, 330.803
571.561, 303.383
572.876, 307.956
574.191, 416.525
575.505, 413.087
576.820, 571.645
578.134, 556.196
579.448, 666.742
580.761, 729.282
582.075, 737.817
583.388, 750.488
584.701, 715.869
586.014, 658.387
587.327, 591.899
588.639, 472.405
589.952, 485.906
591.264, 317.401
592.575, 293.891
593.887, 279.375
595.198, 222.854
596.510, 350.326
597.821, 359.794
599.132, 427.256
600.442, 537.712
601.752, 674.163
603.063, 774.608
604.373, 885.567
605.682, 1000.483
606.992, 1071.913
608.301, 1123.338
609.610, 1169.758
610.919, 1052.172
612.228, 1087.580
613.537, 942.983
614.845, 805.381
616.153, 744.772
617.461, 646.159
618.769, 531.540
620.076, 404.915
621.383, 388.285
622.691, 335.649
623.997, 202.008
625.304, 278.361
626.611, 155.709
627.917, 94.052
629.223, 93.389
630.529, 84.720
631.834, 67.047
633.140, 34.367
634.445, 36.683
635.750, 37.993
637.055, 32.702
638.359, 16.596
639.664, 65.112
640.968, 92.827
642.272, 47.571
643.576, 62.304
644.879, 37.045
646.183, 73.793
647.486, 35.549
648.789, 9.510
650.092, 87.342
651.394, 32.266
652.697, 103.299
653.999, 97.260
655.301, 50.403
656.602, 109.375
657.904, 53.309
659.205, 101.437
660.506, 38.447
661.807, 49.567
663.108, 105.423
664.409, 79.767
665.709, 121.882
667.009, 93.786
668.309, 67.922
669.609, 74.828
670.908, 62.965
672.207, 65.547
673.506, 34.802
674.805, 62.730
676.104, 117.666
677.402, 88.611
678.701, 77.565
679.999, 72.527
681.297, 59.497
682.594, 115.475
683.892, 43.462
685.189, 59.455
686.486, 11.456
687.783, 46.461
689.079, 101.473
690.376, 19.494
691.672, 47.520
692.968, 48.553
694.264, 16.408
695.560, 69.635
696.855, 36.314
698.150, 32.740
699.445, 0.201
700.740, 1.863
702.035, 23.932
703.329, 42.005
704.623, 7.084
705.917, 5.832
707.211, 12.744
708.504, 29.653
709.798, 62.559
711.091, 71.461
712.384, 69.360
713.677, 115.255
714.969, 113.147
716.262, 117.036
717.554, 155.922
718.846, 128.804
720.138, 102.684
721.429, 116.560
722.720, 257.433
724.012, 157.303
725.303, 231.171
726.593, 154.035
727.884, 214.897
729.174, 234.756
730.464, 250.612
731.754, 307.465
733.044, 345.316
734.333, 323.164
735.623, 420.009
736.912, 340.852
738.201, 419.692
739.490, 462.530
740.778, 355.365
742.066, 480.198
743.355, 457.029
744.642, 435.858
745.930, 543.684
747.218, 527.509
748.505, 559.331
749.792, 567.151
751.079, 691.969
752.366, 787.785
753.652, 765.599
754.939, 812.411
756.225, 860.221
757.511, 869.030
758.796, 975.837
760.082, 878.642
761.367, 963.445
762.652, 976.247
763.937, 943.048
765.222, 951.846
766.506, 897.644
767.790, 912.440
769.075, 856.235
770.358, 852.029
771.642, 919.821
772.926, 825.612
774.209, 842.402
775.492, 703.191
776.775, 747.815
778.058, 866.602
779.340, 776.073
780.622, 841.415
781.904, 821.966
783.186, 757.447
784.468, 1010.045
785.750, 933.472
787.031, 1006.076
788.312, 1032.801
789.593, 901.164
790.873, 987.783
792.154, 976.073
793.434, 1015.392
794.714, 1041.929
795.994, 1028.232
797.274, 1033.719
798.553, 1038.021
799.833, 1018.618
801.112, 1078.164
802.391, 1009.451
803.669, 1197.860
804.948, 1185.074
806.226, 1158.420
807.504, 1318.887
808.782, 1331.323
810.060, 1382.816
811.337, 1489.298
812.615, 1409.924
813.892, 1612.420
815.168, 1636.662
816.445, 1781.040
817.722, 1921.471
818.998, 1968.926
820.274, 2227.443
821.550, 2322.701
822.826, 2536.296
824.101, 2747.817
825.376, 3040.563
826.652, 3385.148
827.926, 3762.479
829.201, 4267.193
830.476, 4962.778
831.750, 5499.360
833.024, 6666.192
834.298, 7581.680
835.572, 8997.516
836.845, 11173.180
838.119, 13129.000
839.392, 16744.812
840.665, 20420.523
841.937, 25356.154
843.210, 31691.949
844.482, 37247.805
845.754, 42613.660
847.026, 44909.520
848.298, 43535.379
849.569, 40401.246
850.841, 34377.113
852.112, 29142.982
853.383, 24518.855
854.654, 20264.732
855.924, 17680.611
857.195, 14846.493
858.465, 13312.378
859.735, 12238.267
861.004, 11004.158
862.274, 10840.053
863.543, 10555.951
864.812, 10531.854
866.081, 11457.759
867.350, 11723.667
868.619, 12579.579
869.887, 13105.494
871.155, 12931.413
872.423, 12857.335
873.691, 11513.261
874.959, 10369.190
876.226, 8805.123
877.493, 7511.061
878.760, 6447.002
880.027, 5304.947
881.294, 4644.896
882.560, 4117.849
883.826, 3467.805
885.092, 3226.765
886.358, 2728.730
887.624, 2439.698
888.889, 2238.671
890.154, 2091.648
891.419, 1939.630
892.684, 1805.616
893.949, 1659.605
895.213, 1585.599
896.477, 1403.598
897.742, 1445.601
899.005, 1297.608
900.269, 1263.621
901.532, 1183.638
902.796, 1176.659
904.059, 1094.687
905.322, 1108.719
906.584, 1024.757
907.847, 1073.801
909.109, 924.849
910.371, 929.902
911.633, 1007.959
912.895, 906.021
914.156, 986.091
915.418, 928.166
916.679, 912.247
917.940, 1004.334
919.200, 927.428
920.461, 969.529
921.721, 1026.635
922.981, 1013.747
924.241, 1186.866
925.501, 1151.989
926.760, 1279.119
928.020, 1422.256
929.279, 1698.400
930.538, 2089.552
931.797, 2303.709
933.055, 2422.874
934.314, 2507.046
935.572, 2410.225
936.830, 2288.410
938.088, 2465.602
939.345, 2578.801
940.603, 3008.006
941.860, 3197.220
943.117, 3154.440
944.374, 2915.668
945.630, 2613.902
946.887, 2441.143
948.143, 2007.390
949.399, 1924.644
950.655, 1715.904
951.910, 1695.172
953.166, 1751.447
954.421, 1662.730
955.676, 1696.020
956.931, 1879.316
958.186, 1819.619
959.440, 2143.929
960.695, 2423.246
961.949, 2701.569
963.203, 3206.897
964.456, 3895.233
965.710, 4767.576
966.963, 5772.924
968.216, 6582.278
969.469, 7068.638
970.722, 6845.003
971.974, 6011.462
973.227, 5066.839
974.479, 3918.220
975.731, 3290.607
976.983, 2576.000
978.234, 1950.398
979.486, 1817.802
980.737, 1366.211
981.988, 1202.625
983.239, 1100.043
984.489, 766.466
985.740, 882.894
986.990, 694.327
988.240, 546.764
989.490, 581.207
990.740, 438.654
991.989, 474.105
993.238, 468.562
994.487, 391.023
995.736, 434.489
996.985, 330.959
998.233, 388.555
999.482, 355.035
1000.730, 269.519
1001.978, 357.008
1003.225, 254.502
1004.473, 401.000
1005.720, 348.503
1006.967, 249.011
1008.214, 300.525
1009.461, 299.044
1010.708, 136.568
1011.954, 305.327
1013.200, 224.861
1014.446, 312.399
1015.692, 238.942
1016.938, 170.489
1018.183, 270.042
1019.428, 243.598
1020.673, 178.159
1021.918, 279.804
1023.163, 155.375
1024.407, 238.180
1025.652, 211.762
1026.896, 161.348
1028.140, 175.940
1029.383, 243.536
1030.627, 251.295
1031.870, 265.901
1033.113, 146.513
1034.356, 146.355
1035.599, 223.978
1036.841, 134.605
1038.084, 182.639
1039.326, 186.371
1040.568, 172.269
1041.810, 215.116
1043.051, 155.768
1044.293, 179.572
1045.534, 224.233
1046.775, 168.897
1048.016, 224.036
1049.256, 121.710
1050.497, 190.476
1051.737, 180.158
1052.977, 168.843
1054.217, 236.687
1055.457, 180.381
1056.696, 147.078
1057.935, 183.778
1059.174, 117.483
1060.413, 145.255
1061.652, 139.063
1062.891, 182.781
1064.129, 160.625
1065.367, 147.351
1066.605, 177.080
1067.843, 157.987
1069.080, 106.723
1070.318, 264.462
1071.555, 162.260
1072.792, 96.006
1074.029, 229.774
1075.266, 106.526
1076.502, 154.281
1077.738, 230.125
1078.974, 187.886
1080.210, 252.648
1081.446, 120.413
1082.681, 203.181
1083.917, 197.070
1085.152, 135.842
1086.387, 225.617
1087.621, 203.661
1088.856, 85.440
1090.090, 236.221
1091.325, 82.003
1092.559, 133.787
1093.792, 198.675
1095.026, 121.463
1096.259, 174.252
1097.493, 162.187
1098.726, 101.979
1099.958, 219.773
1101.191, 108.569
1102.424, 198.365
1103.656, 140.162
1104.888, 11.040
1106.120, 200.760
1107.352, 111.560
1108.583, 86.361
1109.814, 160.163
1111.046, 50.965
1112.277, 139.769
1113.507, 124.574
1114.738, 67.378
1115.968, 152.185
1117.198, 147.991
1118.428, 96.798
1119.658, 180.605
1120.888, 23.413
1122.117, 138.220
1123.347, 163.028
1124.576, 63.836
1125.805, 173.644
1127.033, 32.452
1128.262, 122.260
1129.490, 222.069
1130.718, 19.065
1131.946, 55.741
1133.174, 123.548
1134.402, 32.354
1135.629, 186.160
1136.856, 68.966
1138.083, 26.771
1139.310, 149.577
1140.537, 7.962
1141.763, 131.766
1142.989, 82.570
1144.215, 43.252
1145.441, 205.548
1146.667, 23.347
1147.892, 126.146
1149.118, 69.944
1150.343, 38.935
1151.568, 90.731
1152.793, 72.525
1154.017, 11.208
1155.241, 113.583
1156.466, 43.440
1157.690, 76.686
1158.913, 85.470
1160.137, 31.711
1161.361, 122.493
1162.584, 28.705
1163.807, 48.564
1165.030, 118.522
1166.252, 43.322
1167.475, 67.899
1168.697, 37.666
1169.919, 95.352
1171.141, 91.411
1172.363, 57.587
1173.585, 38.153
1174.806, 102.737
1176.027, 27.217
1177.248, 45.731
1178.469, 80.468
1179.690, 96.241
1180.910, 99.695
1182.131, 14.517
1183.351, 9.287
1184.571, 64.026
1185.790, 29.258
1187.010, 30.008
1188.229, 59.716
1189.448, 29.483
1190.667, 86.479
1191.886, 9.823
1193.105, 16.309
1194.323, 64.541
1195.541, 22.773
1196.759, 58.464
1197.977, 113.142
1199.195, 33.810
1200.412, 104.183
1201.630, 5.849
1202.847, 8.482
1204.064, 97.453
1205.280, 0.894
1206.497, 49.321
1207.713, 128.031
1208.930, 15.328
1210.146, 128.574
1211.361, 18.206
1212.577, 103.834
1213.792, 68.701
1215.008, 22.679
1216.223, 118.217
1217.438, 189.857
1218.652, 54.537
1219.867, 129.393
1221.081, 95.986
1222.295, 23.575
1223.509, 175.266
1224.723, 19.155
1225.937, 36.648
1227.150, 158.218
1228.363, 28.217
1229.576, 82.633
1230.789, 114.187
1232.002, 26.736
1233.214, 155.310
1234.427, 29.849
1235.639, 128.383
1236.851, 104.267
1238.062, 26.791
1239.274, 187.309
1240.485, 79.823
1241.697, 121.332
1242.908, 151.045
1244.118, 77.544
1245.329, 83.037
1246.540, 198.720
1247.750, 8.203
1248.960, 112.679
1250.170, 72.198
1251.380, 22.664
1252.589, 180.165
1253.799, 39.620
1255.008, 57.070
1256.217, 143.541
1257.425, 22.979
1258.634, 71.413
1259.843, 85.020
1261.051, 10.559
1262.259, 147.737
1263.467, 11.148
1264.674, 10.553
1265.882, 93.111
1267.089, 20.505
1268.296, 24.894
1269.503, 47.426
1270.710, 123.199
1271.917, 32.167
1273.123, 90.768
1274.330, 78.877
1275.536, 78.242
1276.741, 7.585
1277.947, 67.921
1279.153, 49.455
1280.358, 40.220
1281.563, 13.097
1282.768, 42.406
1283.973, 100.292
1285.177, 58.922
1286.382, 38.729
1287.586, 71.681
1288.790, 76.592
1289.994, 97.147
1291.198, 81.102
1292.401, 3.655
1293.604, 104.576
1294.808, 38.348
1296.011, 81.129
1297.213, 96.147
1298.416, 27.052
1299.618, 45.758
1300.821, 0.045
1302.023, 51.871
1303.224, 145.853
1304.426, 29.899
1305.628, 63.753
1306.829, 43.764
1308.030, 38.366
1309.231, 118.396
1310.432, 43.753
1311.632, 12.649
1312.833, 16.639
1314.033, 3.549
1315.233, 54.533
1316.433, 118.546
1317.633, 38.521
1318.832, 12.421
1320.031, 62.369
1321.231, 76.676
1322.429, 175.352
1323.628, 33.421
1324.827, 59.598
1326.025, 118.515
1327.223, 51.488
1328.421, 79.515
1329.619, 68.702
1330.817, 10.277
1332.015, 0.750
1333.212, 58.841
1334.409, 73.116
1335.606, 120.956
1336.803, 13.018
1337.999, 92.913
1339.196, 56.250
1340.392, 32.664
1341.588, 2.571
1342.784, 51.528
1343.980, 70.363
1345.175, 59.872
1346.370, 5.994
1347.566, 27.876
1348.761, 70.528
1349.955, 149.327
1351.150, 84.176
1352.344, 21.983
1353.539, 110.850
1354.733, 48.427
1355.927, 68.391
1357.120, 149.202
1358.314, 62.138
1359.507, 67.659
1360.700, 32.449
1361.893, 5.768
1363.086, 72.009
1364.279, 35.780
1365.471, 94.457
1366.663, 138.299
1367.855, 5.048
1369.047, 35.791
1370.239, 75.527
1371.431, 44.744
1372.622, 96.979
1373.813, 105.695
1375.004, 41.595
1376.195, 183.108
1377.386, 47.805
1378.576, 9.417
1379.766, 222.268
1380.957, 8.054
1382.146, 41.619
1383.336, 146.285
1384.526, 5.055
1385.715, 136.600
1386.904, 138.249
1388.093, 38.107
1389.282, 239.524
1390.471, 34.092
1391.659, 29.823
1392.848, 183.437
1394.036, 33.956
1395.224, 34.852
1396.412, 210.424
1397.599, 32.094
1398.787, 169.298
1399.974, 69.655
1401.161, 51.800
1402.348, 168.117
1403.535, 59.024
1404.721, 27.718
1405.907, 100.104
1407.094, 43.221
1408.280, 71.278
1409.465, 123.632
1410.651, 2.905
1411.836, 181.101
1413.022, 97.406
1414.207, 13.044
1415.392, 163.683
1416.577, 1.056
1417.761, 90.466
1418.945, 182.317
1420.130, 29.885
1421.314, 148.592
1422.498, 106.636
1423.681, 5.904
1424.865, 173.571
1426.048, 106.047
1427.231, 57.002
1428.414, 162.748
1429.597, 35.374
1430.780, 30.368
1431.962, 152.395
1433.144, 15.628
1434.326, 136.214
1435.508, 147.448
1436.690, 24.434
1437.871, 126.641
1439.053, 109.062
1440.234, 51.554
1441.415, 211.731
1442.596, 90.795
1443.776, 89.291
1444.957, 179.730
1446.137, 82.503
1447.317, 196.961
1448.497, 210.410
1449.677, 42.499
1450.857, 167.592
1452.036, 179.003
1453.215, 73.322
1454.394, 285.641
1455.573, 166.973
1456.752, 146.341
1457.930, 334.364
1459.109, 128.707
1460.287, 159.728
1461.465, 312.041
1462.643, 4.042
1463.820, 229.841
1464.998, 159.107
1466.175, 159.356
1467.352, 251.153
1468.529, 119.375
1469.706, 110.597
1470.883, 368.671
1472.059, 132.872
1473.235, 117.089
1474.411, 356.293
1475.587, 77.504
1476.763, 221.719
1477.938, 280.942
1479.114, 82.777
1480.289, 298.992
1481.464, 122.871
1482.639, 137.073
1483.813, 254.266
1484.988, 106.458
1486.162, 167.645
1487.336, 206.826
1488.510, 132.006
1489.684, 220.178
1490.858, 245.340
1492.031, 129.495
1493.204, 261.646
1494.377, 172.798
1495.550, 66.964
1496.723, 247.133
1497.895, 103.306
1499.068, 93.482
1500.240, 278.655
1501.412, 34.824
1502.584, 87.999
1503.755, 266.188
1504.927, 18.615
1506.098, 242.583
1507.269, 296.782
1508.440, 78.985
1509.611, 255.195
1510.782, 152.414
1511.952, 66.640
1513.122, 262.875
1514.292, 75.124
1515.462, 50.267
1516.632, 326.393
1517.802, 23.508
1518.971, 64.542
1520.140, 227.502
1521.309, 44.374
1522.478, 90.009
1523.647, 213.242
1524.815, 0.000
##END=



