##NAMES=Chondrodite
##RRUFFID=R040016
##IDEAL CHEMISTRY=Mg_5_(SiO_4_)_2_F_2_
##LOCALITY=Vastmanland, Kafveltorp, Sweden
##OWNER=RRUFF
##SOURCE=University of Arizona Mineral Museum
##DESCRIPTION=Deep red single crystals embedded in matrix
##STATUS=The identification of this mineral has been confirmed by X-ray diffraction and chemical analysis
##URL=rruff.info/R040016
##MEASURED CHEMISTRY=(Mg_4.61_Fe_0.31_Mn_0.07_Ca_0.01_)_Σ=5_(Si_1.00_O_4_)_2_(F_1.16_(OH)_0.84_)_Σ=2_
##PIN_ID=M00385
##ORIENTATION=Laser parallel to -c [0 0 -1]. Fiducial mark perpendicular to laser is parallel to b* (0 1 0)
200.510, 0.000
201.885, 8.363
203.259, 56.912
204.632, 0.561
206.006, 19.649
207.379, 78.444
208.753, 5.068
210.125, 20.126
211.498, 2.640
212.871, 10.046
214.243, 48.672
215.615, 35.645
216.987, 42.864
218.358, 39.737
219.730, 27.342
221.101, 55.727
222.472, 9.410
223.843, 50.187
225.213, 16.150
226.583, 25.668
227.953, 19.186
229.323, 9.296
230.693, 8.224
232.062, 18.254
233.431, 8.269
234.800, 22.789
236.169, 13.694
237.537, 24.822
238.906, 12.335
240.274, 13.209
241.642, 69.359
243.009, 14.872
244.377, 37.387
245.744, 33.906
247.111, 22.430
248.478, 8.954
249.844, 10.465
251.210, 48.038
252.576, 38.537
253.942, 15.025
255.308, 87.504
256.673, 80.976
258.039, 141.452
259.404, 137.924
260.768, 238.385
262.133, 234.837
263.497, 285.289
264.861, 340.759
266.225, 356.254
267.589, 474.767
268.952, 352.289
270.315, 358.809
271.678, 430.324
273.041, 463.832
274.404, 672.336
275.766, 852.847
277.128, 1026.361
278.490, 1167.874
279.852, 1119.381
281.213, 1021.880
282.575, 870.365
283.936, 752.837
285.296, 559.294
286.657, 425.740
288.017, 364.173
289.378, 272.598
290.738, 296.014
292.097, 302.421
293.457, 245.818
294.816, 334.205
296.175, 324.925
297.534, 370.667
298.893, 351.292
300.251, 337.172
301.609, 271.841
302.967, 317.171
304.325, 261.478
305.682, 263.780
307.040, 354.076
308.397, 332.367
309.754, 471.653
311.110, 476.933
312.467, 642.477
313.823, 634.998
315.179, 658.667
316.535, 715.914
317.890, 631.208
319.246, 702.445
320.601, 547.674
321.956, 523.978
323.311, 512.195
324.665, 426.690
326.019, 420.261
327.373, 395.146
328.727, 276.324
330.081, 294.483
331.434, 244.328
332.787, 266.227
334.140, 197.286
335.493, 236.896
336.846, 212.549
338.198, 152.001
339.550, 157.377
340.902, 124.813
342.254, 122.060
343.605, 116.444
344.956, 97.572
346.307, 91.007
347.658, 78.818
349.009, 78.492
350.359, 81.146
351.709, 50.739
353.059, 106.280
354.409, 64.755
355.758, 98.170
357.108, 112.543
358.457, 146.879
359.806, 123.185
361.154, 184.242
362.503, 226.350
363.851, 230.414
365.199, 187.481
366.547, 237.593
367.894, 240.553
369.242, 236.717
370.589, 250.678
371.936, 271.791
373.282, 204.856
374.629, 199.946
375.975, 142.122
377.321, 115.256
378.667, 97.426
380.013, 30.554
381.358, 108.612
382.703, 37.774
384.048, 99.817
385.393, 22.917
386.738, 32.009
388.082, 18.836
389.426, 19.084
390.770, 29.114
392.114, 18.129
393.457, 36.015
394.800, 6.002
396.143, 33.917
397.486, 45.788
398.829, 33.661
400.171, 41.538
401.513, 9.419
402.855, 2.302
404.197, 10.810
405.539, 40.918
406.880, 87.022
408.221, 36.124
409.562, 95.223
410.903, 115.318
412.243, 60.411
413.583, 129.500
414.923, 51.584
416.263, 56.663
417.603, 67.737
418.942, 29.807
420.282, 16.871
421.620, 32.929
422.959, 44.017
424.298, 0.030
425.636, 41.929
426.974, 3.894
428.312, 64.865
429.650, 48.157
430.987, 8.175
432.325, 8.813
433.662, 26.193
434.999, 0.194
436.335, 91.189
437.672, 57.180
439.008, 5.165
440.344, 68.145
441.680, 13.882
443.015, 5.083
444.350, 2.042
445.686, 46.006
447.021, 5.062
448.355, 63.124
449.690, 4.192
451.024, 78.265
452.358, 50.345
453.692, 95.431
455.026, 92.452
456.359, 58.553
457.692, 130.661
459.025, 50.779
460.358, 82.904
461.691, 93.036
463.023, 55.176
464.355, 107.322
465.687, 76.475
467.019, 23.635
468.350, 75.802
469.682, 27.976
471.013, 83.157
472.344, 12.349
473.675, 61.551
475.005, 34.763
476.335, 25.985
477.665, 61.215
478.995, 14.456
480.325, 39.705
481.654, 19.038
482.983, 44.225
484.312, 25.495
485.641, 26.773
486.970, 45.056
488.298, 20.653
489.626, 32.644
490.954, 30.053
492.282, 57.741
493.609, 20.423
494.937, 50.096
496.264, 13.762
497.591, 60.421
498.917, 70.307
500.244, 80.018
501.570, 87.765
502.896, 77.529
504.222, 134.212
505.548, 90.003
506.873, 116.619
508.198, 126.231
509.523, 85.837
510.848, 114.247
512.172, 114.948
513.497, 100.625
514.821, 165.211
516.145, 105.791
517.469, 169.366
518.792, 99.103
520.115, 155.801
521.439, 144.684
522.761, 117.544
524.084, 201.314
525.407, 231.406
526.729, 284.282
528.051, 254.238
529.373, 321.095
530.694, 446.947
532.016, 436.986
533.337, 537.633
534.658, 598.531
535.979, 644.265
537.299, 867.029
538.620, 921.108
539.940, 1175.843
541.260, 1300.615
542.580, 1606.470
543.899, 2097.936
545.218, 2460.926
546.538, 3067.396
547.857, 3456.138
549.175, 3746.670
550.494, 3768.573
551.812, 3385.328
553.130, 2862.147
554.448, 2209.082
555.766, 1729.667
557.083, 1296.290
558.400, 1007.707
559.717, 813.093
561.034, 655.645
562.351, 518.018
563.667, 436.384
564.983, 388.744
566.299, 390.892
567.615, 249.238
568.931, 270.382
570.246, 244.697
571.561, 226.723
572.876, 221.045
574.191, 165.361
575.505, 218.628
576.820, 157.932
578.134, 93.229
579.448, 154.520
580.761, 143.805
582.075, 137.084
583.388, 71.357
584.701, 64.557
586.014, 77.818
587.327, 12.073
588.639, 69.105
589.952, 55.322
591.264, 17.262
592.575, 66.471
593.887, 21.329
595.198, 19.311
596.510, 13.922
597.821, 64.852
599.132, 74.777
600.442, 90.361
601.752, 154.311
603.063, 178.106
604.373, 297.848
605.682, 281.760
606.992, 331.424
608.301, 396.226
609.610, 342.268
610.919, 318.062
612.228, 377.073
613.537, 343.822
614.845, 313.894
616.153, 228.732
617.461, 263.689
618.769, 251.683
620.076, 192.506
621.383, 217.542
622.691, 150.456
623.997, 179.552
625.304, 203.434
626.611, 196.398
627.917, 205.094
629.223, 208.214
630.529, 191.285
631.834, 116.195
633.140, 101.256
634.445, 106.312
635.750, 16.364
637.055, 29.410
638.359, 25.452
639.664, 47.510
640.968, 11.480
642.272, 20.456
643.576, 25.437
644.879, 9.424
646.183, 33.417
647.486, 46.585
648.789, 49.582
650.092, 14.574
651.394, 64.562
652.697, 24.545
653.999, 53.524
655.301, 21.498
656.602, 43.468
657.904, 7.434
659.205, 32.605
660.506, 25.649
661.807, 66.700
663.108, 62.758
664.409, 44.823
665.709, 114.894
667.009, 69.975
668.309, 88.063
669.609, 68.160
670.908, 68.264
672.207, 109.375
673.506, 45.496
674.805, 110.622
676.104, 65.756
677.402, 90.898
678.701, 130.047
679.999, 85.205
681.297, 106.370
682.594, 113.544
683.892, 38.725
685.189, 120.911
686.486, 3.107
687.783, 60.306
689.079, 16.512
690.376, 97.723
691.672, 66.942
692.968, 82.167
694.264, 108.400
695.560, 34.642
696.855, 43.888
698.150, 1.141
699.445, 15.603
700.740, 32.656
702.035, 34.080
703.329, 46.812
704.623, 19.542
705.917, 82.268
707.211, 13.992
708.504, 27.714
709.798, 53.433
711.091, 54.149
712.384, 81.865
713.677, 91.577
714.969, 97.286
716.262, 134.993
717.554, 115.697
718.846, 173.398
720.138, 146.097
721.429, 217.794
722.720, 209.488
724.012, 214.179
725.303, 321.868
726.593, 250.555
727.884, 333.239
729.174, 341.922
730.464, 406.603
731.754, 427.283
733.044, 460.961
734.333, 517.638
735.623, 545.315
736.912, 566.919
738.201, 651.596
739.490, 614.272
740.778, 690.949
742.066, 790.625
743.355, 754.301
744.642, 860.978
745.930, 919.654
747.218, 1017.330
748.505, 1118.007
749.792, 1152.682
751.079, 1295.358
752.366, 1322.032
753.652, 1455.708
754.939, 1526.382
756.225, 1577.056
757.511, 1623.730
758.796, 1605.402
760.082, 1550.075
761.367, 1667.747
762.652, 1608.419
763.937, 1643.090
765.222, 1571.760
766.506, 1380.430
767.790, 1359.100
769.075, 1232.770
770.358, 1255.439
771.642, 1100.108
772.926, 1093.776
774.209, 1050.443
775.492, 908.110
776.775, 986.776
778.058, 953.441
779.340, 974.872
780.622, 1026.471
781.904, 1044.026
783.186, 1082.558
784.468, 1148.165
785.750, 1189.658
787.031, 1227.321
788.312, 1237.983
789.593, 1199.644
790.873, 1312.305
792.154, 1123.967
793.434, 1290.628
794.714, 1250.289
795.994, 1261.950
797.274, 1330.611
798.553, 1343.106
799.833, 1263.634
801.112, 1266.970
802.391, 1237.325
803.669, 1281.763
804.948, 1336.875
806.226, 1314.197
807.504, 1342.435
808.782, 1388.766
810.060, 1518.097
811.337, 1530.237
812.615, 1557.675
813.892, 1715.810
815.168, 1768.155
816.445, 1905.384
817.722, 2009.431
818.998, 2181.688
820.274, 2345.847
821.550, 2558.974
822.826, 2821.449
824.101, 3099.544
825.376, 3487.188
826.652, 3818.567
827.926, 4253.151
829.201, 4948.358
830.476, 5645.711
831.750, 6513.994
833.024, 7849.156
834.298, 8855.663
835.572, 10872.129
836.845, 13058.795
838.119, 16055.487
839.392, 20202.010
840.665, 24988.707
841.937, 31775.406
843.210, 38562.105
844.482, 45348.809
845.754, 49375.516
847.026, 50392.223
848.298, 46508.934
849.569, 40825.645
850.841, 33812.355
852.112, 27699.072
853.383, 22275.791
854.654, 18022.512
855.924, 15019.234
857.195, 12315.960
858.465, 10382.688
859.735, 8689.418
861.004, 7506.149
862.274, 6550.884
863.543, 5597.622
864.812, 4953.361
866.081, 4484.103
867.350, 4266.848
868.619, 3589.596
869.887, 3222.347
871.155, 2992.100
872.423, 2677.856
873.691, 2486.615
874.959, 2282.378
876.226, 2042.145
877.493, 1853.915
878.760, 1841.688
880.027, 1572.465
881.294, 1504.245
882.560, 1419.029
883.826, 1226.817
885.092, 1210.608
886.358, 1048.402
887.624, 1037.199
888.889, 1053.999
890.154, 1021.805
891.419, 923.613
892.684, 839.427
893.949, 848.244
895.213, 801.064
896.477, 802.887
897.742, 794.713
899.005, 663.542
900.269, 780.375
901.532, 717.211
902.796, 732.050
904.059, 626.894
905.322, 652.741
906.584, 648.593
907.847, 658.448
909.109, 611.306
910.371, 629.168
911.633, 639.033
912.895, 539.901
914.156, 671.772
915.418, 593.646
916.679, 632.527
917.940, 599.411
919.200, 566.299
920.461, 660.191
921.721, 521.087
922.981, 634.988
924.241, 687.892
925.501, 709.800
926.760, 846.711
928.020, 877.625
929.279, 1081.543
930.538, 1275.465
931.797, 1292.390
933.055, 1415.319
934.314, 1267.252
935.572, 1325.188
936.830, 1163.130
938.088, 1124.075
939.345, 1179.026
940.603, 1302.983
941.860, 1290.945
943.117, 1279.913
944.374, 1098.887
945.630, 1038.866
946.887, 943.850
948.143, 854.839
949.399, 878.832
950.655, 838.831
951.910, 903.834
953.166, 991.843
954.421, 975.857
955.676, 1060.876
956.931, 1195.901
958.186, 1213.931
959.440, 1584.965
960.695, 1805.007
961.949, 2236.052
963.203, 2853.102
964.456, 3431.154
965.710, 4559.212
966.963, 5539.274
968.216, 6461.342
969.469, 6768.414
970.722, 6315.490
971.974, 5444.570
973.227, 4368.653
974.479, 3452.739
975.731, 2802.828
976.983, 2157.921
978.234, 1716.015
979.486, 1471.113
980.737, 1145.213
981.988, 1037.315
983.239, 858.421
984.489, 684.529
985.740, 716.639
986.990, 553.752
988.240, 515.921
989.490, 434.039
990.740, 337.159
991.989, 371.282
993.238, 352.407
994.487, 304.535
995.736, 323.666
996.985, 256.798
998.233, 313.933
999.482, 230.070
1000.730, 334.209
1001.978, 412.528
1003.225, 410.672
1004.473, 475.849
1005.720, 386.999
1006.967, 292.149
1008.214, 374.525
1009.461, 189.679
1010.708, 191.290
1011.954, 217.474
1013.200, 134.692
1014.446, 160.250
1015.692, 166.414
1016.938, 192.835
1018.183, 237.169
1019.428, 115.517
1020.673, 141.774
1021.918, 159.985
1023.163, 186.295
1024.407, 189.034
1025.652, 211.211
1026.896, 209.765
1028.140, 216.962
1029.383, 128.447
1030.627, 200.753
1031.870, 167.937
1033.113, 110.123
1034.356, 202.622
1035.599, 110.810
1036.841, 185.148
1038.084, 113.672
1039.326, 126.989
1040.568, 166.580
1041.810, 98.775
1043.051, 113.079
1044.293, 87.500
1045.534, 63.700
1046.775, 65.900
1048.016, 67.304
1049.256, 79.507
1050.497, 76.094
1051.737, 57.523
1052.977, 101.735
1054.217, 158.957
1055.457, 74.299
1056.696, 104.740
1057.935, 53.177
1059.174, 93.385
1060.413, 82.753
1061.652, 54.960
1062.891, 120.329
1064.129, 106.842
1065.367, 56.050
1066.605, 120.405
1067.843, 64.854
1069.080, 90.061
1070.318, 120.506
1071.555, 105.715
1072.792, 103.081
1074.029, 76.629
1075.266, 159.840
1076.502, 117.360
1077.738, 56.843
1078.974, 143.055
1080.210, 204.267
1081.446, 99.481
1082.681, 248.750
1083.917, 164.965
1085.152, 139.182
1086.387, 207.398
1087.621, 95.615
1088.856, 95.833
1090.090, 133.111
1091.325, 90.330
1092.559, 75.548
1093.792, 125.244
1095.026, 79.462
1096.259, 113.678
1097.493, 61.894
1098.726, 145.110
1099.958, 71.324
1101.191, 64.538
1102.424, 177.752
1103.656, 80.964
1104.888, 39.176
1106.120, 154.387
1107.352, 58.596
1108.583, 68.804
1109.814, 115.011
1111.046, 15.217
1112.277, 164.423
1113.507, 44.625
1114.738, 55.827
1115.968, 50.027
1117.198, 37.224
1118.428, 45.422
1119.658, 106.616
1120.888, 7.191
1122.117, 77.000
1123.347, 32.187
1124.576, 55.371
1125.805, 112.555
1127.033, 12.735
1128.262, 59.914
1129.490, 66.090
1130.718, 4.264
1131.946, 61.435
1133.174, 47.603
1134.402, 34.233
1135.629, 85.928
1136.856, 2.916
1138.083, 3.238
1139.310, 18.389
1140.537, 44.464
1141.763, 46.678
1142.989, 94.183
1144.215, 2.052
1145.441, 8.924
1146.667, 81.800
1147.892, 19.316
1149.118, 51.571
1150.343, 32.464
1151.568, 35.363
1152.793, 15.268
1154.017, 5.178
1155.241, 26.093
1156.466, 118.014
1157.690, 16.056
1158.913, 77.877
1160.137, 65.667
1161.361, 26.384
1162.584, 23.567
1163.807, 12.493
1165.030, 5.532
1166.252, 64.433
1167.475, 14.594
1168.697, 29.382
1169.919, 69.265
1171.141, 24.256
1172.363, 83.253
1173.585, 10.123
1174.806, 20.887
1176.027, 45.441
1177.248, 78.535
1178.469, 8.506
1179.690, 41.233
1180.910, 31.726
1182.131, 80.286
1183.351, 46.027
1184.571, 0.909
1185.790, 0.960
1187.010, 26.994
1188.229, 48.077
1189.448, 47.168
1190.667, 27.733
1191.886, 32.373
1193.105, 39.515
1194.323, 32.604
1195.541, 63.730
1196.759, 32.134
1197.977, 30.007
1199.195, 50.083
1200.412, 45.802
1201.630, 49.362
1202.847, 39.920
1204.064, 32.260
1205.280, 71.218
1206.497, 75.146
1207.713, 65.059
1208.930, 56.605
1210.146, 47.404
1211.361, 2.203
1212.577, 2.619
1213.792, 10.357
1215.008, 17.689
1216.223, 110.245
1217.438, 73.979
1218.652, 43.082
1219.867, 88.574
1221.081, 11.714
1222.295, 50.548
1223.509, 91.585
1224.723, 101.727
1225.937, 116.539
1227.150, 37.207
1228.363, 40.130
1229.576, 102.233
1230.789, 64.879
1232.002, 58.821
1233.214, 153.912
1234.427, 42.680
1235.639, 132.685
1236.851, 151.562
1238.062, 134.159
1239.274, 169.113
1240.485, 134.978
1241.697, 139.757
1242.908, 182.792
1244.118, 80.347
1245.329, 132.142
1246.540, 150.908
1247.750, 90.438
1248.960, 216.607
1250.170, 94.225
1251.380, 137.730
1252.589, 165.507
1253.799, 62.995
1255.008, 186.535
1256.217, 134.445
1257.425, 84.906
1258.634, 135.638
1259.843, 28.382
1261.051, 67.816
1262.259, 185.499
1263.467, 73.917
1264.674, 109.326
1265.882, 113.907
1267.089, 82.299
1268.296, 210.650
1269.503, 116.450
1270.710, 77.812
1271.917, 220.203
1273.123, 81.545
1274.330, 130.578
1275.536, 121.169
1276.741, 73.434
1277.947, 196.353
1279.153, 98.042
1280.358, 53.088
1281.563, 64.216
1282.768, 111.388
1283.973, 101.582
1285.177, 151.816
1286.382, 13.946
1287.586, 78.641
1288.790, 33.376
1289.994, 31.760
1291.198, 148.151
1292.401, 77.684
1293.604, 3.225
1294.808, 183.316
1296.011, 67.514
1297.213, 97.393
1298.416, 70.747
1299.618, 21.226
1300.821, 102.608
1302.023, 10.859
1303.224, 81.389
1304.426, 66.748
1305.628, 99.235
1306.829, 34.656
1308.030, 23.757
1309.231, 63.156
1310.432, 41.716
1311.632, 7.222
1312.833, 67.559
1314.033, 54.252
1315.233, 42.729
1316.433, 8.731
1317.633, 57.133
1318.832, 2.887
1320.031, 18.635
1321.231, 52.600
1322.429, 22.391
1323.628, 57.332
1324.827, 58.103
1326.025, 24.181
1327.223, 43.620
1328.421, 15.632
1329.619, 8.990
1330.817, 31.881
1332.015, 97.498
1333.212, 31.352
1334.409, 48.970
1335.606, 120.486
1336.803, 7.323
1337.999, 143.188
1339.196, 49.675
1340.392, 5.905
1341.588, 140.145
1342.784, 57.398
1343.980, 63.717
1345.175, 174.997
1346.370, 40.709
1347.566, 80.599
1348.761, 165.922
1349.955, 24.739
1351.150, 119.672
1352.344, 73.039
1353.539, 14.583
1354.733, 126.286
1355.927, 33.310
1357.120, 56.104
1358.314, 96.531
1359.507, 33.029
1360.700, 65.421
1361.893, 98.884
1363.086, 31.360
1364.279, 83.847
1365.471, 58.347
1366.663, 28.141
1367.855, 78.382
1369.047, 60.917
1370.239, 44.464
1371.431, 100.971
1372.622, 62.457
1373.813, 53.126
1375.004, 48.509
1376.195, 58.884
1377.386, 138.732
1378.576, 22.239
1379.766, 16.120
1380.957, 71.532
1382.146, 60.805
1383.336, 12.868
1384.526, 94.552
1385.715, 134.752
1386.904, 59.957
1388.093, 64.649
1389.282, 109.607
1390.471, 55.154
1391.659, 16.637
1392.848, 43.847
1394.036, 76.958
1395.224, 131.500
1396.412, 17.580
1397.599, 92.389
1398.787, 85.830
1399.974, 56.809
1401.161, 6.922
1402.348, 32.358
1403.535, 61.647
1404.721, 2.051
1405.907, 56.741
1407.094, 81.580
1408.280, 76.093
1409.465, 70.591
1410.651, 13.758
1411.836, 104.861
1413.022, 5.486
1414.207, 1.987
1415.392, 42.592
1416.577, 104.249
1417.761, 55.795
1418.945, 26.015
1420.130, 66.473
1421.314, 152.696
1422.498, 72.064
1423.681, 2.459
1424.865, 111.976
1426.048, 36.516
1427.231, 49.986
1428.414, 128.385
1429.597, 46.183
1430.780, 38.698
1431.962, 116.110
1433.144, 3.659
1434.326, 170.737
1435.508, 122.882
1436.690, 80.717
1437.871, 145.552
1439.053, 116.791
1440.234, 219.809
1441.415, 321.245
1442.596, 188.144
1443.776, 358.735
1444.957, 381.811
1446.137, 233.202
1447.317, 382.983
1448.497, 389.133
1449.677, 286.197
1450.857, 500.934
1452.036, 327.684
1453.215, 340.511
1454.394, 487.015
1455.573, 303.977
1456.752, 435.241
1457.930, 513.211
1459.109, 300.741
1460.287, 416.726
1461.465, 419.006
1462.643, 227.112
1463.820, 487.519
1464.998, 280.122
1466.175, 300.396
1467.352, 413.417
1468.529, 193.199
1469.706, 255.804
1470.883, 400.513
1472.059, 122.066
1473.235, 355.699
1474.411, 268.550
1475.587, 105.271
1476.763, 267.326
1477.938, 176.752
1479.114, 190.566
1480.289, 341.927
1481.464, 137.270
1482.639, 259.622
1483.813, 228.976
1484.988, 171.324
1486.162, 242.661
1487.336, 221.994
1488.510, 139.329
1489.684, 304.650
1490.858, 128.977
1492.031, 92.280
1493.204, 234.592
1494.377, 103.875
1495.550, 114.164
1496.723, 211.438
1497.895, 11.288
1499.068, 149.952
1500.240, 218.203
1501.412, 45.524
1502.584, 194.769
1503.755, 126.082
1504.927, 26.609
1506.098, 162.695
1507.269, 36.996
1508.440, 36.292
1509.611, 95.584
1510.782, 23.875
1511.952, 113.167
1513.122, 180.970
1514.292, 7.944
1515.462, 55.077
1516.632, 118.460
1517.802, 121.890
1518.971, 103.562
1520.140, 59.749
1521.309, 60.868
1522.478, 83.823
1523.647, 18.690
1524.815, 75.134
1525.984, 0.000
##END=



