##NAMES=Chondrodite
##RRUFFID=R040016
##IDEAL CHEMISTRY=Mg_5_(SiO_4_)_2_F_2_
##LOCALITY=Vastmanland, Kafveltorp, Sweden
##OWNER=RRUFF
##SOURCE=University of Arizona Mineral Museum
##DESCRIPTION=Deep red single crystals embedded in matrix
##STATUS=The identification of this mineral has been confirmed by X-ray diffraction and chemical analysis
##URL=rruff.info/R040016
##MEASURED CHEMISTRY=(Mg_4.61_Fe_0.31_Mn_0.07_Ca_0.01_)_Σ=5_(Si_1.00_O_4_)_2_(F_1.16_(OH)_0.84_)_Σ=2_
##PIN_ID=M00452
##ORIENTATION=Laser parallel to -a [-1 0 0]. Fiducial mark perpendicular to laser is parallel to b* (0 1 0)
218.358, 0.000
219.730, 23.412
221.101, 26.873
222.472, 45.618
223.843, 41.580
225.213, 33.158
226.583, 28.035
227.953, 32.769
229.323, 23.969
230.693, 45.968
232.062, 65.303
233.431, 74.277
234.800, 36.260
236.169, 0.749
237.537, 50.249
238.906, 4.745
240.274, 5.733
241.642, 6.285
243.009, 22.309
244.377, 6.661
245.744, 22.374
247.111, 28.414
248.478, 28.459
249.844, 69.508
251.210, 57.562
252.576, 79.619
253.942, 83.679
255.308, 43.743
256.673, 84.810
258.039, 87.880
259.404, 103.953
260.768, 36.030
262.133, 121.111
263.497, 132.194
264.861, 73.280
266.225, 121.369
267.589, 102.974
268.952, 188.554
270.315, 124.650
271.678, 123.748
273.041, 167.849
274.404, 301.951
275.766, 376.055
277.128, 485.160
278.490, 576.267
279.852, 516.375
281.213, 564.484
282.575, 462.595
283.936, 384.706
285.296, 325.818
286.657, 221.931
288.017, 226.044
289.378, 138.157
290.738, 112.271
292.097, 171.386
293.457, 107.505
294.816, 172.629
296.175, 193.755
297.534, 234.883
298.893, 190.014
300.251, 218.151
301.609, 175.290
302.967, 74.429
304.325, 78.568
305.682, 6.707
307.040, 63.846
308.397, 34.986
309.754, 34.126
311.110, 73.267
312.467, 22.408
313.823, 120.550
315.179, 47.692
316.535, 93.834
317.890, 94.978
319.246, 71.122
320.601, 129.266
321.956, 79.411
323.311, 152.556
324.665, 130.702
326.019, 152.847
327.373, 224.994
328.727, 172.140
330.081, 209.286
331.434, 211.431
332.787, 214.577
334.140, 220.723
335.493, 214.909
336.846, 223.013
338.198, 201.157
339.550, 194.301
340.902, 181.443
342.254, 155.585
343.605, 180.727
344.956, 155.867
346.307, 180.006
347.658, 160.144
349.009, 147.281
350.359, 210.417
351.709, 163.551
353.059, 247.684
354.409, 242.816
355.758, 265.946
357.108, 311.074
358.457, 317.201
359.806, 426.326
361.154, 397.451
362.503, 408.575
363.851, 359.703
365.199, 395.958
366.547, 404.179
367.894, 299.394
369.242, 353.629
370.589, 318.008
371.936, 328.980
373.282, 306.380
374.629, 318.464
375.975, 253.618
377.321, 275.930
378.667, 328.060
380.013, 270.487
381.358, 365.754
382.703, 435.887
384.048, 444.124
385.393, 632.243
386.738, 592.396
388.082, 652.543
389.426, 581.692
390.770, 493.808
392.114, 497.959
393.457, 367.113
394.800, 320.268
396.143, 268.424
397.486, 255.582
398.829, 235.741
400.171, 169.902
401.513, 288.064
402.855, 248.226
404.197, 292.389
405.539, 374.553
406.880, 337.718
408.221, 435.883
409.562, 460.049
410.903, 535.215
412.243, 525.382
413.583, 527.550
414.923, 558.717
416.263, 541.822
417.603, 533.052
418.942, 509.219
420.282, 453.385
421.620, 382.549
422.959, 339.714
424.298, 361.879
425.636, 325.042
426.974, 338.205
428.312, 300.366
429.650, 259.526
430.987, 324.684
432.325, 284.841
433.662, 353.996
434.999, 369.149
436.335, 310.301
437.672, 388.452
439.008, 310.600
440.344, 365.747
441.680, 285.892
443.015, 291.035
444.350, 280.176
445.686, 227.316
447.021, 283.453
448.355, 175.588
449.690, 273.721
451.024, 226.853
452.358, 199.982
453.692, 261.109
455.026, 218.234
456.359, 258.357
457.692, 205.478
459.025, 270.596
460.358, 339.712
461.691, 275.826
463.023, 335.938
464.355, 418.047
465.687, 468.154
467.019, 532.258
468.350, 558.360
469.682, 671.459
471.013, 671.557
472.344, 711.651
473.675, 696.743
475.005, 659.833
476.335, 643.920
477.665, 514.004
478.995, 535.086
480.325, 384.165
481.654, 346.241
482.983, 316.315
484.312, 209.386
485.641, 236.454
486.970, 189.519
488.298, 206.582
489.626, 167.642
490.954, 146.951
492.282, 124.753
493.609, 105.804
494.937, 95.852
496.264, 94.897
497.591, 68.940
498.917, 92.063
500.244, 23.099
501.570, 39.202
502.896, 71.282
504.222, 9.412
505.548, 38.764
506.873, 24.200
508.198, 5.482
509.523, 20.711
510.848, 4.163
512.172, 16.777
513.497, 52.523
514.821, 47.646
516.145, 56.938
517.469, 21.688
518.792, 4.158
520.115, 37.657
521.439, 7.666
522.761, 61.859
524.084, 26.882
525.407, 89.194
526.729, 19.241
528.051, 45.127
529.373, 6.356
530.694, 24.016
532.016, 63.419
533.337, 78.511
534.658, 105.041
535.979, 128.585
537.299, 157.712
538.620, 173.187
539.940, 231.447
541.260, 254.878
542.580, 323.240
543.899, 404.381
545.218, 450.611
546.538, 626.779
547.857, 693.974
549.175, 755.365
550.494, 834.456
551.812, 789.640
553.130, 633.758
554.448, 620.005
555.766, 471.201
557.083, 472.089
558.400, 300.371
559.717, 320.392
561.034, 336.268
562.351, 318.260
563.667, 384.088
564.983, 432.195
566.299, 478.175
567.615, 542.988
568.931, 569.027
570.246, 643.830
571.561, 674.627
572.876, 744.419
574.191, 812.206
575.505, 944.988
576.820, 1073.765
578.134, 1162.536
579.448, 1341.302
580.761, 1355.062
582.075, 1365.818
583.388, 1367.568
584.701, 1213.313
586.014, 1158.053
587.327, 976.788
588.639, 927.517
589.952, 887.240
591.264, 818.959
592.575, 848.672
593.887, 862.380
595.198, 913.082
596.510, 1100.779
597.821, 1165.471
599.132, 1394.157
600.442, 1540.838
601.752, 1771.514
603.063, 2035.184
604.373, 2186.849
605.682, 2469.509
606.992, 2496.163
608.301, 2609.812
609.610, 2589.456
610.919, 2310.094
612.228, 2235.727
613.537, 1912.354
614.845, 1680.976
616.153, 1431.593
617.461, 1192.204
618.769, 1097.810
620.076, 888.410
621.383, 725.006
622.691, 543.596
623.997, 489.180
625.304, 454.759
626.611, 303.333
627.917, 295.901
629.223, 329.465
630.529, 163.022
631.834, 244.575
633.140, 178.122
634.445, 96.664
635.750, 129.200
637.055, 79.731
638.359, 90.257
639.664, 15.222
640.968, 3.292
642.272, 12.199
643.576, 7.696
644.879, 19.199
646.183, 67.708
647.486, 86.226
648.789, 53.753
650.092, 43.288
651.394, 21.830
652.697, 78.406
653.999, 51.049
655.301, 33.866
656.602, 87.438
657.904, 53.291
659.205, 113.989
660.506, 108.615
661.807, 71.406
663.108, 105.024
664.409, 90.947
665.709, 144.716
667.009, 127.364
668.309, 86.120
669.609, 118.788
670.908, 88.503
672.207, 96.191
673.506, 29.887
674.805, 126.591
676.104, 127.305
677.402, 40.029
678.701, 115.760
679.999, 70.502
681.297, 108.251
682.594, 94.010
683.892, 47.779
685.189, 67.554
686.486, 55.337
687.783, 62.128
689.079, 104.927
690.376, 41.734
691.672, 62.549
692.968, 49.370
694.264, 78.199
695.560, 68.036
696.855, 2.881
698.150, 88.731
699.445, 33.589
700.740, 3.453
702.035, 29.322
703.329, 16.803
704.623, 56.077
705.917, 29.963
707.211, 10.145
708.504, 44.751
709.798, 70.346
711.091, 37.439
712.384, 64.529
713.677, 61.615
714.969, 32.697
716.262, 30.774
717.554, 38.261
718.846, 100.919
720.138, 84.986
721.429, 135.049
722.720, 204.108
724.012, 141.164
725.303, 244.216
726.593, 172.265
727.884, 228.311
729.174, 240.352
730.464, 242.391
731.754, 304.426
733.044, 337.458
734.333, 356.486
735.623, 355.511
736.912, 401.533
738.201, 404.552
739.490, 429.568
740.778, 430.581
742.066, 459.679
743.355, 475.598
744.642, 513.602
745.930, 550.602
747.218, 573.601
748.505, 648.596
749.792, 641.589
751.079, 695.578
752.366, 741.464
753.652, 737.550
754.939, 836.532
756.225, 856.512
757.511, 900.489
758.796, 991.463
760.082, 932.435
761.367, 1006.405
762.652, 941.372
763.937, 899.337
765.222, 1007.301
766.506, 871.261
767.790, 871.220
769.075, 912.177
770.358, 784.131
771.642, 854.084
772.926, 831.035
774.209, 772.983
775.492, 797.930
776.775, 763.875
778.058, 848.819
779.340, 709.677
780.622, 873.617
781.904, 817.486
783.186, 850.374
784.468, 979.207
785.750, 904.813
787.031, 952.331
788.312, 1042.999
789.593, 910.713
790.873, 936.527
792.154, 973.076
793.434, 995.751
794.714, 1019.507
795.994, 1035.415
797.274, 1084.677
798.553, 1075.059
799.833, 1062.465
801.112, 1119.044
802.391, 1091.466
803.669, 1114.954
804.948, 1099.193
806.226, 1234.511
807.504, 1315.022
808.782, 1315.380
810.060, 1425.879
811.337, 1475.342
812.615, 1433.114
813.892, 1687.436
815.168, 1663.754
816.445, 1810.478
817.722, 1936.851
818.998, 1996.434
820.274, 2257.842
821.550, 2392.317
822.826, 2678.007
824.101, 2874.605
825.376, 3074.262
826.652, 3574.887
827.926, 3819.314
829.201, 4419.036
830.476, 5122.662
831.750, 5716.350
833.024, 6999.904
834.298, 7935.508
835.572, 9491.416
836.845, 11636.925
838.119, 13852.691
839.392, 17438.600
840.665, 21464.391
841.937, 27210.340
843.210, 33686.008
844.482, 39251.801
845.754, 44177.754
847.026, 46213.480
848.298, 43949.441
849.569, 40395.402
850.841, 33771.367
852.112, 28707.334
853.383, 23823.303
854.654, 19449.275
855.924, 17005.248
857.195, 14081.224
858.465, 12417.201
859.735, 11173.182
861.004, 10019.163
862.274, 9575.147
863.543, 9061.135
864.812, 9187.125
866.081, 9673.117
867.350, 9839.112
868.619, 10215.109
869.887, 10581.110
871.155, 10457.113
872.423, 10213.119
873.691, 9079.129
874.959, 8265.141
876.226, 7071.155
877.493, 6012.173
878.760, 5369.192
880.027, 4402.217
881.294, 3928.244
882.560, 3394.274
883.826, 2807.308
885.092, 2757.344
886.358, 2398.384
887.624, 2136.427
888.889, 2046.474
890.154, 1882.526
891.419, 1718.580
892.684, 1597.638
893.949, 1511.700
895.213, 1466.765
896.477, 1264.833
897.742, 1361.905
899.005, 1154.980
900.269, 1183.058
901.532, 1092.140
902.796, 1085.226
904.059, 1122.315
905.322, 1033.408
906.584, 1010.507
907.847, 1088.609
909.109, 949.715
910.371, 962.826
911.633, 982.941
912.895, 893.059
914.156, 1079.184
915.418, 978.312
916.679, 1031.445
917.940, 1043.583
919.200, 1067.724
920.461, 1168.870
921.721, 1187.021
922.981, 1275.177
924.241, 1466.340
925.501, 1556.508
926.760, 1954.681
928.020, 2250.861
929.279, 2746.046
930.538, 3385.237
931.797, 3813.432
933.055, 3933.633
934.314, 3790.839
935.572, 3339.052
936.830, 3130.271
938.088, 3007.496
939.345, 3041.727
940.603, 3344.964
941.860, 3270.208
943.117, 3122.459
944.374, 2762.715
945.630, 2304.978
946.887, 2078.246
948.143, 1753.521
949.399, 1570.799
950.655, 1478.085
951.910, 1392.377
953.166, 1431.674
954.421, 1333.978
955.676, 1345.287
956.931, 1516.602
958.186, 1441.923
959.440, 1747.249
960.695, 1973.581
961.949, 2262.917
963.203, 2744.259
964.456, 3286.606
965.710, 4267.958
966.963, 5124.316
968.216, 5974.679
969.469, 6498.047
970.722, 6244.420
971.974, 5507.797
973.227, 4659.180
974.479, 3644.567
975.731, 3074.958
976.983, 2482.354
978.234, 1970.895
979.486, 1816.299
980.737, 1499.708
981.988, 1300.369
983.239, 1148.786
984.489, 885.206
985.740, 862.629
986.990, 743.056
988.240, 673.678
989.490, 646.111
990.740, 485.548
991.989, 510.007
993.238, 518.451
994.487, 438.897
995.736, 441.347
996.985, 370.800
998.233, 391.447
999.482, 358.907
1000.730, 346.433
1001.978, 398.927
1003.225, 306.396
1004.473, 314.983
1005.720, 336.463
1006.967, 369.941
1008.214, 337.635
1009.461, 309.121
1010.708, 253.609
1011.954, 322.126
1013.200, 259.622
1014.446, 240.479
1015.692, 227.979
1016.938, 168.482
1018.183, 265.153
1019.428, 243.663
1020.673, 271.175
1021.918, 250.013
1023.163, 211.530
1024.407, 178.498
1025.652, 253.022
1026.896, 196.549
1028.140, 250.340
1029.383, 172.874
1030.627, 252.562
1031.870, 278.102
1033.113, 194.644
1034.356, 195.364
1035.599, 267.912
1036.841, 216.462
1038.084, 188.334
1039.326, 124.890
1040.568, 205.836
1041.810, 200.558
1043.051, 102.123
1044.293, 227.124
1045.534, 154.858
1046.775, 165.431
1048.016, 150.574
1049.256, 147.154
1050.497, 170.924
1051.737, 168.819
1052.977, 164.990
1054.217, 163.169
1055.457, 147.760
1056.696, 159.406
1057.935, 149.446
1059.174, 96.045
1060.413, 151.646
1061.652, 44.800
1062.891, 131.405
1064.129, 136.162
1065.367, 69.772
1066.605, 139.383
1067.843, 142.179
1069.080, 24.792
1070.318, 176.406
1071.555, 76.153
1072.792, 73.771
1074.029, 185.388
1075.266, 77.011
1076.502, 118.633
1077.738, 150.272
1078.974, 57.896
1080.210, 118.521
1081.446, 103.145
1082.681, 61.771
1083.917, 214.397
1085.152, 30.023
1086.387, 164.650
1087.621, 101.403
1088.856, 58.028
1090.090, 104.653
1091.325, 83.294
1092.559, 115.920
1093.792, 129.545
1095.026, 83.171
1096.259, 126.797
1097.493, 95.421
1098.726, 42.045
1099.958, 88.669
1101.191, 86.292
1102.424, 125.915
1103.656, 134.536
1104.888, 24.157
1106.120, 111.776
1107.352, 41.493
1108.583, 50.110
1109.814, 179.728
1111.046, 24.657
1112.277, 17.958
1113.507, 110.599
1114.738, 47.790
1115.968, 156.817
1117.198, 45.423
1118.428, 79.027
1119.658, 111.631
1120.888, 35.767
1122.117, 57.832
1123.347, 75.428
1124.576, 1.022
1125.805, 98.613
1127.033, 57.202
1128.262, 33.788
1129.490, 189.374
1130.718, 35.822
1131.946, 77.756
1133.174, 8.668
1134.402, 1.068
1135.629, 34.502
1136.856, 19.921
1138.083, 3.642
1139.310, 14.554
1140.537, 40.990
1141.763, 42.563
1142.989, 7.115
1144.215, 1.041
1145.441, 113.505
1146.667, 72.953
1147.892, 24.582
1149.118, 23.115
1150.343, 31.204
1151.568, 94.455
1152.793, 37.978
1154.017, 65.434
1155.241, 173.078
1156.466, 92.154
1157.690, 80.502
1158.913, 17.999
1160.137, 51.959
1161.361, 90.599
1162.584, 28.804
1163.807, 38.925
1165.030, 70.398
1166.252, 33.967
1167.475, 43.707
1168.697, 45.200
1169.919, 64.937
1171.141, 5.509
1172.363, 79.951
1173.585, 30.770
1174.806, 18.656
1176.027, 89.704
1177.248, 32.022
1178.469, 60.507
1179.690, 118.911
1180.910, 41.056
1182.131, 37.558
1183.351, 63.658
1184.571, 72.926
1185.790, 34.708
1187.010, 15.059
1188.229, 8.529
1189.448, 92.917
1190.667, 93.059
1191.886, 15.523
1193.105, 115.628
1194.323, 14.828
1195.541, 29.864
1196.759, 21.083
1197.977, 80.404
1199.195, 37.101
1200.412, 96.357
1201.630, 40.631
1202.847, 25.522
1204.064, 82.865
1205.280, 32.119
1206.497, 87.268
1207.713, 50.507
1208.930, 1.260
1210.146, 6.368
1211.361, 29.587
1212.577, 15.851
1213.792, 51.464
1215.008, 31.662
1216.223, 44.083
1217.438, 132.268
1218.652, 25.555
1219.867, 90.613
1221.081, 58.775
1222.295, 1.955
1223.509, 169.656
1224.723, 84.794
1225.937, 130.399
1227.150, 94.522
1228.363, 16.638
1229.576, 153.001
1230.789, 84.102
1232.002, 14.216
1233.214, 204.713
1234.427, 15.790
1235.639, 88.858
1236.851, 231.128
1238.062, 19.819
1239.274, 153.281
1240.485, 150.666
1241.697, 88.693
1242.908, 212.181
1244.118, 4.809
1245.329, 108.193
1246.540, 191.161
1247.750, 20.146
1248.960, 152.263
1250.170, 28.711
1251.380, 91.670
1252.589, 207.614
1253.799, 46.557
1255.008, 104.490
1256.217, 112.396
1257.425, 99.312
1258.634, 57.220
1259.843, 96.654
1261.051, 46.456
1262.259, 189.233
1263.467, 27.141
1264.674, 5.060
1265.882, 190.043
1267.089, 1.112
1268.296, 42.608
1269.503, 68.929
1270.710, 52.257
1271.917, 92.338
1273.123, 67.519
1274.330, 62.688
1275.536, 118.255
1276.741, 15.031
1277.947, 7.441
1279.153, 27.588
1280.358, 31.662
1281.563, 28.084
1282.768, 53.142
1283.973, 14.134
1285.177, 109.256
1286.382, 54.739
1287.586, 32.493
1288.790, 67.191
1289.994, 117.135
1291.198, 14.732
1292.401, 23.937
1293.604, 53.449
1294.808, 29.180
1296.011, 35.154
1297.213, 44.724
1298.416, 7.132
1299.618, 87.512
1300.821, 2.742
1302.023, 20.698
1303.224, 160.493
1304.426, 10.883
1305.628, 46.082
1306.829, 57.001
1308.030, 25.664
1309.231, 38.171
1310.432, 123.254
1311.632, 61.215
1312.833, 111.450
1314.033, 45.313
1315.233, 5.123
1316.433, 87.627
1317.633, 12.212
1318.832, 56.861
1320.031, 136.914
1321.231, 28.539
1322.429, 111.827
1323.628, 30.023
1324.827, 13.316
1326.025, 138.506
1327.223, 5.188
1328.421, 43.880
1329.619, 37.769
1330.817, 12.515
1332.015, 124.210
1333.212, 27.078
1334.409, 47.169
1335.606, 193.593
1336.803, 2.628
1337.999, 7.838
1339.196, 85.981
1340.392, 83.204
1341.588, 10.626
1342.784, 87.469
1343.980, 19.676
1345.175, 49.062
1346.370, 26.061
1347.566, 50.173
1348.761, 189.147
1349.955, 57.240
1351.150, 24.679
1352.344, 99.632
1353.539, 89.420
1354.733, 101.539
1355.927, 159.489
1357.120, 81.328
1358.314, 54.487
1359.507, 11.509
1360.700, 4.512
1361.893, 88.543
1363.086, 63.414
1364.279, 63.359
1365.471, 44.630
1366.663, 69.293
1367.855, 11.894
1369.047, 74.993
1370.239, 100.896
1371.431, 131.228
1372.622, 27.634
1373.813, 53.457
1375.004, 47.692
1376.195, 136.138
1377.386, 30.043
1378.576, 103.237
1379.766, 120.558
1380.957, 39.659
1382.146, 81.245
1383.336, 76.004
1384.526, 8.752
1385.715, 69.676
1386.904, 43.401
1388.093, 114.884
1389.282, 108.816
1390.471, 22.275
1391.659, 7.852
1392.848, 74.021
1394.036, 59.394
1395.224, 19.545
1396.412, 153.949
1397.599, 108.161
1398.787, 121.800
1399.974, 14.997
1401.161, 82.125
1402.348, 106.043
1403.535, 39.960
1404.721, 11.039
1405.907, 67.091
1407.094, 83.239
1408.280, 35.263
1409.465, 81.143
1410.651, 106.066
1411.836, 43.567
1413.022, 37.102
1414.207, 63.983
1415.392, 152.167
1416.577, 39.595
1417.761, 55.220
1418.945, 133.503
1420.130, 31.429
1421.314, 36.009
1422.498, 44.529
1423.681, 10.529
1424.865, 124.518
1426.048, 13.561
1427.231, 7.887
1428.414, 93.721
1429.597, 43.606
1430.780, 9.806
1431.962, 203.975
1433.144, 109.811
1434.326, 80.296
1435.508, 120.702
1436.690, 38.418
1437.871, 73.126
1439.053, 87.963
1440.234, 14.073
1441.415, 168.582
1442.596, 84.833
1443.776, 23.780
1444.957, 157.389
1446.137, 4.650
1447.317, 103.568
1448.497, 148.114
1449.677, 74.346
1450.857, 141.801
1452.036, 150.229
1453.215, 30.386
1454.394, 182.855
1455.573, 90.313
1456.752, 52.760
1457.930, 258.182
1459.109, 108.520
1460.287, 121.369
1461.465, 234.742
1462.643, 8.094
1463.820, 173.621
1464.998, 187.505
1466.175, 30.909
1467.352, 241.121
1468.529, 98.192
1469.706, 10.647
1470.883, 227.765
1472.059, 27.135
1473.235, 78.599
1474.411, 268.548
1475.587, 18.623
1476.763, 149.581
1477.938, 189.513
1479.114, 27.125
1480.289, 196.117
1481.464, 108.073
1482.639, 50.823
1483.813, 284.741
1484.988, 40.643
1486.162, 91.522
1487.336, 264.221
1488.510, 162.049
1489.684, 127.861
1490.858, 182.646
1492.031, 16.595
1493.204, 220.156
1494.377, 149.895
1495.550, 29.638
1496.723, 196.384
1497.895, 99.150
1499.068, 36.260
1500.240, 237.954
1501.412, 2.382
1502.584, 30.323
1503.755, 228.004
1504.927, 11.662
1506.098, 125.328
1507.269, 166.011
1508.440, 28.937
1509.611, 140.669
1510.782, 88.250
1511.952, 40.171
1513.122, 156.289
1514.292, 56.836
1515.462, 31.351
1516.632, 174.636
1517.802, 44.239
1518.971, 51.768
1520.140, 127.556
1521.309, 84.751
1522.478, 5.879
1523.647, 0.000
##END=



