##NAMES=Chondrodite
##RRUFFID=R040016
##IDEAL CHEMISTRY=Mg_5_(SiO_4_)_2_F_2_
##LOCALITY=Vastmanland, Kafveltorp, Sweden
##OWNER=RRUFF
##SOURCE=University of Arizona Mineral Museum
##DESCRIPTION=Deep red single crystals embedded in matrix
##STATUS=The identification of this mineral has been confirmed by X-ray diffraction and chemical analysis
##URL=rruff.info/R040016
##MEASURED CHEMISTRY=(Mg_4.61_Fe_0.31_Mn_0.07_Ca_0.01_)_Σ=5_(Si_1.00_O_4_)_2_(F_1.16_(OH)_0.84_)_Σ=2_
##PIN_ID=M00385
##ORIENTATION=Laser parallel to -c [0 0 -1]. Fiducial mark perpendicular to laser is parallel to b* (0 1 0)
214.243, 0.000
215.615, 42.753
216.987, 16.527
218.358, 8.869
219.730, 46.533
221.101, 2.932
222.472, 56.465
223.843, 20.140
225.213, 66.735
226.583, 0.221
227.953, 63.771
229.323, 19.548
230.693, 34.784
232.062, 78.882
233.431, 38.072
234.800, 39.866
236.169, 21.808
237.537, 9.751
238.906, 19.304
240.274, 75.357
241.642, 18.410
243.009, 29.463
244.377, 22.484
245.744, 66.570
247.111, 6.624
248.478, 23.321
249.844, 28.733
251.210, 34.215
252.576, 2.835
253.942, 16.120
255.308, 40.080
256.673, 68.047
258.039, 94.014
259.404, 57.982
260.768, 169.948
262.133, 116.912
263.497, 136.875
264.861, 185.835
266.225, 177.794
267.589, 270.750
268.952, 115.705
270.315, 156.657
271.678, 79.606
273.041, 143.553
274.404, 264.497
275.766, 313.438
277.128, 470.378
278.490, 471.323
279.852, 512.267
281.213, 448.207
282.575, 378.152
283.936, 345.111
285.296, 194.079
286.657, 254.051
288.017, 119.033
289.378, 109.025
290.738, 91.023
292.097, 93.032
293.457, 99.037
294.816, 94.042
296.175, 106.232
297.534, 107.260
298.893, 125.248
300.251, 96.229
301.609, 74.200
302.967, 75.163
304.325, 91.118
305.682, 66.068
307.040, 77.013
308.397, 124.954
309.754, 176.893
311.110, 135.828
312.467, 277.761
313.823, 257.691
315.179, 248.618
316.535, 335.542
317.890, 274.463
319.246, 308.382
320.601, 258.298
321.956, 244.211
323.311, 273.122
324.665, 253.030
326.019, 212.935
327.373, 149.837
328.727, 160.523
330.081, 178.632
331.434, 166.525
332.787, 148.414
334.140, 154.300
335.493, 185.183
336.846, 163.062
338.198, 179.938
339.550, 146.956
340.902, 140.038
342.254, 187.062
343.605, 96.954
344.956, 176.804
346.307, 158.651
347.658, 139.621
349.009, 174.556
350.359, 122.844
351.709, 161.308
353.059, 90.432
354.409, 119.625
355.758, 114.744
357.108, 105.760
358.457, 148.026
359.806, 96.239
361.154, 143.481
362.503, 81.752
363.851, 94.940
365.199, 75.109
366.547, 23.302
367.894, 78.408
369.242, 0.343
370.589, 101.574
371.936, 37.668
373.282, 36.621
374.629, 40.566
375.975, 22.506
377.321, 18.341
378.667, 3.262
380.013, 4.035
381.358, 46.802
382.703, 28.691
384.048, 109.526
385.393, 27.272
386.738, 108.756
388.082, 98.505
389.426, 91.203
390.770, 89.037
392.114, 34.562
393.457, 83.365
394.800, 2.200
396.143, 37.900
397.486, 37.734
398.829, 23.554
400.171, 43.388
401.513, 31.221
402.855, 105.054
404.197, 136.887
405.539, 72.720
406.880, 163.553
408.221, 192.386
409.562, 247.218
410.903, 271.396
412.243, 286.877
413.583, 279.705
414.923, 275.532
416.263, 242.359
417.603, 278.185
418.942, 256.010
420.282, 258.833
421.620, 182.654
422.959, 239.473
424.298, 132.291
425.636, 219.105
426.974, 201.917
428.312, 282.727
429.650, 313.533
430.987, 368.337
432.325, 410.137
433.662, 472.933
434.999, 525.726
436.335, 580.514
437.672, 590.299
439.008, 661.081
440.344, 635.858
441.680, 552.631
443.015, 555.398
444.350, 475.163
445.686, 422.922
447.021, 324.678
448.355, 337.430
449.690, 239.178
451.024, 224.922
452.358, 233.662
453.692, 101.398
455.026, 164.129
456.359, 61.857
457.692, 73.581
459.025, 27.300
460.358, 21.015
461.691, 15.726
463.023, 26.567
464.355, 39.866
465.687, 38.831
467.019, 30.477
468.350, 89.211
469.682, 43.894
471.013, 6.427
472.344, 55.247
473.675, 7.917
475.005, 56.583
476.335, 23.244
477.665, 17.901
478.995, 24.447
480.325, 18.799
481.654, 23.843
482.983, 57.519
484.312, 32.888
485.641, 78.263
486.970, 50.645
488.298, 28.032
489.626, 34.426
490.954, 44.824
492.282, 34.093
493.609, 33.638
494.937, 32.056
496.264, 22.482
497.591, 23.915
498.917, 68.354
500.244, 32.801
501.570, 59.255
502.896, 33.716
504.222, 27.185
505.548, 39.662
506.873, 28.146
508.198, 29.637
509.523, 42.136
510.848, 30.642
512.172, 62.155
513.497, 16.679
514.821, 37.207
516.145, 9.741
517.469, 14.282
518.792, 12.791
520.115, 17.654
521.439, 16.741
522.761, 8.090
524.084, 44.538
525.407, 10.678
526.729, 55.096
528.051, 93.091
529.373, 87.947
530.694, 133.814
532.016, 134.827
533.337, 173.651
534.658, 217.550
535.979, 231.484
537.299, 302.516
538.620, 405.358
539.940, 402.179
541.260, 448.084
542.580, 661.032
543.899, 747.897
545.218, 936.800
546.538, 1138.699
547.857, 1386.785
549.175, 1550.657
550.494, 1478.596
551.812, 1385.233
553.130, 1216.992
554.448, 962.570
555.766, 863.475
557.083, 705.185
558.400, 636.947
559.717, 553.826
561.034, 569.525
562.351, 601.015
563.667, 623.539
564.983, 630.035
566.299, 758.625
567.615, 752.956
568.931, 811.414
570.246, 818.690
571.561, 837.019
572.876, 914.358
574.191, 847.563
575.505, 941.788
576.820, 922.972
578.134, 1020.150
579.448, 997.420
580.761, 1038.583
582.075, 1045.740
583.388, 968.890
584.701, 873.032
586.014, 827.168
587.327, 746.297
588.639, 706.419
589.952, 754.534
591.264, 712.641
592.575, 690.742
593.887, 857.835
595.198, 879.922
596.510, 1060.002
597.821, 1270.074
599.132, 1297.140
600.442, 1652.198
601.752, 1833.250
603.063, 1987.294
604.373, 2287.331
605.682, 2425.235
606.992, 2580.071
608.301, 2563.087
609.610, 2499.952
610.919, 2289.955
612.228, 2068.950
613.537, 1895.906
614.845, 1558.887
616.153, 1343.861
617.461, 1191.828
618.769, 993.788
620.076, 914.741
621.383, 741.572
622.691, 678.421
623.997, 606.353
625.304, 478.008
626.611, 567.771
627.917, 473.316
629.223, 507.982
630.529, 446.747
631.834, 306.474
633.140, 344.147
634.445, 227.863
635.750, 192.574
637.055, 155.285
638.359, 150.035
639.664, 127.771
640.968, 104.293
642.272, 92.974
643.576, 48.525
644.879, 68.189
646.183, 129.876
647.486, 53.498
648.789, 115.168
650.092, 109.824
651.394, 69.415
652.697, 122.053
653.999, 75.539
655.301, 64.229
656.602, 28.817
657.904, 11.527
659.205, 5.719
660.506, 19.743
661.807, 32.370
663.108, 43.721
664.409, 44.040
665.709, 74.326
667.009, 73.674
668.309, 121.980
669.609, 93.297
670.908, 96.624
672.207, 128.962
673.506, 89.312
674.805, 106.672
676.104, 115.043
677.402, 137.426
678.701, 97.820
679.999, 94.226
681.297, 113.641
682.594, 124.068
683.892, 107.506
685.189, 116.956
686.486, 117.417
687.783, 158.888
689.079, 114.373
690.376, 129.869
691.672, 66.377
692.968, 93.894
694.264, 56.420
695.560, 127.956
696.855, 87.502
698.150, 100.059
699.445, 126.626
700.740, 89.204
702.035, 45.792
703.329, 54.388
704.623, 49.992
705.917, 71.604
707.211, 17.225
708.504, 45.852
709.798, 8.488
711.091, 21.128
712.384, 24.776
713.677, 2.570
714.969, 3.090
716.262, 23.244
717.554, 58.573
718.846, 17.102
720.138, 13.216
721.429, 86.529
722.720, 44.837
724.012, 115.140
725.303, 152.439
726.593, 80.732
727.884, 143.021
729.174, 186.305
730.464, 198.584
731.754, 222.859
733.044, 258.129
734.333, 262.395
735.623, 360.655
736.912, 313.912
738.201, 355.163
739.490, 348.411
740.778, 424.654
742.066, 365.892
743.355, 422.127
744.642, 495.357
745.930, 474.583
747.218, 539.807
748.505, 575.026
749.792, 607.241
751.079, 679.453
752.366, 713.661
753.652, 759.865
754.939, 786.065
756.225, 760.261
757.511, 841.454
758.796, 890.642
760.082, 800.827
761.367, 848.009
762.652, 880.188
763.937, 805.363
765.222, 854.536
766.506, 820.706
767.790, 762.875
769.075, 728.041
770.358, 727.204
771.642, 640.365
772.926, 636.524
774.209, 637.680
775.492, 570.834
776.775, 613.986
778.058, 597.135
779.340, 714.281
780.622, 706.427
781.904, 675.569
783.186, 657.710
784.468, 775.850
785.750, 766.987
787.031, 808.122
788.312, 807.255
789.593, 801.386
790.873, 779.515
792.154, 877.643
793.434, 774.770
794.714, 898.894
795.994, 818.016
797.274, 924.137
798.553, 936.217
799.833, 957.230
801.112, 982.183
802.391, 979.539
803.669, 921.974
804.948, 979.724
806.226, 1003.476
807.504, 1011.001
808.782, 1090.657
810.060, 1113.297
811.337, 1135.783
812.615, 1280.452
813.892, 1344.039
815.168, 1410.585
816.445, 1464.026
817.722, 1614.648
818.998, 1743.287
820.274, 1837.834
821.550, 2091.331
822.826, 2222.904
824.101, 2447.431
825.376, 2679.956
826.652, 2992.287
827.926, 3445.824
829.201, 3967.288
830.476, 4565.046
831.750, 5182.676
833.024, 6251.479
834.298, 7325.949
835.572, 8721.607
836.845, 10647.206
838.119, 12942.682
839.392, 16208.330
840.665, 20374.180
841.937, 25609.990
843.210, 31185.822
844.482, 37011.551
845.754, 40267.535
847.026, 41593.387
848.298, 38319.410
849.569, 33545.375
850.841, 28151.324
852.112, 22937.400
853.383, 18763.453
854.654, 15249.538
855.924, 12605.625
857.195, 10531.615
858.465, 8967.704
859.735, 7633.794
861.004, 6709.885
862.274, 5991.977
863.543, 5363.071
864.812, 4827.166
866.081, 4653.262
867.350, 4344.360
868.619, 4064.458
869.887, 4014.559
871.155, 3785.660
872.423, 3547.763
873.691, 3260.868
874.959, 3012.975
876.226, 2725.083
877.493, 2371.192
878.760, 2098.302
880.027, 1939.415
881.294, 1735.529
882.560, 1683.645
883.826, 1402.763
885.092, 1339.882
886.358, 1287.002
887.624, 1050.125
888.889, 1126.250
890.154, 1030.379
891.419, 998.510
892.684, 1018.642
893.949, 918.778
895.213, 878.915
896.477, 803.054
897.742, 790.196
899.005, 774.339
900.269, 825.485
901.532, 795.632
902.796, 861.781
904.059, 831.675
905.322, 830.875
906.584, 796.252
907.847, 788.414
909.109, 788.577
910.371, 732.744
911.633, 819.913
912.895, 736.082
914.156, 760.255
915.418, 836.429
916.679, 712.605
917.940, 802.784
919.200, 852.965
920.461, 941.147
921.721, 1009.332
922.981, 1004.518
924.241, 1260.708
925.501, 1452.898
926.760, 1718.092
928.020, 2083.288
929.279, 2649.485
930.538, 3244.686
931.797, 3488.889
933.055, 3545.093
934.314, 3250.302
935.572, 2722.526
936.830, 2404.739
938.088, 2092.955
939.345, 1807.174
940.603, 1656.800
941.860, 1405.001
943.117, 1401.858
944.374, 1294.095
945.630, 1128.336
946.887, 1030.603
948.143, 934.777
949.399, 885.778
950.655, 818.343
951.910, 847.606
953.166, 896.874
954.421, 885.146
955.676, 877.422
956.931, 1058.703
958.186, 1124.005
959.440, 1329.294
960.695, 1572.588
961.949, 1885.887
963.203, 2442.190
964.456, 2999.498
965.710, 3763.811
966.963, 4790.127
968.216, 5544.447
969.469, 5967.770
970.722, 5736.098
971.974, 5006.429
973.227, 4170.765
974.479, 3393.105
975.731, 2841.448
976.983, 2317.795
978.234, 1890.145
979.486, 1682.497
980.737, 1340.853
981.988, 1159.211
983.239, 1110.572
984.489, 818.087
985.740, 854.452
986.990, 705.820
988.240, 606.564
989.490, 626.934
990.740, 492.306
991.989, 506.166
993.238, 537.541
994.487, 447.448
995.736, 418.296
996.985, 379.675
998.233, 383.501
999.482, 410.883
1000.730, 347.266
1001.978, 488.905
1003.225, 620.290
1004.473, 610.887
1005.720, 491.274
1006.967, 385.663
1008.214, 308.514
1009.461, 294.904
1010.708, 190.387
1011.954, 284.837
1013.200, 167.231
1014.446, 189.982
1015.692, 252.377
1016.938, 188.773
1018.183, 255.486
1019.428, 258.883
1020.673, 221.297
1021.918, 351.036
1023.163, 211.436
1024.407, 251.611
1025.652, 298.012
1026.896, 195.413
1028.140, 256.405
1029.383, 222.807
1030.627, 212.315
1031.870, 244.915
1033.113, 143.318
1034.356, 204.024
1035.599, 200.428
1036.841, 133.035
1038.084, 154.227
1039.326, 82.715
1040.568, 174.366
1041.810, 157.926
1043.051, 138.181
1044.293, 169.213
1045.534, 131.624
1046.775, 70.035
1048.016, 131.668
1049.256, 59.080
1050.497, 90.734
1051.737, 119.206
1052.977, 28.617
1054.217, 179.231
1055.457, 110.641
1056.696, 37.050
1057.935, 93.811
1059.174, 22.219
1060.413, 73.792
1061.652, 112.289
1062.891, 40.726
1064.129, 126.556
1065.367, 69.961
1066.605, 51.365
1067.843, 114.193
1069.080, 2.596
1070.318, 175.203
1071.555, 111.650
1072.792, 36.050
1074.029, 180.133
1075.266, 86.533
1076.502, 57.932
1077.738, 122.593
1078.974, 66.995
1080.210, 169.395
1081.446, 47.795
1082.681, 130.196
1083.917, 191.810
1085.152, 65.211
1086.387, 177.610
1087.621, 127.025
1088.856, 26.422
1090.090, 111.889
1091.325, 1.283
1092.559, 84.678
1093.792, 132.070
1095.026, 28.462
1096.259, 147.853
1097.493, 80.240
1098.726, 55.628
1099.958, 161.015
1101.191, 42.398
1102.424, 126.782
1103.656, 74.164
1104.888, 26.543
1106.120, 151.922
1107.352, 93.298
1108.583, 59.673
1109.814, 165.046
1111.046, 7.415
1112.277, 95.783
1113.507, 29.146
1114.738, 27.507
1115.968, 101.866
1117.198, 28.779
1118.428, 10.572
1119.658, 98.920
1120.888, 76.736
1122.117, 85.602
1123.347, 127.935
1124.576, 100.735
1125.805, 89.588
1127.033, 19.908
1128.262, 39.224
1129.490, 103.537
1130.718, 92.154
1131.946, 94.147
1133.174, 68.445
1134.402, 51.262
1135.629, 83.027
1136.856, 41.688
1138.083, 40.590
1139.310, 86.866
1140.537, 95.862
1141.763, 69.402
1142.989, 16.338
1144.215, 9.084
1145.441, 66.167
1146.667, 73.588
1147.892, 28.649
1149.118, 14.883
1150.343, 64.887
1151.568, 22.334
1152.793, 0.447
1154.017, 70.163
1155.241, 58.042
1156.466, 163.758
1157.690, 46.430
1158.913, 88.614
1160.137, 124.103
1161.361, 29.065
1162.584, 19.770
1163.807, 39.455
1165.030, 61.696
1166.252, 62.158
1167.475, 6.980
1168.697, 40.887
1169.919, 166.646
1171.141, 15.533
1172.363, 50.426
1173.585, 42.662
1174.806, 66.430
1176.027, 85.839
1177.248, 66.475
1178.469, 84.546
1179.690, 45.103
1180.910, 168.955
1182.131, 49.993
1183.351, 10.809
1184.571, 59.228
1185.790, 41.742
1187.010, 77.280
1188.229, 50.295
1189.448, 73.696
1190.667, 100.304
1191.886, 33.704
1193.105, 17.675
1194.323, 4.697
1195.541, 89.727
1196.759, 6.577
1197.977, 54.530
1199.195, 89.379
1200.412, 72.556
1201.630, 42.531
1202.847, 8.324
1204.064, 98.588
1205.280, 145.507
1206.497, 25.142
1207.713, 2.026
1208.930, 54.418
1210.146, 83.089
1211.361, 19.949
1212.577, 48.205
1213.792, 85.770
1215.008, 44.309
1216.223, 51.168
1217.438, 114.988
1218.652, 2.199
1219.867, 189.021
1221.081, 14.182
1222.295, 46.953
1223.509, 165.372
1224.723, 48.145
1225.937, 142.460
1227.150, 82.217
1228.363, 1.966
1229.576, 124.545
1230.789, 83.278
1232.002, 20.160
1233.214, 214.422
1234.427, 15.129
1235.639, 119.099
1236.851, 213.411
1238.062, 99.093
1239.274, 268.256
1240.485, 191.922
1241.697, 121.579
1242.908, 198.569
1244.118, 76.208
1245.329, 174.839
1246.540, 272.778
1247.750, 31.393
1248.960, 243.095
1250.170, 175.693
1251.380, 108.282
1252.589, 244.678
1253.799, 40.249
1255.008, 161.811
1256.217, 237.271
1257.425, 28.816
1258.634, 145.407
1259.843, 122.214
1261.051, 22.732
1262.259, 255.058
1263.467, 54.558
1264.674, 126.049
1265.882, 196.774
1267.089, 50.249
1268.296, 241.502
1269.503, 139.456
1270.710, 128.902
1271.917, 308.186
1273.123, 143.637
1274.330, 129.960
1275.536, 304.612
1276.741, 148.013
1277.947, 234.051
1279.153, 147.816
1280.358, 92.197
1281.563, 185.254
1282.768, 172.987
1283.973, 14.670
1285.177, 203.339
1286.382, 34.683
1287.586, 126.244
1288.790, 88.985
1289.994, 21.700
1291.198, 229.015
1292.401, 35.582
1293.604, 33.234
1294.808, 230.851
1296.011, 2.325
1297.213, 103.290
1298.416, 140.549
1299.618, 24.391
1300.821, 81.064
1302.023, 57.501
1303.224, 142.521
1304.426, 70.484
1305.628, 137.967
1306.829, 50.194
1308.030, 77.979
1309.231, 60.861
1310.432, 47.065
1311.632, 149.202
1312.833, 29.915
1314.033, 61.139
1315.233, 149.241
1316.433, 64.125
1317.633, 200.205
1318.832, 108.273
1320.031, 72.975
1321.231, 177.016
1322.429, 9.116
1323.628, 120.815
1324.827, 162.796
1326.025, 73.627
1327.223, 140.365
1328.421, 30.652
1329.619, 14.894
1330.817, 101.855
1332.015, 61.400
1333.212, 24.492
1334.409, 24.418
1335.606, 162.349
1336.803, 48.552
1337.999, 145.558
1339.196, 136.944
1340.392, 99.918
1341.588, 86.231
1342.784, 154.395
1343.980, 17.571
1345.175, 138.971
1346.370, 48.826
1347.566, 37.610
1348.761, 88.632
1349.955, 67.128
1351.150, 74.194
1352.344, 140.459
1353.539, 109.263
1354.733, 118.030
1355.927, 44.664
1357.120, 33.348
1358.314, 179.979
1359.507, 56.681
1360.700, 33.670
1361.893, 117.032
1363.086, 133.594
1364.279, 57.792
1365.471, 133.173
1366.663, 109.417
1367.855, 105.003
1369.047, 31.564
1370.239, 54.120
1371.431, 73.315
1372.622, 181.219
1373.813, 22.743
1375.004, 67.275
1376.195, 199.227
1377.386, 53.282
1378.576, 38.252
1379.766, 173.724
1380.957, 40.814
1382.146, 155.638
1383.336, 64.080
1384.526, 84.375
1385.715, 175.047
1386.904, 11.541
1388.093, 60.027
1389.282, 184.341
1390.471, 56.305
1391.659, 23.229
1392.848, 182.557
1394.036, 107.139
1395.224, 157.573
1396.412, 95.828
1397.599, 106.965
1398.787, 177.464
1399.974, 66.549
1401.161, 6.002
1402.348, 126.818
1403.535, 64.375
1404.721, 30.422
1405.907, 123.208
1407.094, 81.095
1408.280, 159.669
1409.465, 84.427
1410.651, 78.938
1411.836, 205.625
1413.022, 5.350
1414.207, 6.065
1415.392, 218.644
1416.577, 89.413
1417.761, 104.529
1418.945, 121.921
1420.130, 57.760
1421.314, 158.714
1422.498, 36.345
1423.681, 43.032
1424.865, 216.583
1426.048, 39.136
1427.231, 2.265
1428.414, 249.893
1429.597, 61.710
1430.780, 88.491
1431.962, 233.055
1433.144, 74.393
1434.326, 293.370
1435.508, 203.333
1436.690, 59.718
1437.871, 345.286
1439.053, 279.156
1440.234, 267.100
1441.415, 610.571
1442.596, 308.163
1443.776, 544.291
1444.957, 632.413
1446.137, 387.920
1447.317, 667.853
1448.497, 583.376
1449.677, 435.658
1450.857, 853.371
1452.036, 636.102
1453.215, 589.915
1454.394, 860.133
1455.573, 522.010
1456.752, 729.507
1457.930, 863.584
1459.109, 504.234
1460.287, 761.891
1461.465, 802.071
1462.643, 449.172
1463.820, 737.283
1464.998, 405.681
1466.175, 502.116
1467.352, 670.125
1468.529, 328.301
1469.706, 399.436
1470.883, 584.324
1472.059, 278.179
1473.235, 380.061
1474.411, 482.229
1475.587, 137.989
1476.763, 441.213
1477.938, 365.854
1479.114, 184.744
1480.289, 491.327
1481.464, 141.965
1482.639, 249.525
1483.813, 464.082
1484.988, 199.626
1486.162, 321.175
1487.336, 401.715
1488.510, 161.273
1489.684, 323.807
1490.858, 176.327
1492.031, 3.186
1493.204, 381.285
1494.377, 150.733
1495.550, 71.177
1496.723, 392.622
1497.895, 3.943
1499.068, 158.497
1500.240, 168.915
1501.412, 100.646
1502.584, 176.788
1503.755, 184.230
1504.927, 11.299
1506.098, 308.187
1507.269, 79.665
1508.440, 32.135
1509.611, 340.596
1510.782, 24.059
1511.952, 107.390
1513.122, 204.679
1514.292, 23.882
1515.462, 174.761
1516.632, 165.096
1517.802, 41.171
1518.971, 105.364
1520.140, 123.778
1521.309, 93.865
1522.478, 208.525
1523.647, 58.345
1524.815, 74.062
1525.984, 229.660
1527.152, 0.000
##END=



