##NAMES=Chondrodite
##RRUFFID=R040016
##IDEAL CHEMISTRY=Mg_5_(SiO_4_)_2_F_2_
##LOCALITY=Vastmanland, Kafveltorp, Sweden
##OWNER=RRUFF
##SOURCE=University of Arizona Mineral Museum
##DESCRIPTION=Deep red single crystals embedded in matrix
##STATUS=The identification of this mineral has been confirmed by X-ray diffraction and chemical analysis
##URL=rruff.info/R040016
##MEASURED CHEMISTRY=(Mg_4.61_Fe_0.31_Mn_0.07_Ca_0.01_)_Σ=5_(Si_1.00_O_4_)_2_(F_1.16_(OH)_0.84_)_Σ=2_
##PIN_ID=M00256
##ORIENTATION=Laser parallel to -b* (0 -1 0). Fiducial mark perpendicular to laser is parallel to c [0 0 1]
156.417, 0.000
157.798, 4.936
159.179, 16.192
160.560, 24.495
161.941, 3.273
163.321, 10.149
164.702, 9.354
166.082, 9.154
167.461, 11.979
168.841, 18.896
170.220, 12.075
171.600, 70.240
172.979, 20.631
174.357, 162.019
175.736, 157.276
177.114, 206.365
178.492, 302.311
179.870, 349.942
181.247, 472.664
182.625, 449.208
184.002, 496.394
185.379, 377.003
186.756, 285.936
188.132, 180.216
189.508, 135.064
190.884, 116.414
192.260, 24.304
193.636, 36.475
195.011, 28.040
196.386, 28.852
197.761, 1.464
199.136, 18.227
200.510, 50.712
201.885, 0.458
203.259, 52.714
204.632, 18.604
206.006, 21.261
207.379, 24.563
208.753, 33.613
210.125, 20.790
211.498, 16.970
212.871, 35.155
214.243, 124.345
215.615, 83.541
216.987, 117.745
218.358, 132.955
219.730, 113.172
221.101, 102.395
222.472, 54.625
223.843, 109.860
225.213, 93.101
226.583, 142.347
227.953, 111.599
229.323, 100.851
230.693, 83.091
232.062, 82.302
233.431, 84.640
234.800, 89.661
236.169, 106.816
237.537, 119.961
238.906, 141.094
240.274, 130.219
241.642, 96.336
243.009, 105.449
244.377, 118.556
245.744, 35.662
247.111, 91.770
248.478, 65.877
249.844, 23.985
251.210, 4.097
252.576, 16.785
253.942, 4.341
255.308, 17.475
256.673, 19.383
258.039, 49.231
259.404, 71.066
260.768, 64.883
262.133, 88.680
263.497, 58.460
264.861, 106.226
266.225, 111.973
267.589, 87.313
268.952, 120.425
270.315, 48.132
271.678, 72.823
273.041, 73.498
274.404, 232.159
275.766, 362.811
277.128, 501.456
278.490, 595.098
279.852, 622.738
281.213, 661.376
282.575, 533.013
283.936, 445.648
285.296, 302.282
286.657, 236.914
288.017, 203.545
289.378, 128.174
290.738, 144.801
292.097, 56.427
293.457, 112.050
294.816, 153.672
296.175, 191.292
297.534, 197.909
298.893, 236.524
300.251, 256.220
301.609, 189.209
302.967, 125.997
304.325, 87.686
305.682, 73.064
307.040, 82.722
308.397, 90.153
309.754, 118.540
311.110, 158.891
312.467, 167.172
313.823, 203.427
315.179, 220.642
316.535, 276.798
317.890, 250.016
319.246, 276.207
320.601, 276.370
321.956, 229.505
323.311, 263.613
324.665, 234.694
326.019, 233.785
327.373, 226.476
328.727, 156.837
330.081, 202.003
331.434, 171.962
332.787, 170.886
334.140, 69.774
335.493, 80.626
336.846, 93.495
338.198, 116.293
339.550, 132.291
340.902, 66.191
342.254, 80.987
343.605, 62.764
344.956, 33.442
346.307, 42.098
347.658, 10.736
349.009, 37.360
350.359, 40.979
351.709, 15.597
353.059, 51.113
354.409, 26.728
355.758, 96.186
357.108, 86.702
358.457, 110.236
359.806, 160.684
361.154, 163.716
362.503, 246.938
363.851, 304.000
365.199, 379.991
366.547, 421.074
367.894, 446.207
369.242, 516.562
370.589, 520.659
371.936, 549.835
373.282, 467.781
374.629, 495.869
375.975, 530.008
377.321, 500.228
378.667, 613.452
380.013, 559.663
381.358, 793.851
382.703, 833.958
384.048, 1062.002
385.393, 1168.948
386.738, 1315.942
388.082, 1312.600
389.426, 1258.198
390.770, 1177.240
392.114, 953.668
393.457, 764.833
394.800, 640.118
396.143, 445.595
397.486, 453.163
398.829, 358.748
400.171, 220.310
401.513, 264.809
402.855, 214.387
404.197, 233.965
405.539, 197.541
406.880, 258.114
408.221, 322.685
409.562, 332.254
410.903, 384.821
412.243, 400.386
413.583, 406.948
414.923, 414.142
416.263, 402.743
417.603, 382.622
418.942, 349.175
420.282, 304.724
421.620, 231.271
422.959, 230.813
424.298, 162.354
425.636, 106.891
426.974, 129.424
428.312, 82.954
429.650, 144.480
430.987, 81.003
432.325, 74.522
433.662, 63.037
434.999, 11.549
436.335, 41.057
437.672, 42.561
439.008, 50.062
440.344, 11.558
441.680, 16.949
443.015, 34.461
444.350, 44.977
445.686, 16.498
447.021, 22.026
448.355, 20.559
449.690, 2.102
451.024, 9.653
452.358, 40.788
453.692, 49.220
455.026, 44.645
456.359, 61.062
457.692, 39.472
459.025, 128.874
460.358, 38.269
461.691, 106.657
463.023, 49.038
464.355, 46.412
465.687, 21.779
467.019, 34.139
468.350, 30.491
469.682, 7.162
471.013, 2.823
472.344, 7.509
473.675, 39.166
475.005, 22.152
476.335, 28.463
477.665, 6.767
478.995, 51.066
480.325, 8.642
481.654, 4.644
482.983, 49.075
484.312, 32.803
485.641, 14.538
486.970, 15.279
488.298, 11.973
489.626, 28.220
490.954, 9.658
492.282, 37.061
493.609, 51.703
494.937, 64.263
496.264, 64.881
497.591, 45.561
498.917, 58.206
500.244, 52.012
501.570, 83.587
502.896, 45.118
504.222, 86.763
505.548, 35.450
506.873, 98.178
508.198, 81.919
509.523, 100.664
510.848, 108.373
512.172, 59.072
513.497, 41.862
514.821, 41.943
516.145, 32.161
517.469, 44.857
518.792, 43.516
520.115, 55.150
521.439, 84.970
522.761, 85.430
524.084, 102.188
525.407, 85.809
526.729, 160.291
528.051, 163.135
529.373, 254.444
530.694, 295.042
532.016, 302.528
533.337, 384.994
534.658, 474.772
535.979, 526.316
537.299, 583.924
538.620, 678.367
539.940, 793.776
541.260, 901.206
542.580, 1085.642
543.899, 1262.066
545.218, 1519.316
546.538, 1909.949
547.857, 2240.408
549.175, 2461.668
550.494, 2588.145
551.812, 2391.442
553.130, 2116.620
554.448, 1718.912
555.766, 1323.192
557.083, 1037.479
558.400, 834.539
559.717, 678.723
561.034, 532.885
562.351, 442.826
563.667, 396.825
564.983, 362.750
566.299, 354.801
567.615, 356.688
568.931, 373.230
570.246, 403.503
571.561, 460.388
572.876, 501.265
574.191, 595.134
575.505, 733.994
576.820, 776.847
578.134, 980.691
579.448, 1082.528
580.761, 1184.356
582.075, 1320.176
583.388, 1320.988
584.701, 1328.710
586.014, 1200.343
587.327, 979.918
588.639, 855.618
589.952, 677.284
591.264, 512.948
592.575, 433.691
593.887, 329.390
595.198, 290.129
596.510, 275.860
597.821, 315.582
599.132, 256.297
600.442, 209.004
601.752, 272.702
603.063, 285.393
604.373, 346.075
605.682, 365.750
606.992, 454.417
608.301, 478.075
609.610, 438.726
610.919, 498.368
612.228, 504.966
613.537, 427.576
614.845, 418.195
616.153, 274.620
617.461, 285.223
618.769, 215.818
620.076, 205.405
621.383, 177.985
622.691, 87.512
623.997, 112.076
625.304, 56.399
626.611, 80.791
627.917, 48.259
629.223, 19.717
630.529, 36.241
631.834, 40.242
633.140, 33.735
634.445, 86.238
635.750, 69.752
637.055, 83.277
638.359, 97.814
639.664, 91.363
640.968, 126.923
642.272, 78.497
643.576, 70.083
644.879, 95.679
646.183, 105.288
647.486, 114.909
648.789, 118.542
650.092, 119.928
651.394, 112.849
652.697, 111.522
653.999, 132.207
655.301, 119.906
656.602, 86.618
657.904, 114.342
659.205, 107.078
660.506, 102.828
661.807, 143.589
663.108, 67.365
664.409, 132.151
665.709, 103.950
667.009, 74.762
668.309, 153.585
669.609, 39.423
670.908, 102.270
672.207, 79.129
673.506, 76.000
674.805, 143.882
676.104, 94.777
677.402, 109.684
678.701, 75.604
679.999, 69.535
681.297, 75.476
682.594, 78.428
683.892, 77.392
685.189, 41.366
686.486, 125.349
687.783, 89.346
689.079, 48.354
690.376, 96.371
691.672, 59.400
692.968, 35.439
694.264, 61.487
695.560, 60.544
696.855, 63.612
698.150, 16.690
699.445, 44.775
700.740, 41.870
702.035, 28.026
703.329, 10.084
704.623, 31.798
705.917, 24.326
707.211, 40.541
708.504, 49.402
709.798, 47.256
711.091, 88.104
712.384, 54.946
713.677, 49.781
714.969, 114.610
716.262, 50.432
717.554, 156.249
718.846, 129.059
720.138, 87.863
721.429, 207.660
722.720, 171.452
724.012, 249.238
725.303, 233.018
726.593, 240.793
727.884, 331.563
729.174, 269.328
730.464, 358.087
731.754, 447.841
733.044, 477.590
734.333, 500.333
735.623, 518.070
736.912, 570.802
738.201, 568.529
739.490, 609.839
740.778, 671.965
742.066, 678.676
743.355, 714.381
744.642, 763.080
745.930, 784.775
747.218, 887.464
748.505, 933.148
749.792, 1050.828
751.079, 1105.502
752.366, 1215.172
753.652, 1317.837
754.939, 1367.497
756.225, 1404.153
757.511, 1501.804
758.796, 1601.450
760.082, 1620.092
761.367, 1609.730
762.652, 1471.363
763.937, 1534.991
765.222, 1424.616
766.506, 1437.238
767.790, 1291.856
769.075, 1198.470
770.358, 1180.080
771.642, 1101.488
772.926, 1077.923
774.209, 949.109
775.492, 935.368
776.775, 865.561
778.058, 860.681
779.340, 901.828
780.622, 865.805
781.904, 837.005
783.186, 878.240
784.468, 878.352
785.750, 942.416
787.031, 953.432
788.312, 989.428
789.593, 1043.414
790.873, 958.430
792.154, 1017.450
793.434, 990.370
794.714, 1069.345
795.994, 1056.472
797.274, 1002.468
798.553, 1057.494
799.833, 998.538
801.112, 990.390
802.391, 988.594
803.669, 936.495
804.948, 1008.525
806.226, 1082.689
807.504, 1043.555
808.782, 1155.808
810.060, 1049.838
811.337, 1129.974
812.615, 1200.124
813.892, 1267.956
815.168, 1391.014
816.445, 1422.002
817.722, 1587.148
818.998, 1709.320
820.274, 1714.464
821.550, 1966.593
822.826, 2047.726
824.101, 2237.025
825.376, 2571.933
826.652, 2782.008
827.926, 3200.273
829.201, 3512.314
830.476, 4235.526
831.750, 4826.850
833.024, 5526.052
834.298, 6615.258
835.572, 7828.449
836.845, 9385.859
838.119, 11593.139
839.392, 13980.432
840.665, 18027.939
841.937, 22295.381
843.210, 27262.889
844.482, 34320.262
845.754, 37767.773
847.026, 41245.281
848.298, 40782.789
849.569, 36040.301
850.841, 32037.812
852.112, 26085.324
853.383, 21732.836
854.654, 18000.352
855.924, 14677.865
857.195, 12755.381
858.465, 10782.896
859.735, 9490.414
861.004, 8727.933
862.274, 7795.452
863.543, 7512.973
864.812, 7142.495
866.081, 7428.018
867.350, 7565.542
868.619, 7673.067
869.887, 8100.595
871.155, 7918.125
872.423, 7615.656
873.691, 7243.188
874.959, 6306.724
876.226, 5446.261
877.493, 4719.799
878.760, 3935.340
880.027, 3457.881
881.294, 2935.425
882.560, 2641.971
883.826, 2336.519
885.092, 1964.069
886.358, 1893.620
887.624, 1627.175
888.889, 1591.732
890.154, 1487.291
891.419, 1349.853
892.684, 1256.417
893.949, 1102.985
895.213, 1049.555
896.477, 1023.128
897.742, 930.703
899.005, 935.281
900.269, 942.863
901.532, 823.448
902.796, 869.035
904.059, 788.625
905.322, 765.219
906.584, 840.816
907.847, 717.418
909.109, 771.024
910.371, 694.634
911.633, 761.251
912.895, 721.872
914.156, 696.540
915.418, 809.131
916.679, 663.767
917.940, 659.410
919.200, 697.058
920.461, 659.710
921.721, 780.368
922.981, 752.031
924.241, 759.701
925.501, 836.377
926.760, 828.058
928.020, 870.745
929.279, 1025.438
930.538, 1091.136
931.797, 1304.840
933.055, 1398.549
934.314, 1666.264
935.572, 2016.985
936.830, 2479.712
938.088, 3516.445
939.345, 4327.182
940.603, 5508.924
941.860, 6364.672
943.117, 5952.425
944.374, 5484.184
945.630, 4517.947
946.887, 3592.716
948.143, 2981.491
949.399, 2456.271
950.655, 2168.058
951.910, 1999.849
953.166, 1751.646
954.421, 1793.448
955.676, 1672.255
956.931, 1715.067
958.186, 1774.883
959.440, 1861.704
960.695, 2083.529
961.949, 2390.360
963.203, 2708.196
964.456, 3482.036
965.710, 4040.882
966.963, 5138.732
968.216, 6036.586
969.469, 6356.444
970.722, 6618.308
971.974, 5870.274
973.227, 4927.146
974.479, 4071.021
975.731, 3039.901
976.983, 2606.783
978.234, 1918.669
979.486, 1580.557
980.737, 1364.449
981.988, 1052.344
983.239, 995.242
984.489, 815.143
985.740, 710.047
986.990, 677.954
988.240, 528.863
989.490, 553.901
990.740, 491.816
991.989, 413.734
993.238, 477.655
994.487, 397.578
995.736, 364.516
996.985, 390.445
998.233, 297.377
999.482, 313.311
1000.730, 357.249
1001.978, 294.268
1003.225, 342.210
1004.473, 308.155
1005.720, 290.414
1006.967, 338.364
1008.214, 167.317
1009.461, 321.545
1010.708, 219.503
1011.954, 220.522
1013.200, 238.485
1014.446, 165.450
1015.692, 219.541
1016.938, 209.510
1018.183, 171.619
1019.428, 238.594
1020.673, 150.571
1021.918, 181.910
1023.163, 213.891
1024.407, 111.881
1025.652, 219.216
1026.896, 143.205
1028.140, 136.359
1029.383, 207.678
1030.627, 115.673
1031.870, 185.721
1033.113, 199.004
1034.356, 113.163
1035.599, 210.436
1036.841, 136.441
1038.084, 137.671
1039.326, 204.931
1040.568, 153.142
1041.810, 100.820
1043.051, 127.837
1044.293, 68.115
1045.534, 195.621
1046.775, 131.650
1048.016, 76.049
1049.256, 138.084
1050.497, 81.120
1051.737, 184.496
1052.977, 99.539
1054.217, 133.582
1055.457, 158.945
1056.696, 62.991
1057.935, 110.385
1059.174, 98.477
1060.413, 73.529
1061.652, 210.745
1062.891, 106.801
1064.129, 100.856
1065.367, 156.007
1066.605, 82.065
1067.843, 154.228
1069.080, 103.471
1070.318, 122.532
1071.555, 144.593
1072.792, 56.658
1074.029, 122.722
1075.266, 165.788
1076.502, 21.856
1077.738, 177.923
1078.974, 83.069
1080.210, 121.137
1081.446, 142.629
1082.681, 55.699
1083.917, 145.770
1085.152, 94.840
1086.387, 110.913
1087.621, 143.986
1088.856, 16.059
1090.090, 104.133
1091.325, 121.206
1092.559, 26.281
1093.792, 205.355
1095.026, 71.428
1096.259, 26.503
1097.493, 192.577
1098.726, 22.651
1099.958, 69.725
1101.191, 147.798
1102.424, 124.872
1103.656, 175.945
1104.888, 15.984
1106.120, 71.087
1107.352, 118.157
1108.583, 46.226
1109.814, 151.294
1111.046, 51.360
1112.277, 69.424
1113.507, 134.488
1114.738, 7.549
1115.968, 51.610
1117.198, 101.668
1118.428, 22.724
1119.658, 72.780
1120.888, 40.834
1122.117, 22.114
1123.347, 152.934
1124.576, 14.980
1125.805, 110.024
1127.033, 139.066
1128.262, 2.106
1129.490, 169.145
1130.718, 55.201
1131.946, 20.234
1133.174, 133.265
1134.402, 12.706
1135.629, 105.319
1136.856, 102.344
1138.083, 62.635
1139.310, 101.382
1140.537, 5.397
1141.763, 54.591
1142.989, 78.416
1144.215, 8.535
1145.441, 55.466
1146.667, 19.465
1147.892, 22.540
1149.118, 94.453
1150.343, 25.557
1151.568, 7.428
1152.793, 68.410
1154.017, 73.562
1155.241, 45.410
1156.466, 2.380
1157.690, 71.450
1158.913, 57.509
1160.137, 31.536
1161.361, 66.586
1162.584, 114.357
1163.807, 7.682
1165.030, 57.747
1166.252, 30.819
1167.475, 54.861
1168.697, 28.054
1169.919, 45.034
1171.141, 50.869
1172.363, 39.971
1173.585, 139.665
1174.806, 19.651
1176.027, 52.149
1177.248, 100.639
1178.469, 6.687
1179.690, 76.308
1180.910, 25.276
1182.131, 95.119
1183.351, 69.507
1184.571, 31.669
1185.790, 27.494
1187.010, 65.353
1188.229, 95.458
1189.448, 71.735
1190.667, 6.416
1191.886, 48.375
1193.105, 32.603
1194.323, 46.445
1195.541, 47.218
1196.759, 17.791
1197.977, 79.968
1199.195, 20.278
1200.412, 37.099
1201.630, 113.814
1202.847, 18.547
1204.064, 84.915
1205.280, 16.634
1206.497, 16.643
1207.713, 93.669
1208.930, 7.369
1210.146, 14.582
1211.361, 107.104
1212.577, 89.217
1213.792, 79.102
1215.008, 64.765
1216.223, 21.683
1217.438, 127.936
1218.652, 20.577
1219.867, 47.517
1221.081, 95.512
1222.295, 32.132
1223.509, 103.308
1224.723, 130.912
1225.937, 40.510
1227.150, 175.749
1228.363, 98.330
1229.576, 61.191
1230.789, 228.089
1232.002, 29.647
1233.214, 183.674
1234.427, 131.287
1235.639, 36.821
1236.851, 205.923
1238.062, 109.441
1239.274, 74.951
1240.485, 242.705
1241.697, 90.198
1242.908, 164.737
1244.118, 210.489
1245.329, 41.957
1246.540, 233.615
1247.750, 98.067
1248.960, 115.509
1250.170, 250.426
1251.380, 61.851
1252.589, 152.267
1253.799, 172.587
1255.008, 78.986
1256.217, 127.632
1257.425, 135.086
1258.634, 77.458
1259.843, 220.337
1261.051, 3.308
1262.259, 117.037
1263.467, 125.484
1264.674, 0.810
1265.882, 175.205
1267.089, 71.963
1268.296, 76.264
1269.503, 199.655
1270.710, 38.240
1271.917, 115.521
1273.123, 201.870
1274.330, 8.862
1275.536, 141.341
1276.741, 166.078
1277.947, 88.325
1279.153, 157.679
1280.358, 120.234
1281.563, 87.324
1282.768, 211.735
1283.973, 10.054
1285.177, 119.788
1286.382, 135.426
1287.586, 43.402
1288.790, 138.413
1289.994, 26.804
1291.198, 42.786
1292.401, 146.697
1293.604, 4.014
1294.808, 54.051
1296.011, 85.925
1297.213, 7.135
1298.416, 92.683
1299.618, 65.121
1300.821, 55.035
1302.023, 37.769
1303.224, 87.929
1304.426, 92.557
1305.628, 68.444
1306.829, 136.694
1308.030, 99.182
1309.231, 31.130
1310.432, 157.531
1311.632, 74.421
1312.833, 114.432
1314.033, 73.839
1315.233, 48.075
1316.433, 70.929
1317.633, 17.646
1318.832, 53.526
1320.031, 111.949
1321.231, 42.866
1322.429, 50.134
1323.628, 57.462
1324.827, 142.363
1326.025, 47.823
1327.223, 18.887
1328.421, 27.677
1329.619, 92.647
1330.817, 37.062
1332.015, 62.692
1333.212, 137.570
1334.409, 99.152
1335.606, 63.135
1336.803, 68.438
1337.999, 5.242
1339.196, 76.090
1340.392, 38.489
1341.588, 21.129
1342.784, 139.326
1343.980, 33.286
1345.175, 56.113
1346.370, 129.526
1347.566, 76.044
1348.761, 65.398
1349.955, 78.858
1351.150, 29.667
1352.344, 120.819
1353.539, 14.680
1354.733, 0.165
1355.927, 139.363
1357.120, 79.094
1358.314, 61.460
1359.507, 70.975
1360.700, 10.441
1361.893, 102.156
1363.086, 14.767
1364.279, 42.610
1365.471, 145.026
1366.663, 83.323
1367.855, 19.660
1369.047, 54.024
1370.239, 96.279
1371.431, 11.431
1372.622, 58.978
1373.813, 91.285
1375.004, 42.465
1376.195, 41.772
1377.386, 72.994
1378.576, 103.797
1379.766, 92.396
1380.957, 43.577
1382.146, 8.057
1383.336, 107.098
1384.526, 54.770
1385.715, 15.392
1386.904, 141.709
1388.093, 113.205
1389.282, 143.016
1390.471, 43.983
1391.659, 24.004
1392.848, 95.035
1394.036, 34.505
1395.224, 96.789
1396.412, 114.914
1397.599, 87.399
1398.787, 63.771
1399.974, 86.891
1401.161, 74.463
1402.348, 65.169
1403.535, 47.733
1404.721, 103.660
1405.907, 80.709
1407.094, 50.710
1408.280, 69.163
1409.465, 156.397
1410.651, 41.091
1411.836, 17.149
1413.022, 141.194
1414.207, 96.186
1415.392, 112.991
1416.577, 27.398
1417.761, 50.802
1418.945, 108.208
1420.130, 21.784
1421.314, 35.036
1422.498, 134.058
1423.681, 10.911
1424.865, 34.162
1426.048, 139.939
1427.231, 76.956
1428.414, 45.492
1429.597, 29.944
1430.780, 98.272
1431.962, 173.998
1433.144, 19.679
1434.326, 4.291
1435.508, 168.049
1436.690, 15.309
1437.871, 10.010
1439.053, 151.161
1440.234, 44.156
1441.415, 170.433
1442.596, 126.650
1443.776, 20.381
1444.957, 163.672
1446.137, 21.288
1447.317, 49.749
1448.497, 227.411
1449.677, 32.594
1450.857, 79.521
1452.036, 275.416
1453.215, 38.893
1454.394, 185.692
1455.573, 200.598
1456.752, 52.280
1457.930, 274.857
1459.109, 131.808
1460.287, 44.164
1461.465, 324.189
1462.643, 75.903
1463.820, 158.514
1464.998, 237.872
1466.175, 29.984
1467.352, 207.499
1468.529, 203.927
1469.706, 73.171
1470.883, 308.024
1472.059, 131.025
1473.235, 10.271
1474.411, 307.647
1475.587, 45.958
1476.763, 77.932
1477.938, 248.899
1479.114, 6.897
1480.289, 158.097
1481.464, 245.616
1482.639, 16.457
1483.813, 245.569
1484.988, 164.653
1486.162, 11.858
1487.336, 285.125
1488.510, 125.072
1489.684, 53.979
1490.858, 295.883
1492.031, 64.776
1493.204, 161.675
1494.377, 242.563
1495.550, 16.755
1496.723, 226.549
1497.895, 178.326
1499.068, 37.894
1500.240, 247.893
1501.412, 105.656
1502.584, 5.410
1503.755, 319.728
1504.927, 9.409
1506.098, 64.051
1507.269, 277.650
1508.440, 42.727
1509.611, 120.947
1510.782, 213.362
1511.952, 56.319
1513.122, 243.940
1514.292, 131.061
1515.462, 37.800
1516.632, 190.933
1517.802, 14.646
1518.971, 42.987
1520.140, 0.000
##END=



