##NAMES=Chrysoberyl
##RRUFFID=R040073
##IDEAL CHEMISTRY=BeAl_2_O_4_
##LOCALITY=Brazil
##OWNER=RRUFF
##SOURCE=University of Arizona Mineral Museum
##DESCRIPTION=Pair of green prismatic crystals
##STATUS=The identification of this mineral has been confirmed by X-ray diffraction and chemical analysis
##URL=rruff.info/R040073
##MEASURED CHEMISTRY=(Be_0.89_Al_0.06_Fe_0.02_)Al_2.00_O_4_
##PIN_ID=M00464
##ORIENTATION=Laser parallel to -c* (0 0 -1). Fiducial mark perpendicular to laser is parallel to a [1 0 0]
88.496, 0.000
89.890, 1.873
91.284, 106.159
92.678, 77.007
94.071, 675.105
95.465, 547.944
96.858, 778.263
98.251, 1011.816
99.644, 1375.721
101.036, 1477.619
102.428, 1665.736
103.820, 2029.000
105.212, 1786.870
106.604, 2129.110
107.995, 2415.203
109.387, 2924.161
110.777, 2813.553
112.168, 3077.760
113.559, 2741.452
114.949, 2456.130
116.339, 2671.938
117.729, 2289.042
119.119, 2338.658
120.508, 2429.862
121.897, 2252.870
123.286, 2149.371
124.675, 2088.131
126.063, 2277.410
127.452, 2115.305
128.840, 2072.260
130.228, 2068.130
131.615, 1952.820
133.003, 1916.705
134.390, 1729.704
135.777, 2041.814
137.164, 1773.412
138.550, 1755.280
139.937, 1586.962
141.323, 1379.695
142.709, 1295.800
144.094, 1010.207
145.480, 1058.496
146.865, 817.604
148.250, 796.032
149.635, 679.704
151.019, 750.335
152.403, 726.724
153.788, 652.075
155.171, 586.420
156.555, 609.642
157.939, 708.100
159.322, 634.468
160.705, 619.065
162.088, 725.544
163.470, 612.862
164.853, 538.812
166.235, 454.878
167.617, 493.483
168.998, 700.916
170.380, 590.682
171.761, 710.828
173.142, 672.918
174.523, 501.608
175.904, 594.497
177.284, 506.639
178.664, 493.768
180.044, 400.692
181.424, 497.853
182.803, 394.754
184.183, 514.761
185.562, 316.309
186.940, 303.152
188.319, 448.169
189.698, 304.261
191.076, 336.501
192.454, 347.450
193.831, 209.948
195.209, 84.633
196.586, 96.460
197.963, 167.668
199.340, 67.686
200.717, 108.164
202.093, 1.891
203.470, 27.358
204.846, 4.261
206.221, 135.695
207.597, 27.549
208.972, 9.189
210.347, 46.370
211.722, 16.525
213.097, 61.211
214.472, 17.335
215.846, 43.811
217.220, 10.418
218.594, 53.050
219.967, 44.038
221.341, 151.058
222.714, 138.223
224.087, 195.535
225.460, 203.016
226.832, 50.659
228.204, 178.479
229.577, 76.488
230.948, 184.796
232.320, 3.299
233.692, 22.022
235.063, 120.984
236.434, 30.915
237.805, 36.791
239.175, 65.245
240.545, 136.751
241.916, 128.500
243.286, 40.854
244.655, 4.597
246.025, 33.974
247.394, 77.713
248.763, 28.752
250.132, 63.909
251.501, 20.475
252.869, 25.271
254.237, 42.012
255.605, 109.646
256.973, 87.219
258.340, 175.292
259.708, 83.980
261.075, 26.793
262.442, 242.796
263.808, 6.771
265.175, 114.096
266.541, 64.236
267.907, 95.221
269.273, 194.901
270.639, 44.430
272.004, 63.399
273.369, 122.133
274.734, 141.199
276.099, 70.008
277.463, 68.795
278.828, 52.577
280.192, 35.138
281.556, 22.276
282.919, 20.616
284.283, 43.713
285.646, 17.029
287.009, 30.567
288.372, 155.652
289.734, 38.351
291.097, 137.390
292.459, 2.908
293.821, 91.812
295.183, 16.793
296.544, 7.991
297.905, 102.548
299.266, 128.039
300.627, 141.048
301.988, 185.000
303.348, 238.754
304.709, 242.312
306.069, 225.670
307.428, 328.812
308.788, 251.749
310.147, 214.456
311.507, 316.929
312.865, 219.043
314.224, 380.945
315.583, 252.565
316.941, 413.919
318.299, 365.013
319.657, 375.768
321.015, 446.104
322.372, 276.085
323.729, 405.717
325.086, 325.052
326.443, 524.121
327.800, 423.013
329.156, 381.776
330.512, 460.411
331.868, 388.857
333.224, 437.166
334.579, 565.328
335.935, 553.343
337.290, 781.229
338.645, 658.995
339.999, 926.605
341.354, 1044.061
342.708, 1491.386
344.062, 2058.579
345.416, 2745.643
346.769, 3542.573
348.123, 3789.359
349.476, 3685.950
350.829, 2832.322
352.182, 2138.483
353.534, 1754.473
354.887, 1560.307
356.239, 1535.905
357.591, 1481.027
358.942, 1875.477
360.294, 2379.846
361.645, 2754.391
362.996, 3718.399
364.347, 4952.455
365.698, 6434.789
367.048, 7498.111
368.398, 7850.005
369.748, 7013.506
371.098, 5333.652
372.448, 3915.953
373.797, 2628.854
375.146, 1889.292
376.495, 1506.808
377.844, 1046.965
379.192, 915.346
380.540, 575.708
381.889, 523.277
383.236, 481.298
384.584, 442.486
385.932, 494.368
387.279, 352.543
388.626, 490.138
389.973, 337.188
391.319, 276.110
392.666, 381.329
394.012, 229.652
395.358, 189.270
396.704, 17.617
398.049, 209.658
399.394, 70.591
400.740, 72.223
402.084, 158.958
403.429, 109.455
404.774, 57.932
406.118, 7.154
407.462, 108.173
408.806, 31.309
410.150, 80.612
411.493, 90.808
412.836, 20.732
414.179, 87.848
415.522, 116.541
416.865, 195.709
418.207, 415.667
419.549, 425.316
420.891, 365.555
422.233, 294.979
423.575, 236.967
424.916, 110.032
426.257, 65.737
427.598, 144.946
428.939, 53.329
430.279, 222.001
431.619, 241.388
432.959, 348.614
434.299, 376.197
435.639, 264.550
436.978, 292.923
438.318, 260.084
439.657, 337.019
440.996, 423.265
442.334, 454.518
443.673, 539.046
445.011, 540.791
446.349, 590.881
447.687, 822.444
449.024, 862.960
450.361, 1420.053
451.699, 1789.695
453.036, 3256.283
454.372, 5328.146
455.709, 8523.886
457.045, 11994.159
458.381, 12295.805
459.717, 9991.049
461.053, 6466.673
462.388, 3742.387
463.724, 2558.566
465.059, 1815.107
466.394, 1651.574
467.728, 1557.798
469.063, 1804.617
470.397, 2600.854
471.731, 3476.681
473.065, 5243.182
474.398, 6948.854
475.732, 8025.455
477.065, 7841.225
478.398, 6097.803
479.731, 4334.098
481.063, 2870.361
482.396, 2076.846
483.728, 1552.399
485.060, 1358.578
486.391, 1084.352
487.723, 960.895
489.054, 906.951
490.385, 762.771
491.716, 658.859
493.047, 774.588
494.377, 560.459
495.708, 756.807
497.038, 673.047
498.368, 709.832
499.697, 776.400
501.027, 753.081
502.356, 819.711
503.685, 796.289
505.014, 992.817
506.342, 1129.296
507.671, 1045.726
508.999, 1332.105
510.327, 1548.438
511.655, 2034.726
512.982, 2820.966
514.310, 3867.161
515.637, 5513.312
516.964, 7109.418
518.291, 9715.484
519.617, 12421.513
520.944, 15237.502
522.270, 15283.451
523.596, 12559.365
524.921, 9545.241
526.247, 6181.089
527.572, 4066.903
528.897, 2882.691
530.222, 2198.488
531.547, 1754.267
532.871, 1540.018
534.196, 1306.076
535.520, 1363.232
536.844, 1120.642
538.167, 1276.313
539.491, 1171.974
540.814, 1337.223
542.137, 1332.263
543.460, 1527.138
544.783, 1741.913
546.105, 1496.965
547.427, 1691.511
548.749, 1506.726
550.071, 1231.315
551.393, 1105.732
552.714, 870.618
554.035, 974.957
555.356, 899.073
556.677, 631.610
557.998, 705.956
559.318, 500.023
560.638, 578.179
561.958, 575.056
563.278, 510.877
564.597, 577.673
565.917, 564.861
567.236, 706.642
568.555, 638.138
569.874, 384.587
571.192, 520.399
572.511, 480.637
573.829, 536.497
575.147, 420.044
576.464, 376.572
577.782, 401.650
579.099, 280.348
580.416, 562.810
581.733, 488.210
583.050, 625.160
584.366, 620.653
585.683, 572.666
586.999, 616.928
588.315, 569.818
589.630, 594.019
590.946, 588.214
592.261, 582.859
593.576, 877.617
594.891, 811.897
596.206, 1026.288
597.520, 1040.542
598.834, 1095.119
600.148, 1185.935
601.462, 1025.188
602.776, 1250.435
604.089, 1225.697
605.402, 1180.979
606.715, 1386.275
608.028, 1381.590
609.341, 1586.896
610.653, 1572.223
611.965, 1577.543
613.277, 1982.875
614.589, 1948.247
615.901, 2343.639
617.212, 2439.043
618.523, 2744.447
619.834, 3309.847
621.145, 3555.242
622.456, 4240.634
623.766, 4476.017
625.076, 4711.390
626.386, 4996.762
627.696, 4922.121
629.006, 5607.476
630.315, 6132.826
631.624, 8028.169
632.933, 11483.506
634.242, 17308.842
635.551, 25254.172
636.859, 31279.488
638.167, 31974.803
639.475, 26420.113
640.783, 17545.416
642.090, 12230.715
643.398, 9006.010
644.705, 6391.299
646.012, 5266.584
647.318, 4201.863
648.625, 4037.138
649.931, 3242.409
651.237, 3337.677
652.543, 2882.940
653.849, 2478.198
655.155, 2383.451
656.460, 2018.698
657.765, 1733.938
659.070, 1569.171
660.375, 1154.397
661.679, 1479.618
662.984, 984.833
664.288, 1060.043
665.592, 1015.246
666.895, 800.445
668.199, 905.640
669.502, 580.829
670.805, 566.015
672.108, 481.196
673.411, 666.375
674.713, 511.551
676.016, 506.722
677.318, 561.891
678.620, 577.058
679.921, 502.222
681.223, 567.383
682.524, 462.542
683.825, 507.701
685.126, 312.856
686.427, 148.011
687.727, 293.165
689.028, 98.316
690.328, 13.468
691.628, 11.388
692.927, 16.260
694.227, 228.847
695.526, 93.955
696.825, 189.062
698.124, 154.170
699.423, 169.281
700.721, 244.396
702.020, 179.513
703.318, 214.633
704.616, 119.756
705.913, 94.881
707.211, 240.012
708.508, 365.148
709.805, 440.287
711.102, 445.432
712.399, 0.583
713.695, 55.743
714.992, 169.093
716.288, 174.014
717.584, 38.995
718.879, 333.998
720.175, 139.134
721.470, 254.315
722.765, 109.616
724.060, 23.162
725.355, 139.761
726.649, 124.494
727.944, 39.272
729.238, 35.925
730.532, 148.865
731.825, 196.336
733.119, 18.362
734.412, 216.936
735.705, 122.349
736.998, 7.826
738.291, 203.309
739.584, 28.894
740.876, 144.488
742.168, 0.149
743.460, 34.191
744.752, 8.549
746.043, 142.910
747.334, 57.280
748.626, 101.658
749.916, 196.042
751.207, 300.437
752.498, 314.838
753.788, 229.249
755.078, 293.668
756.368, 348.805
757.658, 472.527
758.947, 606.965
760.237, 701.408
761.526, 975.858
762.815, 1220.316
764.104, 1244.780
765.392, 1809.250
766.680, 2133.726
767.969, 2588.207
769.257, 3392.695
770.544, 4067.188
771.832, 4921.688
773.119, 6246.193
774.406, 7070.705
775.693, 8335.221
776.980, 8609.749
778.267, 8444.278
779.553, 7748.819
780.839, 6443.367
782.125, 5577.922
783.411, 4272.486
784.697, 3607.059
785.982, 2951.639
787.267, 2556.226
788.552, 2430.820
789.837, 1685.422
791.122, 1540.032
792.406, 1444.651
793.690, 1159.278
794.974, 1203.914
796.258, 1178.558
797.542, 903.210
798.825, 907.874
800.108, 842.549
801.391, 767.230
802.674, 661.931
803.957, 776.643
805.239, 681.369
806.522, 586.110
807.804, 700.869
809.085, 605.645
810.367, 560.444
811.649, 815.254
812.930, 760.086
814.211, 714.929
815.492, 909.779
816.772, 1024.642
818.053, 1139.514
819.333, 714.411
820.613, 1079.322
821.893, 1004.251
823.173, 979.188
824.452, 1194.147
825.732, 1159.118
827.011, 1114.106
828.290, 1339.105
829.568, 1224.120
830.847, 1439.146
832.125, 1254.197
833.403, 1219.270
834.681, 1344.352
835.959, 1109.446
837.236, 1454.553
838.514, 1269.672
839.791, 1464.801
841.068, 1599.943
842.345, 1445.099
843.621, 1850.267
844.898, 1935.107
846.174, 1498.843
847.450, 1752.329
848.726, 1497.557
850.001, 1952.798
851.277, 2158.052
852.552, 1953.319
853.827, 2408.600
855.102, 2293.893
856.376, 2589.199
857.651, 2854.520
858.925, 2849.869
860.199, 3175.242
861.473, 2660.629
862.746, 2506.028
864.020, 2551.443
865.293, 1846.871
866.566, 2001.553
867.839, 1796.970
869.112, 1681.445
870.384, 1845.638
871.656, 1498.227
872.928, 1712.438
874.200, 1328.912
875.472, 1468.208
876.744, 1426.628
878.015, 1240.287
879.286, 1505.909
880.557, 1241.549
881.828, 1147.187
883.098, 1360.289
884.369, 1115.998
885.639, 1289.295
886.909, 1274.967
888.178, 1207.062
889.448, 1405.146
890.717, 1220.001
891.987, 1443.123
893.256, 1386.957
894.524, 1213.895
895.793, 1479.317
897.061, 1505.260
898.330, 1311.164
899.598, 1657.161
900.865, 1403.187
902.133, 1549.234
903.401, 1705.305
904.668, 1481.396
905.935, 1787.511
907.202, 1673.650
908.468, 1859.821
909.735, 2076.003
911.001, 1932.211
912.267, 2488.441
913.533, 2455.133
914.799, 2821.637
916.064, 3078.006
917.330, 3184.350
918.595, 4040.717
919.860, 4627.104
921.124, 5653.512
922.389, 7029.955
923.653, 8726.426
924.918, 11142.922
926.182, 13539.445
927.445, 15765.990
928.709, 19212.562
929.972, 19919.295
931.236, 20776.209
932.499, 20522.842
933.761, 18499.502
935.024, 16716.975
936.286, 14353.672
937.549, 12070.396
938.811, 10637.145
940.073, 8753.914
941.334, 7770.705
942.596, 6297.527
943.857, 5444.467
945.118, 4991.330
946.379, 4178.217
947.640, 3875.123
948.900, 3612.168
950.161, 2939.717
951.421, 2996.824
952.681, 2573.822
953.940, 2352.465
955.200, 2210.146
956.459, 1888.166
957.719, 1776.721
958.978, 1585.057
960.236, 1454.105
961.495, 1534.617
962.753, 1101.795
964.012, 1361.559
965.270, 1018.777
966.527, 996.016
967.785, 1093.271
969.043, 640.547
970.300, 751.139
971.557, 549.287
972.814, 347.604
974.071, 454.965
975.327, 264.443
976.583, 131.840
977.840, 350.824
979.095, 38.260
980.351, 336.455
981.607, 293.934
982.862, 202.023
984.117, 308.418
985.372, 364.744
986.627, 375.229
987.882, 202.371
989.136, 266.383
990.390, 235.551
991.644, 200.883
992.898, 298.404
994.152, 152.658
995.405, 248.195
996.659, 247.451
997.912, 290.861
999.165, 240.912
1000.417, 218.447
1001.670, 291.584
1002.922, 311.871
1004.174, 249.100
1005.426, 295.664
1006.678, 147.029
1007.930, 169.805
1009.181, 270.361
1010.432, 214.525
1011.683, 263.129
1012.934, 271.328
1014.185, 95.961
1015.435, 240.154
1016.685, 246.109
1017.935, 110.129
1019.185, 243.561
1020.435, 127.320
1021.684, 100.543
1022.934, 140.715
1024.183, 111.078
1025.432, 194.926
1026.680, 169.539
1027.929, 135.787
1029.177, 142.590
1030.425, 111.145
1031.673, 139.465
1032.921, 97.943
1034.169, 133.662
1035.416, 183.797
1036.663, 104.871
1037.911, 162.020
1039.157, 8.426
1040.404, 31.211
1041.650, 38.258
1042.897, 154.881
1044.143, 3.496
1045.389, 21.766
1046.634, 115.004
1047.880, 106.844
1049.125, 138.766
1050.371, 46.531
1051.615, 70.951
1052.860, 62.756
1054.105, 167.377
1055.349, 183.152
1056.593, 92.174
1057.837, 1.256
1059.081, 113.775
1060.325, 34.779
1061.568, 58.611
1062.812, 24.602
1064.055, 15.354
1065.298, 4.322
1066.540, 54.045
1067.783, 42.465
1069.025, 63.803
1070.267, 54.092
1071.509, 78.848
1072.751, 99.994
1073.993, 111.154
1075.234, 89.539
1076.475, 130.883
1077.716, 34.814
1078.957, 8.463
1080.198, 15.414
1081.438, 153.664
1082.679, 159.178
1083.919, 30.330
1085.159, 130.799
1086.398, 76.203
1087.638, 86.939
1088.877, 73.117
1090.116, 66.383
1091.355, 76.613
1092.594, 4.506
1093.833, 111.145
1095.071, 65.945
1096.309, 130.082
1097.547, 4.963
1098.785, 20.498
1100.023, 5.287
1101.260, 21.043
1102.498, 43.043
1103.735, 19.992
1104.972, 27.375
1106.208, 38.158
1107.445, 32.490
1108.681, 46.316
1109.918, 71.717
1111.154, 50.734
1112.389, 56.605
1113.625, 52.365
1114.860, 91.482
1116.096, 37.287
1117.331, 32.607
1118.566, 65.258
1119.800, 19.273
1121.035, 21.967
1122.269, 56.434
1123.503, 41.883
1124.737, 62.707
1125.971, 30.951
1127.205, 82.510
1128.438, 14.104
1129.671, 76.576
1130.904, 57.232
1132.137, 28.588
1133.370, 13.078
1134.602, 96.270
1135.834, 19.547
1137.066, 112.508
1138.298, 56.279
1139.530, 96.754
1140.762, 83.576
1141.993, 3.553
1143.224, 114.494
1144.455, 52.346
1145.686, 106.434
1146.917, 28.045
1148.147, 68.244
1149.377, 113.455
1150.607, 148.070
1151.837, 139.809
1153.067, 112.584
1154.296, 117.057
1155.526, 70.615
1156.755, 49.463
1157.984, 17.865
1159.213, 59.029
1160.441, 113.377
1161.670, 13.562
1162.898, 79.449
1164.126, 70.699
1165.354, 133.371
1166.581, 60.934
1167.809, 149.506
1169.036, 20.674
1170.263, 125.061
1171.490, 165.996
1172.717, 29.838
1173.943, 163.777
1175.170, 4.869
1176.396, 54.553
1177.622, 90.627
1178.848, 24.375
1180.073, 156.898
1181.299, 27.369
1182.524, 13.840
1183.749, 135.633
1184.974, 57.543
1186.199, 175.539
1187.423, 97.205
1188.648, 22.801
1189.872, 147.367
1191.096, 18.664
1192.320, 86.117
1193.543, 9.201
1194.767, 9.166
1195.990, 84.070
1197.213, 8.053
1198.436, 83.234
1199.659, 151.455
1200.881, 43.861
1202.104, 68.441
1203.326, 42.859
1204.548, 126.996
1205.770, 185.664
1206.991, 20.143
1208.213, 134.957
1209.434, 55.678
1210.655, 182.994
1211.876, 13.947
1213.096, 9.512
1214.317, 169.113
1215.537, 105.984
1216.757, 196.256
1217.977, 0.566
1219.197, 1.613
1220.417, 161.484
1221.636, 15.867
1222.855, 201.148
1224.074, 57.562
1225.293, 41.039
1226.512, 168.092
1227.731, 80.342
1228.949, 178.889
1230.167, 127.336
1231.385, 205.383
1232.603, 157.162
1233.820, 36.027
1235.038, 193.527
1236.255, 140.475
1237.472, 5.871
1238.689, 109.475
1239.906, 177.154
1241.122, 157.158
1242.338, 193.814
1243.555, 160.086
1244.771, 38.855
1245.986, 70.268
1247.202, 123.668
1248.417, 40.377
1249.633, 73.293
1250.848, 145.961
1252.063, 87.422
1253.277, 56.184
1254.492, 101.240
1255.706, 83.680
1256.920, 37.137
1258.134, 115.607
1259.348, 51.982
1260.562, 162.088
1261.775, 128.898
1262.988, 174.693
1264.201, 41.977
1265.414, 90.430
1266.627, 27.154
1267.839, 68.432
1269.052, 140.650
1270.264, 190.584
1271.476, 168.182
1272.688, 59.906
1273.899, 29.541
1275.111, 49.070
1276.322, 97.531
1277.533, 58.137
1278.744, 47.357
1279.955, 48.449
1281.165, 76.229
1282.376, 58.352
1283.586, 144.754
1284.796, 190.824
1286.006, 177.996
1287.215, 99.377
1288.425, 11.830
1289.634, 19.873
1290.843, 39.035
1292.052, 22.350
1293.261, 1.479
1294.469, 49.979
1295.678, 92.121
1296.886, 104.541
1298.094, 83.654
1299.302, 4.207
1300.509, 30.320
1301.717, 65.945
1302.924, 51.676
1304.131, 133.625
1305.338, 96.217
1306.545, 178.596
1307.752, 147.576
1308.958, 200.197
1310.164, 42.848
1311.370, 37.238
1312.576, 38.275
1313.782, 204.975
1314.987, 84.363
1316.193, 157.424
1317.398, 31.301
1318.603, 169.424
1319.807, 151.824
1321.012, 43.434
1322.216, 99.445
1323.421, 203.268
1324.625, 76.035
1325.829, 124.168
1327.032, 4.051
1328.236, 202.236
1329.439, 204.250
1330.642, 137.197
1331.845, 48.100
1333.048, 83.402
1334.251, 133.801
1335.453, 151.510
1336.656, 194.830
1337.858, 82.982
1339.060, 118.934
1340.261, 186.246
1341.463, 182.840
1342.664, 12.645
1343.866, 58.906
1345.067, 65.074
1346.267, 53.340
1347.468, 89.924
1348.669, 132.818
1349.869, 115.531
1351.069, 84.809
1352.269, 105.979
1353.469, 75.895
1354.668, 74.090
1355.868, 120.887
1357.067, 29.834
1358.266, 142.166
1359.465, 12.459
1360.664, 7.068
1361.862, 64.033
1363.061, 125.566
1364.259, 184.055
1365.457, 17.852
1366.655, 69.291
1367.852, 91.318
1369.050, 37.996
1370.247, 176.533
1371.444, 101.379
1372.641, 58.195
1373.838, 104.430
1375.035, 85.549
1376.231, 51.051
1377.427, 125.986
1378.623, 19.039
1379.819, 153.158
1381.015, 102.527
1382.211, 177.086
1383.406, 181.209
1384.601, 143.146
1385.796, 148.260
1386.991, 57.645
1388.185, 165.854
1389.380, 22.523
1390.574, 149.660
1391.768, 42.297
1392.962, 3.992
1394.156, 39.770
1395.350, 151.842
1396.543, 40.746
1397.736, 114.678
1398.929, 119.152
1400.122, 32.666
1401.315, 159.748
1402.507, 34.168
1403.700, 164.080
1404.892, 83.463
1406.084, 21.512
1407.276, 33.398
1408.467, 71.959
1409.659, 192.463
1410.850, 72.008
1412.041, 124.355
1413.232, 57.586
1414.423, 119.010
1415.614, 131.619
1416.804, 13.098
1417.994, 169.805
1419.184, 96.385
1420.374, 162.760
1421.564, 194.426
1422.753, 106.512
1423.943, 77.977
1425.132, 39.797
1426.321, 74.695
1427.510, 133.080
1428.698, 19.229
1429.887, 133.672
1431.075, 117.156
1432.263, 156.092
1433.451, 142.266
1434.639, 144.375
1435.827, 81.268
1437.014, 80.994
1438.201, 48.650
1439.388, 4.914
1440.575, 4.322
1441.762, 45.857
1442.949, 16.590
1444.135, 176.396
1445.321, 68.314
1446.507, 128.908
1447.693, 40.029
1448.879, 126.848
1450.064, 73.898
1451.250, 128.877
1452.435, 60.703
1453.620, 118.375
1454.805, 199.031
1455.989, 199.062
1457.174, 30.168
1458.358, 123.143
1459.542, 0.172
1460.726, 90.594
1461.910, 64.408
1463.093, 124.299
1464.277, 11.115
1465.460, 24.574
1466.643, 23.211
1467.826, 22.619
1469.009, 81.914
1470.191, 177.943
1471.373, 188.920
1472.556, 175.582
1473.738, 147.611
1474.919, 91.059
1476.101, 86.062
1477.283, 58.893
1478.464, 24.768
1479.645, 99.119
1480.826, 125.387
1482.007, 18.111
1483.187, 81.684
1484.368, 5.488
1485.548, 158.225
1486.728, 4.121
1487.908, 115.635
1489.088, 200.873
1490.268, 175.059
1491.447, 194.734
1492.626, 66.770
1493.805, 9.639
1494.984, 59.502
1496.163, 72.283
1497.341, 195.443
1498.520, 79.107
1499.698, 80.217
1500.876, 32.887
1502.054, 0.627
1503.232, 67.820
1504.409, 20.865
1505.586, 139.160
1506.763, 39.838
1507.940, 109.039
1509.117, 153.734
1510.294, 47.021
1511.470, 82.086
1512.647, 0.000
##END=



