##NAMES=Chrysoberyl
##RRUFFID=R040073
##IDEAL CHEMISTRY=BeAl_2_O_4_
##LOCALITY=Brazil
##OWNER=RRUFF
##SOURCE=University of Arizona Mineral Museum
##DESCRIPTION=Pair of green prismatic crystals
##STATUS=The identification of this mineral has been confirmed by X-ray diffraction and chemical analysis
##URL=rruff.info/R040073
##MEASURED CHEMISTRY=(Be_0.89_Al_0.06_Fe_0.02_)Al_2.00_O_4_
##PIN_ID=M00464
##ORIENTATION=Laser parallel to -c* (0 0 -1). Fiducial mark perpendicular to laser is parallel to a [1 0 0]
84.311, 0.000
85.706, 98.967
87.101, 4.992
88.496, 33.208
89.890, 469.330
91.284, 884.266
92.678, 1106.197
94.071, 1411.483
95.465, 1747.513
96.858, 2362.342
98.251, 2574.516
99.644, 3122.956
101.036, 3136.783
102.428, 3665.312
103.820, 3937.918
105.212, 4064.070
106.604, 4813.352
107.995, 5835.398
109.387, 6369.910
110.777, 6226.711
112.168, 5395.726
113.559, 5086.736
114.949, 4889.500
116.339, 5053.846
117.729, 4699.665
119.119, 4687.031
120.508, 4885.582
121.897, 4805.051
123.286, 4255.409
124.675, 4066.609
126.063, 3858.674
127.452, 3721.555
128.840, 3825.148
130.228, 3489.380
131.615, 3694.197
133.003, 3399.545
134.390, 3165.604
135.777, 3232.669
137.164, 2831.025
138.550, 3020.730
139.937, 2701.007
141.323, 2561.387
142.709, 2371.857
144.094, 2092.412
145.480, 2143.048
146.865, 2033.779
148.250, 2035.704
149.635, 1737.918
151.019, 1708.769
152.403, 1514.410
153.788, 1561.118
155.171, 1482.275
156.555, 1323.044
157.939, 1383.844
159.322, 1155.135
160.705, 987.051
162.088, 1029.016
163.470, 871.229
164.853, 834.212
166.235, 698.221
167.617, 832.778
168.998, 767.173
170.380, 601.380
171.761, 685.385
173.142, 599.229
174.523, 623.031
175.904, 486.862
177.284, 600.712
178.664, 314.527
180.044, 338.271
181.424, 361.969
182.803, 275.627
184.183, 464.361
185.562, 211.278
186.940, 330.860
188.319, 328.829
189.698, 171.866
191.076, 80.576
192.454, 369.354
193.831, 93.679
195.209, 145.588
196.586, 117.586
197.963, 149.518
199.340, 221.372
200.717, 173.213
202.093, 65.021
203.470, 36.804
204.846, 98.752
206.221, 80.743
207.597, 13.143
208.972, 205.239
210.347, 407.257
211.722, 41.127
213.097, 20.417
214.472, 48.076
215.846, 153.394
217.220, 34.821
218.594, 113.794
219.967, 117.542
221.341, 131.174
222.714, 60.053
224.087, 18.779
225.460, 92.333
226.832, 153.387
228.204, 254.385
229.577, 175.325
230.948, 186.879
232.320, 559.178
233.692, 484.513
235.063, 922.866
236.434, 1088.925
237.805, 1359.731
239.175, 1682.481
240.545, 1596.568
241.916, 1648.063
243.286, 1137.125
244.655, 930.646
246.025, 674.881
247.394, 610.389
248.763, 605.626
250.132, 507.671
251.501, 425.992
252.869, 416.083
254.237, 254.592
255.605, 532.005
256.973, 399.792
258.340, 458.031
259.708, 206.660
261.075, 426.177
262.442, 397.257
263.808, 274.020
265.175, 364.541
266.541, 213.111
267.907, 435.771
269.273, 317.274
270.639, 200.346
272.004, 251.333
273.369, 192.128
274.734, 202.931
276.099, 24.188
277.463, 187.035
278.828, 138.126
280.192, 30.182
281.556, 11.990
282.919, 186.418
284.283, 85.370
285.646, 63.071
287.009, 151.593
288.372, 69.925
289.734, 178.222
291.097, 83.484
292.459, 175.477
293.821, 74.193
295.183, 163.225
296.544, 32.305
297.905, 101.403
299.266, 200.543
300.627, 30.243
301.988, 28.996
303.348, 152.178
304.709, 82.860
306.069, 33.506
307.428, 234.113
308.788, 54.684
310.147, 95.213
311.507, 155.703
312.865, 96.147
314.224, 216.542
315.583, 96.895
316.941, 247.184
318.299, 187.402
319.657, 317.574
321.015, 197.706
322.372, 97.795
323.729, 257.839
325.086, 97.833
326.443, 197.776
327.800, 57.671
329.156, 137.509
330.512, 177.288
331.868, 97.004
333.224, 206.658
334.579, 116.253
335.935, 225.785
337.290, 195.259
338.645, 284.673
339.999, 504.025
341.354, 403.319
342.708, 692.553
344.062, 841.725
345.416, 1200.836
346.769, 1179.887
348.123, 1188.808
349.476, 1047.650
350.829, 806.354
352.182, 604.933
353.534, 493.358
354.887, 531.650
356.239, 399.764
357.591, 347.811
358.942, 535.800
360.294, 563.735
361.645, 711.615
362.996, 1039.440
364.347, 1367.231
365.698, 1834.969
367.048, 2092.668
368.398, 2130.370
369.748, 1658.100
371.098, 1075.807
372.448, 853.484
373.797, 311.176
375.146, 248.450
376.495, 86.172
377.844, 26.615
379.192, 21.104
380.540, 171.178
381.889, 25.509
383.236, 27.926
384.584, 117.100
385.932, 64.543
387.279, 301.735
388.626, 319.046
389.973, 166.298
391.319, 183.483
392.666, 150.606
394.012, 127.660
395.358, 5.409
396.704, 88.677
398.049, 117.859
399.394, 135.699
400.740, 149.388
402.084, 133.219
403.429, 187.195
404.774, 111.407
406.118, 145.823
407.462, 20.517
408.806, 145.459
410.150, 20.643
411.493, 13.962
412.836, 118.469
414.179, 72.915
415.522, 147.279
416.865, 441.586
418.207, 495.844
419.549, 710.057
420.891, 654.219
422.233, 358.327
423.575, 202.377
424.916, 26.357
426.257, 310.214
427.598, 4.005
428.939, 167.660
430.279, 261.232
431.619, 164.730
432.959, 398.144
434.299, 471.489
435.639, 494.771
436.978, 407.985
438.318, 211.131
439.657, 484.194
440.996, 297.189
442.334, 340.110
443.673, 402.954
445.011, 346.561
446.349, 409.263
447.687, 429.717
449.024, 374.832
450.361, 364.611
451.699, 347.602
453.036, 609.941
454.372, 432.658
455.709, 721.477
457.045, 874.523
458.381, 805.193
459.717, 901.684
461.053, 601.734
462.388, 503.602
463.724, 373.822
465.059, 565.551
466.394, 737.213
467.728, 668.738
469.063, 1470.268
470.397, 1261.689
471.731, 1323.088
473.065, 1644.418
474.398, 2045.682
475.732, 2226.879
477.065, 1918.008
478.398, 1489.072
479.731, 1100.072
481.063, 901.008
482.396, 781.877
483.728, 612.539
485.060, 1013.277
486.391, 653.756
487.723, 554.363
489.054, 804.488
490.385, 554.854
491.716, 565.268
493.047, 705.283
494.377, 585.568
495.708, 695.482
497.038, 605.637
498.368, 835.701
499.697, 755.729
501.027, 845.693
502.356, 975.592
503.685, 865.432
505.014, 1065.207
506.342, 954.918
507.671, 1364.568
508.999, 1334.156
510.327, 1283.682
511.655, 1843.146
512.982, 2402.770
514.310, 3162.113
515.637, 3811.396
516.964, 3960.621
518.291, 4239.785
519.617, 4089.205
520.944, 4098.254
522.270, 3377.875
523.596, 2721.207
524.921, 2230.732
526.247, 1583.266
527.572, 1275.447
528.897, 1174.137
530.222, 1061.148
531.547, 1115.895
532.871, 960.930
534.196, 1037.318
535.520, 1041.176
536.844, 1062.793
538.167, 1294.639
539.491, 1295.848
540.814, 1638.336
542.137, 1677.109
543.460, 2031.516
544.783, 2187.846
546.105, 1922.338
547.427, 2149.807
548.749, 1807.262
550.071, 1653.604
551.393, 1330.049
552.714, 1355.918
554.035, 1331.230
555.356, 1220.992
556.677, 1175.373
557.998, 1290.086
559.318, 1201.223
560.638, 1341.357
561.958, 1332.367
563.278, 1229.928
564.597, 1222.037
565.917, 1271.859
567.236, 1409.428
568.555, 1209.045
569.874, 1066.387
571.192, 1225.775
572.511, 1059.312
573.829, 1171.289
575.147, 1205.338
576.464, 1061.812
577.782, 1198.406
579.099, 1144.949
580.416, 1451.449
581.733, 1077.350
583.050, 1361.934
584.366, 1441.047
585.683, 1396.580
586.999, 1344.219
588.315, 1277.898
589.630, 1362.848
590.946, 1226.320
592.261, 1481.961
593.576, 1647.857
594.891, 1503.799
596.206, 1739.328
597.520, 1663.301
598.834, 1829.051
600.148, 2013.854
601.462, 1548.908
602.776, 1644.180
604.089, 1529.246
605.402, 1674.527
606.715, 1699.875
608.028, 1485.008
609.341, 1510.082
610.653, 1585.119
611.965, 1800.793
613.277, 1916.184
614.589, 2181.848
615.901, 2407.520
617.212, 2243.162
618.523, 2938.801
619.834, 3084.459
621.145, 3700.082
622.456, 4195.225
623.766, 4360.793
625.076, 4556.328
626.386, 3841.834
627.696, 3417.307
629.006, 3012.750
630.315, 2318.162
631.624, 2313.543
632.933, 1818.895
634.242, 2134.217
635.551, 2249.512
636.859, 2364.775
638.167, 2580.012
639.475, 2525.221
640.783, 2620.402
642.090, 3095.555
643.398, 3170.682
644.705, 3365.787
646.012, 3350.861
647.318, 3455.912
648.625, 3410.939
649.931, 3045.943
651.237, 3390.924
652.543, 2735.879
653.849, 2650.811
655.155, 2155.721
656.460, 1700.607
657.765, 1455.471
659.070, 1140.312
660.375, 805.133
661.679, 939.932
662.984, 504.707
664.288, 579.465
665.592, 504.203
666.895, 308.920
668.199, 443.617
669.502, 178.297
670.805, 262.955
672.108, 227.594
673.411, 312.219
674.713, 276.820
676.016, 141.408
677.318, 285.977
678.620, 60.525
679.921, 34.943
681.223, 49.527
682.524, 26.023
683.825, 181.627
685.126, 287.361
686.427, 103.285
687.727, 69.299
689.028, 235.383
690.328, 261.625
691.628, 228.035
692.927, 384.598
694.227, 161.379
695.526, 268.240
696.825, 165.248
698.124, 122.293
699.423, 59.395
700.721, 73.488
702.020, 126.367
703.318, 429.254
704.616, 642.133
705.913, 1055.004
707.211, 1807.875
708.508, 2540.744
709.805, 2583.615
711.102, 2236.492
712.399, 1259.395
713.695, 1032.350
714.992, 805.311
716.288, 308.342
717.584, 401.441
718.879, 74.604
720.175, 227.848
721.470, 131.154
722.765, 234.533
724.060, 287.953
725.355, 161.443
726.649, 464.979
727.944, 398.549
729.238, 382.131
730.532, 545.736
731.825, 209.352
733.119, 622.971
734.412, 376.588
735.705, 340.215
736.998, 483.842
738.291, 337.475
739.584, 361.117
740.876, 244.803
742.168, 528.496
743.460, 492.232
744.752, 485.984
746.043, 599.742
747.334, 513.518
748.626, 737.299
749.916, 671.086
751.207, 594.881
752.498, 678.680
753.788, 522.496
755.078, 596.320
756.368, 840.158
757.658, 994.004
758.947, 1167.861
760.237, 1181.740
761.526, 1365.637
762.815, 1739.551
764.104, 1843.473
765.392, 2637.422
766.680, 2811.383
767.969, 3465.354
769.257, 4759.332
770.544, 5563.322
771.832, 7287.330
773.119, 9031.363
774.406, 10585.406
775.693, 12249.457
776.980, 12103.527
778.267, 11967.613
779.553, 10361.707
780.839, 8515.814
782.125, 7229.945
783.411, 5534.084
784.697, 4598.238
785.982, 3472.398
787.267, 2946.574
788.552, 2410.762
789.837, 2074.971
791.122, 1909.193
792.406, 1663.428
793.690, 1407.678
794.974, 1501.941
796.258, 1296.219
797.542, 1180.516
798.825, 904.828
800.108, 899.156
801.391, 883.516
802.674, 947.891
803.957, 832.277
805.239, 816.697
806.522, 741.143
807.804, 665.623
809.085, 690.119
810.367, 794.629
811.649, 779.182
812.930, 883.750
814.211, 788.332
815.492, 972.932
816.772, 1177.549
818.053, 1232.213
819.333, 856.898
820.613, 1261.609
821.893, 1246.338
823.173, 1201.102
824.452, 1355.664
825.732, 1240.477
827.011, 1595.305
828.290, 1640.156
829.568, 1695.027
830.847, 1459.627
832.125, 1404.572
833.403, 1438.908
834.681, 1709.492
835.959, 1493.848
837.236, 1705.152
838.514, 1456.775
839.791, 1891.848
841.068, 1928.562
842.345, 1777.508
843.621, 2106.127
844.898, 2163.199
846.174, 1982.488
847.450, 2322.076
848.726, 1895.795
850.001, 2212.930
851.277, 2416.654
852.552, 2473.203
853.827, 2843.832
855.102, 2918.914
856.376, 3294.264
857.651, 3579.758
858.925, 3865.293
860.199, 3860.861
861.473, 3166.459
862.746, 3022.092
864.020, 2947.756
865.293, 2163.451
866.566, 2119.180
867.839, 1814.939
869.112, 1750.730
870.384, 1846.553
871.656, 1522.410
872.928, 1718.217
874.200, 1454.150
875.472, 1800.113
876.744, 1436.113
878.015, 1342.143
879.286, 1788.926
880.557, 1385.016
881.828, 1291.135
883.098, 1347.303
884.369, 1263.502
885.639, 1439.734
886.909, 1395.992
888.178, 1363.691
889.448, 1460.209
890.717, 1446.598
891.987, 1692.990
893.256, 1430.850
894.524, 1367.656
895.793, 1624.152
897.061, 1510.674
898.330, 1477.227
899.598, 1663.812
900.865, 1350.430
902.133, 1567.074
903.401, 1443.750
904.668, 1590.451
905.935, 1577.184
907.202, 1474.902
908.468, 1731.689
909.735, 1728.508
911.001, 1585.355
912.267, 2224.939
913.533, 1803.648
914.799, 1841.596
916.064, 1958.588
917.330, 1779.236
918.595, 2456.281
919.860, 2593.352
921.124, 3360.463
922.389, 3777.615
923.653, 4797.459
924.918, 5697.904
926.182, 6925.141
927.445, 8002.406
928.709, 9470.645
929.972, 9659.445
931.236, 10136.787
932.499, 9424.160
933.761, 8694.320
935.024, 7721.738
936.286, 6429.182
937.549, 5586.654
938.811, 4874.152
940.073, 4091.672
941.334, 3851.441
942.596, 2879.316
943.857, 2556.922
945.118, 2444.551
946.379, 2142.207
947.640, 1990.084
948.900, 2049.326
950.161, 1757.273
951.421, 1795.023
952.681, 1466.721
953.940, 1664.527
955.200, 1342.354
956.459, 1313.547
957.719, 1134.156
958.978, 1076.373
960.236, 1104.293
961.495, 1152.236
962.753, 735.771
964.012, 993.762
965.270, 631.771
966.527, 809.801
967.785, 1017.848
969.043, 212.562
970.300, 691.986
971.557, 481.748
972.814, 319.885
974.071, 272.002
975.327, 160.174
976.583, 61.039
977.840, 419.246
979.095, 208.371
980.351, 256.623
981.607, 88.947
982.862, 293.887
984.117, 405.381
985.372, 430.336
986.627, 110.688
987.882, 236.295
989.136, 183.473
990.390, 123.461
991.644, 312.121
992.898, 43.359
994.152, 228.307
995.405, 232.219
996.659, 319.186
997.912, 229.770
999.165, 192.916
1000.417, 335.852
1001.670, 379.459
1002.922, 266.838
1004.174, 359.881
1005.426, 85.766
1006.678, 134.062
1007.930, 327.535
1009.181, 226.816
1010.432, 323.689
1011.683, 344.365
1012.934, 19.801
1014.185, 296.254
1015.435, 312.721
1016.685, 62.070
1017.935, 318.271
1019.185, 104.584
1020.435, 59.170
1021.684, 139.455
1022.934, 88.268
1024.183, 248.969
1025.432, 205.492
1026.680, 145.404
1027.929, 162.449
1029.177, 41.488
1030.425, 164.701
1031.673, 90.604
1032.921, 160.131
1034.169, 257.752
1035.416, 113.072
1036.663, 224.332
1037.911, 60.939
1039.157, 14.566
1040.404, 0.457
1041.650, 223.055
1042.897, 59.070
1044.143, 21.576
1045.389, 155.221
1046.634, 138.127
1047.880, 201.176
1049.125, 29.508
1050.371, 78.375
1051.615, 65.807
1052.860, 265.338
1054.105, 297.834
1055.349, 129.330
1056.593, 38.947
1057.837, 175.379
1059.081, 28.545
1060.325, 75.998
1061.568, 77.953
1062.812, 58.012
1064.055, 36.539
1065.298, 73.959
1066.540, 90.496
1067.783, 97.035
1069.025, 81.100
1070.267, 128.418
1071.509, 168.953
1072.751, 66.391
1073.993, 75.871
1075.234, 232.396
1076.475, 53.475
1077.716, 26.543
1078.957, 37.619
1080.198, 282.289
1081.438, 294.580
1082.679, 60.014
1083.919, 244.895
1085.159, 144.014
1086.398, 165.162
1087.638, 140.963
1088.877, 129.908
1090.116, 43.357
1091.355, 1.438
1092.594, 217.691
1093.833, 134.215
1095.071, 256.400
1096.309, 3.844
1097.547, 24.721
1098.785, 5.021
1100.023, 55.898
1101.260, 64.088
1102.498, 159.307
1103.735, 152.994
1104.972, 51.381
1106.208, 39.971
1107.445, 64.803
1108.681, 282.795
1109.918, 119.334
1111.154, 81.404
1112.389, 124.260
1113.625, 198.965
1114.860, 98.039
1116.096, 90.416
1117.331, 93.219
1118.566, 5.781
1119.800, 10.586
1121.035, 137.615
1122.269, 46.430
1123.503, 151.283
1124.737, 23.932
1125.971, 190.047
1127.205, 8.553
1128.438, 179.498
1129.671, 71.455
1130.904, 17.088
1132.137, 61.625
1133.370, 218.436
1134.602, 74.119
1135.834, 249.357
1137.066, 144.160
1138.298, 221.012
1139.530, 196.936
1140.762, 46.934
1141.993, 255.531
1143.224, 138.539
1144.455, 240.254
1145.686, 14.725
1146.917, 166.551
1148.147, 251.604
1149.377, 317.049
1150.607, 301.809
1151.837, 250.850
1153.067, 259.354
1154.296, 171.738
1155.526, 54.053
1156.755, 5.303
1157.984, 150.092
1159.213, 252.451
1160.441, 65.016
1161.670, 189.051
1162.898, 172.855
1164.126, 290.447
1165.354, 153.854
1166.581, 320.049
1167.809, 77.918
1169.036, 274.197
1170.263, 351.162
1171.490, 17.648
1172.717, 346.580
1173.943, 47.621
1175.170, 140.648
1176.396, 208.352
1177.622, 83.049
1178.848, 332.070
1180.073, 14.719
1181.299, 62.705
1182.524, 291.764
1183.749, 144.859
1184.974, 366.531
1186.199, 217.312
1187.423, 8.902
1188.648, 310.861
1189.872, 68.604
1191.096, 193.939
1192.320, 14.035
1193.543, 355.621
1194.767, 189.055
1195.990, 45.998
1197.213, 186.615
1198.436, 314.504
1199.659, 111.750
1200.881, 157.475
1202.104, 109.045
1203.326, 266.971
1204.548, 377.396
1205.770, 65.725
1206.991, 281.271
1208.213, 131.785
1209.434, 368.961
1210.655, 3.217
1211.876, 3.566
1213.096, 339.260
1214.317, 216.047
1215.537, 385.127
1216.757, 14.445
1217.977, 18.219
1219.197, 318.736
1220.417, 40.727
1221.636, 385.564
1222.855, 115.109
1224.074, 83.398
1225.293, 321.529
1226.512, 155.131
1227.731, 340.037
1228.949, 242.637
1230.167, 387.697
1231.385, 296.447
1232.603, 68.389
1233.820, 363.717
1235.038, 263.721
1236.255, 10.092
1237.472, 202.516
1238.689, 329.461
1239.906, 291.625
1241.122, 360.316
1242.338, 296.373
1243.555, 68.137
1244.771, 126.053
1245.986, 226.195
1247.202, 68.979
1248.417, 128.938
1249.633, 266.205
1250.848, 157.590
1252.063, 97.662
1253.277, 181.535
1254.492, 147.449
1255.706, 65.537
1256.920, 212.738
1258.134, 91.688
1259.348, 298.418
1260.562, 235.504
1261.775, 320.895
1262.988, 70.676
1264.201, 160.861
1265.414, 41.756
1266.627, 119.096
1267.839, 254.582
1269.052, 347.992
1270.264, 305.521
1271.476, 101.807
1272.688, 43.961
1273.899, 80.844
1275.111, 171.604
1276.322, 97.393
1277.533, 77.256
1278.744, 78.723
1279.955, 376.141
1281.165, 96.121
1282.376, 258.176
1283.586, 344.473
1284.796, 319.748
1286.006, 171.527
1287.215, 6.363
1288.425, 21.141
1289.634, 56.705
1290.843, 264.938
1292.052, 19.600
1293.261, 76.812
1294.469, 155.469
1295.678, 177.963
1296.886, 137.764
1298.094, 12.092
1299.302, 36.535
1300.509, 103.168
1301.717, 77.055
1302.924, 231.924
1304.131, 160.973
1305.338, 315.596
1306.545, 256.865
1307.752, 355.496
1308.958, 59.084
1310.164, 48.217
1311.370, 49.672
1312.576, 362.910
1313.782, 135.598
1314.987, 272.688
1316.193, 35.014
1317.398, 295.953
1318.603, 262.619
1319.807, 59.195
1321.012, 164.074
1322.216, 358.910
1323.421, 119.352
1324.625, 209.555
1325.829, 30.238
1327.032, 358.027
1328.236, 361.570
1329.439, 235.312
1330.642, 67.469
1331.845, 133.543
1333.048, 229.750
1334.251, 262.883
1335.453, 344.750
1336.656, 134.176
1337.858, 203.254
1339.060, 334.445
1340.261, 327.805
1341.463, 8.703
1342.664, 95.496
1343.866, 106.801
1345.067, 84.699
1346.267, 153.336
1347.468, 234.055
1348.669, 13.395
1349.869, 143.559
1351.069, 183.992
1352.269, 127.277
1353.469, 123.809
1354.668, 211.320
1355.868, 41.082
1357.067, 256.695
1358.266, 31.770
1359.465, 25.762
1360.664, 108.188
1361.862, 230.555
1363.061, 346.609
1364.259, 31.125
1365.457, 138.594
1366.655, 181.141
1367.852, 84.359
1369.050, 345.062
1370.247, 206.246
1371.444, 124.266
1372.641, 207.668
1373.838, 171.133
1375.035, 104.273
1376.231, 247.637
1377.427, 44.211
1378.623, 293.398
1379.819, 199.574
1381.015, 341.434
1382.211, 347.398
1383.406, 274.293
1384.601, 284.242
1385.796, 114.695
1386.991, 315.688
1388.185, 43.926
1389.380, 282.656
1390.574, 82.820
1391.768, 10.035
1392.962, 77.180
1394.156, 285.176
1395.350, 75.602
1396.543, 210.012
1397.736, 218.613
1398.929, 49.160
1400.122, 284.438
1401.315, 53.504
1402.507, 302.090
1403.700, 157.359
1404.892, 38.102
1406.084, 64.137
1407.276, 139.684
1408.467, 365.555
1409.659, 137.527
1410.850, 234.984
1412.041, 112.391
1413.232, 222.910
1414.423, 247.227
1415.614, 24.559
1416.804, 321.203
1417.994, 182.738
1419.184, 308.738
1420.374, 371.418
1421.564, 204.086
1422.753, 151.371
1423.943, 76.848
1425.132, 142.066
1426.321, 250.254
1427.510, 37.484
1428.698, 247.508
1429.887, 210.879
1431.075, 284.398
1432.263, 251.113
1433.451, 255.074
1434.639, 138.656
1435.827, 144.629
1437.014, 278.066
1438.201, 13.301
1439.388, 2.809
1440.575, 93.262
1441.762, 37.711
1442.949, 338.250
1444.135, 134.520
1445.321, 246.434
1446.507, 77.512
1447.693, 238.648
1448.879, 136.699
1450.064, 239.164
1451.250, 112.965
1452.435, 223.883
1453.620, 376.637
1454.805, 377.957
1455.989, 61.512
1457.174, 235.996
1458.358, 4.832
1459.542, 178.953
1460.726, 129.949
1461.910, 241.785
1463.093, 27.582
1464.277, 55.805
1465.460, 53.402
1466.643, 52.418
1467.826, 164.523
1469.009, 339.566
1470.191, 360.605
1471.373, 29.953
1472.556, 282.344
1473.738, 176.430
1474.919, 168.059
1476.101, 127.664
1477.283, 65.820
1478.464, 203.262
1479.645, 253.926
1480.826, 50.789
1482.007, 168.926
1483.187, 24.484
1484.368, 313.480
1485.548, 9.863
1486.728, 235.668
1487.908, 398.047
1489.088, 352.766
1490.268, 390.957
1491.447, 147.828
1492.626, 3.207
1493.805, 126.039
1494.984, 147.930
1496.163, 295.617
1497.341, 0.000
##END=



