##NAMES=Chrysoberyl
##RRUFFID=R040073
##IDEAL CHEMISTRY=BeAl_2_O_4_
##LOCALITY=Brazil
##OWNER=RRUFF
##SOURCE=University of Arizona Mineral Museum
##DESCRIPTION=Pair of green prismatic crystals
##STATUS=The identification of this mineral has been confirmed by X-ray diffraction and chemical analysis
##URL=rruff.info/R040073
##MEASURED CHEMISTRY=(Be_0.89_Al_0.06_Fe_0.02_)Al_2.00_O_4_
##PIN_ID=M00359
##ORIENTATION=Laser parallel to -a [-1 0 0]. Fiducial mark perpendicular to laser is parallel to -b* (0 -1 0)
101.732, 0.000
103.124, 2.626
104.516, 240.795
105.908, 469.614
107.300, 392.420
108.691, 241.340
110.082, 275.595
111.473, 331.963
112.864, 389.721
114.254, 589.008
115.644, 747.465
117.034, 959.514
118.424, 820.605
119.813, 811.540
121.203, 737.247
122.592, 733.104
123.981, 467.283
125.369, 382.574
126.758, 403.243
128.146, 334.358
129.534, 471.187
130.922, 278.692
132.309, 324.501
133.696, 192.046
135.083, 299.797
136.470, 224.230
137.857, 366.194
139.243, 314.331
140.630, 221.492
142.016, 86.942
143.401, 148.265
144.787, 134.951
146.172, 103.786
147.557, 40.789
148.942, 75.812
150.327, 68.488
151.711, 19.418
153.096, 142.104
154.480, 72.089
155.863, 61.420
157.247, 27.610
158.630, 40.215
160.013, 1.423
161.396, 136.260
162.779, 87.751
164.161, 23.917
165.544, 143.779
166.926, 138.351
168.308, 81.649
169.689, 88.688
171.070, 186.479
172.452, 195.035
173.833, 107.374
175.213, 221.521
176.594, 145.824
177.974, 322.022
179.354, 249.828
180.734, 323.137
182.114, 302.605
183.493, 374.830
184.872, 362.523
186.251, 476.101
187.630, 446.785
189.008, 434.673
190.387, 593.847
191.765, 624.657
193.143, 666.049
194.520, 709.837
195.898, 750.923
197.275, 775.207
198.652, 772.038
200.029, 805.199
201.405, 816.644
202.782, 810.590
204.158, 875.011
205.534, 1028.603
206.909, 1002.140
208.285, 1082.689
209.660, 1174.244
211.035, 842.798
212.410, 941.311
213.784, 864.819
215.159, 902.323
216.533, 923.818
217.907, 908.311
219.281, 857.795
220.654, 890.274
222.027, 953.745
223.400, 879.206
224.773, 917.649
226.146, 952.067
227.518, 927.460
228.891, 1004.824
230.263, 1067.155
231.634, 1295.453
233.006, 1322.718
234.377, 1556.946
235.748, 2054.142
237.119, 2463.305
238.490, 3123.436
239.860, 3608.532
241.231, 4172.597
242.601, 3905.641
243.970, 3211.813
245.340, 2158.181
246.709, 1166.751
248.079, 736.384
249.448, 288.095
250.816, 160.825
252.185, 18.483
253.553, 23.834
254.921, 32.006
256.289, 21.207
257.657, 113.576
259.024, 126.346
260.391, 60.997
261.758, 91.785
263.125, 31.458
264.492, 60.745
265.858, 11.062
267.224, 57.408
268.590, 34.731
269.956, 8.874
271.321, 42.030
272.687, 12.959
274.052, 23.111
275.416, 56.797
276.781, 98.683
278.146, 30.456
279.510, 20.646
280.874, 7.103
282.237, 59.794
283.601, 23.430
284.964, 17.010
286.327, 21.531
287.690, 38.006
289.053, 37.383
290.416, 164.708
291.778, 151.955
293.140, 190.146
294.502, 136.208
295.863, 237.200
297.225, 205.146
298.586, 277.036
299.947, 281.879
301.308, 278.678
302.668, 203.433
304.029, 354.146
305.389, 459.815
306.749, 337.430
308.108, 461.986
309.468, 399.481
310.827, 306.918
312.186, 348.173
313.545, 395.483
314.903, 357.679
316.262, 367.997
317.620, 401.134
318.978, 472.106
320.336, 345.812
321.693, 458.444
323.051, 468.079
324.408, 500.334
325.765, 574.179
327.121, 543.833
328.478, 641.074
329.834, 611.792
331.190, 605.472
332.546, 563.893
333.902, 758.299
335.257, 691.867
336.612, 864.400
337.967, 989.753
339.322, 1072.220
340.677, 1387.646
342.031, 1830.950
343.385, 2700.126
344.739, 3769.076
346.093, 5419.854
347.446, 7467.525
348.799, 9725.133
350.153, 10164.637
351.505, 8111.077
352.858, 5548.442
354.210, 3601.734
355.563, 2504.942
356.915, 1704.096
358.267, 1237.188
359.618, 836.200
360.969, 735.188
362.321, 578.154
363.672, 580.104
365.022, 649.041
366.373, 659.963
367.723, 818.871
369.073, 901.765
370.423, 1065.646
371.773, 1005.515
373.122, 1015.369
374.471, 933.210
375.821, 809.038
377.169, 777.853
378.518, 695.107
379.866, 555.443
381.215, 598.802
382.563, 497.761
383.910, 496.979
385.258, 564.665
386.605, 625.346
387.952, 515.641
389.299, 615.809
390.646, 660.082
391.992, 707.065
393.339, 572.840
394.685, 599.061
396.031, 859.782
397.376, 626.819
398.722, 639.405
400.067, 526.041
401.412, 426.599
402.757, 444.142
404.101, 217.669
405.446, 212.183
406.790, 270.681
408.134, 199.162
409.478, 206.627
410.821, 222.074
412.165, 160.502
413.508, 271.307
414.851, 313.898
416.193, 235.129
417.536, 251.821
418.878, 315.168
420.220, 227.693
421.562, 69.390
422.904, 235.159
424.245, 189.979
425.586, 93.755
426.927, 268.472
428.268, 89.571
429.609, 63.860
430.949, 181.083
432.289, 221.893
433.629, 173.736
434.969, 296.688
436.309, 265.479
437.648, 503.534
438.987, 471.272
440.326, 674.468
441.665, 804.234
443.003, 1175.672
444.342, 1431.617
445.680, 1486.609
447.018, 1585.339
448.355, 1342.190
449.693, 1256.608
451.030, 1239.867
452.367, 1391.066
453.704, 1387.139
455.041, 1817.773
456.377, 2130.673
457.713, 3042.230
459.049, 4025.638
460.385, 4182.314
461.721, 3190.975
463.056, 2103.619
464.391, 1658.957
465.726, 1624.568
467.061, 1467.165
468.395, 1553.745
469.730, 1951.311
471.064, 2421.860
472.398, 3425.398
473.731, 4475.922
475.065, 6276.430
476.398, 8396.928
477.731, 9982.415
479.064, 9292.888
480.397, 7521.354
481.729, 5737.818
483.062, 4339.275
484.394, 3469.722
485.725, 2856.159
487.057, 2443.587
488.389, 2138.006
489.720, 1781.417
491.051, 1658.832
492.382, 1544.238
493.712, 1422.678
495.043, 1395.729
496.373, 1277.534
497.703, 1395.949
499.032, 1477.356
500.362, 1553.757
501.691, 1530.070
503.020, 1479.855
504.349, 1363.915
505.678, 1266.289
507.007, 1042.659
508.335, 918.026
509.663, 805.389
510.991, 1011.750
512.319, 826.109
513.646, 1084.467
514.973, 1150.822
516.300, 1720.178
517.627, 2256.533
518.954, 3048.888
520.280, 4174.244
521.607, 5516.600
522.933, 6788.957
524.259, 6691.316
525.584, 5452.677
526.910, 3813.038
528.235, 2468.402
529.560, 1639.771
530.885, 972.143
532.209, 588.532
533.534, 492.930
534.858, 335.330
536.182, 125.738
537.506, 164.154
538.829, 88.579
540.152, 6.007
541.476, 78.578
542.799, 268.208
544.121, 177.979
545.444, 57.849
546.766, 272.760
548.088, 120.815
549.410, 52.941
550.732, 30.103
552.053, 100.289
553.375, 91.524
554.696, 9.812
556.017, 2.890
557.337, 71.582
558.658, 45.282
559.978, 100.247
561.298, 122.701
562.618, 150.422
563.938, 217.062
565.257, 194.682
566.576, 123.430
567.895, 134.959
569.214, 208.612
570.533, 116.389
571.851, 145.442
573.170, 245.240
574.488, 131.070
575.805, 266.935
577.123, 109.833
578.440, 232.765
579.758, 200.756
581.075, 155.610
582.391, 325.705
583.708, 280.854
585.024, 181.893
586.341, 380.110
587.657, 559.295
588.972, 479.801
590.288, 514.107
591.603, 555.448
592.918, 573.813
594.233, 677.207
595.548, 869.641
596.863, 630.098
598.177, 713.576
599.491, 810.097
600.805, 604.656
602.119, 448.248
603.432, 374.866
604.746, 197.515
606.059, 272.194
607.372, 56.904
608.685, 111.663
609.997, 49.450
611.309, 157.259
612.621, 57.909
613.933, 17.913
615.245, 26.758
616.557, 172.625
617.868, 199.513
619.179, 118.421
620.490, 186.490
621.801, 236.302
623.111, 160.277
624.421, 179.271
625.731, 139.291
627.041, 286.332
628.351, 127.396
629.660, 191.482
630.970, 374.593
632.279, 316.727
633.588, 361.885
634.896, 411.066
636.205, 563.272
637.513, 636.504
638.821, 1022.761
640.129, 959.041
641.437, 843.348
642.744, 492.680
644.051, 572.039
645.358, 496.424
646.665, 683.235
647.972, 900.504
649.278, 992.938
650.584, 1205.985
651.890, 1315.594
653.196, 1471.139
654.502, 1532.712
655.807, 1512.312
657.113, 1645.939
658.418, 1681.595
659.722, 1573.278
661.027, 1486.991
662.331, 1324.732
663.636, 1356.503
664.940, 1318.303
666.244, 1324.133
667.547, 1203.993
668.851, 1281.883
670.154, 1214.805
671.457, 1060.756
672.760, 1197.738
674.062, 1111.752
675.365, 1105.798
676.667, 1128.874
677.969, 1103.982
679.271, 1080.694
680.572, 1064.909
681.874, 996.505
683.175, 984.745
684.476, 924.019
685.777, 839.015
687.077, 830.916
688.378, 873.136
689.678, 789.747
690.978, 827.193
692.278, 828.026
693.577, 850.066
694.877, 734.443
696.176, 932.031
697.475, 828.071
698.774, 1016.473
700.072, 1075.921
701.371, 1274.705
702.669, 1557.516
703.967, 2137.742
705.265, 3109.118
706.562, 4234.414
707.860, 6025.029
709.157, 9186.883
710.454, 11292.314
711.751, 12505.568
713.047, 10540.239
714.344, 7876.396
715.640, 5273.525
716.936, 3567.767
718.232, 2585.051
719.527, 1758.382
720.823, 1373.758
722.118, 887.297
723.413, 677.763
724.708, 563.277
726.002, 532.838
727.297, 347.444
728.591, 492.103
729.885, 427.805
731.179, 336.555
732.472, 258.350
733.766, 241.582
735.059, 201.080
736.352, 240.016
737.645, 263.006
738.937, 311.043
740.230, 348.667
741.522, 342.261
742.814, 390.443
744.106, 468.676
745.397, 395.965
746.689, 312.300
747.980, 424.680
749.271, 469.107
750.562, 693.582
751.853, 453.102
753.143, 543.669
754.433, 691.283
755.723, 587.943
757.013, 802.651
758.303, 672.405
759.592, 802.206
760.881, 818.055
762.170, 999.949
763.459, 1054.891
764.748, 989.879
766.036, 1536.914
767.325, 1635.996
768.613, 2237.863
769.901, 2847.010
771.188, 3529.232
772.476, 4637.504
773.763, 5712.822
775.050, 8319.188
776.337, 8853.603
777.624, 9821.063
778.910, 10327.571
780.196, 10123.129
781.482, 8691.732
782.768, 7250.384
784.054, 5789.084
785.339, 4384.832
786.625, 3247.628
787.910, 2968.471
789.195, 2393.362
790.479, 1532.301
791.764, 1118.288
793.048, 784.323
794.332, 520.407
795.616, 377.540
796.900, 366.722
798.183, 61.950
799.467, 117.227
800.750, 23.447
802.033, 106.079
803.316, 8.312
804.598, 268.249
805.880, 122.154
807.163, 25.605
808.445, 46.105
809.726, 174.654
811.008, 210.252
812.289, 428.898
813.570, 720.599
814.851, 1010.354
816.132, 1280.188
817.413, 1420.076
818.693, 1539.013
819.973, 1079.021
821.253, 898.079
822.533, 815.186
823.813, 573.340
825.092, 264.541
826.371, 397.825
827.650, 256.159
828.929, 333.558
830.208, 149.008
831.486, 91.517
832.764, 120.082
834.042, 43.732
835.320, 63.473
836.598, 91.262
837.875, 62.150
839.152, 37.914
840.429, 124.109
841.706, 124.812
842.983, 57.687
844.259, 76.513
845.536, 36.239
846.812, 58.941
848.088, 43.600
849.363, 40.781
850.639, 108.217
851.914, 48.291
853.189, 58.707
854.464, 124.990
855.739, 193.804
857.013, 58.691
858.288, 28.740
859.562, 141.880
860.836, 141.097
862.110, 84.624
863.383, 109.733
864.656, 19.829
865.930, 125.668
867.203, 17.217
868.475, 65.844
869.748, 37.515
871.020, 132.234
872.292, 12.998
873.564, 165.808
874.836, 8.320
876.108, 80.596
877.379, 219.556
878.650, 117.558
879.922, 267.617
881.192, 186.720
882.463, 455.873
883.733, 362.070
885.004, 349.311
886.274, 438.592
887.544, 556.918
888.813, 321.289
890.083, 515.702
891.352, 511.154
892.621, 563.649
893.890, 599.187
895.159, 560.768
896.427, 690.388
897.695, 906.048
898.964, 930.748
900.232, 1005.485
901.499, 1062.264
902.767, 1371.080
904.034, 1605.933
905.301, 2208.824
906.568, 2553.760
907.835, 2673.733
909.102, 2808.746
910.368, 3168.793
911.634, 4344.879
912.900, 5372.002
914.166, 5064.162
915.432, 4438.357
916.697, 5174.589
917.962, 6336.854
919.227, 7298.156
920.492, 8805.490
921.757, 10564.874
923.021, 13108.295
924.285, 15934.748
925.550, 19783.232
926.813, 24284.746
928.077, 29533.303
929.341, 35125.891
930.604, 40431.496
931.867, 43331.145
933.130, 44730.828
934.393, 43252.539
935.655, 38758.277
936.918, 35117.051
938.180, 29831.852
939.442, 25179.680
940.703, 21369.539
941.965, 18143.430
943.226, 15079.339
944.488, 12911.327
945.749, 11193.296
947.009, 9434.423
948.270, 8145.441
949.530, 7165.490
950.791, 6413.562
952.051, 5611.662
953.311, 5031.475
954.570, 4421.818
955.830, 4091.989
957.089, 3720.572
958.348, 3401.363
959.607, 3112.039
960.866, 2848.503
962.124, 2599.842
963.383, 2466.527
964.641, 2262.920
965.899, 2153.658
967.156, 1879.868
968.414, 1799.835
969.671, 1838.265
970.928, 1650.208
972.185, 1693.958
973.442, 1563.659
974.699, 1606.170
975.955, 1412.704
977.211, 1238.349
978.468, 1376.216
979.723, 1373.944
980.979, 1267.029
982.234, 1375.339
983.490, 1051.058
984.745, 1062.158
986.000, 1192.179
987.254, 911.133
988.509, 1163.915
989.763, 1130.743
991.017, 1095.281
992.271, 981.845
993.525, 1048.450
994.779, 1022.522
996.032, 876.214
997.285, 1077.728
998.538, 905.338
999.791, 1196.819
1001.044, 1044.260
1002.296, 1045.471
1003.548, 1079.120
1004.800, 1058.492
1006.052, 1160.845
1007.304, 1072.869
1008.555, 1140.647
1009.807, 1053.784
1011.058, 862.541
1012.309, 1048.979
1013.559, 934.624
1014.810, 859.938
1016.060, 975.262
1017.310, 855.278
1018.560, 809.119
1019.810, 918.197
1021.060, 921.197
1022.309, 804.193
1023.558, 940.733
1024.807, 707.546
1026.056, 787.530
1027.305, 735.046
1028.553, 826.904
1029.801, 869.323
1031.049, 674.545
1032.297, 685.641
1033.545, 846.979
1034.793, 688.983
1036.040, 624.486
1037.287, 654.359
1038.534, 790.027
1039.781, 918.062
1041.027, 678.271
1042.274, 758.714
1043.520, 743.384
1044.766, 616.903
1046.012, 706.966
1047.257, 656.076
1048.503, 800.245
1049.748, 609.213
1050.993, 847.440
1052.238, 652.156
1053.483, 475.219
1054.727, 589.904
1055.971, 470.302
1057.216, 413.468
1058.459, 495.692
1059.703, 557.308
1060.947, 631.772
1062.190, 566.830
1063.433, 571.953
1064.676, 469.628
1065.919, 350.517
1067.162, 508.405
1068.404, 309.125
1069.646, 378.929
1070.888, 508.361
1072.130, 225.385
1073.372, 367.816
1074.613, 349.182
1075.855, 262.373
1077.096, 182.904
1078.337, 211.938
1079.578, 210.874
1080.818, 274.084
1082.059, 171.301
1083.299, 219.493
1084.539, 89.097
1085.779, 284.572
1087.018, 290.778
1088.258, 148.030
1089.497, 229.148
1090.736, 113.278
1091.975, 45.471
1093.213, 23.498
1094.452, 53.382
1095.690, 21.355
1096.928, 185.237
1098.166, 176.354
1099.404, 195.176
1100.642, 112.967
1101.879, 236.112
1103.116, 32.844
1104.353, 118.657
1105.590, 176.456
1106.827, 88.837
1108.063, 122.313
1109.299, 39.428
1110.536, 62.329
1111.771, 36.883
1113.007, 18.485
1114.243, 12.646
1115.478, 74.356
1116.713, 11.502
1117.948, 103.978
1119.183, 50.197
1120.418, 57.999
1121.652, 65.658
1122.886, 157.300
1124.120, 234.758
1125.354, 86.836
1126.588, 70.920
1127.821, 22.049
1129.055, 64.070
1130.288, 2.805
1131.521, 15.287
1132.753, 87.102
1133.986, 116.398
1135.218, 96.391
1136.450, 142.479
1137.682, 139.169
1138.914, 131.564
1140.146, 30.011
1141.377, 62.538
1142.609, 81.873
1143.840, 67.370
1145.071, 20.438
1146.301, 29.436
1147.532, 99.181
1148.762, 44.213
1149.992, 115.605
1151.222, 49.721
1152.452, 88.455
1153.682, 12.797
1154.911, 68.693
1156.140, 98.077
1157.369, 66.237
1158.598, 17.161
1159.827, 115.347
1161.055, 13.373
1162.284, 65.396
1163.512, 54.515
1164.740, 200.287
1165.967, 62.390
1167.195, 189.441
1168.422, 87.638
1169.650, 214.012
1170.877, 122.159
1172.103, 12.257
1173.330, 193.637
1174.557, 127.740
1175.783, 308.646
1177.009, 16.533
1178.235, 182.850
1179.461, 55.853
1180.686, 168.097
1181.912, 242.896
1183.137, 151.076
1184.362, 119.490
1185.587, 136.289
1186.811, 238.324
1188.036, 195.834
1189.260, 160.662
1190.484, 137.533
1191.708, 152.479
1192.932, 227.488
1194.155, 215.123
1195.378, 199.529
1196.602, 245.656
1197.825, 185.955
1199.047, 338.977
1200.270, 217.336
1201.492, 415.693
1202.715, 70.559
1203.937, 290.586
1205.159, 182.336
1206.380, 341.029
1207.602, 151.672
1208.823, 199.256
1210.044, 189.787
1211.265, 284.418
1212.486, 229.840
1213.707, 226.209
1214.927, 262.527
1216.147, 238.789
1217.367, 336.000
1218.587, 191.160
1219.807, 315.264
1221.027, 456.328
1222.246, 165.340
1223.465, 278.295
1224.684, 355.197
1225.903, 234.051
1227.121, 155.852
1228.340, 404.592
1229.558, 437.287
1230.776, 230.934
1231.994, 256.523
1233.212, 315.064
1234.429, 298.555
1235.646, 324.992
1236.864, 316.373
1238.081, 295.707
1239.297, 328.992
1240.514, 449.188
1241.730, 349.379
1242.947, 372.389
1244.163, 281.482
1245.378, 386.527
1246.594, 367.525
1247.810, 254.471
1249.025, 368.363
1250.240, 323.090
1251.455, 320.213
1252.670, 415.949
1253.885, 377.627
1255.099, 412.982
1256.313, 275.629
1257.527, 384.096
1258.741, 330.178
1259.955, 200.525
1261.168, 213.486
1262.382, 216.939
1263.595, 295.598
1264.808, 205.766
1266.021, 329.387
1267.233, 209.330
1268.446, 204.123
1269.658, 117.072
1270.870, 242.969
1272.082, 161.703
1273.294, 290.180
1274.505, 247.633
1275.716, 402.016
1276.928, 79.943
1278.139, 359.426
1279.349, 52.484
1280.560, 208.545
1281.770, 145.609
1282.981, 74.799
1284.191, 100.898
1285.401, 152.568
1286.610, 61.859
1287.820, 116.664
1289.029, 50.166
1290.239, 182.211
1291.448, 181.758
1292.656, 227.574
1293.865, 147.893
1295.073, 91.041
1296.282, 62.383
1297.490, 93.312
1298.698, 148.197
1299.906, 185.283
1301.113, 233.664
1302.320, 173.248
1303.528, 65.438
1304.735, 22.035
1305.942, 134.773
1307.148, 233.328
1308.355, 25.178
1309.561, 201.676
1310.767, 82.738
1311.973, 140.934
1313.179, 0.154
1314.384, 281.793
1315.590, 62.699
1316.795, 147.016
1318.000, 71.014
1319.205, 42.678
1320.410, 55.885
1321.614, 104.299
1322.819, 124.916
1324.023, 45.721
1325.227, 110.723
1326.431, 31.875
1327.634, 2.320
1328.838, 7.783
1330.041, 161.701
1331.244, 90.344
1332.447, 247.576
1333.650, 113.592
1334.852, 89.330
1336.055, 11.797
1337.257, 170.369
1338.459, 103.357
1339.661, 144.256
1340.862, 225.051
1342.064, 143.004
1343.265, 205.652
1344.466, 101.771
1345.667, 88.500
1346.868, 269.562
1348.068, 135.428
1349.269, 253.363
1350.469, 329.760
1351.669, 221.723
1352.869, 354.793
1354.069, 259.230
1355.268, 146.564
1356.468, 260.307
1357.667, 433.793
1358.866, 342.244
1360.065, 399.879
1361.263, 202.336
1362.462, 289.131
1363.660, 405.299
1364.858, 207.855
1366.056, 394.613
1367.254, 432.512
1368.451, 327.057
1369.649, 275.795
1370.846, 384.119
1372.043, 237.885
1373.240, 298.168
1374.436, 271.736
1375.633, 314.078
1376.829, 328.594
1378.025, 189.822
1379.221, 341.656
1380.417, 283.287
1381.613, 375.291
1382.808, 408.459
1384.003, 350.611
1385.199, 260.418
1386.393, 324.021
1387.588, 310.844
1388.783, 206.576
1389.977, 265.357
1391.171, 169.734
1392.365, 190.537
1393.559, 214.943
1394.753, 68.664
1395.946, 288.582
1397.140, 311.840
1398.333, 385.842
1399.526, 218.680
1400.719, 347.973
1401.911, 193.777
1403.104, 308.787
1404.296, 208.189
1405.488, 268.227
1406.680, 131.008
1407.872, 242.691
1409.063, 338.438
1410.255, 85.246
1411.446, 245.119
1412.637, 126.182
1413.828, 154.150
1415.018, 284.814
1416.209, 286.482
1417.399, 98.861
1418.589, 352.551
1419.779, 181.943
1420.969, 267.027
1422.159, 140.990
1423.348, 274.691
1424.537, 224.480
1425.726, 148.098
1426.915, 168.418
1428.104, 171.521
1429.293, 197.625
1430.481, 247.631
1431.669, 246.676
1432.857, 284.293
1434.045, 183.609
1435.233, 316.799
1436.420, 308.309
1437.608, 259.166
1438.795, 519.004
1439.982, 819.555
1441.169, 186.344
1442.355, 234.107
1443.542, 386.842
1444.728, 241.520
1445.914, 244.176
1447.100, 289.795
1448.286, 270.389
1449.472, 255.943
1450.657, 399.463
1451.842, 468.965
1453.027, 349.424
1454.212, 481.822
1455.397, 241.174
1456.581, 546.469
1457.766, 485.727
1458.950, 346.223
1460.134, 400.441
1461.318, 310.660
1462.501, 197.906
1463.685, 456.184
1464.868, 191.521
1466.051, 425.857
1467.234, 143.795
1468.417, 341.141
1469.600, 481.582
1470.782, 317.863
1471.965, 363.350
1473.147, 321.000
1474.329, 394.977
1475.510, 303.064
1476.692, 184.217
1477.873, 266.426
1479.055, 203.674
1480.236, 227.154
1481.416, 225.260
1482.597, 231.586
1483.778, 290.945
1484.958, 179.336
1486.138, 265.771
1487.318, 472.260
1488.498, 293.811
1489.678, 249.436
1490.857, 138.164
1492.037, 377.016
1493.216, 314.982
1494.395, 204.070
1495.574, 254.318
1496.752, 172.629
1497.931, 171.859
1499.109, 60.004
1500.287, 64.217
1501.465, 45.865
1502.643, 71.047
1503.820, 93.428
1504.998, 154.031
1506.175, 25.107
1507.352, 184.031
1508.529, 104.479
1509.706, 73.266
1510.882, 257.424
1512.059, 138.229
1513.235, 321.188
1514.411, 2.025
1515.587, 229.922
1516.762, 20.404
1517.938, 8.033
1519.113, 47.213
1520.288, 148.959
1521.463, 0.000
##END=



