##NAMES=Chrysoberyl
##RRUFFID=R040073
##IDEAL CHEMISTRY=BeAl_2_O_4_
##LOCALITY=Brazil
##OWNER=RRUFF
##SOURCE=University of Arizona Mineral Museum
##DESCRIPTION=Pair of green prismatic crystals
##STATUS=The identification of this mineral has been confirmed by X-ray diffraction and chemical analysis
##URL=rruff.info/R040073
##MEASURED CHEMISTRY=(Be_0.89_Al_0.06_Fe_0.02_)Al_2.00_O_4_
##PIN_ID=M00359
##ORIENTATION=Laser parallel to -a [-1 0 0]. Fiducial mark perpendicular to laser is parallel to -b* (0 -1 0)
98.947, 0.000
100.340, 3.521
101.732, 23.081
103.124, 84.793
104.516, 410.483
105.908, 363.015
107.300, 741.422
108.691, 464.245
110.082, 437.634
111.473, 511.215
112.864, 691.637
114.254, 976.596
115.644, 1193.787
117.034, 1182.703
118.424, 1255.836
119.813, 1082.653
121.203, 966.506
122.592, 864.261
123.981, 586.680
125.369, 386.672
126.758, 435.172
128.146, 324.022
129.534, 552.130
130.922, 325.279
132.309, 358.434
133.696, 194.526
135.083, 366.508
136.470, 242.342
137.857, 478.760
139.243, 470.175
140.630, 277.005
142.016, 173.608
143.401, 166.564
144.787, 146.506
146.172, 126.152
147.557, 160.861
148.942, 120.564
150.327, 81.584
151.711, 43.946
153.096, 115.230
154.480, 106.995
155.863, 36.259
157.247, 109.046
158.630, 38.276
160.013, 87.978
161.396, 89.186
162.779, 247.932
164.161, 211.241
165.544, 227.141
166.926, 272.652
168.308, 279.795
169.689, 256.588
171.070, 372.050
172.452, 330.195
173.833, 334.038
175.213, 475.794
176.594, 404.554
177.974, 548.114
179.354, 566.048
180.734, 547.265
182.114, 603.758
183.493, 700.843
184.872, 720.970
186.251, 720.824
187.630, 716.945
189.008, 681.810
190.387, 686.267
191.765, 661.052
193.143, 693.550
194.520, 650.540
195.898, 680.999
197.275, 701.807
198.652, 817.338
200.029, 900.150
201.405, 839.644
202.782, 816.436
204.158, 900.472
205.534, 1110.791
206.909, 936.432
208.285, 992.175
209.660, 916.240
211.035, 777.960
212.410, 669.924
213.784, 615.033
215.159, 547.443
216.533, 506.201
217.907, 503.422
219.281, 493.415
220.654, 532.404
222.027, 607.385
223.400, 585.348
224.773, 450.291
226.146, 463.208
227.518, 536.099
228.891, 458.961
230.263, 516.793
231.634, 522.598
233.006, 579.369
234.377, 723.106
235.748, 960.807
237.119, 1026.470
238.490, 1568.098
239.860, 1780.690
241.231, 1937.247
242.601, 1898.768
243.970, 1427.256
245.340, 1028.711
246.709, 505.134
248.079, 339.529
249.448, 112.896
250.816, 80.248
252.185, 32.666
253.553, 145.916
254.921, 37.503
256.289, 122.100
257.657, 60.668
259.024, 52.295
260.391, 22.994
261.758, 133.847
263.125, 37.807
264.492, 84.600
265.858, 72.189
267.224, 88.287
268.590, 113.036
269.956, 35.694
271.321, 31.485
272.687, 15.316
274.052, 144.830
275.416, 50.991
276.781, 105.816
278.146, 4.361
279.510, 101.440
280.874, 61.225
282.237, 106.987
283.601, 130.495
284.964, 24.436
286.327, 134.107
287.690, 125.741
289.053, 70.336
290.416, 243.884
291.778, 129.391
293.140, 198.852
294.502, 10.735
295.863, 39.613
297.225, 37.093
298.586, 25.871
299.947, 47.282
301.308, 92.617
302.668, 102.608
304.029, 31.697
305.389, 12.875
306.749, 48.862
308.108, 8.478
309.468, 7.096
310.827, 11.411
312.186, 22.004
313.545, 56.319
314.903, 144.570
316.262, 263.754
317.620, 403.871
318.978, 538.926
320.336, 435.919
321.693, 87.853
323.051, 251.716
324.408, 15.466
325.765, 238.278
327.121, 108.973
328.478, 158.615
329.834, 200.210
331.190, 298.760
332.546, 225.266
333.902, 369.730
335.257, 455.155
336.612, 544.542
337.967, 790.890
339.322, 891.181
340.677, 1095.299
342.031, 1249.234
343.385, 1978.018
344.739, 2728.656
346.093, 3820.148
347.446, 5283.545
348.799, 6455.820
350.153, 6714.041
351.505, 5146.133
352.858, 3685.173
354.210, 2656.180
355.563, 1969.160
356.915, 1507.104
358.267, 1331.018
359.618, 1311.914
360.969, 1395.765
362.321, 1560.543
363.672, 2076.256
365.022, 2744.823
366.373, 3343.309
367.723, 4155.740
369.073, 4827.109
370.423, 4908.426
371.773, 5218.730
373.122, 3400.031
374.471, 2416.313
375.821, 1624.562
377.169, 1245.798
378.518, 977.025
379.866, 712.248
381.215, 622.463
382.563, 651.673
383.910, 473.878
385.258, 624.076
386.605, 836.271
387.952, 798.459
389.299, 1140.643
390.646, 1517.822
391.992, 2131.995
393.339, 3245.165
394.685, 4467.631
396.031, 5888.792
397.376, 5556.949
398.722, 3913.104
400.067, 2467.986
401.412, 1402.259
402.757, 1094.905
404.101, 679.857
405.446, 654.024
406.790, 467.159
408.134, 481.438
409.478, 507.569
410.821, 533.698
412.165, 461.127
413.508, 696.834
414.851, 753.804
416.193, 740.048
417.536, 913.376
418.878, 1022.416
420.220, 1212.456
421.562, 1104.075
422.904, 1076.097
424.245, 1082.714
425.586, 1048.396
426.927, 1077.154
428.268, 952.709
429.609, 977.974
430.949, 1116.949
432.289, 1367.305
433.629, 1410.579
434.969, 1868.380
436.309, 1985.302
437.648, 2551.936
438.987, 3360.381
440.326, 4738.051
441.665, 6556.408
443.003, 9294.160
444.342, 12344.556
445.680, 14633.188
447.018, 13596.058
448.355, 9996.695
449.693, 7095.247
451.030, 5441.040
452.367, 4816.238
453.704, 4474.786
455.041, 5246.793
456.377, 6364.686
457.713, 8235.775
459.049, 10022.957
460.385, 9699.815
461.721, 7209.035
463.056, 4529.654
464.391, 3376.623
465.726, 2902.023
467.061, 2356.586
468.395, 2093.786
469.730, 2515.592
471.064, 2838.354
472.398, 3962.950
473.731, 5219.871
475.065, 7063.207
476.398, 9193.813
477.731, 10347.876
479.064, 9084.937
480.397, 6981.992
481.729, 5090.049
483.062, 3818.987
484.394, 3150.042
485.725, 2751.338
487.057, 2266.394
488.389, 2008.672
489.720, 1865.475
491.051, 1712.494
492.382, 1708.556
493.712, 2204.619
495.043, 2622.686
496.373, 3660.755
497.703, 5652.828
499.032, 8169.902
500.362, 11744.982
501.691, 15133.068
503.020, 14260.158
504.349, 10400.253
505.678, 7203.358
507.007, 4512.469
508.335, 3067.590
509.663, 2410.720
510.991, 2280.858
512.319, 2134.009
513.646, 2493.168
514.973, 3073.341
516.300, 4360.523
517.627, 5971.717
518.954, 7426.924
520.280, 10070.144
521.607, 11857.374
522.933, 13015.617
524.259, 12109.873
525.584, 9273.146
526.910, 6506.432
528.235, 4311.733
529.560, 2886.051
530.885, 1814.384
532.209, 1259.732
533.534, 941.099
534.858, 945.480
536.182, 766.880
537.506, 625.297
538.829, 538.730
540.152, 370.182
541.476, 578.650
542.799, 296.138
544.121, 457.643
545.444, 476.166
546.766, 403.707
548.088, 577.268
549.410, 395.847
550.732, 490.445
552.053, 260.062
553.375, 0.699
554.696, 39.350
556.017, 63.020
557.337, 124.711
558.658, 50.576
559.978, 152.870
561.298, 4.208
562.618, 32.531
563.938, 15.854
565.257, 62.833
566.576, 79.458
567.895, 30.253
569.214, 91.966
570.533, 83.299
571.851, 128.473
573.170, 9.215
574.488, 68.069
575.805, 90.155
577.123, 138.615
578.440, 82.569
579.758, 178.087
581.075, 30.779
582.391, 222.943
583.708, 252.042
585.024, 325.615
586.341, 365.967
587.657, 401.828
588.972, 531.128
590.288, 487.724
591.603, 482.353
592.918, 563.623
594.233, 706.928
595.548, 858.306
596.863, 773.902
598.177, 746.336
599.491, 869.808
600.805, 780.306
602.119, 725.833
603.432, 930.387
604.746, 871.966
606.059, 822.579
607.372, 669.219
608.685, 1020.885
609.997, 851.581
611.309, 1013.302
612.621, 883.050
613.933, 1117.821
615.245, 1093.638
616.557, 1158.488
617.868, 1238.392
619.179, 1098.343
620.490, 1079.329
621.801, 1408.382
623.111, 1175.505
624.421, 1390.680
625.731, 1257.903
627.041, 1671.160
628.351, 1713.464
629.660, 1871.811
630.970, 2869.205
632.279, 3458.650
633.588, 5412.131
634.896, 7670.642
636.205, 11925.181
637.513, 15974.748
638.821, 19500.344
640.129, 18429.971
641.437, 13752.627
642.744, 8926.319
644.051, 6137.059
645.358, 4534.826
646.665, 3588.629
647.972, 2916.463
649.278, 2757.327
650.584, 2983.222
651.890, 3762.147
653.196, 4156.104
654.502, 4862.090
655.807, 5062.109
657.113, 4954.158
658.418, 4178.238
659.722, 3083.352
661.027, 2351.495
662.331, 1969.672
663.636, 1778.882
664.940, 1180.123
666.244, 1339.398
667.547, 959.708
668.851, 1077.051
670.154, 858.428
671.457, 670.838
672.760, 913.284
674.062, 815.765
675.365, 802.280
676.667, 795.561
677.969, 859.416
679.271, 724.037
680.572, 585.695
681.874, 723.389
683.175, 767.119
684.476, 635.885
685.777, 690.688
687.077, 467.525
688.378, 563.402
689.678, 446.314
690.978, 557.266
692.278, 237.254
693.577, 508.277
694.877, 359.340
696.176, 655.439
697.475, 473.576
698.774, 690.750
700.072, 775.963
701.371, 856.215
702.669, 824.504
703.967, 1201.832
705.265, 1836.199
706.562, 2387.604
707.860, 3388.047
709.157, 5091.529
710.454, 5899.750
711.751, 6413.311
713.047, 5100.908
714.344, 3824.721
715.640, 2296.666
716.936, 1618.854
718.232, 1098.109
719.527, 668.098
720.823, 462.908
722.118, 191.787
723.413, 22.568
724.708, 134.527
726.002, 174.529
727.297, 175.742
728.591, 105.318
729.885, 79.287
731.179, 103.361
732.472, 234.246
733.766, 135.131
735.059, 141.123
736.352, 124.131
737.645, 173.227
738.937, 23.275
740.230, 120.295
741.522, 51.318
742.814, 46.326
744.106, 17.311
745.397, 31.262
746.689, 179.186
747.980, 34.861
749.271, 137.951
750.562, 178.082
751.853, 96.744
753.143, 231.436
754.433, 315.658
755.723, 135.922
757.013, 511.230
758.303, 250.580
759.592, 399.975
760.881, 379.410
762.170, 618.891
763.459, 852.414
764.748, 783.980
766.036, 1407.590
767.325, 1624.246
768.613, 2341.943
769.901, 3019.686
771.188, 3702.469
772.476, 5142.297
773.763, 6084.168
775.050, 7849.084
776.337, 9286.047
777.624, 10337.045
778.910, 10786.094
780.196, 10331.184
781.482, 8902.312
782.768, 7351.488
784.054, 6019.705
785.339, 4890.965
786.625, 3833.486
787.910, 2943.613
789.195, 2278.000
790.479, 1834.428
791.764, 1507.902
793.048, 1157.416
794.332, 1011.975
795.616, 803.193
796.900, 811.215
798.183, 621.900
799.467, 617.629
800.750, 675.396
802.033, 682.211
803.316, 886.256
804.598, 993.428
805.880, 1355.908
807.163, 1478.896
808.445, 1749.928
809.726, 2287.002
811.008, 3384.119
812.289, 4380.309
813.570, 6261.543
814.851, 8167.859
816.132, 9861.236
817.413, 10538.688
818.693, 10550.244
819.973, 8549.867
821.253, 6785.539
822.533, 5177.252
823.813, 3916.057
825.092, 2778.930
826.371, 2227.875
827.650, 1892.904
828.929, 1626.980
830.208, 1412.146
831.486, 969.371
832.764, 927.652
834.042, 641.975
835.320, 814.350
836.598, 714.779
837.875, 543.252
839.152, 392.766
840.429, 518.322
841.706, 393.922
842.983, 243.588
844.259, 351.309
845.536, 176.068
846.812, 414.873
848.088, 341.480
849.363, 366.607
850.639, 277.562
851.914, 287.557
853.189, 126.592
854.464, 217.682
855.739, 166.480
857.013, 99.988
858.288, 159.215
859.562, 254.484
860.836, 247.801
862.110, 254.867
863.383, 255.551
864.656, 159.990
865.930, 111.473
867.203, 12.988
868.475, 139.590
869.748, 69.773
871.020, 25.920
872.292, 169.656
873.564, 101.441
874.836, 157.271
876.108, 6.156
877.379, 89.092
878.650, 138.092
879.922, 113.129
881.192, 63.133
882.463, 126.318
883.733, 178.545
885.004, 82.668
886.274, 158.229
887.544, 115.221
888.813, 94.975
890.083, 225.641
891.352, 366.906
892.621, 323.344
893.890, 273.391
895.159, 206.766
896.427, 386.412
897.695, 527.305
898.964, 490.699
900.232, 590.131
901.499, 713.988
902.767, 733.885
904.034, 777.852
905.301, 1151.664
906.568, 1148.818
907.835, 1433.828
909.102, 1502.965
910.368, 1707.137
911.634, 2123.361
912.900, 2486.625
914.166, 3092.926
915.432, 3459.266
916.697, 3970.641
917.962, 5096.055
919.227, 5839.502
920.492, 7210.990
921.757, 8486.508
923.021, 10800.062
924.285, 13457.656
925.550, 16599.289
926.813, 20637.945
928.077, 25052.641
929.341, 30054.363
930.604, 34486.117
931.867, 36804.891
933.130, 37504.699
934.393, 36482.531
935.655, 32781.391
936.918, 29636.287
938.180, 25075.209
939.442, 21194.156
940.703, 18157.125
941.965, 15336.133
943.226, 12522.160
944.488, 10971.217
945.749, 9474.301
947.009, 7990.406
948.270, 6812.543
949.530, 6094.703
950.791, 5483.891
952.051, 5367.100
953.311, 4612.354
954.570, 4516.773
955.830, 3641.375
957.089, 3726.973
958.348, 3128.016
959.607, 2451.205
960.866, 2306.799
962.124, 2087.660
963.383, 1951.729
964.641, 1860.496
965.899, 1698.350
967.156, 1623.928
968.414, 1517.031
969.671, 1635.469
970.928, 1303.309
972.185, 1303.633
973.442, 1121.652
974.699, 1249.977
975.955, 1022.236
977.211, 876.312
978.468, 1086.514
979.723, 1069.381
980.979, 845.102
982.234, 1201.199
983.490, 794.652
984.745, 934.016
986.000, 891.848
987.254, 667.863
988.509, 938.012
989.763, 805.016
991.017, 840.572
992.271, 856.611
993.525, 814.158
994.779, 972.176
996.032, 839.332
997.285, 993.031
998.538, 510.184
999.791, 1065.264
1001.044, 680.492
1002.296, 1035.697
1003.548, 852.844
1004.800, 727.127
1006.052, 912.234
1007.304, 925.803
1008.555, 919.271
1009.807, 898.211
1011.058, 925.729
1012.309, 951.996
1013.559, 737.398
1014.810, 675.160
1016.060, 846.773
1017.310, 789.904
1018.560, 516.285
1019.810, 713.406
1021.060, 793.367
1022.309, 671.529
1023.558, 845.355
1024.807, 535.588
1026.056, 589.090
1027.305, 593.609
1028.553, 479.193
1029.801, 654.977
1031.049, 491.543
1032.297, 510.881
1033.545, 689.336
1034.793, 527.865
1036.040, 607.182
1037.287, 692.607
1038.534, 513.566
1039.781, 756.633
1041.027, 540.832
1042.274, 728.961
1043.520, 640.518
1044.766, 585.873
1046.012, 579.352
1047.257, 485.191
1048.503, 642.035
1049.748, 499.951
1050.993, 631.770
1052.238, 666.391
1053.483, 430.223
1054.727, 424.102
1055.971, 407.145
1057.216, 501.746
1058.459, 441.154
1059.703, 442.389
1060.947, 534.072
1062.190, 512.295
1063.433, 534.910
1064.676, 340.799
1065.919, 240.381
1067.162, 548.348
1068.404, 222.404
1069.646, 422.771
1070.888, 532.824
1072.130, 456.867
1073.372, 413.584
1074.613, 581.619
1075.855, 346.066
1077.096, 445.486
1078.337, 816.873
1079.578, 614.230
1080.818, 782.557
1082.059, 905.848
1083.299, 1277.107
1084.539, 1318.332
1085.779, 1312.525
1087.018, 1382.887
1088.258, 1057.264
1089.497, 950.107
1090.736, 698.324
1091.975, 470.070
1093.213, 282.055
1094.452, 338.098
1095.690, 151.008
1096.928, 185.602
1098.166, 239.168
1099.404, 219.074
1100.642, 107.830
1101.879, 79.090
1103.116, 50.160
1104.353, 25.793
1105.590, 31.746
1106.827, 38.842
1108.063, 39.869
1109.299, 59.260
1110.536, 31.971
1111.771, 81.824
1113.007, 52.654
1114.243, 123.242
1115.478, 37.734
1116.713, 94.434
1117.948, 206.145
1119.183, 53.846
1120.418, 34.812
1121.652, 61.875
1122.886, 153.480
1124.120, 55.662
1125.354, 83.488
1126.588, 116.256
1127.821, 25.436
1129.055, 154.250
1130.288, 15.916
1131.521, 4.750
1132.753, 64.156
1133.986, 7.193
1135.218, 11.018
1136.450, 96.646
1137.682, 134.480
1138.914, 62.604
1140.146, 135.596
1141.377, 45.625
1142.609, 4.572
1143.840, 139.037
1145.071, 73.500
1146.301, 148.740
1147.532, 170.984
1148.762, 49.549
1149.992, 150.809
1151.222, 169.520
1152.452, 0.500
1153.682, 185.941
1154.911, 41.943
1156.140, 16.447
1157.369, 78.482
1158.598, 47.674
1159.827, 162.402
1161.055, 136.607
1162.284, 98.221
1163.512, 114.486
1164.740, 24.389
1165.967, 124.346
1167.195, 76.492
1168.422, 129.195
1169.650, 201.113
1170.877, 103.334
1172.103, 185.482
1173.330, 10.604
1174.557, 25.838
1175.783, 37.326
1177.009, 205.631
1178.235, 10.070
1179.461, 40.246
1180.686, 165.215
1181.912, 156.486
1183.137, 212.566
1184.362, 94.002
1185.587, 131.281
1186.811, 125.250
1188.036, 268.209
1189.260, 293.514
1190.484, 177.373
1191.708, 61.748
1192.932, 214.691
1194.155, 159.611
1195.378, 159.430
1196.602, 150.688
1197.825, 166.082
1199.047, 188.191
1200.270, 45.889
1201.492, 387.236
1202.715, 22.096
1203.937, 250.451
1205.159, 219.645
1206.380, 256.055
1207.602, 22.736
1208.823, 118.980
1210.044, 177.146
1211.265, 143.244
1212.486, 176.266
1213.707, 134.217
1214.927, 264.092
1216.147, 101.900
1217.367, 255.014
1218.587, 250.676
1219.807, 79.270
1221.027, 118.781
1222.246, 669.217
1223.465, 1094.590
1224.684, 1419.898
1225.903, 1816.443
1227.121, 1826.236
1228.340, 1681.666
1229.558, 1656.811
1230.776, 1013.809
1231.994, 674.752
1233.212, 334.184
1234.429, 322.998
1235.646, 207.748
1236.864, 345.434
1238.081, 212.307
1239.297, 432.863
1240.514, 363.359
1241.730, 404.791
1242.947, 215.297
1244.163, 213.598
1245.378, 362.814
1246.594, 427.965
1247.810, 260.283
1249.025, 297.279
1250.240, 248.068
1251.455, 245.758
1252.670, 225.236
1253.885, 267.244
1255.099, 192.643
1256.313, 80.164
1257.527, 106.250
1258.741, 337.105
1259.955, 193.209
1261.168, 281.154
1262.382, 308.305
1263.595, 281.777
1264.808, 238.076
1266.021, 138.801
1267.233, 322.275
1268.446, 330.713
1269.658, 223.381
1270.870, 253.723
1272.082, 170.969
1273.294, 157.045
1274.505, 111.393
1275.716, 235.838
1276.928, 179.721
1278.139, 284.406
1279.349, 197.998
1280.560, 232.250
1281.770, 290.178
1282.981, 262.434
1284.191, 223.107
1285.401, 113.170
1286.610, 32.252
1287.820, 134.871
1289.029, 50.574
1290.239, 128.670
1291.448, 65.312
1292.656, 25.451
1293.865, 11.604
1295.073, 183.559
1296.282, 28.484
1297.490, 168.416
1298.698, 54.158
1299.906, 100.021
1301.113, 20.367
1302.320, 144.762
1303.528, 229.590
1304.735, 249.969
1305.942, 392.287
1307.148, 460.523
1308.355, 284.338
1309.561, 557.250
1310.767, 255.582
1311.973, 260.439
1313.179, 19.332
1314.384, 240.402
1315.590, 282.473
1316.795, 135.814
1318.000, 96.691
1319.205, 157.244
1320.410, 100.707
1321.614, 114.504
1322.819, 206.104
1324.023, 50.016
1325.227, 504.695
1326.431, 132.916
1327.634, 126.996
1328.838, 78.271
1330.041, 77.414
1331.244, 135.000
1332.447, 39.449
1333.650, 83.729
1334.852, 81.059
1336.055, 82.809
1337.257, 94.926
1338.459, 113.576
1339.661, 65.213
1340.862, 177.596
1342.064, 126.855
1343.265, 176.191
1344.466, 203.666
1345.667, 114.875
1346.868, 240.977
1348.068, 255.570
1349.269, 40.164
1350.469, 213.590
1351.669, 116.135
1352.869, 315.182
1354.069, 396.637
1355.268, 351.078
1356.468, 435.592
1357.667, 304.289
1358.866, 345.811
1360.065, 320.195
1361.263, 90.664
1362.462, 245.975
1363.660, 332.252
1364.858, 232.824
1366.056, 335.049
1367.254, 367.832
1368.451, 229.627
1369.649, 100.400
1370.846, 283.195
1372.043, 225.010
1373.240, 167.863
1374.436, 347.770
1375.633, 190.119
1376.829, 33.854
1378.025, 182.145
1379.221, 315.861
1380.417, 184.674
1381.613, 102.031
1382.808, 235.883
1384.003, 330.029
1385.199, 216.213
1386.393, 121.000
1387.588, 402.664
1388.783, 269.035
1389.977, 416.584
1391.171, 88.924
1392.365, 379.988
1393.559, 363.156
1394.753, 110.695
1395.946, 260.562
1397.140, 24.887
1398.333, 179.232
1399.526, 105.457
1400.719, 179.484
1401.911, 204.141
1403.104, 259.549
1404.296, 194.906
1405.488, 255.549
1406.680, 110.561
1407.872, 206.137
1409.063, 340.045
1410.255, 87.064
1411.446, 207.545
1412.637, 8.465
1413.828, 49.859
1415.018, 201.143
1416.209, 190.381
1417.399, 156.391
1418.589, 173.848
1419.779, 144.477
1420.969, 301.188
1422.159, 124.559
1423.348, 219.893
1424.537, 88.932
1425.726, 155.049
1426.915, 71.336
1428.104, 183.049
1429.293, 49.047
1430.481, 21.225
1431.669, 29.812
1432.857, 750.588
1434.045, 457.152
1435.233, 319.523
1436.420, 438.496
1437.608, 125.061
1438.795, 295.617
1439.982, 331.160
1441.169, 485.988
1442.355, 333.494
1443.542, 422.000
1444.728, 308.883
1445.914, 450.283
1447.100, 405.619
1448.286, 382.775
1449.472, 406.969
1450.657, 533.605
1451.842, 413.684
1453.027, 505.412
1454.212, 622.432
1455.397, 270.947
1456.581, 411.955
1457.766, 658.633
1458.950, 453.459
1460.134, 904.035
1461.318, 421.844
1462.501, 284.811
1463.685, 590.840
1464.868, 327.719
1466.051, 562.082
1467.234, 260.270
1468.417, 392.061
1469.600, 368.873
1470.782, 396.996
1471.965, 410.824
1473.147, 518.838
1474.329, 362.303
1475.510, 301.072
1476.692, 229.787
1477.873, 416.547
1479.055, 232.322
1480.236, 472.117
1481.416, 207.932
1482.597, 145.779
1483.778, 268.674
1484.958, 385.637
1486.138, 118.672
1487.318, 415.787
1488.498, 268.994
1489.678, 154.354
1490.857, 184.832
1492.037, 352.684
1493.216, 318.062
1494.395, 43.693
1495.574, 258.557
1496.752, 88.658
1497.931, 320.066
1499.109, 178.766
1500.287, 357.805
1501.465, 44.236
1502.643, 18.865
1503.820, 225.580
1504.998, 149.668
1506.175, 68.469
1507.352, 210.035
1508.529, 130.506
1509.706, 205.061
1510.882, 149.918
1512.059, 204.969
1513.235, 345.402
1514.411, 158.287
1515.587, 290.889
1516.762, 1.217
1517.938, 0.000
##END=



