##NAMES=Chrysoberyl
##RRUFFID=R040073
##IDEAL CHEMISTRY=BeAl_2_O_4_
##LOCALITY=Brazil
##OWNER=RRUFF
##SOURCE=University of Arizona Mineral Museum
##DESCRIPTION=Pair of green prismatic crystals
##STATUS=The identification of this mineral has been confirmed by X-ray diffraction and chemical analysis
##URL=rruff.info/R040073
##MEASURED CHEMISTRY=(Be_0.89_Al_0.06_Fe_0.02_)Al_2.00_O_4_
##PIN_ID=M00306
##ORIENTATION=Laser parallel to b* (0 1 0). Fiducial mark perpendicular to laser is parallel to c [0 0 1]
98.947, 0.000
100.340, 80.906
101.732, 1.160
103.124, 122.158
104.516, 191.591
105.908, 216.204
107.300, 58.791
108.691, 136.520
110.082, 118.998
111.473, 97.998
112.864, 210.658
114.254, 77.594
115.644, 187.483
117.034, 204.232
118.424, 262.349
119.813, 224.324
121.203, 216.729
122.592, 304.641
123.981, 343.186
125.369, 246.480
126.758, 263.904
128.146, 237.304
129.534, 428.132
130.922, 217.786
132.309, 264.421
133.696, 186.323
135.083, 292.568
136.470, 285.817
137.857, 325.215
139.243, 314.292
140.630, 228.037
142.016, 276.605
143.401, 150.496
144.787, 123.234
146.172, 217.809
147.557, 134.067
148.942, 41.748
150.327, 106.012
151.711, 45.114
153.096, 15.046
154.480, 54.811
155.863, 5.408
157.247, 91.845
158.630, 131.118
160.013, 167.229
161.396, 52.180
162.779, 67.977
164.161, 48.622
165.544, 65.879
166.926, 18.479
168.308, 9.299
169.689, 105.209
171.070, 23.755
172.452, 9.384
173.833, 19.390
175.213, 35.577
176.594, 4.188
177.974, 18.034
179.354, 23.429
180.734, 40.696
182.114, 60.133
183.493, 78.097
184.872, 101.315
186.251, 126.752
187.630, 154.779
189.008, 184.107
190.387, 237.985
191.765, 282.778
193.143, 316.440
194.520, 311.596
195.898, 466.376
197.275, 573.100
198.652, 537.416
200.029, 686.745
201.405, 572.880
202.782, 543.262
204.158, 733.441
205.534, 856.461
206.909, 748.514
208.285, 882.372
209.660, 828.133
211.035, 790.801
212.410, 766.398
213.784, 893.917
215.159, 839.324
216.533, 903.607
217.907, 833.718
219.281, 896.732
220.654, 757.664
222.027, 855.512
223.400, 874.281
224.773, 923.981
226.146, 879.622
227.518, 939.207
228.891, 970.741
230.263, 1171.229
231.634, 1235.666
233.006, 1432.054
234.377, 1644.395
235.748, 2125.686
237.119, 2493.929
238.490, 3213.123
239.860, 3498.271
241.231, 3705.402
242.601, 3245.680
243.970, 2354.245
245.340, 1549.026
246.709, 744.844
248.079, 605.789
249.448, 187.666
250.816, 75.708
252.185, 65.272
253.553, 42.791
254.921, 107.830
256.289, 49.856
257.657, 83.821
259.024, 2.389
260.391, 16.390
261.758, 58.480
263.125, 84.386
264.492, 168.232
265.858, 87.271
267.224, 240.482
268.590, 110.686
269.956, 199.184
271.321, 226.445
272.687, 184.925
274.052, 138.263
275.416, 160.756
276.781, 115.720
278.146, 83.563
279.510, 78.040
280.874, 85.549
282.237, 144.874
283.601, 13.029
284.964, 48.993
286.327, 141.788
287.690, 37.400
289.053, 0.820
290.416, 136.054
291.778, 54.103
293.140, 130.979
294.502, 163.739
295.863, 166.330
297.225, 219.721
298.586, 226.632
299.947, 258.589
301.308, 291.356
302.668, 294.097
304.029, 325.715
305.389, 365.921
306.749, 344.237
308.108, 427.968
309.468, 394.512
310.827, 370.430
312.186, 336.955
313.545, 373.608
314.903, 355.549
316.262, 422.473
317.620, 391.596
318.978, 425.271
320.336, 495.123
321.693, 523.057
323.051, 588.241
324.408, 411.539
325.765, 547.016
327.121, 452.610
328.478, 534.981
329.834, 541.429
331.190, 512.332
332.546, 567.319
333.902, 699.279
335.257, 689.197
336.612, 831.161
337.967, 938.958
339.322, 1081.931
340.677, 1510.119
342.031, 2106.754
343.385, 2987.401
344.739, 4244.187
346.093, 5828.119
347.446, 8064.149
348.799, 9574.320
350.153, 8550.599
351.505, 6288.943
352.858, 4398.348
354.210, 2987.908
355.563, 2041.585
356.915, 1319.276
358.267, 1022.856
359.618, 641.452
360.969, 615.002
362.321, 462.510
363.672, 494.978
365.022, 486.410
366.373, 508.810
367.723, 648.176
369.073, 753.513
370.423, 825.816
371.773, 753.089
373.122, 735.332
374.471, 757.545
375.821, 468.728
377.169, 555.882
378.518, 334.006
379.866, 422.101
381.215, 372.507
382.563, 372.261
383.910, 430.659
385.258, 401.468
386.605, 509.074
387.952, 420.343
389.299, 481.583
390.646, 525.234
391.992, 514.119
393.339, 433.743
394.685, 301.521
396.031, 485.269
397.376, 303.456
398.722, 370.146
400.067, 251.806
401.412, 243.436
402.757, 203.036
404.101, 173.605
405.446, 130.822
406.790, 102.094
408.134, 55.106
409.478, 46.526
410.821, 62.899
412.165, 47.732
413.508, 95.893
414.851, 144.925
416.193, 59.665
417.536, 103.066
418.878, 107.550
420.220, 11.580
421.562, 184.870
422.904, 47.817
424.245, 153.779
425.586, 31.986
426.927, 82.722
428.268, 62.264
429.609, 60.522
430.949, 44.480
432.289, 83.936
433.629, 107.437
434.969, 418.704
436.309, 189.624
437.648, 415.682
438.987, 345.316
440.326, 308.569
441.665, 430.708
443.003, 602.896
444.342, 521.598
445.680, 869.439
447.018, 736.787
448.355, 767.341
449.693, 889.600
451.030, 913.904
452.367, 1205.301
453.704, 1260.731
455.041, 1843.019
456.377, 2313.546
457.713, 3339.055
459.049, 3820.759
460.385, 3287.463
461.721, 2371.273
463.056, 1781.195
464.391, 1536.102
465.726, 1545.114
467.061, 1538.241
468.395, 1723.285
469.730, 2437.361
471.064, 3016.411
472.398, 4532.436
473.731, 5930.365
475.065, 8191.348
476.398, 10315.306
477.731, 10808.247
479.064, 9121.168
480.397, 7083.067
481.729, 5335.955
483.062, 4283.818
484.394, 3416.661
485.725, 2666.482
487.057, 2338.283
488.389, 2043.065
489.720, 1608.835
491.051, 1466.621
492.382, 1331.393
493.712, 1112.157
495.043, 980.947
496.373, 959.737
497.703, 832.543
499.032, 766.389
500.362, 778.237
501.691, 731.115
503.020, 596.989
504.349, 800.864
505.678, 675.871
507.007, 852.650
508.335, 689.558
509.663, 696.451
510.991, 854.333
512.319, 837.200
513.646, 1003.051
514.973, 1223.883
516.300, 1816.698
517.627, 2397.494
518.954, 3087.275
520.280, 4371.039
521.607, 5544.786
522.933, 6286.518
524.259, 5645.232
525.584, 4014.932
526.910, 2862.615
528.235, 1995.283
529.560, 1379.937
530.885, 945.574
532.209, 414.198
533.534, 441.807
534.858, 351.401
536.182, 155.982
537.506, 125.550
538.829, 73.104
540.152, 73.354
541.476, 79.883
542.799, 266.486
544.121, 231.261
545.444, 267.187
546.766, 204.282
548.088, 125.516
549.410, 37.842
550.732, 7.216
552.053, 16.379
553.375, 193.952
554.696, 194.364
556.017, 17.082
557.337, 71.298
558.658, 212.809
559.978, 271.972
561.298, 521.098
562.618, 541.057
563.938, 885.828
565.257, 1036.140
566.576, 676.975
567.895, 607.707
569.214, 398.196
570.533, 266.167
571.851, 66.714
573.170, 229.479
574.488, 46.045
575.805, 231.995
577.123, 35.038
578.440, 105.106
579.758, 195.934
581.075, 91.916
582.391, 274.650
583.708, 288.475
585.024, 164.153
586.341, 408.904
587.657, 477.748
588.972, 493.018
590.288, 570.846
591.603, 552.756
592.918, 713.161
594.233, 751.680
595.548, 908.890
596.863, 762.427
598.177, 767.976
599.491, 699.536
600.805, 615.109
602.119, 482.697
603.432, 480.297
604.746, 374.917
606.059, 199.571
607.372, 103.238
608.685, 287.925
609.997, 67.633
611.309, 193.356
612.621, 58.098
613.933, 322.854
615.245, 289.625
616.557, 384.410
617.868, 442.210
619.179, 545.024
620.490, 642.851
621.801, 1180.691
623.111, 1135.857
624.421, 1544.416
625.731, 1174.297
627.041, 1322.192
628.351, 1007.103
629.660, 710.026
630.970, 954.964
632.279, 671.917
633.588, 848.887
634.896, 815.871
636.205, 959.871
637.513, 1070.888
638.821, 1199.920
640.129, 1269.779
641.437, 1308.037
642.744, 1359.030
644.051, 1387.602
645.358, 1362.340
646.665, 1432.247
647.972, 1482.452
649.278, 1542.626
650.584, 1604.121
651.890, 1884.238
653.196, 1855.977
654.502, 1860.281
655.807, 1684.136
657.113, 1705.130
658.418, 1784.062
659.722, 1628.356
661.027, 1538.895
662.331, 1427.782
663.636, 1495.809
664.940, 1257.993
666.244, 1530.700
667.547, 1378.117
668.851, 1513.569
670.154, 1572.040
671.457, 1599.530
672.760, 1982.039
674.062, 2060.568
675.365, 2350.117
676.667, 2383.688
677.969, 2307.278
679.271, 1780.891
680.572, 1476.523
681.874, 1531.179
683.175, 1331.856
684.476, 1130.556
685.777, 957.278
687.077, 896.024
688.378, 939.795
689.678, 866.591
690.978, 869.500
692.278, 530.254
693.577, 949.125
694.877, 754.021
696.176, 993.945
697.475, 794.556
698.774, 1048.820
700.072, 1185.439
701.371, 1322.342
702.669, 1449.067
703.967, 2301.825
705.265, 3319.616
706.562, 4695.002
707.860, 6511.160
709.157, 9393.585
710.454, 10812.864
711.751, 10974.181
713.047, 8431.063
714.344, 6121.455
715.640, 3724.884
716.936, 2670.353
718.232, 1995.860
719.527, 1371.410
720.823, 1122.002
722.118, 788.637
723.413, 520.319
724.708, 390.053
726.002, 582.840
727.297, 211.677
728.591, 433.567
729.885, 341.506
731.179, 386.490
732.472, 292.525
733.766, 249.650
735.059, 288.825
736.352, 390.064
737.645, 437.418
738.937, 469.824
740.230, 550.275
741.522, 546.800
742.814, 560.374
744.106, 572.949
745.397, 549.537
746.689, 583.499
747.980, 537.313
749.271, 592.176
750.562, 664.081
751.853, 522.031
753.143, 658.027
754.433, 592.065
755.723, 726.149
757.013, 722.277
758.303, 659.449
759.592, 860.665
760.881, 1008.927
762.170, 1036.233
763.459, 1168.585
764.748, 1057.981
766.036, 1545.422
767.325, 1679.908
768.613, 2409.439
769.901, 2923.016
771.188, 3395.641
772.476, 4653.307
773.763, 5609.020
775.050, 7191.777
776.337, 8406.582
777.624, 9109.434
778.910, 9382.328
780.196, 8666.273
781.482, 7151.258
782.768, 5838.293
784.054, 4672.375
785.339, 3515.500
786.625, 2492.674
787.910, 2098.893
789.195, 1399.160
790.479, 1025.473
791.764, 830.832
793.048, 637.236
794.332, 354.689
795.616, 285.189
796.900, 266.736
798.183, 54.328
799.467, 32.969
800.750, 29.344
802.033, 95.619
803.316, 27.127
804.598, 47.119
805.880, 65.254
807.163, 108.400
808.445, 169.527
809.726, 307.662
811.008, 113.861
812.289, 248.047
813.570, 68.270
814.851, 101.465
816.132, 158.639
817.413, 184.812
818.693, 141.709
819.973, 12.176
821.253, 39.311
822.533, 130.592
823.813, 156.541
825.092, 107.537
826.371, 148.582
827.650, 114.674
828.929, 283.844
830.208, 262.070
831.486, 87.344
832.764, 234.674
834.042, 264.059
835.320, 344.520
836.598, 228.029
837.875, 277.635
839.152, 351.297
840.429, 499.062
841.706, 399.928
842.983, 400.863
844.259, 693.938
845.536, 410.074
846.812, 544.270
848.088, 507.535
849.363, 570.881
850.639, 613.328
851.914, 528.869
853.189, 592.521
854.464, 753.330
855.739, 957.314
857.013, 899.428
858.288, 1085.725
859.562, 1184.123
860.836, 1158.613
862.110, 1158.232
863.383, 1112.770
864.656, 944.428
865.930, 848.139
867.203, 659.918
868.475, 600.750
869.748, 496.629
871.020, 381.559
872.292, 579.535
873.564, 345.559
874.836, 445.641
876.108, 376.771
877.379, 598.945
878.650, 572.168
879.922, 478.445
881.192, 425.771
882.463, 486.164
883.733, 537.604
885.004, 602.090
886.274, 608.619
887.544, 722.189
888.813, 579.820
890.083, 792.492
891.352, 851.207
892.621, 852.979
893.890, 721.791
895.159, 961.646
896.427, 929.547
897.695, 1174.504
898.964, 1074.506
900.232, 1354.551
901.499, 1364.643
902.767, 1617.777
904.034, 1540.951
905.301, 1700.164
906.568, 2111.436
907.835, 2216.746
909.102, 2343.098
910.368, 2682.482
911.634, 3032.918
912.900, 3298.393
914.166, 4201.904
915.432, 4453.453
916.697, 4962.041
917.962, 6280.662
919.227, 7136.316
920.492, 8519.008
921.757, 10439.730
923.021, 12820.486
924.285, 16030.279
925.550, 19641.100
926.813, 24167.953
928.077, 29073.838
929.341, 34554.762
930.604, 38897.711
931.867, 40494.695
933.130, 40769.727
934.393, 38892.770
935.655, 34384.844
936.918, 30726.953
938.180, 25845.088
939.442, 21835.258
940.703, 18645.455
941.965, 15660.676
943.226, 13367.283
944.488, 11675.203
945.749, 9952.508
947.009, 8400.840
948.270, 7245.197
949.530, 6390.580
950.791, 5735.988
952.051, 5054.652
953.311, 4447.346
954.570, 4211.014
955.830, 3681.523
957.089, 3401.025
958.348, 3116.678
959.607, 2903.340
960.866, 2673.717
962.124, 2455.170
963.383, 2310.875
964.641, 2091.922
965.899, 1988.814
967.156, 1867.355
968.414, 1722.871
969.671, 1653.992
970.928, 1459.076
972.185, 1500.600
973.442, 1274.455
974.699, 1462.316
975.955, 1271.199
977.211, 1147.105
978.468, 1210.031
979.723, 1094.074
980.979, 1063.432
982.234, 1086.934
983.490, 948.559
984.745, 1125.428
986.000, 1083.627
987.254, 1112.969
988.509, 1248.436
989.763, 1126.334
991.017, 1010.572
992.271, 1065.227
993.525, 1123.570
994.779, 1159.725
996.032, 1229.145
997.285, 1500.027
998.538, 1245.287
999.791, 1849.814
1001.044, 2040.637
1002.296, 2503.443
1003.548, 2123.051
1004.800, 1751.930
1006.052, 1584.438
1007.304, 1287.143
1008.555, 1325.117
1009.807, 1185.742
1011.058, 1225.014
1012.309, 1297.785
1013.559, 1048.967
1014.810, 1097.408
1016.060, 1311.184
1017.310, 1265.016
1018.560, 1038.641
1019.810, 1195.865
1021.060, 1470.289
1022.309, 1249.822
1023.558, 1400.947
1024.807, 1144.213
1026.056, 1249.201
1027.305, 1031.613
1028.553, 1240.430
1029.801, 1055.025
1031.049, 839.162
1032.297, 958.719
1033.545, 1161.350
1034.793, 835.016
1036.040, 798.373
1037.287, 940.709
1038.534, 740.678
1039.781, 994.451
1041.027, 787.275
1042.274, 766.695
1043.520, 948.098
1044.766, 805.418
1046.012, 790.453
1047.257, 769.432
1048.503, 934.225
1049.748, 649.104
1050.993, 993.795
1052.238, 790.324
1053.483, 733.881
1054.727, 1316.596
1055.971, 934.039
1057.216, 1145.547
1058.459, 609.154
1059.703, 678.520
1060.947, 452.516
1062.190, 589.973
1063.433, 433.354
1064.676, 471.967
1065.919, 439.174
1067.162, 637.305
1068.404, 330.020
1069.646, 494.697
1070.888, 656.475
1072.130, 444.188
1073.372, 406.070
1074.613, 595.654
1075.855, 520.297
1077.096, 457.193
1078.337, 727.695
1079.578, 665.078
1080.818, 567.117
1082.059, 533.537
1083.299, 653.930
1084.539, 561.408
1085.779, 668.135
1087.018, 442.441
1088.258, 510.719
1089.497, 362.969
1090.736, 418.186
1091.975, 275.377
1093.213, 239.533
1094.452, 350.660
1095.690, 255.754
1096.928, 228.814
1098.166, 192.844
1099.404, 253.844
1100.642, 53.805
1101.879, 222.768
1103.116, 61.664
1104.353, 255.541
1105.590, 61.383
1106.827, 281.195
1108.063, 20.982
1109.299, 212.740
1110.536, 206.754
1111.771, 174.521
1113.007, 156.275
1114.243, 119.225
1115.478, 17.953
1116.713, 95.648
1117.948, 184.330
1119.183, 23.002
1120.418, 207.646
1121.652, 662.260
1122.886, 951.840
1124.120, 702.381
1125.354, 334.885
1126.588, 236.344
1127.821, 72.230
1129.055, 31.104
1130.288, 155.385
1131.521, 18.619
1132.753, 21.795
1133.986, 51.086
1135.218, 166.934
1136.450, 132.094
1137.682, 31.732
1138.914, 157.506
1140.146, 130.906
1141.377, 29.094
1142.609, 295.748
1143.840, 3.881
1145.071, 47.873
1146.301, 39.230
1147.532, 58.486
1148.762, 141.891
1149.992, 2.570
1151.222, 73.035
1152.452, 44.725
1153.682, 149.498
1154.911, 73.621
1156.140, 203.312
1157.369, 10.629
1158.598, 31.492
1159.827, 169.438
1161.055, 58.154
1162.284, 100.814
1163.512, 81.408
1164.740, 36.947
1165.967, 93.180
1167.195, 124.812
1168.422, 110.139
1169.650, 239.395
1170.877, 138.598
1172.103, 28.721
1173.330, 157.779
1174.557, 271.766
1175.783, 179.697
1177.009, 22.572
1178.235, 143.381
1179.461, 11.863
1180.686, 105.818
1181.912, 210.848
1183.137, 284.943
1184.362, 289.000
1185.587, 17.205
1186.811, 190.594
1188.036, 185.035
1189.260, 32.312
1190.484, 269.451
1191.708, 288.914
1192.932, 88.225
1194.155, 21.398
1195.378, 106.467
1196.602, 183.588
1197.825, 62.551
1199.047, 237.557
1200.270, 228.309
1201.492, 203.422
1202.715, 12.023
1203.937, 244.549
1205.159, 213.271
1206.380, 259.674
1207.602, 52.283
1208.823, 230.658
1210.044, 245.865
1211.265, 206.824
1212.486, 279.908
1213.707, 293.930
1214.927, 388.910
1216.147, 428.812
1217.367, 364.660
1218.587, 375.686
1219.807, 330.430
1221.027, 396.125
1222.246, 378.188
1223.465, 312.357
1224.684, 416.895
1225.903, 211.383
1227.121, 261.816
1228.340, 500.197
1229.558, 541.529
1230.776, 377.812
1231.994, 313.049
1233.212, 441.236
1234.429, 470.369
1235.646, 618.443
1236.864, 638.471
1238.081, 545.447
1239.297, 653.350
1240.514, 609.139
1241.730, 540.875
1242.947, 564.529
1244.163, 607.121
1245.378, 690.666
1246.594, 619.156
1247.810, 406.357
1249.025, 689.729
1250.240, 522.814
1251.455, 471.369
1252.670, 573.312
1253.885, 631.664
1255.099, 487.191
1256.313, 355.383
1257.527, 573.398
1258.741, 659.365
1259.955, 372.457
1261.168, 731.287
1262.382, 638.082
1263.595, 553.645
1264.808, 604.447
1266.021, 693.041
1267.233, 676.805
1268.446, 794.393
1269.658, 774.607
1270.870, 739.766
1272.082, 776.209
1273.294, 716.082
1274.505, 738.701
1275.716, 683.623
1276.928, 622.562
1278.139, 777.807
1279.349, 679.533
1280.560, 528.963
1281.770, 621.092
1282.981, 495.750
1284.191, 585.719
1285.401, 411.121
1286.610, 285.879
1287.820, 337.602
1289.029, 226.736
1290.239, 489.064
1291.448, 368.268
1292.656, 386.803
1293.865, 602.719
1295.073, 507.623
1296.282, 394.771
1297.490, 519.492
1298.698, 504.699
1299.906, 333.736
1301.113, 559.729
1302.320, 319.646
1303.528, 410.824
1304.735, 244.818
1305.942, 403.721
1307.148, 518.592
1308.355, 541.406
1309.561, 661.227
1310.767, 510.164
1311.973, 593.648
1313.179, 545.686
1314.384, 822.154
1315.590, 526.488
1316.795, 727.340
1318.000, 637.207
1319.205, 1521.840
1320.410, 1478.492
1321.614, 1113.914
1322.819, 587.395
1324.023, 461.164
1325.227, 247.566
1326.431, 146.627
1327.634, 117.221
1328.838, 198.600
1330.041, 211.990
1331.244, 341.535
1332.447, 210.705
1333.650, 256.766
1334.852, 59.717
1336.055, 27.559
1337.257, 180.291
1338.459, 42.090
1339.661, 202.365
1340.862, 173.762
1342.064, 195.043
1343.265, 14.217
1344.466, 210.828
1345.667, 107.422
1346.868, 252.234
1348.068, 269.932
1349.269, 146.488
1350.469, 348.910
1351.669, 139.191
1352.869, 175.404
1354.069, 241.801
1355.268, 39.578
1356.468, 282.678
1357.667, 311.922
1358.866, 181.719
1360.065, 335.641
1361.263, 265.113
1362.462, 127.809
1363.660, 278.639
1364.858, 240.455
1366.056, 319.221
1367.254, 439.635
1368.451, 316.451
1369.649, 203.271
1370.846, 347.115
1372.043, 286.084
1373.240, 272.119
1374.436, 522.246
1375.633, 286.420
1376.829, 178.576
1378.025, 363.562
1379.221, 464.650
1380.417, 488.375
1381.613, 519.982
1382.808, 362.191
1384.003, 371.207
1385.199, 396.660
1386.393, 201.230
1387.588, 451.801
1388.783, 197.016
1389.977, 506.307
1391.171, 203.150
1392.365, 352.232
1393.559, 246.467
1394.753, 71.684
1395.946, 203.996
1397.140, 94.205
1398.333, 169.350
1399.526, 108.428
1400.719, 188.412
1401.911, 187.273
1403.104, 93.986
1404.296, 105.635
1405.488, 213.182
1406.680, 112.311
1407.872, 116.059
1409.063, 250.176
1410.255, 2.529
1411.446, 287.125
1412.637, 62.461
1413.828, 330.566
1415.018, 167.266
1416.209, 55.404
1417.399, 26.820
1418.589, 460.186
1419.779, 210.586
1420.969, 274.156
1422.159, 68.650
1423.348, 263.061
1424.537, 161.291
1425.726, 62.701
1426.915, 25.916
1428.104, 0.000
##END=



