##NAMES=Chrysoberyl
##RRUFFID=R040073
##IDEAL CHEMISTRY=BeAl_2_O_4_
##LOCALITY=Brazil
##OWNER=RRUFF
##SOURCE=University of Arizona Mineral Museum
##DESCRIPTION=Pair of green prismatic crystals
##STATUS=The identification of this mineral has been confirmed by X-ray diffraction and chemical analysis
##URL=rruff.info/R040073
##MEASURED CHEMISTRY=(Be_0.89_Al_0.06_Fe_0.02_)Al_2.00_O_4_
##PIN_ID=M00306
##ORIENTATION=Laser parallel to b* (0 1 0). Fiducial mark perpendicular to laser is parallel to c [0 0 1]
105.908, 0.000
107.300, 2.637
108.691, 135.266
110.082, 117.254
111.473, 329.586
112.864, 496.205
114.254, 1192.028
115.644, 1923.732
117.034, 2254.457
118.424, 1641.518
119.813, 1455.096
121.203, 1066.626
122.592, 647.009
123.981, 261.309
125.369, 209.575
126.758, 163.420
128.146, 60.858
129.534, 396.232
130.922, 243.899
132.309, 210.216
133.696, 650.320
135.083, 670.095
136.470, 223.110
137.857, 523.288
139.243, 374.811
140.630, 284.620
142.016, 340.548
143.401, 352.093
144.787, 420.895
146.172, 344.903
147.557, 254.355
148.942, 141.187
150.327, 253.509
151.711, 134.688
153.096, 189.696
154.480, 153.888
155.863, 107.634
157.247, 67.206
158.630, 192.271
160.013, 129.213
161.396, 202.539
162.779, 246.346
164.161, 182.493
165.544, 141.429
166.926, 15.318
168.308, 14.193
169.689, 28.274
171.070, 22.054
172.452, 19.877
173.833, 25.191
175.213, 78.609
176.594, 93.591
177.974, 195.357
179.354, 0.958
180.734, 72.245
182.114, 98.645
183.493, 53.387
184.872, 181.403
186.251, 389.946
187.630, 27.756
189.008, 3.543
190.387, 18.478
191.765, 57.409
193.143, 167.825
194.520, 176.971
195.898, 218.980
197.275, 221.321
198.652, 299.201
200.029, 325.540
201.405, 443.326
202.782, 454.425
204.158, 546.012
205.534, 702.654
206.909, 579.057
208.285, 654.271
209.660, 663.295
211.035, 348.056
212.410, 335.565
213.784, 326.824
215.159, 470.824
216.533, 423.588
217.907, 433.130
219.281, 621.421
220.654, 566.414
222.027, 672.105
223.400, 618.523
224.773, 603.640
226.146, 623.494
227.518, 800.014
228.891, 948.517
230.263, 1330.463
231.634, 1349.352
233.006, 1744.062
234.377, 1812.612
235.748, 2237.017
237.119, 2927.291
238.490, 3793.447
239.860, 4521.494
241.231, 5160.426
242.601, 4790.229
243.970, 3874.543
245.340, 2908.306
246.709, 1852.588
248.079, 1679.052
249.448, 1120.447
250.816, 1071.784
252.185, 1011.984
253.553, 881.616
254.921, 1093.598
256.289, 1095.523
257.657, 1122.504
259.024, 1025.400
260.391, 1001.529
261.758, 911.848
263.125, 962.641
264.492, 933.369
265.858, 941.882
267.224, 971.704
268.590, 999.273
269.956, 1081.151
271.321, 1039.483
272.687, 994.439
274.052, 849.665
275.416, 1044.237
276.781, 895.148
278.146, 732.374
279.510, 789.932
280.874, 608.754
282.237, 576.150
283.601, 657.076
284.964, 542.743
286.327, 618.789
287.690, 794.226
289.053, 523.591
290.416, 671.997
291.778, 674.469
293.140, 902.498
294.502, 740.449
295.863, 775.080
297.225, 886.941
298.586, 901.797
299.947, 886.265
301.308, 813.587
302.668, 933.502
304.029, 898.213
305.389, 1053.037
306.749, 944.508
308.108, 1167.437
309.468, 1002.083
310.827, 1014.233
312.186, 892.259
313.545, 1070.940
314.903, 1168.488
316.262, 1161.783
317.620, 1264.535
318.978, 1225.875
320.336, 1260.568
321.693, 1261.624
323.051, 1401.076
324.408, 1108.799
325.765, 1399.149
327.121, 1249.790
328.478, 1182.831
329.834, 1271.432
331.190, 1173.510
332.546, 1151.054
333.902, 1350.299
335.257, 1300.927
336.612, 1280.518
337.967, 1349.929
339.322, 1413.470
340.677, 1660.568
342.031, 1736.273
343.385, 2126.136
344.739, 2467.473
346.093, 3067.067
347.446, 3679.881
348.799, 3993.137
350.153, 3755.700
351.505, 3364.382
352.858, 3092.971
354.210, 2643.568
355.563, 2246.664
356.915, 1920.369
358.267, 1899.058
359.618, 2002.003
360.969, 2263.883
362.321, 2696.322
363.672, 3382.831
365.022, 4358.752
366.373, 5461.650
367.723, 6880.857
369.073, 6777.654
370.423, 6183.863
371.773, 4647.346
373.122, 3377.802
374.471, 2464.906
375.821, 1604.955
377.169, 1043.083
378.518, 593.807
379.866, 425.427
381.215, 300.089
382.563, 239.617
383.910, 227.317
385.258, 232.627
386.605, 306.108
387.952, 107.491
389.299, 122.893
390.646, 8.030
391.992, 21.938
393.339, 94.938
394.685, 160.048
396.031, 5.285
397.376, 160.608
398.722, 77.057
400.067, 90.607
401.412, 191.266
402.757, 26.059
404.101, 90.939
405.446, 153.924
406.790, 193.039
408.134, 52.303
409.478, 120.318
410.821, 28.852
412.165, 29.252
413.508, 226.473
414.851, 341.518
416.193, 429.439
417.536, 427.660
418.878, 547.402
420.220, 696.207
421.562, 381.059
422.904, 356.705
424.245, 297.037
425.586, 345.029
426.927, 309.871
428.268, 238.768
429.609, 256.613
430.949, 473.400
432.289, 719.143
433.629, 537.803
434.969, 831.305
436.309, 747.439
437.648, 909.711
438.987, 1014.803
440.326, 999.100
441.665, 947.529
443.003, 992.094
444.342, 826.420
445.680, 750.990
447.018, 807.984
448.355, 523.207
449.693, 707.072
451.030, 549.723
452.367, 745.916
453.704, 581.045
455.041, 816.062
456.377, 1042.330
457.713, 1344.680
459.049, 1435.436
460.385, 1616.191
461.721, 1305.818
463.056, 946.090
464.391, 811.711
465.726, 846.926
467.061, 1056.752
468.395, 1376.217
469.730, 2021.639
471.064, 2810.012
472.398, 4563.344
473.731, 6212.623
475.065, 8412.883
476.398, 10272.105
477.731, 10282.293
479.064, 8005.449
480.397, 5539.576
481.729, 3539.672
483.062, 2523.742
484.394, 1962.781
485.725, 1580.791
487.057, 1317.771
488.389, 1141.721
489.720, 923.639
491.051, 1016.527
492.382, 918.404
493.712, 1061.268
495.043, 870.119
496.373, 946.961
497.703, 904.783
499.032, 1018.596
500.362, 1052.387
501.691, 1147.188
503.020, 997.961
504.349, 1065.723
505.678, 1135.486
507.007, 1181.264
508.335, 1378.020
509.663, 1413.750
510.991, 1716.453
512.319, 1675.150
513.646, 2297.838
514.973, 2455.512
516.300, 3528.172
517.627, 4332.809
518.954, 4784.420
520.280, 5914.014
521.607, 6942.586
522.933, 7363.129
524.259, 6003.652
525.584, 4305.146
526.910, 2881.619
528.235, 1802.062
529.560, 1428.477
530.885, 1045.348
532.209, 779.709
533.534, 930.305
534.858, 906.191
536.182, 1045.824
537.506, 1003.615
538.829, 986.215
540.152, 916.961
541.476, 1072.873
542.799, 905.082
544.121, 1199.018
545.444, 1364.322
546.766, 1032.768
548.088, 1238.910
549.410, 1117.355
550.732, 1180.270
552.053, 903.275
553.375, 897.666
554.696, 890.938
556.017, 959.893
557.337, 1101.072
558.658, 1276.473
559.978, 1449.000
561.298, 2244.188
562.618, 2254.730
563.938, 2638.184
565.257, 2643.672
566.576, 1890.693
567.895, 1457.543
569.214, 981.801
570.533, 532.457
571.851, 226.131
573.170, 369.963
574.488, 91.439
575.805, 49.730
577.123, 63.004
578.440, 119.885
579.758, 67.271
581.075, 90.467
582.391, 110.574
583.708, 165.369
585.024, 30.373
586.341, 215.199
587.657, 347.570
588.972, 268.113
590.288, 193.660
591.603, 21.586
592.918, 213.385
594.233, 391.266
595.548, 611.139
596.863, 593.010
598.177, 767.877
599.491, 810.742
600.805, 687.609
602.119, 725.482
603.432, 816.359
604.746, 843.240
606.059, 574.129
607.372, 651.025
608.685, 1075.926
609.997, 954.836
611.309, 1300.752
612.621, 1367.680
613.933, 1658.609
615.245, 1854.547
616.557, 2101.496
617.868, 2318.449
619.179, 2488.412
620.490, 2833.383
621.801, 3354.365
623.111, 3415.357
624.421, 4037.357
625.731, 3427.369
627.041, 3457.389
628.351, 2849.422
629.660, 2350.469
630.970, 2272.527
632.279, 1769.598
633.588, 1679.686
634.896, 1756.785
636.205, 2099.898
637.513, 2465.027
638.821, 2724.174
640.129, 2867.334
641.437, 2693.512
642.744, 2493.707
644.051, 2646.916
645.358, 2913.148
646.665, 3076.398
647.972, 3030.668
649.278, 3201.955
650.584, 3189.266
651.890, 3439.594
653.196, 3079.945
654.502, 3111.316
655.807, 2472.713
657.113, 2000.127
658.418, 1878.566
659.722, 1317.029
661.027, 1158.516
662.331, 919.025
663.636, 913.561
664.940, 789.850
666.244, 829.705
667.547, 780.316
668.851, 1039.955
670.154, 1252.619
671.457, 1824.311
672.760, 2845.031
674.062, 3269.777
675.365, 3905.555
676.667, 4120.357
677.969, 3454.195
679.271, 2677.059
680.572, 1909.955
681.874, 1465.885
683.175, 994.844
684.476, 591.838
685.777, 379.865
687.077, 92.074
688.378, 61.977
689.678, 154.938
690.978, 263.879
692.278, 780.896
693.577, 246.234
694.877, 691.637
696.176, 310.307
697.475, 638.062
698.774, 265.047
700.072, 244.090
701.371, 233.178
702.669, 94.307
703.967, 449.580
705.265, 1318.527
706.562, 2062.539
707.860, 3656.637
709.157, 6008.820
710.454, 7148.117
711.751, 7439.539
713.047, 5670.047
714.344, 3866.684
715.640, 2189.426
716.936, 1536.283
718.232, 1119.275
719.527, 646.363
720.823, 514.562
722.118, 398.895
723.413, 71.367
724.708, 335.941
726.002, 514.590
727.297, 327.320
728.591, 415.139
729.885, 524.021
731.179, 499.900
732.472, 390.342
733.766, 374.178
735.059, 633.803
736.352, 479.338
737.645, 621.051
738.937, 826.018
740.230, 734.428
741.522, 980.014
742.814, 1262.564
744.106, 1330.189
745.397, 1330.891
746.689, 1244.893
747.980, 975.459
749.271, 815.367
750.562, 862.346
751.853, 621.396
753.143, 793.516
754.433, 878.705
755.723, 1012.969
757.013, 1394.305
758.303, 1408.711
759.592, 1475.191
760.881, 1937.744
762.170, 2454.371
763.459, 2878.070
764.748, 3282.844
766.036, 4676.691
767.325, 5541.615
768.613, 7325.613
769.901, 9729.688
771.188, 12222.838
772.476, 16442.064
773.763, 20492.365
775.050, 25836.744
776.337, 30044.195
777.624, 33135.727
778.910, 33357.344
780.196, 31016.029
781.482, 26218.803
782.768, 21480.641
784.054, 16845.564
785.339, 13210.566
786.625, 10092.648
787.910, 8106.809
789.195, 6246.051
790.479, 4799.373
791.764, 4069.773
793.048, 3220.258
794.332, 2785.820
795.616, 2251.463
796.900, 1929.189
798.183, 1535.998
799.467, 1962.887
800.750, 1680.855
802.033, 1163.908
803.316, 1522.045
804.598, 875.262
805.880, 781.564
807.163, 479.947
808.445, 338.414
809.726, 308.963
811.008, 223.127
812.289, 290.094
813.570, 231.115
814.851, 396.004
816.132, 360.973
817.413, 220.029
818.693, 662.168
819.973, 468.416
821.253, 586.750
822.533, 866.168
823.813, 881.674
825.092, 864.264
826.371, 1065.938
827.650, 896.699
828.929, 1267.549
830.208, 1287.490
831.486, 1042.545
832.764, 988.691
834.042, 1079.941
835.320, 1096.309
836.598, 1233.766
837.875, 921.385
839.152, 1014.092
840.429, 1410.949
841.706, 1056.469
842.983, 1074.662
844.259, 1420.781
845.536, 1072.760
846.812, 1194.121
848.088, 977.469
849.363, 1147.805
850.639, 1224.459
851.914, 1127.586
853.189, 1353.109
854.464, 1436.938
855.739, 1845.613
857.013, 1724.854
858.288, 1977.162
859.562, 2135.629
860.836, 2251.221
862.110, 1799.938
863.383, 1974.781
864.656, 1250.738
865.930, 1038.803
867.203, 917.990
868.475, 646.328
869.748, 411.764
871.020, 474.303
872.292, 383.938
873.564, 93.688
874.836, 266.547
876.108, 90.506
877.379, 412.555
878.650, 244.697
879.922, 240.938
881.192, 275.352
882.463, 130.648
883.733, 212.250
885.004, 99.893
886.274, 109.664
887.544, 174.814
888.813, 227.637
890.083, 262.795
891.352, 390.096
892.621, 335.492
893.890, 466.979
895.159, 347.572
896.427, 454.258
897.695, 443.545
898.964, 1026.982
900.232, 526.980
901.499, 730.090
902.767, 954.281
904.034, 715.559
905.301, 903.920
906.568, 1080.363
907.835, 1055.891
909.102, 1156.504
910.368, 1361.012
911.634, 2060.980
912.900, 1764.842
914.166, 2305.791
915.432, 2488.820
916.697, 2564.932
917.962, 3545.119
919.227, 3897.387
920.492, 4866.730
921.757, 5988.156
923.021, 7634.652
924.285, 9739.230
925.550, 12055.883
926.813, 14913.621
928.077, 18161.428
929.341, 21644.307
930.604, 24511.268
931.867, 25601.299
933.130, 25645.404
934.393, 24758.580
935.655, 21493.832
936.918, 19331.150
938.180, 16162.545
939.442, 13400.010
940.703, 11503.539
941.965, 9659.137
943.226, 7919.811
944.488, 6868.547
945.749, 6029.352
947.009, 5136.225
948.270, 4456.164
949.530, 3759.166
950.791, 3636.238
952.051, 3024.371
953.311, 2564.570
954.570, 2594.834
955.830, 2192.600
957.089, 2046.416
958.348, 1808.994
959.607, 1717.506
960.866, 1408.076
962.124, 1234.707
963.383, 1289.396
964.641, 1116.146
965.899, 1135.955
967.156, 1104.818
968.414, 747.107
969.671, 887.084
970.928, 589.084
972.185, 812.174
973.442, 638.314
974.699, 785.512
975.955, 614.760
977.211, 503.062
978.468, 632.414
979.723, 600.586
980.979, 533.395
982.234, 1116.762
983.490, 671.031
984.745, 1031.525
986.000, 1059.760
987.254, 892.250
988.509, 1389.455
989.763, 1122.793
991.017, 1130.178
992.271, 1051.705
993.525, 1248.080
994.779, 1427.234
996.032, 1648.711
997.285, 1937.527
998.538, 2195.986
999.791, 3482.320
1001.044, 3422.764
1002.296, 3431.168
1003.548, 3765.047
1004.800, 2788.469
1006.052, 2416.543
1007.304, 2036.682
1008.555, 1926.207
1009.807, 1850.629
1011.058, 1781.100
1012.309, 1768.076
1013.559, 1711.406
1014.810, 1598.104
1016.060, 1812.996
1017.310, 1829.607
1018.560, 1771.348
1019.810, 2143.654
1021.060, 2144.119
1022.309, 2002.939
1023.558, 2480.338
1024.807, 2076.584
1026.056, 2284.795
1027.305, 1915.984
1028.553, 2074.656
1029.801, 1650.004
1031.049, 1442.875
1032.297, 1479.953
1033.545, 1573.574
1034.793, 1361.654
1036.040, 1305.693
1037.287, 1284.266
1038.534, 1253.350
1039.781, 1235.480
1041.027, 1207.365
1042.274, 1212.438
1043.520, 1133.117
1044.766, 1101.836
1046.012, 1018.092
1047.257, 1065.947
1048.503, 1284.271
1049.748, 858.182
1050.993, 1188.320
1052.238, 1009.490
1053.483, 1014.176
1054.727, 975.150
1055.971, 1097.102
1057.216, 856.428
1058.459, 829.043
1059.703, 704.459
1060.947, 754.199
1062.190, 654.775
1063.433, 802.611
1064.676, 525.916
1065.919, 375.926
1067.162, 747.756
1068.404, 393.459
1069.646, 563.133
1070.888, 751.775
1072.130, 457.461
1073.372, 755.041
1074.613, 761.707
1075.855, 606.723
1077.096, 716.203
1078.337, 1280.646
1079.578, 1102.055
1080.818, 1346.828
1082.059, 1345.164
1083.299, 1474.459
1084.539, 1178.719
1085.779, 1268.938
1087.018, 952.115
1088.258, 909.252
1089.497, 878.350
1090.736, 722.406
1091.975, 527.416
1093.213, 526.385
1094.452, 418.809
1095.690, 394.188
1096.928, 369.023
1098.166, 301.809
1099.404, 329.551
1100.642, 276.244
1101.879, 490.889
1103.116, 254.484
1104.353, 421.031
1105.590, 155.529
1106.827, 476.977
1108.063, 368.373
1109.299, 537.719
1110.536, 413.014
1111.771, 261.252
1113.007, 223.439
1114.243, 207.572
1115.478, 298.652
1116.713, 121.676
1117.948, 232.645
1119.183, 41.432
1120.418, 538.389
1121.652, 1741.152
1122.886, 1983.857
1124.120, 1467.506
1125.354, 537.094
1126.588, 338.623
1127.821, 112.096
1129.055, 67.498
1130.288, 27.443
1131.521, 142.033
1132.753, 10.174
1133.986, 29.787
1135.218, 155.121
1136.450, 197.090
1137.682, 222.521
1138.914, 129.080
1140.146, 127.977
1141.377, 297.121
1142.609, 274.584
1143.840, 228.414
1145.071, 118.535
1146.301, 186.949
1147.532, 165.600
1148.762, 210.447
1149.992, 207.473
1151.222, 334.738
1152.452, 55.209
1153.682, 237.812
1154.911, 92.611
1156.140, 287.535
1157.369, 108.652
1158.598, 21.066
1159.827, 32.668
1161.055, 10.146
1162.284, 96.502
1163.512, 131.760
1164.740, 28.910
1165.967, 69.107
1167.195, 259.727
1168.422, 168.473
1169.650, 355.133
1170.877, 93.703
1172.103, 101.166
1173.330, 197.520
1174.557, 601.781
1175.783, 413.957
1177.009, 199.049
1178.235, 374.045
1179.461, 163.947
1180.686, 141.748
1181.912, 230.447
1183.137, 345.047
1184.362, 150.557
1185.587, 237.965
1186.811, 408.273
1188.036, 226.488
1189.260, 362.604
1190.484, 278.625
1191.708, 431.648
1192.932, 236.756
1194.155, 6.346
1195.378, 234.924
1196.602, 385.822
1197.825, 252.189
1199.047, 560.453
1200.270, 435.613
1201.492, 669.670
1202.715, 624.656
1203.937, 514.477
1205.159, 443.818
1206.380, 488.457
1207.602, 408.111
1208.823, 443.670
1210.044, 386.949
1211.265, 500.566
1212.486, 567.391
1213.707, 605.676
1214.927, 689.961
1216.147, 749.791
1217.367, 755.539
1218.587, 620.199
1219.807, 652.775
1221.027, 613.266
1222.246, 348.668
1223.465, 701.980
1224.684, 784.209
1225.903, 673.355
1227.121, 554.418
1228.340, 820.393
1229.558, 878.285
1230.776, 799.096
1231.994, 751.818
1233.212, 912.461
1234.429, 1036.020
1235.646, 920.496
1236.864, 1378.885
1238.081, 1077.176
1239.297, 1254.381
1240.514, 1281.502
1241.730, 1062.545
1242.947, 1136.506
1244.163, 1034.381
1245.378, 1312.174
1246.594, 1155.885
1247.810, 1095.521
1249.025, 1257.078
1250.240, 1163.562
1251.455, 1313.975
1252.670, 1158.314
1253.885, 1027.057
1255.099, 901.260
1256.313, 803.395
1257.527, 1042.459
1258.741, 1047.459
1259.955, 1040.172
1261.168, 1156.578
1262.382, 1071.391
1263.595, 1122.439
1264.808, 1267.166
1266.021, 1306.850
1267.233, 1543.455
1268.446, 1542.988
1269.658, 1594.201
1270.870, 1551.930
1272.082, 1580.482
1273.294, 1632.549
1274.505, 1581.957
1275.716, 1545.484
1276.928, 1284.346
1278.139, 1622.211
1279.349, 1198.039
1280.560, 1314.545
1281.770, 1153.246
1282.981, 960.715
1284.191, 1081.197
1285.401, 953.156
1286.610, 909.531
1287.820, 821.963
1289.029, 560.957
1290.239, 942.158
1291.448, 592.180
1292.656, 910.789
1293.865, 1086.254
1295.073, 1054.826
1296.282, 865.840
1297.490, 963.977
1298.698, 1117.254
1299.906, 904.861
1301.113, 895.709
1302.320, 887.615
1303.528, 852.146
1304.735, 791.652
1305.942, 932.822
1307.148, 1211.812
1308.355, 1193.018
1309.561, 1504.576
1310.767, 1427.184
1311.973, 1449.887
1313.179, 1219.082
1314.384, 1648.199
1315.590, 1316.686
1316.795, 1417.562
1318.000, 1277.746
1319.205, 1633.051
1320.410, 1431.084
1321.614, 1187.074
1322.819, 1493.785
1324.023, 1419.094
1325.227, 1272.514
1326.431, 1013.160
1327.634, 799.203
1328.838, 750.055
1330.041, 616.893
1331.244, 597.174
1332.447, 481.434
1333.650, 437.492
1334.852, 281.344
1336.055, 252.984
1337.257, 206.414
1338.459, 86.621
1339.661, 314.602
1340.862, 158.355
1342.064, 395.865
1343.265, 274.135
1344.466, 324.148
1345.667, 285.900
1346.868, 501.430
1348.068, 325.686
1349.269, 79.658
1350.469, 516.369
1351.669, 152.920
1352.869, 384.316
1354.069, 328.770
1355.268, 91.947
1356.468, 289.035
1357.667, 347.338
1358.866, 91.650
1360.065, 314.279
1361.263, 210.207
1362.462, 351.146
1363.660, 406.004
1364.858, 314.895
1366.056, 335.820
1367.254, 421.723
1368.451, 414.904
1369.649, 279.029
1370.846, 470.104
1372.043, 346.176
1373.240, 396.182
1374.436, 519.158
1375.633, 467.123
1376.829, 536.896
1378.025, 505.080
1379.221, 570.943
1380.417, 484.555
1381.613, 464.688
1382.808, 594.221
1384.003, 538.316
1385.199, 479.576
1386.393, 192.053
1387.588, 539.473
1388.783, 394.525
1389.977, 542.125
1391.171, 235.660
1392.365, 392.703
1393.559, 476.420
1394.753, 206.242
1395.946, 350.180
1397.140, 10.232
1398.333, 291.414
1399.526, 139.748
1400.719, 128.266
1401.911, 128.994
1403.104, 337.109
1404.296, 54.729
1405.488, 292.697
1406.680, 5.207
1407.872, 43.754
1409.063, 204.832
1410.255, 146.930
1411.446, 267.260
1412.637, 162.117
1413.828, 266.699
1415.018, 134.143
1416.209, 337.988
1417.399, 93.699
1418.589, 449.586
1419.779, 250.406
1420.969, 218.664
1422.159, 0.672
1423.348, 0.000
##END=



