##NAMES=Chrysoberyl
##RRUFFID=R040073
##IDEAL CHEMISTRY=BeAl_2_O_4_
##LOCALITY=Brazil
##OWNER=RRUFF
##SOURCE=University of Arizona Mineral Museum
##DESCRIPTION=Pair of green prismatic crystals
##STATUS=The identification of this mineral has been confirmed by X-ray diffraction and chemical analysis
##URL=rruff.info/R040073
##MEASURED CHEMISTRY=(Be_0.89_Al_0.06_Fe_0.02_)Al_2.00_O_4_
##PIN_ID=M00306
##ORIENTATION=Laser parallel to b* (0 1 0). Fiducial mark perpendicular to laser is parallel to c [0 0 1]
107.300, 0.000
108.691, 95.472
110.082, 1.382
111.473, 114.284
112.864, 456.275
114.254, 852.477
115.644, 1490.423
117.034, 1902.256
118.424, 1504.962
119.813, 1069.961
121.203, 767.241
122.592, 426.834
123.981, 200.255
125.369, 178.880
126.758, 147.220
128.146, 41.835
129.534, 359.492
130.922, 215.129
132.309, 252.480
133.696, 149.392
135.083, 255.812
136.470, 186.845
137.857, 218.103
139.243, 271.283
140.630, 230.193
142.016, 179.836
143.401, 127.797
144.787, 158.897
146.172, 83.427
147.557, 82.354
148.942, 17.787
150.327, 15.298
151.711, 45.710
153.096, 1.235
154.480, 8.641
155.863, 3.166
157.247, 15.814
158.630, 26.230
160.013, 46.807
161.396, 39.545
162.779, 139.711
164.161, 6.514
165.544, 41.782
166.926, 16.946
168.308, 83.465
169.689, 27.480
171.070, 110.169
172.452, 61.541
173.833, 4.604
175.213, 78.408
176.594, 17.997
177.974, 126.991
179.354, 17.073
180.734, 42.837
182.114, 8.517
183.493, 67.210
184.872, 26.519
186.251, 135.830
187.630, 15.774
189.008, 160.963
190.387, 175.604
191.765, 143.909
193.143, 375.921
194.520, 233.254
195.898, 383.090
197.275, 273.864
198.652, 322.654
200.029, 410.279
201.405, 442.189
202.782, 382.087
204.158, 646.307
205.534, 803.607
206.909, 577.050
208.285, 717.466
209.660, 662.613
211.035, 352.064
212.410, 495.891
213.784, 337.553
215.159, 392.276
216.533, 484.279
217.907, 395.725
219.281, 454.594
220.654, 377.821
222.027, 406.896
223.400, 430.813
224.773, 462.576
226.146, 533.188
227.518, 473.604
228.891, 451.850
230.263, 698.933
231.634, 920.877
233.006, 1010.691
234.377, 1420.385
235.748, 1716.953
237.119, 1935.492
238.490, 2566.735
239.860, 2627.958
241.231, 2942.068
242.601, 3666.770
243.970, 1787.919
245.340, 1508.324
246.709, 794.642
248.079, 583.168
249.448, 276.308
250.816, 247.402
252.185, 255.479
253.553, 118.887
254.921, 290.792
256.289, 130.589
257.657, 221.512
259.024, 255.713
260.391, 255.077
261.758, 156.117
263.125, 290.882
264.492, 350.903
265.858, 244.545
267.224, 307.413
268.590, 203.130
269.956, 325.812
271.321, 297.687
272.687, 286.737
274.052, 150.227
275.416, 241.146
276.781, 265.919
278.146, 111.318
279.510, 231.330
280.874, 174.966
282.237, 272.212
283.601, 77.073
284.964, 81.559
286.327, 150.668
287.690, 87.445
289.053, 100.930
290.416, 246.030
291.778, 115.624
293.140, 283.155
294.502, 179.221
295.863, 265.722
297.225, 225.910
298.586, 205.337
299.947, 336.933
301.308, 191.931
302.668, 325.733
304.029, 488.520
305.389, 397.881
306.749, 354.805
308.108, 504.302
309.468, 485.587
310.827, 527.096
312.186, 541.131
313.545, 538.465
314.903, 506.764
316.262, 475.340
317.620, 455.120
318.978, 510.927
320.336, 362.312
321.693, 391.826
323.051, 548.564
324.408, 430.994
325.765, 589.110
327.121, 446.565
328.478, 379.524
329.834, 544.889
331.190, 853.584
332.546, 924.170
333.902, 744.063
335.257, 670.695
336.612, 696.835
337.967, 937.070
339.322, 901.182
340.677, 1282.484
342.031, 1463.834
343.385, 2152.914
344.739, 2938.019
346.093, 4063.663
347.446, 5496.996
348.799, 6669.609
350.153, 7340.246
351.505, 7596.423
352.858, 7818.009
354.210, 7833.549
355.563, 6612.742
356.915, 4715.848
358.267, 3291.229
359.618, 2225.093
360.969, 1777.338
362.321, 1411.620
363.672, 1260.138
365.022, 1313.678
366.373, 1539.860
367.723, 1674.442
369.073, 1723.929
370.423, 1676.336
371.773, 1245.666
373.122, 879.924
374.471, 627.463
375.821, 348.529
377.169, 306.857
378.518, 117.333
379.866, 102.111
381.215, 35.562
382.563, 95.902
383.910, 1.968
385.258, 142.065
386.605, 95.191
387.952, 8.622
389.299, 68.667
390.646, 55.733
391.992, 103.634
393.339, 43.702
394.685, 6.309
396.031, 122.596
397.376, 39.566
398.722, 53.177
400.067, 94.153
401.412, 153.592
402.757, 103.846
404.101, 147.780
405.446, 216.530
406.790, 105.438
408.134, 26.516
409.478, 58.269
410.821, 160.957
412.165, 132.480
413.508, 293.778
414.851, 321.968
416.193, 183.818
417.536, 250.838
418.878, 398.258
420.220, 317.152
421.562, 71.063
422.904, 225.890
424.245, 145.612
425.586, 19.672
426.927, 158.991
428.268, 24.427
429.609, 79.597
430.949, 279.662
432.289, 452.594
433.629, 504.821
434.969, 974.400
436.309, 1255.434
437.648, 1984.451
438.987, 2411.588
440.326, 2259.664
441.665, 1744.340
443.003, 1295.287
444.342, 1042.903
445.680, 889.750
447.018, 838.076
448.355, 645.119
449.693, 525.420
451.030, 737.615
452.367, 881.537
453.704, 761.366
455.041, 1088.096
456.377, 1430.360
457.713, 1703.465
459.049, 2020.176
460.385, 1829.588
461.721, 1478.994
463.056, 1286.125
464.391, 1279.380
465.726, 1577.266
467.061, 1888.722
468.395, 2555.951
469.730, 4125.762
471.064, 6384.449
472.398, 10955.275
473.731, 16548.115
475.065, 25263.934
476.398, 35320.586
477.731, 39813.062
479.064, 32574.439
480.397, 21865.023
481.729, 13939.960
483.062, 9030.000
484.394, 6214.672
485.725, 4273.822
487.057, 3179.590
488.389, 2364.748
489.720, 1719.603
491.051, 1511.139
492.382, 1314.792
493.712, 983.454
495.043, 732.089
496.373, 675.691
497.703, 600.284
499.032, 592.864
500.362, 544.412
501.691, 318.966
503.020, 289.488
504.349, 224.984
505.678, 247.468
507.007, 291.932
508.335, 228.368
509.663, 413.791
510.991, 490.187
512.319, 703.561
513.646, 1030.908
514.973, 1237.229
516.300, 1986.525
517.627, 2335.794
518.954, 2708.037
520.280, 3623.253
521.607, 4220.445
522.933, 4579.613
524.259, 3922.757
525.584, 3005.875
526.910, 2315.973
528.235, 1605.042
529.560, 1357.090
530.885, 985.114
532.209, 870.115
533.534, 898.094
534.858, 943.054
536.182, 725.410
537.506, 745.586
538.829, 616.670
540.152, 450.389
541.476, 582.061
542.799, 425.633
544.121, 423.664
545.444, 527.299
546.766, 278.880
548.088, 612.260
549.410, 492.111
550.732, 577.548
552.053, 512.390
553.375, 556.424
554.696, 657.991
556.017, 1021.327
557.337, 1486.833
558.658, 2350.273
559.978, 3475.387
561.298, 5409.787
562.618, 7599.789
563.938, 9584.604
565.257, 9933.131
566.576, 7568.666
567.895, 5459.191
569.214, 3364.039
570.533, 2129.422
571.851, 1254.328
573.170, 951.609
574.488, 551.031
575.805, 399.895
577.123, 239.086
578.440, 45.809
579.758, 166.348
581.075, 82.111
582.391, 219.340
583.708, 166.025
585.024, 112.049
586.341, 293.068
587.657, 361.602
588.972, 259.031
590.288, 114.715
591.603, 76.410
592.918, 96.441
594.233, 103.312
595.548, 261.209
596.863, 49.125
598.177, 227.062
599.491, 51.031
600.805, 44.021
602.119, 167.961
603.432, 67.998
604.746, 100.035
606.059, 210.082
607.372, 261.193
608.685, 51.615
609.997, 231.541
611.309, 16.768
612.621, 185.977
613.933, 136.760
615.245, 223.529
616.557, 314.330
617.868, 244.162
619.179, 400.027
620.490, 233.920
621.801, 841.852
623.111, 782.812
624.421, 1022.801
625.731, 797.818
627.041, 941.869
628.351, 540.949
629.660, 455.061
630.970, 535.203
632.279, 127.375
633.588, 237.576
634.896, 87.811
636.205, 476.078
637.513, 496.377
638.821, 789.711
640.129, 842.082
641.437, 856.488
642.744, 1055.850
644.051, 974.406
645.358, 1299.916
646.665, 1307.463
647.972, 1415.807
649.278, 1617.430
650.584, 1569.801
651.890, 1832.934
653.196, 1930.020
654.502, 1955.311
655.807, 1703.277
657.113, 1685.115
658.418, 1827.193
659.722, 1435.107
661.027, 1318.059
662.331, 1225.049
663.636, 1432.736
664.940, 1383.803
666.244, 1876.912
667.547, 1875.059
668.851, 2862.248
670.154, 3737.477
671.457, 5310.748
672.760, 7861.062
674.062, 10468.416
675.365, 12995.816
676.667, 13710.254
677.969, 12106.740
679.271, 9581.266
680.572, 6972.844
681.874, 5295.465
683.175, 4003.129
684.476, 2924.842
685.777, 2397.598
687.077, 1586.404
688.378, 1426.258
689.678, 1209.160
690.978, 1071.109
692.278, 999.561
693.577, 951.756
694.877, 923.275
696.176, 1071.449
697.475, 1069.689
698.774, 1322.021
700.072, 1318.420
701.371, 1352.904
702.669, 1372.453
703.967, 1843.070
705.265, 2495.779
706.562, 3188.559
707.860, 4019.418
709.157, 5894.344
710.454, 6583.352
711.751, 6782.443
713.047, 5206.607
714.344, 4200.871
715.640, 2576.213
716.936, 1992.668
718.232, 1775.402
719.527, 1273.061
720.823, 956.018
722.118, 974.752
723.413, 771.971
724.708, 815.121
726.002, 1009.348
727.297, 718.645
728.591, 782.646
729.885, 733.078
731.179, 523.572
732.472, 587.826
733.766, 506.455
735.059, 629.148
736.352, 819.904
737.645, 1011.740
738.937, 1555.643
740.230, 1654.613
741.522, 2200.670
742.814, 2729.797
744.106, 2827.023
745.397, 2512.324
746.689, 1913.691
747.980, 1555.664
749.271, 1071.160
750.562, 1044.729
751.853, 588.361
753.143, 685.061
754.433, 661.828
755.723, 453.662
757.013, 683.562
758.303, 531.771
759.592, 594.924
760.881, 621.697
762.170, 802.100
763.459, 943.020
764.748, 864.332
766.036, 1635.986
767.325, 1819.961
768.613, 2494.135
769.901, 3311.730
771.188, 4196.400
772.476, 5792.141
773.763, 6942.955
775.050, 9124.840
776.337, 10522.797
777.624, 11718.828
778.910, 11802.930
780.196, 11001.105
781.482, 9381.352
782.768, 7606.674
784.054, 6030.066
785.339, 4730.531
786.625, 3600.209
787.910, 2831.678
789.195, 2033.359
790.479, 1559.113
791.764, 1333.943
793.048, 926.846
794.332, 762.818
795.616, 489.865
796.900, 393.984
798.183, 106.176
799.467, 44.441
800.750, 59.777
802.033, 113.812
803.316, 238.648
804.598, 296.820
805.880, 27.301
807.163, 22.715
808.445, 167.061
809.726, 127.375
811.008, 67.355
812.289, 238.842
813.570, 13.971
814.851, 186.857
816.132, 37.840
817.413, 39.105
818.693, 351.023
819.973, 100.246
821.253, 130.539
822.533, 265.287
823.813, 518.344
825.092, 413.854
826.371, 330.461
827.650, 393.145
828.929, 448.912
830.208, 478.756
831.486, 319.676
832.764, 269.682
834.042, 280.768
835.320, 410.941
836.598, 451.188
837.875, 353.582
839.152, 276.053
840.429, 481.613
841.706, 450.303
842.983, 370.139
844.259, 458.131
845.536, 246.252
846.812, 326.457
848.088, 262.773
849.363, 516.195
850.639, 422.719
851.914, 386.381
853.189, 302.180
854.464, 541.109
855.739, 857.154
857.013, 601.305
858.288, 826.570
859.562, 761.941
860.836, 1052.414
862.110, 631.980
863.383, 758.637
864.656, 572.379
865.930, 516.191
867.203, 317.078
868.475, 214.051
869.748, 76.092
871.020, 11.789
872.292, 93.393
873.564, 66.346
874.836, 50.023
876.108, 13.645
877.379, 246.793
878.650, 74.295
879.922, 93.877
881.192, 42.482
882.463, 10.227
883.733, 79.006
885.004, 45.154
886.274, 291.742
887.544, 333.695
888.813, 70.715
890.083, 302.793
891.352, 302.934
892.621, 243.139
893.890, 283.402
895.159, 405.725
896.427, 485.121
897.695, 724.584
898.964, 464.113
900.232, 676.701
901.499, 621.379
902.767, 907.111
904.034, 686.896
905.301, 990.730
906.568, 1161.617
907.835, 1297.553
909.102, 1300.541
910.368, 1620.580
911.634, 1791.721
912.900, 2059.938
914.166, 2429.240
915.432, 2599.633
916.697, 2812.137
917.962, 3685.699
919.227, 4353.359
920.492, 5251.078
921.757, 6152.877
923.021, 7567.723
924.285, 9732.613
925.550, 11922.547
926.813, 14826.527
928.077, 18043.551
929.341, 20988.621
930.604, 23920.729
931.867, 24999.883
933.130, 24881.068
934.393, 23907.295
935.655, 21051.557
936.918, 18897.869
938.180, 15677.207
939.442, 13297.586
940.703, 11473.996
941.965, 9745.441
943.226, 7970.918
944.488, 6830.430
945.749, 6219.971
947.009, 5039.543
948.270, 4505.146
949.530, 3986.779
950.791, 3590.443
952.051, 3128.428
953.311, 2764.148
954.570, 2702.557
955.830, 2442.332
957.089, 2275.520
958.348, 1956.910
959.607, 1817.518
960.866, 1682.873
962.124, 1629.641
963.383, 1517.178
964.641, 1412.936
965.899, 1361.705
967.156, 1331.254
968.414, 1274.648
969.671, 1264.895
970.928, 1125.631
972.185, 1038.736
973.442, 982.855
974.699, 1056.984
975.955, 940.455
977.211, 715.283
978.468, 1507.457
979.723, 1161.652
980.979, 678.828
982.234, 1200.312
983.490, 763.965
984.745, 923.170
986.000, 1092.096
987.254, 999.881
988.509, 1168.371
989.763, 947.691
991.017, 1139.205
992.271, 1084.695
993.525, 1073.033
994.779, 1211.734
996.032, 1140.250
997.285, 1407.732
998.538, 1486.697
999.791, 2237.846
1001.044, 2310.240
1002.296, 2732.686
1003.548, 2700.592
1004.800, 2075.582
1006.052, 1845.217
1007.304, 1541.383
1008.555, 1692.105
1009.807, 1536.246
1011.058, 1403.062
1012.309, 1536.119
1013.559, 1476.852
1014.810, 1320.221
1016.060, 1602.766
1017.310, 1539.262
1018.560, 1440.891
1019.810, 1580.312
1021.060, 1867.836
1022.309, 1628.139
1023.558, 1871.424
1024.807, 1510.109
1026.056, 1501.178
1027.305, 1435.965
1028.553, 1262.840
1029.801, 1440.990
1031.049, 1217.855
1032.297, 1170.865
1033.545, 1468.480
1034.793, 1046.449
1036.040, 1042.057
1037.287, 1083.902
1038.534, 1131.576
1039.781, 1107.902
1041.027, 1089.352
1042.274, 1089.568
1043.520, 1011.324
1044.766, 1012.949
1046.012, 1037.125
1047.257, 786.266
1048.503, 1127.979
1049.748, 818.566
1050.993, 1011.945
1052.238, 1162.469
1053.483, 901.941
1054.727, 794.648
1055.971, 885.311
1057.216, 732.215
1058.459, 571.461
1059.703, 704.342
1060.947, 711.973
1062.190, 659.699
1063.433, 587.346
1064.676, 484.141
1065.919, 514.863
1067.162, 810.064
1068.404, 256.621
1069.646, 483.689
1070.888, 715.607
1072.130, 433.887
1073.372, 467.328
1074.613, 589.002
1075.855, 665.959
1077.096, 496.299
1078.337, 956.195
1079.578, 745.406
1080.818, 1077.650
1082.059, 858.076
1083.299, 1036.293
1084.539, 828.432
1085.779, 728.191
1087.018, 702.326
1088.258, 645.598
1089.497, 509.576
1090.736, 416.434
1091.975, 364.252
1093.213, 296.854
1094.452, 252.193
1095.690, 252.262
1096.928, 249.805
1098.166, 283.283
1099.404, 435.693
1100.642, 184.037
1101.879, 328.432
1103.116, 167.639
1104.353, 400.787
1105.590, 257.865
1106.827, 324.916
1108.063, 267.900
1109.299, 366.826
1110.536, 302.266
1111.771, 239.078
1113.007, 251.812
1114.243, 139.359
1115.478, 8.746
1116.713, 253.750
1117.948, 59.193
1119.183, 5.449
1120.418, 356.789
1121.652, 364.957
1122.886, 422.047
1124.120, 302.369
1125.354, 12.695
1126.588, 160.109
1127.821, 66.828
1129.055, 111.443
1130.288, 144.965
1131.521, 41.393
1132.753, 101.707
1133.986, 39.916
1135.218, 312.010
1136.450, 197.631
1137.682, 204.660
1138.914, 13.320
1140.146, 112.963
1141.377, 188.672
1142.609, 224.844
1143.840, 124.914
1145.071, 80.676
1146.301, 49.982
1147.532, 35.840
1148.762, 6.895
1149.992, 150.119
1151.222, 156.523
1152.452, 125.113
1153.682, 70.826
1154.911, 30.703
1156.140, 70.723
1157.369, 28.871
1158.598, 22.992
1159.827, 5.645
1161.055, 32.891
1162.284, 72.229
1163.512, 156.455
1164.740, 160.570
1165.967, 38.588
1167.195, 262.453
1168.422, 109.205
1169.650, 259.838
1170.877, 81.375
1172.103, 144.811
1173.330, 360.145
1174.557, 336.357
1175.783, 249.465
1177.009, 77.451
1178.235, 348.320
1179.461, 110.096
1180.686, 111.758
1181.912, 313.305
1183.137, 273.301
1184.362, 333.287
1185.587, 230.105
1186.811, 361.244
1188.036, 203.180
1189.260, 182.521
1190.484, 333.299
1191.708, 370.994
1192.932, 63.428
1194.155, 140.443
1195.378, 161.936
1196.602, 238.797
1197.825, 128.107
1199.047, 360.400
1200.270, 366.182
1201.492, 543.475
1202.715, 547.090
1203.937, 482.135
1205.159, 394.314
1206.380, 473.154
1207.602, 113.977
1208.823, 213.629
1210.044, 217.738
1211.265, 457.764
1212.486, 295.646
1213.707, 176.420
1214.927, 484.332
1216.147, 359.879
1217.367, 616.602
1218.587, 520.240
1219.807, 470.238
1221.027, 403.402
1222.246, 349.475
1223.465, 459.451
1224.684, 553.336
1225.903, 466.125
1227.121, 445.820
1228.340, 628.545
1229.558, 682.059
1230.776, 432.482
1231.994, 509.812
1233.212, 646.055
1234.429, 600.201
1235.646, 655.969
1236.864, 831.201
1238.081, 667.029
1239.297, 723.660
1240.514, 767.180
1241.730, 802.580
1242.947, 678.863
1244.163, 724.010
1245.378, 976.025
1246.594, 830.932
1247.810, 646.441
1249.025, 912.148
1250.240, 687.340
1251.455, 856.832
1252.670, 803.113
1253.885, 862.523
1255.099, 672.748
1256.313, 537.959
1257.527, 673.984
1258.741, 724.758
1259.955, 470.350
1261.168, 607.566
1262.382, 695.580
1263.595, 866.160
1264.808, 705.836
1266.021, 744.439
1267.233, 742.998
1268.446, 1028.074
1269.658, 599.189
1270.870, 1118.756
1272.082, 1010.883
1273.294, 896.568
1274.505, 978.504
1275.716, 959.045
1276.928, 782.586
1278.139, 1021.764
1279.349, 725.160
1280.560, 801.746
1281.770, 568.139
1282.981, 509.605
1284.191, 693.033
1285.401, 572.094
1286.610, 575.359
1287.820, 385.416
1289.029, 303.883
1290.239, 541.941
1291.448, 554.939
1292.656, 523.977
1293.865, 687.385
1295.073, 652.605
1296.282, 594.621
1297.490, 662.807
1298.698, 743.441
1299.906, 729.039
1301.113, 664.258
1302.320, 585.322
1303.528, 466.660
1304.735, 485.363
1305.942, 447.600
1307.148, 868.344
1308.355, 603.473
1309.561, 866.865
1310.767, 837.418
1311.973, 827.996
1313.179, 593.035
1314.384, 1030.090
1315.590, 605.412
1316.795, 907.113
1318.000, 719.676
1319.205, 802.893
1320.410, 872.725
1321.614, 742.037
1322.819, 781.262
1324.023, 725.951
1325.227, 736.875
1326.431, 591.014
1327.634, 275.291
1328.838, 353.660
1330.041, 450.947
1331.244, 434.354
1332.447, 90.164
1333.650, 128.287
1334.852, 181.260
1336.055, 50.947
1337.257, 195.664
1338.459, 110.910
1339.661, 358.170
1340.862, 240.246
1342.064, 144.117
1343.265, 128.834
1344.466, 173.863
1345.667, 100.705
1346.868, 114.715
1348.068, 143.771
1349.269, 75.980
1350.469, 249.586
1351.669, 224.074
1352.869, 231.432
1354.069, 361.693
1355.268, 317.902
1356.468, 331.418
1357.667, 369.465
1358.866, 248.430
1360.065, 347.873
1361.263, 74.949
1362.462, 136.355
1363.660, 288.758
1364.858, 243.160
1366.056, 441.498
1367.254, 423.762
1368.451, 329.016
1369.649, 400.236
1370.846, 615.586
1372.043, 256.979
1373.240, 422.275
1374.436, 567.701
1375.633, 328.230
1376.829, 407.730
1378.025, 453.678
1379.221, 478.539
1380.417, 477.279
1381.613, 535.281
1382.808, 430.629
1384.003, 476.789
1385.199, 585.268
1386.393, 380.188
1387.588, 610.367
1388.783, 413.209
1389.977, 389.033
1391.171, 273.336
1392.365, 246.162
1393.559, 424.025
1394.753, 229.377
1395.946, 287.344
1397.140, 177.324
1398.333, 169.129
1399.526, 172.965
1400.719, 183.914
1401.911, 147.488
1403.104, 169.594
1404.296, 112.324
1405.488, 259.652
1406.680, 71.354
1407.872, 150.125
1409.063, 245.338
1410.255, 22.621
1411.446, 330.029
1412.637, 159.654
1413.828, 236.609
1415.018, 243.258
1416.209, 251.588
1417.399, 92.285
1418.589, 95.732
1419.779, 98.688
1420.969, 90.586
1422.159, 89.701
1423.348, 5.238
1424.537, 93.568
1425.726, 2.721
1426.915, 0.000
##END=



