##NAMES=Chrysoberyl
##RRUFFID=R040073
##IDEAL CHEMISTRY=BeAl_2_O_4_
##LOCALITY=Brazil
##OWNER=RRUFF
##SOURCE=University of Arizona Mineral Museum
##DESCRIPTION=Pair of green prismatic crystals
##STATUS=The identification of this mineral has been confirmed by X-ray diffraction and chemical analysis
##URL=rruff.info/R040073
##MEASURED CHEMISTRY=(Be_0.89_Al_0.06_Fe_0.02_)Al_2.00_O_4_
##PIN_ID=M00464
##ORIENTATION=Laser parallel to -c* (0 0 -1). Fiducial mark perpendicular to laser is parallel to a [1 0 0]
88.496, 0.000
89.890, 25.205
91.284, 93.893
92.678, 209.138
94.071, 663.461
95.465, 553.545
96.858, 801.748
98.251, 1223.629
99.644, 1356.095
101.036, 1496.720
102.428, 1683.705
103.820, 1955.930
105.212, 2191.294
106.604, 2064.438
107.995, 2749.683
109.387, 3377.571
110.777, 3647.509
112.168, 2959.059
113.559, 2681.887
114.949, 2185.576
116.339, 2140.626
117.729, 1966.836
119.119, 1745.135
120.508, 1966.310
121.897, 2180.400
123.286, 1915.955
124.675, 1572.978
126.063, 1719.646
127.452, 1987.744
128.840, 2069.232
130.228, 2004.381
131.615, 1537.754
133.003, 1578.337
134.390, 1551.780
135.777, 1833.991
137.164, 1615.546
138.550, 1297.314
139.937, 1377.416
141.323, 1364.137
142.709, 1001.207
144.094, 751.664
145.480, 745.480
146.865, 687.420
148.250, 539.581
149.635, 431.609
151.019, 603.905
152.403, 613.272
153.788, 480.884
155.171, 512.599
156.555, 435.133
157.939, 528.940
159.322, 389.763
160.705, 391.066
162.088, 566.119
163.470, 440.238
164.853, 352.363
166.235, 334.062
167.617, 437.375
168.998, 500.395
170.380, 247.877
171.761, 549.139
173.142, 332.383
174.523, 536.749
175.904, 535.475
177.284, 426.389
178.664, 411.784
180.044, 283.639
181.424, 336.719
182.803, 345.022
184.183, 365.514
185.562, 274.322
186.940, 238.749
188.319, 272.206
189.698, 220.202
191.076, 298.856
192.454, 343.662
193.831, 247.449
195.209, 119.157
196.586, 33.900
197.963, 53.059
199.340, 10.539
200.717, 155.622
202.093, 10.207
203.470, 84.396
204.846, 19.942
206.221, 108.270
207.597, 64.253
208.972, 55.903
210.347, 32.380
211.722, 69.373
213.097, 101.682
214.472, 50.510
215.846, 126.656
217.220, 90.013
218.594, 163.587
219.967, 155.704
221.341, 86.412
222.714, 151.676
224.087, 55.168
225.460, 40.920
226.832, 62.961
228.204, 148.279
229.577, 90.877
230.948, 181.836
232.320, 14.136
233.692, 58.950
235.063, 113.693
236.434, 18.719
237.805, 146.201
239.175, 183.856
240.545, 169.360
241.916, 207.379
243.286, 114.212
244.655, 103.521
246.025, 85.397
247.394, 18.444
248.763, 15.093
250.132, 57.066
251.501, 155.174
252.869, 68.696
254.237, 113.184
255.605, 26.280
256.973, 17.660
258.340, 42.359
259.708, 1.599
261.075, 54.072
262.442, 140.242
263.808, 55.497
265.175, 49.629
266.541, 3.395
267.907, 39.389
269.273, 146.965
270.639, 82.686
272.004, 64.378
273.369, 12.170
274.734, 23.331
276.099, 36.855
277.463, 71.268
278.828, 131.268
280.192, 41.491
281.556, 158.076
282.919, 16.174
284.283, 137.129
285.646, 1.807
287.009, 109.675
288.372, 167.188
289.734, 53.920
291.097, 172.268
292.459, 40.232
293.821, 134.829
295.183, 196.054
296.544, 128.915
297.905, 272.420
299.266, 188.563
300.627, 362.348
301.988, 250.778
303.348, 262.854
304.709, 364.578
306.069, 235.970
307.428, 377.977
308.788, 352.588
310.147, 418.830
311.507, 360.714
312.865, 345.152
314.224, 425.141
315.583, 372.641
316.941, 424.661
318.299, 302.170
319.657, 418.190
321.015, 419.761
322.372, 351.961
323.729, 459.719
325.086, 315.936
326.443, 487.917
327.800, 513.495
329.156, 437.501
330.512, 389.228
331.868, 362.169
333.224, 499.073
334.579, 614.422
335.935, 604.580
337.290, 696.528
338.645, 746.101
339.999, 1016.400
341.354, 1042.963
342.708, 1317.227
344.062, 1367.661
345.416, 1537.098
346.769, 1876.303
348.123, 1745.312
349.476, 1703.748
350.829, 1316.783
352.182, 1273.745
353.534, 1233.185
354.887, 1225.878
356.239, 1482.595
357.591, 1579.739
358.942, 1721.540
360.294, 2159.876
361.645, 2004.518
362.996, 2177.386
364.347, 2263.066
365.698, 2645.665
367.048, 2890.325
368.398, 2913.189
369.748, 2718.007
371.098, 1971.988
372.448, 1549.872
373.797, 1005.139
375.146, 835.991
376.495, 616.724
377.844, 397.603
379.192, 460.610
380.540, 267.852
381.889, 280.388
383.236, 255.328
384.584, 351.535
385.932, 298.563
387.279, 213.569
388.626, 363.390
389.973, 280.754
391.319, 149.690
392.666, 231.159
394.012, 164.853
395.358, 104.010
396.704, 18.294
398.049, 84.077
399.394, 33.241
400.740, 12.221
402.084, 35.055
403.429, 10.864
404.774, 0.501
406.118, 24.973
407.462, 73.422
408.806, 204.509
410.150, 314.003
411.493, 680.516
412.836, 1091.568
414.179, 1881.476
415.522, 3326.832
416.865, 5379.292
418.207, 7217.068
419.549, 7305.203
420.891, 6005.938
422.233, 3754.938
423.575, 2120.231
424.916, 1311.688
426.257, 866.467
427.598, 946.490
428.939, 1394.120
430.279, 2163.529
431.619, 3064.256
432.959, 3356.203
434.299, 3005.558
435.639, 2052.956
436.978, 1237.935
438.318, 765.984
439.657, 551.502
440.996, 449.922
442.334, 258.509
443.673, 376.896
445.011, 390.003
446.349, 359.847
447.687, 423.444
449.024, 299.633
450.361, 538.373
451.699, 685.040
453.036, 1143.556
454.372, 1849.396
455.709, 2837.193
457.045, 3905.527
458.381, 4012.990
459.717, 3191.724
461.053, 2169.640
462.388, 1268.698
463.724, 936.909
465.059, 585.113
466.394, 663.874
467.728, 611.643
469.063, 840.266
470.397, 1118.689
471.731, 1447.301
473.065, 2075.578
474.398, 2683.706
475.732, 2962.085
477.065, 2820.164
478.398, 2188.384
479.731, 1655.906
481.063, 1113.956
482.396, 871.945
483.728, 699.588
485.060, 647.619
486.391, 584.944
487.723, 442.979
489.054, 591.067
490.385, 458.785
491.716, 476.251
493.047, 643.553
494.377, 531.376
495.708, 679.641
497.038, 737.817
498.368, 796.339
499.697, 815.024
501.027, 912.553
502.356, 996.415
503.685, 1162.904
505.014, 1282.113
506.342, 1571.283
507.671, 1880.416
508.999, 2759.511
510.327, 3808.572
511.655, 6287.598
512.982, 10216.591
514.310, 15615.552
515.637, 19964.484
516.964, 19893.381
518.291, 16902.252
519.617, 13181.098
520.944, 10819.928
522.270, 8628.737
523.596, 6527.537
524.921, 5006.316
526.247, 3495.087
527.572, 2513.838
528.897, 1963.885
530.222, 1596.044
531.547, 1484.793
532.871, 1408.086
534.196, 1461.410
535.520, 1782.100
536.844, 1967.663
538.167, 2774.972
539.491, 3507.157
540.814, 5123.935
542.137, 6710.871
543.460, 8677.896
544.783, 9715.299
546.105, 9112.580
547.427, 7989.557
548.749, 5947.207
550.071, 4104.566
551.393, 2991.478
552.714, 2258.803
554.035, 1715.969
555.356, 1452.913
556.677, 1119.271
557.998, 1096.271
559.318, 764.008
560.638, 925.252
561.958, 901.950
563.278, 687.475
564.597, 737.891
565.917, 656.252
567.236, 774.152
568.555, 641.701
569.874, 467.967
571.192, 417.126
572.511, 316.815
573.829, 477.551
575.147, 406.792
576.464, 268.686
577.782, 327.971
579.099, 181.566
580.416, 371.198
581.733, 341.145
583.050, 357.196
584.366, 406.764
585.683, 322.309
586.999, 466.715
588.315, 226.055
589.630, 225.395
590.946, 254.730
592.261, 244.101
593.576, 373.471
594.891, 322.854
596.206, 392.256
597.520, 451.666
598.834, 461.112
600.148, 680.559
601.462, 459.326
602.776, 688.604
604.089, 587.996
605.402, 647.281
606.715, 616.790
608.028, 505.899
609.341, 675.419
610.653, 624.951
611.965, 754.489
613.277, 944.045
614.589, 976.778
615.901, 1313.178
617.212, 1232.756
618.523, 1492.339
619.834, 1741.930
621.145, 1911.523
622.456, 2321.123
623.766, 2590.730
625.076, 2660.342
626.386, 2739.961
627.696, 2279.585
629.006, 2529.215
630.315, 2488.849
631.624, 3058.489
632.933, 4268.137
634.242, 6217.790
635.551, 8897.450
636.859, 10937.119
638.167, 11206.797
639.475, 9456.482
640.783, 6886.173
642.090, 5555.873
643.398, 4315.584
644.705, 3695.303
646.012, 3185.031
647.318, 2814.766
648.625, 2654.508
649.931, 2204.261
651.237, 2194.025
652.543, 1993.799
653.849, 1743.577
655.155, 1773.363
656.460, 1473.155
657.765, 1212.953
659.070, 1142.754
660.375, 732.555
661.679, 832.360
662.984, 692.169
664.288, 701.979
665.592, 601.794
666.895, 441.612
668.199, 551.435
669.502, 301.260
670.805, 261.090
672.108, 300.926
673.411, 250.766
674.713, 260.628
676.016, 170.494
677.318, 260.365
678.620, 280.243
679.921, 210.125
681.223, 190.014
682.524, 119.905
683.825, 189.805
685.126, 20.293
686.427, 60.396
687.727, 89.473
689.028, 80.653
690.328, 80.813
691.628, 31.011
692.927, 131.220
694.227, 38.514
695.526, 81.743
696.825, 157.968
698.124, 87.693
699.423, 47.433
700.721, 197.183
702.020, 196.945
703.318, 136.720
704.616, 196.508
705.913, 86.306
707.211, 286.115
708.508, 465.938
709.805, 495.773
711.102, 515.621
712.399, 145.482
713.695, 85.359
714.992, 34.751
716.288, 84.862
717.584, 104.998
718.879, 155.126
720.175, 65.316
721.470, 205.527
722.765, 5.827
724.060, 113.876
725.355, 136.410
726.649, 73.241
727.944, 2.896
729.238, 17.451
730.532, 102.189
731.825, 38.165
733.119, 51.459
734.412, 68.913
735.705, 169.320
736.998, 0.187
738.291, 110.312
739.584, 9.136
740.876, 101.418
742.168, 82.022
743.460, 117.330
744.752, 46.688
746.043, 166.047
747.334, 45.415
748.626, 154.787
749.916, 174.164
751.207, 283.544
752.498, 162.931
753.788, 242.322
755.078, 101.717
756.368, 331.116
757.658, 170.521
758.947, 389.932
760.237, 379.346
761.526, 538.766
762.815, 660.358
764.104, 677.617
765.392, 937.049
766.680, 1086.486
767.969, 1285.929
769.257, 1835.373
770.544, 2144.822
771.832, 2754.281
773.119, 3483.749
774.406, 4023.223
775.693, 4902.702
776.980, 4912.186
778.267, 5011.670
779.553, 4441.159
780.839, 3670.653
782.125, 3060.149
783.411, 2379.648
784.697, 1799.153
785.982, 1418.660
787.267, 1098.172
788.552, 907.691
789.837, 737.218
791.122, 716.748
792.406, 476.282
793.690, 455.826
794.974, 495.376
796.258, 364.929
797.542, 234.484
798.825, 224.045
800.108, 133.607
801.391, 303.174
802.674, 232.746
803.957, 112.321
805.239, 161.899
806.522, 71.481
807.804, 121.068
809.085, 170.664
810.367, 190.263
811.649, 219.297
812.930, 289.484
814.211, 269.111
815.492, 328.746
816.772, 398.393
818.053, 440.741
819.333, 508.833
820.613, 577.415
821.893, 657.112
823.173, 716.824
824.452, 846.542
825.732, 756.262
827.011, 1015.986
828.290, 1189.787
829.568, 1009.535
830.847, 1229.290
832.125, 1049.053
833.403, 968.819
834.681, 1148.598
835.959, 818.382
837.236, 978.175
838.514, 777.971
839.791, 996.468
841.068, 1052.881
842.345, 812.703
843.621, 1088.005
844.898, 1133.286
846.174, 1031.219
847.450, 1113.539
848.726, 833.249
850.001, 1098.435
851.277, 1138.295
852.552, 1208.160
853.827, 1687.939
855.102, 1577.815
856.376, 1697.694
857.651, 1887.578
858.925, 1867.474
860.199, 1848.054
861.473, 1829.278
862.746, 1517.188
864.020, 1587.098
865.293, 1479.804
866.566, 1216.933
867.839, 1486.856
869.112, 1704.475
870.384, 1729.318
871.656, 739.272
872.928, 969.888
874.200, 755.816
875.472, 843.253
876.744, 1222.324
878.015, 962.305
879.286, 904.068
880.557, 614.061
881.828, 503.548
883.098, 962.038
884.369, 730.328
885.639, 1419.452
886.909, 869.482
888.178, 505.219
889.448, 734.923
890.717, 644.324
891.987, 727.650
893.256, 727.458
894.524, 481.325
895.793, 906.342
897.061, 666.441
898.330, 646.549
899.598, 837.268
900.865, 597.415
902.133, 737.561
903.401, 777.704
904.668, 598.541
905.935, 788.794
907.202, 778.970
908.468, 999.157
909.735, 1059.352
911.001, 889.557
912.267, 1139.770
913.533, 1009.988
914.799, 1180.216
916.064, 1330.451
917.330, 1220.693
918.595, 1881.375
919.860, 1891.631
921.124, 2531.948
922.389, 3022.219
923.653, 3744.040
924.918, 4855.357
926.182, 5866.191
927.445, 6796.504
928.709, 8416.868
929.972, 8727.190
931.236, 9137.522
932.499, 8987.859
933.761, 8198.209
935.024, 7358.561
936.286, 6388.924
937.549, 5359.290
938.811, 4709.779
940.073, 4060.781
941.334, 3362.117
942.596, 2752.508
943.857, 2352.903
945.118, 2174.977
946.379, 1805.382
947.640, 1705.790
948.900, 1676.206
950.161, 1346.626
951.421, 1557.069
952.681, 1197.502
953.940, 1098.252
955.200, 928.693
956.459, 809.178
957.719, 819.626
958.978, 670.403
960.236, 761.858
961.495, 782.656
962.753, 563.356
964.012, 676.092
965.270, 557.510
966.527, 319.324
967.785, 561.752
969.043, 253.852
970.300, 336.763
971.557, 251.172
972.814, 81.816
974.071, 215.341
975.327, 55.993
976.583, 26.496
977.840, 177.215
979.095, 102.043
980.351, 72.062
981.607, 93.454
982.862, 15.018
984.117, 385.657
985.372, 188.397
986.627, 359.018
987.882, 341.107
989.136, 41.656
990.390, 272.803
991.644, 163.395
992.898, 79.009
994.152, 181.413
995.405, 236.994
996.659, 249.022
997.912, 88.457
999.165, 150.945
1000.417, 124.172
1001.670, 93.641
1002.922, 187.804
1004.174, 52.713
1005.426, 144.879
1006.678, 146.476
1007.930, 189.482
1009.181, 144.064
1010.432, 125.086
1011.683, 196.062
1012.934, 217.160
1014.185, 159.904
1015.435, 205.797
1016.685, 67.585
1017.935, 91.191
1019.185, 187.399
1020.435, 136.121
1021.684, 184.130
1022.934, 193.813
1024.183, 30.570
1025.432, 168.684
1026.680, 176.505
1027.929, 50.225
1029.177, 178.263
1030.425, 70.529
1031.673, 47.382
1032.921, 87.134
1034.169, 60.903
1035.416, 140.837
1036.663, 118.487
1037.911, 87.971
1039.157, 96.184
1040.404, 68.336
1041.650, 96.791
1042.897, 59.218
1044.143, 93.527
1045.389, 142.242
1046.634, 69.419
1047.880, 125.049
1049.125, 18.344
1050.371, 4.766
1051.615, 11.771
1052.860, 123.092
1054.105, 18.546
1055.349, 0.119
1056.593, 88.290
1057.837, 80.795
1059.081, 112.266
1060.325, 25.908
1061.568, 50.284
1062.812, 43.744
1064.055, 143.660
1065.298, 159.825
1066.540, 75.213
1067.783, 9.279
1069.025, 97.895
1070.267, 24.083
1071.509, 47.729
1072.751, 29.562
1073.993, 19.840
1075.234, 9.570
1076.475, 45.340
1077.716, 35.386
1078.957, 56.597
1080.198, 48.367
1081.438, 71.635
1082.679, 91.533
1083.919, 103.022
1085.159, 82.876
1086.398, 122.715
1087.638, 32.963
1088.877, 7.229
1090.116, 12.896
1091.355, 147.471
1092.594, 153.487
1093.833, 24.327
1095.071, 128.364
1096.309, 77.730
1097.547, 88.246
1098.785, 75.940
1100.023, 70.391
1101.260, 79.790
1102.498, 4.082
1103.735, 113.860
1104.972, 72.001
1106.208, 133.120
1107.445, 6.487
1108.681, 7.910
1109.918, 7.002
1111.154, 32.521
1112.389, 27.701
1113.625, 5.426
1114.860, 11.762
1116.096, 21.319
1117.331, 15.607
1118.566, 28.063
1119.800, 51.474
1121.035, 64.203
1122.269, 36.484
1123.503, 66.613
1124.737, 104.011
1125.971, 53.390
1127.205, 49.460
1128.438, 46.725
1129.671, 2.903
1130.904, 5.399
1132.137, 68.891
1133.370, 23.398
1134.602, 75.558
1135.834, 12.378
1137.066, 94.900
1138.298, 3.858
1139.530, 89.565
1140.762, 36.272
1141.993, 9.015
1143.224, 30.451
1144.455, 109.076
1145.686, 37.006
1146.917, 124.875
1148.147, 72.117
1149.377, 110.486
1150.607, 98.301
1151.837, 23.090
1153.067, 127.613
1154.296, 68.908
1155.526, 119.916
1156.755, 7.005
1157.984, 83.872
1159.213, 126.549
1160.441, 159.365
1161.670, 151.741
1162.898, 126.196
1164.126, 130.458
1165.354, 86.554
1166.581, 26.638
1167.809, 3.156
1169.036, 75.785
1170.263, 127.132
1171.490, 33.075
1172.717, 95.289
1173.943, 87.050
1175.170, 146.084
1176.396, 77.661
1177.622, 161.065
1178.848, 39.555
1180.073, 138.008
1181.299, 176.609
1182.524, 8.240
1183.749, 174.338
1184.974, 24.476
1186.199, 71.212
1187.423, 105.204
1188.648, 42.654
1189.872, 167.562
1191.096, 6.253
1192.320, 32.754
1193.543, 147.502
1194.767, 73.769
1195.990, 184.974
1197.213, 110.350
1198.436, 2.938
1199.659, 157.457
1200.881, 36.003
1202.104, 98.807
1203.326, 8.747
1204.548, 8.693
1205.770, 96.483
1206.991, 24.660
1208.213, 95.419
1209.434, 159.614
1210.655, 58.019
1211.876, 81.047
1213.096, 56.806
1214.317, 136.046
1215.537, 190.816
1216.757, 34.595
1217.977, 142.687
1219.197, 67.795
1220.417, 186.587
1221.636, 0.093
1222.855, 3.416
1224.074, 171.712
1225.293, 112.230
1226.512, 197.421
1227.731, 11.636
1228.949, 13.553
1230.167, 164.163
1231.385, 26.511
1232.603, 201.102
1233.820, 65.571
1235.038, 49.651
1236.255, 168.848
1237.472, 85.280
1238.689, 178.061
1239.906, 129.309
1241.122, 201.821
1242.338, 156.133
1243.555, 41.776
1244.771, 189.969
1245.986, 139.772
1247.202, 12.665
1248.417, 110.209
1249.633, 173.675
1250.848, 154.667
1252.063, 189.038
1253.277, 157.051
1254.492, 42.360
1255.706, 71.264
1256.920, 121.228
1258.134, 42.243
1259.348, 72.117
1260.562, 140.065
1261.775, 84.254
1262.988, 54.008
1264.201, 95.830
1265.414, 78.467
1266.627, 33.583
1267.839, 107.215
1269.052, 46.382
1270.264, 149.856
1271.476, 118.381
1272.688, 161.080
1273.899, 35.449
1275.111, 80.460
1276.322, 20.481
1277.533, 59.079
1278.744, 126.855
1279.955, 173.494
1281.165, 152.059
1282.376, 49.658
1283.586, 20.678
1284.796, 38.963
1286.006, 84.389
1287.215, 46.938
1288.425, 36.645
1289.634, 37.154
1290.843, 63.146
1292.052, 45.768
1293.261, 127.094
1294.469, 170.160
1295.678, 157.801
1296.886, 83.408
1298.094, 0.391
1299.302, 7.797
1300.509, 25.412
1301.717, 9.430
1302.924, 12.922
1304.131, 35.207
1305.338, 74.738
1306.545, 86.039
1307.752, 65.965
1308.958, 9.168
1310.164, 15.227
1311.370, 48.441
1312.576, 35.344
1313.782, 113.002
1314.987, 77.271
1316.193, 154.740
1317.398, 125.092
1318.603, 174.346
1319.807, 25.551
1321.012, 20.098
1322.216, 20.621
1323.421, 177.689
1324.625, 63.564
1325.829, 132.256
1327.032, 13.125
1328.236, 144.055
1329.439, 127.342
1330.642, 25.227
1331.845, 77.668
1333.048, 175.211
1334.251, 54.943
1335.453, 100.199
1336.656, 19.873
1337.858, 174.652
1339.060, 176.355
1340.261, 112.758
1341.463, 28.621
1342.664, 61.551
1343.866, 109.975
1345.067, 126.537
1346.267, 167.449
1347.468, 61.688
1348.669, 96.475
1349.869, 160.869
1351.069, 157.361
1352.269, 2.619
1353.469, 40.721
1354.668, 46.355
1355.868, 35.098
1357.067, 69.336
1358.266, 109.627
1359.465, 93.100
1360.664, 64.070
1361.862, 84.465
1363.061, 55.881
1364.259, 53.941
1365.457, 97.836
1366.655, 12.775
1367.852, 119.389
1369.050, 24.830
1370.247, 19.383
1371.444, 48.010
1372.641, 109.217
1373.838, 167.285
1375.035, 21.805
1376.231, 63.613
1377.427, 86.098
1378.623, 37.328
1379.819, 168.855
1381.015, 99.348
1382.211, 58.596
1383.406, 101.100
1384.601, 83.396
1385.796, 49.350
1386.991, 121.900
1388.185, 19.855
1389.380, 144.873
1390.574, 97.838
1391.768, 169.184
1392.962, 172.766
1394.156, 136.494
1395.350, 141.242
1396.543, 57.158
1397.736, 158.262
1398.929, 22.053
1400.122, 141.982
1401.315, 41.475
1402.507, 4.594
1403.700, 39.031
1404.892, 144.682
1406.084, 38.430
1407.276, 105.387
1408.467, 109.381
1409.659, 26.893
1410.850, 142.951
1412.041, 26.752
1413.232, 151.404
1414.423, 79.076
1415.614, 20.504
1416.804, 32.609
1417.994, 70.785
1419.184, 184.109
1420.374, 70.812
1421.564, 118.869
1422.753, 57.822
1423.943, 112.943
1425.132, 125.672
1426.321, 14.363
1427.510, 162.725
1428.698, 94.006
1429.887, 156.811
1431.075, 190.285
1432.263, 104.971
1433.451, 78.297
1434.639, 42.088
1435.827, 74.869
1437.014, 129.348
1438.201, 23.180
1439.388, 131.312
1440.575, 108.002
1441.762, 144.428
1442.949, 127.664
1444.135, 129.803
1445.321, 70.969
1446.507, 73.842
1447.693, 46.814
1448.879, 4.441
1450.064, 0.049
1451.250, 48.234
1452.435, 20.738
1453.620, 171.514
1454.805, 69.416
1455.989, 127.133
1457.174, 40.660
1458.358, 121.449
1459.542, 71.307
1460.726, 122.598
1461.910, 58.652
1463.093, 114.549
1464.277, 190.211
1465.460, 190.859
1466.643, 32.150
1467.826, 120.984
1469.009, 3.918
1470.191, 91.379
1471.373, 66.961
1472.556, 122.764
1473.738, 16.158
1474.919, 29.039
1476.101, 27.961
1477.283, 27.643
1478.464, 83.889
1479.645, 172.836
1480.826, 182.234
1482.007, 168.701
1483.187, 142.408
1484.368, 88.803
1485.548, 84.660
1486.728, 64.318
1487.908, 33.857
1489.088, 103.566
1490.268, 127.264
1491.447, 26.385
1492.626, 84.697
1493.805, 11.223
1494.984, 155.816
1496.163, 4.629
1497.341, 117.908
1498.520, 199.643
1499.698, 176.238
1500.876, 194.936
1502.054, 72.451
1503.232, 3.697
1504.409, 61.219
1505.586, 72.516
1506.763, 151.893
1507.940, 19.246
1509.117, 0.000
##END=



