##NAMES=Clinozoisite
##RRUFFID=R060284
##IDEAL CHEMISTRY=Ca_2_Al_3_(Si_2_O_7_)(SiO_4_)O(OH)
##LOCALITY=near Zagi Mountain, Khaffor Dehri, North-West Frontier Province, Pakistan
##OWNER=RRUFF
##SOURCE=Herb Obodda
##DESCRIPTION=Greenish-brown fragment of a prismatic crystal
##STATUS=The identification of this mineral has been confirmed by X-ray diffraction and chemical analysis
##URL=rruff.info/R060284
##MEASURED CHEMISTRY=Ca_2.00_(Al_0.90_Fe^3+^_0.10_)_3_(Si_1.00_O_4_)(Si_2.00_O_7_)O(OH)
##PIN_ID=L00714
##ORIENTATION=Laser parallel to c* (0 0 1). Fiducial mark perpendicular to laser is parallel to a [1 0 0]
118.1340, 0.0000000E+00
119.3650, 7.720703
120.5960, 58.35352
121.8270, 73.18359
123.0580, 186.8838
124.2880, 254.8213
125.5190, 295.9746
126.7490, 409.7373
127.9790, 401.1133
129.2090, 664.7891
130.4390, 796.5273
131.6680, 1066.537
132.8980, 1205.460
134.1270, 1402.964
135.3560, 1888.579
136.5850, 2439.418
137.8140, 2964.622
139.0430, 3695.919
140.2710, 4024.789
141.5000, 4188.211
142.7280, 4651.652
143.9560, 4569.755
145.1840, 4587.865
146.4120, 4683.084
147.6390, 4409.319
148.8670, 4266.325
150.0940, 4227.486
151.3210, 4151.038
152.5490, 4012.254
153.7750, 3872.457
155.0020, 3739.204
156.2290, 3616.866
157.4550, 3330.506
158.6810, 3145.158
159.9080, 3136.274
161.1340, 2761.610
162.3590, 2515.321
163.5850, 2427.234
164.8110, 2201.757
166.0360, 1954.859
167.2610, 1985.511
168.4860, 1916.684
169.7110, 2062.355
170.9360, 2225.505
172.1610, 2053.104
173.3850, 2208.105
174.6100, 2232.456
175.8340, 2119.102
177.0580, 1754.016
178.2820, 1560.193
179.5050, 1105.645
180.7290, 788.3779
181.9520, 454.3994
183.1760, 158.7129
184.3990, 116.3301
185.6220, 54.25195
186.8450, 38.51367
188.0670, 81.87305
189.2900, 125.0244
190.5120, 181.7021
191.7340, 231.6133
192.9560, 241.2900
194.1780, 181.0527
195.4000, 168.2686
196.6220, 225.9678
197.8430, 343.1836
199.0640, 385.9463
200.2860, 248.2881
201.5070, 241.2402
202.7270, 102.8359
203.9480, 16.89062
205.1690, 42.91211
206.3890, 134.2148
207.6090, 443.7773
208.8290, 580.5781
210.0490, 656.5742
211.2690, 754.7188
212.4890, 872.4814
213.7080, 1068.312
214.9280, 1108.747
216.1470, 1120.280
217.3660, 1260.923
218.5850, 1076.681
219.8030, 1197.562
221.0220, 1200.569
222.2400, 1248.713
223.4590, 1281.965
224.6770, 1746.177
225.8950, 2078.247
227.1120, 2587.044
228.3300, 3120.484
229.5480, 3925.556
230.7650, 4840.982
231.9820, 5891.729
233.1990, 6816.789
234.4160, 7801.800
235.6330, 8420.988
236.8490, 9052.426
238.0660, 9413.125
239.2820, 9401.087
240.4980, 9410.311
241.7140, 9441.792
242.9300, 9579.542
244.1460, 9924.738
245.3610, 10411.82
246.5770, 10947.36
247.7920, 12062.16
249.0070, 12972.23
250.2220, 13934.56
251.4370, 14661.16
252.6510, 15135.03
253.8660, 15099.17
255.0800, 14660.58
256.2940, 14131.44
257.5080, 13338.06
258.7220, 12868.53
259.9360, 11329.69
261.1490, 9810.382
262.3630, 8655.471
263.5760, 8294.446
264.7890, 8075.577
266.0020, 7978.422
267.2150, 8144.786
268.4270, 8326.292
269.6400, 9325.006
270.8520, 9986.685
272.0640, 10631.28
273.2760, 11751.78
274.4880, 12481.14
275.7000, 13104.31
276.9120, 13156.29
278.1230, 12657.07
279.3340, 11930.66
280.5450, 10873.08
281.7560, 9624.312
282.9670, 8491.280
284.1780, 7648.931
285.3880, 6949.225
286.5980, 6420.182
287.8090, 6044.857
289.0190, 5583.303
290.2290, 5203.557
291.4380, 5200.656
292.6480, 4880.637
293.8570, 4916.517
295.0670, 4455.328
296.2760, 4298.002
297.4850, 4662.287
298.6930, 4489.349
299.9020, 4522.730
301.1110, 4747.455
302.3190, 4463.079
303.5270, 4601.128
304.7350, 4602.365
305.9430, 4817.094
307.1510, 5013.744
308.3580, 5169.516
309.5660, 5251.497
310.7730, 5287.271
311.9800, 5331.068
313.1870, 5216.660
314.3940, 5095.448
315.6010, 4987.438
316.8070, 4985.623
318.0130, 4935.006
319.2200, 4939.585
320.4260, 4986.359
321.6310, 5291.327
322.8370, 5222.492
324.0430, 5510.850
325.2480, 5625.401
326.4540, 5769.275
327.6590, 5915.929
328.8640, 6437.176
330.0680, 6976.781
331.2730, 7642.631
332.4780, 8422.899
333.6820, 9231.343
334.8860, 10265.96
336.0900, 11127.88
337.2940, 11989.52
338.4980, 12894.35
339.7010, 13871.74
340.9050, 14265.68
342.1080, 14971.76
343.3110, 15254.21
344.5140, 15737.71
345.7170, 15999.58
346.9200, 16462.59
348.1220, 16839.00
349.3240, 17213.62
350.5270, 17462.73
351.7290, 17260.87
352.9310, 16623.71
354.1320, 15533.72
355.3340, 14185.91
356.5350, 12482.28
357.7370, 10951.83
358.9380, 9476.563
360.1390, 8032.475
361.3400, 6942.565
362.5400, 6008.837
363.7410, 5320.289
364.9410, 4627.921
366.1410, 4305.736
367.3410, 3903.731
368.5410, 3548.907
369.7410, 3411.266
370.9400, 2942.807
372.1400, 2654.533
373.3390, 2500.446
374.5380, 2081.547
375.7370, 1807.840
376.9360, 1480.325
378.1350, 1061.005
379.3330, 1161.881
380.5310, 959.9512
381.7300, 1158.216
382.9280, 1245.674
384.1260, 1627.324
385.3230, 2073.167
386.5210, 2655.199
387.7180, 2875.423
388.9160, 3383.835
390.1130, 3796.632
391.3100, 3998.785
392.5060, 4267.461
393.7030, 4478.129
394.9000, 4507.763
396.0960, 4341.518
397.2920, 4159.635
398.4880, 3752.195
399.6840, 3302.167
400.8800, 2532.291
402.0750, 1982.333
403.2710, 1224.984
404.4660, 786.1455
405.6610, 211.0107
406.8560, 315.9658
408.0510, 534.8652
409.2450, 605.7930
410.4400, 555.7559
411.6340, 377.7725
412.8280, 128.2471
414.0220, 519.3896
415.2160, 1304.653
416.4100, 2335.040
417.6030, 3395.549
418.7970, 4946.182
419.9900, 6804.942
421.1830, 9086.825
422.3760, 11734.84
423.5690, 15002.98
424.7610, 17398.25
425.9540, 19889.64
427.1460, 21060.17
428.3380, 21906.83
429.5300, 21351.63
430.7220, 20062.56
431.9140, 18645.63
433.1050, 16841.84
434.2970, 15337.18
435.4880, 13974.66
436.6790, 13321.29
437.8700, 13099.06
439.0610, 13339.96
440.2510, 14301.02
441.4420, 15884.22
442.6320, 17743.58
443.8220, 20990.11
445.0120, 24357.80
446.2020, 28214.66
447.3910, 32492.71
448.5810, 37170.96
449.7700, 41166.44
450.9600, 45327.11
452.1490, 47293.00
453.3370, 48899.12
454.5260, 49037.47
455.7150, 47764.05
456.9030, 45845.86
458.0910, 43931.89
459.2800, 40337.16
460.4670, 37535.63
461.6550, 34941.30
462.8430, 33107.21
464.0300, 31464.59
465.2180, 30291.81
466.4050, 29580.46
467.5920, 29138.35
468.7790, 29241.47
469.9650, 29393.86
471.1520, 29291.51
472.3380, 29283.42
473.5250, 29301.63
474.7110, 28766.15
475.8970, 28530.99
477.0820, 27869.18
478.2680, 27158.71
479.4540, 26586.57
480.6390, 25919.79
481.8240, 24543.38
483.0090, 23900.30
484.1940, 22500.55
485.3780, 20864.12
486.5630, 19032.05
487.7470, 17433.33
488.9320, 15624.94
490.1160, 13868.86
491.3000, 12327.50
492.4830, 11211.45
493.6670, 9446.080
494.8500, 8488.929
496.0340, 7601.977
497.2170, 7200.230
498.4000, 6683.688
499.5820, 6743.338
500.7650, 6751.178
501.9480, 7020.164
503.1300, 7439.316
504.3120, 7922.635
505.4940, 8609.102
506.6760, 9172.738
507.8580, 9577.539
509.0390, 9588.492
510.2210, 9363.592
511.4020, 8942.835
512.5830, 8314.202
513.7640, 7681.685
514.9450, 7131.277
516.1250, 6555.982
517.3060, 5806.797
518.4860, 5406.719
519.6660, 4768.746
520.8460, 4055.467
522.0260, 3490.104
523.2060, 2735.424
524.3850, 2176.836
525.5650, 1807.339
526.7440, 1156.928
527.9230, 912.6006
529.1020, 357.3574
530.2810, 255.1953
531.4590, 21.11230
532.6380, 294.1729
533.8160, 299.9531
534.9940, 754.0420
536.1720, 627.3564
537.3500, 782.8457
538.5270, 624.5811
539.7050, 627.4941
540.8820, 359.5928
542.0590, 400.7656
543.2360, 260.0322
544.4130, 245.3408
545.5900, 16.68652
546.7660, 152.0049
547.9430, 326.7529
549.1190, 447.9141
550.2950, 692.8682
551.4710, 1214.896
552.6470, 1539.064
553.8220, 2021.267
554.9980, 2595.349
556.1730, 3057.482
557.3480, 3743.670
558.5230, 4596.907
559.6980, 5622.195
560.8730, 6941.531
562.0470, 8717.911
563.2220, 11067.34
564.3960, 14056.81
565.5700, 17861.33
566.7440, 22254.89
567.9170, 27665.48
569.0910, 33318.12
570.2640, 37940.79
571.4380, 39367.50
572.6110, 37453.25
573.7840, 34324.03
574.9570, 28990.83
576.1290, 23252.67
577.3020, 17976.54
578.4740, 13578.44
579.6460, 10420.62
580.8180, 8353.130
581.9900, 6970.244
583.1620, 6275.252
584.3330, 5990.711
585.5040, 5687.719
586.6760, 5874.049
587.8470, 6454.014
589.0180, 7018.111
590.1880, 7813.651
591.3590, 8262.952
592.5290, 9247.020
593.7000, 9808.763
594.8700, 10736.99
596.0400, 11827.99
597.2090, 12991.39
598.3790, 14289.73
599.5490, 15761.83
600.7180, 17388.91
601.8870, 18801.92
603.0560, 19994.93
604.2250, 21069.90
605.3940, 21320.06
606.5620, 20940.36
607.7300, 19845.34
608.8990, 18620.37
610.0670, 16772.25
611.2350, 15189.01
612.4020, 13200.33
613.5700, 11703.81
614.7370, 10361.02
615.9050, 9209.556
617.0720, 8052.701
618.2390, 7404.414
619.4060, 6458.062
620.5720, 5543.949
621.7390, 4623.121
622.9050, 4003.371
624.0710, 3461.607
625.2370, 2984.242
626.4030, 2479.397
627.5690, 2108.815
628.7340, 2043.499
629.9000, 1678.488
631.0650, 1510.763
632.2300, 1353.345
633.3950, 1156.137
634.5600, 1127.653
635.7240, 1037.443
636.8890, 923.6055
638.0530, 829.4541
639.2170, 782.6162
640.3810, 781.1094
641.5450, 823.1641
642.7080, 806.7197
643.8720, 812.3252
645.0350, 976.6738
646.1980, 1126.553
647.3610, 1313.702
648.5240, 1600.162
649.6870, 1812.017
650.8490, 2288.209
652.0120, 2751.254
653.1740, 3243.145
654.3360, 3681.738
655.4980, 4016.329
656.6600, 4241.774
657.8210, 4502.588
658.9830, 4383.635
660.1440, 4231.501
661.3050, 4083.616
662.4660, 4056.463
663.6270, 3964.524
664.7870, 3802.617
665.9480, 3580.224
667.1080, 3398.336
668.2680, 3410.410
669.4280, 3316.372
670.5880, 3158.054
671.7480, 2890.395
672.9070, 2765.419
674.0670, 2728.959
675.2260, 2685.544
676.3850, 2633.203
677.5440, 2638.773
678.7030, 2649.018
679.8610, 2807.850
681.0200, 3023.305
682.1780, 3257.633
683.3360, 3365.074
684.4940, 3674.924
685.6520, 3841.283
686.8090, 4113.953
687.9670, 4258.477
689.1240, 4390.568
690.2810, 4605.246
691.4380, 4580.539
692.5950, 4620.764
693.7520, 4680.889
694.9080, 4699.865
696.0650, 4745.696
697.2210, 4824.377
698.3770, 4902.910
699.5330, 4870.289
700.6880, 4758.119
701.8440, 4601.600
702.9990, 4349.527
704.1550, 4027.300
705.3100, 3695.921
706.4650, 3368.406
707.6190, 3035.699
708.7740, 2658.855
709.9290, 2291.687
711.0830, 1936.650
712.2370, 1544.388
713.3910, 1327.918
714.5450, 1100.290
715.6980, 936.5039
716.8520, 782.7812
718.0050, 613.4512
719.1580, 543.1816
720.3110, 409.7471
721.4640, 309.1396
722.6170, 283.3994
723.7700, 255.3740
724.9220, 242.2041
726.0740, 116.8389
727.2260, 89.24414
728.3780, 39.40820
729.5300, 63.30957
730.6810, 47.95801
731.8330, 13.65527
732.9840, 37.55957
734.1350, 34.47266
735.2860, 57.32129
736.4370, 25.10986
737.5880, 6.234863
738.7380, 22.64893
739.8880, 111.6406
741.0390, 119.3027
742.1890, 167.5918
743.3380, 156.2529
744.4880, 48.27930
745.6380, 108.6123
746.7870, 127.2842
747.9360, 222.3042
749.0850, 142.7212
750.2340, 74.49121
751.3830, 222.5796
752.5310, 189.0615
753.6800, 196.9185
754.8280, 289.1548
755.9760, 173.8154
757.1240, 207.8398
758.2720, 167.2432
759.4190, 239.0044
760.5670, 196.1577
761.7140, 231.6792
762.8610, 114.5869
764.0080, 174.8159
765.1550, 167.3955
766.3020, 128.3101
767.4480, 185.5688
768.5950, 115.1660
769.7410, 93.07471
770.8870, 133.2808
772.0330, 181.8032
773.1780, 127.6631
774.3240, 170.8301
775.4690, 171.3257
776.6140, 134.1450
777.7590, 129.2290
778.9040, 15.31396
780.0490, 62.32324
781.1940, 53.21680
782.3380, 23.35693
783.4820, 101.7271
784.6260, 96.36279
785.7700, 48.26074
786.9140, 52.39014
788.0580, 36.75049
789.2010, 11.66992
790.3450, 121.8984
791.4880, 130.9634
792.6310, 36.86523
793.7730, 100.5957
794.9160, 52.16406
796.0590, 97.56641
797.2010, 93.81250
798.3430, 169.9014
799.4850, 191.5352
800.6270, 336.6357
801.7690, 286.2891
802.9100, 358.8037
804.0520, 449.1807
805.1930, 398.4258
806.3340, 380.5410
807.4750, 562.5225
808.6160, 640.3779
809.7560, 569.1113
810.8970, 708.7744
812.0370, 885.3691
813.1770, 1112.991
814.3170, 1009.613
815.4570, 1070.273
816.5960, 1226.937
817.7360, 1367.606
818.8750, 1347.229
820.0140, 1547.815
821.1530, 1693.338
822.2920, 1855.795
823.4310, 2057.151
824.5690, 2092.396
825.7070, 2345.531
826.8460, 2508.557
827.9840, 2542.473
829.1220, 2823.283
830.2590, 2854.984
831.3970, 3030.582
832.5340, 3256.074
833.6710, 3249.463
834.8080, 3526.749
835.9450, 3640.935
837.0820, 3759.021
838.2190, 3935.008
839.3550, 4022.896
840.4910, 4265.689
841.6270, 4379.389
842.7630, 4481.990
843.8990, 4600.502
845.0350, 4668.924
846.1700, 4838.254
847.3060, 5256.497
848.4410, 5212.650
849.5760, 5695.718
850.7100, 5901.702
851.8450, 6212.600
852.9800, 6504.417
854.1140, 6941.153
855.2480, 7438.397
856.3820, 8089.570
857.5160, 8640.930
858.6500, 9365.339
859.7830, 10112.25
860.9170, 11196.55
862.0500, 12301.48
863.1830, 13506.72
864.3160, 15013.77
865.4480, 16757.33
866.5810, 18430.07
867.7130, 20540.99
868.8460, 22377.18
869.9780, 24156.83
871.1100, 25888.65
872.2410, 26901.02
873.3730, 28067.39
874.5050, 28528.94
875.6360, 28857.46
876.7670, 28991.99
877.8980, 29188.46
879.0290, 29355.93
880.1590, 29310.13
881.2900, 29805.15
882.4200, 29543.43
883.5500, 29501.59
884.6800, 29146.86
885.8100, 29269.19
886.9400, 29404.89
888.0690, 29580.39
889.1990, 29958.09
890.3280, 30922.43
891.4570, 31846.10
892.5860, 33137.14
893.7140, 34395.20
894.8430, 35350.97
895.9710, 35617.41
897.1000, 35963.72
898.2280, 35430.98
899.3560, 34381.79
900.4830, 33032.05
901.6110, 31519.03
902.7380, 29959.67
903.8660, 28687.99
904.9930, 27441.96
906.1200, 27179.56
907.2460, 26474.90
908.3730, 26602.48
909.5000, 26802.76
910.6260, 27121.62
911.7520, 27373.74
912.8780, 27641.51
914.0040, 27650.92
915.1290, 27483.73
916.2550, 26797.01
917.3800, 26015.22
918.5050, 24810.68
919.6300, 23947.59
920.7550, 22723.19
921.8800, 21474.18
923.0040, 20842.28
924.1290, 19910.72
925.2530, 18982.24
926.3770, 18534.87
927.5010, 17674.74
928.6250, 17289.58
929.7480, 16458.50
930.8720, 16041.99
931.9950, 15426.19
933.1180, 14836.50
934.2410, 14310.51
935.3640, 13528.71
936.4860, 12813.64
937.6090, 12296.49
938.7310, 11276.78
939.8530, 10681.51
940.9750, 9781.229
942.0970, 9407.031
943.2180, 8773.065
944.3400, 8137.195
945.4610, 7783.422
946.5820, 7016.754
947.7030, 6853.197
948.8240, 6538.730
949.9450, 6094.376
951.0650, 6035.118
952.1860, 5964.947
953.3060, 5972.874
954.4260, 6021.898
955.5460, 6133.025
956.6650, 6202.256
957.7850, 6134.592
958.9040, 6166.041
960.0230, 6326.600
961.1420, 6413.266
962.2610, 6342.047
963.3800, 6646.932
964.4990, 6710.920
965.6170, 6552.007
966.7350, 6382.197
967.8530, 6357.490
968.9710, 6504.893
970.0890, 6417.399
971.2070, 6554.013
972.3240, 6847.738
973.4410, 7024.566
974.5580, 7804.496
975.6750, 8730.535
976.7920, 9843.682
977.9090, 11226.95
979.0250, 12943.33
980.1410, 14846.81
981.2580, 17242.42
982.3740, 19248.12
983.4890, 20961.94
984.6050, 22223.87
985.7200, 22545.92
986.8360, 22045.07
987.9510, 20756.37
989.0660, 18877.79
990.1810, 16534.34
991.2950, 14210.03
992.4100, 11955.84
993.5240, 9879.778
994.6390, 8353.853
995.7530, 6843.067
996.8660, 5793.417
997.9800, 4833.928
999.0940, 4085.600
1000.207, 3349.445
1001.320, 2764.457
1002.433, 2338.634
1003.546, 1865.994
1004.659, 1528.543
1005.772, 1228.273
1006.884, 928.2471
1007.996, 782.3066
1009.108, 526.5996
1010.220, 419.0742
1011.332, 381.7236
1012.444, 196.5840
1013.555, 233.6680
1014.666, 296.9746
1015.777, 206.4707
1016.888, 299.1787
1017.999, 374.0947
1019.110, 449.2461
1020.220, 701.6094
1021.331, 876.1670
1022.441, 1318.317
1023.551, 1674.450
1024.661, 2158.941
1025.770, 2737.021
1026.880, 3150.734
1027.989, 3659.677
1029.098, 4085.951
1030.207, 4326.432
1031.316, 4438.016
1032.425, 4436.193
1033.533, 4276.635
1034.642, 3976.959
1035.750, 3697.984
1036.858, 3642.750
1037.966, 3632.640
1039.073, 3552.793
1040.181, 3613.847
1041.288, 3815.626
1042.396, 4019.652
1043.503, 4292.583
1044.610, 4358.846
1045.716, 4644.680
1046.823, 4731.856
1047.929, 4831.677
1049.036, 4948.603
1050.142, 4710.872
1051.248, 4560.978
1052.353, 4406.387
1053.459, 4143.272
1054.564, 3911.958
1055.670, 3588.150
1056.775, 3246.762
1057.880, 2838.789
1058.985, 2492.158
1060.089, 2313.896
1061.194, 1962.354
1062.298, 1754.942
1063.402, 1622.573
1064.506, 1530.341
1065.610, 1305.168
1066.713, 1414.480
1067.817, 1468.519
1068.920, 1484.185
1070.023, 1719.568
1071.126, 1996.961
1072.229, 2412.297
1073.332, 2855.630
1074.435, 3322.582
1075.537, 4144.169
1076.639, 4881.472
1077.741, 5791.980
1078.843, 6919.567
1079.945, 7857.765
1081.046, 9066.018
1082.148, 10458.22
1083.249, 12239.97
1084.350, 14110.39
1085.451, 16522.01
1086.551, 19102.27
1087.652, 22047.87
1088.752, 25190.74
1089.853, 28872.44
1090.953, 32164.73
1092.053, 35380.73
1093.152, 37188.50
1094.252, 37358.98
1095.351, 36182.33
1096.451, 33115.24
1097.550, 28364.29
1098.649, 23586.70
1099.748, 18836.93
1100.846, 14729.46
1101.945, 11391.98
1103.043, 8831.952
1104.141, 6920.311
1105.239, 5681.895
1106.337, 4480.414
1107.434, 4017.796
1108.532, 4034.046
1109.629, 2864.435
1110.726, 2407.496
1111.823, 3099.873
1112.920, 2102.501
1114.017, 1810.435
1115.113, 1559.051
1116.210, 1552.433
1117.306, 1352.188
1118.402, 1288.953
1119.498, 1159.466
1120.593, 1062.188
1121.689, 923.7617
1122.784, 875.4619
1123.879, 822.4824
1124.974, 702.2627
1126.069, 748.0400
1127.164, 660.5352
1128.259, 610.3662
1129.353, 605.7910
1130.447, 443.4326
1131.541, 471.9502
1132.635, 359.4023
1133.729, 359.4736
1134.822, 476.9951
1135.916, 557.9844
1137.009, 332.3359
1138.102, 164.1953
1139.195, 371.5098
1140.288, 52.52441
1141.380, 297.2148
1142.473, 191.2959
1143.565, 177.0654
1144.657, 197.3496
1145.749, 62.60840
1146.841, 90.47070
1147.932, 213.7334
1149.024, 124.4014
1150.115, 61.36426
1151.206, 112.2070
1152.297, 107.2900
1153.388, 25.83594
1154.479, 132.8555
1155.569, 16.72559
1156.659, 36.76758
1157.750, 122.9033
1158.839, 29.68457
1159.929, 92.12207
1161.019, 119.0840
1162.108, 113.2637
1163.198, 17.07617
1164.287, 169.1943
1165.376, 203.0977
1166.465, 143.4629
1167.553, 197.4551
1168.642, 10.66504
1169.730, 72.37793
1170.818, 61.80371
1171.906, 167.7881
1172.994, 225.3984
1174.082, 88.74316
1175.170, 89.30469
1176.257, 179.6475
1177.344, 159.5127
1178.431, 125.5645
1179.518, 217.2822
1180.605, 198.5059
1181.691, 225.8086
1182.778, 224.4453
1183.864, 150.2061
1184.950, 165.8730
1186.036, 109.5508
1187.122, 28.39355
1188.207, 31.97656
1189.292, 114.6445
1190.378, 15.96484
1191.463, 105.7393
1192.548, 2.821289
1193.632, 32.58594
1194.717, 2.463867
1195.801, 75.20508
1196.886, 8.7890998E-02
1197.970, 72.75098
1199.054, 25.29102
1200.137, 8.050781
1201.221, 59.48535
1202.305, 1.947266
1203.388, 48.67969
1204.471, 85.24902
1205.554, 7.843750
1206.637, 16.53125
1207.719, 2.500977
1208.802, 43.47949
1209.884, 48.31543
1210.966, 44.25488
1212.048, 38.86230
1213.130, 4.953125
1214.212, 132.4824
1215.293, 16.97168
1216.374, 28.38281
1217.456, 27.71875
1218.536, 9.976563
1219.617, 17.86426
1220.698, 3.772461
1221.778, 5.208984
1222.859, 31.09277
1223.939, 5.887695
1225.019, 49.58203
1226.099, 87.19238
1227.178, 89.73145
1228.258, 87.20020
1229.337, 97.59473
1230.417, 71.91699
1231.496, 102.1523
1232.574, 96.31250
1233.653, 69.39453
1234.732, 150.3857
1235.810, 160.3096
1236.888, 137.1689
1237.966, 117.9521
1239.044, 71.65430
1240.122, 135.2559
1241.199, 163.7793
1242.277, 130.2285
1243.354, 157.5947
1244.431, 174.8809
1245.508, 191.0908
1246.585, 149.2305
1247.661, 238.2822
1248.738, 5.733398
1249.814, 204.1006
1250.890, 33.85742
1251.966, 120.4795
1253.042, 174.0020
1254.117, 155.4395
1255.193, 193.1045
1256.268, 144.0391
1257.343, 202.1953
1258.418, 155.2686
1259.493, 184.2412
1260.567, 193.4238
1261.642, 200.4521
1262.716, 264.9111
1263.790, 248.5293
1264.864, 282.7266
1265.938, 408.7646
1267.011, 304.3672
1268.085, 281.6768
1269.158, 251.9043
1270.231, 344.3838
1271.304, 129.4502
1272.377, 278.3926
1273.450, 311.3291
1274.522, 264.1758
1275.594, 359.8633
1276.666, 272.7549
1277.738, 429.6406
1278.810, 368.3496
1279.882, 401.7158
1280.953, 366.0049
1282.025, 313.2158
1283.096, 390.9844
1284.167, 369.0938
1285.238, 398.8125
1286.308, 425.1133
1287.379, 336.9219
1288.449, 371.6445
1289.519, 389.4424
1290.589, 271.9170
