##NAMES=Clinohumite
##RRUFFID=R040122
##IDEAL CHEMISTRY=Mg_9_(SiO_4_)_4_F_2_
##LOCALITY=Anzahamazonono,  Madagascar
##OWNER=RRUFF
##SOURCE=University of Arizona Mineral Museum
##DESCRIPTION=Orange-brown blebs embedded in calcite matrix
##STATUS=The identification of this mineral has been confirmed by X-ray diffraction and chemical analysis
##URL=rruff.info/R040122
##MEASURED CHEMISTRY=(Mg_0.96_Fe_0.02_Ti_0.01_Ca_0.01_)_9_(SiO_4_)_4_(F_0.59_(OH)_0.41_)_2_
##PIN_ID=M00126
##ORIENTATION=Laser parallel to -b* (0 -1 0). Fiducial mark perpendicular to laser is parallel to -c [0 0 -1]
124.2880, 0.0000000E+00
125.5190, 0.2583010
126.7490, 50.40381
127.9790, 124.1719
129.2090, 61.47754
130.4390, 61.88818
131.6680, 12.46240
132.8980, 29.58691
134.1270, 11.14404
135.3560, 17.04395
136.5850, 37.63818
137.8140, 12.41162
139.0430, 107.9756
140.2710, 20.33496
141.5000, 98.66504
142.7280, 99.87305
143.9560, 116.8774
145.1840, 247.6045
146.4120, 105.9883
147.6390, 62.97412
148.8670, 190.5142
150.0940, 168.5688
151.3210, 211.1001
152.5490, 170.0776
153.7750, 115.4727
155.0020, 243.2598
156.2290, 224.4170
157.4550, 162.9282
158.6810, 253.7729
159.9080, 218.9336
161.1340, 183.3921
162.3590, 249.1270
163.5850, 326.1104
164.8110, 369.3242
166.0360, 362.7534
167.2610, 327.3833
168.4860, 429.2144
169.7110, 429.2480
170.9360, 571.4727
172.1610, 484.8799
173.3850, 523.4629
174.6100, 458.2153
175.8340, 553.1323
177.0580, 595.2080
178.2820, 671.4399
179.5050, 789.8228
180.7290, 759.3511
181.9520, 921.0229
183.1760, 889.8315
184.3990, 941.0327
185.6220, 960.8911
186.8450, 986.0425
188.0670, 916.4146
189.2900, 898.9004
190.5120, 812.5044
191.7340, 815.2163
192.9560, 874.0332
194.1780, 1014.954
195.4000, 1128.975
196.6220, 1282.095
197.8430, 1459.287
199.0640, 1586.463
200.2860, 1579.641
201.5070, 1621.827
202.7270, 1564.030
203.9480, 1439.249
205.1690, 1281.501
206.3890, 1187.789
207.6090, 1144.119
208.8290, 1082.493
210.0490, 1008.761
211.2690, 920.5815
212.4890, 900.4346
213.7080, 808.3848
214.9280, 808.3779
216.1470, 729.4150
217.3660, 841.5000
218.5850, 833.6289
219.8030, 775.8057
221.0220, 1030.055
222.2400, 1116.352
223.4590, 1155.719
224.6770, 1298.140
225.8950, 1416.640
227.1120, 1576.214
228.3300, 1653.833
229.5480, 1803.503
230.7650, 1818.256
231.9820, 1785.081
233.1990, 1882.951
234.4160, 1764.865
235.6330, 1864.825
236.8490, 1867.865
238.0660, 1788.950
239.2820, 1783.078
240.4980, 1797.246
241.7140, 1626.456
242.9300, 1650.707
244.1460, 1506.998
245.3610, 1458.329
246.5770, 1463.702
247.7920, 1449.374
249.0070, 1528.235
250.2220, 1547.716
251.4370, 1642.223
252.6510, 1720.771
253.8660, 1664.268
255.0800, 1625.285
256.2940, 1540.951
257.5080, 1510.659
258.7220, 1425.408
259.9360, 1379.990
261.1490, 1463.035
262.3630, 1329.911
263.5760, 1310.829
264.7890, 1393.789
266.0020, 1322.792
267.2150, 1176.835
268.4270, 1124.920
269.6400, 982.0439
270.8520, 892.4531
272.0640, 839.0850
273.2760, 822.7979
274.4880, 737.3945
275.7000, 750.1055
276.9120, 703.9268
278.1230, 666.8945
279.3340, 797.9961
280.5450, 809.9150
281.7560, 707.8447
282.9670, 821.2959
284.1780, 988.8486
285.3880, 824.4980
286.5980, 1059.239
287.8090, 921.0674
289.0190, 901.9775
290.2290, 990.9668
291.4380, 1030.032
292.6480, 809.1699
293.8570, 746.3789
295.0670, 852.1582
296.2760, 920.8984
297.4850, 765.1416
298.6930, 752.7998
299.9020, 839.2266
301.1110, 822.4717
302.3190, 871.1016
303.5270, 928.7842
304.7350, 1040.518
305.9430, 1157.301
307.1510, 1333.132
308.3580, 1397.010
309.5660, 1409.932
310.7730, 1597.899
311.9800, 1647.911
313.1870, 1767.965
314.3940, 1898.060
315.6010, 2183.912
316.8070, 2487.088
318.0130, 2732.303
319.2200, 2900.555
320.4260, 2907.328
321.6310, 2731.202
322.8370, 2643.564
324.0430, 2471.961
325.2480, 2078.855
326.4540, 1818.319
327.6590, 1511.800
328.8640, 1458.330
330.0680, 1121.891
331.2730, 1129.482
332.4780, 987.1045
333.6820, 1034.395
334.8860, 986.2520
336.0900, 934.6289
337.2940, 847.3652
338.4980, 647.1270
339.7010, 783.9170
340.9050, 587.7324
342.1080, 679.7129
343.3110, 636.5791
344.5140, 421.4727
345.7170, 487.3887
346.9200, 363.4922
348.1220, 436.4580
349.3240, 379.6475
350.5270, 425.6631
351.7290, 359.7031
352.9310, 259.7695
354.1320, 265.8584
355.3340, 263.9707
356.5350, 283.1055
357.7370, 266.6924
358.9380, 279.5303
360.1390, 232.6406
361.3400, 266.8613
362.5400, 237.1016
363.7410, 175.3779
364.9410, 265.6758
366.1410, 167.9951
367.3410, 26.33984
368.5410, 96.70312
369.7410, 95.08496
370.9400, 32.51367
372.1400, 22.92383
373.3390, 66.61328
374.5380, 29.89355
375.7370, 4.888672
376.9360, 69.99609
378.1350, 19.59082
379.3330, 114.2031
380.5310, 144.8340
381.7300, 34.50781
382.9280, 17.78027
384.1260, 99.97559
385.3230, 139.7451
386.5210, 118.5547
387.7180, 284.3906
388.9160, 300.2686
390.1130, 423.2207
391.3100, 283.2061
392.5060, 354.2188
393.7030, 297.2842
394.9000, 438.3662
396.0960, 228.4736
397.2920, 260.6221
398.4880, 262.7939
399.6840, 177.9785
400.8800, 135.1826
402.0750, 208.4014
403.2710, 188.6396
404.4660, 169.9199
405.6610, 224.2354
406.8560, 288.5625
408.0510, 181.9131
409.2450, 286.2764
410.4400, 352.6533
411.6340, 398.0518
412.8280, 481.4590
414.0220, 355.9023
415.2160, 447.3662
416.4100, 428.7461
417.6030, 483.3779
418.7970, 419.9199
419.9900, 399.4980
421.1830, 350.1465
422.3760, 468.8408
423.5690, 378.5742
424.7610, 404.3379
425.9540, 401.1182
427.1460, 324.9385
428.3380, 181.7920
429.5300, 152.6631
430.7220, 127.5479
431.9140, 127.4453
433.1050, 134.3535
434.2970, 58.28223
435.4880, 33.59082
436.6790, 4.170898
437.8700, 76.86914
439.0610, 93.93164
440.2510, 138.0146
441.4420, 107.0078
442.6320, 119.3486
443.8220, 13.57324
445.0120, 26.20312
446.2020, 64.98535
447.3910, 30.77637
448.5810, 64.57422
449.7700, 88.37695
450.9600, 121.1865
452.1490, 128.0010
453.3370, 116.9219
454.5260, 45.64844
455.7150, 40.47754
456.9030, 67.31250
458.0910, 30.84961
459.2800, 76.97656
460.4670, 46.80566
461.6550, 64.63770
462.8430, 20.52637
464.0300, 6.701172
465.2180, 189.1172
466.4050, 29.93750
467.5920, 41.24023
468.7790, 94.56152
469.9650, 30.63574
471.1520, 302.1484
472.3380, 96.93359
473.5250, 80.71875
474.7110, 141.5049
475.8970, 0.7099610
477.0820, 11.06836
478.2680, 77.15625
479.4540, 113.5752
480.6390, 50.30664
481.8240, 52.03613
483.0090, 163.7637
484.1940, 15.49023
485.3780, 123.2119
486.5630, 24.93066
487.7470, 55.64648
488.9320, 44.64062
490.1160, 151.0410
491.3000, 16.71875
492.4830, 92.39062
493.6670, 87.05859
494.8500, 91.72266
496.0340, 73.38184
497.2170, 58.03809
498.4000, 81.68848
499.5820, 137.3350
500.7650, 219.9756
501.9480, 117.6123
503.1300, 75.24219
504.3120, 270.8672
505.4940, 97.64746
506.6760, 171.7549
507.8580, 64.55469
509.0390, 177.1152
510.2210, 269.7227
511.4020, 264.3086
512.5830, 216.8877
513.7640, 201.8486
514.9450, 154.6816
516.1250, 181.4844
517.3060, 167.3369
518.4860, 183.9199
519.6660, 192.1436
520.8460, 191.1064
522.0260, 205.5469
523.2060, 230.7451
524.3850, 236.3525
525.5650, 308.9297
526.7440, 244.0117
527.9230, 355.9873
529.1020, 301.7432
530.2810, 277.6230
531.4590, 234.3311
532.6380, 323.8604
533.8160, 214.0625
534.9940, 306.7871
536.1720, 257.7236
537.3500, 156.8457
538.5270, 195.3555
539.7050, 409.4141
540.8820, 299.7803
542.0590, 315.7139
543.2360, 373.6553
544.4130, 351.1992
545.5900, 373.5459
546.7660, 363.4561
547.9430, 435.7373
549.1190, 363.9717
550.2950, 493.5791
551.4710, 351.4863
552.6470, 371.8828
553.8220, 357.1699
554.9980, 296.1133
556.1730, 232.1504
557.3480, 341.5244
558.5230, 371.7900
559.6980, 342.7637
560.8730, 350.5479
562.0470, 441.5762
563.2220, 393.5439
564.3960, 428.0967
565.5700, 436.5449
566.7440, 397.3799
567.9170, 519.6523
569.0910, 490.2627
570.2640, 425.5195
571.4380, 555.2549
572.6110, 557.9658
573.7840, 634.6504
574.9570, 551.4902
576.1290, 519.1240
577.3020, 614.7314
578.4740, 724.3135
579.6460, 712.3672
580.8180, 846.4951
581.9900, 920.1592
583.1620, 993.4424
584.3330, 1014.989
585.5040, 1178.750
586.6760, 1325.154
587.8470, 1511.533
589.0180, 1539.887
590.1880, 1805.216
591.3590, 1882.520
592.5290, 2238.797
593.7000, 2668.051
594.8700, 2901.279
596.0400, 3309.481
597.2090, 3940.659
598.3790, 4701.809
599.5490, 5693.220
600.7180, 6635.319
601.8870, 7595.398
603.0560, 8892.447
604.2250, 9979.148
605.3940, 10909.44
606.5620, 11395.42
607.7300, 11485.81
608.8990, 11642.83
610.0670, 10620.73
611.2350, 9560.620
612.4020, 8210.469
613.5700, 6808.293
614.7370, 5780.092
615.9050, 4670.866
617.0720, 3867.279
618.2390, 3463.525
619.4060, 2710.556
620.5720, 2208.230
621.7390, 2091.881
622.9050, 1660.506
624.0710, 1469.107
625.2370, 1098.546
626.4030, 1066.099
627.5690, 814.6250
628.7340, 723.1289
629.9000, 715.4482
631.0650, 619.9043
632.2300, 537.1387
633.3950, 573.5469
634.5600, 398.9307
635.7240, 316.2920
636.8890, 419.6270
638.0530, 204.9404
639.2170, 289.2295
640.3810, 199.4961
641.5450, 179.7393
642.7080, 219.9580
643.8720, 201.1553
645.0350, 5.327148
646.1980, 73.44727
647.3610, 88.53906
648.5240, 53.60547
649.6870, 104.6377
650.8490, 185.6475
652.0120, 135.6338
653.1740, 27.40137
654.3360, 39.49805
655.4980, 76.63672
656.6600, 74.14355
657.8210, 79.09961
658.9830, 83.56250
660.1440, 76.20215
661.3050, 50.81738
662.4660, 44.59668
663.6270, 36.08203
664.7870, 66.63477
665.9480, 110.7324
667.1080, 44.92188
668.2680, 5.354492
669.4280, 61.41113
670.5880, 187.2510
671.7480, 26.23535
672.9070, 6.277344
674.0670, 127.3652
675.2260, 4.561523
676.3850, 8.800781
677.5440, 64.08691
678.7030, 10.44531
679.8610, 60.15137
681.0200, 4.730469
682.1780, 25.27344
683.3360, 8.390625
684.4940, 85.72168
685.6520, 64.31543
686.8090, 45.02344
687.9670, 24.65723
689.1240, 21.79785
690.2810, 10.16016
691.4380, 15.90234
692.5950, 27.28711
693.7520, 75.54102
694.9080, 52.56152
696.0650, 13.64941
697.2210, 21.76270
698.3770, 88.74902
699.5330, 49.23242
700.6880, 182.2637
701.8440, 87.41406
702.9990, 66.63184
704.1550, 34.90527
705.3100, 41.78320
706.4650, 83.54199
707.6190, 58.92773
708.7740, 7.362305
709.9290, 103.1846
711.0830, 162.7217
712.2370, 134.0254
713.3910, 24.23926
714.5450, 51.25195
715.6980, 54.73242
716.8520, 35.20410
718.0050, 155.6670
719.1580, 261.1377
720.3110, 84.61914
721.4640, 245.1221
722.6170, 229.6406
723.7700, 335.1777
724.9220, 394.7100
726.0740, 433.2363
727.2260, 438.7559
728.3780, 512.2686
729.5300, 806.7744
730.6810, 567.2754
731.8330, 781.7695
732.9840, 716.2598
734.1350, 764.7441
735.2860, 1073.224
736.4370, 986.6992
737.5880, 982.1709
738.7380, 1131.646
739.8880, 1394.118
741.0390, 1408.587
742.1890, 1722.052
743.3380, 1551.521
744.4880, 1701.992
745.6380, 1868.460
746.7870, 1819.927
747.9360, 1942.403
749.0850, 2075.879
750.2340, 2050.363
751.3830, 1895.847
752.5310, 1998.328
753.6800, 1986.811
754.8280, 1791.294
755.9760, 1782.780
757.1240, 1746.270
758.2720, 1575.781
759.4190, 1598.293
760.5670, 1369.807
761.7140, 1343.322
762.8610, 1414.841
764.0080, 1322.362
765.1550, 1344.889
766.3020, 1301.416
767.4480, 1340.948
768.5950, 1478.497
769.7410, 1556.051
770.8870, 1579.609
772.0330, 1771.174
773.1780, 2042.742
774.3240, 2180.315
775.4690, 2807.895
776.6140, 3025.479
777.7590, 3638.082
778.9040, 4308.689
780.0490, 5042.306
781.1940, 5723.928
782.3380, 6155.557
783.4820, 6788.031
784.6260, 6951.183
785.7700, 6870.646
786.9140, 6544.352
788.0580, 5833.006
789.2010, 5269.689
790.3450, 4633.385
791.4880, 4292.169
792.6310, 3933.662
793.7730, 3707.486
794.9160, 3639.027
796.0590, 3690.839
797.2010, 3760.966
798.3430, 4114.258
799.4850, 4262.459
800.6270, 4653.723
801.7690, 5200.609
802.9100, 6054.648
804.0520, 6392.727
805.1930, 7177.314
806.3340, 7664.127
807.4750, 8367.146
808.6160, 8553.050
809.7560, 8573.131
810.8970, 8719.552
812.0370, 8704.459
813.1770, 8822.203
814.3170, 8777.784
815.4570, 8909.990
816.5960, 9606.646
817.7360, 10230.00
818.8750, 11083.80
820.0140, 12099.58
821.1530, 13683.78
822.2920, 15917.19
823.4310, 18606.03
824.5690, 21723.53
825.7070, 26008.09
826.8460, 30042.28
827.9840, 34257.20
829.1220, 37057.61
830.2590, 38183.15
831.3970, 36990.04
832.5340, 33806.83
833.6710, 30665.30
834.8080, 27349.89
835.9450, 24940.77
837.0820, 23540.86
838.2190, 23595.71
839.3550, 24065.65
840.4910, 25456.00
841.6270, 27497.47
842.7630, 29573.56
843.8990, 31816.23
845.0350, 32943.57
846.1700, 33425.29
847.3060, 32232.53
848.4410, 30016.81
849.5760, 28070.16
850.7100, 26260.36
851.8450, 25199.77
852.9800, 25118.22
854.1140, 25752.71
855.2480, 28036.22
856.3820, 30648.77
857.5160, 33668.35
858.6500, 36313.96
859.7830, 37347.61
860.9170, 36564.27
862.0500, 33377.99
863.1830, 29060.72
864.3160, 24903.50
865.4480, 20720.30
866.5810, 17089.14
867.7130, 14774.01
868.8460, 12553.91
869.9780, 10873.85
871.1100, 9420.816
872.2410, 8578.816
873.3730, 7572.854
874.5050, 6807.922
875.6360, 6290.020
876.7670, 5851.168
877.8980, 5440.346
879.0290, 4876.578
880.1590, 4386.844
881.2900, 3896.141
882.4200, 3509.395
883.5500, 3088.840
884.6800, 2855.236
885.8100, 2541.666
886.9400, 2313.131
888.0690, 2117.008
889.1990, 2008.160
890.3280, 1777.725
891.4570, 1650.324
892.5860, 1513.975
893.7140, 1339.656
894.8430, 1386.375
895.9710, 1247.129
897.1000, 1176.914
898.2280, 984.7363
899.3560, 1062.592
900.4830, 972.4883
901.6110, 1010.420
902.7380, 980.4336
903.8660, 1018.381
904.9930, 889.4121
906.1200, 773.4766
907.2460, 658.5742
908.3730, 724.7051
909.5000, 749.8711
910.6260, 785.0820
911.7520, 768.3398
912.8780, 726.9961
914.0040, 785.3477
915.1290, 645.7344
916.2550, 827.1562
917.3800, 651.6113
918.5050, 588.0996
919.6300, 588.6387
920.7550, 495.6543
921.8800, 499.2656
923.0040, 577.9160
924.1290, 343.5996
925.2530, 480.7617
926.3770, 202.0312
927.5010, 363.0957
928.6250, 459.6953
929.7480, 418.4922
930.8720, 390.5898
931.9950, 339.5996
933.1180, 371.1562
934.2410, 213.6016
935.3640, 53.89453
936.4860, 50.14258
937.6090, 150.7617
938.7310, 155.2422
939.8530, 248.1523
940.9750, 106.9766
942.0970, 36.31641
943.2180, 150.8184
944.3400, 91.35938
945.4610, 353.0938
946.5820, 292.5059
947.7030, 120.6836
948.8240, 304.4746
949.9450, 405.3105
951.0650, 487.1406
952.1860, 509.0117
953.3060, 581.9082
954.4260, 810.8359
955.5460, 833.6055
956.6650, 1119.592
957.7850, 1456.635
958.9040, 1898.424
960.0230, 2461.465
961.1420, 3356.156
962.2610, 4456.336
963.3800, 5419.541
964.4990, 6806.781
965.6170, 8072.090
966.7350, 9200.402
967.8530, 10020.77
968.9710, 9739.703
970.0890, 8951.090
971.2070, 7845.500
972.3240, 6696.088
973.4410, 5437.398
974.5580, 4508.967
975.6750, 3865.303
976.7920, 3578.061
977.9090, 2741.242
979.0250, 2334.084
980.1410, 1877.850
981.2580, 1570.395
982.3740, 1531.172
983.4890, 1432.994
984.6050, 958.8027
985.7200, 1116.709
986.8360, 827.4961
987.9510, 833.7305
989.0660, 701.9160
990.1810, 664.8984
991.2950, 524.8066
992.4100, 519.7285
993.5240, 493.9824
994.6390, 517.6133
995.7530, 513.5742
996.8660, 529.5508
997.9800, 564.2090
999.0940, 433.2109
1000.207, 476.2266
1001.320, 395.2520
1002.433, 300.2891
1003.546, 522.4922
1004.659, 362.5547
1005.772, 433.8164
1006.884, 481.2812
1007.996, 429.4238
1009.108, 322.6641
1010.220, 291.3066
1011.332, 230.4297
1012.444, 251.3984
1013.555, 320.5410
1014.666, 346.6934
1015.777, 255.0371
1016.888, 280.2012
1017.999, 427.3770
1019.110, 257.5566
1020.220, 281.7441
1021.331, 354.9434
1022.441, 290.5508
1023.551, 85.75781
1024.661, 232.3945
1025.770, 232.3262
1026.880, 144.5527
1027.989, 228.4102
1029.098, 264.8633
1030.207, 345.1055
1031.316, 346.0176
1032.425, 255.3398
1033.533, 355.5449
1034.642, 93.80469
1035.750, 107.0664
1036.858, 303.6543
1037.966, 158.9219
1039.073, 174.2051
1040.181, 138.4980
1041.288, 83.83008
1042.396, 222.4414
1043.503, 134.4316
1044.610, 303.9727
1045.716, 68.81445
1046.823, 337.9609
1047.929, 262.5234
1049.036, 17.70703
1050.142, 140.9902
1051.248, 134.2617
1052.353, 89.64844
1053.459, 16.08398
1054.564, 109.9609
1055.670, 91.21484
1056.775, 6.880859
1057.880, 14.00586
1058.985, 169.0898
1060.089, 32.51953
1061.194, 106.3906
1062.298, 139.0000
1063.402, 2.005859
1064.506, 87.11523
1065.610, 11.58008
1066.713, 125.6152
1067.817, 73.55469
1068.920, 102.6367
1070.023, 25.85352
1071.126, 118.0918
1072.229, 75.53516
1073.332, 4.675781
1074.435, 0.3828130
1075.537, 105.4727
1076.639, 34.13477
1077.741, 14.55859
1078.843, 6.986328
1079.945, 161.5078
1081.046, 58.12695
1082.148, 9.238281
1083.249, 147.3340
1084.350, 106.2773
1085.451, 78.08789
1086.551, 91.35547
1087.652, 16.39062
1088.752, 68.83203
1089.853, 50.41211
1090.953, 59.39648
1092.053, 14.25977
1093.152, 23.15234
1094.252, 129.9160
1095.351, 213.0762
1096.451, 76.40430
1097.550, 57.55273
1098.649, 242.7324
1099.748, 64.72852
1100.846, 1.294922
1101.945, 168.6523
1103.043, 244.5996
1104.141, 55.47266
1105.239, 16.39648
1106.337, 94.23438
1107.434, 20.05273
1108.532, 64.84766
1109.629, 41.38086
1110.726, 64.33203
1111.823, 2.3437999E-02
1112.920, 4.675781
1114.017, 106.2910
1115.113, 125.1152
1116.210, 242.3691
1117.306, 93.83203
1118.402, 26.27344
1119.498, 45.68555
1120.593, 51.57031
1121.689, 98.37695
1122.784, 186.7676
1123.879, 245.0820
1124.974, 282.3770
1126.069, 348.6465
1127.164, 164.9082
1128.259, 170.1465
1129.353, 45.46289
1130.447, 205.6465
1131.541, 236.8086
1132.635, 185.9453
1133.729, 259.3477
1134.822, 108.1465
1135.916, 261.2109
1137.009, 103.2480
1138.102, 71.26367
1139.195, 140.2500
1140.288, 121.2129
1141.380, 11.15039
1142.473, 160.0391
1143.565, 25.09766
1144.657, 192.1543
1145.749, 209.9258
1146.841, 120.6738
1147.932, 311.4395
1149.024, 199.1758
1150.115, 203.9043
1151.206, 207.8848
1152.297, 219.7168
1153.388, 90.31836
1154.479, 230.9414
1155.569, 91.50977
1156.659, 0.8789060
1157.750, 287.5781
1158.839, 79.00391
1159.929, 132.6816
1161.019, 253.3516
1162.108, 79.92969
1163.198, 172.5469
1164.287, 37.07812
1165.376, 191.3945
1166.465, 236.9707
1167.553, 117.1738
1168.642, 260.3320
1169.730, 336.1816
1170.818, 239.0273
1171.906, 195.1367
1172.994, 130.1797
1174.082, 27.19141
1175.170, 16.45898
1176.257, 23.41797
1177.344, 10.74219
1178.431, 140.5449
1179.518, 81.49219
1180.605, 209.2109
1181.691, 288.1016
1182.778, 73.98242
1183.864, 300.7793
1184.950, 90.92969
1186.036, 227.7637
1187.122, 171.2930
1188.207, 196.9902
1189.292, 100.2695
1190.378, 118.1777
1191.463, 243.3105
1192.548, 129.9180
1193.632, 244.3633
1194.717, 167.5117
1195.801, 123.7832
1196.886, 223.5098
1197.970, 156.0312
1199.054, 176.1230
1200.137, 245.1895
1201.221, 251.9219
1202.305, 195.8203
1203.388, 156.2910
1204.471, 58.87109
1205.554, 62.90234
1206.637, 156.2090
1207.719, 47.17383
1208.802, 156.9805
1209.884, 242.0996
1210.966, 165.6621
1212.048, 50.83789
1213.130, 97.68164
1214.212, 251.9746
1215.293, 119.7578
1216.374, 293.5137
1217.456, 261.2422
1218.536, 162.1328
1219.617, 74.18750
1220.698, 299.8340
1221.778, 328.7598
1222.859, 281.2559
1223.939, 197.2891
1225.019, 136.8809
1226.099, 93.82617
1227.178, 133.3027
1228.258, 122.9375
1229.337, 232.1934
1230.417, 221.5762
1231.496, 193.6445
1232.574, 321.6855
1233.653, 279.5391
1234.732, 168.7129
1235.810, 303.2148
1236.888, 288.5078
1237.966, 339.0195
1239.044, 347.1172
1240.122, 385.4277
1241.199, 199.4551
1242.277, 333.5684
1243.354, 228.0391
1244.431, 226.1328
1245.508, 287.1738
1246.585, 372.2188
1247.661, 325.3164
1248.738, 192.5723
1249.814, 200.1777
1250.890, 160.1113
1251.966, 176.9629
1253.042, 201.8672
1254.117, 153.7461
1255.193, 279.9238
1256.268, 328.9531
1257.343, 262.8184
1258.418, 129.6055
1259.493, 200.7012
1260.567, 157.1719
1261.642, 296.1621
1262.716, 210.8574
1263.790, 270.6816
1264.864, 324.1797
1265.938, 332.8066
1267.011, 332.8809
1268.085, 325.7480
1269.158, 303.7910
1270.231, 252.5254
1271.304, 282.5059
1272.377, 209.0371
1273.450, 45.66406
1274.522, 292.6406
1275.594, 339.6660
1276.666, 137.9551
1277.738, 138.4180
1278.810, 134.7676
1279.882, 67.10352
1280.953, 96.43164
1282.025, 197.3809
1283.096, 137.7852
1284.167, 144.6074
1285.238, 127.5469
1286.308, 147.1895
1287.379, 162.4453
1288.449, 79.96289
1289.519, 73.86914
1290.589, 88.96680
1291.659, 71.75195
1292.729, 88.69922
1293.798, 127.4648
1294.868, 59.22852
1295.937, 141.2949
1297.006, 148.9062
1298.075, 30.13477
