##NAMES=Clinoptilolite-Ca
##RRUFFID=R060662
##IDEAL CHEMISTRY=Ca_3_(Si_30_Al_6_)O_72_&#183;20H_2_O
##LOCALITY=Succor Creek, Malheur County, Oregon, USA
##OWNER=RRUFF
##SOURCE=Michael Scott
##DESCRIPTION=Group of colorless platy prismatic crystals
##STATUS=The identification of this mineral has been confirmed by X-ray diffraction and chemical analysis
##URL=rruff.info/R060662
##MEASURED CHEMISTRY=(Ca_1.02_Na_0.97_K_0.59_)_Σ=2.58_(Si_14.40_Al_3.60_)_Σ=18_O_36_·10.96H_2_O
##PIN_ID=M00397
##ORIENTATION=Laser parallel to c* (0 0 1). Fiducial mark perpendicular to laser is parallel to -a [-1 0 0]
84.83700, 0.0000000E+00
86.07200, 13.29297
87.30800, 318.9082
88.54200, 883.0137
89.77700, 1330.234
91.01200, 1757.906
92.24600, 2316.566
93.48000, 2313.125
94.71400, 2906.830
95.94800, 3192.480
97.18200, 3472.816
98.41600, 3824.449
99.64900, 4030.109
100.8830, 4547.383
102.1160, 4791.260
103.3490, 5208.965
104.5820, 5649.586
105.8150, 6395.533
107.0470, 7668.238
108.2800, 8392.213
109.5120, 8083.439
110.7440, 7893.621
111.9760, 8095.273
113.2080, 8603.992
114.4400, 9017.348
115.6710, 9417.766
116.9030, 9359.209
118.1340, 9217.604
119.3650, 8840.717
120.5960, 8511.312
121.8270, 8152.930
123.0580, 7927.773
124.2880, 7356.285
125.5190, 7062.402
126.7490, 6133.518
127.9790, 5917.254
129.2090, 5253.322
130.4390, 5219.102
131.6680, 4616.246
132.8980, 4366.447
134.1270, 4298.385
135.3560, 4174.164
136.5850, 4308.043
137.8140, 4287.943
139.0430, 4107.076
140.2710, 4552.012
141.5000, 4513.910
142.7280, 4388.842
143.9560, 4271.543
145.1840, 4472.342
146.4120, 4639.467
147.6390, 4800.949
148.8670, 5153.221
150.0940, 4975.061
151.3210, 5237.246
152.5490, 4980.059
153.7750, 4976.443
155.0020, 5016.436
156.2290, 4819.121
157.4550, 4854.246
158.6810, 4577.027
159.9080, 4342.871
161.1340, 4043.449
162.3590, 3704.484
163.5850, 3403.188
164.8110, 3089.867
166.0360, 3021.947
167.2610, 2630.172
168.4860, 2355.160
169.7110, 2193.879
170.9360, 1854.277
172.1610, 1731.303
173.3850, 1345.904
174.6100, 1355.029
175.8340, 1030.625
177.0580, 748.6348
178.2820, 886.0059
179.5050, 789.6914
180.7290, 633.6484
181.9520, 526.8379
183.1760, 390.2188
184.3990, 326.7539
185.6220, 480.4082
186.8450, 450.1426
188.0670, 449.9297
189.2900, 420.8594
190.5120, 201.4756
191.7340, 302.1084
192.9560, 197.5723
194.1780, 220.8223
195.4000, 213.8291
196.6220, 246.5781
197.8430, 211.0693
199.0640, 138.3096
200.2860, 491.3037
201.5070, 396.0547
202.7270, 184.5605
203.9480, 42.79004
205.1690, 248.2891
206.3890, 482.6826
207.6090, 452.4268
208.8290, 677.5498
210.0490, 759.0195
211.2690, 643.8623
212.4890, 524.1152
213.7080, 600.7881
214.9280, 561.8604
216.1470, 724.3359
217.3660, 572.1455
218.5850, 490.5391
219.8030, 634.9746
221.0220, 499.6797
222.2400, 579.6182
223.4590, 530.6807
224.6770, 568.9199
225.8950, 533.1934
227.1120, 408.4805
228.3300, 239.7510
229.5480, 286.9258
230.7650, 360.7510
231.9820, 96.22949
233.1990, 9.750977
234.4160, 146.5557
235.6330, 273.7090
236.8490, 419.1182
238.0660, 395.3936
239.2820, 503.2461
240.4980, 755.4697
241.7140, 1059.902
242.9300, 1222.420
244.1460, 1239.919
245.3610, 1273.320
246.5770, 1546.586
247.7920, 1736.637
249.0070, 1890.451
250.2220, 1995.981
251.4370, 2327.146
252.6510, 2309.945
253.8660, 2375.336
255.0800, 2618.305
256.2940, 2814.839
257.5080, 3116.949
258.7220, 3125.891
259.9360, 3402.723
261.1490, 3211.410
262.3630, 3105.607
263.5760, 3284.207
264.7890, 2978.190
266.0020, 3228.505
267.2150, 3166.115
268.4270, 3103.014
269.6400, 3089.195
270.8520, 3010.707
272.0640, 2908.605
273.2760, 3112.923
274.4880, 3146.663
275.7000, 3104.838
276.9120, 3096.428
278.1230, 3107.970
279.3340, 3105.792
280.5450, 3165.541
281.7560, 3204.658
282.9670, 3336.191
284.1780, 3463.096
285.3880, 3277.370
286.5980, 3518.027
287.8090, 3369.098
289.0190, 3635.617
290.2290, 3547.611
291.4380, 3648.716
292.6480, 3446.511
293.8570, 3859.738
295.0670, 3681.619
296.2760, 3744.205
297.4850, 3691.465
298.6930, 3788.544
299.9020, 3924.513
301.1110, 3862.401
302.3190, 3805.340
303.5270, 4043.586
304.7350, 4086.204
305.9430, 4070.503
307.1510, 4360.627
308.3580, 4480.594
309.5660, 4410.451
310.7730, 4628.221
311.9800, 4631.902
313.1870, 4853.523
314.3940, 5263.080
315.6010, 5561.570
316.8070, 5632.991
318.0130, 5965.223
319.2200, 5979.778
320.4260, 6252.301
321.6310, 6458.392
322.8370, 6576.904
324.0430, 6856.232
325.2480, 6740.943
326.4540, 7015.273
327.6590, 7026.629
328.8640, 7049.286
330.0680, 7045.882
331.2730, 7058.512
332.4780, 7076.426
333.6820, 7115.754
334.8860, 7142.381
336.0900, 7217.744
337.2940, 7322.447
338.4980, 7306.552
339.7010, 7747.281
340.9050, 7564.740
342.1080, 7865.992
343.3110, 7819.250
344.5140, 7938.879
345.7170, 8232.629
346.9200, 8372.135
348.1220, 8408.373
349.3240, 8685.033
350.5270, 8770.464
351.7290, 8999.164
352.9310, 9278.747
354.1320, 9433.185
355.3340, 9823.500
356.5350, 9948.038
357.7370, 10139.09
358.9380, 10737.33
360.1390, 10938.02
361.3400, 11378.53
362.5400, 11772.60
363.7410, 12171.82
364.9410, 12731.02
366.1410, 13105.80
367.3410, 13480.67
368.5410, 13834.76
369.7410, 14542.63
370.9400, 14910.93
372.1400, 15791.29
373.3390, 16075.49
374.5380, 16563.00
375.7370, 17376.16
376.9360, 18063.90
378.1350, 18825.88
379.3330, 19829.51
380.5310, 20510.98
381.7300, 21651.00
382.9280, 22622.15
384.1260, 23546.66
385.3230, 24937.98
386.5210, 26457.88
387.7180, 28004.58
388.9160, 29759.65
390.1130, 31380.22
391.3100, 32950.13
392.5060, 34880.95
393.7030, 36840.89
394.9000, 38760.80
396.0960, 40510.08
397.2920, 42238.31
398.4880, 43700.91
399.6840, 44828.36
400.8800, 45313.27
402.0750, 45641.51
403.2710, 45422.59
404.4660, 45279.07
405.6610, 44251.42
406.8560, 43032.85
408.0510, 41935.11
409.2450, 39904.39
410.4400, 38427.10
411.6340, 36357.82
412.8280, 34424.42
414.0220, 32216.71
415.2160, 30420.65
416.4100, 28444.43
417.6030, 26718.61
418.7970, 24697.41
419.9900, 22655.47
421.1830, 21509.07
422.3760, 19217.81
423.5690, 17663.21
424.7610, 16218.17
425.9540, 14733.87
427.1460, 13487.35
428.3380, 12268.26
429.5300, 11210.81
430.7220, 10513.76
431.9140, 9602.248
433.1050, 8896.819
434.2970, 8149.355
435.4880, 7529.712
436.6790, 7269.684
437.8700, 6821.252
439.0610, 6409.576
440.2510, 6257.678
441.4420, 5904.719
442.6320, 5800.701
443.8220, 5982.633
445.0120, 5773.516
446.2020, 6005.355
447.3910, 6175.154
448.5810, 6456.912
449.7700, 6808.826
450.9600, 7144.323
452.1490, 7708.973
453.3370, 8184.590
454.5260, 8874.168
455.7150, 9649.716
456.9030, 10651.22
458.0910, 11674.70
459.2800, 12536.14
460.4670, 13699.54
461.6550, 14450.92
462.8430, 15335.26
464.0300, 16175.57
465.2180, 16728.87
466.4050, 17534.15
467.5920, 17924.41
468.7790, 18689.65
469.9650, 19255.89
471.1520, 20315.12
472.3380, 21203.35
473.5250, 22685.59
474.7110, 23803.82
475.8970, 25661.06
477.0820, 26630.29
478.2680, 27672.52
479.4540, 28903.78
480.6390, 29146.04
481.8240, 29570.32
483.0090, 28792.63
484.1940, 27960.95
485.3780, 26156.29
486.5630, 24268.65
487.7470, 22042.04
488.9320, 19874.42
490.1160, 17533.82
491.3000, 14999.23
492.4830, 13067.70
493.6670, 11179.31
494.8500, 9540.102
496.0340, 8157.082
497.2170, 6871.305
498.4000, 5934.792
499.5820, 5102.514
500.7650, 4230.438
501.9480, 3856.585
503.1300, 3196.943
504.3120, 2849.557
505.4940, 2449.384
506.6760, 2285.402
507.8580, 1939.651
509.0390, 1671.094
510.2210, 1651.749
511.4020, 1285.604
512.5830, 1213.670
513.7640, 1016.934
514.9450, 1110.362
516.1250, 987.9082
517.3060, 806.5850
518.4860, 675.4082
519.6660, 631.3115
520.8460, 557.7188
522.0260, 379.9639
523.2060, 399.4395
524.3850, 505.5703
525.5650, 335.8662
526.7440, 347.7793
527.9230, 226.8018
529.1020, 148.9834
530.2810, 25.41211
531.4590, 171.5400
532.6380, 75.04883
533.8160, 223.6270
534.9940, 279.7842
536.1720, 139.5752
537.3500, 253.0293
538.5270, 167.8496
539.7050, 177.0498
540.8820, 191.3613
542.0590, 278.5312
543.2360, 130.9766
544.4130, 124.3027
545.5900, 261.2969
546.7660, 254.2148
547.9430, 100.4199
549.1190, 227.3574
550.2950, 180.0557
551.4710, 120.7295
552.6470, 102.3564
553.8220, 19.60352
554.9980, 11.11035
556.1730, 101.4980
557.3480, 97.59375
558.5230, 49.07422
559.6980, 20.01074
560.8730, 46.44141
562.0470, 126.8096
563.2220, 71.09766
564.3960, 131.1875
565.5700, 208.9072
566.7440, 245.3887
567.9170, 271.0518
569.0910, 384.8145
570.2640, 204.4316
571.4380, 83.00391
572.6110, 172.5283
573.7840, 367.0068
574.9570, 352.4463
576.1290, 373.8467
577.3020, 445.2090
578.4740, 522.5352
579.6460, 563.6406
580.8180, 784.0928
581.9900, 693.3252
583.1620, 833.5293
584.3330, 942.7021
585.5040, 932.8447
586.6760, 1055.957
587.8470, 1122.039
589.0180, 1279.092
590.1880, 1350.114
591.3590, 1343.104
592.5290, 1721.223
593.7000, 1646.153
594.8700, 1879.051
596.0400, 1994.918
597.2090, 2341.754
598.3790, 2511.559
599.5490, 2778.331
600.7180, 3102.073
601.8870, 3231.782
603.0560, 3465.460
604.2250, 3932.105
605.3940, 3942.718
606.5620, 4653.297
607.7300, 4655.846
608.8990, 5104.358
610.0670, 5534.840
611.2350, 5557.287
612.4020, 5727.701
613.5700, 6110.082
614.7370, 5814.428
615.9050, 5922.740
617.0720, 6061.016
618.2390, 5702.257
619.4060, 5784.465
620.5720, 5872.637
621.7390, 5519.771
622.9050, 5507.870
624.0710, 5085.932
625.2370, 4748.955
626.4030, 4281.944
627.5690, 3783.894
628.7340, 3446.804
629.9000, 3033.676
631.0650, 2757.278
632.2300, 2498.302
633.3950, 2348.055
634.5600, 2176.766
635.7240, 2143.438
636.8890, 2024.065
638.0530, 2128.648
639.2170, 2093.187
640.3810, 2129.677
641.5450, 2034.119
642.7080, 2174.512
643.8720, 2222.855
645.0350, 2115.148
646.1980, 2023.391
647.3610, 2016.576
648.5240, 2010.707
649.6870, 1747.783
650.8490, 1614.805
652.0120, 1479.771
653.1740, 1429.679
654.3360, 1336.522
655.4980, 1089.315
656.6600, 805.0449
657.8210, 707.7109
658.9830, 711.3125
660.1440, 524.8477
661.3050, 569.3359
662.4660, 515.3818
663.6270, 358.4463
664.7870, 319.7363
665.9480, 170.4004
667.1080, 380.0293
668.2680, 336.0938
669.4280, 270.7539
670.5880, 130.8330
671.7480, 218.4775
672.9070, 54.18457
674.0670, 2.719727
675.2260, 61.46680
676.3850, 4.991211
677.5440, 8.916992
678.7030, 170.6523
679.8610, 6.772461
681.0200, 17.18652
682.1780, 37.85938
683.3360, 155.0762
684.4940, 100.4219
685.6520, 158.4004
686.8090, 226.5322
687.9670, 74.98340
689.1240, 7.489258
690.2810, 78.22363
691.4380, 67.56934
692.5950, 17.07129
693.7520, 38.51562
694.9080, 172.1631
696.0650, 53.56152
697.2210, 53.91992
698.3770, 137.8662
699.5330, 4.640625
700.6880, 148.1221
701.8440, 2.791016
702.9990, 7.8130001E-03
704.1550, 266.9619
705.3100, 73.22656
706.4650, 258.5762
707.6190, 463.0029
708.7740, 542.8516
709.9290, 717.8906
711.0830, 815.3672
712.2370, 994.1641
713.3910, 980.7207
714.5450, 984.1611
715.6980, 1027.637
716.8520, 954.3564
718.0050, 905.3438
719.1580, 888.4502
720.3110, 972.6523
721.4640, 743.7988
722.6170, 943.8896
723.7700, 757.9248
724.9220, 707.9043
726.0740, 598.8271
727.2260, 656.6934
728.3780, 624.5029
729.5300, 574.2578
730.6810, 440.9561
731.8330, 614.5957
732.9840, 745.1787
734.1350, 627.7061
735.2860, 700.1758
736.4370, 672.5908
737.5880, 710.9482
738.7380, 606.2490
739.8880, 725.4932
741.0390, 672.6807
742.1890, 645.8115
743.3380, 743.8848
744.4880, 785.9023
745.6380, 914.8623
746.7870, 1131.844
747.9360, 998.3594
749.0850, 1107.510
750.2340, 814.2412
751.3830, 737.1035
752.5310, 703.7236
753.6800, 872.2861
754.8280, 778.7910
755.9760, 838.2383
757.1240, 913.8213
758.2720, 1059.396
759.4190, 1060.673
760.5670, 1105.894
761.7140, 1356.189
762.8610, 1347.477
764.0080, 1386.526
765.1550, 1447.899
766.3020, 1404.747
767.4480, 1416.626
768.5950, 1468.448
769.7410, 1382.213
770.8870, 1592.922
772.0330, 1462.574
773.1780, 1551.512
774.3240, 1569.280
775.4690, 1631.763
776.6140, 1531.188
777.7590, 1705.558
778.9040, 1515.146
780.0490, 1586.786
781.1940, 1605.297
782.3380, 1473.934
783.4820, 1409.264
784.6260, 1310.295
785.7700, 1298.283
786.9140, 1280.953
788.0580, 1295.283
789.2010, 1318.150
790.3450, 1289.903
791.4880, 1323.732
792.6310, 1224.584
793.7730, 1155.326
794.9160, 1179.860
796.0590, 1106.609
797.2010, 1120.348
798.3430, 1052.151
799.4850, 1048.719
800.6270, 893.5088
801.7690, 946.8164
802.9100, 778.1992
804.0520, 850.6035
805.1930, 988.9502
806.3340, 824.8623
807.4750, 727.1221
808.6160, 702.0879
809.7560, 636.2168
810.8970, 787.6104
812.0370, 865.9854
813.1770, 881.0713
814.3170, 641.6953
815.4570, 728.6152
816.5960, 689.4199
817.7360, 639.6328
818.8750, 772.1670
820.0140, 572.6953
821.1530, 693.9023
822.2920, 688.8643
823.4310, 738.1816
824.5690, 662.8213
825.7070, 630.2520
826.8460, 733.0645
827.9840, 770.3057
829.1220, 696.0137
830.2590, 759.0352
831.3970, 554.3711
832.5340, 574.3682
833.6710, 724.4521
834.8080, 649.2744
835.9450, 709.5020
837.0820, 719.8945
838.2190, 489.4688
839.3550, 693.2432
840.4910, 706.0781
841.6270, 525.3633
842.7630, 710.4756
843.8990, 557.3184
845.0350, 521.1582
846.1700, 578.1455
847.3060, 538.0547
848.4410, 650.9199
849.5760, 616.3594
850.7100, 568.5996
851.8450, 578.2617
852.9800, 425.0449
854.1140, 573.8896
855.2480, 516.3330
856.3820, 561.3057
857.5160, 629.4844
858.6500, 519.6025
859.7830, 598.1484
860.9170, 384.3750
862.0500, 415.1182
863.1830, 419.4814
864.3160, 580.1260
865.4480, 367.6064
866.5810, 391.3887
867.7130, 515.6016
868.8460, 499.1328
869.9780, 541.4863
871.1100, 409.5176
872.2410, 441.2412
873.3730, 427.7871
874.5050, 570.2529
875.6360, 589.5508
876.7670, 460.3496
877.8980, 331.7314
879.0290, 485.2549
880.1590, 371.2822
881.2900, 401.5713
882.4200, 282.7930
883.5500, 292.6484
884.6800, 300.4268
885.8100, 374.1182
886.9400, 247.7832
888.0690, 380.8320
889.1990, 363.9043
890.3280, 391.1113
891.4570, 413.3652
892.5860, 234.3730
893.7140, 220.2852
894.8430, 442.1895
895.9710, 304.1113
897.1000, 238.6494
898.2280, 224.7930
899.3560, 454.6406
900.4830, 457.8975
901.6110, 190.3408
902.7380, 409.3291
903.8660, 328.9355
904.9930, 337.4707
906.1200, 313.5146
907.2460, 299.1270
908.3730, 162.4971
909.5000, 186.8965
910.6260, 342.2021
911.7520, 274.2266
912.8780, 357.9141
914.0040, 165.1191
915.1290, 136.3838
916.2550, 151.1865
917.3800, 181.8379
918.5050, 85.52930
919.6300, 243.0283
920.7550, 231.4795
921.8800, 73.44238
923.0040, 74.25195
924.1290, 48.64941
925.2530, 297.6494
926.3770, 169.0234
927.5010, 13.62988
928.6250, 157.5293
929.7480, 205.4512
930.8720, 123.6484
931.9950, 110.7295
933.1180, 32.97754
934.2410, 23.78711
935.3640, 11.54590
936.4860, 112.8818
937.6090, 30.46387
938.7310, 107.7910
939.8530, 29.08008
940.9750, 120.5098
942.0970, 22.25000
943.2180, 95.33984
944.3400, 97.91309
945.4610, 66.27441
946.5820, 16.86426
947.7030, 90.11621
948.8240, 24.33691
949.9450, 96.28711
951.0650, 10.58789
952.1860, 59.15820
953.3060, 33.26562
954.4260, 85.83496
955.5460, 57.89648
956.6650, 38.08398
957.7850, 27.82617
958.9040, 168.4541
960.0230, 46.01367
961.1420, 17.39844
962.2610, 210.3105
963.3800, 258.3301
964.4990, 227.5156
965.6170, 53.56055
966.7350, 162.1875
967.8530, 298.9590
968.9710, 124.3867
970.0890, 17.18750
971.2070, 26.33203
972.3240, 184.6289
973.4410, 67.14258
974.5580, 81.38477
975.6750, 101.0762
976.7920, 62.48047
977.9090, 111.7773
979.0250, 48.74414
980.1410, 75.57031
981.2580, 163.5996
982.3740, 119.0859
983.4890, 115.4551
984.6050, 244.3730
985.7200, 299.8535
986.8360, 240.0312
987.9510, 331.8047
989.0660, 152.6387
990.1810, 211.2051
991.2950, 372.2812
992.4100, 319.0371
993.5240, 413.1289
994.6390, 451.1094
995.7530, 233.9414
996.8660, 460.3906
997.9800, 494.9922
999.0940, 332.5723
1000.207, 543.7930
1001.320, 408.4863
1002.433, 396.8613
1003.546, 478.3086
1004.659, 462.7090
1005.772, 600.0898
1006.884, 590.0547
1007.996, 566.8340
1009.108, 601.0859
1010.220, 472.4922
1011.332, 645.9844
1012.444, 613.1094
1013.555, 682.7832
1014.666, 775.7012
1015.777, 690.5859
1016.888, 793.8691
1017.999, 604.9199
1019.110, 660.5566
1020.220, 689.8203
1021.331, 875.2461
1022.441, 687.7070
1023.551, 736.5156
1024.661, 885.9473
1025.770, 894.5352
1026.880, 961.8418
1027.989, 854.7891
1029.098, 911.6914
1030.207, 923.4707
1031.316, 1095.051
1032.425, 909.7969
1033.533, 1010.721
1034.642, 960.6484
1035.750, 1002.287
1036.858, 1096.223
1037.966, 860.1602
1039.073, 1067.100
1040.181, 861.0449
1041.288, 1049.992
1042.396, 943.6055
1043.503, 960.3340
1044.610, 945.2988
1045.716, 801.2676
1046.823, 879.2441
1047.929, 829.9492
1049.036, 999.5547
1050.142, 815.2402
1051.248, 894.0723
1052.353, 912.5195
1053.459, 766.5371
1054.564, 725.5645
1055.670, 777.9707
1056.775, 721.4199
1057.880, 759.6055
1058.985, 618.4805
1060.089, 810.4238
1061.194, 903.3008
1062.298, 921.2402
1063.402, 794.3457
1064.506, 920.9941
1065.610, 859.0117
1066.713, 995.2695
1067.817, 914.9043
1068.920, 848.0469
1070.023, 976.9727
1071.126, 1057.621
1072.229, 1165.584
1073.332, 1209.443
1074.435, 1423.512
1075.537, 1622.928
1076.639, 1730.951
1077.741, 1826.748
1078.843, 2050.602
1079.945, 1995.627
1081.046, 2234.754
1082.148, 2220.457
1083.249, 2297.672
1084.350, 2389.592
1085.451, 2290.721
1086.551, 2430.596
1087.652, 2463.809
1088.752, 2322.385
1089.853, 2400.748
1090.953, 2443.723
1092.053, 2489.074
1093.152, 2395.184
1094.252, 2578.100
1095.351, 2667.055
1096.451, 2569.092
1097.550, 2803.496
1098.649, 3062.846
1099.748, 3029.582
1100.846, 3048.477
1101.945, 3118.396
1103.043, 3143.996
1104.141, 3329.709
1105.239, 3367.137
1106.337, 3459.039
1107.434, 3426.150
1108.532, 3784.131
1109.629, 3770.137
1110.726, 4050.658
1111.823, 4148.754
1112.920, 3936.865
1114.017, 3990.010
1115.113, 4063.186
1116.210, 4257.395
1117.306, 4212.633
1118.402, 4194.906
1119.498, 4336.238
1120.593, 4517.598
1121.689, 4380.996
1122.784, 4570.443
1123.879, 4604.922
1124.974, 4470.443
1126.069, 4621.021
1127.164, 4772.635
1128.259, 4819.297
1129.353, 4896.992
1130.447, 4863.721
1131.541, 4895.250
1132.635, 4925.613
1133.729, 4926.174
1134.822, 4931.090
1135.916, 4928.596
1137.009, 4947.064
1138.102, 4920.105
1139.195, 4891.197
1140.288, 4915.322
1141.380, 4918.535
1142.473, 4803.820
1143.565, 4849.182
1144.657, 4882.578
1145.749, 4942.014
1146.841, 4777.482
1147.932, 4909.992
1149.024, 5095.547
1150.115, 4861.141
1151.206, 5011.770
1152.297, 4933.439
1153.388, 4959.148
1154.479, 4955.367
1155.569, 4922.703
1156.659, 4874.543
1157.750, 4791.416
1158.839, 4711.330
1159.929, 4683.375
1161.019, 4571.836
1162.108, 4625.305
1163.198, 4411.375
1164.287, 4377.482
1165.376, 4366.629
1166.465, 4376.816
1167.553, 4318.330
1168.642, 4142.307
1169.730, 4139.611
1170.818, 4154.953
1171.906, 3898.340
1172.994, 3688.768
1174.082, 3767.236
1175.170, 3585.742
1176.257, 3558.291
1177.344, 3280.881
1178.431, 3270.508
1179.518, 3216.180
1180.605, 3068.889
1181.691, 3001.639
1182.778, 2752.430
1183.864, 2609.262
1184.950, 2515.135
1186.036, 2457.057
1187.122, 2335.021
1188.207, 2095.029
1189.292, 1739.080
1190.378, 1726.174
1191.463, 1558.307
1192.548, 1618.488
1193.632, 1363.725
1194.717, 1228.008
1195.801, 952.3340
1196.886, 1064.703
1197.970, 863.1426
1199.054, 834.6367
1200.137, 581.1836
1201.221, 511.7676
1202.305, 632.4160
1203.388, 483.1055
1204.471, 478.8555
1205.554, 383.6465
1206.637, 280.4980
1207.719, 173.3887
1208.802, 193.3555
1209.884, 163.3984
1210.966, 154.4961
1212.048, 164.6387
1213.130, 307.8340
1214.212, 149.0840
1215.293, 243.3828
1216.374, 51.72852
1217.456, 197.1191
1218.536, 40.41016
1219.617, 85.09570
1220.698, 45.66406
1221.778, 47.15820
1222.859, 153.8594
1223.939, 174.6289
1225.019, 134.4570
1226.099, 75.12695
1227.178, 64.82812
1228.258, 33.84570
1229.337, 143.7402
1230.417, 4.082031
1231.496, 263.0781
1232.574, 331.4629
1233.653, 0.1054690
1234.732, 246.3633
1235.810, 268.9219
1236.888, 84.54102
1237.966, 82.22266
1239.044, 148.9785
1240.122, 33.77148
1241.199, 1.367188
1242.277, 70.50391
1243.354, 111.6035
1244.431, 262.1543
1245.508, 345.4316
1246.585, 365.0664
1247.661, 130.2715
1248.738, 230.1621
1249.814, 192.3418
1250.890, 149.1562
1251.966, 293.5430
1253.042, 95.98633
1254.117, 235.4941
1255.193, 243.3809
1256.268, 309.2500
1257.343, 244.6035
1258.418, 218.0488
1259.493, 324.0625
1260.567, 357.5020
1261.642, 275.1816
1262.716, 353.3926
