##NAMES=Clinozoisite
##RRUFFID=R060284
##IDEAL CHEMISTRY=Ca_2_Al_3_(Si_2_O_7_)(SiO_4_)O(OH)
##LOCALITY=near Zagi Mountain, Khaffor Dehri, North-West Frontier Province, Pakistan
##OWNER=RRUFF
##SOURCE=Herb Obodda
##DESCRIPTION=Greenish-brown fragment of a prismatic crystal
##STATUS=The identification of this mineral has been confirmed by X-ray diffraction and chemical analysis
##URL=rruff.info/R060284
##MEASURED CHEMISTRY=Ca_2.00_(Al_0.90_Fe^3+^_0.10_)_3_(Si_1.00_O_4_)(Si_2.00_O_7_)O(OH)
##PIN_ID=L01751
##ORIENTATION=Laser parallel to (1 0 1). Fiducial mark perpendicular to laser is parallel to -b [0 -1 0]
118.1340, 0.0000000E+00
119.3650, 30.35840
120.5960, 129.3281
121.8270, 34.91211
123.0580, 133.0889
124.2880, 359.4492
125.5190, 290.1768
126.7490, 244.5498
127.9790, 762.2695
129.2090, 1237.028
130.4390, 1728.677
131.6680, 2179.237
132.8980, 2666.602
134.1270, 3341.647
135.3560, 3814.006
136.5850, 4448.879
137.8140, 5091.597
139.0430, 5945.802
140.2710, 6440.588
141.5000, 6890.707
142.7280, 6934.465
143.9560, 7290.906
145.1840, 7402.877
146.4120, 7601.064
147.6390, 7529.023
148.8670, 7366.207
150.0940, 7171.005
151.3210, 7059.746
152.5490, 7285.780
153.7750, 6904.932
155.0020, 6983.484
156.2290, 7457.602
157.4550, 7289.064
158.6810, 7666.768
159.9080, 7724.346
161.1340, 7917.346
162.3590, 7937.340
163.5850, 8048.270
164.8110, 8416.079
166.0360, 8437.712
167.2610, 8410.118
168.4860, 8258.251
169.7110, 7998.070
170.9360, 7794.543
172.1610, 7226.643
173.3850, 6888.326
174.6100, 6040.512
175.8340, 5171.140
177.0580, 4679.193
178.2820, 3874.664
179.5050, 3178.553
180.7290, 2620.851
181.9520, 2196.560
183.1760, 1395.675
184.3990, 1086.194
185.6220, 513.1172
186.8450, 227.4395
188.0670, 185.1621
189.2900, 181.7168
190.5120, 273.0801
191.7340, 431.1885
192.9560, 495.3105
194.1780, 515.5127
195.4000, 457.8740
196.6220, 284.5469
197.8430, 224.2100
199.0640, 105.6641
200.2860, 1.087891
201.5070, 139.7285
202.7270, 398.1748
203.9480, 408.4834
205.1690, 585.9580
206.3890, 628.5957
207.6090, 686.3906
208.8290, 766.3438
210.0490, 844.3662
211.2690, 1166.617
212.4890, 1027.854
213.7080, 1173.152
214.9280, 1260.520
216.1470, 1202.969
217.3660, 1321.508
218.5850, 1362.145
219.8030, 1549.885
221.0220, 1665.738
222.2400, 2040.713
223.4590, 2082.812
224.6770, 2563.043
225.8950, 2961.404
227.1120, 3571.764
228.3300, 4226.680
229.5480, 5081.926
230.7650, 5925.629
231.9820, 6827.107
233.1990, 7369.650
234.4160, 8086.406
235.6330, 8778.387
236.8490, 9287.594
238.0660, 9881.025
239.2820, 10230.68
240.4980, 10757.57
241.7140, 11518.69
242.9300, 12262.04
244.1460, 13239.61
245.3610, 13967.42
246.5770, 15288.47
247.7920, 16282.75
249.0070, 17492.26
250.2220, 18904.02
251.4370, 19735.01
252.6510, 20239.24
253.8660, 20745.71
255.0800, 20689.80
256.2940, 20582.51
257.5080, 19945.57
258.7220, 19456.01
259.9360, 18474.69
261.1490, 17129.64
262.3630, 16362.63
263.5760, 15650.09
264.7890, 15554.40
266.0020, 15620.55
267.2150, 15706.28
268.4270, 16292.32
269.6400, 16906.59
270.8520, 17322.32
272.0640, 17854.03
273.2760, 18267.99
274.4880, 17993.14
275.7000, 17934.40
276.9120, 17390.75
278.1230, 16693.17
279.3340, 15959.64
280.5450, 14931.20
281.7560, 13926.82
282.9670, 12795.46
284.1780, 11539.98
285.3880, 10824.37
286.5980, 10136.66
287.8090, 9324.883
289.0190, 8779.070
290.2290, 8370.250
291.4380, 7939.439
292.6480, 7606.656
293.8570, 7315.914
295.0670, 7157.230
296.2760, 6897.611
297.4850, 6530.068
298.6930, 6517.586
299.9020, 6414.812
301.1110, 6259.152
302.3190, 6350.393
303.5270, 6058.889
304.7350, 5909.080
305.9430, 5985.375
307.1510, 5915.895
308.3580, 5921.637
309.5660, 6220.598
310.7730, 6361.773
311.9800, 6594.164
313.1870, 6804.762
314.3940, 7118.570
315.6010, 7561.582
316.8070, 8139.801
318.0130, 8382.223
319.2200, 8973.848
320.4260, 9394.668
321.6310, 9999.688
322.8370, 10305.91
324.0430, 10660.32
325.2480, 11177.94
326.4540, 11574.75
327.6590, 12081.75
328.8640, 12549.95
330.0680, 13319.35
331.2730, 14207.94
332.4780, 15077.75
333.6820, 16014.19
334.8860, 17249.43
336.0900, 18549.75
337.2940, 19450.83
338.4980, 20570.47
339.7010, 21676.38
340.9050, 22977.37
342.1080, 24032.56
343.3110, 24963.69
344.5140, 25989.14
345.7170, 26860.11
346.9200, 27598.37
348.1220, 28330.41
349.3240, 28673.62
350.5270, 28598.00
351.7290, 28069.53
352.9310, 26764.25
354.1320, 24999.13
355.3340, 22914.19
356.5350, 20486.41
357.7370, 17949.81
358.9380, 15320.38
360.1390, 12841.13
361.3400, 10709.05
362.5400, 8916.148
363.7410, 7926.414
364.9410, 6963.852
366.1410, 6055.461
367.3410, 5609.244
368.5410, 5145.199
369.7410, 4578.324
370.9400, 4490.623
372.1400, 4116.098
373.3390, 3556.744
374.5380, 3410.572
375.7370, 3095.578
376.9360, 2933.770
378.1350, 2975.145
379.3330, 2788.703
380.5310, 2698.445
381.7300, 2926.369
382.9280, 3411.475
384.1260, 3680.762
385.3230, 4288.227
386.5210, 4668.875
387.7180, 4852.703
388.9160, 5101.705
390.1130, 5115.887
391.3100, 5047.246
392.5060, 4745.785
393.7030, 4481.496
394.9000, 4023.383
396.0960, 3518.447
397.2920, 2783.684
398.4880, 2174.092
399.6840, 1639.672
400.8800, 995.4258
402.0750, 543.7070
403.2710, 306.3125
404.4660, 317.8027
405.6610, 627.2266
406.8560, 1069.588
408.0510, 1103.080
409.2450, 1053.371
410.4400, 1133.918
411.6340, 1098.752
412.8280, 1054.857
414.0220, 496.2148
415.2160, 232.5957
416.4100, 320.1016
417.6030, 967.9590
418.7970, 1754.980
419.9900, 2637.156
421.1830, 3654.492
422.3760, 4823.992
423.5690, 5670.648
424.7610, 6397.463
425.9540, 7008.570
427.1460, 7511.705
428.3380, 7832.869
429.5300, 8109.326
430.7220, 8434.945
431.9140, 8328.723
433.1050, 8094.672
434.2970, 8021.777
435.4880, 8223.053
436.6790, 8716.486
437.8700, 9355.086
439.0610, 10324.85
440.2510, 12200.78
441.4420, 13923.88
442.6320, 16584.20
443.8220, 19283.68
445.0120, 22025.37
446.2020, 25188.29
447.3910, 28697.43
448.5810, 31326.79
449.7700, 33831.41
450.9600, 35616.26
452.1490, 36815.38
453.3370, 37243.73
454.5260, 36595.38
455.7150, 35341.27
456.9030, 33524.43
458.0910, 31121.82
459.2800, 28736.50
460.4670, 26031.44
461.6550, 24032.62
462.8430, 21829.09
464.0300, 20300.84
465.2180, 19502.88
466.4050, 18777.21
467.5920, 18161.80
468.7790, 17886.67
469.9650, 17218.80
471.1520, 17232.22
472.3380, 17004.92
473.5250, 17163.91
474.7110, 17126.18
475.8970, 16945.68
477.0820, 16893.44
478.2680, 16439.53
479.4540, 16307.98
480.6390, 16420.81
481.8240, 15852.06
483.0090, 15438.72
484.1940, 14783.80
485.3780, 14064.21
486.5630, 13194.95
487.7470, 11994.98
488.9320, 11040.25
490.1160, 10071.77
491.3000, 8743.498
492.4830, 7903.449
493.6670, 7148.615
494.8500, 6452.520
496.0340, 5935.146
497.2170, 5592.500
498.4000, 5422.004
499.5820, 5321.213
500.7650, 5534.289
501.9480, 5761.904
503.1300, 6029.160
504.3120, 6895.715
505.4940, 6873.883
506.6760, 7344.223
507.8580, 7935.725
509.0390, 8045.379
510.2210, 8209.176
511.4020, 8118.107
512.5830, 8105.174
513.7640, 7990.371
514.9450, 7976.701
516.1250, 8211.160
517.3060, 7951.750
518.4860, 8135.473
519.6660, 7984.324
520.8460, 7763.305
522.0260, 7794.406
523.2060, 7531.631
524.3850, 7356.973
525.5650, 7262.428
526.7440, 6999.992
527.9230, 6603.668
529.1020, 6311.449
530.2810, 5805.336
531.4590, 5015.328
532.6380, 4310.422
533.8160, 3677.621
534.9940, 2932.916
536.1720, 2147.312
537.3500, 1511.805
538.5270, 1001.393
539.7050, 573.9062
540.8820, 352.8535
542.0590, 116.7227
543.2360, 162.3164
544.4130, 62.31641
545.5900, 199.2500
546.7660, 92.77344
547.9430, 102.2480
549.1190, 25.39062
550.2950, 103.7617
551.4710, 394.7812
552.6470, 556.5918
553.8220, 972.5039
554.9980, 1525.004
556.1730, 2126.480
557.3480, 2592.359
558.5230, 3916.295
559.6980, 5032.322
560.8730, 6522.445
562.0470, 8411.660
563.2220, 10946.96
564.3960, 13680.35
565.5700, 17157.82
566.7440, 20238.38
567.9170, 23070.03
569.0910, 26048.75
570.2640, 27469.56
571.4380, 27689.44
572.6110, 26518.40
573.7840, 24635.44
574.9570, 21545.56
576.1290, 18336.74
577.3020, 14472.00
578.4740, 11222.33
579.6460, 8484.742
580.8180, 6645.039
581.9900, 5718.232
583.1620, 5023.182
584.3330, 4734.242
585.5040, 4820.277
586.6760, 5119.734
587.8470, 5503.953
589.0180, 5828.342
590.1880, 6555.738
591.3590, 7115.648
592.5290, 7915.129
593.7000, 8546.215
594.8700, 9504.621
596.0400, 10344.18
597.2090, 11370.50
598.3790, 12204.51
599.5490, 13396.44
600.7180, 14253.55
601.8870, 14833.73
603.0560, 15309.73
604.2250, 15712.53
605.3940, 15643.83
606.5620, 15308.65
607.7300, 14664.36
608.8990, 13795.53
610.0670, 12668.31
611.2350, 11789.52
612.4020, 10728.17
613.5700, 9573.352
614.7370, 8645.211
615.9050, 7943.076
617.0720, 7042.723
618.2390, 6411.957
619.4060, 5367.496
620.5720, 4718.863
621.7390, 3941.258
622.9050, 3228.477
624.0710, 2720.795
625.2370, 1923.436
626.4030, 1605.311
627.5690, 1119.252
628.7340, 756.6836
629.9000, 641.9062
631.0650, 403.2871
632.2300, 447.4512
633.3950, 118.0566
634.5600, 5.570313
635.7240, 203.2695
636.8890, 129.5508
638.0530, 31.49609
639.2170, 30.66992
640.3810, 56.26172
641.5450, 246.4883
642.7080, 244.7598
643.8720, 293.0664
645.0350, 472.5332
646.1980, 446.3594
647.3610, 671.8711
648.5240, 919.4473
649.6870, 1435.367
650.8490, 1626.061
652.0120, 1981.592
653.1740, 2348.598
654.3360, 2598.031
655.4980, 2696.836
656.6600, 2863.105
657.8210, 2881.949
658.9830, 2857.039
660.1440, 2675.016
661.3050, 2574.566
662.4660, 2418.869
663.6270, 2255.479
664.7870, 2046.701
665.9480, 1985.254
667.1080, 1819.721
668.2680, 1631.957
669.4280, 1581.730
670.5880, 1557.113
671.7480, 1463.023
672.9070, 1337.826
674.0670, 1356.516
675.2260, 1400.090
676.3850, 1689.549
677.5440, 1817.896
678.7030, 1906.125
679.8610, 2151.234
681.0200, 2198.229
682.1780, 2227.100
683.3360, 2526.494
684.4940, 2679.613
685.6520, 2641.500
686.8090, 2892.742
687.9670, 2674.904
689.1240, 2906.904
690.2810, 2826.529
691.4380, 2853.240
692.5950, 2944.055
693.7520, 2872.959
694.9080, 3090.945
696.0650, 3262.891
697.2210, 2998.746
698.3770, 3243.471
699.5330, 3140.062
700.6880, 3304.523
701.8440, 3014.844
702.9990, 3089.033
704.1550, 3082.082
705.3100, 2930.996
706.4650, 2464.770
707.6190, 2082.406
708.7740, 1852.898
709.9290, 1649.250
711.0830, 1414.461
712.2370, 1355.525
713.3910, 889.4492
714.5450, 629.2285
715.6980, 658.8594
716.8520, 574.3438
718.0050, 469.6816
719.1580, 283.8711
720.3110, 204.9004
721.4640, 0.2382810
722.6170, 168.3906
723.7700, 90.83984
724.9220, 125.9062
726.0740, 97.03906
727.2260, 8.789063
728.3780, 147.7031
729.5300, 57.51758
730.6810, 127.6104
731.8330, 55.01855
732.9840, 280.7041
734.1350, 57.79102
735.2860, 195.1611
736.4370, 44.88770
737.5880, 216.8945
738.7380, 170.2725
739.8880, 89.99609
741.0390, 229.0273
742.1890, 272.4385
743.3380, 231.2520
744.4880, 302.4512
745.6380, 204.0693
746.7870, 195.0557
747.9360, 124.4102
749.0850, 354.0918
750.2340, 249.2227
751.3830, 273.7510
752.5310, 268.6855
753.6800, 62.02539
754.8280, 138.6621
755.9760, 132.6357
757.1240, 201.9424
758.2720, 72.62109
759.4190, 185.5996
760.5670, 183.9385
761.7140, 234.6348
762.8610, 129.7168
764.0080, 119.1270
765.1550, 137.8613
766.3020, 67.92676
767.4480, 130.2852
768.5950, 118.9707
769.7410, 69.97559
770.8870, 95.27344
772.0330, 141.8730
773.1780, 168.3145
774.3240, 66.58398
775.4690, 32.14062
776.6140, 9.039063
777.7590, 56.02539
778.9040, 120.0352
780.0490, 51.85156
781.1940, 71.68555
782.3380, 41.20898
783.4820, 8.798828
784.6260, 29.15430
785.7700, 92.28906
786.9140, 179.2285
788.0580, 278.9844
789.2010, 283.6191
790.3450, 332.0449
791.4880, 266.2344
792.6310, 326.3145
793.7730, 255.2324
794.9160, 185.9824
796.0590, 154.5566
797.2010, 242.9570
798.3430, 245.4102
799.4850, 325.1680
800.6270, 398.1680
801.7690, 460.9258
802.9100, 591.5312
804.0520, 581.9922
805.1930, 741.3086
806.3340, 803.4805
807.4750, 887.5137
808.6160, 979.3555
809.7560, 1023.158
810.8970, 1110.771
812.0370, 1189.246
813.1770, 1295.533
814.3170, 1414.855
815.4570, 1543.848
816.5960, 1690.777
817.7360, 1835.572
818.8750, 2001.234
820.0140, 2093.762
821.1530, 2259.184
822.2920, 2374.484
823.4310, 2414.688
824.5690, 2491.773
825.7070, 2511.748
826.8460, 2764.596
827.9840, 2829.316
829.1220, 3030.910
830.2590, 3270.371
831.3970, 3281.705
832.5340, 3295.910
833.6710, 3462.986
834.8080, 3356.934
835.9450, 3822.758
837.0820, 3910.455
838.2190, 3885.027
839.3550, 4461.477
840.4910, 4465.801
841.6270, 4653.006
842.7630, 4803.090
843.8990, 5178.055
845.0350, 5392.900
846.1700, 5680.627
847.3060, 6010.238
848.4410, 6196.736
849.5760, 6716.117
850.7100, 7187.385
851.8450, 7550.539
852.9800, 7898.584
854.1140, 8340.516
855.2480, 9318.332
856.3820, 9779.219
857.5160, 10695.16
858.6500, 11290.32
859.7830, 12544.32
860.9170, 13448.30
862.0500, 14700.82
863.1830, 15966.54
864.3160, 17501.04
865.4480, 19024.49
866.5810, 20526.38
867.7130, 22616.66
868.8460, 23651.29
869.9780, 25419.56
871.1100, 26623.63
872.2410, 27190.90
873.3730, 28066.44
874.5050, 28756.03
875.6360, 29294.40
876.7670, 29662.66
877.8980, 30437.06
879.0290, 30799.63
880.1590, 31450.67
881.2900, 32085.12
882.4200, 32402.68
883.5500, 32545.72
884.6800, 32551.13
885.8100, 33406.05
886.9400, 33587.48
888.0690, 34188.33
889.1990, 34874.47
890.3280, 35886.56
891.4570, 37100.82
892.5860, 37776.47
893.7140, 38849.77
894.8430, 39084.22
895.9710, 39108.58
897.1000, 38701.14
898.2280, 37667.58
899.3560, 36384.63
900.4830, 35038.44
901.6110, 33341.12
902.7380, 32100.28
903.8660, 30864.60
904.9930, 30055.71
906.1200, 29818.99
907.2460, 29674.76
908.3730, 30176.72
909.5000, 30340.18
910.6260, 31001.14
911.7520, 31033.37
912.8780, 31181.31
914.0040, 30613.30
915.1290, 30460.57
916.2550, 29506.29
917.3800, 28328.92
918.5050, 27339.32
919.6300, 25789.30
920.7550, 24406.54
921.8800, 23101.67
923.0040, 22137.39
924.1290, 20944.28
925.2530, 19940.28
926.3770, 18427.74
927.5010, 17446.73
928.6250, 16647.30
929.7480, 15518.37
930.8720, 14773.79
931.9950, 13728.91
933.1180, 12840.07
934.2410, 12097.32
935.3640, 11126.31
936.4860, 10274.27
937.6090, 9300.367
938.7310, 8501.664
939.8530, 7462.984
940.9750, 6630.461
942.0970, 5974.979
943.2180, 5408.539
944.3400, 4923.146
945.4610, 4476.861
946.5820, 3832.502
947.7030, 3747.266
948.8240, 3476.078
949.9450, 3147.938
951.0650, 3150.844
952.1860, 2830.814
953.3060, 2818.848
954.4260, 2696.957
955.5460, 2631.127
956.6650, 2710.371
957.7850, 2673.695
958.9040, 2701.078
960.0230, 2901.553
961.1420, 2812.080
962.2610, 2694.670
963.3800, 2745.367
964.4990, 2980.152
965.6170, 3151.000
966.7350, 3113.951
967.8530, 3202.967
968.9710, 3094.047
970.0890, 3504.191
971.2070, 3755.412
972.3240, 4181.695
973.4410, 4404.066
974.5580, 5133.504
975.6750, 5939.027
976.7920, 6972.635
977.9090, 7928.312
979.0250, 8966.059
980.1410, 10108.88
981.2580, 11303.79
982.3740, 12367.78
983.4890, 13264.85
984.6050, 13734.00
985.7200, 13628.23
986.8360, 12986.55
987.9510, 12496.96
989.0660, 11331.45
990.1810, 9916.023
991.2950, 8664.688
992.4100, 7389.449
993.5240, 6264.336
994.6390, 5351.346
995.7530, 4465.459
996.8660, 3602.756
997.9800, 3014.158
999.0940, 2771.688
1000.207, 2179.387
1001.320, 1956.230
1002.433, 1630.240
1003.546, 1318.406
1004.659, 1034.109
1005.772, 831.0859
1006.884, 700.9414
1007.996, 650.9043
1009.108, 598.4238
1010.220, 438.7988
1011.332, 297.2891
1012.444, 365.4883
1013.555, 396.3066
1014.666, 504.3281
1015.777, 570.4199
1016.888, 655.6699
1017.999, 857.4844
1019.110, 1026.424
1020.220, 1338.455
1021.331, 1738.080
1022.441, 2008.346
1023.551, 2728.869
1024.661, 3144.410
1025.770, 3538.303
1026.880, 4031.846
1027.989, 4378.139
1029.098, 4455.080
1030.207, 4772.891
1031.316, 4599.793
1032.425, 4561.725
1033.533, 4340.674
1034.642, 3811.975
1035.750, 3634.896
1036.858, 3170.486
1037.966, 3100.480
1039.073, 3050.146
1040.181, 3122.477
1041.288, 2935.426
1042.396, 2861.424
1043.503, 2857.287
1044.610, 2904.305
1045.716, 2947.406
1046.823, 2913.387
1047.929, 2758.135
1049.036, 2796.469
1050.142, 2486.221
1051.248, 2394.127
1052.353, 2288.445
1053.459, 2208.697
1054.564, 2138.676
1055.670, 1798.455
1056.775, 1563.930
1057.880, 1516.900
1058.985, 1330.562
1060.089, 1105.877
1061.194, 872.0430
1062.298, 1073.430
1063.402, 716.8457
1064.506, 846.9727
1065.610, 716.1953
1066.713, 720.5098
1067.817, 975.4883
1068.920, 840.1621
1070.023, 860.5508
1071.126, 912.2109
1072.229, 1296.947
1073.332, 1492.768
1074.435, 1801.672
1075.537, 2160.654
1076.639, 2543.775
1077.741, 2869.141
1078.843, 3232.504
1079.945, 3794.449
1081.046, 4229.824
1082.148, 5182.393
1083.249, 5658.918
1084.350, 6545.074
1085.451, 7728.180
1086.551, 9036.816
1087.652, 10365.23
1088.752, 11811.79
1089.853, 13219.96
1090.953, 14503.08
1092.053, 15527.88
1093.152, 15964.06
1094.252, 15789.43
1095.351, 14921.51
1096.451, 13569.81
1097.550, 11936.81
1098.649, 9767.461
1099.748, 8301.037
1100.846, 6384.174
1101.945, 5512.881
1103.043, 4232.170
1104.141, 3703.000
1105.239, 3137.016
1106.337, 2557.969
1107.434, 2295.084
1108.532, 2190.305
1109.629, 1876.439
1110.726, 1718.738
1111.823, 1455.990
1112.920, 1473.016
1114.017, 1229.381
1115.113, 1348.398
1116.210, 1361.836
1117.306, 1149.674
1118.402, 1427.232
1119.498, 1364.225
1120.593, 1330.580
1121.689, 1371.223
1122.784, 1102.570
1123.879, 977.2754
1124.974, 982.8223
1126.069, 767.4785
1127.164, 671.0684
1128.259, 782.1621
1129.353, 410.2500
1130.447, 316.1895
1131.541, 258.3672
1132.635, 239.5898
1133.729, 199.8535
1134.822, 39.92383
1135.916, 76.73047
1137.009, 33.35352
1138.102, 135.5625
1139.195, 5.527344
1140.288, 141.4551
1141.380, 99.22266
1142.473, 2.759766
1143.565, 189.3613
1144.657, 16.35156
1145.749, 23.86328
1146.841, 188.5938
1147.932, 110.0820
1149.024, 89.56250
1150.115, 6.031250
1151.206, 53.52539
1152.297, 19.89648
1153.388, 99.98047
1154.479, 71.14062
1155.569, 93.55273
1156.659, 120.9473
1157.750, 51.29492
1158.839, 140.4883
1159.929, 126.6152
1161.019, 278.4375
1162.108, 217.0332
1163.198, 26.70117
1164.287, 165.3691
1165.376, 53.53320
1166.465, 87.38672
1167.553, 159.9102
1168.642, 75.57227
1169.730, 63.14453
1170.818, 95.20312
1171.906, 58.48242
1172.994, 158.2402
1174.082, 22.28125
1175.170, 23.09375
1176.257, 13.96875
1177.344, 5.664063
1178.431, 181.4102
1179.518, 167.9336
1180.605, 122.2734
1181.691, 303.6074
1182.778, 12.53906
1183.864, 6.542969
1184.950, 18.64648
1186.036, 31.78125
1187.122, 103.3184
1188.207, 27.76953
1189.292, 89.22656
1190.378, 102.6348
1191.463, 19.59766
1192.548, 58.94336
1193.632, 29.12500
1194.717, 202.7070
1195.801, 126.8535
1196.886, 245.3984
1197.970, 31.07227
1199.054, 21.59961
1200.137, 6.824219
1201.221, 227.2207
1202.305, 174.5840
1203.388, 129.7227
1204.471, 199.7578
1205.554, 106.7461
1206.637, 38.54297
1207.719, 69.77539
1208.802, 76.98242
1209.884, 7.826172
1210.966, 121.2910
1212.048, 87.38477
1213.130, 133.4512
1214.212, 21.51562
1215.293, 50.50000
1216.374, 44.55859
1217.456, 81.28906
1218.536, 3.898438
1219.617, 10.16211
1220.698, 74.50000
1221.778, 44.88281
1222.859, 210.6367
1223.939, 122.1270
1225.019, 102.4180
1226.099, 7.101563
1227.178, 111.1270
1228.258, 69.68164
1229.337, 172.3828
1230.417, 122.4160
1231.496, 270.4023
1232.574, 71.35742
1233.653, 379.2480
1234.732, 43.32422
1235.810, 329.1035
1236.888, 48.88477
1237.966, 71.55078
1239.044, 216.1465
1240.122, 172.7031
1241.199, 217.2227
1242.277, 29.70117
1243.354, 216.0859
1244.431, 128.5273
1245.508, 120.8105
1246.585, 180.0352
1247.661, 76.20898
1248.738, 148.3066
1249.814, 141.5684
1250.890, 137.3320
1251.966, 187.2539
1253.042, 144.1211
1254.117, 189.9238
1255.193, 35.67383
1256.268, 198.3535
1257.343, 72.82812
1258.418, 270.5723
1259.493, 199.3633
1260.567, 255.7559
1261.642, 356.0977
1262.716, 284.3926
1263.790, 142.8750
1264.864, 328.0449
1265.938, 291.2559
1267.011, 360.3223
1268.085, 434.1953
1269.158, 187.0547
1270.231, 221.4922
1271.304, 325.3398
1272.377, 219.2773
1273.450, 254.2070
1274.522, 359.8809
1275.594, 445.5645
1276.666, 457.2812
1277.738, 295.9824
1278.810, 368.0273
1279.882, 312.8770
1280.953, 220.7109
1282.025, 262.6270
1283.096, 268.1426
1284.167, 320.4766
1285.238, 220.8965
1286.308, 216.0859
1287.379, 269.7441
1288.449, 310.1172
1289.519, 324.6211
1290.589, 334.0449
1291.659, 342.2070
