##NAMES=Clinoptilolite-Ca
##RRUFFID=R060662
##IDEAL CHEMISTRY=Ca_3_(Si_30_Al_6_)O_72_&#183;20H_2_O
##LOCALITY=Succor Creek, Malheur County, Oregon, USA
##OWNER=RRUFF
##SOURCE=Michael Scott
##DESCRIPTION=Group of colorless platy prismatic crystals
##STATUS=The identification of this mineral has been confirmed by X-ray diffraction and chemical analysis
##URL=rruff.info/R060662
##MEASURED CHEMISTRY=(Ca_1.02_Na_0.97_K_0.59_)_Σ=2.58_(Si_14.40_Al_3.60_)_Σ=18_O_36_·10.96H_2_O
##PIN_ID=M00134
##ORIENTATION=Laser parallel to (1 0 1). Fiducial mark perpendicular to laser is parallel to b [0 1 0]
134.1270, 0.0000000E+00
135.3560, 87.27344
136.5850, 122.1484
137.8140, 75.94531
139.0430, 455.6172
140.2710, 324.7695
141.5000, 384.1211
142.7280, 535.4043
143.9560, 561.9434
145.1840, 674.2324
146.4120, 896.8340
147.6390, 719.5059
148.8670, 832.4746
150.0940, 992.0000
151.3210, 970.5938
152.5490, 1302.541
153.7750, 934.3125
155.0020, 1289.096
156.2290, 1168.094
157.4550, 1086.146
158.6810, 995.3555
159.9080, 818.7734
161.1340, 974.9609
162.3590, 926.3438
163.5850, 974.3535
164.8110, 808.5840
166.0360, 748.4531
167.2610, 459.4980
168.4860, 628.3008
169.7110, 668.1172
170.9360, 466.4102
172.1610, 661.1445
173.3850, 569.5996
174.6100, 667.6914
175.8340, 714.4062
177.0580, 1004.627
178.2820, 1007.533
179.5050, 1223.529
180.7290, 1171.256
181.9520, 1109.922
183.1760, 1109.461
184.3990, 1007.029
185.6220, 1050.342
186.8450, 1131.357
188.0670, 1120.396
189.2900, 1348.461
190.5120, 1162.277
191.7340, 1244.785
192.9560, 1070.422
194.1780, 1085.062
195.4000, 1165.684
196.6220, 1120.273
197.8430, 892.8398
199.0640, 934.3926
200.2860, 881.9512
201.5070, 911.5234
202.7270, 886.1367
203.9480, 435.8086
205.1690, 223.5605
206.3890, 267.4102
207.6090, 155.3965
208.8290, 204.1855
210.0490, 65.02344
211.2690, 132.9961
212.4890, 13.81641
213.7080, 114.6738
214.9280, 210.5430
216.1470, 28.87305
217.3660, 245.7305
218.5850, 140.1973
219.8030, 326.3398
221.0220, 199.2168
222.2400, 230.8809
223.4590, 36.38477
224.6770, 17.20117
225.8950, 171.1602
227.1120, 112.5547
228.3300, 65.46680
229.5480, 35.69336
230.7650, 79.50781
231.9820, 247.5195
233.1990, 262.3223
234.4160, 556.9414
235.6330, 604.4043
236.8490, 651.7168
238.0660, 789.8770
239.2820, 940.8965
240.4980, 1012.758
241.7140, 986.4824
242.9300, 1186.984
244.1460, 1103.113
245.3610, 1461.598
246.5770, 1348.582
247.7920, 1409.059
249.0070, 1667.027
250.2220, 1856.410
251.4370, 1834.201
252.6510, 1843.645
253.8660, 1905.719
255.0800, 2052.496
256.2940, 2170.121
257.5080, 2246.691
258.7220, 2291.826
259.9360, 2258.648
261.1490, 2255.521
262.3630, 2189.258
263.5760, 2039.139
264.7890, 2159.199
266.0020, 2082.467
267.2150, 1962.961
268.4270, 1997.713
269.6400, 1853.713
270.8520, 1924.977
272.0640, 2164.463
273.2760, 1983.270
274.4880, 2086.408
275.7000, 1795.910
276.9120, 2029.676
278.1230, 1954.582
279.3340, 1957.574
280.5450, 2034.730
281.7560, 2313.807
282.9670, 2083.504
284.1780, 2405.664
285.3880, 2084.215
286.5980, 2163.084
287.8090, 2446.234
289.0190, 2468.635
290.2290, 2501.256
291.4380, 2563.164
292.6480, 2595.545
293.8570, 2631.641
295.0670, 2665.465
296.2760, 2660.783
297.4850, 2641.594
298.6930, 2578.357
299.9020, 2659.180
301.1110, 2644.996
302.3190, 2720.533
303.5270, 2928.832
304.7350, 2922.904
305.9430, 2985.127
307.1510, 3141.621
308.3580, 3063.480
309.5660, 3155.750
310.7730, 3475.881
311.9800, 3522.094
313.1870, 3943.473
314.3940, 3903.994
315.6010, 4311.854
316.8070, 4316.352
318.0130, 4527.125
319.2200, 4532.742
320.4260, 4638.219
321.6310, 4753.426
322.8370, 4944.002
324.0430, 4885.910
325.2480, 5041.465
326.4540, 4947.855
327.6590, 4963.104
328.8640, 5139.186
330.0680, 5047.398
331.2730, 4952.047
332.4780, 5190.434
333.6820, 5038.834
334.8860, 5082.254
336.0900, 4957.990
337.2940, 5369.170
338.4980, 5224.723
339.7010, 5380.439
340.9050, 5351.594
342.1080, 5455.658
343.3110, 5604.473
344.5140, 5977.795
345.7170, 5848.838
346.9200, 6041.285
348.1220, 6285.672
349.3240, 6330.004
350.5270, 6603.324
351.7290, 6805.670
352.9310, 7129.340
354.1320, 7252.342
355.3340, 7431.461
356.5350, 7837.688
357.7370, 8109.471
358.9380, 8303.551
360.1390, 8558.949
361.3400, 8968.078
362.5400, 9260.910
363.7410, 9592.672
364.9410, 9998.057
366.1410, 10334.71
367.3410, 10704.67
368.5410, 11017.11
369.7410, 11485.11
370.9400, 11479.65
372.1400, 12482.14
373.3390, 12424.85
374.5380, 13036.70
375.7370, 13462.31
376.9360, 14391.61
378.1350, 14973.22
379.3330, 15324.64
380.5310, 16157.83
381.7300, 16896.22
382.9280, 17666.83
384.1260, 18736.50
385.3230, 19654.06
386.5210, 20508.02
387.7180, 21678.81
388.9160, 23213.67
390.1130, 24578.92
391.3100, 26203.04
392.5060, 27261.97
393.7030, 28936.92
394.9000, 30300.90
396.0960, 31650.56
397.2920, 33189.56
398.4880, 33814.00
399.6840, 34730.04
400.8800, 35064.11
402.0750, 35547.23
403.2710, 35216.63
404.4660, 34742.22
405.6610, 34174.66
406.8560, 33315.54
408.0510, 32324.10
409.2450, 31008.24
410.4400, 29984.61
411.6340, 28164.99
412.8280, 26778.06
414.0220, 25502.67
415.2160, 23522.60
416.4100, 22027.71
417.6030, 20857.46
418.7970, 19037.45
419.9900, 17911.87
421.1830, 16441.41
422.3760, 14918.14
423.5690, 13646.45
424.7610, 12583.69
425.9540, 11404.99
427.1460, 10519.95
428.3380, 9587.891
429.5300, 8832.617
430.7220, 8020.959
431.9140, 7451.193
433.1050, 6901.771
434.2970, 6493.678
435.4880, 6076.166
436.6790, 5851.789
437.8700, 5597.574
439.0610, 5429.523
440.2510, 5132.395
441.4420, 5057.191
442.6320, 4790.918
443.8220, 4763.578
445.0120, 4968.172
446.2020, 4991.707
447.3910, 5241.188
448.5810, 5585.615
449.7700, 5803.996
450.9600, 6310.332
452.1490, 6533.623
453.3370, 6880.877
454.5260, 7705.096
455.7150, 8288.285
456.9030, 9091.445
458.0910, 10043.58
459.2800, 10774.70
460.4670, 11279.80
461.6550, 12137.89
462.8430, 12734.98
464.0300, 13397.08
465.2180, 13928.19
466.4050, 14508.31
467.5920, 14966.44
468.7790, 15920.59
469.9650, 16504.74
471.1520, 17211.93
472.3380, 18286.13
473.5250, 19194.37
474.7110, 20296.62
475.8970, 21283.90
477.0820, 21868.20
478.2680, 22163.14
479.4540, 22206.74
480.6390, 21948.20
481.8240, 21331.57
483.0090, 20624.96
484.1940, 19416.36
485.3780, 17912.79
486.5630, 16536.23
487.7470, 14715.70
488.9320, 12968.19
490.1160, 11365.70
491.3000, 9702.221
492.4830, 8479.785
493.6670, 7103.398
494.8500, 6419.055
496.0340, 5456.834
497.2170, 4602.746
498.4000, 3799.746
499.5820, 3366.861
500.7650, 2900.043
501.9480, 2711.330
503.1300, 2249.740
504.3120, 1826.230
505.4940, 1806.850
506.6760, 1417.572
507.8580, 1383.445
509.0390, 1303.434
510.2210, 1108.547
511.4020, 1086.730
512.5830, 930.9668
513.7640, 909.3105
514.9450, 932.7383
516.1250, 786.1504
517.3060, 625.8066
518.4860, 611.4141
519.6660, 529.1523
520.8460, 501.8184
522.0260, 281.7305
523.2060, 338.4219
524.3850, 201.1270
525.5650, 358.8359
526.7440, 219.9668
527.9230, 112.8906
529.1020, 129.4355
530.2810, 50.78906
531.4590, 82.22656
532.6380, 151.6602
533.8160, 143.6543
534.9940, 165.1211
536.1720, 238.6016
537.3500, 268.3418
538.5270, 13.44922
539.7050, 165.4863
540.8820, 44.50000
542.0590, 330.8652
543.2360, 42.64062
544.4130, 141.5137
545.5900, 174.7129
546.7660, 155.0234
547.9430, 92.43164
549.1190, 169.7441
550.2950, 257.0352
551.4710, 179.7480
552.6470, 258.2988
553.8220, 252.0156
554.9980, 273.8125
556.1730, 261.9902
557.3480, 152.4316
558.5230, 145.9863
559.6980, 38.74219
560.8730, 25.78125
562.0470, 34.48633
563.2220, 5.566406
564.3960, 93.25195
565.5700, 86.84961
566.7440, 44.34961
567.9170, 97.74414
569.0910, 16.04492
570.2640, 104.7539
571.4380, 15.79883
572.6110, 172.1543
573.7840, 235.1445
574.9570, 272.5020
576.1290, 279.4551
577.3020, 226.3926
578.4740, 165.3105
579.6460, 381.2090
580.8180, 523.0898
581.9900, 465.9609
583.1620, 671.8145
584.3330, 657.6562
585.5040, 650.4844
586.6760, 768.2988
587.8470, 762.0996
589.0180, 933.8867
590.1880, 1034.662
591.3590, 1082.707
592.5290, 1200.523
593.7000, 1438.486
594.8700, 1453.385
596.0400, 1701.180
597.2090, 1588.951
598.3790, 1730.643
599.5490, 1981.320
600.7180, 2340.994
601.8870, 2437.664
603.0560, 2819.324
604.2250, 2774.320
605.3940, 3326.951
606.5620, 3354.586
607.7300, 3665.211
608.8990, 4074.824
610.0670, 3903.422
611.2350, 4261.031
612.4020, 3861.631
613.5700, 4235.215
614.7370, 4101.832
615.9050, 3910.396
617.0720, 3998.996
618.2390, 3970.545
619.4060, 3723.078
620.5720, 3657.596
621.7390, 3632.096
622.9050, 3114.621
624.0710, 2963.148
625.2370, 2936.664
626.4030, 2790.164
627.5690, 2465.648
628.7340, 2256.117
629.9000, 1959.566
631.0650, 1785.996
632.2300, 1808.406
633.3950, 1464.797
634.5600, 1647.168
635.7240, 1603.527
636.8890, 1112.867
638.0530, 1348.182
639.2170, 1084.477
640.3810, 813.7891
641.5450, 1124.090
642.7080, 1046.402
643.8720, 964.6914
645.0350, 1066.959
646.1980, 1011.199
647.3610, 815.4141
648.5240, 902.6016
649.6870, 744.8008
650.8490, 878.9707
652.0120, 889.1992
653.1740, 869.3965
654.3360, 716.5645
655.4980, 714.7344
656.6600, 602.8730
657.8210, 433.0508
658.9830, 297.1953
660.1440, 631.3066
661.3050, 266.3848
662.4660, 455.1523
663.6270, 328.3906
664.7870, 363.7520
665.9480, 221.6914
667.1080, 272.0664
668.2680, 121.9570
669.4280, 304.4258
670.5880, 238.9766
671.7480, 212.2500
672.9070, 58.61719
674.0670, 2.509766
675.2260, 245.9727
676.3850, 163.1191
677.5440, 176.5762
678.7030, 105.7441
679.8610, 92.67773
681.0200, 47.74023
682.1780, 198.7734
683.3360, 210.7480
684.4940, 286.4492
685.6520, 262.0137
686.8090, 251.7891
687.9670, 201.8066
689.1240, 169.9648
690.2810, 220.3730
691.4380, 144.1250
692.5950, 131.8594
693.7520, 41.63867
694.9080, 135.8418
696.0650, 150.8750
697.2210, 344.3008
698.3770, 122.8711
699.5330, 43.51953
700.6880, 137.4688
701.8440, 90.39648
702.9990, 5.566406
704.1550, 42.32617
705.3100, 76.18750
706.4650, 83.51953
707.6190, 121.0293
708.7740, 27.56641
709.9290, 157.1289
711.0830, 66.86133
712.2370, 284.5684
713.3910, 55.51953
714.5450, 361.8438
715.6980, 403.9336
716.8520, 224.0898
718.0050, 262.6562
719.1580, 280.9492
720.3110, 188.2188
721.4640, 360.4590
722.6170, 369.6758
723.7700, 365.8652
724.9220, 378.2266
726.0740, 270.1602
727.2260, 262.2676
728.3780, 188.3477
729.5300, 78.40039
730.6810, 131.2598
731.8330, 92.25586
732.9840, 105.2305
734.1350, 127.0938
735.2860, 130.1719
736.4370, 156.1250
737.5880, 176.4199
738.7380, 178.0469
739.8880, 204.5977
741.0390, 163.3652
742.1890, 64.49219
743.3380, 159.1992
744.4880, 271.5938
745.6380, 170.5098
746.7870, 176.7129
747.9360, 186.4336
749.0850, 232.6875
750.2340, 286.6562
751.3830, 212.1602
752.5310, 147.8398
753.6800, 173.9102
754.8280, 151.1133
755.9760, 315.4941
757.1240, 335.2832
758.2720, 315.9922
759.4190, 292.5879
760.5670, 292.8848
761.7140, 348.6172
762.8610, 417.1934
764.0080, 459.6426
765.1550, 550.4590
766.3020, 575.6211
767.4480, 652.9492
768.5950, 671.2773
769.7410, 551.2812
770.8870, 513.7656
772.0330, 518.2246
773.1780, 775.6895
774.3240, 742.0723
775.4690, 433.9141
776.6140, 694.0703
777.7590, 530.5508
778.9040, 601.9883
780.0490, 650.5020
781.1940, 560.6445
782.3380, 805.1602
783.4820, 691.5078
784.6260, 777.2188
785.7700, 593.1953
786.9140, 649.5586
788.0580, 552.5234
789.2010, 545.0703
790.3450, 384.4707
791.4880, 374.1133
792.6310, 636.8770
793.7730, 340.1719
794.9160, 426.7129
796.0590, 470.9609
797.2010, 313.1035
798.3430, 351.6895
799.4850, 286.7910
800.6270, 162.9844
801.7690, 309.3672
802.9100, 337.3711
804.0520, 350.6914
805.1930, 341.9199
806.3340, 108.2227
807.4750, 428.3145
808.6160, 88.16992
809.7560, 250.5234
810.8970, 220.6777
812.0370, 159.4961
813.1770, 261.1543
814.3170, 251.8730
815.4570, 218.5840
816.5960, 167.7227
817.7360, 250.6777
818.8750, 369.9238
820.0140, 299.4375
821.1530, 384.9941
822.2920, 408.7852
823.4310, 27.14258
824.5690, 133.9434
825.7070, 27.42773
826.8460, 132.2656
827.9840, 291.0547
829.1220, 263.5820
830.2590, 121.1543
831.3970, 261.6816
832.5340, 1.535156
833.6710, 58.62500
834.8080, 4.269531
835.9450, 148.2598
837.0820, 102.6055
838.2190, 101.8027
839.3550, 26.61719
840.4910, 89.52148
841.6270, 387.7695
842.7630, 28.16602
843.8990, 255.5527
845.0350, 353.0703
846.1700, 32.06641
847.3060, 520.4766
848.4410, 281.6562
849.5760, 217.1504
850.7100, 149.2246
851.8450, 237.6523
852.9800, 132.0527
854.1140, 273.4160
855.2480, 310.7559
856.3820, 212.0605
857.5160, 317.3359
858.6500, 307.5781
859.7830, 322.7910
860.9170, 338.4492
862.0500, 379.1152
863.1830, 307.2344
864.3160, 412.3184
865.4480, 383.3730
866.5810, 35.10938
867.7130, 298.0293
868.8460, 199.7578
869.9780, 30.50977
871.1100, 250.3164
872.2410, 61.10352
873.3730, 174.9219
874.5050, 5.710938
875.6360, 9.546875
876.7670, 247.1406
877.8980, 104.7949
879.0290, 261.0664
880.1590, 25.33789
881.2900, 16.19141
882.4200, 55.67969
883.5500, 163.1328
884.6800, 57.44141
885.8100, 10.90430
886.9400, 198.2070
888.0690, 2.521484
889.1990, 43.66406
890.3280, 28.14844
891.4570, 255.9434
892.5860, 83.04492
893.7140, 94.11328
894.8430, 112.1504
895.9710, 128.8438
897.1000, 40.94727
898.2280, 8.876953
899.3560, 30.66211
900.4830, 67.99414
901.6110, 27.13477
902.7380, 116.8223
903.8660, 107.4824
904.9930, 180.1152
906.1200, 52.71875
907.2460, 50.29102
908.3730, 2.837891
909.5000, 50.34180
910.6260, 180.8184
911.7520, 87.26758
912.8780, 128.3086
914.0040, 16.99414
915.1290, 114.7324
916.2550, 53.42969
917.3800, 15.56445
918.5050, 71.66602
919.6300, 42.74023
920.7550, 55.78906
921.8800, 118.1895
923.0040, 39.72852
924.1290, 314.3770
925.2530, 160.3145
926.3770, 60.98242
927.5010, 112.3770
928.6250, 158.1719
929.7480, 256.3027
930.8720, 140.0547
931.9950, 131.3867
933.1180, 37.70117
934.2410, 88.98633
935.3640, 111.2539
936.4860, 55.23242
937.6090, 199.4531
938.7310, 14.34570
939.8530, 14.82031
940.9750, 103.0371
942.0970, 56.50781
943.2180, 42.54688
944.3400, 134.9727
945.4610, 102.9746
946.5820, 130.0645
947.7030, 87.55078
948.8240, 1.451172
949.9450, 15.32812
951.0650, 72.13672
952.1860, 120.7188
953.3060, 287.5449
954.4260, 413.3613
955.5460, 146.1621
956.6650, 268.9434
957.7850, 119.2910
958.9040, 196.8965
960.0230, 283.1465
961.1420, 42.19531
962.2610, 204.4062
963.3800, 369.0176
964.4990, 254.6094
965.6170, 284.7285
966.7350, 273.9844
967.8530, 249.9844
968.9710, 218.0547
970.0890, 169.0488
971.2070, 203.2832
972.3240, 406.3301
973.4410, 84.41797
974.5580, 339.9902
975.6750, 326.0039
976.7920, 135.5352
977.9090, 196.0254
979.0250, 290.5371
980.1410, 380.0371
981.2580, 439.3047
982.3740, 349.7969
983.4890, 329.2891
984.6050, 535.7656
985.7200, 307.9824
986.8360, 455.4395
987.9510, 570.5664
989.0660, 610.9941
990.1810, 626.2188
991.2950, 545.8125
992.4100, 549.2051
993.5240, 538.5840
994.6390, 490.9668
995.7530, 476.3828
996.8660, 681.7891
997.9800, 703.2090
999.0940, 833.6172
1000.207, 878.0234
1001.320, 879.5840
1002.433, 835.9980
1003.546, 1025.393
1004.659, 1004.861
1005.772, 912.2480
1006.884, 784.0430
1007.996, 656.3066
1009.108, 761.8750
1010.220, 534.4824
1011.332, 689.8340
1012.444, 699.7930
1013.555, 790.1426
1014.666, 938.7695
1015.777, 705.8379
1016.888, 930.5840
1017.999, 784.7793
1019.110, 1019.404
1020.220, 962.2793
1021.331, 927.5977
1022.441, 957.6992
1023.551, 1196.432
1024.661, 893.9980
1025.770, 1110.375
1026.880, 1042.322
1027.989, 1049.324
1029.098, 1095.400
1030.207, 1080.760
1031.316, 957.6523
1032.425, 993.6641
1033.533, 930.3027
1034.642, 748.2207
1035.750, 931.8066
1036.858, 1207.939
1037.966, 1011.035
1039.073, 1039.426
1040.181, 965.3008
1041.288, 1230.172
1042.396, 881.0059
1043.503, 1135.887
1044.610, 1543.281
1045.716, 1095.326
1046.823, 977.0195
1047.929, 954.7227
1049.036, 1008.320
1050.142, 1020.254
1051.248, 986.8223
1052.353, 1146.820
1053.459, 913.7383
1054.564, 890.7168
1055.670, 845.2852
1056.775, 1011.219
1057.880, 660.5430
1058.985, 1180.982
1060.089, 808.0430
1061.194, 915.1719
1062.298, 1078.633
1063.402, 980.8184
1064.506, 913.2676
1065.610, 810.6992
1066.713, 1085.752
1067.817, 775.0391
1068.920, 1008.434
1070.023, 973.6133
1071.126, 987.1445
1072.229, 927.9180
1073.332, 968.9668
1074.435, 959.2969
1075.537, 1038.574
1076.639, 1069.809
1077.741, 1119.230
1078.843, 1345.938
1079.945, 1242.859
1081.046, 1420.363
1082.148, 1543.441
1083.249, 1350.688
1084.350, 1648.188
1085.451, 1434.875
1086.551, 1587.578
1087.652, 1639.320
1088.752, 1882.078
1089.853, 1970.871
1090.953, 1988.332
1092.053, 1886.945
1093.152, 1986.789
1094.252, 2000.461
1095.351, 1979.352
1096.451, 2100.348
1097.550, 2038.176
1098.649, 2282.109
1099.748, 2375.059
1100.846, 2457.035
1101.945, 2719.055
1103.043, 2531.109
1104.141, 2706.766
1105.239, 2340.855
1106.337, 2808.352
1107.434, 2659.492
1108.532, 3009.766
1109.629, 2787.938
1110.726, 2936.750
1111.823, 3067.961
1112.920, 3063.184
1114.017, 3104.977
1115.113, 3114.906
1116.210, 3206.910
1117.306, 3267.383
1118.402, 3371.613
1119.498, 3431.949
1120.593, 3426.578
1121.689, 3474.742
1122.784, 3545.176
1123.879, 3491.633
1124.974, 3630.102
1126.069, 3646.305
1127.164, 3952.992
1128.259, 3832.035
1129.353, 3428.719
1130.447, 3648.266
1131.541, 3553.219
1132.635, 3788.797
1133.729, 3831.566
1134.822, 4012.176
1135.916, 3613.801
1137.009, 3995.441
1138.102, 3831.117
1139.195, 3856.809
1140.288, 4133.629
1141.380, 3958.371
1142.473, 3965.172
1143.565, 4000.988
1144.657, 3915.609
1145.749, 3898.469
1146.841, 4011.363
1147.932, 4058.277
1149.024, 4057.211
1150.115, 4100.598
1151.206, 4065.434
1152.297, 4073.355
1153.388, 4001.387
1154.479, 3915.871
1155.569, 3902.949
1156.659, 3813.703
1157.750, 3697.293
1158.839, 3722.332
1159.929, 3714.488
1161.019, 3774.926
1162.108, 3695.406
1163.198, 3394.480
1164.287, 3509.797
1165.376, 3360.129
1166.465, 3185.477
1167.553, 3316.844
1168.642, 3395.234
1169.730, 3358.641
1170.818, 3009.059
1171.906, 3171.492
1172.994, 2952.949
1174.082, 3007.418
1175.170, 2792.906
1176.257, 2747.406
1177.344, 2593.918
1178.431, 2408.488
1179.518, 2555.082
1180.605, 2489.730
1181.691, 2384.391
1182.778, 2272.066
1183.864, 2362.762
1184.950, 1905.469
1186.036, 2028.188
1187.122, 2000.961
1188.207, 1805.750
1189.292, 2027.637
1190.378, 1938.539
1191.463, 1649.457
1192.548, 1633.418
1193.632, 1652.395
1194.717, 1431.457
1195.801, 1224.531
1196.886, 1159.617
1197.970, 1096.715
1199.054, 1032.828
1200.137, 1104.949
1201.221, 966.6758
1202.305, 742.2383
1203.388, 822.4062
1204.471, 807.5898
1205.554, 851.8125
1206.637, 331.0547
1207.719, 551.3047
1208.802, 239.5664
1209.884, 400.8398
1210.966, 426.1602
1212.048, 728.4922
1213.130, 383.8398
1214.212, 322.1953
1215.293, 145.5625
1216.374, 365.1055
1217.456, 357.9375
1218.536, 383.4414
1219.617, 291.4570
1220.698, 369.8750
1221.778, 255.3320
1222.859, 124.7969
1223.939, 178.2695
1225.019, 77.75391
1226.099, 306.2500
1227.178, 236.7539
1228.258, 225.2852
1229.337, 144.8125
1230.417, 49.33594
1231.496, 35.86719
1232.574, 292.5000
1233.653, 27.47266
1234.732, 284.8047
1235.810, 19.64844
1236.888, 25.90234
1237.966, 6.535156
1239.044, 90.02344
1240.122, 74.40625
1241.199, 70.23828
1242.277, 39.79297
1243.354, 70.64844
1244.431, 72.10547
1245.508, 68.41406
1246.585, 45.94141
1247.661, 29.52734
1248.738, 187.4492
1249.814, 299.7734
1250.890, 34.97266
1251.966, 113.7578
1253.042, 170.1016
1254.117, 67.80078
1255.193, 79.57812
1256.268, 166.8672
1257.343, 16.36328
1258.418, 100.8555
1259.493, 94.60547
1260.567, 52.93359
1261.642, 194.5078
1262.716, 98.04688
1263.790, 322.3789
1264.864, 497.7773
1265.938, 253.2227
1267.011, 271.2461
1268.085, 227.6914
1269.158, 41.70312
1270.231, 162.2148
1271.304, 18.02344
1272.377, 79.45703
1273.450, 29.73047
1274.522, 151.1211
1275.594, 133.5312
1276.666, 335.9492
1277.738, 174.3594
1278.810, 111.7695
1279.882, 50.56250
1280.953, 32.02344
1282.025, 193.5742
1283.096, 194.0352
1284.167, 140.6953
1285.238, 74.01172
1286.308, 43.68359
1287.379, 5.414063
1288.449, 214.1016
1289.519, 43.88281
1290.589, 188.1992
1291.659, 267.3789
1292.729, 283.5156
1293.798, 201.6562
1294.868, 121.7852
1295.937, 349.2461
1297.006, 191.0273
1298.075, 198.1406
1299.143, 309.2461
1300.212, 185.3555
1301.280, 565.5000
1302.348, 87.58984
1303.416, 385.6719
1304.484, 260.7461
1305.552, 327.8125
1306.620, 99.86719
