##NAMES=Clinozoisite
##RRUFFID=R040085
##IDEAL CHEMISTRY=Ca_2_Al_3_(Si_2_O_7_)(SiO_4_)O(OH)
##LOCALITY=Alamos, Sonora, Mexico
##OWNER=RRUFF
##SOURCE=University of Arizona Mineral Museum
##DESCRIPTION=Divergent aggregate of red thin prismatic crystals
##STATUS=The identification of this mineral has been confirmed by X-ray diffraction and chemical analysis
##URL=rruff.info/R040085
##MEASURED CHEMISTRY=Ca_2.03_(Al_0.90_Fe_0.13_)_3_(Si_1.00_O_4_)(Si_2.00_O_7_)O(OH)
##PIN_ID=S00323
##ORIENTATION=Laser parallel to a* (1 0 0). Fiducial mark perpendicular to laser is parallel to b [0 1 0]
130.055, 0.000
131.449, 5.646
132.843, 479.988
134.237, 281.080
135.631, 508.553
137.024, 777.488
138.417, 994.613
139.810, 1178.297
141.203, 1117.463
142.596, 1230.695
143.988, 1297.039
145.380, 1005.785
146.771, 1136.559
148.163, 1030.803
149.554, 1068.037
150.945, 927.246
152.336, 976.789
153.726, 826.689
155.117, 937.439
156.507, 898.414
157.896, 979.631
159.286, 1241.109
160.675, 1482.859
162.064, 1565.557
163.453, 1847.855
164.842, 1992.650
166.230, 1949.293
167.618, 2068.154
169.006, 2097.934
170.393, 2041.074
171.781, 1664.807
173.168, 1637.182
174.555, 1279.816
175.941, 1402.795
177.328, 1078.545
178.714, 860.412
180.100, 624.004
181.485, 737.885
182.871, 702.041
184.256, 366.461
185.641, 541.129
187.025, 296.041
188.410, 291.184
189.794, 276.547
191.178, 152.123
192.562, 2.102
193.945, 203.939
195.328, 140.316
196.711, 16.957
198.094, 93.824
199.476, 129.037
200.859, 78.359
202.241, 33.857
203.623, 14.064
205.004, 107.895
206.385, 9.732
207.766, 111.455
209.147, 73.061
210.528, 14.549
211.908, 104.080
213.288, 17.217
214.668, 1.459
216.048, 20.146
217.427, 128.865
218.806, 95.580
220.185, 91.035
221.564, 75.342
222.942, 4.297
224.320, 26.678
225.698, 77.576
227.076, 141.604
228.453, 160.859
229.830, 250.195
231.207, 309.609
232.584, 249.100
233.960, 458.666
235.337, 478.307
236.713, 628.021
238.088, 897.809
239.464, 977.672
240.839, 837.609
242.214, 1207.623
243.589, 1687.713
244.964, 1767.877
246.338, 2548.117
247.712, 2748.402
249.086, 3128.730
250.459, 3509.102
251.833, 3909.506
253.206, 4109.928
254.579, 3950.422
255.951, 3870.990
257.324, 3477.727
258.696, 3331.141
260.068, 3143.254
261.439, 2604.014
262.811, 2171.250
264.182, 2022.098
265.553, 2093.020
266.924, 1664.020
268.294, 1676.283
269.665, 1557.346
271.035, 1578.465
272.404, 1241.127
273.774, 1184.016
275.143, 1395.242
276.512, 1026.551
277.881, 1087.932
279.250, 1039.395
280.618, 950.932
281.986, 812.545
283.354, 764.232
284.721, 625.990
286.089, 837.820
287.456, 539.721
288.823, 731.695
290.190, 523.738
291.556, 735.850
292.922, 858.029
294.288, 560.275
295.654, 808.627
297.019, 616.746
298.385, 835.857
299.750, 665.381
301.114, 885.232
302.479, 625.359
303.843, 445.719
305.207, 536.283
306.571, 597.021
307.935, 347.924
309.298, 248.973
310.661, 440.160
312.024, 351.465
313.387, 292.877
314.749, 324.379
316.111, 375.967
317.473, 277.684
318.835, 509.488
320.196, 381.367
321.558, 263.328
322.919, 445.359
324.279, 547.467
325.640, 549.691
327.000, 521.977
328.360, 754.334
329.720, 756.678
331.080, 1039.068
332.439, 1071.453
333.798, 1043.826
335.157, 1556.215
336.516, 1438.666
337.874, 1491.182
339.232, 1603.764
340.590, 1766.412
341.948, 1969.109
343.305, 2021.832
344.662, 2254.621
346.019, 2367.471
347.376, 3270.381
348.733, 3553.352
350.089, 3976.379
351.445, 4299.465
352.801, 4182.605
354.156, 4235.805
355.512, 3809.059
356.867, 3382.234
358.222, 2775.604
359.576, 2099.025
360.931, 1782.498
362.285, 1606.018
363.639, 964.854
364.992, 888.469
366.346, 741.121
367.699, 544.826
369.052, 524.766
370.405, 308.283
371.757, 278.178
373.110, 259.672
374.462, 223.205
375.814, 117.168
377.165, 160.715
378.516, 174.734
379.868, 118.822
381.218, 67.047
382.569, 72.883
383.920, 11.311
385.270, 64.457
386.620, 149.811
387.969, 36.594
389.319, 187.877
390.668, 152.258
392.017, 13.322
393.366, 128.867
394.714, 275.607
396.063, 120.121
397.411, 214.672
398.759, 69.260
400.106, 263.953
401.454, 98.684
402.801, 226.547
404.148, 178.260
405.495, 3.105
406.841, 48.049
408.187, 33.025
409.533, 78.086
410.879, 166.816
412.224, 91.715
413.570, 46.572
414.915, 28.600
416.260, 143.807
417.604, 144.236
418.949, 294.328
420.293, 229.662
421.637, 215.018
422.980, 370.398
424.324, 385.914
425.667, 681.434
427.010, 756.988
428.353, 952.578
429.695, 968.199
431.037, 963.803
432.379, 1069.438
433.721, 1095.105
435.063, 1191.732
436.404, 1196.428
437.745, 1402.131
439.086, 1377.869
440.427, 1483.635
441.767, 2089.432
443.108, 2355.260
444.448, 2561.117
445.787, 3237.004
447.127, 3612.924
448.466, 4368.875
449.805, 5424.852
451.144, 5840.861
452.482, 6286.895
453.821, 6132.992
455.159, 5999.121
456.497, 5315.273
457.834, 4701.508
459.172, 4397.787
460.509, 3944.111
461.846, 3430.494
463.183, 3076.918
464.519, 2643.391
465.856, 2539.896
467.192, 2286.445
468.527, 2374.822
469.863, 2171.439
471.198, 2309.934
472.534, 2216.633
473.868, 2133.361
475.203, 1870.123
476.538, 2007.312
477.872, 2165.258
479.206, 2324.170
480.540, 2221.088
481.873, 2049.311
483.206, 2176.246
484.539, 2193.736
485.872, 1891.484
487.205, 2268.506
488.537, 1895.551
489.869, 1536.834
491.201, 1833.934
492.533, 1381.059
493.864, 1338.205
495.196, 1375.393
496.527, 1002.588
497.857, 1199.840
499.188, 1147.113
500.518, 1024.412
501.848, 801.736
503.178, 969.080
504.508, 1066.445
505.837, 1143.893
507.166, 1216.896
508.495, 1268.842
509.824, 1276.348
511.153, 1413.879
512.481, 1411.430
513.809, 1448.998
515.137, 1806.680
516.464, 1834.285
517.792, 1784.260
519.119, 1641.898
520.446, 1619.557
521.772, 1667.229
523.099, 1934.918
524.425, 1442.641
525.751, 1400.383
527.077, 1738.143
528.402, 1565.916
529.728, 1413.725
531.053, 1471.547
532.377, 1289.402
533.702, 1067.279
535.027, 925.174
536.351, 613.080
537.675, 631.000
538.998, 438.936
540.322, 576.883
541.645, 202.594
542.968, 248.094
544.291, 76.076
545.613, 321.914
546.936, 179.918
548.258, 53.186
549.580, 404.830
550.902, 62.855
552.223, 70.518
553.544, 43.768
554.865, 141.820
556.186, 299.885
557.507, 407.957
558.827, 121.395
560.147, 719.484
561.467, 387.891
562.786, 776.387
564.106, 1104.498
565.425, 1067.287
566.744, 1755.408
568.063, 2294.336
569.381, 2802.467
570.700, 3423.973
572.018, 3073.484
573.335, 3260.121
574.653, 2608.266
575.970, 2267.094
577.288, 1735.246
578.604, 825.047
579.921, 963.201
581.238, 541.395
582.554, 663.314
583.870, 371.473
585.186, 269.629
586.501, 488.629
587.817, 646.785
589.132, 324.939
590.447, 343.090
591.761, 541.240
593.076, 459.391
594.390, 528.205
595.704, 876.367
597.018, 814.512
598.331, 632.652
599.645, 700.791
600.958, 939.084
602.271, 1117.314
603.583, 1085.736
604.896, 964.707
606.208, 992.875
607.520, 1003.875
608.832, 1019.516
610.143, 1037.621
611.455, 924.666
612.766, 772.760
614.077, 749.410
615.387, 577.568
616.698, 595.641
618.008, 443.822
619.318, 307.092
620.628, 455.145
621.937, 146.547
623.247, 244.582
624.556, 294.219
625.865, 2.232
627.173, 250.389
628.482, 3.457
629.790, 161.402
631.098, 289.502
632.405, 77.426
633.713, 45.344
635.020, 146.760
636.327, 1.729
637.634, 69.525
638.941, 17.268
640.247, 74.984
641.553, 43.742
642.859, 136.980
644.165, 172.105
645.471, 240.385
646.776, 30.730
648.081, 167.023
649.386, 214.801
650.691, 332.273
651.995, 79.812
653.299, 397.254
654.603, 132.943
655.907, 380.900
657.210, 268.297
658.514, 386.656
659.817, 304.021
661.120, 361.369
662.422, 202.955
663.725, 560.268
665.027, 287.562
666.329, 374.840
667.630, 413.703
668.932, 380.943
670.233, 338.164
671.534, 95.559
672.835, 352.738
674.136, 19.898
675.436, 437.020
676.737, 194.119
678.036, 371.236
679.336, 318.297
680.636, 405.338
681.935, 342.686
683.234, 299.686
684.533, 396.711
685.832, 283.670
687.130, 490.609
688.428, 277.525
689.726, 494.422
691.024, 531.295
692.322, 518.146
693.619, 534.979
694.916, 331.787
696.213, 538.576
697.510, 425.342
698.806, 642.096
700.102, 378.840
701.398, 335.559
702.694, 342.270
703.990, 598.973
705.285, 613.055
706.580, 379.719
707.875, 236.363
709.170, 182.984
710.464, 379.609
711.758, 166.215
713.052, 452.797
714.346, 180.645
715.640, 205.754
716.933, 112.133
718.226, 91.516
719.519, 484.773
720.812, 168.969
722.105, 317.145
723.397, 106.766
724.689, 429.207
725.981, 175.152
727.272, 8.895
728.564, 337.004
729.855, 282.887
731.146, 98.746
732.437, 254.578
733.727, 119.617
735.017, 556.066
736.308, 161.723
737.597, 312.648
738.887, 372.758
740.176, 268.137
741.466, 93.492
742.755, 208.816
744.043, 244.113
745.332, 239.391
746.620, 314.641
747.908, 279.863
749.196, 105.062
750.484, 180.230
751.771, 215.379
753.059, 320.500
754.346, 275.594
755.633, 150.664
756.919, 165.707
758.206, 135.453
759.492, 95.719
760.778, 180.676
762.063, 125.609
763.349, 210.512
764.634, 275.391
765.919, 79.754
767.204, 334.996
768.489, 269.723
769.773, 75.570
771.057, 499.031
772.341, 173.609
773.625, 21.836
774.909, 412.645
776.192, 7.102
777.475, 261.504
778.758, 55.883
780.041, 300.219
781.323, 162.738
782.605, 22.973
783.887, 279.418
785.169, 163.613
786.451, 357.781
787.732, 201.926
789.013, 325.652
790.294, 88.617
791.575, 180.625
792.856, 214.629
794.136, 297.336
795.416, 61.324
796.696, 34.762
797.976, 29.332
799.255, 71.836
800.534, 36.996
801.813, 116.621
803.092, 110.438
804.371, 344.230
805.649, 158.004
806.927, 251.730
808.205, 94.539
809.483, 79.094
810.760, 332.707
812.037, 46.293
813.315, 250.254
814.591, 493.797
815.868, 192.680
817.144, 470.699
818.421, 484.066
819.697, 487.414
820.972, 10.742
822.248, 234.035
823.523, 317.309
824.798, 130.566
826.073, 193.707
827.348, 196.930
828.623, 227.781
829.897, 560.961
831.171, 164.129
832.445, 387.273
833.718, 320.402
834.992, 93.520
836.265, 596.617
837.538, 159.699
838.811, 372.773
840.083, 505.828
841.356, 588.871
842.628, 471.891
843.900, 354.906
845.171, 457.898
846.443, 700.887
847.714, 553.859
848.985, 816.816
850.256, 489.758
851.527, 532.715
852.797, 925.660
854.067, 658.590
855.337, 1021.504
856.607, 468.520
857.876, 851.410
859.146, 964.301
860.415, 1137.176
861.684, 1400.039
862.953, 1073.805
864.221, 1136.648
865.489, 1949.477
866.757, 1312.289
868.025, 1799.734
869.293, 2162.523
870.560, 2124.992
871.828, 2577.953
873.095, 2150.711
874.361, 2878.758
875.628, 2731.477
876.894, 3063.375
878.160, 3176.062
879.426, 3028.742
880.692, 3133.426
881.958, 3079.375
883.223, 3082.012
884.488, 2833.957
885.753, 2956.574
887.018, 2557.527
888.282, 2740.121
889.546, 2002.668
890.810, 2271.477
892.074, 2214.039
893.338, 2286.590
894.601, 2348.293
895.864, 1810.828
897.127, 2253.359
898.390, 1655.875
899.652, 1658.391
900.915, 1940.895
902.177, 1622.727
903.439, 1475.203
904.700, 1977.688
905.962, 1520.172
907.223, 1632.645
908.484, 1354.957
909.745, 1747.324
911.006, 1699.488
912.266, 1621.102
913.526, 1963.496
914.786, 1595.527
916.046, 1647.969
917.306, 1350.402
918.565, 1329.586
919.824, 1466.328
921.083, 1218.758
922.342, 1132.555
923.600, 874.984
924.859, 1197.301
926.117, 844.523
927.375, 976.953
928.632, 336.031
929.890, 1108.465
931.147, 649.293
932.404, 421.738
933.661, 724.027
934.918, 791.391
936.174, 493.863
937.430, 546.176
938.686, 348.656
939.942, 571.137
941.198, 653.594
942.453, 495.402
943.708, 497.887
944.963, 340.406
946.218, 342.938
947.472, 594.422
948.727, 515.371
949.981, 926.457
951.235, 61.652
952.488, 579.625
953.742, 332.004
954.995, 394.352
956.248, 437.000
957.501, 339.574
958.754, 192.238
960.006, 486.648
961.258, 48.785
962.510, 661.484
963.762, 26.793
965.014, 415.926
966.265, 218.648
967.516, 337.141
968.767, 590.914
970.018, 442.715
971.269, 646.473
972.519, 397.664
973.769, 390.484
975.019, 403.316
976.269, 665.977
977.518, 368.844
978.767, 891.906
980.017, 694.824
981.265, 957.762
982.514, 1240.684
983.762, 583.664
985.011, 1587.641
986.259, 850.336
987.507, 1243.391
988.754, 1078.105
990.002, 541.211
991.249, 934.340
992.496, 757.500
993.743, 440.691
994.989, 814.793
996.236, 158.051
997.482, 572.004
998.728, 115.301
999.974, 38.633
1001.219, 558.398
1002.464, 221.801
1003.710, 445.246
1004.954, 388.699
1006.199, 137.805
1007.444, 285.891
1008.688, 49.383
1009.932, 232.879
1011.176, 376.383
1012.420, 49.070
1013.663, 614.113
1014.906, 347.738
1016.149, 360.863
1017.392, 423.938
1018.635, 466.887
1019.877, 589.703
1021.120, 334.672
1022.362, 497.668
1023.603, 637.648
1024.845, 340.215
1026.086, 562.879
1027.328, 465.562
1028.569, 488.262
1029.809, 510.973
1031.050, 513.785
1032.290, 476.715
1033.530, 779.762
1034.770, 412.816
1036.010, 515.887
1037.250, 608.961
1038.489, 392.051
1039.728, 425.152
1040.967, 718.266
1042.206, 531.395
1043.444, 644.551
1044.683, 597.723
1045.921, 640.953
1047.159, 854.246
1048.396, 607.645
1049.634, 891.094
1050.871, 844.605
1052.108, 928.168
1053.345, 951.758
1054.582, 435.430
1055.818, 1079.133
1057.054, 1082.855
1058.290, 76.613
1059.526, 1090.398
1060.762, 464.227
1061.997, 726.387
1063.232, 910.305
1064.467, 444.254
1065.702, 908.234
1066.937, 332.348
1068.171, 435.930
1069.405, 800.117
1070.639, 824.508
1071.873, 658.930
1073.107, 703.406
1074.340, 257.926
1075.573, 1202.477
1076.806, 597.070
1078.039, 661.703
1079.272, 1166.363
1080.504, 811.051
1081.736, 985.762
1082.968, 910.512
1084.200, 1105.285
1085.431, 1450.086
1086.663, 1304.875
1087.894, 1819.645
1089.125, 1457.062
1090.355, 1501.781
1091.586, 1706.523
1092.816, 1949.586
1094.046, 1514.359
1095.276, 1489.172
1096.506, 904.027
1097.735, 928.934
1098.965, 913.934
1100.194, 399.008
1101.423, 1004.160
1102.651, 129.383
1103.880, 464.684
1105.108, 920.055
1106.336, 735.508
1107.564, 611.043
1108.792, 606.656
1110.019, 432.363
1111.246, 638.145
1112.473, 464.008
1113.700, 399.953
1114.927, 595.984
1116.153, 27.895
1117.380, 648.359
1118.606, 644.711
1119.831, 301.156
1121.057, 717.703
1122.283, 734.344
1123.508, 601.074
1124.733, 667.895
1125.958, 104.809
1127.182, 831.824
1128.407, 168.949
1129.631, 616.184
1130.855, 283.793
1132.079, 8.414
1133.302, 619.570
1134.526, 657.750
1135.749, 23.879
1136.972, 824.680
1138.195, 293.453
1139.417, 792.445
1140.640, 641.668
1141.862, 31.141
1143.084, 990.875
1144.305, 65.223
1145.527, 605.262
1146.748, 905.586
1147.970, 73.777
1149.191, 596.020
1150.411, 937.309
1151.632, 351.492
1152.852, 743.031
1154.072, 229.973
1155.292, 540.996
1156.512, 732.961
1157.732, 565.723
1158.951, 125.707
1160.170, 1025.387
1161.389, 162.801
1162.608, 742.812
1163.826, 402.066
1165.045, 347.098
1166.263, 436.738
1167.481, 0.773
1168.699, 185.992
1169.916, 0.000
##END=



