##NAMES=Clinozoisite
##RRUFFID=R060284
##IDEAL CHEMISTRY=Ca_2_Al_3_(Si_2_O_7_)(SiO_4_)O(OH)
##LOCALITY=near Zagi Mountain, Khaffor Dehri, North-West Frontier Province, Pakistan
##OWNER=RRUFF
##SOURCE=Herb Obodda
##DESCRIPTION=Greenish-brown fragment of a prismatic crystal
##STATUS=The identification of this mineral has been confirmed by X-ray diffraction and chemical analysis
##URL=rruff.info/R060284
##MEASURED CHEMISTRY=Ca_2.00_(Al_0.90_Fe^3+^_0.10_)_3_(Si_1.00_O_4_)(Si_2.00_O_7_)O(OH)
##PIN_ID=L00506
##ORIENTATION=Laser parallel to -a* (-1 0 0). Fiducial mark perpendicular to laser is parallel to b [0 1 0]
118.1340, 0.0000000E+00
119.3650, 96.60547
120.5960, 13.02637
121.8270, 92.77148
123.0580, 136.7891
124.2880, 196.7402
125.5190, 204.1074
126.7490, 174.0137
127.9790, 285.2500
129.2090, 125.8877
130.4390, 104.1064
131.6680, 125.7793
132.8980, 9.750977
134.1270, 30.85938
135.3560, 32.04199
136.5850, 159.0303
137.8140, 30.18164
139.0430, 55.41992
140.2710, 58.66406
141.5000, 257.4355
142.7280, 279.6211
143.9560, 314.1172
145.1840, 496.8262
146.4120, 818.6621
147.6390, 916.5479
148.8670, 1103.410
150.0940, 1195.188
151.3210, 1375.283
152.5490, 1564.932
153.7750, 1755.366
155.0020, 1971.157
156.2290, 2233.914
157.4550, 2441.608
158.6810, 2522.139
159.9080, 2822.409
161.1340, 2761.343
162.3590, 2964.879
163.5850, 3196.966
164.8110, 3307.563
166.0360, 3622.634
167.2610, 3828.146
168.4860, 3890.072
169.7110, 4355.388
170.9360, 4508.070
172.1610, 4563.105
173.3850, 4593.473
174.6100, 4646.156
175.8340, 4171.145
177.0580, 3770.424
178.2820, 3263.984
179.5050, 2954.815
180.7290, 2496.908
181.9520, 2116.251
183.1760, 1816.840
184.3990, 1469.776
185.6220, 1359.635
186.8450, 1234.750
188.0670, 1106.974
189.2900, 1203.164
190.5120, 1118.332
191.7340, 1250.818
192.9560, 1219.101
194.1780, 1316.171
195.4000, 1501.414
196.6220, 1569.490
197.8430, 1700.383
199.0640, 2002.112
200.2860, 2344.685
201.5070, 2456.989
202.7270, 2710.217
203.9480, 2933.393
205.1690, 3216.527
206.3890, 3498.634
207.6090, 3676.721
208.8290, 3915.800
210.0490, 4272.878
211.2690, 4604.967
212.4890, 4823.064
213.7080, 4966.182
214.9280, 5147.324
216.1470, 5314.086
217.3660, 5455.989
218.5850, 5561.942
219.8030, 5732.225
221.0220, 5707.551
222.2400, 5804.922
223.4590, 5948.346
224.6770, 6188.822
225.8950, 6661.351
227.1120, 7228.934
228.3300, 7714.574
229.5480, 8613.275
230.7650, 9405.029
231.9820, 10023.85
233.1990, 11029.73
234.4160, 11420.66
235.6330, 11571.66
236.8490, 11675.73
238.0660, 10889.86
239.2820, 10428.05
240.4980, 9683.318
241.7140, 9231.648
242.9300, 8334.049
244.1460, 7950.518
245.3610, 7685.060
246.5770, 7366.673
247.7920, 7371.357
249.0070, 7545.461
250.2220, 7587.078
251.4370, 7628.608
252.6510, 7534.246
253.8660, 7374.488
255.0800, 6927.928
256.2940, 6415.744
257.5080, 5807.658
258.7220, 5721.665
259.9360, 5087.752
261.1490, 4141.918
262.3630, 3940.164
263.5760, 3704.030
264.7890, 4019.676
266.0020, 4178.344
267.2150, 4445.984
268.4270, 4632.258
269.6400, 5130.355
270.8520, 5714.279
272.0640, 6240.711
273.2760, 6544.910
274.4880, 6515.662
275.7000, 6332.617
276.9120, 5614.126
278.1230, 5157.557
279.3340, 4598.241
280.5450, 4063.948
281.7560, 3583.537
282.9670, 3198.306
284.1780, 3072.115
285.3880, 2823.003
286.5980, 2709.073
287.8090, 2784.316
289.0190, 2737.727
290.2290, 2756.300
291.4380, 2743.819
292.6480, 2734.911
293.8570, 2683.938
295.0670, 2646.109
296.2760, 2592.417
297.4850, 2714.860
298.6930, 2778.433
299.9020, 2707.130
301.1110, 2800.028
302.3190, 2700.883
303.5270, 2873.928
304.7350, 3020.084
305.9430, 3109.345
307.1510, 3337.709
308.3580, 3436.173
309.5660, 3835.734
310.7730, 4023.393
311.9800, 4057.144
313.1870, 4108.986
314.3940, 3963.923
315.6010, 3751.945
316.8070, 3675.057
318.0130, 3508.254
319.2200, 2898.538
320.4260, 2798.906
321.6310, 2768.357
322.8370, 2852.893
324.0430, 2892.508
325.2480, 2944.205
326.4540, 3016.984
327.6590, 3454.841
328.8640, 3602.777
330.0680, 4496.789
331.2730, 4879.859
332.4780, 5446.988
333.6820, 6282.172
334.8860, 7168.413
336.0900, 8067.713
337.2940, 8905.070
338.4980, 9850.479
339.7010, 10889.94
340.9050, 11755.45
342.1080, 12843.02
343.3110, 14176.64
344.5140, 15635.31
345.7170, 16909.04
346.9200, 18560.83
348.1220, 20300.68
349.3240, 21535.59
350.5270, 22595.56
351.7290, 22984.59
352.9310, 22393.69
354.1320, 21009.85
355.3340, 19128.07
356.5350, 16578.36
357.7370, 14388.71
358.9380, 12087.12
360.1390, 9951.600
361.3400, 8158.147
362.5400, 6565.760
363.7410, 5166.439
364.9410, 4303.184
366.1410, 3258.995
367.3410, 2759.875
368.5410, 2084.821
369.7410, 1701.836
370.9400, 1232.917
372.1400, 937.0664
373.3390, 661.2852
374.5380, 498.5703
375.7370, 165.9248
376.9360, 40.65234
378.1350, 272.1846
379.3330, 428.7178
380.5310, 706.2881
381.7300, 671.9629
382.9280, 674.5840
384.1260, 457.6025
385.3230, 530.5176
386.5210, 201.4912
387.7180, 261.4531
388.9160, 252.4141
390.1130, 143.6270
391.3100, 256.7354
392.5060, 517.9121
393.7030, 822.0527
394.9000, 1137.957
396.0960, 1146.954
397.2920, 1318.383
398.4880, 1410.757
399.6840, 1357.139
400.8800, 1273.597
402.0750, 1075.131
403.2710, 665.7422
404.4660, 488.4307
405.6610, 68.19434
406.8560, 73.96777
408.0510, 519.1035
409.2450, 384.4072
410.4400, 595.8125
411.6340, 498.4141
412.8280, 408.1670
414.0220, 141.0264
415.2160, 212.1260
416.4100, 742.3662
417.6030, 1355.695
418.7970, 2094.116
419.9900, 2882.632
421.1830, 3917.240
422.3760, 4957.938
423.5690, 5954.731
424.7610, 7152.615
425.9540, 7828.596
427.1460, 8446.702
428.3380, 8422.900
429.5300, 8634.178
430.7220, 8316.538
431.9140, 8074.981
433.1050, 7710.505
434.2970, 7540.109
435.4880, 7495.525
436.6790, 7555.568
437.8700, 7737.400
439.0610, 8211.321
440.2510, 8773.320
441.4420, 9677.401
442.6320, 10914.57
443.8220, 12312.81
445.0120, 13700.15
446.2020, 15460.56
447.3910, 17127.05
448.5810, 18420.63
449.7700, 19869.28
450.9600, 20656.02
452.1490, 21024.83
453.3370, 21118.73
454.5260, 20499.71
455.7150, 19487.76
456.9030, 18553.89
458.0910, 17375.10
459.2800, 15666.39
460.4670, 14791.79
461.6550, 13704.31
462.8430, 12803.96
464.0300, 12203.72
465.2180, 11722.62
466.4050, 11600.63
467.5920, 11493.76
468.7790, 11318.02
469.9650, 10944.42
471.1520, 11023.96
472.3380, 10845.65
473.5250, 10816.48
474.7110, 10324.46
475.8970, 10338.64
477.0820, 9747.992
478.2680, 9540.464
479.4540, 9182.073
480.6390, 8965.863
481.8240, 8581.807
483.0090, 8280.927
484.1940, 7697.186
485.3780, 7201.592
486.5630, 6512.148
487.7470, 5870.867
488.9320, 5422.717
490.1160, 5082.701
491.3000, 4517.812
492.4830, 4130.043
493.6670, 3894.395
494.8500, 3831.877
496.0340, 4123.495
497.2170, 3942.242
498.4000, 4274.125
499.5820, 4532.111
500.7650, 4608.210
501.9480, 5087.410
503.1300, 5483.719
504.3120, 5767.136
505.4940, 6055.705
506.6760, 6115.395
507.8580, 6254.173
509.0390, 6096.076
510.2210, 5818.098
511.4020, 5669.197
512.5830, 5461.619
513.7640, 5121.605
514.9450, 5066.943
516.1250, 5001.346
517.3060, 4786.812
518.4860, 4844.338
519.6660, 4473.469
520.8460, 4162.256
522.0260, 3859.580
523.2060, 3171.065
524.3850, 3007.621
525.5650, 2389.090
526.7440, 2152.085
527.9230, 1639.143
529.1020, 1272.956
530.2810, 924.8301
531.4590, 648.2314
532.6380, 547.4248
533.8160, 336.6738
534.9940, 201.9727
536.1720, 190.3262
537.3500, 33.26660
538.5270, 111.1885
539.7050, 195.6982
540.8820, 286.2627
542.0590, 319.8828
543.2360, 207.5547
544.4130, 236.2822
545.5900, 398.0615
546.7660, 576.8916
547.9430, 687.7744
549.1190, 1005.168
550.2950, 1094.609
551.4710, 1370.486
552.6470, 1573.819
553.8220, 2121.729
554.9980, 2546.675
556.1730, 3077.568
557.3480, 3816.867
558.5230, 5022.223
559.6980, 6284.627
560.8730, 7903.084
562.0470, 10055.59
563.2220, 12880.15
564.3960, 16323.75
565.5700, 20055.42
566.7440, 24661.12
567.9170, 29498.87
569.0910, 34766.67
570.2640, 38513.50
571.4380, 40110.39
572.6110, 39236.31
573.7840, 35296.29
574.9570, 30093.30
576.1290, 25060.35
577.3020, 19750.45
578.4740, 15608.58
579.6460, 12296.75
580.8180, 10070.20
581.9900, 8618.082
583.1620, 8094.488
584.3330, 7608.205
585.5040, 8581.247
586.6760, 7967.543
587.8470, 8697.688
589.0180, 9735.202
590.1880, 10453.66
591.3590, 11575.19
592.5290, 12603.02
593.7000, 13639.88
594.8700, 14856.44
596.0400, 16328.08
597.2090, 17658.43
598.3790, 19066.92
599.5490, 20645.75
600.7180, 22162.02
601.8870, 23469.29
603.0560, 24594.36
604.2250, 25009.52
605.3940, 25211.42
606.5620, 24732.71
607.7300, 23322.67
608.8990, 21569.76
610.0670, 19290.34
611.2350, 16928.29
612.4020, 14743.44
613.5700, 13129.87
614.7370, 11345.57
615.9050, 9875.105
617.0720, 8533.981
618.2390, 7412.987
619.4060, 6331.826
620.5720, 5657.416
621.7390, 4812.561
622.9050, 4100.578
624.0710, 3706.104
625.2370, 3077.132
626.4030, 2523.604
627.5690, 2460.222
628.7340, 2102.084
629.9000, 1819.355
631.0650, 1554.285
632.2300, 1508.131
633.3950, 1398.536
634.5600, 1487.453
635.7240, 1285.638
636.8890, 1215.587
638.0530, 1262.758
639.2170, 1222.060
640.3810, 1155.420
641.5450, 1254.383
642.7080, 1250.729
643.8720, 1300.143
645.0350, 1431.426
646.1980, 1537.393
647.3610, 1826.215
648.5240, 2139.021
649.6870, 2592.979
650.8490, 2987.042
652.0120, 3564.299
653.1740, 3751.471
654.3360, 4076.848
655.4980, 4417.334
656.6600, 4285.994
657.8210, 4381.051
658.9830, 4216.106
660.1440, 4073.150
661.3050, 3766.673
662.4660, 3531.234
663.6270, 3132.487
664.7870, 3028.018
665.9480, 2684.012
667.1080, 2474.953
668.2680, 2386.859
669.4280, 2175.686
670.5880, 2084.266
671.7480, 1956.439
672.9070, 1939.548
674.0670, 1734.590
675.2260, 1778.568
676.3850, 1693.479
677.5440, 1839.938
678.7030, 1998.713
679.8610, 1989.420
681.0200, 2143.059
682.1780, 2073.627
683.3360, 1999.123
684.4940, 2018.550
685.6520, 2159.904
686.8090, 2301.188
687.9670, 2184.397
689.1240, 2349.560
690.2810, 2411.770
691.4380, 2367.998
692.5950, 2612.291
693.7520, 2658.627
694.9080, 3030.982
696.0650, 3071.299
697.2210, 3346.537
698.3770, 3373.695
699.5330, 3471.776
700.6880, 3691.776
701.8440, 3711.697
702.9990, 3383.537
704.1550, 3360.296
705.3100, 3079.973
706.4650, 2801.567
707.6190, 2419.080
708.7740, 2312.507
709.9290, 1939.851
711.0830, 1676.090
712.2370, 1324.283
713.3910, 1126.372
714.5450, 923.3740
715.6980, 721.2900
716.8520, 521.1182
718.0050, 387.8584
719.1580, 263.5107
720.3110, 172.8613
721.4640, 118.5361
722.6170, 100.9004
723.7700, 86.15820
724.9220, 155.3086
726.0740, 182.3584
727.2260, 146.3291
728.3780, 161.5586
729.5300, 84.90332
730.6810, 137.5361
731.8330, 141.0625
732.9840, 181.1621
734.1350, 177.7988
735.2860, 228.0098
736.4370, 116.1191
737.5880, 178.1172
738.7380, 55.99316
739.8880, 22.28906
741.0390, 160.7529
742.1890, 1.461914
743.3380, 139.3301
744.4880, 48.43262
745.6380, 57.72168
746.7870, 90.58398
747.9360, 176.8965
749.0850, 117.8457
750.2340, 168.0225
751.3830, 203.4512
752.5310, 143.1533
753.6800, 379.0947
754.8280, 272.4033
755.9760, 83.01953
757.1240, 127.8467
758.2720, 314.9092
759.4190, 196.3027
760.5670, 289.9668
761.7140, 154.9502
762.8610, 179.1826
764.0080, 202.6758
765.1550, 237.4434
766.3020, 130.5010
767.4480, 137.7939
768.5950, 117.3252
769.7410, 85.08301
770.8870, 95.04980
772.0330, 136.2295
773.1780, 157.6445
774.3240, 139.3057
775.4690, 160.2012
776.6140, 36.34473
777.7590, 86.66504
778.9040, 34.19336
780.0490, 73.89746
781.1940, 76.79980
782.3380, 235.8984
783.4820, 137.2793
784.6260, 4.113281
785.7700, 152.6475
786.9140, 127.6416
788.0580, 30.14551
789.2010, 98.79688
790.3450, 10.66504
791.4880, 32.28027
792.6310, 67.93848
793.7730, 54.04199
794.9160, 163.0254
796.0590, 152.9053
797.2010, 329.6846
798.3430, 215.3711
799.4850, 212.9600
800.6270, 310.4512
801.7690, 265.8486
802.9100, 180.1514
804.0520, 196.3564
805.1930, 217.4619
806.3340, 230.4707
807.4750, 285.8838
808.6160, 433.2041
809.7560, 428.9326
810.8970, 497.5742
812.0370, 626.1260
813.1770, 675.5898
814.3170, 554.9678
815.4570, 685.2598
816.5960, 677.4668
817.7360, 796.5869
818.8750, 702.6221
820.0140, 1213.572
821.1530, 1310.438
822.2920, 1235.220
823.4310, 1495.920
824.5690, 1587.538
825.7070, 1647.072
826.8460, 1723.527
827.9840, 2047.899
829.1220, 2201.192
830.2590, 2304.402
831.3970, 2370.532
832.5340, 2561.580
833.6710, 2744.547
834.8080, 2615.436
835.9450, 2857.243
837.0820, 2913.974
838.2190, 2895.624
839.3550, 3002.196
840.4910, 2996.693
841.6270, 3040.133
842.7630, 3147.457
843.8990, 3129.728
845.0350, 3132.923
846.1700, 3214.305
847.3060, 3381.095
848.4410, 3378.071
849.5760, 3581.978
850.7100, 3587.812
851.8450, 3669.576
852.9800, 3713.272
854.1140, 3889.159
855.2480, 4069.289
856.3820, 4351.716
857.5160, 4530.502
858.6500, 4897.738
859.7830, 5127.637
860.9170, 5319.178
862.0500, 5566.432
863.1830, 5823.814
864.3160, 6142.793
865.4480, 6542.801
866.5810, 6964.667
867.7130, 7459.170
868.8460, 7999.787
869.9780, 8559.579
871.1100, 9217.247
872.2410, 9812.188
873.3730, 10337.95
874.5050, 11091.37
875.6360, 11647.32
876.7670, 12565.25
877.8980, 13208.37
879.0290, 13659.37
880.1590, 14241.59
881.2900, 14556.40
882.4200, 15179.53
883.5500, 15022.47
884.6800, 15270.91
885.8100, 15327.95
886.9400, 15069.76
888.0690, 15366.28
889.1990, 15442.52
890.3280, 15892.90
891.4570, 16099.91
892.5860, 16641.79
893.7140, 17622.81
894.8430, 18319.06
895.9710, 19108.73
897.1000, 20224.50
898.2280, 21179.75
899.3560, 22510.47
900.4830, 24018.73
901.6110, 25426.83
902.7380, 27290.68
903.8660, 29697.10
904.9930, 32328.94
906.1200, 34773.84
907.2460, 37619.16
908.3730, 40435.97
909.5000, 42970.48
910.6260, 45593.20
911.7520, 47035.66
912.8780, 48026.99
914.0040, 48732.23
915.1290, 48023.84
916.2550, 47455.05
917.3800, 45611.15
918.5050, 44082.36
919.6300, 42032.85
920.7550, 40203.34
921.8800, 38302.12
923.0040, 36308.60
924.1290, 34824.96
925.2530, 33235.14
926.3770, 31375.36
927.5010, 30018.38
928.6250, 28322.25
929.7480, 27097.92
930.8720, 25408.17
931.9950, 23743.41
933.1180, 22345.69
934.2410, 20475.52
935.3640, 19055.39
936.4860, 17234.72
937.6090, 15666.90
938.7310, 14029.78
939.8530, 12529.83
940.9750, 11316.02
942.0970, 10128.33
943.2180, 8919.922
944.3400, 8290.957
945.4610, 7273.033
946.5820, 6623.141
947.7030, 6000.287
948.8240, 5614.471
949.9450, 5441.691
951.0650, 5031.949
952.1860, 4724.262
953.3060, 4625.613
954.4260, 4399.016
955.5460, 4539.486
956.6650, 4572.027
957.7850, 4428.609
958.9040, 4384.258
960.0230, 4623.953
961.1420, 4311.699
962.2610, 4505.490
963.3800, 4529.326
964.4990, 4279.219
965.6170, 4382.160
966.7350, 4263.154
967.8530, 4516.199
968.9710, 4497.293
970.0890, 4652.434
971.2070, 4815.625
972.3240, 4978.867
973.4410, 5337.164
974.5580, 5647.514
975.6750, 6489.916
976.7920, 7151.371
977.9090, 8020.883
979.0250, 9432.488
980.1410, 10427.16
981.2580, 11667.88
982.3740, 12526.68
983.4890, 13235.54
984.6050, 13759.48
985.7200, 13491.47
986.8360, 13045.53
987.9510, 12110.65
989.0660, 10680.83
990.1810, 9325.062
991.2950, 8078.359
992.4100, 6801.719
993.5240, 5492.145
994.6390, 4605.637
995.7530, 4072.197
996.8660, 3184.822
997.9800, 2762.512
999.0940, 2301.270
1000.207, 1998.098
1001.320, 1718.002
1002.433, 1427.979
1003.546, 1157.025
1004.659, 1136.145
1005.772, 795.7539
1006.884, 680.2949
1007.996, 417.0645
1009.108, 354.5410
1010.220, 338.6680
1011.332, 169.3438
1012.444, 216.7969
1013.555, 134.1738
1014.666, 211.1680
1015.777, 253.0547
1016.888, 208.2773
1017.999, 314.7129
1019.110, 424.3633
1020.220, 553.3223
1021.331, 630.2988
1022.441, 958.8926
1023.551, 1032.459
1024.661, 1444.963
1025.770, 1529.906
1026.880, 1688.439
1027.989, 1851.146
1029.098, 2097.113
1030.207, 2312.158
1031.316, 2379.189
1032.425, 2668.566
1033.533, 2730.479
1034.642, 2599.881
1035.750, 2866.914
1036.858, 2968.271
1037.966, 3229.166
1039.073, 3402.236
1040.181, 3647.607
1041.288, 3791.832
1042.396, 4013.273
1043.503, 4245.055
1044.610, 4282.973
1045.716, 4284.188
1046.823, 4467.387
1047.929, 4342.883
1049.036, 4407.656
1050.142, 4308.258
1051.248, 3956.980
1052.353, 3697.150
1053.459, 3704.645
1054.564, 3171.363
1055.670, 2972.635
1056.775, 2465.121
1057.880, 2123.422
1058.985, 1901.992
1060.089, 1793.941
1061.194, 1457.666
1062.298, 1225.465
1063.402, 1243.334
1064.506, 1037.461
1065.610, 720.6660
1066.713, 621.2344
1067.817, 570.3555
1068.920, 745.5605
1070.023, 708.7969
1071.126, 789.4512
1072.229, 901.7500
1073.332, 888.6270
1074.435, 805.7070
1075.537, 1004.242
1076.639, 1095.832
1077.741, 1469.479
1078.843, 1452.178
1079.945, 2048.928
1081.046, 2132.736
1082.148, 2701.600
1083.249, 3260.514
1084.350, 3774.740
1085.451, 4556.758
1086.551, 5479.328
1087.652, 6448.842
1088.752, 7876.246
1089.853, 9219.469
1090.953, 10378.17
1092.053, 11275.48
1093.152, 12057.28
1094.252, 12264.88
1095.351, 11621.34
1096.451, 10923.90
1097.550, 9530.453
1098.649, 8235.633
1099.748, 6694.406
1100.846, 5228.090
1101.945, 4196.830
1103.043, 3509.602
1104.141, 2551.422
1105.239, 2313.607
1106.337, 1774.512
1107.434, 1435.854
1108.532, 1226.840
1109.629, 1095.461
1110.726, 962.9492
1111.823, 891.4629
1112.920, 950.6094
1114.017, 710.3262
1115.113, 694.5508
1116.210, 745.1738
1117.306, 891.0703
1118.402, 730.5527
1119.498, 805.0996
1120.593, 800.5039
1121.689, 757.7031
1122.784, 799.1758
1123.879, 716.7129
1124.974, 695.2539
1126.069, 454.8262
1127.164, 521.4336
1128.259, 355.0684
1129.353, 100.7383
1130.447, 142.4336
1131.541, 260.2344
1132.635, 89.99219
1133.729, 85.38477
1134.822, 140.2012
1135.916, 40.04492
1137.009, 28.08594
1138.102, 17.80664
1139.195, 106.2754
1140.288, 139.2598
1141.380, 71.22461
1142.473, 51.21289
1143.565, 36.11328
1144.657, 27.78516
1145.749, 107.3066
1146.841, 69.72070
1147.932, 191.2578
1149.024, 12.74805
1150.115, 148.2637
1151.206, 15.70703
1152.297, 144.6660
1153.388, 85.05859
1154.479, 79.05273
1155.569, 7.785156
1156.659, 142.7891
1157.750, 60.83008
1158.839, 18.11914
1159.929, 84.91797
1161.019, 31.02344
1162.108, 75.13477
1163.198, 74.79492
1164.287, 146.0156
1165.376, 17.95703
1166.465, 138.0762
1167.553, 79.25000
1168.642, 359.2324
1169.730, 161.6074
1170.818, 74.95117
1171.906, 99.41797
1172.994, 12.38867
1174.082, 118.2812
1175.170, 36.77539
1176.257, 100.1152
1177.344, 50.63867
1178.431, 14.39453
1179.518, 10.13867
1180.605, 103.7207
1181.691, 95.09961
1182.778, 14.64844
1183.864, 69.97070
1184.950, 51.73633
1186.036, 93.32227
1187.122, 75.81445
1188.207, 50.72070
1189.292, 34.87695
1190.378, 72.19336
1191.463, 79.80664
1192.548, 75.79297
1193.632, 132.7598
1194.717, 77.28906
1195.801, 26.41406
1196.886, 6.412109
1197.970, 117.2012
1199.054, 54.97070
1200.137, 198.7188
1201.221, 67.31445
1202.305, 74.63867
1203.388, 43.92578
1204.471, 17.53516
1205.554, 163.7480
1206.637, 188.2031
1207.719, 160.6387
1208.802, 257.0488
1209.884, 227.2070
1210.966, 109.3105
1212.048, 182.6484
1213.130, 139.9590
1214.212, 22.64258
1215.293, 241.9609
1216.374, 22.37305
1217.456, 23.46680
1218.536, 35.13672
1219.617, 114.9785
1220.698, 18.95508
1221.778, 137.0156
1222.859, 57.87891
1223.939, 97.69727
1225.019, 168.4824
1226.099, 50.23828
1227.178, 164.9414
1228.258, 65.61523
1229.337, 114.2402
1230.417, 167.8320
1231.496, 127.3926
1232.574, 247.9199
1233.653, 178.0918
1234.732, 86.55078
1235.810, 346.9629
1236.888, 122.3418
1237.966, 187.6836
1239.044, 119.9883
1240.122, 54.74609
1241.199, 71.40039
1242.277, 238.5840
1243.354, 11.63672
1244.431, 208.9219
1245.508, 35.85352
1246.585, 137.7070
1247.661, 89.51953
1248.738, 163.2734
1249.814, 218.0723
1250.890, 140.7461
1251.966, 213.5801
1253.042, 199.3906
1254.117, 284.1055
1255.193, 295.6953
1256.268, 436.2559
1257.343, 319.6875
1258.418, 312.2285
1259.493, 277.5781
1260.567, 147.8867
1261.642, 268.5059
1262.716, 132.1035
1263.790, 260.4336
1264.864, 281.5645
1265.938, 309.6582
1267.011, 315.2305
1268.085, 335.5957
1269.158, 227.8301
1270.231, 219.6660
1271.304, 119.9219
1272.377, 154.3359
1273.450, 196.0469
1274.522, 225.8438
1275.594, 281.5137
1276.666, 302.8496
1277.738, 286.4336
1278.810, 276.9414
1279.882, 370.4336
1280.953, 333.7773
1282.025, 190.9707
1283.096, 94.95508
1284.167, 153.7500
1285.238, 272.2773
1286.308, 408.0625
1287.379, 367.4980
1288.449, 326.2871
1289.519, 275.2676
1290.589, 93.27930
