##NAMES=Clinochlore
##RRUFFID=R060725
##IDEAL CHEMISTRY=Mg_5_Al(AlSi_3_O_10_)(OH)_8_
##LOCALITY=Crestmore Quarry, Riverside, California, USA
##OWNER=RRUFF
##SOURCE=Bob Jenkins
##DESCRIPTION=Green transparent books of mica
##STATUS=The identification of this mineral has been confirmed by X-ray diffraction and chemical analysis
##URL=rruff.info/R060725
##MEASURED CHEMISTRY=(Mg_4.65_Al_1.12_Fe^2+^_0.17_[box]_0.06_)_Σ=6_(Si_3.00_Al_1.00_)_Σ=4_O_10_(OH)_8_
##PIN_ID=L01967
116.2260, 0.0000000E+00
117.4620, 1.668945
118.6970, 42.56421
119.9320, 95.68872
121.1660, 138.1089
122.4010, 170.4253
123.6350, 315.0046
124.8690, 381.0872
126.1040, 384.1865
127.3370, 535.1650
128.5710, 612.7041
129.8050, 676.8535
131.0380, 788.5237
132.2710, 829.1072
133.5040, 754.7051
134.7370, 808.4683
135.9700, 722.3994
137.2030, 705.1709
138.4350, 662.2441
139.6670, 676.6416
140.9000, 503.7478
142.1310, 446.2383
143.3630, 435.7893
144.5950, 401.3530
145.8260, 345.7444
147.0580, 297.1838
148.2890, 250.6641
149.5200, 195.5938
150.7510, 185.1790
151.9810, 141.3770
153.2120, 109.6931
154.4420, 55.04858
155.6720, 64.25708
156.9020, 94.33618
158.1320, 2.699219
159.3620, 70.16528
160.5910, 17.93994
161.8200, 9.364746
163.0500, 5.739746
164.2790, 23.17749
165.5070, 11.75854
166.7360, 11.78320
167.9650, 28.19263
169.1930, 16.56177
170.4210, 55.89551
171.6490, 22.80200
172.8770, 53.47290
174.1050, 61.72290
175.3320, 44.95190
176.5600, 90.16162
177.7870, 92.35498
179.0140, 112.5347
180.2410, 98.70190
181.4670, 174.6094
182.6940, 154.2598
183.9200, 220.9700
185.1470, 263.3848
186.3730, 240.5693
187.5990, 351.8042
188.8240, 479.7075
190.0500, 627.3931
191.2750, 878.6836
192.5010, 1215.888
193.7260, 1654.124
194.9510, 2094.390
196.1750, 2675.414
197.4000, 3330.019
198.6240, 4045.379
199.8490, 4833.770
201.0730, 5752.189
202.2970, 6854.633
203.5200, 7773.105
204.7440, 8495.601
205.9670, 9170.118
207.1910, 9016.658
208.4140, 8253.226
209.6370, 7082.812
210.8600, 5632.422
212.0820, 4272.051
213.3050, 3144.694
214.5270, 2466.339
215.7490, 1939.003
216.9710, 1488.691
218.1930, 1200.387
219.4150, 987.1057
220.6360, 838.8481
221.8570, 705.6128
223.0790, 530.3999
224.3000, 540.2056
225.5200, 431.0283
226.7410, 361.8674
227.9620, 303.7212
229.1820, 301.5903
230.4020, 306.4749
231.6220, 177.3740
232.8420, 141.2888
234.0620, 103.2188
235.2810, 118.1641
236.5010, 66.14209
237.7200, 80.09937
238.9390, 25.08960
240.1580, 41.09497
241.3760, 86.11548
242.5950, 67.15210
243.8130, 9.205078
245.0320, 13.72729
246.2500, 16.83691
247.4680, 69.54761
248.6850, 15.43579
249.9030, 15.30933
251.1200, 28.16846
252.3370, 41.01318
253.5550, 59.84375
254.7710, 40.67529
255.9880, 38.54053
257.2050, 55.41553
258.4210, 0.3200680
259.6370, 4.255859
260.8540, 22.78564
262.0690, 57.15942
263.2850, 13.80957
264.5010, 16.26489
265.7160, 3.121094
266.9320, 31.10571
268.1470, 44.39600
269.3620, 91.73486
270.5760, 169.1118
271.7910, 165.5188
273.0050, 208.9509
274.2200, 299.4043
275.4340, 301.8706
276.6480, 334.3477
277.8620, 424.8325
279.0750, 456.3262
280.2890, 493.8281
281.5020, 576.3379
282.7150, 516.8545
283.9280, 422.3723
285.1410, 395.8967
286.3540, 391.4055
287.5660, 285.8743
288.7780, 211.3518
289.9910, 244.8386
291.2030, 233.3069
292.4140, 220.7849
293.6260, 269.2720
294.8380, 195.7683
296.0490, 186.2795
297.2600, 177.8083
298.4710, 171.3457
299.6820, 182.8921
300.8930, 183.4475
302.1030, 147.0042
303.3140, 142.5632
304.5240, 216.0378
305.7340, 187.6250
306.9440, 182.2344
308.1530, 189.4468
309.3630, 135.8442
310.5720, 50.35767
311.7820, 74.49072
312.9910, 52.21167
314.1990, 84.93799
315.4080, 95.67505
316.6170, 93.41797
317.8250, 25.99341
319.0330, 30.75806
320.2410, 55.54102
321.4490, 86.33081
322.6570, 142.1365
323.8650, 67.94922
325.0720, 145.7681
326.2790, 114.5930
327.4860, 136.4026
328.6930, 162.1675
329.9000, 226.9141
331.1070, 178.6128
332.3130, 214.2781
333.5190, 233.9226
334.7250, 184.5737
335.9310, 266.2080
337.1370, 374.8418
338.3430, 332.4871
339.5480, 456.1431
340.7540, 438.8096
341.9590, 535.4868
343.1640, 647.1746
344.3680, 649.8728
345.5730, 859.5813
346.7770, 1000.300
347.9820, 1228.029
349.1860, 1400.767
350.3900, 1660.516
351.5940, 1841.274
352.7970, 2081.042
354.0010, 2345.819
355.2040, 2527.606
356.4070, 2613.402
357.6100, 2639.207
358.8130, 2505.023
360.0160, 2330.847
361.2180, 2118.681
362.4210, 1729.524
363.6230, 1531.375
364.8250, 1369.237
366.0270, 1106.107
367.2280, 985.1104
368.4300, 798.9980
369.6310, 621.8943
370.8320, 587.7991
372.0330, 477.7126
373.2340, 424.6345
374.4350, 363.5652
375.6350, 426.5042
376.8360, 292.4514
378.0360, 345.4070
379.2360, 252.3708
380.4360, 282.3428
381.6350, 221.3232
382.8350, 245.3113
384.0340, 211.3081
385.2340, 326.3125
386.4330, 209.3247
387.6320, 340.3447
388.8300, 353.3726
390.0290, 361.4211
391.2270, 329.3250
392.4250, 436.1218
393.6230, 433.1499
394.8210, 358.2083
396.0190, 371.5688
397.2170, 247.2031
398.4140, 148.7534
399.6110, 158.4585
400.8080, 145.3154
402.0050, 56.21167
403.2020, 46.19971
404.3990, 133.0254
405.5950, 88.16455
406.7910, 139.0786
407.9870, 38.23511
409.1830, 31.53296
410.3790, 52.50562
411.5750, 54.68823
412.7700, 72.87842
413.9650, 27.07666
415.1610, 51.28174
416.3550, 64.49390
417.5500, 116.7139
418.7450, 154.9409
419.9390, 68.17480
421.1340, 108.4160
422.3280, 84.66382
423.5220, 119.9189
424.7150, 189.1812
425.9090, 228.4502
427.1030, 207.7261
428.2960, 249.0090
429.4890, 199.2988
430.6820, 275.5957
431.8750, 286.8999
433.0670, 284.2109
434.2600, 325.5293
435.4520, 327.8552
436.6440, 317.1880
437.8360, 272.5281
439.0280, 281.5442
440.2200, 208.9028
441.4110, 296.7800
442.6030, 321.8086
443.7940, 181.0508
444.9850, 315.4326
446.1760, 237.8208
447.3660, 249.7778
448.5570, 290.6697
449.7470, 286.4304
450.9370, 390.4160
452.1270, 370.5505
453.3170, 331.2737
454.5070, 412.4104
455.6960, 398.9502
456.8860, 444.4023
458.0750, 446.0037
459.2640, 584.4744
460.4530, 624.9402
461.6420, 656.5874
462.8300, 709.8955
464.0190, 709.3804
465.2070, 778.1919
466.3950, 866.6843
467.5830, 813.1812
468.7700, 830.6816
469.9580, 859.1860
471.1450, 805.6943
472.3330, 861.2070
473.5200, 828.7236
474.7060, 730.2451
475.8930, 680.7712
477.0800, 630.3018
478.2660, 514.8374
479.4520, 472.3772
480.6390, 363.9221
481.8240, 350.4717
483.0100, 221.0261
484.1960, 251.5850
485.3810, 216.1487
486.5660, 192.7166
487.7510, 86.28882
488.9360, 148.8657
490.1210, 42.44702
491.3060, 131.0325
492.4900, 83.62231
493.6740, 92.21631
494.8590, 34.81445
496.0420, 53.41699
497.2260, 135.0234
498.4100, 24.63403
499.5930, 119.2485
500.7770, 78.82471
501.9600, 30.48901
503.1430, 30.11523
504.3250, 56.74536
505.5080, 16.37866
506.6900, 11.01636
507.8730, 73.65747
509.0550, 4.697754
510.2370, 80.94824
511.4190, 66.59790
512.6000, 157.2505
513.7820, 84.90698
514.9630, 56.56665
516.1440, 165.2297
517.3250, 203.8962
518.5060, 209.5664
519.6870, 190.2393
520.8670, 332.9153
522.0470, 305.5947
523.2280, 370.2786
524.4080, 421.9658
525.5870, 480.6558
526.7670, 549.3486
527.9470, 528.0444
529.1260, 692.7434
530.3050, 654.4451
531.4840, 827.1497
532.6630, 806.8613
533.8420, 935.5896
535.0200, 987.3389
536.1980, 1171.098
537.3770, 1229.866
538.5550, 1393.643
539.7320, 1652.434
540.9100, 1956.242
542.0880, 2237.064
543.2650, 2642.901
544.4420, 3089.754
545.6190, 3670.610
546.7960, 4245.471
547.9730, 4742.339
549.1490, 5418.224
550.3260, 5988.110
551.5020, 6165.002
552.6780, 6036.898
553.8540, 5803.797
555.0300, 5006.705
556.2050, 4047.616
557.3800, 3304.546
558.5560, 2567.487
559.7310, 1972.430
560.9060, 1580.375
562.0800, 1214.323
563.2550, 1041.272
564.4290, 824.2258
565.6040, 742.1812
566.7780, 573.1379
567.9510, 523.0962
569.1250, 423.0618
570.2990, 314.0288
571.4720, 294.0022
572.6450, 225.9766
573.8190, 136.9539
574.9910, 193.9375
576.1640, 161.9253
577.3370, 117.9199
578.5090, 169.9202
579.6810, 21.07129
580.8540, 42.07397
582.0250, 18.09961
583.1970, 20.13477
584.3690, 23.18481
585.5400, 35.75098
586.7120, 23.68774
587.8830, 65.37500
589.0540, 0.5227050
590.2240, 61.58472
591.3950, 96.72949
592.5650, 66.93091
593.7360, 44.17310
594.9060, 50.44385
596.0760, 24.74683
597.2460, 40.93091
598.4150, 9.390869
599.5850, 18.27588
600.7540, 26.94287
601.9230, 25.39014
603.0920, 35.74316
604.2610, 52.87891
605.4290, 27.49927
606.5980, 64.10132
607.7660, 144.7024
608.9340, 119.3030
610.1020, 203.9038
611.2700, 99.50464
612.4380, 151.1050
613.6050, 194.7056
614.7730, 268.3057
615.9400, 247.9058
617.1070, 222.5056
618.2730, 219.1052
619.4400, 304.7048
620.6070, 284.3042
621.7730, 314.9033
622.9390, 300.5017
624.1050, 297.2581
625.2710, 287.6980
626.4370, 286.2957
627.6020, 276.8928
628.7670, 278.4897
629.9330, 378.0862
631.0980, 361.6819
632.2630, 383.2773
633.4270, 321.8721
634.5920, 336.4663
635.7560, 434.0601
636.9200, 380.6533
638.0840, 495.2458
639.2480, 428.8376
640.4120, 516.4294
641.5750, 647.0200
642.7390, 645.6099
643.9020, 671.1992
645.0650, 711.7881
646.2280, 865.3757
647.3910, 870.9629
648.5530, 1026.549
649.7150, 1094.010
650.8780, 1228.595
652.0400, 1359.179
653.2020, 1496.910
654.3630, 1641.345
655.5250, 1815.927
656.6860, 1996.508
657.8470, 2160.089
659.0080, 2363.667
660.1690, 2389.245
661.3300, 2801.823
662.4910, 3014.630
663.6510, 3081.205
664.8110, 3328.780
665.9710, 3580.353
667.1310, 3780.926
668.2910, 4062.497
669.4510, 4306.289
670.6100, 4648.635
671.7690, 4794.205
672.9280, 5175.621
674.0870, 5351.187
675.2460, 5559.236
676.4050, 5776.799
677.5630, 6057.360
678.7210, 6339.921
679.8790, 6200.479
681.0370, 6235.037
682.1950, 6120.130
683.3530, 6025.684
684.5100, 5881.236
685.6670, 5610.785
686.8240, 5421.422
687.9810, 5035.968
689.1380, 4734.511
690.2950, 4430.053
691.4510, 4108.636
692.6070, 3749.173
693.7640, 3457.485
694.9200, 3188.018
696.0750, 2962.646
697.2310, 2718.353
698.3860, 2501.878
699.5420, 2273.522
700.6970, 1983.100
701.8520, 1925.617
703.0070, 1725.729
704.1610, 1453.240
705.3160, 1335.750
706.4700, 1266.256
707.6240, 1247.108
708.7780, 1148.609
709.9320, 1072.229
711.0860, 970.6377
712.2390, 885.3950
713.3920, 843.9539
714.5450, 771.1655
715.6980, 776.7830
716.8510, 680.2729
718.0040, 643.3809
719.1560, 573.9792
720.3090, 520.9697
721.4610, 494.8970
722.6130, 477.5842
723.7650, 450.6736
724.9160, 433.1338
726.0680, 424.5911
727.2190, 396.4839
728.3700, 343.4460
729.5210, 462.5437
730.6720, 289.4209
731.8230, 320.1548
732.9730, 331.3057
734.1240, 240.0525
735.2740, 181.4028
736.4240, 184.8452
737.5740, 193.1421
738.7230, 185.5740
739.8730, 197.0146
741.0220, 195.2830
742.1720, 192.8943
743.3210, 190.4048
744.4690, 140.4495
745.6180, 163.8892
746.7670, 138.3281
747.9150, 100.7676
749.0630, 212.2068
750.2110, 151.6462
751.3590, 131.0857
752.5070, 103.5254
753.6540, 170.9651
754.8020, 150.4048
755.9490, 166.8447
757.0960, 184.2844
758.2430, 212.7246
759.3900, 149.1648
760.5360, 184.6052
761.6830, 160.0461
762.8290, 106.4868
763.9750, 186.9280
765.1210, 164.3691
766.2660, 169.8103
767.4120, 136.2520
768.5570, 160.6936
769.7030, 179.1357
770.8480, 157.5779
771.9930, 199.0205
773.1370, 191.4636
774.2820, 100.9067
775.4260, 151.3503
776.5710, 116.7942
777.7150, 97.23828
778.8590, 211.6829
780.0020, 232.1274
781.1460, 162.5725
782.2890, 149.0181
783.4330, 208.4639
784.5760, 185.9102
785.7190, 129.3569
786.8610, 83.80371
788.0040, 73.25195
789.1460, 52.70117
790.2890, 84.15039
791.4310, 98.60010
792.5730, 81.24341
793.7150, 71.50073
794.8560, 71.95166
795.9980, 65.40283
797.1390, 94.85474
798.2800, 50.30713
799.4210, 1.240234
800.5620, 45.20996
801.7020, 5.660645
802.8430, 63.11133
803.9830, 20.56299
805.1230, 27.39990
806.2630, 19.46777
807.4030, 6.920410
808.5430, 7.374023
809.6820, 28.17188
810.8210, 89.26562
811.9600, 6.295898
813.0990, 66.13770
814.2380, 19.57227
815.3770, 80.00684
816.5150, 34.44238
817.6540, 68.87817
818.7920, 7.685059
819.9300, 85.74634
821.0680, 79.17871
822.2050, 18.61133
823.3430, 16.95508
824.4800, 17.46899
825.6170, 62.89355
826.7540, 15.31885
827.8910, 0.7446290
829.0280, 27.17017
830.1640, 28.40381
831.3000, 24.00684
832.4370, 65.58130
833.5730, 35.11841
834.7080, 45.15405
835.8440, 1.486572
836.9800, 0.1276860
838.1150, 40.23047
839.2500, 10.40967
840.3850, 15.94458
841.5200, 5.300293
842.6550, 13.66479
843.7890, 22.96948
844.9240, 3.385010
846.0580, 18.24365
847.1920, 3.118896
848.3260, 5.517578
849.4590, 19.15674
850.5930, 13.80273
851.7260, 20.45410
852.8590, 18.60767
853.9920, 28.65234
855.1250, 15.44849
856.2580, 11.11938
857.3910, 16.75977
858.5230, 5.151611
859.6550, 11.03174
860.7870, 53.34180
861.9190, 58.71655
863.0510, 110.0989
864.1820, 120.5034
865.3140, 15.93335
866.4450, 65.38330
867.5760, 3.863037
868.7070, 61.37939
869.8380, 88.91187
870.9680, 58.46167
872.0990, 138.0303
873.2290, 104.6025
874.3590, 159.1819
875.4890, 169.7632
876.6180, 125.3547
877.7480, 144.9580
878.8770, 135.2434
880.0070, 173.2363
881.1360, 138.8879
882.2650, 152.5415
883.3930, 163.1968
884.5220, 206.8535
885.6500, 140.5195
886.7790, 135.1914
887.9070, 97.86523
889.0350, 123.4731
890.1620, 161.2178
891.2900, 175.8955
892.4170, 190.5752
893.5450, 164.2563
894.6720, 153.9390
895.7990, 192.6230
896.9250, 140.3096
898.0520, 145.0010
899.1780, 183.6929
900.3050, 154.3872
901.4310, 248.0820
902.5570, 209.7812
903.6830, 165.4824
904.8080, 199.1973
905.9340, 104.9141
907.0590, 123.6328
908.1840, 206.3516
909.3090, 264.0723
910.4340, 210.7939
911.5580, 157.5161
912.6830, 172.2402
913.8070, 174.9644
914.9310, 212.6904
916.0550, 146.4165
917.1790, 185.1445
918.3030, 120.8735
919.4260, 152.6035
920.5490, 181.3359
921.6730, 174.7056
922.7960, 207.8022
923.9180, 205.5366
925.0410, 194.2720
926.1630, 190.0088
927.2860, 212.7461
928.4080, 173.4844
929.5300, 244.2231
930.6520, 223.9629
931.7730, 185.7036
932.8950, 264.4453
934.0160, 197.1875
935.1370, 213.6987
936.2580, 285.4429
937.3790, 213.1875
938.5000, 247.9326
939.6200, 220.6792
940.7410, 244.4258
941.8610, 278.1738
942.9810, 236.9219
944.1010, 289.6709
945.2200, 211.5713
946.3400, 248.3223
947.4590, 258.5898
948.5780, 222.3428
949.6970, 269.0972
950.8160, 271.8521
951.9350, 252.6074
953.0530, 268.3638
954.1720, 361.5820
955.2900, 325.3398
956.4080, 359.0986
957.5260, 331.8584
958.6430, 357.5293
959.7610, 304.2900
960.8780, 354.0518
961.9960, 303.8149
963.1130, 368.5337
964.2290, 339.2974
965.3460, 359.2861
966.4630, 386.1206
967.5790, 353.7891
968.6950, 304.3779
969.8110, 317.2363
970.9270, 419.9497
972.0430, 385.6621
973.1580, 452.5981
974.2740, 375.7744
975.3890, 454.5488
976.5040, 449.2212
977.6190, 416.9976
978.7340, 427.5205
979.8480, 463.9248
980.9630, 448.7344
982.0770, 473.5146
983.1910, 530.0303
984.3050, 515.0840
985.4190, 572.3418
986.5320, 572.0654
987.6460, 560.5547
988.7590, 606.2681
989.8720, 543.3657
990.9850, 546.5278
992.0980, 614.4609
993.2100, 661.3760
994.3230, 650.6724
995.4350, 675.4644
996.5470, 729.7617
997.6590, 759.6460
998.7710, 772.4751
999.8820, 912.2822
1000.994, 906.0752
1002.105, 1011.271
1003.216, 821.0630
1004.327, 989.8550
1005.438, 802.4209
1006.548, 741.6621
1007.659, 661.5156
1008.769, 624.3047
1009.879, 607.2344
1010.989, 529.1074
1012.099, 500.4893
1013.208, 530.6729
1014.318, 414.4551
1015.427, 392.3408
1016.536, 387.2451
1017.645, 435.0801
1018.754, 474.6333
1019.863, 428.3574
1020.971, 353.4019
1022.079, 508.1709
1023.188, 590.9858
1024.295, 515.7510
1025.403, 569.5605
1026.511, 660.4097
1027.618, 640.2188
1028.726, 633.1743
1029.833, 721.0449
1030.940, 855.5225
1032.047, 879.3218
1033.153, 963.1895
1034.260, 988.9351
1035.366, 1113.311
1036.472, 1109.196
1037.578, 1270.938
1038.684, 1339.797
1039.790, 1444.530
1040.895, 1579.278
1042.000, 1670.061
1043.106, 1725.786
1044.211, 1768.508
1045.315, 1871.228
1046.420, 1911.138
1047.525, 1966.781
1048.629, 2016.369
1049.733, 2070.077
1050.837, 2101.920
1051.941, 2174.646
1053.045, 1981.488
1054.148, 1991.184
1055.251, 1847.894
1056.355, 1856.584
1057.458, 1748.271
1058.561, 1653.955
1059.663, 1615.636
1060.766, 1529.313
1061.868, 1375.988
1062.970, 1348.660
1064.072, 1146.328
1065.174, 1124.993
1066.276, 993.6548
1067.377, 959.3140
1068.479, 854.9702
1069.580, 780.6240
1070.681, 817.2744
1071.782, 587.9214
1072.883, 591.5654
1073.983, 477.2056
1075.083, 564.8501
1076.184, 366.4932
1077.284, 342.2168
1078.384, 314.9692
1079.483, 293.6133
1080.583, 289.2915
1081.682, 272.2144
1082.782, 278.5674
1083.881, 244.2002
1084.979, 298.8291
1086.078, 265.4541
1087.177, 336.0786
1088.275, 246.6997
1089.373, 255.3164
1090.471, 176.9297
1091.569, 179.5444
1092.667, 83.15527
1093.765, 160.7627
1094.862, 103.3657
1095.959, 53.96582
1097.056, 105.5625
1098.153, 29.16309
1099.250, 66.75879
1100.347, 86.36914
1101.443, 24.99951
1102.539, 31.62549
1103.635, 92.24756
1104.731, 12.86719
1105.827, 63.48047
1106.923, 102.0928
1108.018, 22.29834
1109.113, 49.28955
1110.209, 26.87354
1111.303, 49.54199
1112.398, 34.00732
1113.493, 102.5566
1114.587, 101.1182
1115.682, 3.661133
1116.776, 11.43457
1117.870, 33.97217
1118.963, 18.41455
1120.057, 0.1083980
1121.150, 27.63330
1122.244, 68.84424
1123.337, 83.69727
1124.430, 23.17773
1125.523, 54.68164
1126.615, 99.15381
1127.708, 14.37793
1128.800, 32.07471
1129.892, 70.46875
1130.984, 50.93994
1132.076, 80.34912
1133.168, 44.24561
1134.259, 89.12500
1135.350, 78.49121
1136.442, 18.14648
1137.532, 3.194336
1138.623, 40.52686
1139.714, 55.85303
1140.804, 23.80518
1141.895, 35.49316
1142.985, 69.21387
1144.075, 61.03223
1145.165, 70.27344
1146.254, 31.50977
1147.344, 26.74072
1148.433, 42.96533
1149.522, 17.81445
1150.611, 4.607422
1151.700, 9.586914
1152.789, 92.77344
1153.877, 45.95605
1154.966, 112.1328
1156.054, 46.30518
1157.142, 36.47266
1158.230, 45.63477
1159.318, 16.57080
1160.405, 29.94189
1161.492, 0.9135740
1162.580, 46.21973
1163.667, 29.34766
1164.753, 94.47021
1165.840, 0.5878910
1166.927, 23.69434
1168.013, 37.20459
1169.099, 28.86572
1170.185, 101.9302
1171.271, 53.99023
1172.357, 45.04492
1173.442, 95.09473
1174.528, 94.14014
1175.613, 90.18066
1176.698, 100.2168
1177.783, 118.2485
1178.868, 118.2759
1179.952, 86.29834
1181.037, 25.31592
1182.121, 52.32764
1183.205, 24.33496
1184.289, 101.3364
1185.373, 54.33350
1186.456, 77.32617
1187.540, 92.31445
1188.623, 119.2979
1189.706, 114.3223
1190.789, 122.0962
1191.871, 109.2197
1192.954, 114.1851
1194.036, 126.1460
1195.119, 117.1021
1196.201, 122.0542
1197.283, 144.0015
1198.364, 133.2432
1199.446, 152.9272
1200.527, 125.8159
1201.609, 168.7456
1202.690, 160.5757
1203.771, 145.0615
1204.852, 99.36816
1205.932, 87.42236
1207.013, 39.32959
1208.093, 35.03760
1209.173, 101.9346
1210.253, 51.83301
1211.333, 101.7202
1212.412, 100.6025
1213.492, 125.4810
1214.571, 115.0928
1215.650, 66.22266
1216.729, 88.08643
1217.808, 69.94678
1218.886, 79.80176
1219.965, 134.6528
1221.043, 135.4985
1222.121, 76.34082
1223.199, 119.1777
1224.277, 105.0103
1225.355, 114.8384
1226.432, 76.66162
1227.510, 60.48047
1228.587, 148.2256
1229.664, 89.03516
1230.740, 119.3804
1231.817, 221.0908
1232.894, 212.8228
1233.970, 94.61328
1235.046, 232.2354
1236.122, 132.0171
1237.198, 100.7939
1238.274, 97.67920
1239.349, 139.5249
1240.424, 75.19434
1241.500, 72.32715
1242.575, 109.0151
1243.649, 52.76514
1244.724, 110.5103
1245.799, 9.953613
1246.873, 119.5308
1247.947, 38.19043
1249.021, 78.20459
1250.095, 103.1851
1251.169, 117.8042
1252.242, 35.77783
1253.316, 93.48877
1254.389, 43.07080
1255.462, 117.7739
1256.535, 139.4727
1257.607, 164.3784
1258.680, 112.8384
1259.752, 93.49072
1260.824, 111.5127
1261.896, 99.19287
1262.968, 82.46729
1264.040, 84.14062
1265.112, 118.8169
1266.183, 142.7144
1267.254, 60.93213
1268.325, 89.53564
1269.396, 37.20264
1270.467, 91.72119
1271.537, 134.2925
1272.608, 178.9507
1273.678, 101.6035
1274.748, 56.25342
1275.818, 107.7964
1276.888, 133.3164
1277.957, 265.9014
1279.027, 130.5742
1280.096, 180.3149
1281.165, 121.6777
1282.234, 127.3115
1283.303, 96.89648
1284.371, 146.5264
1285.440, 247.1069
1286.508, 261.6455
1287.576, 287.2192
1288.644, 272.6680
1289.712, 271.3389
1290.779, 252.0649
1291.847, 237.6333
1292.914, 283.1284
1293.981, 268.7412
1295.048, 255.4141
1296.115, 294.1870
1297.181, 218.7905
