##NAMES=Clinochlore
##RRUFFID=R060725
##IDEAL CHEMISTRY=Mg_5_Al(AlSi_3_O_10_)(OH)_8_
##LOCALITY=Crestmore Quarry, Riverside, California, USA
##OWNER=RRUFF
##SOURCE=Bob Jenkins
##DESCRIPTION=Green transparent books of mica
##STATUS=The identification of this mineral has been confirmed by X-ray diffraction and chemical analysis
##URL=rruff.info/R060725
##MEASURED CHEMISTRY=(Mg_4.65_Al_1.12_Fe^2+^_0.17_[box]_0.06_)_Σ=6_(Si_3.00_Al_1.00_)_Σ=4_O_10_(OH)_8_
##PIN_ID=L01861
169.6170, 0.0000000E+00
170.8450, 0.3691410
172.0730, 43.70117
173.3000, 112.5537
174.5280, 109.8813
175.7550, 82.79736
176.9820, 108.4155
178.2090, 19.14795
179.4350, 118.9883
180.6620, 162.3555
181.8880, 114.9346
183.1150, 76.54834
184.3410, 127.1108
185.5670, 40.17139
186.7920, 13.66748
188.0180, 83.24951
189.2430, 134.3838
190.4690, 106.2979
191.6940, 153.7012
192.9180, 280.6880
194.1430, 207.2983
195.3680, 374.6011
196.5920, 541.6479
197.8160, 642.4839
199.0400, 732.1436
200.2640, 881.6572
201.4880, 1095.330
202.7110, 1184.067
203.9350, 1447.618
205.1580, 1402.543
206.3810, 1512.913
207.6040, 1359.442
208.8270, 1214.189
210.0490, 1001.137
211.2710, 841.5225
212.4940, 546.9863
213.7160, 599.6426
214.9370, 373.2305
216.1590, 189.8945
217.3810, 201.6299
218.6020, 238.4375
219.8230, 179.3115
221.0440, 270.2529
222.2650, 206.2568
223.4860, 152.3223
224.7060, 59.44434
225.9260, 156.6191
227.1470, 147.8477
228.3670, 91.12793
229.5860, 63.45996
230.8060, 40.84277
232.0260, 138.2754
233.2450, 45.23926
234.4640, 99.29590
235.6830, 52.88086
236.9020, 35.48340
238.1200, 38.79785
239.3390, 9.938477
240.5570, 87.72461
241.7750, 151.5635
242.9930, 59.54102
244.2110, 121.4062
245.4290, 12.40039
246.6460, 52.55957
247.8630, 9.508789
249.0810, 4.385742
250.2980, 33.75488
251.5140, 61.91504
252.7310, 78.09766
253.9470, 124.3154
255.1640, 74.56641
256.3800, 26.87695
257.5960, 11.75098
258.8120, 14.90332
260.0270, 187.0859
261.2430, 101.5459
262.4580, 169.0303
263.6730, 228.5391
264.8880, 209.0732
266.1030, 226.6338
267.3170, 291.2207
268.5320, 336.8330
269.7460, 393.1543
270.9600, 433.1377
272.1740, 519.8320
273.3880, 642.5527
274.6010, 708.2822
275.8150, 799.0195
277.0280, 841.0596
278.2410, 939.4756
279.4540, 883.2207
280.6670, 899.9766
281.8790, 884.7295
283.0920, 803.5127
284.3040, 567.3291
285.5160, 581.1768
286.7280, 375.0566
287.9400, 432.9658
289.1510, 285.9092
290.3630, 321.8838
291.5740, 289.8916
292.7850, 230.9316
293.9960, 155.0039
295.2070, 390.1094
296.4170, 187.2461
297.6280, 293.4160
298.8380, 122.6182
300.0480, 233.8545
301.2580, 293.1211
302.4680, 215.4209
303.6770, 194.7520
304.8870, 190.1162
306.0960, 195.5127
307.3050, 147.9414
308.5140, 190.4004
309.7230, 247.8926
310.9310, 180.4336
312.1400, 51.08789
313.3480, 183.8047
314.5560, 199.5801
315.7640, 306.7803
316.9720, 322.5625
318.1790, 340.2383
319.3870, 341.0576
320.5940, 338.7686
321.8010, 340.4688
323.0080, 359.5928
324.2150, 381.0234
325.4210, 412.7793
326.6280, 431.3818
327.8340, 478.0039
329.0400, 473.6309
330.2460, 546.2852
331.4510, 480.7920
332.6570, 503.5879
333.8620, 618.2783
335.0680, 469.9746
336.2730, 525.6758
337.4780, 687.3857
338.6820, 798.1064
339.8870, 760.8398
341.0910, 982.6211
342.2950, 1057.571
343.5000, 1173.398
344.7030, 1379.311
345.9070, 1676.151
347.1110, 1937.911
348.3140, 2307.691
349.5170, 2638.396
350.7200, 3023.126
351.9230, 3257.816
353.1260, 3660.533
354.3290, 3958.229
355.5310, 4088.943
356.7330, 4177.688
357.9350, 3997.458
359.1370, 3734.248
360.3390, 3208.066
361.5400, 2788.908
362.7420, 2366.777
363.9430, 2145.672
365.1440, 1762.592
366.3450, 1479.537
367.5460, 1161.508
368.7460, 1037.502
369.9470, 1009.521
371.1470, 786.5654
372.3470, 742.6328
373.5470, 722.7246
374.7460, 570.8408
375.9460, 426.9814
377.1450, 495.1455
378.3450, 447.9434
379.5440, 465.1533
380.7430, 373.3887
381.9410, 375.1055
383.1400, 434.7129
384.3380, 438.0156
385.5370, 447.3418
386.7350, 433.6904
387.9320, 495.3818
389.1300, 488.7764
390.3280, 615.1924
391.5250, 597.5957
392.7220, 534.0557
393.9190, 425.3633
395.1160, 435.8672
396.3130, 325.3936
397.5100, 263.9414
398.7060, 224.5107
399.9020, 302.1035
401.0980, 305.7168
402.2940, 203.0107
403.4900, 125.6670
404.6860, 237.3447
405.8810, 293.0430
407.0760, 202.7637
408.2710, 255.5039
409.4660, 291.2666
410.6610, 218.0518
411.8550, 381.8555
413.0500, 446.6826
414.2440, 293.5293
415.4380, 520.3975
416.6320, 461.2861
417.8260, 532.1963
419.0190, 676.1270
420.2130, 770.0791
421.4060, 800.0527
422.5990, 713.0449
423.7920, 815.0605
424.9850, 864.0986
426.1770, 1127.156
427.3700, 1079.235
428.5620, 1056.337
429.7540, 955.4590
430.9460, 841.6016
432.1380, 828.7676
433.3290, 976.9531
434.5210, 744.1592
435.7120, 870.3877
436.9030, 668.6367
438.0940, 689.9062
439.2850, 619.1963
440.4750, 462.5059
441.6660, 536.8379
442.8560, 625.1895
444.0460, 572.5615
445.2360, 287.9541
446.4260, 469.3662
447.6160, 432.7979
448.8050, 383.2510
449.9940, 448.3418
451.1830, 416.6924
452.3720, 296.8721
453.5610, 365.4639
454.7500, 281.4834
455.9380, 270.0518
457.1260, 340.1260
458.3150, 194.7314
459.5020, 256.3027
460.6900, 437.5742
461.8780, 373.7881
463.0650, 511.4287
464.2530, 454.1562
465.4400, 327.6162
466.6270, 292.3467
467.8130, 288.0977
469.0000, 268.8682
470.1870, 175.2988
471.3730, 235.1055
472.5590, 52.93359
473.7450, 208.7793
474.9310, 123.2129
476.1160, 64.81055
477.3020, 11.72363
478.4870, 250.6553
479.6720, 118.6064
480.8570, 71.57617
482.0420, 112.5654
483.2270, 37.42578
484.4110, 41.40918
485.5960, 37.68262
486.7800, 7.349609
487.9640, 1.298828
489.1480, 59.77148
490.3310, 101.8613
491.5150, 106.9697
492.6980, 95.09766
493.8810, 107.3174
495.0640, 214.4141
496.2470, 73.60254
497.4300, 100.8105
498.6120, 38.03711
499.7950, 206.2861
500.9770, 130.5547
502.1590, 140.8447
503.3410, 185.1533
504.5220, 401.4814
505.7040, 249.8291
506.8850, 416.1963
508.0660, 342.5820
509.2470, 470.9883
510.4280, 393.4141
511.6090, 455.8574
512.7890, 480.3213
513.9700, 678.8047
515.1500, 557.3174
516.3300, 744.8486
517.5100, 727.4004
518.6900, 803.9697
519.8690, 879.5576
521.0490, 783.1797
522.2280, 1008.819
523.4070, 942.4785
524.5860, 1133.167
525.7640, 1219.885
526.9430, 1255.621
528.1210, 1379.396
529.3000, 1535.149
530.4780, 1525.955
531.6560, 1431.781
532.8330, 1483.624
534.0110, 1592.498
535.1880, 1472.391
536.3650, 1588.301
537.5430, 1845.229
538.7190, 1847.176
539.8960, 2120.141
541.0730, 2253.128
542.2490, 2671.133
543.4250, 2903.154
544.6020, 3413.206
545.7780, 3981.274
546.9530, 4222.361
548.1290, 4769.465
549.3040, 5580.588
550.4800, 5799.730
551.6550, 5954.891
552.8300, 5752.072
554.0040, 5095.273
555.1790, 4196.490
556.3540, 3342.725
557.5280, 2748.975
558.7020, 2149.241
559.8760, 1818.523
561.0500, 1620.829
562.2230, 1556.162
563.3970, 1193.512
564.5700, 942.8867
565.7430, 953.2900
566.9160, 695.7080
568.0890, 534.1650
569.2620, 703.6367
570.4340, 584.1250
571.6070, 615.6299
572.7790, 452.1562
573.9510, 399.6992
575.1230, 323.2559
576.2940, 169.8281
577.4660, 166.4170
578.6370, 161.0215
579.8080, 85.63867
580.9790, 208.2725
582.1500, 159.9219
583.3210, 45.58496
584.4910, 131.2637
585.6620, 209.9551
586.8320, 157.6631
588.0020, 157.3867
589.1720, 14.12207
590.3410, 76.12598
591.5110, 117.3926
592.6800, 56.69629
593.8500, 23.00977
595.0190, 52.31934
596.1880, 23.36230
597.3560, 90.94238
598.5250, 110.7275
599.6930, 153.5830
600.8620, 92.94336
602.0300, 10.33105
603.1970, 19.71191
604.3650, 21.08789
605.5330, 36.46094
606.7000, 60.16406
607.8680, 11.80078
609.0350, 113.4961
610.2020, 11.79492
611.3680, 28.95703
612.5350, 132.7500
613.7010, 49.55566
614.8680, 9.616211
616.0340, 12.78027
617.2000, 98.06348
618.3660, 35.91895
619.5310, 91.78711
620.6970, 45.66797
621.8620, 120.5615
623.0270, 126.4678
624.1920, 309.3496
625.3570, 44.09180
626.5220, 239.9932
627.6860, 178.8418
628.8500, 122.7920
630.0140, 132.7861
631.1780, 132.7920
632.3420, 203.8096
633.5060, 167.8389
634.6700, 119.8799
635.8330, 91.93262
636.9960, 172.9971
638.1590, 11.07227
639.3220, 238.3242
640.4850, 288.5469
641.6470, 165.6562
642.8100, 311.7773
643.9720, 291.9092
645.1340, 454.0518
646.2960, 470.2041
647.4570, 304.3682
648.6190, 502.5430
649.7800, 558.7275
650.9420, 577.9229
652.1030, 863.1289
653.2640, 765.3447
654.4240, 997.1357
655.5850, 1151.374
656.7450, 1187.619
657.9060, 1369.876
659.0660, 1484.144
660.2260, 1667.420
661.3850, 1772.705
662.5450, 2022.000
663.7040, 2138.305
664.8640, 2426.617
666.0230, 2610.939
667.1820, 2787.271
668.3410, 3044.610
669.4990, 3431.959
670.6580, 3578.316
671.8160, 3903.684
672.9740, 4271.057
674.1320, 4447.439
675.2900, 4568.830
676.4480, 4889.229
677.6050, 5015.637
678.7630, 5158.051
679.9200, 5271.667
681.0770, 5328.097
682.2340, 5272.536
683.3900, 5278.291
684.5470, 5191.743
685.7030, 4998.203
686.8590, 4674.925
688.0150, 4519.400
689.1710, 4104.797
690.3270, 3979.285
691.4830, 3837.126
692.6380, 3485.627
693.7930, 3207.135
694.9480, 3263.647
696.1030, 2962.168
697.2580, 2738.694
698.4130, 2560.226
699.5670, 2406.916
700.7210, 2236.408
701.8750, 2102.597
703.0290, 1953.973
704.1830, 1858.085
705.3370, 1746.909
706.4900, 1718.479
707.6430, 1654.055
708.7970, 1609.881
709.9490, 1475.546
711.1020, 1440.420
712.2550, 1212.014
713.4070, 1075.610
714.5600, 1002.211
715.7120, 897.8164
716.8640, 826.5840
718.0160, 837.0361
719.1670, 731.6514
720.3190, 684.3916
721.4700, 697.8945
722.6210, 573.5215
723.7720, 552.1514
724.9230, 630.7852
726.0740, 654.4385
727.2250, 613.9385
728.3750, 512.7217
729.5250, 502.7490
730.6750, 458.5410
731.8250, 354.5273
732.9750, 439.1221
734.1240, 388.3135
735.2740, 285.9766
736.4230, 354.1572
737.5720, 227.7656
738.7210, 307.5850
739.8700, 192.6328
741.0190, 272.7607
742.1670, 344.4834
743.3150, 420.1582
744.4630, 226.1055
745.6110, 300.8066
746.7590, 237.8633
747.9070, 207.8457
749.0540, 218.3848
750.2020, 196.5342
751.3490, 241.2529
752.4960, 219.8252
753.6430, 236.3105
754.7890, 209.8564
755.9360, 226.5840
757.0820, 231.3145
758.2280, 259.0479
759.3740, 217.8350
760.5200, 240.3838
761.6660, 325.3154
762.8120, 231.3115
763.9570, 220.9209
765.1020, 178.6367
766.2470, 70.40137
767.3920, 121.9277
768.5370, 305.9365
769.6810, 148.7061
770.8260, 223.4775
771.9700, 173.2480
773.1140, 259.0215
774.2580, 308.7959
775.4020, 217.5713
776.5460, 9.347656
777.6890, 11.12305
778.8320, 34.89746
779.9750, 178.6729
781.1180, 165.4473
782.2610, 167.2236
783.4040, 140.0010
784.5460, 77.77734
785.6890, 100.8555
786.8310, 287.3350
787.9730, 91.11426
789.1150, 118.8945
790.2560, 65.67383
791.3980, 33.41016
792.5390, 114.3467
793.6810, 125.1045
794.8220, 116.8623
795.9630, 80.61816
797.1030, 114.3770
798.2440, 99.13379
799.3840, 69.89160
800.5240, 112.6484
801.6650, 187.4043
802.8040, 73.16113
803.9440, 221.9160
805.0840, 68.67188
806.2230, 341.4268
807.3630, 216.1807
808.5020, 132.9336
809.6410, 242.6875
810.7790, 83.43945
811.9180, 145.1914
813.0570, 69.94238
814.1950, 131.6924
815.3330, 119.4404
816.4710, 7.811523
817.6090, 66.92383
818.7470, 160.6582
819.8840, 26.60938
821.0220, 145.1025
822.1590, 48.81250
823.2960, 12.51953
824.4330, 73.22363
825.5690, 2.485352
826.7060, 187.6172
827.8420, 9.692383
828.9790, 53.98340
830.1150, 148.6572
831.2510, 115.3291
832.3860, 135.2314
833.5220, 95.66895
834.6570, 85.33594
835.7930, 5.999023
836.9280, 29.34766
838.0630, 80.28027
839.1980, 21.09277
840.3320, 28.48730
841.4670, 91.10352
842.6010, 67.30566
843.7350, 137.2402
844.8690, 18.78223
846.0030, 95.32031
847.1370, 10.14355
848.2700, 68.37598
849.4040, 74.89258
850.5370, 90.40820
851.6700, 148.1641
852.8030, 154.7461
853.9360, 245.9463
855.0680, 204.4551
856.2000, 268.9600
857.3330, 300.4639
858.4650, 133.9639
859.5970, 126.4834
860.7290, 57.00000
861.8600, 33.71387
862.9920, 72.02441
864.1230, 57.54199
865.2540, 110.0566
866.3850, 156.5830
867.5160, 127.1367
868.6460, 68.69922
869.7770, 169.2803
870.9070, 139.8701
872.0370, 170.4561
873.1670, 0.9404300
874.2970, 3.350586
875.4270, 58.26074
876.5570, 52.88770
877.6860, 43.51465
878.8150, 38.14160
879.9440, 161.7705
881.0730, 47.40625
882.2020, 149.9619
883.3300, 19.57812
884.4590, 119.7646
885.5870, 87.28613
886.7150, 141.1338
887.8430, 19.44238
888.9710, 59.11328
890.0990, 10.53906
891.2260, 96.97949
892.3530, 65.41797
893.4810, 60.85156
894.6080, 37.60547
895.7340, 54.03223
896.8610, 96.45898
897.9880, 23.88184
899.1140, 13.69238
900.2400, 0.7119140
901.3660, 106.1025
902.4920, 127.4893
903.6180, 154.8721
904.7430, 175.9600
905.8690, 186.6250
906.9940, 168.9951
908.1190, 135.3604
909.2440, 134.7207
910.3690, 212.0762
911.4930, 75.42773
912.6180, 186.6113
913.7420, 126.8291
914.8660, 215.1660
915.9900, 116.5000
917.1140, 218.8613
918.2380, 156.2217
919.3610, 99.57715
920.4850, 111.9463
921.6080, 241.3105
922.7310, 235.6680
923.8540, 161.0234
924.9760, 139.3721
926.0990, 37.71582
927.2210, 120.4893
928.3440, 107.2109
929.4660, 243.1484
930.5880, 171.4697
931.7090, 173.7861
932.8310, 167.0977
933.9520, 309.4053
935.0740, 136.7070
936.1950, 77.00293
937.3160, 217.2939
938.4360, 161.5801
939.5570, 375.8604
940.6780, 127.1592
941.7980, 339.4531
942.9180, 233.7432
944.0380, 246.0283
945.1580, 344.3057
946.2780, 267.5820
947.3970, 167.8525
948.5170, 237.1191
949.6360, 429.3799
950.7550, 167.6348
951.8740, 408.6943
952.9930, 238.9404
954.1110, 300.1836
955.2300, 360.1133
956.3480, 391.3447
957.4660, 249.5713
958.5840, 268.5371
959.7020, 255.7520
960.8190, 364.0449
961.9370, 316.2490
963.0540, 331.1006
964.1710, 305.2939
965.2880, 312.2393
966.4050, 398.6611
967.5220, 262.8379
968.6380, 336.0088
969.7550, 161.1729
970.8710, 240.1816
971.9870, 171.9238
973.1030, 157.4600
974.2190, 141.5215
975.3340, 202.8389
976.4500, 199.9639
977.5650, 222.3613
978.6800, 274.2607
979.7950, 260.1875
980.9100, 353.2959
982.0250, 353.9795
983.1390, 272.1191
984.2530, 363.2217
985.3680, 273.9824
986.4820, 361.1045
987.5950, 500.1924
988.7090, 233.2734
989.8230, 305.3496
990.9360, 137.6357
992.0490, 405.7021
993.1620, 305.7012
994.2750, 179.7549
995.3880, 378.8018
996.5010, 259.8271
997.6130, 364.0576
998.7250, 387.1016
999.8370, 276.3125
1000.949, 448.9316
1002.061, 332.9404
1003.173, 420.0166
1004.284, 340.0117
1005.396, 364.7314
1006.507, 377.9814
1007.618, 385.0186
1008.729, 275.8916
1009.839, 220.8516
1010.950, 309.8047
1012.060, 388.7500
1013.171, 328.6719
1014.281, 195.9043
1015.391, 161.9004
1016.500, 271.4629
1017.610, 40.09668
1018.719, 281.8076
1019.829, 391.2666
1020.938, 122.2432
1022.047, 27.18164
1023.156, 223.7285
1024.264, 274.8750
1025.373, 202.0381
1026.481, 194.1074
1027.589, 18.17578
1028.697, 237.2520
1029.805, 182.6484
1030.913, 175.4688
1032.020, 328.4746
1033.128, 247.4268
1034.235, 311.2959
1035.342, 376.2764
1036.449, 275.1152
1037.556, 474.9453
1038.663, 450.0732
1039.769, 429.8340
1040.875, 559.5879
1041.981, 407.3340
1043.087, 443.0850
1044.193, 539.8154
1045.299, 503.5391
1046.404, 633.5254
1047.510, 581.2373
1048.615, 500.9414
1049.720, 522.6885
1050.825, 475.1113
1051.930, 448.7920
1053.034, 669.6396
1054.139, 667.3037
1055.243, 683.9951
1056.347, 517.7959
1057.451, 694.4346
1058.555, 584.0635
1059.658, 457.5498
1060.762, 472.2002
1061.865, 406.3203
1062.968, 426.6172
1064.071, 404.1270
1065.174, 488.7178
1066.277, 540.4795
1067.380, 542.0527
1068.482, 413.6191
1069.584, 457.3066
1070.686, 664.8545
1071.788, 527.6016
1072.890, 624.5146
1073.992, 630.4297
1075.093, 622.0098
1076.194, 690.5361
1077.295, 809.2529
1078.396, 692.2520
1079.497, 871.8877
1080.598, 949.7646
1081.698, 939.2461
1082.799, 1136.883
1083.899, 1206.865
1084.999, 1025.325
1086.099, 1200.337
1087.199, 1094.777
1088.298, 971.2197
1089.398, 842.6533
1090.497, 785.0771
1091.596, 584.4932
1092.695, 698.0645
1093.794, 654.4932
1094.892, 525.8857
1095.991, 509.2754
1097.089, 290.6562
1098.187, 415.0293
1099.285, 525.7344
1100.383, 161.0879
1101.481, 146.4316
1102.579, 129.1162
1103.676, 59.44629
1104.773, 28.97754
1105.870, 117.0967
1106.967, 23.58398
1108.064, 42.71582
1109.161, 138.0029
1110.257, 134.3027
1111.353, 124.5938
1112.449, 254.8760
1113.545, 101.1484
1114.641, 92.41895
1115.737, 169.9268
1116.832, 10.17773
1117.928, 97.46191
1119.023, 157.9424
1120.118, 127.1582
1121.213, 165.3467
1122.308, 53.83301
1123.402, 132.0186
1124.497, 61.56445
1125.591, 128.1318
1126.685, 235.3545
1127.779, 264.5605
1128.873, 17.94434
1129.967, 102.0137
1131.060, 60.64062
1132.153, 12.65527
1133.247, 189.2295
1134.340, 48.02930
1135.433, 124.9600
1136.525, 134.1270
1137.618, 218.2363
1138.710, 140.0332
1139.802, 111.9609
1140.895, 246.2324
1141.987, 290.7441
1143.078, 193.8164
1144.170, 282.6406
1145.261, 39.57227
1146.353, 87.76367
1147.444, 261.5918
1148.535, 172.8184
1149.626, 51.98633
1150.716, 136.9121
1151.807, 17.16797
1152.897, 47.90430
1153.988, 74.35938
1155.078, 60.52734
1156.168, 38.25781
1157.257, 53.02930
1158.347, 50.79102
1159.436, 39.22070
1160.526, 11.10547
1161.615, 184.8301
1162.704, 23.36523
1163.793, 161.3223
1164.881, 98.00977
1165.970, 58.69141
1167.058, 90.36328
1168.147, 90.70703
1169.235, 29.68164
1170.323, 148.3223
1171.410, 131.0078
1172.498, 108.6328
1173.585, 100.2949
1174.673, 136.9004
1175.760, 183.7480
1176.847, 39.33789
1177.934, 141.9180
1179.020, 186.4863
1180.107, 113.9512
1181.193, 2.535156
1182.279, 133.0020
1183.365, 52.53711
1184.451, 163.8770
1185.537, 92.28516
1186.623, 63.68359
1187.708, 156.0723
1188.793, 114.4531
1189.878, 293.8223
1190.963, 93.18750
1192.048, 74.54492
1193.133, 236.8906
1194.217, 202.2285
1195.302, 196.6191
1196.386, 54.88086
1197.470, 114.1934
1198.554, 111.4961
1199.638, 65.79102
1200.721, 274.0781
1201.805, 56.54102
1202.888, 71.18945
1203.971, 24.02539
1205.054, 89.22656
1206.137, 104.4219
1207.219, 51.60742
1208.302, 9.785156
1209.384, 65.94922
1210.466, 19.91602
1211.548, 121.2480
1212.630, 58.38477
1213.712, 5.513672
1214.794, 131.6270
1215.875, 3.732422
1216.956, 196.8262
1218.037, 123.9102
1219.118, 194.9883
1220.199, 178.0586
1221.280, 127.1211
1222.360, 55.17578
1223.441, 87.35352
1224.521, 100.2598
1225.601, 141.2910
1226.681, 195.3145
1227.760, 239.3301
1228.840, 18.33984
1229.919, 260.3398
1230.999, 116.3301
1232.078, 16.31445
1233.157, 225.2891
1234.236, 251.0801
1235.314, 186.6543
1236.393, 233.6074
1237.471, 101.0508
1238.549, 211.7188
1239.627, 133.6504
1240.705, 118.5781
1241.783, 133.4961
1242.860, 140.4102
1243.938, 124.3086
1245.015, 28.83594
1246.092, 252.0371
1247.169, 71.24023
1248.246, 21.06836
1249.323, 90.91797
1250.399, 16.76367
1251.475, 156.5996
1252.552, 111.2168
1253.628, 314.0449
1254.703, 116.9258
1255.779, 406.7383
1256.855, 102.5508
1257.930, 100.3535
1259.005, 237.9570
1260.080, 214.7344
1261.155, 98.33398
1262.230, 260.5156
1263.305, 237.2910
1264.379, 55.99414
1265.454, 148.7617
1266.528, 211.5352
1267.602, 255.4238
1268.676, 245.1895
1269.750, 116.9492
1270.823, 29.70508
1271.897, 107.4551
1272.970, 207.2012
1274.043, 174.9414
1275.116, 53.38086
1276.189, 50.04297
1277.261, 82.77344
1278.334, 77.50000
1279.406, 136.9473
1280.478, 65.66602
1281.550, 10.30273
1282.622, 194.0059
1283.694, 192.0469
1284.766, 149.9570
1285.837, 277.3613
1286.908, 183.8516
1287.979, 146.3301
1289.050, 7.738281
1290.121, 240.8691
1291.192, 20.56250
1292.262, 206.8145
1293.333, 49.50586
1294.403, 387.1680
1295.473, 130.6641
1296.543, 97.29102
1297.613, 221.9180
1298.682, 168.2383
1299.752, 23.91406
1300.821, 208.5859
1301.890, 24.25586
1302.959, 131.9141
1304.028, 5.421875
1305.096, 163.2402
1306.165, 161.6328
1307.233, 216.2891
1308.301, 250.9453
1309.370, 303.5508
1310.437, 266.5098
1311.505, 332.1250
1312.573, 162.5957
1313.640, 118.2402
1314.708, 35.84766
1315.775, 259.3340
1316.842, 67.97656
1317.908, 413.6152
1318.975, 235.2520
1320.042, 132.8613
1321.108, 94.39453
1322.174, 157.0039
1323.240, 218.6152
1324.306, 205.2246
1325.372, 306.6504
1326.438, 137.2598
1327.503, 45.86328
1328.568, 244.3398
1329.634, 104.0527
1330.699, 316.3418
1331.763, 325.5645
1332.828, 18.77539
1333.893, 323.3105
1334.957, 196.8926
1336.021, 21.27539
1337.085, 287.3672
1338.149, 324.8125
1339.213, 105.0117
1340.277, 169.5938
1341.340, 207.0137
1342.404, 165.0801
1343.467, 98.66602
