##NAMES=Clinochlore
##RRUFFID=R060725
##IDEAL CHEMISTRY=Mg_5_Al(AlSi_3_O_10_)(OH)_8_
##LOCALITY=Crestmore Quarry, Riverside, California, USA
##OWNER=RRUFF
##SOURCE=Bob Jenkins
##DESCRIPTION=Green transparent books of mica
##STATUS=The identification of this mineral has been confirmed by X-ray diffraction and chemical analysis
##URL=rruff.info/R060725
##MEASURED CHEMISTRY=(Mg_4.65_Al_1.12_Fe^2+^_0.17_[box]_0.06_)_Σ=6_(Si_3.00_Al_1.00_)_Σ=4_O_10_(OH)_8_
##PIN_ID=L01967
116.2260, 0.0000000E+00
117.4620, 18.57373
118.6970, 81.82983
119.9320, 199.3982
121.1660, 255.8008
122.4010, 270.5610
123.6350, 428.6619
124.8690, 550.0254
126.1040, 690.0574
127.3370, 827.0698
128.5710, 894.0654
129.8050, 990.9243
131.0380, 1103.454
132.2710, 1100.586
133.5040, 1185.837
134.7370, 1135.799
135.9700, 1111.791
137.2030, 901.7222
138.4350, 888.0393
139.6670, 783.3262
140.9000, 817.4790
142.1310, 703.6853
143.3630, 580.5398
144.5950, 494.6160
145.8260, 464.0095
147.0580, 417.0347
148.2890, 333.5154
149.5200, 300.0486
150.7510, 221.7856
151.9810, 204.4075
153.2120, 155.5349
154.4420, 114.7588
155.6720, 102.7156
156.9020, 42.43237
158.1320, 6.937256
159.3620, 1.254395
160.5910, 30.59766
161.8200, 57.60181
163.0500, 7.744385
164.2790, 5.986328
165.5070, 26.40283
166.7360, 2.093506
167.9650, 46.51782
169.1930, 1.227783
170.4210, 23.02734
171.6490, 40.09106
172.8770, 5.865479
174.1050, 73.10815
175.3320, 76.35547
176.5600, 40.86865
177.7870, 92.66504
179.0140, 106.5422
180.2410, 66.23999
181.4670, 97.68066
182.6940, 250.1719
183.9200, 224.4399
185.1470, 215.6436
186.3730, 424.3860
187.5990, 540.8623
188.8240, 742.0002
190.0500, 934.4780
191.2750, 1269.575
192.5010, 1740.981
193.7260, 2340.073
194.9510, 3230.240
196.1750, 4086.476
197.4000, 5249.775
198.6240, 6385.631
199.8490, 7337.538
201.0730, 9047.986
202.2970, 10636.47
203.5200, 12240.98
204.7440, 13007.51
205.9670, 13476.07
207.1910, 12634.64
208.4140, 11208.23
209.6370, 9165.839
210.8600, 7346.461
212.0820, 5506.066
213.3050, 4189.602
214.5270, 3168.159
215.7490, 2418.648
216.9710, 1943.108
218.1930, 1592.566
219.4150, 1339.042
220.6360, 1189.540
221.8570, 915.0618
223.0790, 895.6060
224.3000, 718.1704
225.5200, 576.7510
226.7410, 600.3447
227.9620, 522.9512
229.1820, 401.5684
230.4020, 368.1980
231.6220, 288.8391
232.8420, 282.4922
234.0620, 233.1572
235.2810, 260.8337
236.5010, 223.5220
237.7200, 91.22192
238.9390, 142.9341
240.1580, 68.65796
241.3760, 94.39258
242.5950, 108.1392
243.8130, 89.89746
245.0320, 35.66699
246.2500, 22.55127
247.4680, 4.241699
248.6850, 30.04614
249.9030, 32.13794
251.1200, 79.31104
252.3370, 28.47290
253.5550, 59.62354
254.7710, 85.77612
255.9880, 27.93750
257.2050, 21.14111
258.4210, 58.40210
259.6370, 35.73535
260.8540, 15.10254
262.0690, 55.50586
263.2850, 18.47046
264.5010, 30.07593
265.7160, 18.47754
266.9320, 17.11426
268.1470, 77.78711
269.3620, 173.4673
270.5760, 263.1301
271.7910, 342.7642
273.0050, 348.3657
274.2200, 464.9250
275.4340, 438.4189
276.6480, 634.8389
277.8620, 665.1904
279.0750, 722.4839
280.2890, 728.7280
281.5020, 732.9282
282.7150, 714.0886
283.9280, 614.1897
285.1410, 609.1504
286.3540, 489.9255
287.5660, 470.6006
288.7780, 419.1504
289.9910, 329.6143
291.2030, 249.0454
292.4140, 286.4790
293.6260, 268.9126
294.8380, 265.3486
296.0490, 233.7864
297.2600, 290.2214
298.4710, 312.6699
299.6820, 249.1331
300.8930, 250.5872
302.1030, 212.0435
303.3140, 187.2515
304.5240, 162.2793
305.7340, 163.9167
306.9440, 152.5537
308.1530, 181.4995
309.3630, 138.5798
310.5720, 68.48926
311.7820, 31.42432
312.9910, 71.16333
314.1990, 94.87891
315.4080, 37.46655
316.6170, 53.69287
317.8250, 60.81299
319.0330, 98.51318
320.2410, 97.15112
321.4490, 73.79565
322.6570, 105.3049
323.8650, 152.9517
325.0720, 154.5994
326.2790, 214.2253
327.4860, 187.8503
328.6930, 255.4673
329.9000, 231.0049
331.1070, 296.4800
332.3130, 260.8821
333.5190, 341.2334
334.7250, 396.5522
335.9310, 503.8286
337.1370, 462.0911
338.3430, 454.3608
339.5480, 599.6396
340.7540, 702.9268
341.9590, 778.2222
343.1640, 922.5254
344.3680, 1119.836
345.5730, 1291.155
346.7770, 1551.182
347.9820, 1898.813
349.1860, 2129.153
350.3900, 2450.500
351.5940, 2798.854
352.7970, 3111.214
354.0010, 3313.581
355.2040, 3540.955
356.4070, 3619.335
357.6100, 3596.721
358.8130, 3503.115
360.0160, 3151.515
361.2180, 2786.924
362.4210, 2385.338
363.6230, 2037.761
364.8250, 1744.967
366.0270, 1425.627
367.2280, 1229.071
368.4300, 992.5215
369.6310, 773.4841
370.8320, 690.8672
372.0330, 611.7905
373.2340, 536.8909
374.4350, 432.4839
375.6350, 401.5569
376.8360, 362.7603
378.0360, 369.3679
379.2360, 410.8784
380.4360, 286.3948
381.6350, 242.9177
382.8350, 242.4470
384.0340, 337.9824
385.2340, 349.4680
386.4330, 358.0159
387.6320, 344.5698
388.8300, 436.1301
390.0290, 451.5117
391.2270, 457.6792
392.4250, 527.5571
393.6230, 522.9387
394.8210, 413.6223
396.0190, 303.3835
397.2170, 289.3735
398.4140, 241.4465
399.6110, 180.9155
400.8080, 140.0522
402.0050, 167.6548
403.2020, 70.95947
404.3990, 181.7297
405.5950, 93.83887
406.7910, 128.4570
407.9870, 138.4185
409.1830, 129.6587
410.3790, 88.12817
411.5750, 66.58472
412.7700, 48.24414
413.9650, 142.9026
415.1610, 34.56006
416.3550, 138.2168
417.5500, 112.8728
418.7450, 166.5286
419.9390, 182.1843
421.1340, 159.8403
422.3280, 157.4968
423.5220, 272.1543
424.7150, 261.8130
425.9090, 362.4727
427.1030, 355.1338
428.2960, 274.7969
429.4890, 365.4619
430.6820, 446.1304
431.8750, 300.8022
433.0670, 385.3503
434.2600, 433.9998
435.4520, 458.1028
436.6440, 458.9932
437.8360, 367.0388
439.0280, 394.9604
440.2200, 374.8557
441.4110, 357.4407
442.6030, 407.7871
443.7940, 329.4456
444.9850, 362.0869
446.1760, 343.6636
447.3660, 363.2583
448.5570, 307.7529
449.7470, 395.4988
450.9370, 347.2700
452.1270, 388.7754
453.3170, 359.7327
454.5070, 418.6389
455.6960, 446.4910
456.8860, 464.7715
458.0750, 570.2773
459.2640, 703.1189
460.4530, 703.7249
461.6420, 835.5801
462.8300, 857.1113
464.0190, 895.9944
465.2070, 921.8589
466.3950, 1070.725
467.5830, 1146.592
468.7700, 1085.460
469.9580, 1038.330
471.1450, 1111.200
472.3330, 1018.072
473.5200, 940.9443
474.7060, 893.8191
475.8930, 814.6958
477.0800, 686.5745
478.2660, 684.4556
479.4520, 549.3394
480.6390, 525.2256
481.8240, 333.1147
483.0100, 277.0059
484.1960, 291.8997
485.3810, 208.7961
486.5660, 186.6948
487.7510, 167.5957
488.9360, 146.4990
490.1210, 93.40454
491.3060, 125.3123
492.4900, 79.22217
493.6740, 84.13379
494.8590, 21.04834
496.0420, 76.96436
497.2260, 7.882568
498.4100, 13.80225
499.5930, 36.72461
500.7770, 73.64819
501.9600, 49.57397
503.1430, 33.50146
504.3250, 18.43066
505.5080, 18.36182
506.6900, 37.23218
507.8730, 75.22852
509.0550, 85.16431
510.2370, 135.1016
511.4190, 139.0405
512.6000, 131.9812
513.7820, 191.9231
514.9630, 218.8662
516.1440, 199.8108
517.3250, 286.7566
518.5060, 388.7036
519.6870, 371.6521
520.8670, 434.6018
522.0470, 487.5525
523.2280, 563.5054
524.4080, 614.4624
525.5870, 704.4116
526.7670, 775.5864
527.9470, 877.3613
529.1260, 958.3438
530.3050, 1028.327
531.4840, 1168.328
532.6630, 1191.348
533.8420, 1374.379
535.0200, 1446.415
536.1980, 1659.458
537.3770, 1846.515
538.5550, 1981.599
539.7320, 2478.693
540.9100, 2926.808
542.0880, 3386.950
543.2650, 4095.104
544.4420, 4827.268
545.6190, 5594.451
546.7960, 6396.647
547.9730, 7253.852
549.1490, 8147.076
550.3260, 8783.312
551.5020, 8807.562
552.6780, 8649.812
553.8540, 7717.070
555.0300, 6563.339
556.2050, 5264.609
557.3800, 4251.899
558.5560, 3238.189
559.7310, 2561.498
560.9060, 2046.812
562.0800, 1598.128
563.2550, 1382.443
564.4290, 1105.758
565.6040, 916.0723
566.7780, 772.3867
567.9510, 614.7017
569.1250, 487.5747
570.2990, 448.3301
571.4720, 286.6440
572.6450, 290.9590
573.8190, 262.2725
574.9910, 141.5854
576.1640, 121.9136
577.3370, 21.24121
578.5090, 103.5684
579.6810, 57.89502
580.8540, 25.22119
582.0250, 64.45312
583.1970, 78.16895
584.3690, 12.06543
585.5400, 25.69971
586.7120, 34.48779
587.8830, 66.30176
589.0540, 112.1602
590.2240, 52.08594
591.3950, 52.04834
592.5650, 47.26318
593.7360, 70.08105
594.9060, 37.16113
596.0760, 52.27051
597.2460, 74.41699
598.4150, 77.61230
599.5850, 58.14062
600.7540, 0.8925780
601.9230, 33.63477
603.0920, 2.375488
604.2610, 27.10693
605.4290, 31.83643
606.5980, 77.56494
607.7660, 74.29150
608.9340, 134.0161
610.1020, 173.7402
611.2700, 259.4624
612.4380, 255.1831
613.6050, 327.9019
614.7730, 311.6196
615.9400, 242.3359
617.1070, 357.0503
618.2730, 384.7637
619.4400, 372.4751
620.6070, 457.1851
621.7730, 407.8936
622.9390, 403.6011
624.1050, 476.3066
625.2710, 420.0103
626.4370, 374.7119
627.6020, 432.4131
628.7670, 364.1118
629.9330, 405.8096
631.0980, 391.5059
632.2630, 465.2007
633.4270, 497.8936
634.5920, 473.5845
635.7560, 539.2744
636.9200, 534.9619
638.0840, 577.6484
639.2480, 637.3330
640.4120, 654.0166
641.5750, 674.6978
642.7390, 859.3770
643.9020, 799.0547
645.0650, 975.7314
646.2280, 1109.406
647.3910, 1188.079
648.5530, 1313.750
649.7150, 1450.420
650.8780, 1531.088
652.0400, 1785.754
653.2020, 2017.419
654.3630, 2192.083
655.5250, 2372.744
656.6860, 2549.403
657.8470, 2808.061
659.0080, 3156.718
660.1690, 3248.373
661.3300, 3752.026
662.4910, 3877.718
663.6510, 4232.089
664.8110, 4425.737
665.9710, 4868.521
667.1310, 5255.165
668.2910, 5601.117
669.4510, 6036.318
670.6100, 6441.478
671.7690, 6818.785
672.9280, 7276.418
674.0870, 7582.050
675.2460, 7933.781
676.4050, 8142.407
677.5630, 8391.028
678.7210, 8533.649
679.8790, 8631.269
681.0370, 8618.884
682.1950, 8481.493
683.3530, 8160.104
684.5100, 8059.709
685.6670, 7660.311
686.8240, 7256.910
687.9810, 6868.826
689.1380, 6317.628
690.2950, 5914.218
691.4510, 5440.803
692.6070, 5064.553
693.7640, 4738.922
694.9200, 4217.496
696.0750, 3920.791
697.2310, 3455.357
698.3860, 3238.006
699.5420, 2958.931
700.6970, 2627.484
701.8520, 2438.035
703.0070, 2295.581
704.1610, 2072.123
705.3160, 1857.660
706.4700, 1640.194
707.6240, 1673.724
708.7780, 1619.250
709.9320, 1480.809
711.0860, 1383.328
712.2390, 1379.842
713.3920, 1262.354
714.5450, 1125.271
715.6980, 1176.775
716.8510, 1149.255
718.0040, 1052.751
719.1560, 1027.244
720.3090, 851.7812
721.4610, 830.6074
722.6130, 814.5503
723.7650, 722.2979
724.9160, 769.4917
726.0680, 673.1143
727.2190, 683.7207
728.3700, 587.4321
729.5210, 558.8984
730.6720, 507.3530
731.8230, 460.0952
732.9730, 431.1152
734.1240, 370.7490
735.2740, 379.1470
736.4240, 384.1475
737.5740, 378.9414
738.7230, 320.4062
739.8730, 280.1191
741.0220, 215.5859
742.1720, 213.4644
743.3210, 259.8350
744.4690, 218.3047
745.6180, 201.7749
746.7670, 211.2476
747.9150, 181.7202
749.0630, 185.4731
750.2110, 166.6699
751.3590, 183.1470
752.5070, 190.6245
753.6540, 197.0444
754.8020, 132.5840
755.9490, 173.0659
757.0960, 177.5488
758.2430, 143.0332
759.3900, 179.5186
760.5360, 200.0059
761.6830, 192.4937
762.8290, 227.9834
763.9750, 228.4746
765.1210, 238.1758
766.2660, 233.8032
767.4120, 241.9561
768.5570, 214.4531
769.7030, 187.9512
770.8480, 192.4507
771.9930, 195.9521
773.1370, 219.4546
774.2820, 163.9590
775.4260, 203.4648
776.5710, 226.9722
777.7150, 233.4814
778.8590, 308.9922
780.0020, 313.5049
781.1460, 340.0190
782.2890, 333.5352
783.4330, 347.0518
784.5760, 230.5713
785.7190, 255.0923
786.8610, 275.6152
788.0040, 138.1392
789.1460, 152.6655
790.2890, 124.1938
791.4310, 127.7236
792.5730, 135.8945
793.7150, 118.9873
794.8560, 134.3247
795.9980, 95.86133
797.1390, 43.40088
798.2800, 8.941895
799.4210, 2.484863
800.5620, 11.97168
801.7020, 35.56689
802.8430, 35.89355
803.9830, 12.62891
805.1230, 38.84717
806.2630, 36.65723
807.4030, 62.83545
808.5430, 65.36035
809.6820, 39.08203
810.8210, 57.52686
811.9600, 20.02637
813.0990, 15.41162
814.2380, 52.85156
815.3770, 83.29395
816.5150, 86.40527
817.6540, 80.18604
818.7920, 73.63477
819.9300, 99.08594
821.0680, 81.27979
822.2050, 2.995605
823.3430, 13.45312
824.4800, 6.086426
825.6170, 23.62842
826.7540, 18.82129
827.8910, 19.27246
829.0280, 23.27295
830.1640, 49.82812
831.3000, 14.59521
832.4370, 80.97949
833.5730, 26.40771
834.7080, 71.20312
835.8440, 27.84033
836.9800, 19.51465
838.1150, 56.89062
839.2500, 70.30762
840.3850, 83.65625
841.5200, 74.07520
842.6550, 86.49951
843.7890, 67.94873
844.9240, 44.40771
846.0580, 0.1293950
847.1920, 65.35156
848.3260, 56.83984
849.4590, 9.332031
850.5930, 63.17188
851.7260, 15.29688
852.8590, 107.7886
853.9920, 44.30273
855.1250, 137.8291
856.2580, 1.641113
857.3910, 78.89307
858.5230, 61.46826
859.6550, 10.92725
860.7870, 56.70020
861.9190, 87.34180
863.0510, 50.99902
864.1820, 29.68555
865.3140, 47.42920
866.4450, 143.1943
867.5760, 138.9824
868.7070, 82.79102
869.8380, 184.6250
870.9680, 142.4771
872.0990, 89.35840
873.2290, 148.2764
874.3590, 144.2295
875.4890, 148.1865
876.6180, 177.1543
877.7480, 173.4902
878.8770, 178.3438
880.0070, 189.0854
881.1360, 185.0718
882.2650, 194.0649
883.3930, 221.0630
884.5220, 178.0640
885.6500, 140.0684
886.7790, 220.0762
887.9070, 118.0874
889.0350, 137.1016
890.1620, 134.1182
891.2900, 188.1377
892.4170, 227.1597
893.5450, 164.1855
894.6720, 258.2139
895.7990, 278.2451
896.9250, 191.2793
898.0520, 221.3154
899.1780, 258.3555
900.3050, 158.3984
901.4310, 135.4438
902.5570, 198.4912
903.6830, 256.5425
904.8080, 208.5962
905.9340, 181.6523
907.0590, 191.7114
908.1840, 254.7744
909.3090, 275.8389
910.4340, 247.9067
911.5580, 234.9775
912.6830, 237.0498
913.8070, 272.1260
914.9310, 204.2031
916.0550, 229.2837
917.1790, 252.3662
918.3030, 157.4512
919.4260, 230.5386
920.5490, 190.6279
921.6730, 276.7202
922.7960, 262.8145
923.9180, 228.9106
925.0410, 330.0093
926.1630, 321.1104
927.2860, 198.2134
928.4080, 214.3184
929.5300, 153.4248
930.6520, 215.5342
931.7730, 202.6455
932.8950, 226.7588
934.0160, 226.8740
935.1370, 236.9502
936.2580, 261.3477
937.3790, 251.4683
938.5000, 301.4536
939.6200, 238.5786
940.7410, 213.3960
941.8610, 185.5254
942.9810, 208.8560
944.1010, 215.0386
945.2200, 273.1748
946.3400, 292.3135
947.4590, 319.3516
948.5780, 313.4951
949.6970, 367.6411
950.8160, 291.7896
951.9350, 333.9404
953.0530, 342.0938
954.1720, 392.2490
955.2900, 354.4067
956.4080, 327.5674
957.5260, 431.7295
958.6430, 382.8945
959.7610, 357.7407
960.8780, 369.6997
961.9960, 381.8711
963.1130, 402.0444
964.2290, 372.0518
965.3460, 490.4385
966.4630, 444.7251
967.5790, 422.1841
968.6950, 492.3687
969.8110, 446.8188
970.9270, 499.1675
972.0430, 520.6260
973.1580, 533.8530
974.2740, 567.0869
975.3890, 516.1787
976.5040, 537.8315
977.6190, 567.2744
978.7340, 509.8516
979.8480, 658.2607
980.9630, 653.1743
982.0770, 670.2017
983.1910, 734.6733
984.3050, 715.0386
985.4190, 807.8379
986.5320, 697.4937
987.6460, 776.3047
988.7590, 790.4492
989.8720, 843.7759
990.9850, 939.3135
992.0980, 1027.815
993.2100, 1130.191
994.3230, 1257.432
995.4350, 1394.643
996.5470, 1541.947
997.6590, 1747.046
998.7710, 1826.887
999.8820, 2050.220
1000.994, 2288.815
1002.105, 2314.084
1003.216, 2211.286
1004.327, 2011.616
1005.438, 1796.618
1006.548, 1477.849
1007.659, 1149.746
1008.769, 983.9355
1009.879, 889.8516
1010.989, 765.0356
1012.099, 686.4048
1013.208, 661.5825
1014.318, 615.7783
1015.427, 560.0234
1016.536, 627.4541
1017.645, 608.8047
1018.754, 663.9658
1019.863, 665.1919
1020.971, 713.3457
1022.079, 703.4966
1023.188, 733.6440
1024.295, 799.7876
1025.403, 803.9277
1026.511, 986.0645
1027.618, 899.1973
1028.726, 1118.327
1029.833, 1151.452
1030.940, 1192.574
1032.047, 1290.736
1033.153, 1377.853
1034.260, 1572.005
1035.366, 1614.111
1036.472, 1809.213
1037.578, 1940.311
1038.684, 1987.542
1039.790, 2154.632
1040.895, 2114.849
1042.000, 2350.930
1043.106, 2421.100
1044.211, 2467.173
1045.315, 2481.242
1046.420, 2702.308
1047.525, 2802.367
1048.629, 2875.423
1049.733, 2900.476
1050.837, 2881.917
1051.941, 2813.187
1053.045, 2735.349
1054.148, 2649.443
1055.251, 2504.769
1056.355, 2455.906
1057.458, 2380.914
1058.561, 2313.216
1059.663, 2122.732
1060.766, 2053.737
1061.868, 1748.738
1062.970, 1737.733
1064.072, 1531.724
1065.174, 1371.710
1066.276, 1259.690
1067.377, 1233.666
1068.479, 1125.638
1069.580, 1014.608
1070.681, 928.5737
1071.782, 866.5444
1072.883, 663.5093
1073.983, 676.4800
1075.083, 691.4453
1076.184, 539.4219
1077.284, 464.4111
1078.384, 412.3950
1079.483, 393.3730
1080.583, 360.3516
1081.682, 433.3252
1082.782, 331.2925
1083.881, 352.6646
1084.979, 243.2124
1086.078, 305.1636
1087.177, 349.1094
1088.275, 291.0488
1089.373, 237.9839
1090.471, 208.9126
1091.569, 180.8369
1092.667, 181.7559
1093.765, 101.6763
1094.862, 97.59082
1095.959, 117.4995
1097.056, 113.4072
1098.153, 37.32129
1099.250, 90.22900
1100.347, 93.15186
1101.443, 8.931152
1102.539, 4.984863
1103.635, 55.10400
1104.731, 57.76416
1105.827, 3.374512
1106.923, 96.52881
1108.018, 8.250488
1109.113, 69.97998
1110.209, 8.262207
1111.303, 23.43604
1112.398, 45.87061
1113.493, 0.7832030
1114.587, 18.42334
1115.682, 31.05518
1116.776, 81.67871
1117.870, 56.67822
1118.963, 59.08008
1120.057, 16.52881
1121.150, 41.99854
1122.244, 12.51855
1123.337, 53.97021
1124.430, 27.56738
1125.523, 70.96338
1126.615, 70.45850
1127.708, 47.87451
1128.800, 0.2822270
1129.892, 59.32471
1130.984, 40.02246
1132.076, 12.36182
1133.168, 54.69238
1134.259, 103.0156
1135.350, 39.33301
1136.442, 14.35791
1137.532, 18.07080
1138.623, 12.80371
1139.714, 151.4443
1140.804, 2.688477
1141.895, 95.91846
1142.985, 27.14160
1144.075, 73.35742
1145.165, 19.56885
1146.254, 0.7788090
1147.344, 18.97803
1148.433, 27.16846
1149.522, 118.3516
1150.611, 53.52783
1151.700, 151.6982
1152.789, 87.87061
1153.877, 145.0381
1154.966, 113.1982
1156.054, 227.3535
1157.142, 206.5015
1158.230, 211.6440
1159.318, 193.7793
1160.405, 114.9092
1161.492, 104.0337
1162.580, 58.15234
1163.667, 58.26465
1164.753, 88.37012
1165.840, 98.46973
1166.927, 73.56250
1168.013, 101.6494
1169.099, 35.73096
1170.185, 128.8047
1171.271, 36.87305
1172.357, 103.9341
1173.442, 45.98877
1174.528, 130.0371
1175.613, 113.0791
1176.698, 98.11572
1177.783, 173.1455
1178.868, 258.1704
1179.952, 124.1885
1181.037, 281.2017
1182.121, 254.2085
1183.205, 168.2100
1184.289, 200.2056
1185.373, 163.1953
1186.456, 239.1792
1187.540, 195.1572
1188.623, 256.1304
1189.706, 340.0977
1190.789, 201.0591
1191.871, 268.0151
1192.954, 173.9653
1194.036, 205.9102
1195.119, 187.8501
1196.201, 187.7842
1197.283, 245.7124
1198.364, 168.6353
1199.446, 204.5532
1200.527, 145.4658
1201.609, 141.3726
1202.690, 186.2734
1203.771, 267.1699
1204.852, 146.0610
1205.932, 184.9463
1207.013, 112.8267
1208.093, 236.7012
1209.173, 150.5708
1210.253, 242.4355
1211.333, 168.2935
1212.412, 71.14697
1213.492, 167.9946
1214.571, 176.8369
1215.650, 221.6743
1216.729, 165.5068
1217.808, 254.3335
1218.886, 71.15527
1219.965, 238.9727
1221.043, 176.7842
1222.121, 215.5908
1223.199, 148.3926
1224.277, 169.1885
1225.355, 256.9800
1226.432, 272.7661
1227.510, 238.5469
1228.587, 306.2163
1229.664, 191.9873
1230.740, 230.7529
1231.817, 222.7959
1232.894, 265.3950
1233.970, 229.8794
1235.046, 233.5928
1236.122, 251.2964
1237.198, 147.1401
1238.274, 118.4194
1239.349, 160.9067
1240.424, 119.2578
1241.500, 156.1792
1242.575, 55.15088
1243.649, 141.2061
1244.724, 199.6514
1245.799, 148.1997
1246.873, 210.1821
1247.947, 70.43506
1249.021, 47.53076
1250.095, 170.2915
1251.169, 81.86621
1252.242, 93.17090
1253.316, 8.916016
1254.389, 92.41162
1255.462, 95.56152
1256.535, 68.23828
1257.607, 144.8203
1258.680, 159.6040
1259.752, 116.6450
1260.824, 186.1875
1261.896, 163.9165
1262.968, 284.5181
1264.040, 273.1841
1265.112, 193.7178
1266.183, 248.5762
1267.254, 218.3516
1268.325, 320.0513
1269.396, 296.1001
1270.467, 222.0298
1271.537, 342.6875
1272.608, 235.1553
1273.678, 423.3379
1274.748, 342.4194
1275.818, 371.0498
1276.888, 451.4409
1277.957, 478.0225
1279.027, 504.6758
1280.096, 576.4058
1281.165, 601.8926
1282.234, 652.8623
1283.303, 687.5142
1284.371, 721.1660
1285.440, 840.8169
1286.508, 934.4683
1287.576, 824.1455
1288.644, 962.8076
1289.712, 827.6846
1290.779, 861.3867
1291.847, 872.0039
1292.914, 697.6216
1293.981, 666.2847
1295.048, 684.9492
1296.115, 660.6133
1297.181, 516.2783
