##NAMES=Clinohumite
##RRUFFID=R040122
##IDEAL CHEMISTRY=Mg_9_(SiO_4_)_4_F_2_
##LOCALITY=Anzahamazonono,  Madagascar
##OWNER=RRUFF
##SOURCE=University of Arizona Mineral Museum
##DESCRIPTION=Orange-brown blebs embedded in calcite matrix
##STATUS=The identification of this mineral has been confirmed by X-ray diffraction and chemical analysis
##URL=rruff.info/R040122
##MEASURED CHEMISTRY=(Mg_0.96_Fe_0.02_Ti_0.01_Ca_0.01_)_9_(SiO_4_)_4_(F_0.59_(OH)_0.41_)_2_
##PIN_ID=S00005
##ORIENTATION=Laser parallel to c* (0 0 1). Fiducial mark perpendicular to laser is parallel to a [1 0 0]
128.840, 0.000
130.228, 5.480
131.615, 42.400
133.003, 50.705
134.390, 29.436
135.777, 2.924
137.164, 138.125
138.550, 113.970
139.937, 114.145
141.323, 113.978
142.709, 138.625
144.094, 156.189
145.480, 192.731
146.865, 171.286
148.250, 224.781
149.635, 235.619
151.019, 194.286
152.403, 224.117
153.788, 215.237
155.171, 139.636
156.555, 201.238
157.939, 137.871
159.322, 143.613
160.705, 99.515
162.088, 100.520
163.470, 70.547
164.853, 18.380
166.235, 3.751
167.617, 30.072
168.998, 10.140
170.380, 53.371
171.761, 5.612
173.142, 8.853
174.523, 47.086
175.904, 152.403
177.284, 168.246
178.664, 210.585
180.044, 398.552
181.424, 502.916
182.803, 463.999
184.183, 579.601
185.562, 584.703
186.940, 509.860
188.319, 479.255
189.698, 364.920
191.076, 362.782
192.454, 330.010
193.831, 321.291
195.209, 275.254
196.586, 223.648
197.963, 204.055
199.340, 192.057
200.717, 163.097
202.093, 181.148
203.470, 172.211
204.846, 225.224
206.221, 198.163
207.597, 261.035
208.972, 242.837
210.347, 245.554
211.722, 196.186
213.097, 194.771
214.472, 197.292
215.846, 227.747
217.220, 216.135
218.594, 123.446
219.967, 163.676
221.341, 77.833
222.714, 95.905
224.087, 71.885
225.460, 70.777
226.832, 50.576
228.204, 59.285
229.577, 90.902
230.948, 47.421
232.320, 28.850
233.692, 80.199
235.063, 37.471
236.434, 92.667
237.805, 113.788
239.175, 135.837
240.545, 126.813
241.916, 194.718
243.286, 129.550
244.655, 168.312
246.025, 118.000
247.394, 77.936
248.763, 48.380
250.132, 127.623
251.501, 59.544
252.869, 106.163
254.237, 54.218
255.605, 86.255
256.973, 88.058
258.340, 153.494
259.708, 129.032
261.075, 160.464
262.442, 209.879
263.808, 184.346
265.175, 276.509
266.541, 288.232
267.907, 271.284
269.273, 377.821
270.639, 312.063
272.004, 394.540
273.369, 377.843
274.734, 406.662
276.099, 452.151
277.463, 455.553
278.828, 492.936
280.192, 445.130
281.556, 519.080
282.919, 412.365
284.283, 461.595
285.646, 420.695
287.009, 463.771
288.372, 382.493
289.734, 407.945
291.097, 399.046
292.459, 402.123
293.821, 429.306
295.183, 417.863
296.544, 446.086
297.905, 451.792
299.266, 520.507
300.627, 547.077
301.988, 702.542
303.348, 822.085
304.709, 817.660
306.069, 863.636
307.428, 889.311
308.788, 755.345
310.147, 638.979
311.507, 632.104
312.865, 552.930
314.224, 628.146
315.583, 624.540
316.941, 705.599
318.299, 751.469
319.657, 746.643
321.015, 868.444
322.372, 818.211
323.729, 804.954
325.086, 879.658
326.443, 766.338
327.800, 718.002
329.156, 631.968
330.512, 738.556
331.868, 656.962
333.224, 606.537
334.579, 752.125
335.935, 632.628
337.290, 739.106
338.645, 698.619
339.999, 767.088
341.354, 791.527
342.708, 794.921
344.062, 785.301
345.416, 928.638
346.769, 1019.941
348.123, 1049.215
349.476, 1088.443
350.829, 1180.619
352.182, 1115.740
353.534, 1106.805
354.887, 1114.839
356.239, 1002.812
357.591, 831.723
358.942, 728.584
360.294, 645.608
361.645, 522.149
362.996, 534.851
364.347, 432.501
365.698, 421.089
367.048, 405.612
368.398, 398.067
369.748, 284.458
371.098, 273.780
372.448, 280.030
373.797, 349.208
375.146, 249.316
376.495, 322.353
377.844, 186.325
379.192, 134.224
380.540, 181.046
381.889, 189.792
383.236, 152.461
384.584, 155.863
385.932, 78.250
387.279, 137.443
388.626, 68.538
389.973, 114.453
391.319, 80.311
392.666, 5.204
394.012, 29.187
395.358, 21.769
396.704, 19.249
398.049, 41.018
399.394, 77.673
400.740, 127.370
402.084, 56.115
403.429, 120.026
404.774, 45.902
406.118, 9.071
407.462, 101.807
408.806, 11.633
410.150, 40.699
411.493, 50.404
412.836, 99.126
414.179, 95.745
415.522, 61.168
416.865, 71.538
418.207, 31.092
419.549, 59.628
420.891, 56.138
422.233, 33.865
423.575, 91.912
424.916, 177.539
426.257, 204.209
427.598, 235.142
428.939, 172.216
430.279, 210.998
431.619, 234.634
432.959, 172.264
434.299, 181.692
435.639, 173.201
436.978, 173.983
438.318, 164.887
439.657, 191.128
440.996, 187.175
442.334, 150.820
443.673, 222.273
445.011, 172.239
446.349, 189.636
447.687, 239.883
449.024, 188.018
450.361, 296.039
451.699, 213.951
453.036, 247.766
454.372, 284.935
455.709, 195.246
457.045, 270.114
458.381, 384.291
459.717, 378.400
461.053, 372.067
462.388, 427.919
463.724, 401.955
465.059, 387.302
466.394, 523.541
467.728, 588.674
469.063, 496.192
470.397, 585.030
471.731, 454.265
473.065, 508.568
474.398, 649.191
475.732, 600.823
477.065, 675.251
478.398, 734.906
479.731, 638.270
481.063, 817.516
482.396, 871.193
483.728, 878.600
485.060, 1072.943
486.391, 1069.481
487.723, 1007.982
489.054, 1268.843
490.385, 1266.995
491.716, 1277.551
493.047, 1439.002
494.377, 1300.822
495.708, 1471.416
497.038, 1397.028
498.368, 1478.809
499.697, 1351.256
501.027, 1469.657
502.356, 1433.491
503.685, 1552.435
505.014, 1573.322
506.342, 1547.695
507.671, 1459.680
508.999, 1451.564
510.327, 1418.000
511.655, 1347.997
512.982, 1332.033
514.310, 1293.736
515.637, 1325.077
516.964, 1394.769
518.291, 1340.118
519.617, 1392.148
520.944, 1581.040
522.270, 1548.080
523.596, 1542.531
524.921, 1759.372
526.247, 1865.107
527.572, 1978.648
528.897, 2210.920
530.222, 2232.438
531.547, 2392.741
532.871, 2673.315
534.196, 2714.346
535.520, 2904.455
536.844, 2926.181
538.167, 3216.112
539.491, 3105.134
540.814, 3153.984
542.137, 3212.967
543.460, 3441.554
544.783, 3719.997
546.105, 3767.594
547.427, 3845.357
548.749, 3852.387
550.071, 3349.580
551.393, 2926.308
552.714, 2621.225
554.035, 2323.825
555.356, 2015.863
556.677, 1785.516
557.998, 1550.701
559.318, 1368.996
560.638, 1274.716
561.958, 1153.375
563.278, 1014.262
564.597, 913.237
565.917, 908.513
567.236, 895.494
568.555, 866.137
569.874, 720.270
571.192, 767.367
572.511, 695.721
573.829, 760.891
575.147, 692.619
576.464, 650.281
577.782, 625.354
579.099, 426.604
580.416, 557.662
581.733, 480.288
583.050, 589.326
584.366, 510.747
585.683, 452.124
586.999, 373.479
588.315, 394.410
589.630, 405.349
590.946, 376.231
592.261, 396.699
593.576, 427.052
594.891, 417.216
596.206, 437.227
597.520, 567.043
598.834, 586.820
600.148, 656.430
601.462, 675.740
602.776, 765.200
604.089, 874.309
605.402, 953.349
606.715, 882.460
608.028, 891.214
609.341, 890.281
610.653, 878.864
611.965, 767.451
613.277, 706.051
614.589, 544.129
615.901, 442.375
617.212, 430.945
618.523, 509.340
619.834, 437.558
621.145, 365.857
622.456, 263.895
623.766, 261.711
625.076, 259.939
626.386, 168.286
627.696, 276.085
629.006, 174.108
630.315, 151.438
631.624, 98.846
632.933, 86.681
634.242, 94.150
635.551, 21.768
636.859, 79.385
638.167, 26.515
639.475, 43.835
640.783, 19.009
642.090, 47.959
643.398, 25.236
644.705, 58.620
646.012, 50.542
647.318, 89.188
648.625, 50.031
649.931, 114.255
651.237, 58.717
652.543, 73.385
653.849, 28.268
655.155, 33.341
656.460, 1.394
657.765, 64.045
659.070, 9.692
660.375, 125.518
661.679, 31.581
662.984, 57.834
664.288, 54.288
665.592, 9.058
666.895, 72.237
668.199, 25.266
669.502, 18.136
670.805, 79.153
672.108, 33.347
673.411, 75.691
674.713, 2.111
676.016, 119.917
677.318, 48.199
678.620, 83.499
679.921, 14.949
681.223, 46.434
682.524, 37.671
683.825, 158.760
685.126, 39.755
686.427, 50.606
687.727, 211.314
689.028, 121.894
690.328, 82.335
691.628, 122.640
692.927, 2.812
694.227, 72.835
695.526, 152.728
696.825, 202.492
698.124, 142.129
699.423, 161.640
700.721, 161.022
702.020, 220.281
703.318, 229.421
704.616, 258.437
705.913, 267.334
707.211, 276.112
708.508, 454.774
709.805, 473.329
711.102, 561.785
712.399, 370.147
713.695, 538.420
714.992, 606.602
716.288, 434.711
717.584, 822.752
718.879, 660.717
720.175, 938.625
721.470, 716.454
722.765, 974.198
724.060, 1091.849
725.355, 1139.354
726.649, 1416.162
727.944, 1513.074
729.238, 1779.594
730.532, 2006.290
731.825, 2122.614
733.119, 2538.715
734.412, 2664.632
735.705, 2859.764
736.998, 3345.684
738.291, 3340.734
739.584, 3386.934
740.876, 3912.791
742.168, 4008.473
743.460, 4373.352
744.752, 4548.307
746.043, 4693.917
747.334, 5168.775
748.626, 5653.791
749.916, 5838.761
751.207, 6412.887
752.498, 6467.005
753.788, 6921.830
755.078, 6756.183
756.368, 6901.037
757.658, 6505.604
758.947, 5880.459
760.237, 5715.689
761.526, 5270.873
762.815, 4825.973
764.104, 4150.994
765.392, 4075.931
766.680, 3470.775
767.969, 3245.076
769.257, 3269.038
770.544, 3023.131
771.832, 3055.834
773.119, 3499.289
774.406, 3382.154
775.693, 3995.104
776.980, 4427.172
778.267, 4938.857
779.553, 5600.496
780.839, 6052.805
782.125, 6704.283
783.411, 7277.832
784.697, 7271.959
785.982, 7205.896
787.267, 7107.008
788.552, 6528.539
789.837, 6379.211
791.122, 5920.061
792.406, 5751.727
793.690, 5164.381
794.974, 4763.301
796.258, 4509.262
797.542, 4057.959
798.825, 3743.836
800.108, 3927.268
801.391, 3740.887
802.674, 4132.029
803.957, 4265.586
805.239, 4835.062
806.522, 5017.984
807.804, 5039.957
809.085, 5304.723
810.367, 5079.145
811.649, 5125.713
812.930, 5368.143
814.211, 5496.406
815.492, 5602.510
816.772, 6116.916
818.053, 6299.654
819.333, 6652.598
820.613, 7739.455
821.893, 9067.582
823.173, 11194.965
824.452, 13932.137
825.732, 17473.463
827.011, 20810.967
828.290, 24148.943
829.568, 24635.078
830.847, 23413.348
832.125, 21457.512
833.403, 18315.412
834.681, 16031.074
835.959, 13749.439
837.236, 12417.014
838.514, 12175.406
839.791, 12533.422
841.068, 12930.869
842.345, 14059.957
843.621, 14817.969
844.898, 14816.334
846.174, 14354.553
847.450, 13241.693
848.726, 11910.203
850.001, 10378.547
851.277, 9316.984
852.552, 8675.480
853.827, 8324.029
855.102, 8202.383
856.376, 8911.377
857.651, 9369.633
858.925, 9908.402
860.199, 9816.852
861.473, 8765.770
862.746, 7794.787
864.020, 7123.770
865.293, 5703.480
866.566, 5004.793
867.839, 4603.959
869.112, 3874.467
870.384, 3553.818
871.656, 3024.186
872.928, 2644.830
874.200, 2284.795
875.472, 1955.279
876.744, 1575.881
878.015, 1255.762
879.286, 1196.854
880.557, 816.850
881.828, 807.197
883.098, 567.020
884.369, 827.822
885.639, 547.812
886.909, 609.848
888.178, 309.459
889.448, 230.479
890.717, 410.021
891.987, 150.412
893.256, 130.195
894.524, 89.637
895.793, 179.967
897.061, 159.340
898.330, 1.033
899.598, 118.367
900.865, 77.633
902.133, 96.895
903.401, 267.146
904.668, 266.510
905.935, 205.900
907.202, 335.027
908.468, 246.250
909.735, 335.318
911.001, 354.529
912.267, 594.098
913.533, 533.072
914.799, 552.568
916.064, 481.881
917.330, 474.559
918.595, 330.664
919.860, 340.012
921.124, 368.805
922.389, 88.301
923.653, 517.320
924.918, 86.756
926.182, 285.721
927.445, 174.805
928.709, 404.006
929.972, 262.621
931.236, 251.654
932.499, 70.352
933.761, 129.129
935.024, 42.010
936.286, 73.373
937.549, 75.010
938.811, 3.754
940.073, 27.773
941.334, 60.480
942.596, 50.459
943.857, 42.262
945.118, 94.100
946.379, 234.016
947.640, 242.223
948.900, 400.369
950.161, 139.285
951.421, 207.387
952.681, 325.982
953.940, 435.158
955.200, 614.674
956.459, 872.844
957.719, 1011.000
958.978, 1492.418
960.236, 1721.139
961.495, 2572.121
962.753, 3171.068
964.012, 4179.576
965.270, 4873.199
966.527, 5301.857
967.785, 5081.031
969.043, 4140.279
970.300, 3568.979
971.557, 2588.639
972.814, 2178.191
974.071, 1567.176
975.327, 1159.541
976.583, 958.143
977.840, 768.531
979.095, 547.318
980.351, 286.666
981.607, 535.748
982.862, 45.176
984.117, 454.803
985.372, 184.320
986.627, 63.699
987.882, 225.340
989.136, 195.672
990.390, 113.850
991.644, 321.824
992.898, 110.445
994.152, 376.385
995.405, 104.293
996.659, 213.453
997.912, 111.371
999.165, 29.770
1000.417, 188.682
1001.670, 207.609
1002.922, 126.871
1004.174, 125.154
1005.426, 165.375
1006.678, 64.104
1007.930, 242.465
1009.181, 141.045
1010.432, 219.682
1011.683, 108.479
1012.934, 257.215
1014.185, 366.807
1015.435, 185.404
1016.685, 46.133
1017.935, 332.320
1019.185, 20.992
1020.435, 119.619
1021.684, 201.969
1022.934, 30.105
1024.183, 542.812
1025.432, 122.922
1026.680, 121.199
1027.929, 374.400
1029.177, 2.688
1030.425, 250.473
1031.673, 159.268
1032.921, 277.562
1034.169, 35.033
1035.416, 176.451
1036.663, 28.799
1037.911, 379.391
1039.157, 3.301
1040.404, 413.180
1041.650, 91.553
1042.897, 227.809
1044.143, 384.961
1045.389, 82.330
1046.634, 488.457
1047.880, 235.396
1049.125, 282.023
1050.371, 457.818
1051.615, 390.680
1052.860, 66.328
1054.105, 272.959
1055.349, 259.258
1056.593, 505.453
1057.837, 16.314
1059.081, 410.156
1060.325, 276.523
1061.568, 184.588
1062.812, 380.928
1064.055, 187.273
1065.298, 223.754
1066.540, 309.947
1067.783, 76.787
1069.025, 192.910
1070.267, 318.988
1071.509, 145.037
1072.751, 250.156
1073.993, 146.117
1075.234, 251.166
1076.475, 217.012
1077.716, 182.373
1078.957, 318.234
1080.198, 213.938
1081.438, 289.561
1082.679, 264.395
1083.919, 239.436
1085.159, 282.861
1086.398, 445.072
1087.638, 227.182
1088.877, 291.570
1090.116, 375.303
1091.355, 139.865
1092.594, 512.791
1093.833, 475.959
1095.071, 347.035
1096.309, 312.178
1097.547, 327.318
1098.785, 142.557
1100.023, 337.186
1101.260, 222.062
1102.498, 87.168
1103.735, 12.221
1104.972, 337.355
1106.208, 502.309
1107.445, 32.785
1108.681, 222.320
1109.918, 22.887
1111.154, 171.832
1112.389, 276.504
1113.625, 68.879
1114.860, 245.648
1116.096, 130.121
1117.331, 115.098
1118.566, 249.473
1119.800, 23.789
1121.035, 48.051
1122.269, 182.262
1123.503, 43.590
1124.737, 270.477
1125.971, 5.508
1127.205, 228.434
1128.438, 92.324
1129.671, 156.156
1130.904, 69.926
1132.137, 22.703
1133.370, 46.348
1134.602, 79.574
1135.834, 27.750
1137.066, 165.512
1138.298, 9.449
1139.530, 372.113
1140.762, 215.375
1141.993, 101.770
1143.224, 501.496
1144.455, 75.051
1145.686, 367.754
1146.917, 249.977
1148.147, 122.566
1149.377, 114.984
1150.607, 30.324
1151.837, 260.074
1153.067, 7.973
1154.296, 145.230
1155.526, 227.887
1156.755, 171.172
1157.984, 154.160
1159.213, 111.223
1160.441, 121.484
1161.670, 3.570
1162.898, 145.602
1164.126, 205.609
1165.354, 194.676
1166.581, 136.496
1167.809, 157.840
1169.036, 30.910
1170.263, 261.438
1171.490, 36.715
1172.717, 4.660
1173.943, 207.004
1175.170, 39.578
1176.396, 211.496
1177.622, 322.766
1178.848, 73.707
1180.073, 184.906
1181.299, 398.910
1182.524, 138.625
1183.749, 311.930
1184.974, 172.836
1186.199, 343.480
1187.423, 534.113
1188.648, 106.176
1189.872, 416.441
1191.096, 178.582
1192.320, 79.715
1193.543, 639.188
1194.767, 242.031
1195.990, 143.645
1197.213, 484.703
1198.436, 54.488
1199.659, 515.887
1200.881, 398.008
1202.104, 537.816
1203.326, 427.520
1204.548, 71.621
1205.770, 389.332
1206.991, 529.848
1208.213, 84.922
1209.434, 474.043
1210.655, 463.672
1211.876, 423.828
1213.096, 872.949
1214.317, 326.152
1215.537, 564.555
1216.757, 813.391
1217.977, 634.434
1219.197, 662.957
1220.417, 781.871
1221.636, 523.102
1222.855, 961.918
1224.074, 764.086
1225.293, 553.957
1226.512, 1243.504
1227.731, 593.309
1228.949, 732.512
1230.167, 741.133
1231.385, 780.906
1232.603, 771.996
1233.820, 718.785
1235.038, 760.691
1236.255, 879.148
1237.472, 1038.414
1238.689, 979.980
1239.906, 914.637
1241.122, 893.621
1242.338, 772.016
1243.555, 700.109
1244.771, 758.590
1245.986, 935.781
1247.202, 663.715
1248.417, 811.953
1249.633, 1188.609
1250.848, 494.887
1252.063, 1142.348
1253.277, 799.766
1254.492, 465.367
1255.706, 1192.094
1256.920, 826.484
1258.134, 692.848
1259.348, 1009.551
1260.562, 741.082
1261.775, 967.484
1262.988, 393.336
1264.201, 781.551
1265.414, 967.664
1266.627, 542.762
1267.839, 739.836
1269.052, 1195.410
1270.264, 657.496
1271.476, 813.594
1272.688, 747.488
1273.899, 663.535
1275.111, 758.680
1276.322, 793.406
1277.533, 732.082
1278.744, 702.090
1279.955, 716.000
1281.165, 644.066
1282.376, 785.645
1283.586, 379.766
1284.796, 853.508
1286.006, 898.371
1287.215, 453.094
1288.425, 480.395
1289.634, 224.973
1290.843, 678.711
1292.052, 893.051
1293.261, 336.750
1294.469, 530.516
1295.678, 413.406
1296.886, 475.828
1298.094, 529.516
1299.302, 240.707
1300.509, 253.441
1301.717, 265.109
1302.924, 218.766
1304.131, 365.340
1305.338, 147.121
1306.545, 178.805
1307.752, 849.656
1308.958, 208.844
1310.164, 712.617
1311.370, 564.070
1312.576, 85.031
1313.782, 455.414
1314.987, 243.027
1316.193, 183.480
1317.398, 669.047
1318.603, 136.734
1319.807, 124.145
1321.012, 599.738
1322.216, 165.656
1323.421, 460.297
1324.625, 295.805
1325.829, 128.895
1327.032, 707.664
1328.236, 62.902
1329.439, 76.832
1330.642, 712.605
1331.845, 177.816
1333.048, 166.453
1334.251, 342.535
1335.453, 116.680
1336.656, 322.508
1337.858, 486.633
1339.060, 82.277
1340.261, 157.418
1341.463, 273.246
1342.664, 348.988
1343.866, 434.656
1345.067, 60.230
1346.267, 735.598
1347.468, 560.871
1348.669, 26.066
1349.869, 581.176
1351.069, 336.172
1352.269, 1.082
1353.469, 865.906
1354.668, 550.652
1355.868, 245.320
1357.067, 1019.914
1358.266, 44.266
1359.465, 598.734
1360.664, 612.797
1361.862, 167.191
1363.061, 531.562
1364.259, 525.113
1365.457, 89.383
1366.655, 833.609
1367.852, 57.816
1369.050, 87.992
1370.247, 376.164
1371.444, 220.305
1372.641, 404.438
1373.838, 508.531
1375.035, 221.645
1376.231, 525.211
1377.427, 377.023
1378.623, 61.148
1379.819, 803.957
1381.015, 366.984
1382.211, 599.102
1383.406, 1089.418
1384.601, 400.113
1385.796, 1038.289
1386.991, 818.223
1388.185, 411.855
1389.380, 834.660
1390.574, 713.234
1391.768, 283.391
1392.962, 1091.223
1394.156, 591.219
1395.350, 575.203
1396.543, 951.781
1397.736, 138.629
1398.929, 744.301
1400.122, 640.371
1401.315, 530.336
1402.507, 592.172
1403.700, 459.621
1404.892, 472.398
1406.084, 1013.113
1407.276, 53.012
1408.467, 657.047
1409.659, 706.566
1410.850, 82.820
1412.041, 571.430
1413.232, 575.004
1414.423, 323.059
1415.614, 682.547
1416.804, 164.391
1417.994, 213.961
1419.184, 737.238
1420.374, 227.246
1421.564, 396.734
1422.753, 617.340
1423.943, 20.371
1425.132, 839.457
1426.321, 550.168
1427.510, 242.266
1428.698, 440.770
1429.887, 162.863
1431.075, 148.484
1432.263, 930.098
1433.451, 171.270
1434.639, 602.113
1435.827, 529.617
1437.014, 119.523
1438.201, 438.047
1439.388, 334.633
1440.575, 158.586
1441.762, 1084.273
1442.949, 210.242
1444.135, 149.875
1445.321, 1067.102
1446.507, 38.777
1447.693, 306.105
1448.879, 705.551
1450.064, 168.918
1451.250, 514.191
1452.435, 460.918
1453.620, 158.934
1454.805, 685.652
1455.989, 344.828
1457.174, 2.516
1458.358, 697.535
1459.542, 141.445
1460.726, 446.168
1461.910, 529.418
1463.093, 0.000
##END=



