##NAMES=Clinoptilolite-Ca
##RRUFFID=R060662
##IDEAL CHEMISTRY=Ca_3_(Si_30_Al_6_)O_72_&#183;20H_2_O
##LOCALITY=Succor Creek, Malheur County, Oregon, USA
##OWNER=RRUFF
##SOURCE=Michael Scott
##DESCRIPTION=Group of colorless platy prismatic crystals
##STATUS=The identification of this mineral has been confirmed by X-ray diffraction and chemical analysis
##URL=rruff.info/R060662
##MEASURED CHEMISTRY=(Ca_1.02_Na_0.97_K_0.59_)_Σ=2.58_(Si_14.40_Al_3.60_)_Σ=18_O_36_·10.96H_2_O
##PIN_ID=M00221
##ORIENTATION=Laser parallel to b* (0 1 0). Fiducial mark perpendicular to laser is parallel to c [0 0 1]
221.0220, 0.0000000E+00
222.2400, 23.64453
223.4590, 96.16602
224.6770, 21.70898
225.8950, 254.7520
227.1120, 96.41016
228.3300, 230.0996
229.5480, 109.2715
230.7650, 560.7480
231.9820, 333.6309
233.1990, 579.2539
234.4160, 704.2266
235.6330, 836.0918
236.8490, 1065.441
238.0660, 1009.957
239.2820, 1353.379
240.4980, 1366.490
241.7140, 1563.102
242.9300, 1620.062
244.1460, 1587.270
245.3610, 1919.998
246.5770, 1909.369
247.7920, 2147.707
249.0070, 2311.818
250.2220, 2260.650
251.4370, 2276.154
252.6510, 2508.287
253.8660, 2400.008
255.0800, 2789.285
256.2940, 2414.082
257.5080, 3137.363
258.7220, 3159.584
259.9360, 2949.291
261.1490, 3484.693
262.3630, 2527.553
263.5760, 2326.783
264.7890, 2164.383
266.0020, 2171.361
267.2150, 2414.180
268.4270, 2107.883
269.6400, 2092.150
270.8520, 1829.430
272.0640, 2379.227
273.2760, 2488.727
274.4880, 2269.045
275.7000, 2064.111
276.9120, 1968.445
278.1230, 1834.027
279.3340, 1691.842
280.5450, 1536.875
281.7560, 1350.109
282.9670, 1391.533
284.1780, 1186.135
285.3880, 1159.900
286.5980, 1087.820
287.8090, 902.8828
289.0190, 864.0859
290.2290, 609.4102
291.4380, 620.8555
292.6480, 668.4062
293.8570, 392.0293
295.0670, 419.5938
296.2760, 536.0957
297.4850, 569.6074
298.6930, 582.1973
299.9020, 445.8887
301.1110, 643.8145
302.3190, 727.9141
303.5270, 569.2051
304.7350, 592.8984
305.9430, 416.8652
307.1510, 518.0156
308.3580, 591.5898
309.5660, 267.4473
310.7730, 449.6348
311.9800, 396.9746
313.1870, 18.61523
314.3940, 66.92773
315.6010, 52.54688
316.8070, 181.7109
318.0130, 93.89062
319.2200, 82.00781
320.4260, 9.060547
321.6310, 27.06250
322.8370, 96.97852
324.0430, 36.14062
325.2480, 76.26758
326.4540, 43.40820
327.6590, 23.44727
328.8640, 191.7090
330.0680, 273.8633
331.2730, 136.0117
332.4780, 350.1523
333.6820, 545.2832
334.8860, 277.4023
336.0900, 349.5137
337.2940, 371.6113
338.4980, 449.6934
339.7010, 703.7578
340.9050, 519.8086
342.1080, 1001.795
343.3110, 452.7422
344.5140, 467.6641
345.7170, 638.5547
346.9200, 473.4277
348.1220, 623.2754
349.3240, 914.1016
350.5270, 728.9023
351.7290, 985.6758
352.9310, 948.4258
354.1320, 886.1445
355.3340, 857.8340
356.5350, 971.0371
357.7370, 1065.127
358.9380, 1229.725
360.1390, 1456.287
361.3400, 1548.816
362.5400, 1710.518
363.7410, 1815.766
364.9410, 2016.184
366.1410, 2036.082
367.3410, 2297.352
368.5410, 2441.594
369.7410, 2675.637
370.9400, 2861.393
372.1400, 3528.537
373.3390, 3536.346
374.5380, 4246.367
375.7370, 3881.377
376.9360, 4226.084
378.1350, 4514.691
379.3330, 4778.125
380.5310, 5202.008
381.7300, 5707.688
382.9280, 5913.404
384.1260, 6322.125
385.3230, 6989.977
386.5210, 7367.408
387.7180, 8103.498
388.9160, 8711.170
390.1130, 9489.629
391.3100, 10305.27
392.5060, 10930.13
393.7030, 11782.00
394.9000, 12580.48
396.0960, 13432.16
397.2920, 14419.81
398.4880, 15227.66
399.6840, 15937.97
400.8800, 16775.99
402.0750, 17236.27
403.2710, 17512.30
404.4660, 17675.60
405.6610, 17566.67
406.8560, 17297.34
408.0510, 16847.19
409.2450, 16226.62
410.4400, 15483.34
411.6340, 14742.17
412.8280, 13899.14
414.0220, 13045.38
415.2160, 12190.99
416.4100, 11054.06
417.6030, 10424.10
418.7970, 9481.523
419.9900, 8816.641
421.1830, 8043.150
422.3760, 7248.094
423.5690, 6683.006
424.7610, 5876.973
425.9540, 5297.219
427.1460, 4757.041
428.3380, 4175.578
429.5300, 3706.602
430.7220, 3247.293
431.9140, 2812.080
433.1050, 2591.164
434.2970, 2443.621
435.4880, 2064.047
436.6790, 1668.998
437.8700, 1640.920
439.0610, 1424.307
440.2510, 1484.748
441.4420, 1066.195
442.6320, 1116.520
443.8220, 1306.814
445.0120, 834.0840
446.2020, 917.3242
447.3910, 940.5371
448.5810, 862.7207
449.7700, 832.8691
450.9600, 1140.984
452.1490, 1016.062
453.3370, 1218.107
454.5260, 1271.109
455.7150, 1441.070
456.9030, 1687.844
458.0910, 1918.723
459.2800, 2400.559
460.4670, 2689.830
461.6550, 3086.275
462.8430, 3164.920
464.0300, 3674.506
465.2180, 4176.891
466.4050, 4656.068
467.5920, 5284.582
468.7790, 5921.047
469.9650, 6583.104
471.1520, 7316.637
472.3380, 8104.951
473.5250, 8982.219
474.7110, 9938.436
475.8970, 10769.60
477.0820, 11666.72
478.2680, 12524.78
479.4540, 12711.79
480.6390, 13514.75
481.8240, 13617.66
483.0090, 13197.51
484.1940, 12416.31
485.3780, 11834.06
486.5630, 10712.75
487.7470, 10000.39
488.9320, 8944.979
490.1160, 8024.572
491.3000, 6657.986
492.4830, 6156.410
493.6670, 5104.777
494.8500, 4175.090
496.0340, 3616.346
497.2170, 3364.547
498.4000, 2647.689
499.5820, 2235.779
500.7650, 1933.812
501.9480, 1616.785
503.1300, 1359.213
504.3120, 1273.562
505.4940, 973.3652
506.6760, 835.1094
507.8580, 768.7969
509.0390, 543.4414
510.2210, 582.0508
511.4020, 275.6211
512.5830, 201.1543
513.7640, 185.6406
514.9450, 210.0742
516.1250, 59.45508
517.3060, 28.22656
518.4860, 90.00000
519.6660, 24.16016
520.8460, 27.74805
522.0260, 163.7578
523.2060, 61.35938
524.3850, 72.58398
525.5650, 13.35547
526.7440, 92.05859
527.9230, 130.2422
529.1020, 185.8105
530.2810, 33.16406
531.4590, 11.46680
532.6380, 68.68555
533.8160, 140.7520
534.9940, 91.14648
536.1720, 305.8594
537.3500, 32.43164
538.5270, 208.2734
539.7050, 192.7637
540.8820, 112.3652
542.0590, 53.36328
543.2360, 46.48242
544.4130, 138.1543
545.5900, 56.99609
546.7660, 16.54297
547.9430, 103.2266
549.1190, 198.9512
550.2950, 3.253906
551.4710, 40.82422
552.6470, 74.86719
553.8220, 229.9570
554.9980, 20.87109
556.1730, 285.6133
557.3480, 229.1270
558.5230, 87.79688
559.6980, 201.3770
560.8730, 248.7383
562.0470, 79.66797
563.2220, 66.73828
564.3960, 281.6230
565.5700, 172.9219
566.7440, 420.0996
567.9170, 527.2227
569.0910, 355.8496
570.2640, 481.5801
571.4380, 320.6992
572.6110, 533.0762
573.7840, 459.0371
574.9570, 370.9707
576.1290, 666.3008
577.3020, 485.2852
578.4740, 498.6992
579.6460, 795.2070
580.8180, 604.6328
581.9900, 598.5898
583.1620, 725.9258
584.3330, 739.0977
585.5040, 889.1875
586.6760, 948.1934
587.8470, 880.1133
589.0180, 998.9512
590.1880, 1094.705
591.3590, 1039.373
592.5290, 1043.957
593.7000, 1294.455
594.8700, 1385.871
596.0400, 1384.201
597.2090, 1608.445
598.3790, 1559.605
599.5490, 1985.682
600.7180, 1992.674
601.8870, 2157.594
603.0560, 2327.438
604.2250, 2439.199
605.3940, 2564.881
606.5620, 2795.477
607.7300, 3047.992
608.8990, 3233.424
610.0670, 3306.779
611.2350, 3430.053
612.4020, 3645.240
613.5700, 3931.354
614.7370, 4125.383
615.9050, 3936.336
617.0720, 4193.203
618.2390, 3889.984
619.4060, 3854.684
620.5720, 3701.295
621.7390, 3695.822
622.9050, 3546.266
624.0710, 3433.623
625.2370, 3287.898
626.4030, 2969.086
627.5690, 2739.188
628.7340, 2798.207
629.9000, 2260.143
631.0650, 2285.000
632.2300, 1952.775
633.3950, 1948.465
634.5600, 1857.072
635.7240, 1712.617
636.8890, 1480.080
638.0530, 1528.461
639.2170, 1471.754
640.3810, 1309.967
641.5450, 1450.092
642.7080, 1431.146
643.8720, 1504.115
645.0350, 1502.590
646.1980, 1434.803
647.3610, 1392.523
648.5240, 1313.158
649.6870, 1095.748
650.8490, 1045.254
652.0120, 1020.369
653.1740, 945.0801
654.3360, 1107.648
655.4980, 1044.217
656.6600, 835.7656
657.8210, 907.9316
658.9830, 688.5371
660.1440, 854.3398
661.3050, 740.0508
662.4660, 504.0527
663.6270, 459.9668
664.7870, 479.8789
665.9480, 394.8164
667.1080, 287.6445
668.2680, 303.8965
669.4280, 241.4883
670.5880, 348.4863
671.7480, 264.6895
672.9070, 215.6914
674.0670, 286.4473
675.2260, 193.1582
676.3850, 91.23047
677.5440, 116.2812
678.7030, 6.142578
679.8610, 150.6055
681.0200, 19.63281
682.1780, 160.5586
683.3360, 22.57031
684.4940, 25.48438
685.6520, 32.18555
686.8090, 145.0586
687.9670, 64.72852
689.1240, 43.79297
690.2810, 35.53906
691.4380, 45.65625
692.5950, 44.01367
693.7520, 95.52930
694.9080, 148.4746
696.0650, 91.03125
697.2210, 50.97461
698.3770, 131.9531
699.5330, 34.58398
700.6880, 51.08789
701.8440, 141.2910
702.9990, 80.97852
704.1550, 57.61914
705.3100, 105.1191
706.4650, 3.259766
707.6190, 249.7285
708.7740, 27.41016
709.9290, 357.5137
711.0830, 233.8672
712.2370, 309.0527
713.3910, 35.86523
714.5450, 182.2109
715.6980, 228.5059
716.8520, 19.80469
718.0050, 346.8105
719.1580, 293.8789
720.3110, 159.8184
721.4640, 260.6680
722.6170, 403.5625
723.7700, 332.4043
724.9220, 444.1914
726.0740, 472.9258
727.2260, 421.6074
728.3780, 541.2363
729.5300, 313.8125
730.6810, 328.3379
731.8330, 414.8105
732.9840, 481.2344
734.1350, 548.6035
735.2860, 420.9258
736.4370, 507.1934
737.5880, 463.4160
738.7380, 624.5898
739.8880, 560.7109
741.0390, 761.7871
742.1890, 693.2949
743.3380, 573.7930
744.4880, 641.7266
745.6380, 582.6113
746.7870, 642.4512
747.9360, 630.3496
749.0850, 610.0957
750.2340, 732.8008
751.3830, 758.8633
752.5310, 802.3066
753.6800, 888.2500
754.8280, 898.3164
755.9760, 927.7988
757.1240, 985.2422
758.2720, 805.6406
759.4190, 1211.000
760.5670, 1286.318
761.7140, 1022.594
762.8610, 1166.830
764.0080, 1235.025
765.1550, 1363.180
766.3020, 1421.299
767.4480, 1532.377
768.5950, 1715.441
769.7410, 1692.445
770.8870, 1879.410
772.0330, 1902.342
773.1780, 2138.824
774.3240, 2098.684
775.4690, 2365.504
776.6140, 2390.291
777.7590, 2444.043
778.9040, 2711.760
780.0490, 2855.424
781.1940, 2701.074
782.3380, 3046.482
783.4820, 3061.438
784.6260, 3352.830
785.7700, 3371.354
786.9140, 3231.252
788.0580, 3501.713
789.2010, 3653.760
790.3450, 3698.949
791.4880, 3490.232
792.6310, 3559.578
793.7730, 3423.898
794.9160, 3546.197
796.0590, 3441.689
797.2010, 3564.258
798.3430, 3406.289
799.4850, 3354.848
800.6270, 3088.875
801.7690, 3047.664
802.9100, 2887.178
804.0520, 3098.951
805.1930, 2753.824
806.3340, 2524.949
807.4750, 2612.705
808.6160, 2837.125
809.7560, 2539.160
810.8970, 2734.605
812.0370, 2593.951
813.1770, 2215.484
814.3170, 2246.699
815.4570, 2441.518
816.5960, 2270.994
817.7360, 2258.873
818.8750, 2278.289
820.0140, 2329.215
821.1530, 2149.568
822.2920, 2106.502
823.4310, 1825.799
824.5690, 1674.672
825.7070, 1607.496
826.8460, 1207.648
827.9840, 1246.428
829.1220, 1108.633
830.2590, 1023.691
831.3970, 934.8340
832.5340, 964.0430
833.6710, 788.3926
834.8080, 635.4961
835.9450, 788.5938
837.0820, 625.8203
838.2190, 715.3906
839.3550, 734.7227
840.4910, 519.1426
841.6270, 658.0605
842.7630, 830.0059
843.8990, 777.9277
845.0350, 504.2617
846.1700, 862.4082
847.3060, 953.0840
848.4410, 915.4180
849.5760, 1188.090
850.7100, 1161.707
851.8450, 1282.848
852.9800, 1303.250
854.1140, 1629.148
855.2480, 1500.871
856.3820, 1456.602
857.5160, 1661.721
858.6500, 1509.389
859.7830, 1576.139
860.9170, 1685.900
862.0500, 1422.666
863.1830, 1328.443
864.3160, 1202.230
865.4480, 1020.027
866.5810, 1041.834
867.7130, 748.6504
868.8460, 448.4785
869.9780, 661.3203
871.1100, 372.1699
872.2410, 493.0352
873.3730, 426.9121
874.5050, 309.8047
875.6360, 361.7090
876.7670, 340.6270
877.8980, 487.5625
879.0290, 369.5078
880.1590, 33.47266
881.2900, 333.4531
882.4200, 370.4492
883.5500, 44.53906
884.6800, 81.46875
885.8100, 44.49609
886.9400, 51.45898
888.0690, 30.76172
889.1990, 38.35938
890.3280, 62.70117
891.4570, 40.78320
892.5860, 30.88281
893.7140, 174.0039
894.8430, 213.1465
895.9710, 9.308594
897.1000, 223.4922
898.2280, 86.69922
899.3560, 215.9277
900.4830, 285.1777
901.6110, 70.45312
902.7380, 266.7500
903.8660, 47.92969
904.9930, 200.3984
906.1200, 208.7500
907.2460, 257.1270
908.3730, 121.4727
909.5000, 23.90820
910.6260, 51.31250
911.7520, 159.7441
912.8780, 208.2012
914.0040, 47.68750
915.1290, 49.79688
916.2550, 129.7266
917.3800, 36.27930
918.5050, 174.8594
919.6300, 10.47070
920.7550, 66.10938
921.8800, 180.2188
923.0040, 35.40625
924.1290, 276.9355
925.2530, 48.36328
926.3770, 113.7773
927.5010, 77.79492
928.6250, 423.4004
929.7480, 136.0391
930.8720, 161.2910
931.9950, 38.64844
933.1180, 33.98633
934.2410, 77.69727
935.3640, 57.58398
936.4860, 22.15039
937.6090, 49.07812
938.7310, 10.28516
939.8530, 103.5410
940.9750, 96.40820
942.0970, 16.32031
943.2180, 29.73047
944.3400, 183.2539
945.4610, 32.72266
946.5820, 72.33789
947.7030, 12.45312
948.8240, 26.62305
949.9450, 232.8555
951.0650, 416.1348
952.1860, 431.1797
953.3060, 435.9355
954.4260, 505.4570
955.5460, 295.0254
956.6650, 270.6699
957.7850, 84.38086
958.9040, 353.1680
960.0230, 206.0039
961.1420, 473.9258
962.2610, 320.9238
963.3800, 346.9961
964.4990, 97.14453
965.6170, 236.3516
966.7350, 431.6680
967.8530, 433.0508
968.9710, 180.5547
970.0890, 207.1348
971.2070, 234.7793
972.3240, 258.5098
973.4410, 258.3652
974.5580, 156.1270
975.6750, 266.0078
976.7920, 277.9473
977.9090, 319.9355
979.0250, 439.9883
980.1410, 264.0820
981.2580, 417.3086
982.3740, 300.4395
983.4890, 557.6816
984.6050, 603.9688
985.7200, 655.7422
986.8360, 381.7012
987.9510, 588.1348
989.0660, 428.6484
990.1810, 373.2051
991.2950, 666.8066
992.4100, 577.4766
993.5240, 730.1875
994.6390, 526.9453
995.7530, 795.7578
996.8660, 599.6309
997.9800, 1033.551
999.0940, 1185.516
1000.207, 1515.525
1001.320, 1520.582
1002.433, 1607.686
1003.546, 1322.832
1004.659, 1294.027
1005.772, 1132.266
1006.884, 1143.557
1007.996, 1050.891
1009.108, 801.2734
1010.220, 902.7031
1011.332, 1050.180
1012.444, 813.7031
1013.555, 944.2754
1014.666, 1135.895
1015.777, 1144.562
1016.888, 1016.277
1017.999, 1163.938
1019.110, 1411.746
1020.220, 1237.607
1021.331, 1259.115
1022.441, 1118.074
1023.551, 1248.340
1024.661, 1372.396
1025.770, 1287.502
1026.880, 1267.389
1027.989, 1510.307
1029.098, 1640.334
1030.207, 1663.539
1031.316, 1259.838
1032.425, 1407.514
1033.533, 1334.293
1034.642, 1252.070
1035.750, 1477.488
1036.858, 1136.141
1037.966, 1354.762
1039.073, 1351.133
1040.181, 1450.238
1041.288, 1327.066
1042.396, 1267.020
1043.503, 1435.012
1044.610, 1385.430
1045.716, 1269.453
1046.823, 1245.531
1047.929, 1541.656
1049.036, 1204.859
1050.142, 1297.090
1051.248, 1156.375
1052.353, 1307.715
1053.459, 993.1055
1054.564, 1356.551
1055.670, 1151.637
1056.775, 1238.188
1057.880, 1153.176
1058.985, 993.0469
1060.089, 1221.855
1061.194, 1164.621
1062.298, 1032.449
1063.402, 1063.324
1064.506, 1009.938
1065.610, 1107.754
1066.713, 992.7109
1067.817, 1154.812
1068.920, 1126.918
1070.023, 1157.133
1071.126, 1204.211
1072.229, 1059.816
1073.332, 1190.195
1074.435, 1296.633
1075.537, 1198.129
1076.639, 1276.855
1077.741, 1002.461
1078.843, 1525.910
1079.945, 1268.539
1081.046, 1558.602
1082.148, 1778.918
1083.249, 1832.805
1084.350, 2067.750
1085.451, 1970.492
1086.551, 1836.320
1087.652, 1782.430
1088.752, 1686.613
1089.853, 1641.004
1090.953, 1835.867
1092.053, 1707.766
1093.152, 1841.246
1094.252, 1935.688
1095.351, 1872.180
1096.451, 2009.727
1097.550, 2052.688
1098.649, 2260.402
1099.748, 2142.770
1100.846, 2130.648
1101.945, 2107.660
1103.043, 2505.027
1104.141, 2548.312
1105.239, 2730.293
1106.337, 2267.324
1107.434, 2775.406
1108.532, 2679.879
1109.629, 2546.062
1110.726, 2964.297
1111.823, 2807.137
1112.920, 2772.273
1114.017, 2911.676
1115.113, 2853.133
1116.210, 2985.637
1117.306, 2722.191
1118.402, 2863.797
1119.498, 2752.457
1120.593, 2431.004
1121.689, 2825.758
1122.784, 2455.562
1123.879, 2987.441
1124.974, 2755.348
1126.069, 2627.309
1127.164, 2489.410
1128.259, 2506.277
1129.353, 2455.281
1130.447, 2172.535
1131.541, 2507.738
1132.635, 2462.996
1133.729, 2541.297
1134.822, 2370.648
1135.916, 2343.047
1137.009, 2335.496
1138.102, 2242.477
1139.195, 2201.547
1140.288, 2209.141
1141.380, 2268.785
1142.473, 2240.461
1143.565, 2260.660
1144.657, 2222.016
1145.749, 2248.555
1146.841, 2190.746
1147.932, 2153.680
1149.024, 2033.664
1150.115, 2009.711
1151.206, 2017.824
1152.297, 2327.984
1153.388, 2382.211
1154.479, 2280.480
1155.569, 2328.809
1156.659, 2233.207
1157.750, 2355.652
1158.839, 2073.148
1159.929, 1879.695
1161.019, 2230.293
1162.108, 2209.934
1163.198, 1990.625
1164.287, 2013.363
1165.376, 1927.148
1166.465, 1946.980
1167.553, 1825.863
1168.642, 1894.793
1169.730, 1797.418
1170.818, 1778.809
1171.906, 1663.887
1172.994, 1661.012
1174.082, 1618.207
1175.170, 1696.449
1176.257, 1773.742
1177.344, 1548.074
1178.431, 1423.457
1179.518, 1268.887
1180.605, 1241.668
1181.691, 1150.605
1182.778, 1200.473
1183.864, 1073.094
1184.950, 919.7578
1186.036, 902.4688
1187.122, 1217.262
1188.207, 1070.102
1189.292, 1043.898
1190.378, 793.0391
1191.463, 698.0938
1192.548, 693.2031
1193.632, 345.3516
1194.717, 459.5469
1195.801, 510.8164
1196.886, 444.1328
1197.970, 512.5078
1199.054, 40.91797
1200.137, 417.3828
1201.221, 182.8945
1202.305, 176.4531
1203.388, 246.0625
1204.471, 162.7070
1205.554, 257.3984
1206.637, 55.12891
1207.719, 284.9102
1208.802, 18.26562
1209.884, 67.40625
1210.966, 53.53125
1212.048, 35.63672
1213.130, 21.28906
1214.212, 136.2539
1215.293, 11.74219
1216.374, 23.30078
1217.456, 15.38281
1218.536, 44.84766
1219.617, 26.10156
1220.698, 97.17969
1221.778, 11.00781
1222.859, 23.39453
1223.939, 66.00000
1225.019, 139.7031
1226.099, 111.0156
1227.178, 4.628906
1228.258, 102.2930
1229.337, 93.91016
1230.417, 309.5312
1231.496, 1.750000
1232.574, 69.93359
1233.653, 46.61328
1234.732, 179.7305
1235.810, 32.10938
1236.888, 273.5234
1237.966, 1.023438
1239.044, 465.4805
1240.122, 264.0273
1241.199, 23.60547
1242.277, 1.312500
1243.354, 70.96484
1244.431, 91.65625
1245.508, 136.3828
1246.585, 36.16406
1247.661, 331.9805
1248.738, 373.8320
1249.814, 30.27344
1250.890, 328.6328
1251.966, 148.5820
1253.042, 73.43750
1254.117, 145.5430
1255.193, 187.5664
1256.268, 34.37500
1257.343, 68.28516
1258.418, 133.8242
1259.493, 141.9766
1260.567, 32.16797
1261.642, 164.3906
1262.716, 329.6523
1263.790, 365.9453
1264.864, 355.2773
1265.938, 413.6406
1267.011, 83.03516
1268.085, 509.4688
1269.158, 484.9375
1270.231, 163.4375
1271.304, 532.9766
1272.377, 348.5469
1273.450, 584.1719
1274.522, 656.8438
1275.594, 520.5508
1276.666, 533.2930
1277.738, 369.0703
1278.810, 555.8789
1279.882, 248.6562
1280.953, 294.5312
1282.025, 77.43750
1283.096, 349.3750
1284.167, 253.3516
1285.238, 399.4766
1286.308, 241.5156
1287.379, 338.5352
1288.449, 303.1289
1289.519, 464.0273
1290.589, 379.1875
1291.659, 442.3789
1292.729, 246.6133
1293.798, 527.8633
1294.868, 424.1445
1295.937, 774.4531
1297.006, 538.7969
1298.075, 422.1875
1299.143, 388.6016
1300.212, 292.0430
1301.280, 325.5156
1302.348, 231.0156
1303.416, 469.5430
1304.484, 657.0938
1305.552, 667.6680
1306.620, 498.2734
1307.687, 643.9023
1308.754, 747.5586
1309.821, 471.2422
1310.888, 566.9492
1311.955, 532.6719
1313.021, 568.4219
1314.088, 599.5977
1315.154, 529.9961
1316.220, 636.8164
1317.286, 718.6562
1318.352, 727.5234
1319.417, 676.1016
1320.483, 598.3125
1321.548, 425.2422
1322.613, 557.1914
1323.678, 358.1602
1324.743, 710.1523
1325.807, 625.1680
1326.872, 318.2070
1327.936, 444.2734
1329.000, 319.3594
1330.064, 567.4648
1331.128, 224.6016
1332.191, 232.7578
1333.255, 473.9336
1334.318, 320.1367
1335.381, 238.3633
1336.444, 132.6094
1337.507, 185.1875
1338.569, 269.5742
1339.632, 94.58984
1340.694, 444.4336
1341.756, 77.78906
1342.818, 322.1602
1343.880, 205.0469
1344.941, 178.4727
1346.003, 356.9219
1347.064, 360.3555
1348.125, 147.6602
1349.186, 207.5742
1350.247, 241.5312
1351.308, 157.9805
1352.368, 290.5547
1353.428, 73.14844
1354.489, 70.76953
1355.549, 37.94531
1356.608, 205.6602
1357.668, 188.6914
1358.727, 72.28906
1359.787, 33.83203
1360.846, 64.08984
1361.905, 213.5078
1362.964, 94.31250
1364.022, 340.1367
1365.081, 153.9531
1366.139, 300.3477
1367.197, 157.2109
1368.255, 43.06250
1369.313, 71.55078
1370.371, 190.9844
1371.428, 323.8789
1372.486, 357.7930
1373.543, 281.7305
1374.600, 481.6797
1375.657, 298.6602
1376.713, 346.6641
1377.770, 234.8438
1378.826, 316.8906
1379.882, 458.9609
1380.938, 96.30078
1381.994, 61.80859
