##NAMES=Clinoptilolite-Ca
##RRUFFID=R060662
##IDEAL CHEMISTRY=Ca_3_(Si_30_Al_6_)O_72_&#183;20H_2_O
##LOCALITY=Succor Creek, Malheur County, Oregon, USA
##OWNER=RRUFF
##SOURCE=Michael Scott
##DESCRIPTION=Group of colorless platy prismatic crystals
##STATUS=The identification of this mineral has been confirmed by X-ray diffraction and chemical analysis
##URL=rruff.info/R060662
##MEASURED CHEMISTRY=(Ca_1.02_Na_0.97_K_0.59_)_Σ=2.58_(Si_14.40_Al_3.60_)_Σ=18_O_36_·10.96H_2_O
##PIN_ID=M00221
##ORIENTATION=Laser parallel to b* (0 1 0). Fiducial mark perpendicular to laser is parallel to c [0 0 1]
221.0220, 0.0000000E+00
222.2400, 1.015625
223.4590, 74.41992
224.6770, 269.0469
225.8950, 150.5254
227.1120, 63.99219
228.3300, 109.1328
229.5480, 38.91406
230.7650, 129.4062
231.9820, 109.5801
233.1990, 116.1172
234.4160, 278.6621
235.6330, 187.9570
236.8490, 387.7949
238.0660, 389.0859
239.2820, 552.4160
240.4980, 480.0742
241.7140, 739.5488
242.9300, 760.7832
244.1460, 873.7363
245.3610, 1067.369
246.5770, 1193.648
247.7920, 1279.793
249.0070, 1329.020
250.2220, 1412.051
251.4370, 1482.604
252.6510, 1512.646
253.8660, 1619.260
255.0800, 1444.322
256.2940, 1662.617
257.5080, 1774.982
258.7220, 1768.904
259.9360, 1336.227
261.1490, 1455.232
262.3630, 1353.576
263.5760, 1243.186
264.7890, 1440.717
266.0020, 1150.508
267.2150, 1050.715
268.4270, 1150.354
269.6400, 957.7246
270.8520, 928.3848
272.0640, 1012.320
273.2760, 740.5137
274.4880, 862.9570
275.7000, 853.6309
276.9120, 819.5234
278.1230, 798.1621
279.3340, 673.9141
280.5450, 612.3867
281.7560, 431.0352
282.9670, 256.8477
284.1780, 55.81445
285.3880, 0.6015630
286.5980, 223.1797
287.8090, 32.43359
289.0190, 115.0742
290.2290, 257.7012
291.4380, 76.56250
292.6480, 6.720703
293.8570, 137.8086
295.0670, 161.0762
296.2760, 63.94922
297.4850, 249.8184
298.6930, 113.6680
299.9020, 282.5469
301.1110, 160.4824
302.3190, 272.4805
303.5270, 223.7734
304.7350, 266.2598
305.9430, 263.8613
307.1510, 271.7363
308.3580, 488.8438
309.5660, 423.1777
310.7730, 426.6621
311.9800, 603.4082
313.1870, 372.4102
314.3940, 421.5137
315.6010, 389.7227
316.8070, 489.0957
318.0130, 472.5430
319.2200, 477.3750
320.4260, 555.6816
321.6310, 477.3320
322.8370, 502.1035
324.0430, 531.9023
325.2480, 585.7285
326.4540, 726.5801
327.6590, 749.4473
328.8640, 601.3281
330.0680, 609.1973
331.2730, 796.0586
332.4780, 926.9277
333.6820, 1102.809
334.8860, 1176.486
336.0900, 988.5918
337.2940, 1274.496
338.4980, 1339.406
339.7010, 1322.320
340.9050, 1538.240
342.1080, 1524.162
343.3110, 1936.088
344.5140, 1857.014
345.7170, 2023.938
346.9200, 2192.863
348.1220, 2281.785
349.3240, 2616.703
350.5270, 2925.619
351.7290, 3176.658
352.9310, 3374.430
354.1320, 3750.324
355.3340, 3663.209
356.5350, 3805.086
357.7370, 4247.949
358.9380, 4502.803
360.1390, 4528.643
361.3400, 4913.469
362.5400, 5205.279
363.7410, 5485.076
364.9410, 5791.854
366.1410, 5924.541
367.3410, 6225.074
368.5410, 6512.820
369.7410, 6789.760
370.9400, 7178.902
372.1400, 7440.072
373.3390, 7856.428
374.5380, 8188.111
375.7370, 8518.740
376.9360, 9000.711
378.1350, 9235.369
379.3330, 9594.680
380.5310, 10028.16
381.7300, 10631.98
382.9280, 11126.90
384.1260, 11763.68
385.3230, 12504.90
386.5210, 13186.27
387.7180, 13908.25
388.9160, 15064.32
390.1130, 15935.77
391.3100, 16892.80
392.5060, 18119.04
393.7030, 19243.64
394.9000, 20496.26
396.0960, 21654.92
397.2920, 22871.58
398.4880, 24173.49
399.6840, 24869.93
400.8800, 25949.28
402.0750, 26507.09
403.2710, 26592.95
404.4660, 26819.73
405.6610, 26716.24
406.8560, 26169.94
408.0510, 25756.14
409.2450, 24743.67
410.4400, 24093.04
411.6340, 23023.07
412.8280, 21419.05
414.0220, 20685.63
415.2160, 19247.49
416.4100, 18099.36
417.6030, 16790.03
418.7970, 15756.64
419.9900, 14747.96
421.1830, 13493.83
422.3760, 12501.80
423.5690, 11525.36
424.7610, 10562.85
425.9540, 9769.617
427.1460, 8855.539
428.3380, 8087.320
429.5300, 7205.055
430.7220, 6607.941
431.9140, 5976.305
433.1050, 5540.605
434.2970, 5026.234
435.4880, 4675.654
436.6790, 4458.832
437.8700, 4180.051
439.0610, 3777.164
440.2510, 3653.279
441.4420, 3251.385
442.6320, 3288.494
443.8220, 3455.592
445.0120, 3276.684
446.2020, 3205.762
447.3910, 3225.828
448.5810, 3302.572
449.7700, 3569.990
450.9600, 3709.941
452.1490, 4278.943
453.3370, 4681.926
454.5260, 5059.887
455.7150, 5614.824
456.9030, 6156.742
458.0910, 6647.635
459.2800, 7063.502
460.4670, 7830.344
461.6550, 8246.156
462.8430, 8929.945
464.0300, 9257.699
465.2180, 9576.434
466.4050, 9959.133
467.5920, 10209.80
468.7790, 10466.44
469.9650, 10645.05
471.1520, 10879.62
472.3380, 11185.16
473.5250, 11717.67
474.7110, 12215.15
475.8970, 12700.60
477.0820, 13191.01
478.2680, 13760.39
479.4540, 14143.23
480.6390, 14787.04
481.8240, 14558.32
483.0090, 14358.55
484.1940, 13690.76
485.3780, 12965.93
486.5630, 12053.06
487.7470, 11107.16
488.9320, 9975.207
490.1160, 8959.230
491.3000, 7872.213
492.4830, 6925.158
493.6670, 6073.064
494.8500, 5147.932
496.0340, 4635.760
497.2170, 4033.551
498.4000, 3334.301
499.5820, 2758.012
500.7650, 2422.680
501.9480, 2221.311
503.1300, 1950.898
504.3120, 1629.447
505.4940, 1347.953
506.6760, 1396.420
507.8580, 943.8418
509.0390, 1022.240
510.2210, 584.6113
511.4020, 632.9531
512.5830, 522.2656
513.7640, 661.5508
514.9450, 410.8066
516.1250, 414.0312
517.3060, 270.2324
518.4860, 186.3965
519.6660, 182.5254
520.8460, 29.61328
522.0260, 85.65625
523.2060, 64.65234
524.3850, 160.6016
525.5650, 180.4902
526.7440, 73.73828
527.9230, 41.85352
529.1020, 33.29688
530.2810, 44.10352
531.4590, 20.66016
532.6380, 107.6152
533.8160, 124.7930
534.9940, 33.05078
536.1720, 95.24414
537.3500, 30.51172
538.5270, 108.4922
539.7050, 0.8261720
540.8820, 10.42188
542.0590, 98.98047
543.2360, 184.7969
544.4130, 104.4141
545.5900, 66.31250
546.7660, 18.82617
547.9430, 65.15430
549.1190, 48.49023
550.2950, 7.382813
551.4710, 50.67773
552.6470, 12.00391
553.8220, 37.77930
554.9980, 202.0215
556.1730, 8.580078
557.3480, 52.00195
558.5230, 211.3438
559.6980, 46.04688
560.8730, 143.3359
562.0470, 101.5781
563.2220, 28.41211
564.3960, 139.8984
565.5700, 329.2383
566.7440, 284.3281
567.9170, 265.1445
569.0910, 316.1523
570.2640, 334.6758
571.4380, 309.0020
572.6110, 423.7734
573.7840, 400.0742
574.9570, 393.6191
576.1290, 399.8867
577.3020, 498.3867
578.4740, 718.3301
579.6460, 624.0410
580.8180, 672.5684
581.9900, 851.8027
583.1620, 737.4414
584.3330, 928.0566
585.5040, 980.0273
586.6760, 976.0391
587.8470, 991.7930
589.0180, 1072.135
590.1880, 1228.410
591.3590, 1471.615
592.5290, 1395.750
593.7000, 1705.818
594.8700, 1824.121
596.0400, 1959.049
597.2090, 2161.910
598.3790, 2214.768
599.5490, 2291.516
600.7180, 2310.164
601.8870, 2757.746
603.0560, 2977.506
604.2250, 3369.945
605.3940, 3369.312
606.5620, 3776.613
607.7300, 4541.840
608.8990, 4419.869
610.0670, 4713.588
611.2350, 4538.104
612.4020, 4806.047
613.5700, 4793.926
614.7370, 4927.727
615.9050, 5231.459
617.0720, 5149.121
618.2390, 5221.711
619.4060, 5223.230
620.5720, 5064.678
621.7390, 4958.055
622.9050, 4779.359
624.0710, 4630.592
625.2370, 4398.754
626.4030, 4269.844
627.5690, 3940.861
628.7340, 3563.811
629.9000, 3209.686
631.0650, 3065.488
632.2300, 2710.221
633.3950, 2503.883
634.5600, 2409.469
635.7240, 2273.426
636.8890, 2248.432
638.0530, 2211.803
639.2170, 2233.104
640.3810, 2229.713
641.5450, 2182.291
642.7080, 2128.576
643.8720, 2064.592
645.0350, 2054.535
646.1980, 1943.406
647.3610, 1890.215
648.5240, 1844.955
649.6870, 1696.643
650.8490, 1710.270
652.0120, 1505.850
653.1740, 1506.416
654.3360, 1421.932
655.4980, 1312.375
656.6600, 1233.297
657.8210, 1117.660
658.9830, 1000.873
660.1440, 896.6621
661.3050, 780.5469
662.4660, 683.7734
663.6270, 664.7793
664.7870, 701.1621
665.9480, 609.7031
667.1080, 493.7988
668.2680, 308.7676
669.4280, 323.1211
670.5880, 348.3867
671.7480, 373.2988
672.9070, 388.6074
674.0670, 366.7656
675.2260, 326.4219
676.3850, 308.1074
677.5440, 244.7324
678.7030, 186.3203
679.8610, 157.1523
681.0200, 91.37500
682.1780, 99.11719
683.3360, 71.31641
684.4940, 90.23633
685.6520, 122.5430
686.8090, 53.89258
687.9670, 38.00977
689.1240, 92.43359
690.2810, 7.708984
691.4380, 57.93555
692.5950, 95.55664
693.7520, 136.0820
694.9080, 108.6758
696.0650, 166.3066
697.2210, 15.54297
698.3770, 118.0645
699.5330, 169.3672
700.6880, 65.96289
701.8440, 15.94336
702.9990, 275.8926
704.1550, 63.08008
705.3100, 87.73242
706.4650, 52.92578
707.6190, 73.36523
708.7740, 19.77148
709.9290, 46.75977
711.0830, 65.08789
712.2370, 36.19336
713.3910, 29.27539
714.5450, 149.6191
715.6980, 12.08984
716.8520, 168.4863
718.0050, 188.1113
719.1580, 48.67188
720.3110, 254.1543
721.4640, 37.57617
722.6170, 411.9219
723.7700, 260.2109
724.9220, 231.4434
726.0740, 273.6152
727.2260, 401.7344
728.3780, 541.7988
729.5300, 458.9297
730.6810, 807.7695
731.8330, 375.6777
732.9840, 264.5312
734.1350, 369.3320
735.2860, 522.0840
736.4370, 310.7832
737.5880, 317.4297
738.7380, 383.0254
739.8880, 365.5703
741.0390, 254.0684
742.1890, 365.5156
743.3380, 401.9102
744.4880, 413.2598
745.6380, 500.5605
746.7870, 474.8125
747.9360, 491.0176
749.0850, 467.1738
750.2340, 658.2832
751.3830, 523.3477
752.5310, 632.3633
753.6800, 535.3340
754.8280, 686.2578
755.9760, 499.1348
757.1240, 683.9707
758.2720, 631.7598
759.4190, 910.5039
760.5670, 1126.205
761.7140, 830.8633
762.8610, 907.4766
764.0080, 1013.049
765.1550, 1001.578
766.3020, 1035.066
767.4480, 1101.512
768.5950, 1005.916
769.7410, 1054.277
770.8870, 1203.600
772.0330, 1151.879
773.1780, 1024.121
774.3240, 1186.322
775.4690, 1202.486
776.6140, 1144.840
777.7590, 1675.693
778.9040, 1248.742
780.0490, 1395.748
781.1940, 1869.723
782.3380, 1951.662
783.4820, 1323.561
784.6260, 1293.154
785.7700, 1461.125
786.9140, 1618.193
788.0580, 1445.701
789.2010, 1499.379
790.3450, 1254.031
791.4880, 1342.307
792.6310, 1477.920
793.7730, 1444.494
794.9160, 1336.562
796.0590, 1325.070
797.2010, 1323.480
798.3430, 1379.750
799.4850, 1276.410
800.6270, 1467.695
801.7690, 1569.051
802.9100, 1420.377
804.0520, 1432.725
805.1930, 1535.297
806.3340, 1560.648
807.4750, 1419.166
808.6160, 1548.641
809.7560, 1813.238
810.8970, 1657.941
812.0370, 1885.727
813.1770, 2010.230
814.3170, 1848.676
815.4570, 1679.758
816.5960, 1877.426
817.7360, 1937.729
818.8750, 1970.945
820.0140, 1862.455
821.1530, 1847.629
822.2920, 1741.346
823.4310, 1573.574
824.5690, 1498.629
825.7070, 1369.816
826.8460, 1403.117
827.9840, 1223.404
829.1220, 994.6211
830.2590, 1082.633
831.3970, 746.1016
832.5340, 961.3320
833.6710, 801.2988
834.8080, 757.3867
835.9450, 692.0664
837.0820, 692.0664
838.2190, 788.0312
839.3550, 782.1484
840.4910, 710.8594
841.6270, 1097.461
842.7630, 752.2383
843.8990, 820.2148
845.0350, 795.9219
846.1700, 1146.010
847.3060, 1042.275
848.4410, 1125.990
849.5760, 1197.105
850.7100, 1303.904
851.8450, 1486.902
852.9800, 1640.604
854.1140, 1899.785
855.2480, 2006.348
856.3820, 2100.617
857.5160, 2164.311
858.6500, 2160.658
859.7830, 2156.697
860.9170, 2049.441
862.0500, 2033.076
863.1830, 1863.898
864.3160, 1703.061
865.4480, 1387.223
866.5810, 1260.383
867.7130, 1081.541
868.8460, 802.7012
869.9780, 815.5586
871.1100, 818.7188
872.2410, 942.8809
873.3730, 753.9766
874.5050, 729.1133
875.6360, 545.2812
876.7670, 512.4512
877.8980, 428.3730
879.0290, 429.5488
880.1590, 390.7285
881.2900, 391.9121
882.4200, 404.2598
883.5500, 362.2910
884.6800, 467.4883
885.8100, 276.6934
886.9400, 338.9004
888.0690, 391.1172
889.1990, 322.3398
890.3280, 129.5684
891.4570, 355.8027
892.5860, 186.0469
893.7140, 215.2988
894.8430, 314.5586
895.9710, 135.8262
897.1000, 219.1035
898.2280, 201.3906
899.3560, 251.6875
900.4830, 284.9961
901.6110, 210.3125
902.7380, 353.6406
903.8660, 300.9805
904.9930, 217.3320
906.1200, 195.6953
907.2460, 152.0703
908.3730, 123.6992
909.5000, 117.8691
910.6260, 140.2734
911.7520, 102.7031
912.8780, 216.1445
914.0040, 197.5996
915.1290, 243.0723
916.2550, 107.5605
917.3800, 6.058594
918.5050, 118.5742
919.6300, 37.89453
920.7550, 25.36328
921.8800, 69.82812
923.0040, 50.30859
924.1290, 130.7910
925.2530, 232.3164
926.3770, 116.9258
927.5010, 39.43164
928.6250, 76.80664
929.7480, 35.79883
930.8720, 55.59961
931.9950, 216.9824
933.1180, 20.64062
934.2410, 73.28516
935.3640, 66.94336
936.4860, 74.39648
937.6090, 238.7539
938.7310, 115.1328
939.8530, 59.46484
940.9750, 9.937500
942.0970, 113.6348
943.2180, 168.2285
944.3400, 7.132813
945.4610, 230.5215
946.5820, 96.06250
947.7030, 148.3398
948.8240, 74.22656
949.9450, 81.21484
951.0650, 66.68164
952.1860, 208.2051
953.3060, 131.7617
954.4260, 300.3711
955.5460, 281.0215
956.6650, 88.71094
957.7850, 87.46484
958.9040, 6.689453
960.0230, 253.1973
961.1420, 251.1660
962.2610, 201.2266
963.3800, 199.7188
964.4990, 181.5430
965.6170, 21.82422
966.7350, 179.1914
967.8530, 187.5938
968.9710, 263.0371
970.0890, 45.56641
971.2070, 320.1934
972.3240, 144.8535
973.4410, 236.5859
974.5580, 182.3730
975.6750, 194.9121
976.7920, 67.04883
977.9090, 296.9844
979.0250, 265.9824
980.1410, 369.0527
981.2580, 339.1797
982.3740, 525.3516
983.4890, 387.5645
984.6050, 353.8398
985.7200, 667.1582
986.8360, 388.5176
987.9510, 640.9277
989.0660, 692.3770
990.1810, 655.8594
991.2950, 642.3887
992.4100, 839.9492
993.5240, 845.3652
994.6390, 898.1934
995.7530, 1041.867
996.8660, 1319.576
997.9800, 1453.318
999.0940, 1544.092
1000.207, 1924.900
1001.320, 2133.742
1002.433, 2094.617
1003.546, 1853.525
1004.659, 1709.471
1005.772, 1497.449
1006.884, 1435.459
1007.996, 1165.508
1009.108, 1230.590
1010.220, 775.4844
1011.332, 1082.268
1012.444, 1276.154
1013.555, 1363.148
1014.666, 1023.236
1015.777, 1234.668
1016.888, 1225.186
1017.999, 1206.691
1019.110, 1495.834
1020.220, 1218.141
1021.331, 1502.475
1022.441, 1562.475
1023.551, 1725.182
1024.661, 1455.465
1025.770, 1404.084
1026.880, 1514.740
1027.989, 1496.434
1029.098, 1510.162
1030.207, 1562.930
1031.316, 1634.736
1032.425, 1385.580
1033.533, 1428.459
1034.642, 1315.377
1035.750, 1296.215
1036.858, 1254.326
1037.966, 1387.359
1039.073, 1345.428
1040.181, 1527.537
1041.288, 1278.686
1042.396, 1101.871
1043.503, 1387.096
1044.610, 1290.359
1045.716, 1517.662
1046.823, 1113.004
1047.929, 1275.383
1049.036, 1259.803
1050.142, 1441.262
1051.248, 1344.752
1052.353, 1146.289
1053.459, 1417.135
1054.564, 1324.605
1055.670, 1129.982
1056.775, 1045.398
1057.880, 1227.705
1058.985, 1041.512
1060.089, 1142.707
1061.194, 1133.570
1062.298, 858.4746
1063.402, 1084.898
1064.506, 959.8867
1065.610, 906.9824
1066.713, 846.2344
1067.817, 1022.109
1068.920, 1055.369
1070.023, 1124.576
1071.126, 1075.828
1072.229, 1254.123
1073.332, 1203.135
1074.435, 1141.387
1075.537, 1105.711
1076.639, 1237.203
1077.741, 1021.723
1078.843, 1237.285
1079.945, 1237.771
1081.046, 1559.078
1082.148, 1588.166
1083.249, 1645.910
1084.350, 1659.797
1085.451, 1730.639
1086.551, 1869.904
1087.652, 1625.217
1088.752, 1476.191
1089.853, 1754.361
1090.953, 1891.283
1092.053, 1665.355
1093.152, 1765.098
1094.252, 1941.365
1095.351, 1928.422
1096.451, 2154.473
1097.550, 2164.660
1098.649, 2193.047
1099.748, 2363.484
1100.846, 2125.035
1101.945, 2410.350
1103.043, 2586.850
1104.141, 2397.510
1105.239, 2528.229
1106.337, 2697.988
1107.434, 2695.787
1108.532, 2816.930
1109.629, 2962.508
1110.726, 2968.428
1111.823, 2861.389
1112.920, 2971.389
1114.017, 2946.430
1115.113, 3052.506
1116.210, 3157.623
1117.306, 3161.781
1118.402, 3281.975
1119.498, 3125.211
1120.593, 3156.480
1121.689, 3464.791
1122.784, 3242.141
1123.879, 3403.527
1124.974, 3275.953
1126.069, 3123.420
1127.164, 2687.924
1128.259, 2581.467
1129.353, 2609.049
1130.447, 2281.668
1131.541, 2180.324
1132.635, 2453.021
1133.729, 2146.758
1134.822, 2250.533
1135.916, 2091.344
1137.009, 2242.199
1138.102, 2159.090
1139.195, 2136.020
1140.288, 2217.988
1141.380, 2003.996
1142.473, 2210.043
1143.565, 2162.133
1144.657, 2363.262
1145.749, 2107.428
1146.841, 2328.635
1147.932, 2404.881
1149.024, 2096.162
1150.115, 2315.484
1151.206, 2356.844
1152.297, 2411.242
1153.388, 2220.680
1154.479, 2318.412
1155.569, 2475.666
1156.659, 2305.215
1157.750, 2487.803
1158.839, 2394.428
1159.929, 2402.092
1161.019, 2348.793
1162.108, 2426.531
1163.198, 2310.311
1164.287, 2514.123
1165.376, 2362.977
1166.465, 2277.865
1167.553, 2332.793
1168.642, 2162.758
1169.730, 2171.756
1170.818, 2333.793
1171.906, 2140.867
1172.994, 2094.979
1174.082, 1739.127
1175.170, 2219.311
1176.257, 2069.533
1177.344, 1961.789
1178.431, 1624.082
1179.518, 1615.412
1180.605, 1591.777
1181.691, 1631.178
1182.778, 1282.613
1183.864, 1348.088
1184.950, 1594.605
1186.036, 1257.164
1187.122, 1291.773
1188.207, 1164.428
1189.292, 990.1465
1190.378, 915.9512
1191.463, 791.8184
1192.548, 716.7188
1193.632, 598.6543
1194.717, 596.6289
1195.801, 502.6406
1196.886, 249.7324
1197.970, 448.8633
1199.054, 569.0449
1200.137, 663.2715
1201.221, 371.5312
1202.305, 196.8262
1203.388, 315.1523
1204.471, 217.5234
1205.554, 170.6973
1206.637, 147.3887
1207.719, 67.91602
1208.802, 68.47852
1209.884, 15.07031
1210.966, 17.28516
1212.048, 34.34570
1213.130, 86.08398
1214.212, 111.1875
1215.293, 17.57227
1216.374, 75.67969
1217.456, 7.935547
1218.536, 93.83789
1219.617, 129.3594
1220.698, 271.5840
1221.778, 0.1054690
1222.859, 192.1777
1223.939, 66.51367
1225.019, 120.8496
1226.099, 38.20703
1227.178, 98.83594
1228.258, 42.80469
1229.337, 68.30078
1230.417, 13.25977
1231.496, 127.5449
1232.574, 71.86133
1233.653, 414.8145
1234.732, 200.2402
1235.810, 235.9707
1236.888, 459.7285
1237.966, 258.5156
1239.044, 259.3281
1240.122, 608.2754
1241.199, 348.1445
1242.277, 247.0410
1243.354, 188.9648
1244.431, 304.9160
1245.508, 325.8945
1246.585, 283.8984
1247.661, 67.93555
1248.738, 305.0020
1249.814, 151.5000
1250.890, 689.2246
1251.966, 142.3867
1253.042, 182.5762
1254.117, 318.8066
1255.193, 24.08398
1256.268, 327.4062
1257.343, 279.7773
1258.418, 277.1953
1259.493, 401.6602
1260.567, 169.1738
1261.642, 236.7246
1262.716, 568.3086
1263.790, 497.9219
1264.864, 323.5586
1265.938, 526.2402
1267.011, 415.9473
1268.085, 536.6855
1269.158, 665.4434
1270.231, 561.2324
1271.304, 561.0469
1272.377, 695.8965
1273.450, 478.7617
1274.522, 545.6504
1275.594, 690.5645
1276.666, 428.5020
1277.738, 560.4668
1278.810, 326.4492
1279.882, 565.4609
1280.953, 616.4902
1282.025, 626.5449
1283.096, 401.6230
1284.167, 438.7246
1285.238, 441.8457
1286.308, 471.1895
1287.379, 503.3633
1288.449, 319.5625
1289.519, 534.7773
1290.589, 444.0176
1291.659, 590.2734
1292.729, 534.5508
1293.798, 598.8418
1294.868, 567.1543
1295.937, 488.4805
1297.006, 631.8242
1298.075, 492.1855
1299.143, 482.5645
1300.212, 289.9551
1301.280, 318.3613
1302.348, 548.7852
1303.416, 526.2227
1304.484, 574.6738
1305.552, 551.1348
1306.620, 612.6113
1307.687, 648.0996
1308.754, 769.6016
1309.821, 792.1133
1310.888, 611.6367
1311.955, 784.1699
1313.021, 613.7109
1314.088, 671.5742
1315.154, 769.8262
1316.220, 728.3965
1317.286, 768.9766
1318.352, 773.5664
1319.417, 739.1621
1320.483, 988.7637
1321.548, 797.3730
1322.613, 779.9883
1323.678, 629.6191
1324.743, 417.2637
1325.807, 536.9277
1326.872, 477.6074
1327.936, 456.3008
1329.000, 364.0098
1330.064, 344.7344
1331.128, 411.4746
1332.191, 105.2305
1333.255, 241.9941
1334.318, 182.7734
1335.381, 289.5703
1336.444, 175.3809
1337.507, 237.2051
1338.569, 167.0488
1339.632, 269.2305
1340.694, 354.6367
1341.756, 225.4238
1342.818, 10.10742
1343.880, 261.8965
1344.941, 262.3262
1346.003, 93.76562
1347.064, 268.5996
1348.125, 229.3047
1349.186, 217.3164
1350.247, 89.05664
1351.308, 34.36719
1352.368, 106.2109
1353.428, 216.3262
1354.489, 78.49414
1355.549, 203.6035
1356.608, 27.44141
1357.668, 236.7969
1358.727, 47.72656
1359.787, 213.6309
1360.846, 275.5039
1361.905, 85.69336
1362.964, 104.4336
1364.022, 73.60547
1365.081, 33.75000
1366.139, 301.4863
1367.197, 2.417969
1368.255, 265.2988
1369.313, 303.9824
1370.371, 445.7578
1371.428, 195.3184
1372.486, 192.4434
1373.543, 236.6309
1374.600, 200.4492
1375.657, 189.6445
1376.713, 216.0664
1377.770, 260.3320
1378.826, 270.7676
1379.882, 196.0508
1380.938, 382.0938
