##NAMES=Clinohumite
##RRUFFID=R040122
##IDEAL CHEMISTRY=Mg_9_(SiO_4_)_4_F_2_
##LOCALITY=Anzahamazonono,  Madagascar
##OWNER=RRUFF
##SOURCE=University of Arizona Mineral Museum
##DESCRIPTION=Orange-brown blebs embedded in calcite matrix
##STATUS=The identification of this mineral has been confirmed by X-ray diffraction and chemical analysis
##URL=rruff.info/R040122
##MEASURED CHEMISTRY=(Mg_0.96_Fe_0.02_Ti_0.01_Ca_0.01_)_9_(SiO_4_)_4_(F_0.59_(OH)_0.41_)_2_
##PIN_ID=M00157
##ORIENTATION=Laser parallel to (0 1 1). Fiducial mark perpendicular to laser is parallel to a [1 0 0]
54.966, 0.000
56.365, 0.792
57.765, 2.145
59.164, 58.085
60.563, 112.950
61.962, 165.242
63.360, 144.371
64.758, 134.230
66.157, 159.992
67.554, 111.323
68.952, 209.751
70.349, 255.033
71.747, 161.430
73.144, 259.480
74.540, 214.407
75.937, 234.357
77.333, 147.662
78.729, 61.222
80.125, 67.926
81.521, 112.866
82.916, 185.165
84.311, 141.918
85.706, 119.208
87.101, 186.100
88.496, 193.524
89.890, 208.494
91.284, 308.206
92.678, 385.488
94.071, 296.490
95.465, 253.904
96.858, 237.048
98.251, 258.251
99.644, 227.572
101.036, 169.977
102.428, 170.685
103.820, 110.551
105.212, 142.143
106.604, 200.782
107.995, 231.466
109.387, 187.193
110.777, 103.960
112.168, 128.765
113.559, 94.609
114.949, 124.491
116.339, 232.409
117.729, 227.362
119.119, 207.349
120.508, 103.368
121.897, 13.582
123.286, 89.499
124.675, 24.608
126.063, 26.254
127.452, 5.090
128.840, 11.898
130.228, 4.320
131.615, 2.252
133.003, 11.170
134.390, 1.878
135.777, 33.561
137.164, 37.220
138.550, 27.944
139.937, 23.447
141.323, 12.004
142.709, 26.475
144.094, 22.989
145.480, 11.535
146.865, 10.888
148.250, 16.718
149.635, 2.349
151.019, 41.005
152.403, 20.681
153.788, 131.378
155.171, 124.094
156.555, 126.825
157.939, 155.570
159.322, 126.324
160.705, 161.086
162.088, 222.854
163.470, 263.628
164.853, 262.409
166.235, 274.198
167.617, 323.995
168.998, 315.809
170.380, 339.679
171.761, 351.555
173.142, 401.444
174.523, 504.330
175.904, 581.219
177.284, 659.153
178.664, 784.097
180.044, 879.019
181.424, 1008.939
182.803, 1103.883
184.183, 1094.839
185.562, 1077.804
186.940, 1100.775
188.319, 997.753
189.698, 1024.739
191.076, 955.732
192.454, 1022.732
193.831, 1183.739
195.209, 1329.764
196.586, 1537.803
197.963, 1716.851
199.340, 1834.906
200.717, 1908.968
202.093, 1912.038
203.470, 1826.118
204.846, 1791.208
206.221, 1684.529
207.597, 1563.421
208.972, 1412.546
210.347, 1247.683
211.722, 1039.835
213.097, 1010.001
214.472, 905.184
215.846, 923.382
217.220, 940.597
218.594, 988.828
219.967, 1153.075
221.341, 1253.913
222.714, 1387.479
224.087, 1537.224
225.460, 1738.001
226.832, 1959.789
228.204, 2128.579
229.577, 2233.370
230.948, 2282.156
232.320, 2361.934
233.692, 2454.700
235.063, 2489.454
236.434, 2476.197
237.805, 2449.927
239.175, 2387.643
240.545, 2270.339
241.916, 2294.011
243.286, 2127.657
244.655, 2023.281
246.025, 2008.886
247.394, 1951.476
248.763, 2024.053
250.132, 1982.620
251.501, 2144.178
252.869, 2015.730
254.237, 2146.238
255.605, 2107.739
256.973, 2095.168
258.340, 2069.562
259.708, 2068.925
261.075, 1894.234
262.442, 1707.467
263.808, 1757.659
265.175, 1610.861
266.541, 1595.056
267.907, 1449.258
269.273, 1359.470
270.639, 1340.695
272.004, 1165.930
273.369, 1157.177
274.734, 1054.434
276.099, 1075.702
277.463, 955.017
278.828, 1001.328
280.192, 1045.627
281.556, 1048.110
282.919, 1085.813
284.283, 1176.415
285.646, 1166.792
287.009, 1184.373
288.372, 1157.873
289.734, 1167.635
291.097, 1171.951
292.459, 1139.453
293.821, 1189.846
295.183, 1118.775
296.544, 1131.641
297.905, 1053.560
299.266, 1045.300
300.627, 1057.962
301.988, 1116.626
303.348, 1236.974
304.709, 1257.581
306.069, 1520.890
307.428, 1627.494
308.788, 1790.960
310.147, 1952.460
311.507, 2169.306
312.865, 2291.683
314.224, 2491.034
315.583, 2768.507
316.941, 3192.903
318.299, 3453.390
319.657, 3589.882
321.015, 3682.428
322.372, 3522.927
323.729, 3307.428
325.086, 2934.934
326.443, 2527.442
327.800, 2127.954
329.156, 2000.498
330.512, 1731.148
331.868, 1556.781
333.224, 1402.516
334.579, 1346.107
335.935, 1210.704
337.290, 1100.399
338.645, 1048.961
339.999, 963.529
341.354, 909.107
342.708, 832.999
344.062, 711.343
345.416, 672.005
346.769, 629.689
348.123, 527.404
349.476, 527.149
350.829, 507.922
352.182, 457.729
353.534, 474.556
354.887, 448.429
356.239, 355.315
357.591, 332.235
358.942, 290.168
360.294, 264.123
361.645, 240.112
362.996, 195.141
364.347, 148.205
365.698, 148.309
367.048, 128.450
368.398, 142.625
369.748, 146.832
371.098, 97.056
372.448, 91.285
373.797, 82.585
375.146, 41.799
376.495, 68.072
377.844, 31.357
379.192, 12.651
380.540, 52.964
381.889, 91.292
383.236, 91.632
384.584, 112.973
385.932, 142.317
387.279, 201.655
388.626, 229.989
389.973, 346.317
391.319, 329.639
392.666, 357.956
394.012, 380.267
395.358, 299.573
396.704, 228.872
398.049, 239.165
399.394, 255.451
400.740, 179.732
402.084, 225.007
403.429, 189.275
404.774, 185.536
406.118, 301.792
407.462, 307.041
408.806, 313.283
410.150, 359.519
411.493, 403.749
412.836, 477.971
414.179, 508.188
415.522, 491.397
416.865, 569.600
418.207, 577.795
419.549, 681.985
420.891, 810.167
422.233, 562.343
423.575, 548.513
424.916, 424.677
426.257, 442.834
427.598, 372.985
428.939, 292.130
430.279, 248.268
431.619, 201.400
432.959, 174.525
434.299, 140.643
435.639, 154.753
436.978, 58.856
438.318, 20.952
439.657, 25.040
440.996, 50.120
442.334, 16.808
443.673, 35.756
445.011, 17.734
446.349, 23.267
447.687, 20.258
449.024, 14.751
450.361, 8.219
451.699, 22.821
453.036, 2.875
454.372, 18.939
455.709, 50.980
457.045, 42.109
458.381, 39.231
459.717, 39.616
461.053, 39.543
462.388, 27.273
463.724, 26.909
465.059, 30.888
466.394, 40.317
467.728, 3.446
469.063, 14.194
470.397, 5.931
471.731, 12.345
473.065, 35.359
474.398, 18.053
475.732, 49.736
477.065, 71.407
478.398, 55.068
479.731, 68.718
481.063, 30.356
482.396, 100.983
483.728, 49.598
485.060, 114.201
486.391, 62.793
487.723, 53.373
489.054, 36.941
490.385, 16.497
491.716, 19.039
493.047, 8.432
494.377, 33.073
495.708, 32.710
497.038, 18.854
498.368, 94.213
499.697, 109.919
501.027, 113.053
502.356, 115.951
503.685, 119.664
505.014, 157.685
506.342, 145.397
507.671, 228.323
508.999, 249.134
510.327, 262.581
511.655, 274.485
512.982, 257.580
514.310, 251.031
515.637, 235.910
516.964, 226.392
518.291, 217.130
519.617, 259.278
520.944, 268.839
522.270, 228.187
523.596, 319.060
524.921, 310.285
526.247, 344.051
527.572, 321.783
528.897, 284.992
530.222, 344.730
531.547, 297.688
532.871, 366.703
534.196, 325.518
535.520, 314.615
536.844, 366.203
538.167, 340.276
539.491, 311.532
540.814, 381.756
542.137, 357.797
543.460, 369.526
544.783, 432.164
546.105, 458.927
547.427, 528.672
548.749, 541.709
550.071, 480.074
551.393, 554.738
552.714, 507.376
554.035, 469.990
555.356, 460.579
556.677, 315.143
557.998, 393.682
559.318, 308.197
560.638, 347.687
561.958, 351.153
563.278, 315.594
564.597, 375.010
565.917, 408.402
567.236, 409.770
568.555, 487.113
569.874, 484.432
571.192, 453.727
572.511, 577.998
573.829, 555.244
575.147, 550.467
576.464, 644.665
577.782, 669.840
579.099, 773.990
580.416, 810.117
581.733, 941.221
583.050, 1047.301
584.366, 1119.357
585.683, 1347.390
586.999, 1455.399
588.315, 1582.386
589.630, 1816.349
590.946, 2071.768
592.261, 2424.206
593.576, 2783.100
594.891, 3255.970
596.206, 3787.818
597.520, 4665.607
598.834, 5677.389
600.148, 6823.169
601.462, 8056.752
602.776, 9824.104
604.089, 11255.544
605.402, 12769.195
606.715, 13878.811
608.028, 14552.313
609.341, 14255.828
610.653, 13212.743
611.965, 11800.873
613.277, 9992.956
614.589, 8274.503
615.901, 6710.053
617.212, 5475.748
618.523, 4450.236
619.834, 3662.841
621.145, 2928.245
622.456, 2453.575
623.766, 2084.954
625.076, 1773.376
626.386, 1493.505
627.696, 1308.750
629.006, 1032.882
630.315, 975.935
631.624, 817.221
632.933, 659.417
634.242, 638.694
635.551, 557.955
636.859, 498.200
638.167, 368.430
639.475, 347.593
640.783, 295.886
642.090, 234.009
643.398, 238.143
644.705, 169.297
646.012, 119.435
647.318, 128.531
648.625, 108.509
649.931, 93.492
651.237, 6.362
652.543, 54.355
653.849, 10.329
655.155, 5.566
656.460, 44.152
657.765, 7.102
659.070, 53.979
660.375, 52.123
661.679, 73.965
662.984, 38.603
664.288, 74.931
665.592, 74.329
666.895, 69.797
668.199, 84.332
669.502, 44.940
670.805, 137.599
672.108, 18.358
673.411, 93.154
674.713, 19.024
676.016, 58.929
677.318, 98.889
678.620, 128.925
679.921, 107.050
681.223, 130.245
682.524, 124.627
683.825, 109.918
685.126, 103.370
686.427, 49.893
687.727, 7.459
689.028, 58.043
690.328, 72.672
691.628, 15.352
692.927, 41.052
694.227, 34.784
695.526, 71.543
696.825, 57.073
698.124, 56.190
699.423, 20.068
700.721, 19.962
702.020, 33.130
703.318, 6.220
704.616, 57.307
705.913, 9.392
707.211, 73.475
708.508, 109.557
709.805, 76.637
711.102, 73.718
712.399, 177.799
713.695, 146.879
714.992, 227.960
716.288, 265.042
717.584, 292.126
718.879, 282.211
720.175, 357.298
721.470, 527.387
722.765, 529.479
724.060, 532.574
725.355, 696.672
726.649, 720.773
727.944, 726.879
729.238, 916.989
730.532, 883.104
731.825, 1075.224
733.119, 1278.349
734.412, 1237.479
735.705, 1437.617
736.998, 1520.760
738.291, 1705.910
739.584, 1951.066
740.876, 2132.231
742.168, 2297.404
743.460, 2527.585
744.752, 2670.773
746.043, 2828.971
747.334, 2962.832
748.626, 3136.393
749.916, 3173.618
751.207, 3179.854
752.498, 3260.100
753.788, 3177.356
755.078, 2977.624
756.368, 2929.902
757.658, 2786.199
758.947, 2617.521
760.237, 2632.860
761.526, 2369.216
762.815, 2340.597
764.104, 2208.003
765.392, 2172.434
766.680, 2169.908
767.969, 2203.315
769.257, 2329.968
770.544, 2447.559
771.832, 2651.188
773.119, 2934.851
774.406, 3269.540
775.693, 3833.279
776.980, 4275.046
778.267, 5273.850
779.553, 6049.690
780.839, 7091.580
782.125, 8069.508
783.411, 9112.464
784.697, 9239.467
785.982, 9511.495
787.267, 8961.556
788.552, 8312.638
789.837, 7355.739
791.122, 6834.863
792.406, 6224.005
793.690, 5888.167
794.974, 5732.348
796.258, 5629.548
797.542, 5850.769
798.825, 6032.011
800.108, 6547.273
801.391, 7097.554
802.674, 8177.858
803.957, 9226.185
805.239, 10041.532
806.522, 11348.922
807.804, 11826.191
809.085, 12522.981
810.367, 12701.566
811.649, 12399.835
812.930, 12470.682
814.211, 12651.788
815.492, 12906.097
816.772, 13428.136
818.053, 14000.494
819.333, 14961.661
820.613, 16058.952
821.893, 18310.625
823.173, 21094.486
824.452, 25202.910
825.732, 30992.613
827.011, 36548.914
828.290, 42633.617
829.568, 46922.109
830.847, 47613.199
832.125, 46096.906
833.403, 41650.844
834.681, 36322.266
835.959, 32597.348
837.236, 29988.916
838.514, 29225.545
839.791, 29875.711
841.068, 31678.381
842.345, 34302.848
843.621, 38156.285
844.898, 40050.926
846.174, 41032.328
847.450, 41252.262
848.726, 38347.742
850.001, 35543.043
851.277, 32887.395
852.552, 31283.953
853.827, 31607.834
855.102, 33127.848
856.376, 36309.727
857.651, 41323.664
858.925, 46157.641
860.199, 47853.656
861.473, 46491.723
862.746, 42821.828
864.020, 37187.973
865.293, 30387.174
866.566, 25819.410
867.839, 21381.693
869.112, 17853.021
870.384, 15448.390
871.656, 13404.803
872.928, 11535.256
874.200, 10605.755
875.472, 9618.296
876.744, 8728.881
878.015, 8017.515
879.286, 7212.196
880.557, 6434.927
881.828, 5872.705
883.098, 5307.532
884.369, 4769.403
885.639, 4368.320
886.909, 3910.281
888.178, 3582.292
889.448, 3273.347
890.717, 3160.445
891.987, 2759.586
893.256, 2680.772
894.524, 2519.000
895.793, 2295.271
897.061, 2178.586
898.330, 2069.940
899.598, 1997.338
900.865, 1921.778
902.133, 1844.261
903.401, 1776.275
904.668, 1704.239
905.935, 1636.964
907.202, 1559.615
908.468, 1485.309
909.735, 1428.902
911.001, 1433.012
912.267, 1330.857
913.533, 1295.219
914.799, 1279.613
916.064, 1199.828
917.330, 1235.807
918.595, 1204.571
919.860, 1157.917
921.124, 1283.242
922.389, 1218.316
923.653, 1171.710
924.918, 1217.033
926.182, 1170.345
927.445, 1144.157
928.709, 1054.886
929.972, 1046.352
931.236, 992.230
932.499, 939.610
933.761, 895.182
935.024, 785.703
936.286, 802.608
937.549, 749.185
938.811, 706.373
940.073, 744.043
941.334, 730.722
942.596, 661.743
943.857, 723.487
945.118, 694.265
946.379, 703.077
947.640, 764.921
948.900, 875.798
950.161, 898.708
951.421, 1025.649
952.681, 1000.623
953.940, 1131.629
955.200, 1327.724
956.459, 1516.794
957.719, 1864.733
958.978, 2327.573
960.236, 2951.624
961.495, 3828.839
962.753, 5168.692
964.012, 6881.986
965.270, 8882.439
966.527, 11064.755
967.785, 12411.123
969.043, 12698.973
970.300, 11840.229
971.557, 10299.830
972.814, 8764.887
974.071, 7249.598
975.327, 6195.366
976.583, 5029.183
977.840, 4481.243
979.095, 3731.241
980.351, 3096.304
981.607, 2676.780
982.862, 2211.241
984.117, 1874.728
985.372, 1705.994
986.627, 1395.291
987.882, 1330.721
989.136, 1249.858
990.390, 1067.482
991.644, 984.574
992.898, 954.406
994.152, 891.515
995.405, 839.060
996.659, 764.820
997.912, 789.070
999.165, 754.918
1000.417, 802.336
1001.670, 727.650
1002.922, 753.521
1004.174, 682.441
1005.426, 734.427
1006.678, 710.929
1007.930, 681.022
1009.181, 709.780
1010.432, 676.160
1011.683, 726.818
1012.934, 708.318
1014.185, 644.791
1015.435, 678.292
1016.685, 566.922
1017.935, 558.466
1019.185, 530.665
1020.435, 510.887
1021.684, 471.713
1022.934, 419.916
1024.183, 451.993
1025.432, 397.480
1026.680, 513.552
1027.929, 411.342
1029.177, 509.036
1030.425, 490.021
1031.673, 523.677
1032.921, 467.776
1034.169, 465.527
1035.416, 544.081
1036.663, 544.825
1037.911, 451.424
1039.157, 362.199
1040.404, 400.871
1041.650, 373.510
1042.897, 380.676
1044.143, 348.417
1045.389, 296.167
1046.634, 305.694
1047.880, 250.110
1049.125, 274.911
1050.371, 271.302
1051.615, 214.229
1052.860, 191.887
1054.105, 167.869
1055.349, 147.246
1056.593, 127.826
1057.837, 134.365
1059.081, 137.969
1060.325, 11.478
1061.568, 1.883
1062.812, 24.744
1064.055, 76.568
1065.298, 47.023
1066.540, 63.656
1067.783, 115.308
1069.025, 106.005
1070.267, 85.747
1071.509, 129.521
1072.751, 63.334
1073.993, 37.191
1075.234, 57.982
1076.475, 100.879
1077.716, 62.822
1078.957, 55.792
1080.198, 95.790
1081.438, 85.834
1082.679, 86.922
1083.919, 50.055
1085.159, 120.216
1086.398, 35.559
1087.638, 56.675
1088.877, 25.943
1090.116, 36.769
1091.355, 6.525
1092.594, 104.167
1093.833, 43.849
1095.071, 68.523
1096.309, 104.187
1097.547, 141.840
1098.785, 66.482
1100.023, 57.113
1101.260, 42.733
1102.498, 109.391
1103.735, 5.987
1104.972, 43.585
1106.208, 25.847
1107.445, 22.310
1108.681, 55.754
1109.918, 36.702
1111.154, 48.855
1112.389, 23.539
1113.625, 23.011
1114.860, 18.667
1116.096, 49.356
1117.331, 38.958
1118.566, 4.254
1119.800, 52.439
1121.035, 4.393
1122.269, 63.744
1123.503, 102.889
1124.737, 75.074
1125.971, 25.348
1127.205, 25.284
1128.438, 24.274
1129.671, 13.215
1130.904, 4.797
1132.137, 27.892
1133.370, 61.746
1134.602, 14.706
1135.834, 2.498
1137.066, 11.742
1138.298, 46.192
1139.530, 39.066
1140.762, 43.037
1141.993, 4.372
1143.224, 26.237
1144.455, 11.392
1145.686, 33.746
1146.917, 77.929
1148.147, 39.400
1149.377, 46.064
1150.607, 31.685
1151.837, 32.694
1153.067, 32.963
1154.296, 51.050
1155.526, 34.489
1156.755, 46.307
1157.984, 64.695
1159.213, 54.220
1160.441, 63.608
1161.670, 67.745
1162.898, 34.278
1164.126, 64.743
1165.354, 71.713
1166.581, 47.916
1167.809, 126.131
1169.036, 65.127
1170.263, 142.600
1171.490, 59.634
1172.717, 95.511
1173.943, 63.769
1175.170, 42.603
1176.396, 46.594
1177.622, 40.296
1178.848, 51.021
1180.073, 41.702
1181.299, 96.278
1182.524, 61.715
1183.749, 103.435
1184.974, 35.617
1186.199, 108.341
1187.423, 122.341
1188.648, 128.634
1189.872, 88.993
1191.096, 121.477
1192.320, 122.761
1193.543, 159.739
1194.767, 225.011
1195.990, 124.645
1197.213, 226.680
1198.436, 116.637
1199.659, 151.680
1200.881, 147.220
1202.104, 154.905
1203.326, 177.824
1204.548, 189.599
1205.770, 175.960
1206.991, 190.215
1208.213, 156.674
1209.434, 166.338
1210.655, 191.440
1211.876, 186.732
1213.096, 238.224
1214.317, 244.321
1215.537, 262.858
1216.757, 257.689
1217.977, 242.910
1219.197, 209.023
1220.417, 250.006
1221.636, 193.286
1222.855, 217.386
1224.074, 294.182
1225.293, 250.846
1226.512, 283.624
1227.731, 318.124
1228.949, 232.196
1230.167, 246.845
1231.385, 323.510
1232.603, 265.794
1233.820, 258.378
1235.038, 225.356
1236.255, 228.183
1237.472, 229.788
1238.689, 265.223
1239.906, 248.868
1241.122, 294.693
1242.338, 306.094
1243.555, 322.429
1244.771, 269.822
1245.986, 221.240
1247.202, 212.513
1248.417, 188.166
1249.633, 286.133
1250.848, 197.394
1252.063, 250.454
1253.277, 300.754
1254.492, 188.230
1255.706, 302.397
1256.920, 260.535
1258.134, 259.874
1259.348, 179.002
1260.562, 265.920
1261.775, 204.056
1262.988, 156.878
1264.201, 252.690
1265.414, 229.764
1266.627, 225.464
1267.839, 214.846
1269.052, 181.428
1270.264, 168.118
1271.476, 142.619
1272.688, 115.002
1273.899, 188.644
1275.111, 161.105
1276.322, 160.008
1277.533, 131.079
1278.744, 189.997
1279.955, 152.159
1281.165, 187.363
1282.376, 220.856
1283.586, 124.199
1284.796, 164.060
1286.006, 75.466
1287.215, 176.719
1288.425, 158.087
1289.634, 42.201
1290.843, 125.173
1292.052, 98.394
1293.261, 140.015
1294.469, 86.922
1295.678, 89.075
1296.886, 60.671
1298.094, 103.217
1299.302, 1.315
1300.509, 93.724
1301.717, 44.050
1302.924, 85.697
1304.131, 63.702
1305.338, 75.408
1306.545, 93.256
1307.752, 62.153
1308.958, 51.964
1310.164, 129.820
1311.370, 7.555
1312.576, 65.612
1313.782, 95.708
1314.987, 35.095
1316.193, 7.097
1317.398, 95.190
1318.603, 41.852
1319.807, 85.908
1321.012, 56.222
1322.216, 38.610
1323.421, 7.680
1324.625, 22.945
1325.829, 5.622
1327.032, 10.956
1328.236, 48.581
1329.439, 14.764
1330.642, 18.937
1331.845, 17.161
1333.048, 82.335
1334.251, 62.512
1335.453, 42.137
1336.656, 60.141
1337.858, 7.108
1339.060, 51.234
1340.261, 18.543
1341.463, 72.367
1342.664, 81.574
1343.866, 57.216
1345.067, 13.101
1346.267, 114.925
1347.468, 55.744
1348.669, 72.619
1349.869, 75.504
1351.069, 42.294
1352.269, 71.106
1353.469, 55.745
1354.668, 61.386
1355.868, 34.102
1357.067, 31.783
1358.266, 13.629
1359.465, 69.430
1360.664, 153.316
1361.862, 47.103
1363.061, 122.926
1364.259, 76.681
1365.457, 38.438
1366.655, 68.050
1367.852, 37.789
1369.050, 70.505
1370.247, 105.208
1371.444, 71.954
1372.641, 53.664
1373.838, 107.342
1375.035, 114.304
1376.231, 112.379
1377.427, 141.203
1378.623, 114.758
1379.819, 122.656
1381.015, 7.776
1382.211, 105.232
1383.406, 54.663
1384.601, 26.078
1385.796, 94.778
1386.991, 102.428
1388.185, 80.025
1389.380, 65.517
1390.574, 91.993
1391.768, 46.408
1392.962, 93.870
1394.156, 55.240
1395.350, 135.664
1396.543, 80.951
1397.736, 64.366
1398.929, 87.121
1400.122, 55.521
1401.315, 94.689
1402.507, 40.780
1403.700, 50.832
1404.892, 39.946
1406.084, 119.938
1407.276, 19.541
1408.467, 77.699
1409.659, 89.657
1410.850, 60.421
1412.041, 127.819
1413.232, 65.007
1414.423, 121.394
1415.614, 75.202
1416.804, 33.158
1417.994, 60.202
1419.184, 190.314
1420.374, 57.877
1421.564, 163.451
1422.753, 140.172
1423.943, 77.747
1425.132, 11.003
1426.321, 139.917
1427.510, 120.812
1428.698, 89.398
1429.887, 22.010
1431.075, 81.770
1432.263, 31.095
1433.451, 18.399
1434.639, 119.284
1435.827, 85.909
1437.014, 11.116
1438.201, 225.399
1439.388, 197.742
1440.575, 87.227
1441.762, 78.326
1442.949, 39.502
1444.135, 107.445
1445.321, 129.121
1446.507, 125.324
1447.693, 67.400
1448.879, 86.918
1450.064, 50.107
1451.250, 120.456
1452.435, 15.563
1453.620, 121.682
1454.805, 138.248
1455.989, 34.890
1457.174, 95.659
1458.358, 50.933
1459.542, 166.079
1460.726, 145.262
1461.910, 83.751
1463.093, 92.833
1464.277, 98.845
1465.460, 76.810
1466.643, 130.985
1467.826, 73.026
1469.009, 133.780
1470.191, 143.641
1471.373, 117.626
1472.556, 223.665
1473.738, 112.392
1474.919, 78.505
1476.101, 209.202
1477.283, 122.408
1478.464, 112.991
1479.645, 114.669
1480.826, 146.125
1482.007, 22.579
1483.187, 162.693
1484.368, 86.790
1485.548, 144.533
1486.728, 71.593
1487.908, 56.636
1489.088, 82.481
1490.268, 50.926
