##NAMES=Clinozoisite
##RRUFFID=R040085
##IDEAL CHEMISTRY=Ca_2_Al_3_(Si_2_O_7_)(SiO_4_)O(OH)
##LOCALITY=Alamos, Sonora, Mexico
##OWNER=RRUFF
##SOURCE=University of Arizona Mineral Museum
##DESCRIPTION=Divergent aggregate of red thin prismatic crystals
##STATUS=The identification of this mineral has been confirmed by X-ray diffraction and chemical analysis
##URL=rruff.info/R040085
##MEASURED CHEMISTRY=Ca_2.03_(Al_0.90_Fe_0.13_)_3_(Si_1.00_O_4_)(Si_2.00_O_7_)O(OH)
##PIN_ID=M00391
##ORIENTATION=Laser parallel to c* (0 0 1). Fiducial mark perpendicular to laser is parallel to a [1 0 0]
185.6220, 0.0000000E+00
186.8450, 152.5293
188.0670, 295.2832
189.2900, 27.19727
190.5120, 214.7637
191.7340, 93.01562
192.9560, 92.70117
194.1780, 179.8438
195.4000, 249.9824
196.6220, 62.98438
197.8430, 33.92969
199.0640, 222.1484
200.2860, 236.1797
201.5070, 530.6172
202.7270, 385.0859
203.9480, 556.2266
205.1690, 675.7246
206.3890, 592.2988
207.6090, 823.7129
208.8290, 1049.762
210.0490, 916.3145
211.2690, 1128.490
212.4890, 1361.307
213.7080, 1370.561
214.9280, 1553.453
216.1470, 1565.186
217.3660, 1690.240
218.5850, 1773.254
219.8030, 1702.105
221.0220, 1974.693
222.2400, 1927.936
223.4590, 1964.748
224.6770, 2293.059
225.8950, 2731.814
227.1120, 2592.971
228.3300, 3148.498
229.5480, 3586.365
230.7650, 3862.551
231.9820, 4296.035
233.1990, 4216.965
234.4160, 4461.355
235.6330, 4675.473
236.8490, 4260.064
238.0660, 4198.934
239.2820, 3667.666
240.4980, 3670.277
241.7140, 3163.453
242.9300, 3025.324
244.1460, 3057.373
245.3610, 3009.193
246.5770, 3016.156
247.7920, 3082.229
249.0070, 3101.479
250.2220, 3098.572
251.4370, 3189.523
252.6510, 2873.344
253.8660, 2542.049
255.0800, 2724.645
256.2940, 2297.146
257.5080, 2398.561
258.7220, 2412.869
259.9360, 2105.992
261.1490, 1628.934
262.3630, 1428.760
263.5760, 1294.508
264.7890, 1339.199
266.0020, 1706.854
267.2150, 1641.482
268.4270, 1916.105
269.6400, 1774.729
270.8520, 2357.361
272.0640, 2081.012
273.2760, 2271.686
274.4880, 2352.385
275.7000, 2053.121
276.9120, 1749.891
278.1230, 1487.703
279.3340, 1308.557
280.5450, 945.2930
281.7560, 983.8281
282.9670, 862.8672
284.1780, 700.0996
285.3880, 547.4492
286.5980, 844.0957
287.8090, 991.7715
289.0190, 997.0371
290.2290, 886.7617
291.4380, 937.5781
292.6480, 714.4746
293.8570, 721.2168
295.0670, 768.5234
296.2760, 676.8770
297.4850, 880.7285
298.6930, 995.1152
299.9020, 925.6562
301.1110, 1149.887
302.3190, 1070.119
303.5270, 1078.445
304.7350, 1345.863
305.9430, 1532.373
307.1510, 1636.969
308.3580, 1736.646
309.5660, 1865.393
310.7730, 1637.203
311.9800, 1818.084
313.1870, 1671.033
314.3940, 1806.047
315.6010, 1777.119
316.8070, 1652.250
318.0130, 1313.438
319.2200, 1270.688
320.4260, 938.9980
321.6310, 1085.371
322.8370, 1165.809
324.0430, 1118.312
325.2480, 1254.887
326.4540, 1572.525
327.6590, 1452.234
328.8640, 1639.016
330.0680, 2030.871
331.2730, 2484.746
332.4780, 2865.781
333.6820, 3279.834
334.8860, 3541.615
336.0900, 4025.721
337.2940, 4519.250
338.4980, 5269.152
339.7010, 5660.391
340.9050, 6115.930
342.1080, 6918.742
343.3110, 7345.805
344.5140, 8271.098
345.7170, 9067.602
346.9200, 9973.305
348.1220, 10579.19
349.3240, 10792.24
350.5270, 11319.45
351.7290, 10889.81
352.9310, 10455.31
354.1320, 9466.945
355.3340, 8667.703
356.5350, 7369.578
357.7370, 6288.562
358.9380, 5200.656
360.1390, 4179.844
361.3400, 3572.125
362.5400, 2901.492
363.7410, 2152.941
364.9410, 1794.469
366.1410, 1534.074
367.3410, 1364.750
368.5410, 842.4961
369.7410, 593.3086
370.9400, 433.1914
372.1400, 79.13672
373.3390, 21.85547
374.5380, 99.80078
375.7370, 211.7070
376.9360, 145.6094
378.1350, 82.49219
379.3330, 157.6133
380.5310, 111.1602
381.7300, 274.0508
382.9280, 168.9414
384.1260, 315.8359
385.3230, 446.7852
386.5210, 358.8125
387.7180, 302.9062
388.9160, 72.05469
390.1130, 14.76172
391.3100, 311.6680
392.5060, 278.5586
393.7030, 453.4766
394.9000, 532.4180
396.0960, 499.3828
397.2920, 763.3750
398.4880, 569.3984
399.6840, 628.4492
400.8800, 513.5195
402.0750, 270.6289
403.2710, 326.7617
404.4660, 67.07422
405.6610, 108.8984
406.8560, 110.7227
408.0510, 250.5469
409.2450, 316.3984
410.4400, 397.3047
411.6340, 294.7891
412.8280, 167.1875
414.0220, 8.710938
415.2160, 370.7188
416.4100, 578.7578
417.6030, 1069.836
418.7970, 1444.945
419.9900, 1957.090
421.1830, 2523.270
422.3760, 2957.480
423.5690, 3334.723
424.7610, 4028.945
425.9540, 4142.070
427.1460, 4359.141
428.3380, 4323.102
429.5300, 4162.930
430.7220, 3866.516
431.9140, 3698.012
433.1050, 3726.539
434.2970, 3814.113
435.4880, 3598.734
436.6790, 3773.398
437.8700, 4063.105
439.0610, 4372.855
440.2510, 4699.613
441.4420, 5109.289
442.6320, 5717.824
443.8220, 6328.289
445.0120, 7057.816
446.2020, 7983.391
447.3910, 8491.012
448.5810, 9197.688
449.7700, 9724.418
450.9600, 9874.207
452.1490, 10204.11
453.3370, 10034.07
454.5260, 9726.141
455.7150, 9104.297
456.9030, 8403.535
458.0910, 8296.867
459.2800, 7734.293
460.4670, 7359.805
461.6550, 6958.387
462.8430, 6846.008
464.0300, 6496.434
465.2180, 5953.430
466.4050, 6086.289
467.5920, 5926.262
468.7790, 5899.316
469.9650, 5953.453
471.1520, 5781.660
472.3380, 5621.945
473.5250, 5812.289
474.7110, 5559.730
475.8970, 5602.312
477.0820, 5371.961
478.2680, 5408.742
479.4540, 5047.641
480.6390, 4955.582
481.8240, 4795.582
483.0090, 4672.648
484.1940, 4334.762
485.3780, 4036.922
486.5630, 3818.148
487.7470, 3396.414
488.9320, 3258.723
490.1160, 2935.074
491.3000, 2585.457
492.4830, 2446.883
493.6670, 2492.344
494.8500, 2212.852
496.0340, 2371.387
497.2170, 2508.035
498.4000, 2639.719
499.5820, 2967.438
500.7650, 2714.215
501.9480, 3223.027
503.1300, 3497.867
504.3120, 3282.750
505.4940, 3560.664
506.6760, 3447.660
507.8580, 3460.691
509.0390, 3467.762
510.2210, 3138.930
511.4020, 3075.129
512.5830, 2974.359
513.7640, 2770.672
514.9450, 2878.008
516.1250, 2731.688
517.3060, 2563.652
518.4860, 2625.770
519.6660, 2410.414
520.8460, 2369.223
522.0260, 1868.242
523.2060, 1798.594
524.3850, 1442.254
525.5650, 1407.625
526.7440, 1337.992
527.9230, 1165.707
529.1020, 797.5742
530.2810, 816.6445
531.4590, 541.9766
532.6380, 470.3047
533.8160, 447.1094
534.9940, 383.9414
536.1720, 240.8086
537.3500, 238.7031
538.5270, 267.4336
539.7050, 172.5781
540.8820, 429.5625
542.0590, 522.5703
543.2360, 626.6094
544.4130, 481.6797
545.5900, 696.7773
546.7660, 487.5234
547.9430, 748.1836
549.1190, 731.7695
550.2950, 1047.852
551.4710, 1003.312
552.6470, 1258.055
553.8220, 1635.785
554.9980, 1954.480
556.1730, 2291.977
557.3480, 2586.367
558.5230, 3359.797
559.6980, 4157.246
560.8730, 5045.727
562.0470, 6499.234
563.2220, 7996.781
564.3960, 10320.34
565.5700, 12375.95
566.7440, 14713.57
567.9170, 17013.23
569.0910, 19342.91
570.2640, 19930.62
571.4380, 19356.37
572.6110, 18022.14
573.7840, 16085.95
574.9570, 13852.78
576.1290, 11166.65
577.3020, 9055.547
578.4740, 7317.473
579.6460, 6000.434
580.8180, 5034.246
581.9900, 5029.262
583.1620, 4504.711
584.3330, 4283.332
585.5040, 4659.664
586.6760, 4846.797
587.8470, 5078.957
589.0180, 5564.691
590.1880, 5971.102
591.3590, 6259.176
592.5290, 7044.789
593.7000, 7565.535
594.8700, 8447.445
596.0400, 8869.215
597.2090, 9312.047
598.3790, 10146.16
599.5490, 10871.22
600.7180, 11437.46
601.8870, 12003.26
603.0560, 12281.21
604.2250, 12243.18
605.3940, 12182.05
606.5620, 11602.67
607.7300, 10863.26
608.8990, 9941.602
610.0670, 8663.609
611.2350, 7763.051
612.4020, 6973.887
613.5700, 6062.211
614.7370, 5369.336
615.9050, 5068.168
617.0720, 4296.242
618.2390, 3983.059
619.4060, 3492.051
620.5720, 3419.129
621.7390, 3241.320
622.9050, 2913.730
624.0710, 2738.809
625.2370, 2447.945
626.4030, 2269.652
627.5690, 1995.312
628.7340, 1676.977
629.9000, 1657.641
631.0650, 1439.309
632.2300, 1414.137
633.3950, 1277.957
634.5600, 1364.453
635.7240, 1406.211
636.8890, 1048.664
638.0530, 1217.328
639.2170, 1302.531
640.3810, 1204.266
641.5450, 1462.922
642.7080, 1477.574
643.8720, 1757.738
645.0350, 1889.383
646.1980, 1869.492
647.3610, 1997.340
648.5240, 2060.809
649.6870, 2171.309
650.8490, 2289.781
652.0120, 2367.586
653.1740, 2586.324
654.3360, 2595.914
655.4980, 2846.738
656.6600, 3026.648
657.8210, 2657.254
658.9830, 2330.891
660.1440, 2047.559
661.3050, 2085.672
662.4660, 2043.383
663.6270, 1789.113
664.7870, 1553.898
665.9480, 1513.707
667.1080, 1276.879
668.2680, 1328.566
669.4280, 1206.121
670.5880, 1211.734
671.7480, 1063.859
672.9070, 1008.977
674.0670, 920.0781
675.2260, 1081.168
676.3850, 1031.242
677.5440, 1317.305
678.7030, 957.3516
679.8610, 985.3828
681.0200, 1100.402
682.1780, 987.4062
683.3360, 1117.395
684.4940, 1137.367
685.6520, 1082.324
686.8090, 1320.289
687.9670, 1347.262
689.1240, 1109.258
690.2810, 1091.297
691.4380, 1175.004
692.5950, 1200.578
693.7520, 1372.820
694.9080, 1508.090
696.0650, 1528.344
697.2210, 1701.582
698.3770, 1735.805
699.5330, 1840.004
700.6880, 1847.188
701.8440, 2052.352
702.9990, 1631.492
704.1550, 1766.621
705.3100, 1283.723
706.4650, 1540.809
707.6190, 1222.875
708.7740, 796.9180
709.9290, 852.9414
711.0830, 726.9453
712.2370, 754.9258
713.3910, 473.8867
714.5450, 676.8242
715.6980, 307.7383
716.8520, 382.6367
718.0050, 207.5078
719.1580, 75.64062
720.3110, 265.1211
721.4640, 83.14453
722.6170, 116.4922
723.7700, 14.95703
724.9220, 111.5195
726.0740, 94.06641
727.2260, 14.40625
728.3780, 69.79297
729.5300, 20.84766
730.6810, 187.5547
731.8330, 2.589844
732.9840, 174.3203
734.1350, 91.37500
735.2860, 91.53125
736.4370, 127.1133
737.5880, 141.1797
738.7380, 95.68750
739.8880, 8.304688
741.0390, 59.01562
742.1890, 59.30859
743.3380, 55.41797
744.4880, 210.2227
745.6380, 193.1836
746.7870, 93.30469
747.9360, 103.5312
749.0850, 30.46094
750.2340, 84.28516
751.3830, 21.20703
752.5310, 120.3555
753.6800, 243.0391
754.8280, 8.093750
755.9760, 210.8203
757.1240, 165.9062
758.2720, 65.86719
759.4190, 59.60156
760.5670, 29.68750
761.7140, 65.94922
762.8610, 178.5508
764.0080, 42.87109
765.1550, 151.6328
766.3020, 348.1094
767.4480, 128.5586
768.5950, 334.9844
769.7410, 81.38672
770.8870, 82.75781
772.0330, 41.10156
773.1780, 88.41406
774.3240, 225.3008
775.4690, 161.8086
776.6140, 51.89844
777.7590, 40.03906
778.9040, 224.9414
780.0490, 353.9023
781.1940, 15.83984
782.3380, 274.7344
783.4820, 144.3984
784.6260, 20.34375
785.7700, 31.04688
786.9140, 216.2812
788.0580, 33.22656
789.2010, 241.6992
790.3450, 147.8477
791.4880, 171.4766
792.6310, 57.78125
793.7730, 49.06250
794.9160, 90.30859
796.0590, 165.5391
797.2010, 134.7500
798.3430, 37.92969
799.4850, 122.0859
800.6270, 85.21875
801.7690, 214.3320
802.9100, 134.4062
804.0520, 110.4844
805.1930, 86.52734
806.3340, 95.54688
807.4750, 250.5430
808.6160, 247.5234
809.7560, 341.4727
810.8970, 509.3984
812.0370, 286.3086
813.1770, 441.1914
814.3170, 198.0508
815.4570, 449.8906
816.5960, 610.7109
817.7360, 648.5078
818.8750, 526.2812
820.0140, 750.0312
821.1530, 651.7617
822.2920, 728.4727
823.4310, 876.1641
824.5690, 801.8320
825.7070, 918.4766
826.8460, 996.1055
827.9840, 1219.711
829.1220, 1192.297
830.2590, 1252.859
831.3970, 1091.406
832.5340, 1555.926
833.6710, 1320.422
834.8080, 1253.902
835.9450, 1785.359
837.0820, 1674.797
838.2190, 1751.215
839.3550, 1385.613
840.4910, 1760.988
841.6270, 1433.348
842.7630, 1568.680
843.8990, 1647.000
845.0350, 1753.297
846.1700, 1790.574
847.3060, 1885.840
848.4410, 2023.082
849.5760, 1949.301
850.7100, 2050.793
851.8450, 1682.699
852.9800, 2182.867
854.1140, 2087.023
855.2480, 2284.156
856.3820, 2490.453
857.5160, 2506.555
858.6500, 2647.242
859.7830, 2899.762
860.9170, 2861.590
862.0500, 3059.637
863.1830, 3038.664
864.3160, 2948.133
865.4480, 2951.941
866.5810, 3158.098
867.7130, 3544.734
868.8460, 3507.258
869.9780, 3802.641
871.1100, 3906.238
872.2410, 4051.785
873.3730, 4679.066
874.5050, 4946.449
875.6360, 5486.820
876.7670, 5650.480
877.8980, 6075.043
879.0290, 6242.281
880.1590, 6365.648
881.2900, 6354.902
882.4200, 6647.844
883.5500, 6366.035
884.6800, 6358.594
885.8100, 6548.727
886.9400, 6506.512
888.0690, 6548.430
889.1990, 6431.523
890.3280, 6470.477
891.4570, 6552.199
892.5860, 6395.195
893.7140, 6930.023
894.8430, 7063.773
895.9710, 7591.465
897.1000, 8303.980
898.2280, 8632.844
899.3560, 9794.188
900.4830, 10463.01
901.6110, 11429.39
902.7380, 12660.78
903.8660, 13676.18
904.9930, 15257.59
906.1200, 16363.84
907.2460, 17736.12
908.3730, 19371.73
909.5000, 20586.10
910.6260, 21496.78
911.7520, 22318.26
912.8780, 22641.21
914.0040, 22518.63
915.1290, 22195.18
916.2550, 21740.73
917.3800, 21015.79
918.5050, 20218.39
919.6300, 19141.52
920.7550, 18475.92
921.8800, 17535.71
923.0040, 16783.20
924.1290, 15846.52
925.2530, 15343.32
926.3770, 14677.68
927.5010, 13938.51
928.6250, 13369.12
929.7480, 12655.66
930.8720, 12041.55
931.9950, 11021.47
933.1180, 10141.40
934.2410, 9339.938
935.3640, 8610.922
936.4860, 7838.707
937.6090, 7125.965
938.7310, 6417.078
939.8530, 5817.242
940.9750, 5136.465
942.0970, 4726.711
943.2180, 4210.984
944.3400, 3951.277
945.4610, 3538.590
946.5820, 3008.930
947.7030, 2798.289
948.8240, 2587.664
949.9450, 2698.070
951.0650, 2741.492
952.1860, 2499.941
953.3060, 2715.406
954.4260, 2281.898
955.5460, 2440.414
956.6650, 2560.957
957.7850, 2600.527
958.9040, 2449.117
960.0230, 2466.754
961.1420, 2454.367
962.2610, 2262.027
963.3800, 2320.707
964.4990, 2146.418
965.6170, 2285.145
966.7350, 2194.898
967.8530, 2260.680
968.9710, 2383.934
970.0890, 2302.312
971.2070, 2633.160
972.3240, 2630.035
973.4410, 2712.934
974.5580, 3249.859
975.6750, 3391.812
976.7920, 3816.793
977.9090, 4569.789
979.0250, 4785.820
980.1410, 5366.879
981.2580, 6078.957
982.3740, 6170.062
983.4890, 6276.195
984.6050, 6503.355
985.7200, 6305.539
986.8360, 5700.750
987.9510, 5327.984
989.0660, 4560.246
990.1810, 4208.535
991.2950, 4016.887
992.4100, 3862.262
993.5240, 3263.707
994.6390, 2143.223
995.7530, 1752.781
996.8660, 1790.371
997.9800, 1307.988
999.0940, 1540.641
1000.207, 1273.602
1001.320, 1272.328
1002.433, 898.1484
1003.546, 1069.008
1004.659, 490.0977
1005.772, 602.1055
1006.884, 370.2344
1007.996, 396.3242
1009.108, 19.44922
1010.220, 111.8398
1011.332, 81.82422
1012.444, 113.4727
1013.555, 114.1094
1014.666, 138.7031
1015.777, 43.78516
1016.888, 157.7227
1017.999, 6.355469
1019.110, 310.1172
1020.220, 270.5000
1021.331, 251.8164
1022.441, 389.9219
1023.551, 578.2773
1024.661, 642.3438
1025.770, 592.4688
1026.880, 604.6641
1027.989, 525.9414
1029.098, 666.6953
1030.207, 805.6641
1031.316, 552.0859
1032.425, 940.4375
1033.533, 1137.000
1034.642, 983.8633
1035.750, 1158.371
1036.858, 1244.137
1037.966, 1288.688
1039.073, 1125.258
1040.181, 1391.852
1041.288, 1322.461
1042.396, 1617.770
1043.503, 1772.426
1044.610, 1693.457
1045.716, 1816.227
1046.823, 2132.020
1047.929, 2188.215
1049.036, 1860.070
1050.142, 2050.863
1051.248, 1885.762
1052.353, 1302.008
1053.459, 1465.996
1054.564, 1081.008
1055.670, 1143.738
1056.775, 774.8594
1057.880, 694.5352
1058.985, 918.6914
1060.089, 765.0703
1061.194, 450.3125
1062.298, 483.1992
1063.402, 241.5430
1064.506, 513.8320
1065.610, 493.3242
1066.713, 305.6289
1067.817, 139.9648
1068.920, 457.8359
1070.023, 630.3984
1071.126, 657.2109
1072.229, 394.7656
1073.332, 528.8438
1074.435, 644.8828
1075.537, 881.3008
1076.639, 895.9727
1077.741, 1138.414
1078.843, 1387.328
1079.945, 1190.039
1081.046, 1824.512
1082.148, 1439.992
1083.249, 2014.477
1084.350, 2396.977
1085.451, 2786.738
1086.551, 2888.250
1087.652, 3420.969
1088.752, 3840.984
1089.853, 4790.980
1090.953, 5504.527
1092.053, 5732.078
1093.152, 5742.637
1094.252, 5401.195
1095.351, 5146.770
1096.451, 4678.348
1097.550, 4184.934
1098.649, 3415.957
1099.748, 2822.555
1100.846, 2262.230
1101.945, 1691.836
1103.043, 1517.449
1104.141, 1390.066
1105.239, 1241.148
1106.337, 1075.664
1107.434, 871.4023
1108.532, 747.5078
1109.629, 531.5664
1110.726, 359.2109
1111.823, 426.8555
1112.920, 533.9375
1114.017, 402.5859
1115.113, 533.2852
1116.210, 296.9414
1117.306, 553.1914
1118.402, 543.9062
1119.498, 361.5742
1120.593, 210.2422
1121.689, 67.11328
1122.784, 27.78906
1123.879, 72.70312
1124.974, 170.3555
1126.069, 280.3828
1127.164, 278.1406
1128.259, 266.2305
1129.353, 202.5234
1130.447, 229.3516
1131.541, 0.7734380
1132.635, 75.88672
1133.729, 169.5469
1134.822, 55.80078
1135.916, 232.1758
1137.009, 90.32031
1138.102, 9.816406
1139.195, 65.69531
1140.288, 322.7539
1141.380, 98.02734
1142.473, 66.46094
1143.565, 256.8477
1144.657, 157.5430
1145.749, 212.2148
1146.841, 19.26172
1147.932, 2.664063
1149.024, 130.0508
1150.115, 28.58203
1151.206, 116.1602
1152.297, 335.8164
1153.388, 10.95312
1154.479, 93.49609
1155.569, 232.9805
1156.659, 52.14844
1157.750, 158.1953
1158.839, 126.2305
1159.929, 132.4648
1161.019, 86.54297
1162.108, 63.31250
1163.198, 167.7422
1164.287, 53.97656
1165.376, 45.31641
1166.465, 401.3281
1167.553, 33.96094
1168.642, 96.57812
1169.730, 494.1797
1170.818, 304.7656
1171.906, 217.3359
1172.994, 22.89062
1174.082, 470.4180
1175.170, 41.92578
1176.257, 114.4219
1177.344, 192.8984
1178.431, 49.64062
1179.518, 173.7500
1180.605, 26.12109
1181.691, 197.4648
1182.778, 47.79297
1183.864, 383.0977
1184.950, 279.3828
1186.036, 160.3555
1187.122, 229.7812
1188.207, 172.1016
1189.292, 277.8789
1190.378, 105.8398
1191.463, 191.7773
1192.548, 22.69531
1193.632, 132.5781
1194.717, 312.4375
1195.801, 108.2773
1196.886, 19.08984
1197.970, 160.8633
1199.054, 30.61328
1200.137, 39.32812
1201.221, 161.9922
1202.305, 61.44922
1203.388, 84.99219
1204.471, 32.36328
1205.554, 288.6836
1206.637, 114.9766
1207.719, 235.9023
1208.802, 76.34766
1209.884, 119.8984
1210.966, 238.1602
1212.048, 386.3281
1213.130, 459.4766
1214.212, 432.7539
1215.293, 126.7070
1216.374, 289.7812
1217.456, 144.8320
1218.536, 45.85938
1219.617, 91.84766
1220.698, 471.8047
1221.778, 203.7461
1222.859, 355.6523
1223.939, 325.5391
1225.019, 347.4023
1226.099, 211.2422
1227.178, 531.0547
1228.258, 105.8438
1229.337, 451.0273
1230.417, 191.7578
1231.496, 568.5781
1232.574, 418.2578
1233.653, 312.2148
1234.732, 109.9258
1235.810, 116.5273
1236.888, 270.4492
1237.966, 210.3242
1239.044, 121.8516
1240.122, 458.3438
1241.199, 437.8125
1242.277, 122.2539
1243.354, 340.6641
1244.431, 217.1523
1245.508, 388.5078
1246.585, 106.3867
1247.661, 218.6953
1248.738, 508.9766
1249.814, 337.6484
1250.890, 187.1680
1251.966, 435.3672
1253.042, 180.5391
1254.117, 51.67969
1255.193, 155.7734
1256.268, 141.8672
1257.343, 219.9219
1258.418, 112.9648
1259.493, 205.7617
1260.567, 194.1094
1261.642, 326.0781
1262.716, 337.0117
1263.790, 406.9688
1264.864, 300.3711
1265.938, 295.0781
1267.011, 347.5078
1268.085, 334.2539
1269.158, 378.0859
1270.231, 245.8359
1271.304, 293.5547
1272.377, 355.2461
1273.450, 370.2656
1274.522, 436.3984
1275.594, 373.9531
1276.666, 405.9023
1277.738, 617.1367
1278.810, 320.2891
1279.882, 262.9414
1280.953, 431.0938
1282.025, 85.34375
1283.096, 253.5586
1284.167, 84.43359
1285.238, 196.9141
1286.308, 224.7578
1287.379, 556.7109
1288.449, 49.98438
1289.519, 329.7734
1290.589, 338.5000
1291.659, 17.16406
1292.729, 349.2656
1293.798, 384.4297
1294.868, 257.1328
1295.937, 218.1914
1297.006, 263.3242
1298.075, 385.9961
1299.143, 370.9961
1300.212, 519.0547
1301.280, 619.0039
1302.348, 308.2578
1303.416, 398.1641
1304.484, 458.7617
1305.552, 367.6211
1306.620, 406.4609
1307.687, 396.9141
1308.754, 481.7070
1309.821, 473.5586
1310.888, 249.3047
1311.955, 706.6953
1313.021, 809.3945
1314.088, 461.0820
1315.154, 559.0547
1316.220, 316.7031
1317.286, 312.8984
1318.352, 756.4062
1319.417, 438.8359
1320.483, 449.3984
1321.548, 697.3086
1322.613, 458.7578
1323.678, 438.2422
1324.743, 279.5195
1325.807, 245.9766
1326.872, 277.4141
1327.936, 308.3086
1329.000, 240.5000
1330.064, 269.4453
1331.128, 214.6406
1332.191, 424.3047
1333.255, 316.0078
1334.318, 357.3281
1335.381, 14.39062
1336.444, 108.6836
1337.507, 76.49219
1338.569, 140.5000
1339.632, 205.7461
1340.694, 217.8438
1341.756, 361.2031
1342.818, 290.4023
1343.880, 419.3359
1344.941, 456.5117
1346.003, 214.4727
1347.064, 411.1289
1348.125, 238.8086
1349.186, 413.9297
1350.247, 425.0352
1351.308, 308.1172
