##NAMES=Clinozoisite
##RRUFFID=R060284
##IDEAL CHEMISTRY=Ca_2_Al_3_(Si_2_O_7_)(SiO_4_)O(OH)
##LOCALITY=near Zagi Mountain, Khaffor Dehri, North-West Frontier Province, Pakistan
##OWNER=RRUFF
##SOURCE=Herb Obodda
##DESCRIPTION=Greenish-brown fragment of a prismatic crystal
##STATUS=The identification of this mineral has been confirmed by X-ray diffraction and chemical analysis
##URL=rruff.info/R060284
##MEASURED CHEMISTRY=Ca_2.00_(Al_0.90_Fe^3+^_0.10_)_3_(Si_1.00_O_4_)(Si_2.00_O_7_)O(OH)
##PIN_ID=L00766
##ORIENTATION=Laser parallel to b* (0 1 0). Fiducial mark perpendicular to laser is parallel to c [0 0 1]
118.1340, 0.0000000E+00
119.3650, 23.02051
120.5960, 243.5146
121.8270, 440.8174
123.0580, 803.0850
124.2880, 1077.410
125.5190, 1434.316
126.7490, 1870.982
127.9790, 2641.414
129.2090, 3263.359
130.4390, 4148.820
131.6680, 4996.323
132.8980, 5717.626
134.1270, 7077.164
135.3560, 8148.441
136.5850, 9279.446
137.8140, 10131.88
139.0430, 10898.78
140.2710, 11205.28
141.5000, 11453.18
142.7280, 11235.51
143.9560, 10919.73
145.1840, 10577.15
146.4120, 9994.664
147.6390, 9819.894
148.8670, 10042.66
150.0940, 10140.32
151.3210, 10292.78
152.5490, 10427.91
153.7750, 10132.89
155.0020, 9942.447
156.2290, 9343.854
157.4550, 8821.241
158.6810, 8147.896
159.9080, 7757.906
161.1340, 6896.918
162.3590, 6304.870
163.5850, 5846.693
164.8110, 5213.308
166.0360, 4695.639
167.2610, 3840.619
168.4860, 3210.191
169.7110, 2569.289
170.9360, 1936.787
172.1610, 1310.539
173.3850, 840.4668
174.6100, 505.6631
175.8340, 87.50098
177.0580, 91.52051
178.2820, 265.4258
179.5050, 486.0693
180.7290, 435.9492
181.9520, 490.6777
183.1760, 451.0947
184.3990, 402.9805
185.6220, 272.1436
186.8450, 29.65527
188.0670, 67.51953
189.2900, 331.4053
190.5120, 384.0293
191.7340, 677.6436
192.9560, 817.9062
194.1780, 1051.840
195.4000, 1282.409
196.6220, 1518.255
197.8430, 1776.241
199.0640, 2075.379
200.2860, 2370.909
201.5070, 2705.756
202.7270, 2910.857
203.9480, 3252.166
205.1690, 3537.646
206.3890, 3887.244
207.6090, 4348.846
208.8290, 4637.338
210.0490, 4903.670
211.2690, 5298.842
212.4890, 5426.865
213.7080, 5601.752
214.9280, 5841.517
216.1470, 5868.170
217.3660, 5852.724
218.5850, 5998.127
219.8030, 6038.201
221.0220, 6002.570
222.2400, 6019.754
223.4590, 6228.558
224.6770, 6208.064
225.8950, 6489.626
227.1120, 6484.742
228.3300, 6631.682
229.5480, 6903.593
230.7650, 6944.393
231.9820, 6940.744
233.1990, 6901.549
234.4160, 6955.646
235.6330, 6881.865
236.8490, 6846.211
238.0660, 6863.684
239.2820, 6828.283
240.4980, 6977.962
241.7140, 7659.533
242.9300, 8215.803
244.1460, 9262.989
245.3610, 10446.75
246.5770, 11438.14
247.7920, 12965.56
249.0070, 14285.70
250.2220, 15399.65
251.4370, 16362.04
252.6510, 16765.62
253.8660, 16891.39
255.0800, 16507.33
256.2940, 15903.44
257.5080, 15033.69
258.7220, 14249.10
259.9360, 12782.67
261.1490, 11540.40
262.3630, 10809.29
263.5760, 10276.34
264.7890, 10199.36
266.0020, 10544.85
267.2150, 11241.25
268.4270, 12094.83
269.6400, 13220.31
270.8520, 14567.52
272.0640, 16308.34
273.2760, 17318.64
274.4880, 17783.32
275.7000, 17737.34
276.9120, 16708.70
278.1230, 15235.45
279.3340, 13323.51
280.5450, 11060.66
281.7560, 8828.741
282.9670, 6939.814
284.1780, 5280.992
285.3880, 4275.391
286.5980, 3523.116
287.8090, 2846.248
289.0190, 2502.859
290.2290, 2306.010
291.4380, 2196.576
292.6480, 2063.242
293.8570, 2067.276
295.0670, 2039.948
296.2760, 2245.274
297.4850, 2264.537
298.6930, 2544.512
299.9020, 2607.926
301.1110, 2736.115
302.3190, 3003.277
303.5270, 3077.515
304.7350, 3149.889
305.9430, 3331.406
307.1510, 3463.061
308.3580, 3619.852
309.5660, 3960.771
310.7730, 4040.822
311.9800, 4042.000
313.1870, 4027.304
314.3940, 3948.731
315.6010, 3784.279
316.8070, 3449.735
318.0130, 3220.958
319.2200, 3025.859
320.4260, 2919.981
321.6310, 2797.976
322.8370, 2734.542
324.0430, 2601.244
325.2480, 2597.822
326.4540, 2406.197
327.6590, 2477.658
328.8640, 2397.990
330.0680, 2331.667
331.2730, 2027.897
332.4780, 1745.706
333.6820, 1451.584
334.8860, 1225.417
336.0900, 868.7451
337.2940, 597.1240
338.4980, 441.4404
339.7010, 260.9854
340.9050, 56.10449
342.1080, 104.6016
343.3110, 45.06641
344.5140, 143.9893
345.7170, 21.15234
346.9200, 105.3838
348.1220, 222.7158
349.3240, 393.1494
350.5270, 485.6816
351.7290, 682.3164
352.9310, 828.0537
354.1320, 812.8945
355.3340, 754.8428
356.5350, 682.8975
357.7370, 417.0615
358.9380, 85.33691
360.1390, 72.27637
361.3400, 139.7920
362.5400, 310.2246
363.7410, 500.6006
364.9410, 579.9551
366.1410, 641.2988
367.3410, 724.6406
368.5410, 798.9873
369.7410, 832.3535
370.9400, 883.7383
372.1400, 878.1514
373.3390, 890.5879
374.5380, 874.0488
375.7370, 752.5723
376.9360, 719.1572
378.1350, 367.7324
379.3330, 206.2148
380.5310, 2.423828
381.7300, 493.2129
382.9280, 762.1592
384.1260, 1449.263
385.3230, 1825.466
386.5210, 2739.640
387.7180, 3375.695
388.9160, 4290.562
390.1130, 5289.201
391.3100, 5879.609
392.5060, 6762.836
393.7030, 7620.018
394.9000, 8456.337
396.0960, 8635.833
397.2920, 8920.511
398.4880, 8736.370
399.6840, 8378.410
400.8800, 7705.629
402.0750, 6514.028
403.2710, 5686.607
404.4660, 4874.368
405.6610, 3816.309
406.8560, 3126.430
408.0510, 2596.732
409.2450, 2471.300
410.4400, 2551.410
411.6340, 3005.043
412.8280, 3567.609
414.0220, 4466.240
415.2160, 5652.936
416.4100, 7552.697
417.6030, 9523.528
418.7970, 12299.43
419.9900, 15281.41
421.1830, 18392.47
422.3760, 22343.61
423.5690, 25867.84
424.7610, 29531.15
425.9540, 32218.57
427.1460, 33940.09
428.3380, 34805.71
429.5300, 34263.43
430.7220, 32702.27
431.9140, 30213.23
433.1050, 27327.30
434.2970, 24623.50
435.4880, 21791.82
436.6790, 19619.27
437.8700, 17945.86
439.0610, 16895.59
440.2510, 16385.50
441.4420, 16438.60
442.6320, 16937.90
443.8220, 17824.42
445.0120, 19231.15
446.2020, 21111.10
447.3910, 23411.29
448.5810, 25731.72
449.7700, 28256.42
450.9600, 30109.35
452.1490, 31354.52
453.3370, 31971.93
454.5260, 31751.61
455.7150, 31091.50
456.9030, 29028.65
458.0910, 27116.04
459.2800, 24316.66
460.4670, 22334.57
461.6550, 20163.75
462.8430, 18429.23
464.0300, 17217.08
465.2180, 16355.31
466.4050, 15603.01
467.5920, 14872.21
468.7790, 14790.95
469.9650, 14664.25
471.1520, 14857.12
472.3380, 14850.54
473.5250, 14326.46
474.7110, 14426.89
475.8970, 14164.75
477.0820, 13898.03
478.2680, 13590.66
479.4540, 13232.66
480.6390, 13010.00
481.8240, 12771.66
483.0090, 12464.65
484.1940, 11945.95
485.3780, 11763.25
486.5630, 11636.17
487.7470, 11074.57
488.9320, 10931.34
490.1160, 10697.05
491.3000, 10203.03
492.4830, 10066.27
493.6670, 9583.751
494.8500, 9351.472
496.0340, 9177.466
497.2170, 8788.688
498.4000, 8442.156
499.5820, 8250.880
500.7650, 7997.795
501.9480, 7997.906
503.1300, 8107.207
504.3120, 8266.397
505.4940, 8048.945
506.6760, 8386.101
507.8580, 8501.675
509.0390, 8889.543
510.2210, 9148.580
511.4020, 9443.042
512.5830, 9511.111
513.7640, 9586.773
514.9450, 9751.204
516.1250, 9816.381
517.3060, 9643.882
518.4860, 9740.141
519.6660, 9888.455
520.8460, 9998.583
522.0260, 10193.45
523.2060, 10695.60
524.3850, 11030.35
525.5650, 11913.27
526.7440, 12362.36
527.9230, 12608.62
529.1020, 12869.05
530.2810, 12458.65
531.4590, 11627.42
532.6380, 10418.37
533.8160, 9237.483
534.9940, 7968.773
536.1720, 6813.234
537.3500, 5899.866
538.5270, 5517.672
539.7050, 5327.643
540.8820, 5078.783
542.0590, 5058.852
543.2360, 5180.566
544.4130, 5195.205
545.5900, 5473.006
546.7660, 5664.973
547.9430, 5880.099
549.1190, 6063.383
550.2950, 6427.827
551.4710, 7109.428
552.6470, 7532.189
553.8220, 7934.104
554.9980, 8730.175
556.1730, 9053.401
557.3480, 9917.782
558.5230, 11042.31
559.6980, 12221.00
560.8730, 14087.84
562.0470, 16195.83
563.2220, 19053.96
564.3960, 22514.26
565.5700, 26343.69
566.7440, 30721.28
567.9170, 35508.01
569.0910, 40090.89
570.2640, 43575.90
571.4380, 44384.06
572.6110, 43009.38
573.7840, 39652.82
574.9570, 34476.41
576.1290, 28213.14
577.3020, 21942.00
578.4740, 16759.01
579.6460, 12561.66
580.8180, 9963.117
581.9900, 8048.283
583.1620, 6875.363
584.3330, 6171.946
585.5040, 5753.690
586.6760, 5557.999
587.8470, 5789.705
589.0180, 6201.611
590.1880, 6601.239
591.3590, 7180.920
592.5290, 8105.152
593.7000, 9097.364
594.8700, 10298.11
596.0400, 11555.88
597.2090, 13191.64
598.3790, 14937.17
599.5490, 16758.52
600.7180, 18964.56
601.8870, 20686.12
603.0560, 22596.36
604.2250, 23839.33
605.3940, 24446.53
606.5620, 24443.49
607.7300, 23750.87
608.8990, 22541.92
610.0670, 20425.37
611.2350, 17960.07
612.4020, 15573.52
613.5700, 13476.22
614.7370, 11513.23
615.9050, 9860.228
617.0720, 8503.791
618.2390, 7413.781
619.4060, 6472.307
620.5720, 5965.180
621.7390, 5412.471
622.9050, 4980.387
624.0710, 4397.369
625.2370, 3987.678
626.4030, 3612.978
627.5690, 3349.900
628.7340, 3039.698
629.9000, 2837.746
631.0650, 2582.996
632.2300, 2295.445
633.3950, 2162.988
634.5600, 1871.713
635.7240, 1428.150
636.8890, 1433.362
638.0530, 1099.868
639.2170, 995.9053
640.3810, 883.9492
641.5450, 826.5029
642.7080, 567.0000
643.8720, 564.4355
645.0350, 419.8350
646.1980, 445.2549
647.3610, 520.1885
648.5240, 686.1797
649.6870, 756.6689
650.8490, 975.1465
652.0120, 1148.060
653.1740, 1436.462
654.3360, 1792.399
655.4980, 2104.540
656.6600, 2560.629
657.8210, 2830.390
658.9830, 3265.008
660.1440, 3650.913
661.3050, 3866.380
662.4660, 4105.646
663.6270, 4497.580
664.7870, 4721.516
665.9480, 5054.345
667.1080, 5024.285
668.2680, 5128.005
669.4280, 4832.666
670.5880, 4700.268
671.7480, 4567.811
672.9070, 4421.291
674.0670, 4330.709
675.2260, 4261.062
676.3850, 4256.350
677.5440, 4327.570
678.7030, 4413.433
679.8610, 4704.803
681.0200, 4769.812
682.1780, 4968.748
683.3360, 5284.609
684.4940, 5348.395
685.6520, 5580.102
686.8090, 5815.731
687.9670, 5783.281
689.1240, 5756.750
690.2810, 5892.134
691.4380, 5772.436
692.5950, 5900.652
693.7520, 5730.779
694.9080, 5674.819
696.0650, 5453.771
697.2210, 5444.631
698.3770, 5168.400
699.5330, 4850.074
700.6880, 4381.654
701.8440, 4182.139
702.9990, 3588.525
704.1550, 3154.813
705.3100, 2785.004
706.4650, 2372.090
707.6190, 2050.076
708.7740, 1694.837
709.9290, 1355.734
711.0830, 1099.405
712.2370, 801.9688
713.3910, 639.4248
714.5450, 483.7705
715.6980, 299.8828
716.8520, 243.1299
718.0050, 57.14160
719.1580, 5.031250
720.3110, 33.22070
721.4640, 24.63965
722.6170, 105.2246
723.7700, 37.01953
724.9220, 70.99609
726.0740, 150.1748
727.2260, 162.5977
728.3780, 215.2773
729.5300, 82.24414
730.6810, 148.4326
731.8330, 141.8779
732.9840, 214.5820
734.1350, 36.58691
735.2860, 148.8008
736.4370, 139.2852
737.5880, 67.03906
738.7380, 232.0273
739.8880, 123.3379
741.0390, 176.9180
742.1890, 326.7979
743.3380, 230.0596
744.4880, 350.6543
745.6380, 269.6484
746.7870, 262.0000
747.9360, 375.7070
749.0850, 391.8330
750.2340, 288.3877
751.3830, 241.3184
752.5310, 306.6016
753.6800, 335.2754
754.8280, 357.3545
755.9760, 265.8535
757.1240, 319.7246
758.2720, 322.9980
759.4190, 295.6758
760.5670, 319.7451
761.7140, 287.2188
762.8610, 227.0830
764.0080, 193.3037
765.1550, 169.8672
766.3020, 285.7598
767.4480, 225.0430
768.5950, 203.6865
769.7410, 126.6777
770.8870, 95.97656
772.0330, 66.74121
773.1780, 205.4385
774.3240, 26.65625
775.4690, 111.1289
776.6140, 119.9033
777.7590, 82.01855
778.9040, 93.74121
780.0490, 49.26953
781.1940, 48.41602
782.3380, 166.6318
783.4820, 16.49023
784.6260, 71.86035
785.7700, 60.49316
786.9140, 172.6387
788.0580, 133.6133
789.2010, 121.4102
790.3450, 58.02344
791.4880, 170.4287
792.6310, 165.6641
793.7730, 239.7275
794.9160, 295.6318
796.0590, 351.3828
797.2010, 301.9805
798.3430, 408.4268
799.4850, 450.7217
800.6270, 542.8711
801.7690, 501.8760
802.9100, 519.7383
804.0520, 469.4561
805.1930, 602.0312
806.3340, 703.4639
807.4750, 675.7568
808.6160, 725.9111
809.7560, 891.9258
810.8970, 1098.803
812.0370, 1103.540
813.1770, 1168.142
814.3170, 1289.605
815.4570, 1437.934
816.5960, 1572.127
817.7360, 1902.186
818.8750, 1921.109
820.0140, 2169.899
821.1530, 2650.557
822.2920, 2853.083
823.4310, 3367.477
824.5690, 3602.740
825.7070, 4125.874
826.8460, 4601.879
827.9840, 5010.753
829.1220, 5349.502
830.2590, 5740.121
831.3970, 5916.616
832.5340, 6197.984
833.6710, 6170.228
834.8080, 6237.348
835.9450, 6286.342
837.0820, 5993.213
838.2190, 5906.965
839.3550, 5912.594
840.4910, 5640.103
841.6270, 5510.491
842.7630, 5438.763
843.8990, 5160.916
845.0350, 5435.951
846.1700, 5268.939
847.3060, 5444.673
848.4410, 5234.363
849.5760, 5247.938
850.7100, 5232.399
851.8450, 5338.750
852.9800, 5526.989
854.1140, 5670.119
855.2480, 5852.621
856.3820, 5996.350
857.5160, 6234.391
858.6500, 6393.545
859.7830, 6623.221
860.9170, 6930.764
862.0500, 7069.762
863.1830, 7326.387
864.3160, 7580.834
865.4480, 7801.586
866.5810, 8250.304
867.7130, 8498.494
868.8460, 9039.725
869.9780, 9255.033
871.1100, 9631.161
872.2410, 9980.897
873.3730, 10336.89
874.5050, 10771.09
875.6360, 11069.61
876.7670, 11309.64
877.8980, 11430.99
879.0290, 11792.63
880.1590, 11623.06
881.2900, 11435.64
882.4200, 11016.04
883.5500, 10523.66
884.6800, 10102.90
885.8100, 9739.895
886.9400, 9134.215
888.0690, 8863.224
889.1990, 8608.938
890.3280, 8170.664
891.4570, 7974.826
892.5860, 7846.566
893.7140, 7908.779
894.8430, 8049.645
895.9710, 8492.105
897.1000, 8617.939
898.2280, 9095.718
899.3560, 9618.192
900.4830, 10515.71
901.6110, 11105.63
902.7380, 12251.23
903.8660, 13170.58
904.9930, 14346.24
906.1200, 15760.74
907.2460, 16941.15
908.3730, 18144.44
909.5000, 19611.04
910.6260, 21126.87
911.7520, 22080.43
912.8780, 23462.47
914.0040, 24219.54
915.1290, 25153.12
916.2550, 25722.77
917.3800, 26105.51
918.5050, 26380.33
919.6300, 26589.24
920.7550, 26492.73
921.8800, 26486.30
923.0040, 26056.55
924.1290, 25884.97
925.2530, 25532.14
926.3770, 24981.05
927.5010, 24597.62
928.6250, 24001.19
929.7480, 23411.05
930.8720, 22716.41
931.9950, 22413.08
933.1180, 21818.62
934.2410, 21439.67
935.3640, 20717.99
936.4860, 20078.68
937.6090, 19501.38
938.7310, 18798.20
939.8530, 18121.02
940.9750, 17419.87
942.0970, 16636.90
943.2180, 15813.00
944.3400, 14948.15
945.4610, 14184.37
946.5820, 13426.64
947.7030, 12528.98
948.8240, 11996.41
949.9450, 11508.92
951.0650, 11125.49
952.1860, 10966.13
953.3060, 10647.84
954.4260, 10675.62
955.5460, 10812.46
956.6650, 11012.36
957.7850, 11110.32
958.9040, 11167.34
960.0230, 11256.44
961.1420, 11282.45
962.2610, 11650.84
963.3800, 11257.15
964.4990, 11115.53
965.6170, 10947.98
966.7350, 10362.49
967.8530, 9873.070
968.9710, 9431.719
970.0890, 8968.439
971.2070, 8749.235
972.3240, 8636.010
973.4410, 8540.056
974.5580, 8859.071
975.6750, 9150.154
976.7920, 9702.307
977.9090, 10822.53
979.0250, 11862.83
980.1410, 12758.19
981.2580, 14373.62
982.3740, 15586.14
983.4890, 16612.72
984.6050, 17258.39
985.7200, 16968.13
986.8360, 16693.96
987.9510, 15689.86
989.0660, 14360.85
990.1810, 12746.93
991.2950, 11318.11
992.4100, 9642.380
993.5240, 8259.762
994.6390, 7274.270
995.7530, 6069.887
996.8660, 5484.628
997.9800, 4602.514
999.0940, 3984.553
1000.207, 3489.760
1001.320, 3050.100
1002.433, 2649.592
1003.546, 2335.235
1004.659, 1883.051
1005.772, 1574.992
1006.884, 1198.093
1007.996, 920.3486
1009.108, 724.7451
1010.220, 502.3252
1011.332, 400.0625
1012.444, 307.9717
1013.555, 272.0947
1014.666, 126.4062
1015.777, 167.9395
1016.888, 94.67871
1017.999, 35.61816
1019.110, 64.78906
1020.220, 10.19727
1021.331, 75.81543
1022.441, 185.6328
1023.551, 81.66895
1024.661, 287.9316
1025.770, 267.4277
1026.880, 562.3535
1027.989, 543.3018
1029.098, 691.3828
1030.207, 903.9863
1031.316, 1124.130
1032.425, 1437.410
1033.533, 1606.020
1034.642, 1784.147
1035.750, 2106.727
1036.858, 2545.344
1037.966, 2780.219
1039.073, 3230.429
1040.181, 3878.969
1041.288, 4248.951
1042.396, 4675.741
1043.503, 5116.572
1044.610, 5536.604
1045.716, 5795.982
1046.823, 5970.501
1047.929, 5906.217
1049.036, 6237.615
1050.142, 6020.483
1051.248, 5894.484
1052.353, 5767.336
1053.459, 5448.074
1054.564, 5144.660
1055.670, 4936.252
1056.775, 4684.964
1057.880, 4386.165
1058.985, 4028.686
1060.089, 3793.980
1061.194, 3582.195
1062.298, 3599.224
1063.402, 3642.055
1064.506, 3778.881
1065.610, 3838.774
1066.713, 4223.461
1067.817, 4630.207
1068.920, 5201.812
1070.023, 5746.123
1071.126, 6464.916
1072.229, 7191.627
1073.332, 8351.464
1074.435, 9687.081
1075.537, 10866.30
1076.639, 12251.79
1077.741, 13713.81
1078.843, 15402.27
1079.945, 16957.88
1081.046, 18710.07
1082.148, 20684.08
1083.249, 23098.20
1084.350, 25597.85
1085.451, 28400.78
1086.551, 31928.53
1087.652, 35184.02
1088.752, 39834.61
1089.853, 43867.37
1090.953, 47763.64
1092.053, 50776.09
1093.152, 52455.57
1094.252, 51619.30
1095.351, 49806.19
1096.451, 45451.25
1097.550, 39829.30
1098.649, 33781.50
1099.748, 27605.86
1100.846, 22056.01
1101.945, 17658.44
1103.043, 13899.34
1104.141, 11009.46
1105.239, 8852.343
1106.337, 6988.867
1107.434, 5686.459
1108.532, 4594.092
1109.629, 3712.730
1110.726, 3237.523
1111.823, 2728.259
1112.920, 2321.045
1114.017, 2127.396
1115.113, 1734.015
1116.210, 1705.021
1117.306, 1652.944
1118.402, 1415.998
1119.498, 1608.546
1120.593, 1357.717
1121.689, 1262.610
1122.784, 1241.050
1123.879, 1176.282
1124.974, 1020.556
1126.069, 1138.870
1127.164, 752.2617
1128.259, 879.7314
1129.353, 692.1602
1130.447, 615.2002
1131.541, 549.6172
1132.635, 569.1514
1133.729, 574.8672
1134.822, 457.5479
1135.916, 462.1797
1137.009, 407.8408
1138.102, 330.5312
1139.195, 471.2520
1140.288, 427.0000
1141.380, 485.7734
1142.473, 339.5732
1143.565, 412.3955
1144.657, 371.2539
1145.749, 371.1338
1146.841, 372.0332
1147.932, 396.5029
1149.024, 225.4414
1150.115, 309.3965
1151.206, 190.3662
1152.297, 133.2959
1153.388, 295.4824
1154.479, 108.4922
1155.569, 70.87109
1156.659, 64.90039
1157.750, 9.896484
1158.839, 7.575195
1159.929, 72.24414
1161.019, 8.215820
1162.108, 57.18848
1163.198, 105.1133
1164.287, 22.07617
1165.376, 87.10449
1166.465, 39.16602
1167.553, 62.75586
1168.642, 59.32910
1169.730, 213.4395
1170.818, 36.63867
1171.906, 243.8037
1172.994, 152.8633
1174.082, 24.56055
1175.170, 69.00488
1176.257, 143.4951
1177.344, 139.0713
1178.431, 83.73047
1179.518, 53.44727
1180.605, 94.21387
1181.691, 54.04883
1182.778, 210.9365
1183.864, 2.038086
1184.950, 99.01953
1186.036, 189.1611
1187.122, 58.43555
1188.207, 124.7793
1189.292, 204.2930
1190.378, 83.89160
1191.463, 125.4893
1192.548, 213.2900
1193.632, 2.791016
1194.717, 105.2217
1195.801, 38.07129
1196.886, 46.26953
1197.970, 106.5146
1199.054, 131.9131
1200.137, 11.44336
1201.221, 46.85742
1202.305, 25.52148
1203.388, 55.29785
1204.471, 47.76172
1205.554, 21.59668
1206.637, 71.34082
1207.719, 26.59082
1208.802, 58.76465
1209.884, 12.48926
1210.966, 49.83301
1212.048, 27.28809
1213.130, 64.15430
1214.212, 1.626953
1215.293, 17.19336
1216.374, 89.85645
1217.456, 33.46094
1218.536, 148.5391
1219.617, 146.6816
1220.698, 71.67090
1221.778, 50.68750
1222.859, 135.5312
1223.939, 33.32617
1225.019, 76.02930
1226.099, 101.6611
1227.178, 234.2285
1228.258, 138.7490
1229.337, 139.5234
1230.417, 152.9297
1231.496, 116.2783
1232.574, 137.5537
1233.653, 106.7764
1234.732, 148.9189
1235.810, 234.1289
1236.888, 236.1611
1237.966, 243.1436
1239.044, 339.0742
1240.122, 238.9551
1241.199, 373.7842
1242.277, 296.5615
1243.354, 220.2930
1244.431, 211.9668
1245.508, 269.5811
1246.585, 209.1426
1247.661, 289.6406
1248.738, 157.0830
1249.814, 174.4502
1250.890, 233.7441
1251.966, 270.9736
1253.042, 324.1475
1254.117, 326.2637
1255.193, 344.3271
1256.268, 324.3350
1257.343, 319.2861
1258.418, 362.1797
1259.493, 272.0146
1260.567, 254.7871
1261.642, 354.4941
1262.716, 323.2334
1263.790, 342.8203
1264.864, 497.3516
1265.938, 417.8223
1267.011, 451.2305
1268.085, 521.8535
1269.158, 507.4883
1270.231, 521.9102
1271.304, 549.7549
1272.377, 489.8721
1273.450, 463.5400
1274.522, 428.5352
1275.594, 406.4678
1276.666, 325.3779
1277.738, 464.6260
1278.810, 614.3682
1279.882, 540.0479
1280.953, 547.6660
1282.025, 377.2939
1283.096, 503.1084
1284.167, 360.6982
1285.238, 538.3428
1286.308, 394.6406
1287.379, 360.6104
1288.449, 407.7588
1289.519, 467.9570
1290.589, 462.8711
1291.659, 430.5928
