##NAMES=Clinozoisite
##RRUFFID=R040085
##IDEAL CHEMISTRY=Ca_2_Al_3_(Si_2_O_7_)(SiO_4_)O(OH)
##LOCALITY=Alamos, Sonora, Mexico
##OWNER=RRUFF
##SOURCE=University of Arizona Mineral Museum
##DESCRIPTION=Divergent aggregate of red thin prismatic crystals
##STATUS=The identification of this mineral has been confirmed by X-ray diffraction and chemical analysis
##URL=rruff.info/R040085
##MEASURED CHEMISTRY=Ca_2.03_(Al_0.90_Fe_0.13_)_3_(Si_1.00_O_4_)(Si_2.00_O_7_)O(OH)
##PIN_ID=M00391
##ORIENTATION=Laser parallel to c* (0 0 1). Fiducial mark perpendicular to laser is parallel to a [1 0 0]
178.2820, 0.0000000E+00
179.5050, 177.1406
180.7290, 51.23242
181.9520, 306.7910
183.1760, 236.1855
184.3990, 518.0312
185.6220, 620.2383
186.8450, 1139.871
188.0670, 1545.996
189.2900, 1417.154
190.5120, 1525.533
191.7340, 1394.361
192.9560, 1263.639
194.1780, 1180.354
195.4000, 873.1582
196.6220, 409.8047
197.8430, 194.0410
199.0640, 277.6523
200.2860, 55.45703
201.5070, 40.30469
202.7270, 207.1035
203.9480, 132.2754
205.1690, 4.927734
206.3890, 85.78516
207.6090, 142.5586
208.8290, 106.5488
210.0490, 4.316406
211.2690, 171.9180
212.4890, 102.6992
213.7080, 380.9980
214.9280, 607.6211
216.1470, 615.5117
217.3660, 676.6309
218.5850, 769.9414
219.8030, 926.4219
221.0220, 827.0508
222.2400, 1011.537
223.4590, 966.6758
224.6770, 1184.645
225.8950, 1308.707
227.1120, 1278.525
228.3300, 1753.533
229.5480, 2092.725
230.7650, 2189.680
231.9820, 2610.041
233.1990, 2783.785
234.4160, 2747.961
235.6330, 3007.602
236.8490, 3210.758
238.0660, 3415.463
239.2820, 3403.535
240.4980, 3516.637
241.7140, 3314.162
242.9300, 3261.346
244.1460, 3271.207
245.3610, 3601.766
246.5770, 3983.041
247.7920, 4473.055
249.0070, 4764.818
250.2220, 5333.348
251.4370, 5502.664
252.6510, 5820.799
253.8660, 5929.793
255.0800, 5930.664
256.2940, 5690.438
257.5080, 5871.117
258.7220, 5905.717
259.9360, 5176.240
261.1490, 4591.695
262.3630, 4351.096
263.5760, 3759.445
264.7890, 3903.748
266.0020, 3831.941
267.2150, 4031.068
268.4270, 4163.174
269.6400, 3964.250
270.8520, 4172.311
272.0640, 4150.352
273.2760, 4021.377
274.4880, 3989.936
275.7000, 3894.279
276.9120, 3408.320
278.1230, 3235.434
279.3340, 2789.191
280.5450, 2665.723
281.7560, 2514.816
282.9670, 2441.148
284.1780, 2220.742
285.3880, 2238.416
286.5980, 2196.164
287.8090, 2239.988
289.0190, 2291.889
290.2290, 2290.857
291.4380, 2301.318
292.6480, 2261.730
293.8570, 2327.186
295.0670, 2173.430
296.2760, 2279.738
297.4850, 2308.111
298.6930, 1957.549
299.9020, 1647.043
301.1110, 1582.582
302.3190, 1520.152
303.5270, 1185.740
304.7350, 1346.350
305.9430, 1379.980
307.1510, 1301.637
308.3580, 1427.316
309.5660, 1426.021
310.7730, 1413.756
311.9800, 1516.516
313.1870, 1225.303
314.3940, 1269.125
315.6010, 1256.980
316.8070, 1205.869
318.0130, 925.8008
319.2200, 794.7734
320.4260, 801.7891
321.6310, 512.8496
322.8370, 939.9609
324.0430, 720.5801
325.2480, 995.8691
326.4540, 819.5918
327.6590, 1078.635
328.8640, 1168.926
330.0680, 1235.422
331.2730, 1337.074
332.4780, 1451.014
333.6820, 1603.635
334.8860, 1763.775
336.0900, 1976.910
337.2940, 2275.145
338.4980, 2520.174
339.7010, 2872.316
340.9050, 2917.568
342.1080, 3061.920
343.3110, 3374.361
344.5140, 3401.891
345.7170, 4322.500
346.9200, 4503.184
348.1220, 4602.941
349.3240, 4795.760
350.5270, 4884.535
351.7290, 4826.012
352.9310, 4648.320
354.1320, 4255.340
355.3340, 3640.395
356.5350, 2973.492
357.7370, 2483.623
358.9380, 2341.787
360.1390, 1703.984
361.3400, 1204.213
362.5400, 1129.471
363.7410, 654.7578
364.9410, 208.0742
366.1410, 226.4180
367.3410, 120.7910
368.5410, 72.81055
369.7410, 130.4160
370.9400, 325.0449
372.1400, 369.7578
373.3390, 360.5820
374.5380, 416.5332
375.7370, 502.6289
376.9360, 638.8926
378.1350, 391.3516
379.3330, 532.9453
380.5310, 611.7012
381.7300, 257.6406
382.9280, 88.66992
384.1260, 49.26172
385.3230, 71.18555
386.5210, 14.89648
387.7180, 505.0059
388.9160, 660.9082
390.1130, 479.8164
391.3100, 1042.729
392.5060, 1239.645
393.7030, 1159.574
394.9000, 1460.506
396.0960, 1232.449
397.2920, 1474.404
398.4880, 1432.369
399.6840, 1453.346
400.8800, 1269.338
402.0750, 1070.568
403.2710, 748.3535
404.4660, 511.3848
405.6610, 370.4277
406.8560, 110.4863
408.0510, 125.5586
409.2450, 98.64844
410.4400, 273.7500
411.6340, 514.8711
412.8280, 555.0098
414.0220, 842.1602
415.2160, 1069.330
416.4100, 1560.518
417.6030, 1870.719
418.7970, 2465.812
419.9900, 3241.609
421.1830, 3805.086
422.3760, 4626.113
423.5690, 5393.781
424.7610, 5944.125
425.9540, 6331.451
427.1460, 6275.791
428.3380, 6294.172
429.5300, 5979.594
430.7220, 5567.057
431.9140, 5131.562
433.1050, 4785.105
434.2970, 4519.154
435.4880, 4174.318
436.6790, 4114.988
437.8700, 3926.701
439.0610, 3800.457
440.2510, 3982.260
441.4420, 4284.102
442.6320, 4713.986
443.8220, 5220.535
445.0120, 5818.910
446.2020, 6578.951
447.3910, 7256.035
448.5810, 8194.189
449.7700, 8939.436
450.9600, 9657.770
452.1490, 9201.203
453.3370, 9527.727
454.5260, 9117.352
455.7150, 8809.074
456.9030, 8158.859
458.0910, 7507.734
459.2800, 6559.668
460.4670, 5977.711
461.6550, 5779.867
462.8430, 5414.133
464.0300, 5247.559
465.2180, 5103.051
466.4050, 4918.625
467.5920, 5128.352
468.7790, 5039.156
469.9650, 5020.008
471.1520, 5144.938
472.3380, 5662.922
473.5250, 5596.984
474.7110, 5478.078
475.8970, 6073.242
477.0820, 5649.473
478.2680, 5801.805
479.4540, 5477.195
480.6390, 5298.660
481.8240, 4944.215
483.0090, 4792.805
484.1940, 4490.414
485.3780, 4266.055
486.5630, 3928.723
487.7470, 3662.434
488.9320, 3408.168
490.1160, 3261.930
491.3000, 3093.719
492.4830, 2858.531
493.6670, 2787.371
494.8500, 2766.289
496.0340, 2651.246
497.2170, 2961.227
498.4000, 3044.230
499.5820, 2946.289
500.7650, 3337.383
501.9480, 3722.523
503.1300, 3953.699
504.3120, 3892.898
505.4940, 4064.148
506.6760, 4381.512
507.8580, 4533.902
509.0390, 4236.312
510.2210, 4007.785
511.4020, 3932.172
512.5830, 3473.145
513.7640, 3351.934
514.9450, 3094.953
516.1250, 3148.613
517.3060, 2789.805
518.4860, 2861.637
519.6660, 2578.977
520.8460, 2390.914
522.0260, 2103.035
523.2060, 2265.293
524.3850, 1972.852
525.5650, 2096.000
526.7440, 1941.266
527.9230, 1676.039
529.1020, 1437.555
530.2810, 1053.465
531.4590, 1442.402
532.6380, 1157.367
533.8160, 1145.355
534.9940, 869.3672
536.1720, 736.4023
537.3500, 558.4609
538.5270, 572.5391
539.7050, 502.6406
540.8820, 537.7656
542.0590, 729.9102
543.2360, 806.0820
544.4130, 589.2656
545.5900, 530.4805
546.7660, 849.7109
547.9430, 1077.965
549.1190, 1018.234
550.2950, 1205.523
551.4710, 1139.836
552.6470, 1491.168
553.8220, 1561.516
554.9980, 2122.883
556.1730, 2278.270
557.3480, 2548.676
558.5230, 2951.098
559.6980, 3603.539
560.8730, 4304.996
562.0470, 5209.473
563.2220, 6513.969
564.3960, 7869.484
565.5700, 9475.023
566.7440, 11749.59
567.9170, 13751.18
569.0910, 15567.79
570.2640, 16473.42
571.4380, 16548.08
572.6110, 15688.76
573.7840, 13760.46
574.9570, 11541.18
576.1290, 9580.023
577.3020, 7532.695
578.4740, 5941.164
579.6460, 4488.805
580.8180, 3994.629
581.9900, 3269.148
583.1620, 2823.914
584.3330, 2971.547
585.5040, 2632.891
586.6760, 2832.668
587.8470, 3166.199
589.0180, 3377.277
590.1880, 3550.402
591.3590, 3929.719
592.5290, 4265.891
593.7000, 4665.996
594.8700, 5126.602
596.0400, 5666.141
597.2090, 6512.891
598.3790, 7067.375
599.5490, 7776.207
600.7180, 8572.906
601.8870, 9023.344
603.0560, 9546.543
604.2250, 10021.03
605.3940, 9513.531
606.5620, 9300.602
607.7300, 8744.180
608.8990, 7822.328
610.0670, 7140.980
611.2350, 6246.473
612.4020, 5750.602
613.5700, 4921.148
614.7370, 4279.559
615.9050, 3950.691
617.0720, 3238.355
618.2390, 3160.871
619.4060, 2818.836
620.5720, 2689.449
621.7390, 2512.824
622.9050, 2432.176
624.0710, 2177.719
625.2370, 2012.477
626.4030, 1889.070
627.5690, 1721.883
628.7340, 1574.297
629.9000, 1418.621
631.0650, 1351.254
632.2300, 1096.797
633.3950, 1119.445
634.5600, 1234.113
635.7240, 998.0078
636.8890, 967.0312
638.0530, 925.5469
639.2170, 1019.102
640.3810, 876.3672
641.5450, 1033.148
642.7080, 1064.508
643.8720, 1103.406
645.0350, 1357.590
646.1980, 1077.691
647.3610, 1139.125
648.5240, 1202.020
649.6870, 1384.238
650.8490, 1471.527
652.0120, 1699.527
653.1740, 1720.219
654.3360, 1969.395
655.4980, 2087.559
656.6600, 2148.789
657.8210, 2221.332
658.9830, 1860.172
660.1440, 2152.527
661.3050, 1947.672
662.4660, 1731.891
663.6270, 1873.875
664.7870, 1743.820
665.9480, 1776.574
667.1080, 1901.227
668.2680, 1474.551
669.4280, 1311.984
670.5880, 1319.383
671.7480, 1077.898
672.9070, 1211.832
674.0670, 1436.723
675.2260, 1241.570
676.3850, 1072.371
677.5440, 1406.129
678.7030, 1168.840
679.8610, 1294.504
681.0200, 1502.121
682.1780, 1051.695
683.3360, 1518.223
684.4940, 1475.695
685.6520, 1045.125
686.8090, 1227.508
687.9670, 1462.844
689.1240, 1649.121
690.2810, 1602.355
691.4380, 1470.535
692.5950, 1533.672
693.7520, 1583.754
694.9080, 1878.785
696.0650, 1903.766
697.2210, 1915.691
698.3770, 1837.570
699.5330, 1806.391
700.6880, 1610.160
701.8440, 1597.879
702.9990, 1653.543
704.1550, 1218.152
705.3100, 1232.707
706.4650, 1158.211
707.6190, 931.6523
708.7740, 775.0430
709.9290, 697.3750
711.0830, 630.6562
712.2370, 480.8789
713.3910, 403.0391
714.5450, 322.9883
715.6980, 133.1953
716.8520, 191.1719
718.0050, 157.3281
719.1580, 121.9414
720.3110, 201.7227
721.4640, 152.4414
722.6170, 7.089844
723.7700, 68.64844
724.9220, 8.128906
726.0740, 60.51953
727.2260, 41.16406
728.3780, 135.9727
729.5300, 105.6289
730.6810, 181.5430
731.8330, 99.41016
732.9840, 169.8945
734.1350, 151.5742
735.2860, 10.43359
736.4370, 116.6211
737.5880, 9.550781
738.7380, 165.8047
739.8880, 240.2461
741.0390, 171.9219
742.1890, 398.7930
743.3380, 15.96094
744.4880, 88.25000
745.6380, 350.6953
746.7870, 104.4297
747.9360, 39.66406
749.0850, 93.32031
750.2340, 23.46875
751.3830, 93.73438
752.5310, 117.8398
753.6800, 102.6680
754.8280, 47.33984
755.9760, 220.1484
757.1240, 36.18750
758.2720, 94.34766
759.4190, 171.6836
760.5670, 123.7852
761.7140, 93.17188
762.8610, 213.4844
764.0080, 246.5742
765.1550, 3.121094
766.3020, 275.9258
767.4480, 102.9102
768.5950, 216.8047
769.7410, 80.63281
770.8870, 201.3750
772.0330, 98.94922
773.1780, 370.5547
774.3240, 120.0000
775.4690, 210.3594
776.6140, 67.35156
777.7590, 85.79297
778.9040, 56.14453
780.0490, 13.78125
781.1940, 112.6016
782.3380, 32.65625
783.4820, 303.0352
784.6260, 170.3164
785.7700, 94.58984
786.9140, 116.2109
788.0580, 60.82031
789.2010, 236.7734
790.3450, 322.6484
791.4880, 219.4609
792.6310, 35.79688
793.7730, 239.8164
794.9160, 400.3555
796.0590, 162.8359
797.2010, 287.2422
798.3430, 121.5781
799.4850, 124.8359
800.6270, 212.0156
801.7690, 229.1250
802.9100, 273.1562
804.0520, 84.12109
805.1930, 355.0000
806.3340, 99.81250
807.4750, 318.5430
808.6160, 279.2148
809.7560, 424.8086
810.8970, 488.3359
812.0370, 635.8047
813.1770, 660.1992
814.3170, 488.5352
815.4570, 568.8047
816.5960, 576.0078
817.7360, 446.1562
818.8750, 514.2344
820.0140, 571.1016
821.1530, 494.2031
822.2920, 791.0938
823.4310, 905.9219
824.5690, 1024.688
825.7070, 1206.891
826.8460, 1401.035
827.9840, 1440.613
829.1220, 1588.133
830.2590, 1643.594
831.3970, 1585.992
832.5340, 1723.336
833.6710, 1826.609
834.8080, 1787.828
835.9450, 1882.750
837.0820, 1655.090
838.2190, 1886.129
839.3550, 1801.109
840.4910, 1672.035
841.6270, 1910.902
842.7630, 1820.711
843.8990, 1843.461
845.0350, 1854.156
846.1700, 1893.797
847.3060, 1851.379
848.4410, 1886.898
849.5760, 1893.367
850.7100, 1963.551
851.8450, 2297.039
852.9800, 2200.434
854.1140, 2484.996
855.2480, 2744.348
856.3820, 2572.484
857.5160, 2602.887
858.6500, 2628.016
859.7830, 2592.230
860.9170, 2903.711
862.0500, 3137.715
863.1830, 3362.934
864.3160, 3463.566
865.4480, 3798.117
866.5810, 3907.445
867.7130, 4124.879
868.8460, 4525.344
869.9780, 4543.270
871.1100, 4773.227
872.2410, 4843.949
873.3730, 5394.895
874.5050, 5232.461
875.6360, 5671.816
876.7670, 5569.926
877.8980, 5459.016
879.0290, 5773.258
880.1590, 5718.242
881.2900, 5699.375
882.4200, 5642.285
883.5500, 5715.270
884.6800, 5582.555
885.8100, 5316.352
886.9400, 5325.367
888.0690, 5109.793
889.1990, 5165.352
890.3280, 4947.148
891.4570, 5121.375
892.5860, 5394.715
893.7140, 5079.586
894.8430, 5442.844
895.9710, 5800.250
897.1000, 6221.797
898.2280, 6704.055
899.3560, 6854.055
900.4830, 7642.230
901.6110, 8144.168
902.7380, 8414.430
903.8660, 9190.805
904.9930, 10323.83
906.1200, 11090.91
907.2460, 11923.84
908.3730, 12603.72
909.5000, 13503.34
910.6260, 13902.77
911.7520, 14554.72
912.8780, 14839.61
914.0040, 14895.80
915.1290, 14543.45
916.2550, 14565.52
917.3800, 14340.01
918.5050, 13808.18
919.6300, 13464.38
920.7550, 12772.22
921.8800, 12339.57
923.0040, 11978.57
924.1290, 11432.48
925.2530, 11116.62
926.3770, 10799.11
927.5010, 10291.18
928.6250, 9976.340
929.7480, 9281.508
930.8720, 9064.383
931.9950, 9097.262
933.1180, 8684.672
934.2410, 7863.367
935.3640, 7527.105
936.4860, 6724.219
937.6090, 6676.410
938.7310, 6239.828
939.8530, 5838.320
940.9750, 5341.098
942.0970, 5379.746
943.2180, 4992.410
944.3400, 4709.555
945.4610, 4592.211
946.5820, 4317.043
947.7030, 4277.129
948.8240, 4556.219
949.9450, 4563.312
951.0650, 4264.422
952.1860, 4311.617
953.3060, 4207.820
954.4260, 4417.023
955.5460, 4113.258
956.6650, 3946.500
957.7850, 3775.742
958.9040, 3567.000
960.0230, 3461.270
961.1420, 3432.547
962.2610, 3155.840
963.3800, 3342.137
964.4990, 3031.445
965.6170, 2880.766
966.7350, 2934.086
967.8530, 2808.422
968.9710, 2583.762
970.0890, 2492.117
971.2070, 2485.844
972.3240, 2553.754
973.4410, 2667.238
974.5580, 2933.629
975.6750, 3271.035
976.7920, 3586.449
977.9090, 3880.871
979.0250, 4548.309
980.1410, 4756.754
981.2580, 5244.207
982.3740, 5956.676
983.4890, 6083.152
984.6050, 6139.637
985.7200, 6025.137
986.8360, 5972.648
987.9510, 5528.180
989.0660, 4500.723
990.1810, 4116.289
991.2950, 3463.867
992.4100, 2930.461
993.5240, 2609.078
994.6390, 2139.762
995.7530, 1739.465
996.8660, 1416.211
997.9800, 1628.984
999.0940, 1358.848
1000.207, 1219.793
1001.320, 884.7812
1002.433, 834.8477
1003.546, 809.9805
1004.659, 841.1836
1005.772, 322.6328
1006.884, 36.95703
1007.996, 291.3477
1009.108, 56.90234
1010.220, 21.30469
1011.332, 74.07422
1012.444, 171.4023
1013.555, 25.62500
1014.666, 32.50781
1015.777, 32.60938
1016.888, 67.90234
1017.999, 65.91797
1019.110, 25.42969
1020.220, 80.34375
1021.331, 60.00000
1022.441, 54.82031
1023.551, 272.9766
1024.661, 115.8750
1025.770, 372.5039
1026.880, 465.6836
1027.989, 470.6172
1029.098, 340.7617
1030.207, 344.9688
1031.316, 577.6719
1032.425, 740.9258
1033.533, 538.0664
1034.642, 503.8320
1035.750, 589.6328
1036.858, 1041.523
1037.966, 1114.359
1039.073, 1059.426
1040.181, 1310.684
1041.288, 1126.594
1042.396, 1491.562
1043.503, 1190.195
1044.610, 1318.480
1045.716, 1638.844
1046.823, 1224.453
1047.929, 1255.438
1049.036, 1256.477
1050.142, 1439.246
1051.248, 1405.527
1052.353, 1451.738
1053.459, 1182.066
1054.564, 1243.527
1055.670, 1308.793
1056.775, 826.8906
1057.880, 1307.328
1058.985, 1039.570
1060.089, 733.3281
1061.194, 658.9219
1062.298, 863.0664
1063.402, 643.9297
1064.506, 318.8281
1065.610, 1039.469
1066.713, 650.6445
1067.817, 937.9492
1068.920, 1038.023
1070.023, 1085.414
1071.126, 1323.035
1072.229, 1575.387
1073.332, 1812.992
1074.435, 2052.594
1075.537, 2390.566
1076.639, 2630.680
1077.741, 2987.195
1078.843, 3235.828
1079.945, 3458.684
1081.046, 3864.520
1082.148, 4460.160
1083.249, 4923.602
1084.350, 4889.680
1085.451, 6063.324
1086.551, 6558.156
1087.652, 7629.602
1088.752, 8746.402
1089.853, 9670.734
1090.953, 10592.18
1092.053, 11441.50
1093.152, 12020.14
1094.252, 11560.64
1095.351, 11130.28
1096.451, 10184.91
1097.550, 8615.012
1098.649, 7431.996
1099.748, 6004.172
1100.846, 4673.465
1101.945, 3926.551
1103.043, 3093.820
1104.141, 2364.824
1105.239, 1945.496
1106.337, 1775.102
1107.434, 1474.023
1108.532, 1251.367
1109.629, 856.9609
1110.726, 1105.922
1111.823, 843.5000
1112.920, 681.0742
1114.017, 395.6445
1115.113, 435.2070
1116.210, 389.7617
1117.306, 313.6211
1118.402, 411.1680
1119.498, 241.3438
1120.593, 200.8789
1121.689, 164.7461
1122.784, 319.2539
1123.879, 287.1055
1124.974, 393.3359
1126.069, 229.5039
1127.164, 377.6094
1128.259, 408.4609
1129.353, 230.2266
1130.447, 84.53906
1131.541, 98.17188
1132.635, 196.6016
1133.729, 517.0156
1134.822, 221.4219
1135.916, 230.8086
1137.009, 29.81641
1138.102, 188.0820
1139.195, 150.4336
1140.288, 82.17969
1141.380, 106.4141
1142.473, 9.464844
1143.565, 137.7148
1144.657, 234.4883
1145.749, 60.45312
1146.841, 154.0820
1147.932, 21.92969
1149.024, 121.0859
1150.115, 191.9375
1151.206, 72.81641
1152.297, 116.3125
1153.388, 60.44531
1154.479, 6.566406
1155.569, 30.87500
1156.659, 107.8594
1157.750, 25.18359
1158.839, 274.2734
1159.929, 84.07812
1161.019, 52.48047
1162.108, 196.1172
1163.198, 64.27344
1164.287, 108.7383
1165.376, 321.1797
1166.465, 276.5898
1167.553, 148.0273
1168.642, 258.2383
1169.730, 146.4727
1170.818, 108.6914
1171.906, 197.9727
1172.994, 201.1914
1174.082, 50.58984
1175.170, 64.31641
1176.257, 64.30859
1177.344, 113.3516
1178.431, 70.25000
1179.518, 53.57031
1180.605, 80.35156
1181.691, 203.9531
1182.778, 316.5234
1183.864, 312.0625
1184.950, 20.42969
1186.036, 41.01172
1187.122, 76.41016
1188.207, 417.7734
1189.292, 54.10156
1190.378, 173.3945
1191.463, 0.6523440
1192.548, 97.84766
1193.632, 48.99609
1194.717, 164.0703
1195.801, 232.1016
1196.886, 107.1016
1197.970, 80.05469
1199.054, 139.9727
1200.137, 69.85156
1201.221, 86.31250
1202.305, 85.41016
1203.388, 385.0938
1204.471, 341.7461
1205.554, 24.64062
1206.637, 278.8906
1207.719, 8.386719
1208.802, 451.8164
1209.884, 19.78906
1210.966, 234.5195
1212.048, 398.7969
1213.130, 23.03125
1214.212, 243.7930
1215.293, 496.1797
1216.374, 246.1172
1217.456, 24.97656
1218.536, 255.8359
1219.617, 128.6094
1220.698, 102.3477
1221.778, 57.03516
1222.859, 412.6719
1223.939, 28.27344
1225.019, 367.8086
1226.099, 308.3125
1227.178, 191.7734
1228.258, 219.4492
1229.337, 174.6094
1230.417, 147.0195
1231.496, 197.6172
1232.574, 152.8711
1233.653, 217.0859
1234.732, 296.2578
1235.810, 388.3906
1236.888, 237.4844
1237.966, 135.5391
1239.044, 406.5469
1240.122, 226.5195
1241.199, 329.4453
1242.277, 457.3398
1243.354, 379.1914
1244.431, 652.0078
1245.508, 349.7812
1246.585, 249.5156
1247.661, 441.2148
1248.738, 170.8672
1249.814, 493.4844
1250.890, 244.0547
1251.966, 361.5859
1253.042, 247.0781
1254.117, 152.5273
1255.193, 57.06641
1256.268, 180.2227
1257.343, 32.47266
1258.418, 95.66406
1259.493, 74.50000
1260.567, 32.46875
1261.642, 496.4766
1262.716, 455.4023
1263.790, 481.5898
1264.864, 582.4453
1265.938, 549.2578
1267.011, 210.6523
1268.085, 617.3789
1269.158, 326.0703
1270.231, 407.6406
1271.304, 638.1797
1272.377, 609.3906
1273.450, 536.6953
1274.522, 434.9453
1275.594, 236.6719
1276.666, 454.1328
1277.738, 471.6172
1278.810, 207.8906
1279.882, 559.2344
1280.953, 215.2148
1282.025, 301.7695
1283.096, 552.2734
1284.167, 272.8945
1285.238, 472.4883
1286.308, 356.3555
1287.379, 716.1328
1288.449, 215.7656
1289.519, 122.1289
1290.589, 451.8555
1291.659, 498.7656
1292.729, 322.1055
1293.798, 199.5586
1294.868, 397.3555
1295.937, 352.1172
1297.006, 600.1562
1298.075, 491.8438
1299.143, 303.7617
1300.212, 280.9922
1301.280, 288.5547
1302.348, 72.08594
1303.416, 600.3008
1304.484, 531.4727
1305.552, 6.546875
1306.620, 641.3828
1307.687, 276.8398
1308.754, 207.2500
1309.821, 836.9336
1310.888, 489.0938
1311.955, 445.3203
1313.021, 374.5117
1314.088, 603.5586
1315.154, 441.7812
1316.220, 533.2031
1317.286, 710.2734
1318.352, 543.5195
1319.417, 724.2266
1320.483, 672.0781
1321.548, 633.3906
1322.613, 625.9609
1323.678, 603.3711
1324.743, 628.4922
1325.807, 599.0391
1326.872, 585.4336
1327.936, 586.6914
1329.000, 536.6094
1330.064, 472.2891
1331.128, 415.1914
1332.191, 348.8477
1333.255, 380.4727
1334.318, 387.7266
1335.381, 295.3008
1336.444, 413.4688
1337.507, 372.9922
1338.569, 453.2734
1339.632, 310.5469
1340.694, 411.9961
1341.756, 457.6211
1342.818, 423.5781
1343.880, 454.4062
1344.941, 310.1289
