##NAMES=Clinozoisite
##RRUFFID=R060284
##IDEAL CHEMISTRY=Ca_2_Al_3_(Si_2_O_7_)(SiO_4_)O(OH)
##LOCALITY=near Zagi Mountain, Khaffor Dehri, North-West Frontier Province, Pakistan
##OWNER=RRUFF
##SOURCE=Herb Obodda
##DESCRIPTION=Greenish-brown fragment of a prismatic crystal
##STATUS=The identification of this mineral has been confirmed by X-ray diffraction and chemical analysis
##URL=rruff.info/R060284
##MEASURED CHEMISTRY=Ca_2.00_(Al_0.90_Fe^3+^_0.10_)_3_(Si_1.00_O_4_)(Si_2.00_O_7_)O(OH)
##PIN_ID=L00714
##ORIENTATION=Laser parallel to c* (0 0 1). Fiducial mark perpendicular to laser is parallel to a [1 0 0]
118.1340, 0.0000000E+00
119.3650, 93.14844
120.5960, 97.84082
121.8270, 118.5439
123.0580, 211.2676
124.2880, 71.67773
125.5190, 71.91504
126.7490, 29.02344
127.9790, 16.03711
129.2090, 92.65820
130.4390, 52.39062
131.6680, 33.69824
132.8980, 294.2510
134.1270, 189.7959
135.3560, 436.2832
136.5850, 533.6572
137.8140, 863.4004
139.0430, 1070.266
140.2710, 927.0547
141.5000, 996.7686
142.7280, 985.3906
143.9560, 994.8926
145.1840, 1185.244
146.4120, 1396.409
147.6390, 1338.350
148.8670, 1274.033
150.0940, 1472.428
151.3210, 1724.505
152.5490, 1749.520
153.7750, 1862.802
155.0020, 1941.472
156.2290, 2017.485
157.4550, 1996.850
158.6810, 1992.823
159.9080, 1882.695
161.1340, 1862.284
162.3590, 1793.531
163.5850, 1816.385
164.8110, 1927.802
166.0360, 2034.741
167.2610, 2270.171
168.4860, 2597.060
169.7110, 3278.385
170.9360, 3531.121
172.1610, 3677.250
173.3850, 3770.751
174.6100, 3618.605
175.8340, 3321.795
177.0580, 3051.310
178.2820, 2358.139
179.5050, 1930.271
180.7290, 1279.700
181.9520, 970.4160
183.1760, 607.4131
184.3990, 320.8389
185.6220, 69.90625
186.8450, 50.79297
188.0670, 45.73926
189.2900, 82.49902
190.5120, 128.4678
191.7340, 97.98926
192.9560, 63.58203
194.1780, 159.5732
195.4000, 37.06641
196.6220, 86.44336
197.8430, 226.9258
199.0640, 351.2129
200.2860, 473.4365
201.5070, 754.6104
202.7270, 1029.751
203.9480, 1210.869
205.1690, 1443.976
206.3890, 1594.082
207.6090, 1887.197
208.8290, 2336.328
210.0490, 2547.480
211.2690, 2808.659
212.4890, 3140.867
213.7080, 3366.112
214.9280, 3456.398
216.1470, 3628.603
217.3660, 3593.117
218.5850, 3741.558
219.8030, 3720.059
221.0220, 3667.625
222.2400, 3865.256
223.4590, 3936.958
224.6770, 4233.732
225.8950, 4528.580
227.1120, 5246.490
228.3300, 5954.412
229.5480, 6777.391
230.7650, 7976.410
231.9820, 9102.510
233.1990, 10537.70
234.4160, 11426.97
235.6330, 11777.35
236.8490, 11906.81
238.0660, 11566.37
239.2820, 11024.02
240.4980, 10251.77
241.7140, 9624.623
242.9300, 8730.570
244.1460, 8352.616
245.3610, 8170.768
246.5770, 8014.018
247.7920, 8083.372
249.0070, 8716.389
250.2220, 9108.638
251.4370, 9063.696
252.6510, 9013.254
253.8660, 8816.920
255.0800, 8226.694
256.2940, 7697.581
257.5080, 7152.584
258.7220, 6954.721
259.9360, 6052.977
261.1490, 4885.342
262.3630, 4262.268
263.5760, 4298.789
264.7890, 4163.439
266.0020, 4546.613
267.2150, 4929.857
268.4270, 5814.606
269.6400, 6555.012
270.8520, 7800.387
272.0640, 9004.661
273.2760, 9652.490
274.4880, 9999.433
275.7000, 9569.841
276.9120, 8940.492
278.1230, 8064.380
279.3340, 7129.492
280.5450, 6469.818
281.7560, 5814.352
282.9670, 5172.080
284.1780, 4797.985
285.3880, 4523.064
286.5980, 4236.314
287.8090, 4077.729
289.0190, 3825.307
290.2290, 3852.041
291.4380, 3732.933
292.6480, 3757.977
293.8570, 3679.169
295.0670, 3548.508
296.2760, 3411.992
297.4850, 3444.616
298.6930, 3460.359
299.9020, 3257.208
301.1110, 3115.104
302.3190, 3084.047
303.5270, 3159.092
304.7350, 3217.727
305.9430, 3355.569
307.1510, 3610.996
308.3580, 3870.546
309.5660, 4292.215
310.7730, 4424.004
311.9800, 4685.905
313.1870, 4729.923
314.3940, 4804.051
315.6010, 4716.293
316.8070, 4706.645
318.0130, 4436.104
319.2200, 4329.672
320.4260, 4077.344
321.6310, 4045.124
322.8370, 4018.008
324.0430, 3983.997
325.2480, 3938.088
326.4540, 4453.283
327.6590, 4555.580
328.8640, 4956.979
330.0680, 5536.478
331.2730, 6221.074
332.4780, 6898.994
333.6820, 7849.787
334.8860, 8947.201
336.0900, 9951.466
337.2940, 10979.70
338.4980, 12192.84
339.7010, 13195.36
340.9050, 14192.67
342.1080, 14830.46
343.3110, 15728.93
344.5140, 16893.47
345.7170, 18117.10
346.9200, 19689.80
348.1220, 21373.59
349.3240, 23392.46
350.5270, 24728.41
351.7290, 24978.45
352.9310, 24774.57
354.1320, 23160.77
355.3340, 21305.06
356.5350, 18817.44
357.7370, 15869.90
358.9380, 13243.45
360.1390, 10957.09
361.3400, 8966.811
362.5400, 7331.624
363.7410, 5939.523
364.9410, 4909.512
366.1410, 4085.588
367.3410, 3476.752
368.5410, 2913.006
369.7410, 2517.349
370.9400, 2062.779
372.1400, 1536.299
373.3390, 1259.907
374.5380, 975.6055
375.7370, 551.3916
376.9360, 344.2686
378.1350, 33.76660
379.3330, 60.26660
380.5310, 59.61230
381.7300, 268.4277
382.9280, 67.77832
384.1260, 138.0693
385.3230, 190.4492
386.5210, 416.9160
387.7180, 751.4697
388.9160, 879.1094
390.1130, 1038.837
391.3100, 1274.649
392.5060, 1439.548
393.7030, 1674.512
394.9000, 1860.283
396.0960, 1985.011
397.2920, 2127.127
398.4880, 2032.846
399.6840, 1921.131
400.8800, 1530.499
402.0750, 963.9521
403.2710, 640.4873
404.4660, 37.89355
405.6610, 265.2129
406.8560, 582.5361
408.0510, 887.1182
409.2450, 1065.023
410.4400, 1099.334
411.6340, 949.0645
412.8280, 733.1367
414.0220, 455.4414
415.2160, 132.8467
416.4100, 449.7832
417.6030, 1085.535
418.7970, 2238.403
419.9900, 3333.372
421.1830, 4765.443
422.3760, 6393.617
423.5690, 8188.891
424.7610, 9838.262
425.9540, 11253.74
427.1460, 12273.30
428.3380, 12632.97
429.5300, 12208.73
430.7220, 11847.59
431.9140, 11079.55
433.1050, 10108.59
434.2970, 9598.739
435.4880, 9013.975
436.6790, 8782.303
437.8700, 9049.727
439.0610, 9327.238
440.2510, 10114.84
441.4420, 11298.55
442.6320, 12710.34
443.8220, 14415.23
445.0120, 16532.24
446.2020, 18774.37
447.3910, 21261.61
448.5810, 23846.96
449.7700, 26148.41
450.9600, 27814.98
452.1490, 28965.67
453.3370, 29196.48
454.5260, 28627.41
455.7150, 27706.48
456.9030, 25818.68
458.0910, 24274.00
459.2800, 22428.46
460.4670, 20906.05
461.6550, 19137.75
462.8430, 18141.61
464.0300, 17087.59
465.2180, 16612.73
466.4050, 16255.01
467.5920, 16124.48
468.7790, 15967.11
469.9650, 15968.93
471.1520, 15830.90
472.3380, 15902.04
473.5250, 15369.36
474.7110, 15435.83
475.8970, 15096.48
477.0820, 14701.32
478.2680, 14331.33
479.4540, 13789.54
480.6390, 13349.92
481.8240, 12711.47
483.0090, 12110.21
484.1940, 10996.14
485.3780, 10371.24
486.5630, 9515.510
487.7470, 8449.931
488.9320, 7591.521
490.1160, 6841.254
491.3000, 6188.144
492.4830, 5675.479
493.6670, 5026.367
494.8500, 4905.706
496.0340, 4690.188
497.2170, 4431.805
498.4000, 4738.557
499.5820, 5159.438
500.7650, 5441.443
501.9480, 6080.572
503.1300, 6761.822
504.3120, 7427.196
505.4940, 8249.658
506.6760, 8645.016
507.8580, 8829.876
509.0390, 9140.694
510.2210, 8688.568
511.4020, 8151.534
512.5830, 7739.576
513.7640, 7382.686
514.9450, 6861.861
516.1250, 6462.097
517.3060, 6065.391
518.4860, 5891.744
519.6660, 5513.150
520.8460, 4937.413
522.0260, 4329.918
523.2060, 3900.198
524.3850, 3444.636
525.5650, 2800.294
526.7440, 2181.999
527.9230, 1852.748
529.1020, 1255.543
530.2810, 925.3809
531.4590, 605.2598
532.6380, 452.1797
533.8160, 196.1396
534.9940, 87.13867
536.1720, 24.82520
537.3500, 22.76611
538.5270, 93.31494
539.7050, 15.56787
540.8820, 122.5718
542.0590, 262.7456
543.2360, 271.9536
544.4130, 382.1934
545.5900, 341.4648
546.7660, 676.3447
547.9430, 679.5479
549.1190, 842.0737
550.2950, 958.4429
551.4710, 1236.440
552.6470, 1612.494
553.8220, 1860.433
554.9980, 2468.086
556.1730, 2830.945
557.3480, 3771.077
558.5230, 4478.738
559.6980, 5686.440
560.8730, 7015.179
562.0470, 8892.957
563.2220, 11292.77
564.3960, 14439.62
565.5700, 18623.50
566.7440, 24132.42
567.9170, 31193.38
569.0910, 38263.36
570.2640, 44114.36
571.4380, 46425.40
572.6110, 45211.46
573.7840, 41119.57
574.9570, 35630.69
576.1290, 28914.84
577.3020, 22639.02
578.4740, 17401.21
579.6460, 13325.43
580.8180, 10946.88
581.9900, 9284.972
583.1620, 8441.482
584.3330, 8006.928
585.5040, 8078.895
586.6760, 8763.053
587.8470, 9220.085
589.0180, 10073.39
590.1880, 11071.86
591.3590, 12268.46
592.5290, 13451.69
593.7000, 14764.11
594.8700, 15918.91
596.0400, 17705.84
597.2090, 19157.90
598.3790, 20919.95
599.5490, 22962.66
600.7180, 24959.92
601.8870, 26844.66
603.0560, 28771.18
604.2250, 29832.52
605.3940, 30291.96
606.5620, 29662.75
607.7300, 28068.11
608.8990, 25961.89
610.0670, 23310.00
611.2350, 20469.30
612.4020, 18100.33
613.5700, 15614.13
614.7370, 13830.25
615.9050, 11978.24
617.0720, 10454.45
618.2390, 9135.930
619.4060, 7910.631
620.5720, 6766.244
621.7390, 5826.485
622.9050, 5025.003
624.0710, 4314.729
625.2370, 3733.796
626.4030, 3394.974
627.5690, 2912.692
628.7340, 2627.499
629.9000, 2194.802
631.0650, 2065.149
632.2300, 1918.965
633.3950, 1825.341
634.5600, 1719.525
635.7240, 1724.302
636.8890, 1401.326
638.0530, 1487.896
639.2170, 1345.261
640.3810, 1403.158
641.5450, 1441.492
642.7080, 1347.146
643.8720, 1340.387
645.0350, 1509.063
646.1980, 1646.045
647.3610, 1803.200
648.5240, 2070.478
649.6870, 2478.043
650.8490, 2894.253
652.0120, 3294.098
653.1740, 3770.243
654.3360, 4310.533
655.4980, 4667.617
656.6600, 4754.222
657.8210, 4804.674
658.9830, 4655.504
660.1440, 4521.279
661.3050, 4260.509
662.4660, 4090.529
663.6270, 3890.580
664.7870, 3604.114
665.9480, 3499.593
667.1080, 3201.823
668.2680, 3022.192
669.4280, 2761.142
670.5880, 2601.990
671.7480, 2427.734
672.9070, 2361.376
674.0670, 2279.915
675.2260, 2237.349
676.3850, 2170.926
677.5440, 2226.452
678.7030, 2300.570
679.8610, 2383.063
681.0200, 2616.968
682.1780, 2714.766
683.3360, 2808.456
684.4940, 2941.037
685.6520, 3029.509
686.8090, 3135.892
687.9670, 3181.743
689.1240, 3117.594
690.2810, 3244.057
691.4380, 3255.662
692.5950, 3279.417
693.7520, 3440.282
694.9080, 3530.207
696.0650, 3737.124
697.2210, 3945.965
698.3770, 4114.689
699.5330, 4369.298
700.6880, 4426.790
701.8440, 4347.167
702.9990, 4344.423
704.1550, 4121.562
705.3100, 3798.583
706.4650, 3600.485
707.6190, 3118.266
708.7740, 2741.928
709.9290, 2376.469
711.0830, 1986.536
712.2370, 1703.187
713.3910, 1356.362
714.5450, 1140.416
715.6980, 996.3462
716.8520, 790.1533
718.0050, 533.8369
719.1580, 484.3945
720.3110, 341.8247
721.4640, 276.1221
722.6170, 289.2817
723.7700, 76.30371
724.9220, 25.15234
726.0740, 77.80664
727.2260, 105.2866
728.3780, 100.6006
729.5300, 97.28760
730.6810, 11.72266
731.8330, 46.49365
732.9840, 4.075684
734.1350, 13.55322
735.2860, 15.12598
736.4370, 1.525879
737.5880, 40.75928
738.7380, 1.280762
739.8880, 9.017578
741.0390, 36.97461
742.1890, 34.16650
743.3380, 115.5923
744.4880, 105.2949
745.6380, 226.2690
746.7870, 153.5771
747.9360, 223.1821
749.0850, 163.1206
750.2340, 191.3599
751.3830, 172.9155
752.5310, 194.7764
753.6800, 177.9546
754.8280, 246.4409
755.9760, 252.2695
757.1240, 225.4438
758.2720, 177.9487
759.4190, 189.7588
760.5670, 259.8789
761.7140, 249.3452
762.8610, 225.1509
764.0080, 229.2822
765.1550, 160.7397
766.3020, 228.4873
767.4480, 143.5576
768.5950, 194.9058
769.7410, 157.5566
770.8870, 185.4897
772.0330, 185.6504
773.1780, 166.5190
774.3240, 142.0410
775.4690, 138.3286
776.6140, 122.7554
777.7590, 119.0288
778.9040, 113.8638
780.0490, 106.9434
781.1940, 120.2612
782.3380, 3.823242
783.4820, 76.56592
784.6260, 83.52441
785.7700, 105.7021
786.9140, 3.106934
788.0580, 49.68311
789.2010, 16.54688
790.3450, 39.62061
791.4880, 86.55029
792.6310, 89.34521
793.7730, 123.0078
794.9160, 123.5430
796.0590, 189.9507
797.2010, 173.2378
798.3430, 278.4048
799.4850, 298.4565
800.6270, 262.3945
801.7690, 380.2183
802.9100, 357.9336
804.0520, 386.6294
805.1930, 322.0371
806.3340, 431.4277
807.4750, 508.7144
808.6160, 559.8989
809.7560, 629.9805
810.8970, 618.9614
812.0370, 704.8418
813.1770, 730.6226
814.3170, 953.3125
815.4570, 866.9116
816.5960, 1149.414
817.7360, 1090.826
818.8750, 1235.143
820.0140, 1439.366
821.1530, 1519.496
822.2920, 1700.533
823.4310, 1790.478
824.5690, 2024.333
825.7070, 2146.097
826.8460, 2176.772
827.9840, 2529.357
829.1220, 2661.853
830.2590, 2906.257
831.3970, 3150.572
832.5340, 3165.797
833.6710, 3390.933
834.8080, 3576.979
835.9450, 3784.939
837.0820, 3884.812
838.2190, 3832.599
839.3550, 4013.301
840.4910, 4043.919
841.6270, 4154.455
842.7630, 4264.909
843.8990, 4276.282
845.0350, 4475.576
846.1700, 4466.790
847.3060, 4604.928
848.4410, 4688.990
849.5760, 4855.975
850.7100, 5013.887
851.8450, 5214.723
852.9800, 5416.489
854.1140, 5776.182
855.2480, 6032.805
856.3820, 6393.146
857.5160, 6798.803
858.6500, 7208.991
859.7830, 7951.196
860.9170, 8489.830
862.0500, 9162.229
863.1830, 9790.708
864.3160, 10824.86
865.4480, 11770.80
866.5810, 13116.57
867.7130, 14056.66
868.8460, 15539.51
869.9780, 16565.94
871.1100, 17719.18
872.2410, 18212.26
873.3730, 18880.30
874.5050, 19338.62
875.6360, 19812.35
876.7670, 20374.50
877.8980, 20730.94
879.0290, 21400.45
880.1590, 21773.82
881.2900, 22287.79
882.4200, 22634.14
883.5500, 23144.05
884.6800, 23337.57
885.8100, 23612.87
886.9400, 24284.38
888.0690, 24567.08
889.1990, 25270.43
890.3280, 26169.86
891.4570, 27203.04
892.5860, 28509.92
893.7140, 29610.54
894.8430, 31015.21
895.9710, 31652.24
897.1000, 32742.97
898.2280, 33481.45
899.3560, 33885.60
900.4830, 34373.62
901.6110, 34867.09
902.7380, 35609.43
903.8660, 36936.28
904.9930, 38600.06
906.1200, 40694.36
907.2460, 43109.06
908.3730, 45824.94
909.5000, 48473.21
910.6260, 51228.25
911.7520, 52836.72
912.8780, 54471.36
914.0040, 55221.45
915.1290, 54812.08
916.2550, 53782.38
917.3800, 52041.06
918.5050, 50152.28
919.6300, 47908.16
920.7550, 45877.84
921.8800, 43657.36
923.0040, 41292.57
924.1290, 39546.12
925.2530, 37615.01
926.3770, 36045.57
927.5010, 34127.95
928.6250, 32749.52
929.7480, 30760.53
930.8720, 29349.67
931.9950, 27517.40
933.1180, 25762.17
934.2410, 23966.47
935.3640, 22130.95
936.4860, 20316.37
937.6090, 18258.38
938.7310, 16763.38
939.8530, 15107.59
940.9750, 13636.65
942.0970, 12332.08
943.2180, 11167.58
944.3400, 10302.15
945.4610, 9308.783
946.5820, 8531.492
947.7030, 7969.270
948.8240, 7350.126
949.9450, 7269.061
951.0650, 6736.071
952.1860, 6654.175
953.3060, 6519.348
954.4260, 6272.603
955.5460, 6174.936
956.6650, 6024.351
957.7850, 6213.867
958.9040, 6083.480
960.0230, 6172.887
961.1420, 6106.803
962.2610, 6243.832
963.3800, 6040.788
964.4990, 5897.833
965.6170, 6074.957
966.7350, 5953.180
967.8530, 6081.488
968.9710, 5942.905
970.0890, 5819.415
971.2070, 5983.015
972.3240, 6152.701
973.4410, 6573.489
974.5580, 7063.373
975.6750, 7801.341
976.7920, 8687.421
977.9090, 9827.590
979.0250, 11154.85
980.1410, 12900.21
981.2580, 14584.67
982.3740, 16287.24
983.4890, 17597.91
984.6050, 18338.68
985.7200, 18448.55
986.8360, 17727.52
987.9510, 16496.59
989.0660, 14633.77
990.1810, 12883.04
991.2950, 10867.41
992.4100, 9291.888
993.5240, 7642.472
994.6390, 6395.167
995.7530, 5243.990
996.8660, 4451.956
997.9800, 3718.060
999.0940, 3042.285
1000.207, 2615.637
1001.320, 2118.116
1002.433, 1643.731
1003.546, 1487.474
1004.659, 1169.354
1005.772, 950.3843
1006.884, 727.5571
1007.996, 533.8716
1009.108, 455.5522
1010.220, 287.1699
1011.332, 214.9370
1012.444, 197.8618
1013.555, 98.93799
1014.666, 230.1870
1015.777, 369.6182
1016.888, 384.8804
1017.999, 467.1504
1019.110, 635.1641
1020.220, 881.4917
1021.331, 1097.836
1022.441, 1263.850
1023.551, 1628.690
1024.661, 2074.288
1025.770, 2568.747
1026.880, 2934.284
1027.989, 3260.488
1029.098, 3554.513
1030.207, 3729.529
1031.316, 3931.635
1032.425, 3977.981
1033.533, 3992.283
1034.642, 4074.923
1035.750, 3969.018
1036.858, 3964.973
1037.966, 4113.290
1039.073, 4369.060
1040.181, 4492.342
1041.288, 4826.854
1042.396, 5012.536
1043.503, 5195.204
1044.610, 5425.227
1045.716, 5643.025
1046.823, 5632.637
1047.929, 5671.455
1049.036, 5693.132
1050.142, 5492.917
1051.248, 5286.995
1052.353, 5007.910
1053.459, 4701.213
1054.564, 4237.823
1055.670, 3910.538
1056.775, 3489.209
1057.880, 3094.076
1058.985, 2649.539
1060.089, 2370.397
1061.194, 1964.646
1062.298, 1745.028
1063.402, 1517.125
1064.506, 1315.504
1065.610, 1235.168
1066.713, 1139.527
1067.817, 1013.647
1068.920, 977.7627
1070.023, 1020.177
1071.126, 1138.129
1072.229, 1327.492
1073.332, 1505.410
1074.435, 1796.939
1075.537, 1978.452
1076.639, 2384.137
1077.741, 2926.528
1078.843, 3365.723
1079.945, 3759.775
1081.046, 4576.767
1082.148, 5142.304
1083.249, 6126.895
1084.350, 7216.306
1085.451, 8609.585
1086.551, 10238.58
1087.652, 12069.56
1088.752, 14012.43
1089.853, 16329.70
1090.953, 18946.82
1092.053, 20852.30
1093.152, 21969.78
1094.252, 22523.97
1095.351, 21436.20
1096.451, 19387.57
1097.550, 16793.59
1098.649, 14056.98
1099.748, 11406.69
1100.846, 8969.743
1101.945, 7034.032
1103.043, 5515.177
1104.141, 4247.291
1105.239, 3527.199
1106.337, 2784.973
1107.434, 2370.150
1108.532, 1994.947
1109.629, 1691.889
1110.726, 1474.709
1111.823, 1366.312
1112.920, 1210.585
1114.017, 961.5532
1115.113, 956.2725
1116.210, 771.8101
1117.306, 810.8193
1118.402, 699.2061
1119.498, 533.0278
1120.593, 530.7622
1121.689, 506.1694
1122.784, 386.6875
1123.879, 459.5420
1124.974, 347.0522
1126.069, 301.8232
1127.164, 264.4785
1128.259, 207.6152
1129.353, 178.7021
1130.447, 135.8115
1131.541, 103.2651
1132.635, 82.90723
1133.729, 65.99951
1134.822, 59.55859
1135.916, 51.55469
1137.009, 77.21387
1138.102, 70.12305
1139.195, 73.07715
1140.288, 16.61768
1141.380, 60.92480
1142.473, 588.2485
1143.565, 1118.376
1144.657, 440.4482
1145.749, 54.55518
1146.841, 56.86865
1147.932, 38.83105
1149.024, 28.89014
1150.115, 17.12793
1151.206, 6.059570
1152.297, 48.57520
1153.388, 24.15771
1154.479, 50.41211
1155.569, 31.68506
1156.659, 139.5112
1157.750, 4.812988
1158.839, 142.6338
1159.929, 129.9258
1161.019, 120.9595
1162.108, 123.8569
1163.198, 202.5068
1164.287, 194.6792
1165.376, 174.5791
1166.465, 136.1587
1167.553, 126.2002
1168.642, 127.7412
1169.730, 109.1655
1170.818, 154.5630
1171.906, 112.6587
1172.994, 168.9912
1174.082, 180.8218
1175.170, 144.4653
1176.257, 50.42334
1177.344, 104.7241
1178.431, 83.24072
1179.518, 114.6636
1180.605, 50.21143
1181.691, 51.12842
1182.778, 63.68213
1183.864, 24.40527
1184.950, 25.93115
1186.036, 63.99170
1187.122, 71.22754
1188.207, 46.34717
1189.292, 42.80811
1190.378, 14.79980
1191.463, 51.35010
1192.548, 10.72803
1193.632, 39.93506
1194.717, 22.54639
1195.801, 42.10107
1196.886, 5.563477
1197.970, 14.75732
1199.054, 60.10645
1200.137, 16.58789
1201.221, 32.69531
1202.305, 76.87646
1203.388, 0.9238280
1204.471, 82.09766
1205.554, 37.04492
1206.637, 79.05225
1207.719, 25.80469
1208.802, 63.50391
1209.884, 43.16064
1210.966, 26.24707
1212.048, 20.79443
1213.130, 73.36719
1214.212, 18.19482
1215.293, 156.1665
1216.374, 30.47559
1217.456, 83.71631
1218.536, 42.15039
1219.617, 12.66211
1220.698, 6.631348
1221.778, 65.35547
1222.859, 48.47070
1223.939, 83.32275
1225.019, 63.25244
1226.099, 65.04639
1227.178, 161.6523
1228.258, 32.41602
1229.337, 96.88818
1230.417, 10.29590
1231.496, 67.60352
1232.574, 100.8335
1233.653, 138.9961
1234.732, 46.10107
1235.810, 99.11426
1236.888, 156.0557
1237.966, 39.93848
1239.044, 139.7227
1240.122, 117.4438
1241.199, 164.0918
1242.277, 65.67871
1243.354, 100.1709
1244.431, 63.58105
1245.508, 151.8940
1246.585, 112.1372
1247.661, 134.2969
1248.738, 157.3794
1249.814, 105.3901
1250.890, 183.3115
1251.966, 184.1646
1253.042, 175.9478
1254.117, 157.7300
1255.193, 153.3618
1256.268, 130.9136
1257.343, 150.3770
1258.418, 100.9358
1259.493, 195.2153
1260.567, 152.4800
1261.642, 178.5981
1262.716, 304.6367
1263.790, 295.6133
1264.864, 279.6602
1265.938, 243.5220
1267.011, 305.4275
1268.085, 306.4041
1269.158, 279.2834
1270.231, 219.6506
1271.304, 233.2959
1272.377, 246.7205
1273.450, 329.2322
1274.522, 330.6545
1275.594, 290.1650
1276.666, 361.3157
1277.738, 273.7590
1278.810, 417.3081
1279.882, 386.2490
1280.953, 335.9954
1282.025, 259.8516
1283.096, 300.1543
1284.167, 302.8330
1285.238, 368.7961
1286.308, 303.2683
1287.379, 363.7285
1288.449, 300.6084
1289.519, 396.7419
1290.589, 354.0859
1291.659, 316.1423
