##NAMES=Clinozoisite
##RRUFFID=R060284
##IDEAL CHEMISTRY=Ca_2_Al_3_(Si_2_O_7_)(SiO_4_)O(OH)
##LOCALITY=near Zagi Mountain, Khaffor Dehri, North-West Frontier Province, Pakistan
##OWNER=RRUFF
##SOURCE=Herb Obodda
##DESCRIPTION=Greenish-brown fragment of a prismatic crystal
##STATUS=The identification of this mineral has been confirmed by X-ray diffraction and chemical analysis
##URL=rruff.info/R060284
##MEASURED CHEMISTRY=Ca_2.00_(Al_0.90_Fe^3+^_0.10_)_3_(Si_1.00_O_4_)(Si_2.00_O_7_)O(OH)
##PIN_ID=L01751
##ORIENTATION=Laser parallel to (1 0 1). Fiducial mark perpendicular to laser is parallel to -b [0 -1 0]
118.1340, 0.0000000E+00
119.3650, 43.99609
120.5960, 26.58447
121.8270, 26.26904
123.0580, 15.97461
124.2880, 4.361816
125.5190, 92.09424
126.7490, 99.73730
127.9790, 351.0605
129.2090, 526.9570
130.4390, 856.1514
131.6680, 1180.669
132.8980, 1576.645
134.1270, 2092.246
135.3560, 2612.916
136.5850, 3304.286
137.8140, 4051.105
139.0430, 4857.184
140.2710, 5489.849
141.5000, 6260.525
142.7280, 6712.946
143.9560, 7186.170
145.1840, 7331.112
146.4120, 7339.756
147.6390, 7353.199
148.8670, 7374.514
150.0940, 7249.760
151.3210, 7199.994
152.5490, 7077.345
153.7750, 7017.861
155.0020, 6955.568
156.2290, 6904.530
157.4550, 6809.751
158.6810, 7228.215
159.9080, 7174.906
161.1340, 7519.160
162.3590, 7778.566
163.5850, 8428.292
164.8110, 8610.166
166.0360, 8944.646
167.2610, 9177.759
168.4860, 9305.260
169.7110, 9010.193
170.9360, 8524.396
172.1610, 7763.411
173.3850, 7249.758
174.6100, 6648.424
175.8340, 5805.399
177.0580, 5254.676
178.2820, 4529.240
179.5050, 4040.077
180.7290, 3453.171
181.9520, 2886.512
183.1760, 2298.096
184.3990, 1850.226
185.6220, 1704.761
186.8450, 1290.762
188.0670, 1190.908
189.2900, 890.2041
190.5120, 714.7168
191.7340, 620.0449
192.9560, 495.9102
194.1780, 395.1982
195.4000, 225.4922
196.6220, 79.79785
197.8430, 162.1367
199.0640, 186.5186
200.2860, 62.95605
201.5070, 103.4561
202.7270, 30.97363
203.9480, 113.6729
205.1690, 161.3955
206.3890, 12.20312
207.6090, 41.90625
208.8290, 80.92871
210.0490, 121.8623
211.2690, 64.70215
212.4890, 80.44824
213.7080, 147.0996
214.9280, 29.65723
216.1470, 119.1270
217.3660, 85.51270
218.5850, 119.8164
219.8030, 77.03320
221.0220, 110.1621
222.2400, 44.20117
223.4590, 140.8555
224.6770, 358.0068
225.8950, 554.2549
227.1120, 885.6035
228.3300, 1195.053
229.5480, 1621.605
230.7650, 2174.260
231.9820, 2676.019
233.1990, 3256.884
234.4160, 4135.832
235.6330, 4956.883
236.8490, 5654.992
238.0660, 6451.102
239.2820, 7278.223
240.4980, 8348.374
241.7140, 9131.535
242.9300, 10247.72
244.1460, 11150.98
245.3610, 12630.37
246.5770, 14112.88
247.7920, 15601.53
249.0070, 17259.06
250.2220, 19111.75
251.4370, 20564.23
252.6510, 22051.52
253.8660, 23259.49
255.0800, 23881.12
256.2940, 23549.90
257.5080, 22746.81
258.7220, 21584.86
259.9360, 19839.04
261.1490, 17602.35
262.3630, 15541.59
263.5760, 13593.68
264.7890, 12126.60
266.0020, 10868.81
267.2150, 9799.188
268.4270, 9082.797
269.6400, 8100.601
270.8520, 7470.369
272.0640, 7054.533
273.2760, 6616.992
274.4880, 6254.721
275.7000, 5735.697
276.9120, 5327.897
278.1230, 4995.308
279.3340, 4585.906
280.5450, 3974.684
281.7560, 3815.631
282.9670, 3286.740
284.1780, 3153.003
285.3880, 2831.416
286.5980, 2619.972
287.8090, 2543.655
289.0190, 2441.449
290.2290, 2476.343
291.4380, 2440.330
292.6480, 2337.415
293.8570, 2541.601
295.0670, 2585.886
296.2760, 2556.271
297.4850, 2654.756
298.6930, 2572.345
299.9020, 2673.034
301.1110, 2513.824
302.3190, 2718.716
303.5270, 2593.706
304.7350, 2557.795
305.9430, 2397.983
307.1510, 2274.236
308.3580, 2222.582
309.5660, 1952.926
310.7730, 1746.233
311.9800, 1901.488
313.1870, 1680.742
314.3940, 1484.970
315.6010, 1528.188
316.8070, 1363.485
318.0130, 1372.896
319.2200, 1539.419
320.4260, 1574.055
321.6310, 1722.801
322.8370, 2204.657
324.0430, 2445.620
325.2480, 2817.694
326.4540, 3169.875
327.6590, 3773.164
328.8640, 4389.559
330.0680, 4966.059
331.2730, 5903.656
332.4780, 6692.354
333.6820, 7604.146
334.8860, 8172.039
336.0900, 8902.027
337.2940, 9605.108
338.4980, 10054.28
339.7010, 10509.55
340.9050, 10890.91
342.1080, 11983.35
343.3110, 12796.89
344.5140, 14107.52
345.7170, 15208.25
346.9200, 16735.07
348.1220, 18239.10
349.3240, 19865.11
350.5270, 21299.22
351.7290, 21845.30
352.9310, 22060.31
354.1320, 21653.63
355.3340, 19939.20
356.5350, 18208.53
357.7370, 15461.25
358.9380, 13184.93
360.1390, 11007.17
361.3400, 8809.458
362.5400, 7111.406
363.7410, 5733.882
364.9410, 4603.438
366.1410, 3812.578
367.3410, 3064.842
368.5410, 2363.523
369.7410, 1963.302
370.9400, 1565.176
372.1400, 1142.146
373.3390, 833.0518
374.5380, 492.3730
375.7370, 246.6299
376.9360, 134.9814
378.1350, 85.57129
379.3330, 152.0518
380.5310, 205.4707
381.7300, 385.8408
382.9280, 324.1982
384.1260, 300.5303
385.3230, 233.8340
386.5210, 18.08984
387.7180, 166.7393
388.9160, 188.6660
390.1130, 370.6885
391.3100, 302.8076
392.5060, 469.0215
393.7030, 830.3086
394.9000, 773.6006
396.0960, 784.8203
397.2920, 915.0117
398.4880, 773.2881
399.6840, 715.6641
400.8800, 619.1367
402.0750, 400.7080
403.2710, 257.3740
404.4660, 149.8643
405.6610, 170.0371
406.8560, 420.1846
408.0510, 358.4492
409.2450, 362.7490
410.4400, 326.0850
411.6340, 376.4414
412.8280, 43.83984
414.0220, 291.8506
415.2160, 440.6504
416.4100, 880.5605
417.6030, 1185.579
418.7970, 1878.703
419.9900, 2467.934
421.1830, 3583.269
422.3760, 4118.707
423.5690, 5250.250
424.7610, 6012.896
425.9540, 7049.646
427.1460, 7894.495
428.3380, 8495.447
429.5300, 8988.503
430.7220, 9204.659
431.9140, 8895.913
433.1050, 9004.268
434.2970, 8887.723
435.4880, 8897.275
436.6790, 9258.933
437.8700, 9848.686
439.0610, 10844.54
440.2510, 12095.49
441.4420, 13718.55
442.6320, 15951.70
443.8220, 18642.95
445.0120, 21580.33
446.2020, 25269.82
447.3910, 29022.46
448.5810, 32839.25
449.7700, 36579.20
450.9600, 40366.27
452.1490, 42932.50
453.3370, 44685.83
454.5260, 44992.28
455.7150, 44298.84
456.9030, 42140.53
458.0910, 39468.35
459.2800, 36249.30
460.4670, 32802.37
461.6550, 29753.57
462.8430, 27607.90
464.0300, 25169.36
465.2180, 23688.95
466.4050, 22800.64
467.5920, 21707.47
468.7790, 21606.44
469.9650, 21170.57
471.1520, 21028.83
472.3380, 21088.24
473.5250, 21066.79
474.7110, 20975.87
475.8970, 20911.28
477.0820, 20777.24
478.2680, 20801.35
479.4540, 20596.57
480.6390, 20615.91
481.8240, 20883.38
483.0090, 20704.97
484.1940, 20424.69
485.3780, 19926.53
486.5630, 19066.50
487.7470, 18088.60
488.9320, 16482.91
490.1160, 14884.28
491.3000, 13630.92
492.4830, 12132.93
493.6670, 10848.63
494.8500, 9553.448
496.0340, 8510.789
497.2170, 7692.058
498.4000, 7129.201
499.5820, 6642.211
500.7650, 6656.924
501.9480, 6401.719
503.1300, 6304.451
504.3120, 6343.293
505.4940, 6546.248
506.6760, 6491.330
507.8580, 6708.519
509.0390, 6948.824
510.2210, 7187.234
511.4020, 7141.740
512.5830, 7429.332
513.7640, 7508.998
514.9450, 8013.742
516.1250, 8205.572
517.3060, 8463.481
518.4860, 9039.472
519.6660, 9213.574
520.8460, 9219.482
522.0260, 9531.419
523.2060, 9621.971
524.3850, 9406.559
525.5650, 9647.338
526.7440, 9548.401
527.9230, 9645.911
529.1020, 9306.237
530.2810, 9322.996
531.4590, 8634.828
532.6380, 7915.725
533.8160, 6953.695
534.9940, 5919.732
536.1720, 4636.840
537.3500, 3686.014
538.5270, 2776.259
539.7050, 2022.570
540.8820, 1788.949
542.0590, 1324.396
543.2360, 1073.909
544.4130, 904.4873
545.5900, 659.1309
546.7660, 603.5518
547.9430, 473.2529
549.1190, 560.1523
550.2950, 595.2529
551.4710, 692.2441
552.6470, 900.1855
553.8220, 1047.711
554.9980, 1567.936
556.1730, 1758.163
557.3480, 1952.456
558.5230, 2506.813
559.6980, 3154.233
560.8730, 4182.715
562.0470, 5098.260
563.2220, 6680.865
564.3960, 8014.530
565.5700, 9783.254
566.7440, 11553.04
567.9170, 13521.88
569.0910, 15817.79
570.2640, 17545.74
571.4380, 19000.75
572.6110, 19219.82
573.7840, 18432.94
574.9570, 16219.13
576.1290, 13322.35
577.3020, 10313.64
578.4740, 7405.972
579.6460, 5425.510
580.8180, 3998.946
581.9900, 3081.471
583.1620, 2517.322
584.3330, 2196.904
585.5040, 1844.079
586.6760, 1958.441
587.8470, 2053.997
589.0180, 2130.764
590.1880, 2103.673
591.3590, 2323.686
592.5290, 2461.966
593.7000, 2803.380
594.8700, 2911.309
596.0400, 3256.735
597.2090, 3397.859
598.3790, 3793.487
599.5490, 4070.894
600.7180, 4150.824
601.8870, 4664.949
603.0560, 4986.729
604.2250, 5187.772
605.3940, 5274.765
606.5620, 5284.541
607.7300, 4927.590
608.8990, 4715.652
610.0670, 4483.076
611.2350, 3908.439
612.4020, 3421.093
613.5700, 2874.519
614.7370, 2537.102
615.9050, 2291.008
617.0720, 1799.949
618.2390, 1650.964
619.4060, 1453.842
620.5720, 1252.402
621.7390, 959.7812
622.9050, 779.6133
624.0710, 662.3564
625.2370, 404.5078
626.4030, 436.1846
627.5690, 307.5039
628.7340, 2.005859
629.9000, 81.97559
631.0650, 45.81055
632.2300, 52.24121
633.3950, 84.76465
634.5600, 195.4531
635.7240, 48.80469
636.8890, 141.1074
638.0530, 77.23047
639.2170, 68.28027
640.3810, 59.57910
641.5450, 76.09375
642.7080, 37.08496
643.8720, 132.8428
645.0350, 285.2529
646.1980, 281.0469
647.3610, 438.9404
648.5240, 672.5225
649.6870, 722.4512
650.8490, 1093.334
652.0120, 1354.871
653.1740, 1491.159
654.3360, 1825.438
655.4980, 1953.031
656.6600, 2221.851
657.8210, 2291.939
658.9830, 2234.913
660.1440, 2102.985
661.3050, 2055.826
662.4660, 1814.682
663.6270, 1666.729
664.7870, 1380.098
665.9480, 1423.257
667.1080, 1248.258
668.2680, 1224.280
669.4280, 1172.282
670.5880, 1131.254
671.7480, 1184.192
672.9070, 1030.098
674.0670, 1067.972
675.2260, 1197.818
676.3850, 1107.623
677.5440, 1146.392
678.7030, 1100.127
679.8610, 1341.824
681.0200, 1485.486
682.1780, 1603.111
683.3360, 1715.697
684.4940, 1878.245
685.6520, 1937.754
686.8090, 1917.256
687.9670, 2138.754
689.1240, 2042.301
690.2810, 2013.881
691.4380, 2142.494
692.5950, 2201.133
693.7520, 2208.810
694.9080, 2168.453
696.0650, 2169.053
697.2210, 2301.607
698.3770, 2259.116
699.5330, 2332.579
700.6880, 2228.995
701.8440, 2359.365
702.9990, 2090.686
704.1550, 2148.960
705.3100, 1932.185
706.4650, 1764.359
707.6190, 1483.486
708.7740, 1211.561
709.9290, 1196.584
711.0830, 986.5576
712.2370, 904.4785
713.3910, 671.3477
714.5450, 368.1631
715.6980, 243.9258
716.8520, 330.6348
718.0050, 127.2900
719.1580, 235.8877
720.3110, 152.4287
721.4640, 117.9141
722.6170, 229.3379
723.7700, 11.29395
724.9220, 44.02832
726.0740, 76.88379
727.2260, 126.0566
728.3780, 126.3564
729.5300, 78.36230
730.6810, 80.83105
731.8330, 33.44531
732.9840, 100.8193
734.1350, 80.01367
735.2860, 23.86914
736.4370, 141.8691
737.5880, 30.94922
738.7380, 61.67578
739.8880, 97.68164
741.0390, 4.800781
742.1890, 77.82520
743.3380, 21.39844
744.4880, 8.522461
745.6380, 42.46289
746.7870, 41.58105
747.9360, 157.8359
749.0850, 76.28516
750.2340, 111.8896
751.3830, 59.66797
752.5310, 29.59180
753.6800, 129.6465
754.8280, 65.88672
755.9760, 130.2764
757.1240, 70.14941
758.2720, 42.51465
759.4190, 23.31641
760.5670, 30.24805
761.7140, 92.31445
762.8610, 63.45410
764.0080, 106.8682
765.1550, 37.36523
766.3020, 103.9980
767.4480, 47.87793
768.5950, 67.82520
769.7410, 87.93750
770.8870, 116.3467
772.0330, 79.92383
773.1780, 68.66406
774.3240, 23.25195
775.4690, 31.08691
776.6140, 98.77930
777.7590, 96.64844
778.9040, 48.59961
780.0490, 14.91309
781.1940, 153.8428
782.3380, 12.52832
783.4820, 5.116211
784.6260, 68.60449
785.7700, 7.011719
786.9140, 20.32129
788.0580, 0.5380860
789.2010, 82.65332
790.3450, 189.6924
791.4880, 187.6631
792.6310, 23.56934
793.7730, 126.3857
794.9160, 102.1309
796.0590, 87.19727
797.2010, 195.3301
798.3430, 256.7920
799.4850, 113.1924
800.6270, 198.5205
801.7690, 165.7842
802.9100, 194.9805
804.0520, 303.1104
805.1930, 240.1787
806.3340, 236.1836
807.4750, 224.1270
808.6160, 297.0049
809.7560, 249.8223
810.8970, 339.5771
812.0370, 219.2705
813.1770, 540.9023
814.3170, 403.4727
815.4570, 424.9814
816.5960, 529.4297
817.7360, 519.8164
818.8750, 568.1533
820.0140, 639.4102
821.1530, 613.6182
822.2920, 676.7646
823.4310, 685.6836
824.5690, 799.8828
825.7070, 794.8535
826.8460, 939.7646
827.9840, 1019.616
829.1220, 1153.408
830.2590, 1277.142
831.3970, 1127.815
832.5340, 1157.430
833.6710, 1221.986
834.8080, 1359.482
835.9450, 1247.921
837.0820, 1480.302
838.2190, 1424.624
839.3550, 1569.890
840.4910, 1751.098
841.6270, 1751.250
842.7630, 1951.346
843.8990, 1963.385
845.0350, 1978.369
846.1700, 2208.297
847.3060, 2357.171
848.4410, 2508.990
849.5760, 2842.756
850.7100, 2981.467
851.8450, 3382.125
852.9800, 3457.729
854.1140, 3733.281
855.2480, 4055.630
856.3820, 4478.078
857.5160, 4898.435
858.6500, 5237.465
859.7830, 5519.759
860.9170, 6069.460
862.0500, 6565.969
863.1830, 6994.283
864.3160, 7764.380
865.4480, 8235.333
866.5810, 8901.179
867.7130, 9756.749
868.8460, 10674.18
869.9780, 11564.10
871.1100, 12370.51
872.2410, 13477.22
873.3730, 14590.42
874.5050, 15522.11
875.6360, 16704.72
876.7670, 17674.40
877.8980, 18522.43
879.0290, 19027.18
880.1590, 19238.98
881.2900, 19407.00
882.4200, 18908.78
883.5500, 18087.49
884.6800, 16871.93
885.8100, 15817.33
886.9400, 14367.43
888.0690, 13423.79
889.1990, 12026.98
890.3280, 11403.83
891.4570, 10217.65
892.5860, 9643.375
893.7140, 9310.236
894.8430, 8636.424
895.9710, 8230.792
897.1000, 7665.695
898.2280, 7181.678
899.3560, 6893.240
900.4830, 6306.268
901.6110, 5995.640
902.7380, 5324.816
903.8660, 5117.514
904.9930, 4650.953
906.1200, 4506.017
907.2460, 4221.621
908.3730, 3940.434
909.5000, 3941.326
910.6260, 3833.147
911.7520, 3677.746
912.8780, 3611.240
914.0040, 3425.132
915.1290, 3476.854
916.2550, 3106.547
917.3800, 2909.139
918.5050, 2823.054
919.6300, 2748.589
920.7550, 2420.090
921.8800, 2188.846
923.0040, 2018.239
924.1290, 1860.660
925.2530, 1903.412
926.3770, 1541.395
927.5010, 1598.373
928.6250, 1415.020
929.7480, 1453.424
930.8720, 1299.538
931.9950, 1266.748
933.1180, 1150.842
934.2410, 1240.169
935.3640, 1084.497
936.4860, 1200.662
937.6090, 1073.568
938.7310, 947.7363
939.8530, 911.1152
940.9750, 1066.504
942.0970, 796.9043
943.2180, 891.3115
944.3400, 625.7324
945.4610, 726.1660
946.5820, 590.6191
947.7030, 606.0771
948.8240, 536.5605
949.9450, 599.0576
951.0650, 587.5801
952.1860, 563.1152
953.3060, 660.6660
954.4260, 562.2451
955.5460, 599.8418
956.6650, 692.4541
957.7850, 695.0840
958.9040, 690.7305
960.0230, 735.3945
961.1420, 784.0762
962.2610, 994.7773
963.3800, 1024.495
964.4990, 1149.233
965.6170, 1161.991
966.7350, 1285.769
967.8530, 1228.568
968.9710, 1423.392
970.0890, 1612.235
971.2070, 1836.103
972.3240, 2216.990
973.4410, 2332.900
974.5580, 2981.835
975.6750, 3362.802
976.7920, 3696.799
977.9090, 4499.818
979.0250, 5360.861
980.1410, 6252.932
981.2580, 7201.025
982.3740, 8035.145
983.4890, 8810.289
984.6050, 9524.462
985.7200, 9805.664
986.8360, 9815.890
987.9510, 9354.145
989.0660, 8464.427
990.1810, 7577.740
991.2950, 6574.082
992.4100, 5739.471
993.5240, 4774.890
994.6390, 4006.367
995.7530, 3375.898
996.8660, 2871.501
997.9800, 2323.175
999.0940, 2087.952
1000.207, 1732.826
1001.320, 1446.809
1002.433, 1236.876
1003.546, 1057.005
1004.659, 875.2021
1005.772, 762.4238
1006.884, 581.6934
1007.996, 518.0576
1009.108, 356.4707
1010.220, 160.9316
1011.332, 101.4775
1012.444, 194.0801
1013.555, 13.91309
1014.666, 236.6484
1015.777, 4.655273
1016.888, 181.2236
1017.999, 13.82520
1019.110, 243.2266
1020.220, 210.2285
1021.331, 201.5977
1022.441, 357.9102
1023.551, 473.3096
1024.661, 458.8223
1025.770, 557.3496
1026.880, 588.0469
1027.989, 538.9268
1029.098, 730.0615
1030.207, 710.9531
1031.316, 787.0322
1032.425, 591.1133
1033.533, 654.6592
1034.642, 589.8857
1035.750, 280.1924
1036.858, 343.6250
1037.966, 311.1328
1039.073, 302.7227
1040.181, 295.3721
1041.288, 147.0664
1042.396, 91.84766
1043.503, 109.7021
1044.610, 97.62402
1045.716, 120.6221
1046.823, 18.72070
1047.929, 119.8652
1049.036, 52.70605
1050.142, 4.837891
1051.248, 76.14941
1052.353, 44.30078
1053.459, 4.903320
1054.564, 223.2051
1055.670, 109.1680
1056.775, 42.73926
1057.880, 85.36621
1058.985, 234.0361
1060.089, 277.1230
1061.194, 254.8711
1062.298, 371.6670
1063.402, 345.5049
1064.506, 453.3857
1065.610, 409.3428
1066.713, 627.3389
1067.817, 416.3701
1068.920, 707.5254
1070.023, 733.6357
1071.126, 985.7852
1072.229, 1157.785
1073.332, 1286.008
1074.435, 1477.267
1075.537, 1739.562
1076.639, 1917.893
1077.741, 2285.258
1078.843, 2745.139
1079.945, 2965.576
1081.046, 3599.334
1082.148, 3958.842
1083.249, 4509.434
1084.350, 5070.012
1085.451, 6022.627
1086.551, 6874.439
1087.652, 7838.125
1088.752, 8989.949
1089.853, 9911.705
1090.953, 10999.49
1092.053, 11794.31
1093.152, 12154.16
1094.252, 12136.16
1095.351, 11666.67
1096.451, 11001.14
1097.550, 9666.131
1098.649, 8212.153
1099.748, 6557.209
1100.846, 5140.928
1101.945, 4077.050
1103.043, 3329.205
1104.141, 2763.392
1105.239, 2410.613
1106.337, 2041.146
1107.434, 1890.139
1108.532, 1736.528
1109.629, 1762.877
1110.726, 1450.256
1111.823, 1358.666
1112.920, 1150.109
1114.017, 1230.582
1115.113, 1296.087
1116.210, 1059.621
1117.306, 1058.187
1118.402, 949.7822
1119.498, 837.6016
1120.593, 854.2578
1121.689, 709.9434
1122.784, 663.9883
1123.879, 676.1484
1124.974, 574.9219
1126.069, 444.3701
1127.164, 495.2520
1128.259, 375.1406
1129.353, 353.0264
1130.447, 333.7432
1131.541, 298.4990
1132.635, 267.8271
1133.729, 61.39648
1134.822, 148.4121
1135.916, 116.4512
1137.009, 2.486328
1138.102, 141.6377
1139.195, 53.75195
1140.288, 152.8877
1141.380, 78.81152
1142.473, 57.99219
1143.565, 62.19336
1144.657, 83.58301
1145.749, 181.6406
1146.841, 42.41406
1147.932, 185.7920
1149.024, 58.06641
1150.115, 267.3867
1151.206, 71.29980
1152.297, 190.5049
1153.388, 101.7617
1154.479, 7.278320
1155.569, 17.46973
1156.659, 39.21387
1157.750, 68.04199
1158.839, 142.0068
1159.929, 76.70020
1161.019, 88.59668
1162.108, 4.703125
1163.198, 17.75781
1164.287, 16.88379
1165.376, 25.45801
1166.465, 49.21289
1167.553, 81.03223
1168.642, 80.94531
1169.730, 76.17676
1170.818, 64.65625
1171.906, 50.36230
1172.994, 40.07031
1174.082, 42.48926
1175.170, 74.91113
1176.257, 51.89258
1177.344, 81.23145
1178.431, 35.67969
1179.518, 2.875000
1180.605, 4.851563
1181.691, 58.58984
1182.778, 105.9561
1183.864, 150.5430
1184.950, 39.23828
1186.036, 7.899414
1187.122, 147.4375
1188.207, 43.77734
1189.292, 96.13965
1190.378, 29.51660
1191.463, 34.81445
1192.548, 104.1787
1193.632, 47.51172
1194.717, 128.1963
1195.801, 103.1816
1196.886, 149.5156
1197.970, 117.8496
1199.054, 9.182617
1200.137, 194.5137
1201.221, 68.84277
1202.305, 30.83105
1203.388, 128.4785
1204.471, 28.78516
1205.554, 202.0898
1206.637, 31.39160
1207.719, 69.69043
1208.802, 19.01270
1209.884, 54.26660
1210.966, 13.45898
1212.048, 109.7998
1213.130, 26.94629
1214.212, 194.4004
1215.293, 52.62695
1216.374, 44.15039
1217.456, 27.04980
1218.536, 21.24316
1219.617, 58.43555
1220.698, 134.6240
1221.778, 111.8057
1222.859, 43.97949
1223.939, 59.14941
1225.019, 75.47656
1226.099, 23.63184
1227.178, 93.77930
1228.258, 48.91895
1229.337, 71.05176
1230.417, 15.17578
1231.496, 76.28613
1232.574, 78.38867
1233.653, 119.4814
1234.732, 58.56641
1235.810, 30.64258
1236.888, 0.2939450
1237.966, 12.42285
1239.044, 49.76074
1240.122, 59.78418
1241.199, 96.80371
1242.277, 103.8154
1243.354, 114.8174
1244.431, 157.8076
1245.508, 104.7871
1246.585, 90.75488
1247.661, 112.7236
1248.738, 48.66016
1249.814, 135.5947
1250.890, 125.5166
1251.966, 124.4287
1253.042, 17.67383
1254.117, 72.17871
1255.193, 61.98145
1256.268, 65.78809
1257.343, 14.54199
1258.418, 147.2646
1259.493, 13.02637
1260.567, 3.635742
1261.642, 80.74219
1262.716, 24.79492
1263.790, 133.3018
1264.864, 165.8105
1265.938, 221.6758
1267.011, 80.95801
1268.085, 234.4043
1269.158, 132.8340
1270.231, 58.25000
1271.304, 279.6426
1272.377, 151.0186
1273.450, 198.3789
1274.522, 168.5703
1275.594, 1.101563
1276.666, 155.2871
1277.738, 241.5488
1278.810, 90.79395
1279.882, 228.0215
1280.953, 22.36230
1282.025, 230.3984
1283.096, 11.44727
1284.167, 5.347656
1285.238, 105.6992
1286.308, 31.90332
1287.379, 70.89746
1288.449, 204.7373
1289.519, 152.3779
1290.589, 76.31445
1291.659, 58.79199
