##NAMES=Clinochlore
##RRUFFID=R060725
##IDEAL CHEMISTRY=Mg_5_Al(AlSi_3_O_10_)(OH)_8_
##LOCALITY=Crestmore Quarry, Riverside, California, USA
##OWNER=RRUFF
##SOURCE=Bob Jenkins
##DESCRIPTION=Green transparent books of mica
##STATUS=The identification of this mineral has been confirmed by X-ray diffraction and chemical analysis
##URL=rruff.info/R060725
##MEASURED CHEMISTRY=(Mg_4.65_Al_1.12_Fe^2+^_0.17_[box]_0.06_)_Σ=6_(Si_3.00_Al_1.00_)_Σ=4_O_10_(OH)_8_
##PIN_ID=L01861
154.8690, 0.0000000E+00
156.0980, 137.7534
157.3280, 1.7090000E-02
158.5580, 90.33789
159.7870, 109.1299
161.0170, 83.55957
162.2460, 142.0122
163.4750, 151.5576
164.7030, 107.2729
165.9320, 25.37793
167.1600, 108.3599
168.3890, 111.4907
169.6170, 7.748047
170.8450, 219.5923
172.0730, 131.8652
173.3000, 85.16357
174.5280, 79.86621
175.7550, 126.7144
176.9820, 136.7974
178.2090, 180.6533
179.4350, 42.31055
180.6620, 48.64111
181.8880, 44.69629
183.1150, 57.51953
184.3410, 44.14502
185.5670, 175.6006
186.7920, 82.91211
188.0180, 90.09912
189.2430, 139.1797
190.4690, 69.16895
191.6940, 234.9028
192.9180, 275.5322
194.1430, 158.6572
195.3680, 203.0532
196.5920, 434.8071
197.8160, 426.2837
199.0400, 556.7812
200.2640, 694.3140
201.4880, 828.4243
202.7110, 874.8618
203.9350, 1089.343
205.1580, 1050.868
206.3810, 1056.436
207.6040, 900.0444
208.8270, 946.6929
210.0490, 600.3809
211.2710, 493.1045
212.4940, 436.8613
213.7160, 338.6494
214.9370, 303.4688
216.1590, 251.3281
217.3810, 234.1953
218.6020, 191.1030
219.8230, 115.0400
221.0440, 111.0068
222.2650, 151.0034
223.4860, 172.0283
224.7060, 98.08350
225.9260, 87.16748
227.1470, 11.28076
228.3670, 3.573242
229.5860, 9.322266
230.8060, 75.18115
232.0260, 8.056641
233.2450, 92.32031
234.4640, 127.6060
235.6830, 35.09375
236.9020, 133.2207
238.1200, 103.5596
239.3390, 44.08008
240.5570, 6.695801
241.7750, 65.70898
242.9930, 20.13574
244.2110, 2.583984
245.4290, 21.05469
246.6460, 11.55176
247.8630, 37.92578
249.0810, 28.61377
250.2980, 14.16895
251.5140, 69.75488
252.7310, 42.08247
253.9470, 51.44364
255.1640, 31.70654
256.3800, 39.39307
257.5960, 35.09424
258.8120, 20.17578
260.0270, 93.54297
261.2430, 47.29102
262.4580, 26.05518
263.6730, 45.83643
264.8880, 2.628418
266.1030, 151.3931
267.3170, 120.1465
268.5320, 160.9058
269.7460, 40.67139
270.9600, 163.4219
272.1740, 162.1895
273.3880, 333.9761
274.6010, 254.7710
275.8150, 236.5742
277.0280, 267.3975
278.2410, 384.2397
279.4540, 317.1025
280.6670, 427.9849
281.8790, 318.8857
283.0920, 343.8062
284.3040, 322.7466
285.5160, 243.7061
286.7280, 289.6846
287.9400, 177.6821
289.1510, 154.6987
290.3630, 152.7339
291.5740, 116.8906
292.7850, 127.3022
293.9960, 112.9556
295.2070, 142.0669
296.4170, 134.1963
297.6280, 144.3486
298.8380, 173.5220
300.0480, 92.71533
301.2580, 55.47119
302.4680, 92.92676
303.6770, 193.0737
304.8870, 201.4600
306.0960, 126.8169
307.3050, 143.1597
308.5140, 83.42334
309.7230, 80.69727
310.9310, 60.98047
312.1400, 105.0894
313.3480, 127.3838
314.5560, 166.6802
315.7640, 153.7812
316.9720, 149.0889
318.1790, 67.40332
319.3870, 200.7358
320.5940, 162.0679
321.8010, 154.4009
323.0080, 302.7319
324.2150, 205.0986
325.4210, 309.4375
326.6280, 357.8140
327.8340, 336.1782
329.0400, 351.5874
330.2460, 348.1587
331.4510, 336.3857
332.6570, 311.8135
333.8620, 390.2529
335.0680, 347.6992
336.2730, 311.1543
337.4780, 473.4375
338.6820, 403.7988
339.8870, 587.1719
341.0910, 587.5215
342.2950, 626.8955
343.5000, 712.2354
344.7030, 867.5898
345.9070, 974.4492
347.1110, 1114.959
348.3140, 1207.330
349.5170, 1591.020
350.7200, 1685.438
351.9230, 1970.873
353.1260, 2215.322
354.3290, 2426.785
355.5310, 2393.264
356.7330, 2414.756
357.9350, 2391.262
359.1370, 2265.782
360.3390, 1823.315
361.5400, 1669.863
362.7420, 1569.425
363.9430, 1159.999
365.1440, 996.5869
366.3450, 946.1895
367.5460, 726.8047
368.7460, 744.4326
369.9470, 682.0732
371.1470, 428.7285
372.3470, 443.3359
373.5470, 391.3555
374.7460, 307.0762
375.9460, 398.7256
377.1450, 321.4102
378.3450, 392.1406
379.5440, 302.8838
380.7430, 321.2861
381.9410, 258.0547
383.1400, 297.8350
384.3380, 264.8447
385.5370, 265.2646
386.7350, 339.0732
387.9320, 264.9033
389.1300, 300.7461
390.3280, 283.9170
391.5250, 287.1631
392.7220, 294.2393
393.9190, 329.1299
395.1160, 290.0332
396.3130, 331.9473
397.5100, 134.8730
398.7060, 260.8115
399.9020, 129.7617
401.0980, 178.7236
402.2940, 101.6963
403.4900, 123.6797
404.6860, 87.67676
405.8810, 113.6836
407.0760, 282.7031
408.2710, 111.7334
409.4660, 214.7744
410.6610, 141.8271
411.8550, 237.8926
413.0500, 246.9688
414.2440, 283.0566
415.4380, 283.6885
416.6320, 262.2676
417.8260, 260.3896
419.0190, 234.5244
420.2130, 255.6719
421.4060, 363.8291
422.5990, 311.0000
423.7920, 236.1807
424.9850, 399.3740
426.1770, 466.5791
427.3700, 352.7939
428.5620, 338.0205
429.7540, 638.2588
430.9460, 393.5088
432.1380, 521.7695
433.3290, 364.0410
434.5210, 492.3252
435.7120, 383.6191
436.9030, 415.9248
438.0940, 371.9248
439.2850, 316.2520
440.4750, 438.5898
441.6660, 321.9385
442.8560, 421.2979
444.0460, 324.7031
445.2360, 353.3652
446.4260, 202.7539
447.6160, 298.1533
448.8050, 411.5615
449.9940, 253.8066
451.1830, 232.1729
452.3720, 294.6133
453.5610, 195.0625
454.7500, 274.5225
455.9380, 317.9922
457.1260, 365.4736
458.3150, 352.8047
459.5020, 306.4707
460.6900, 304.9883
461.8780, 290.9795
463.0650, 295.5166
464.2530, 283.0635
465.4400, 210.6191
466.6270, 167.5752
467.8130, 333.5117
469.0000, 433.9248
470.1870, 346.5195
471.3730, 240.1240
472.5590, 159.7373
473.7450, 193.3594
474.9310, 153.9912
476.1160, 149.4746
477.3020, 192.1260
478.4870, 81.78418
479.6720, 29.54688
480.8570, 92.14844
482.0420, 66.82715
483.2270, 32.51562
484.4110, 44.56250
485.5960, 72.27051
486.7800, 94.98926
487.9640, 19.28320
489.1480, 35.55176
490.3310, 81.17871
491.5150, 59.08105
492.6980, 173.8984
493.8810, 29.63770
495.0640, 109.3877
496.2470, 121.1455
497.4300, 62.91309
498.6120, 203.6904
499.7950, 116.4756
500.9770, 114.2705
502.1590, 310.0762
503.3410, 116.8906
504.5220, 158.7129
505.7040, 182.5449
506.8850, 259.3857
508.0660, 190.2363
509.2470, 339.0938
510.4280, 215.9619
511.6090, 310.8379
512.7890, 218.7246
513.9700, 310.6211
515.1500, 211.5322
516.3300, 253.4570
517.5100, 427.3945
518.6900, 389.3604
519.8690, 436.3350
521.0490, 494.3193
522.2280, 685.3115
523.4070, 497.3213
524.5860, 592.3408
525.7640, 680.3682
526.9430, 475.4170
528.1210, 622.4756
529.3000, 698.5430
530.4780, 830.6182
531.6560, 764.7012
532.8330, 758.7930
534.0110, 918.8916
535.1880, 984.0078
536.3650, 1008.131
537.5430, 985.2627
538.7190, 1027.402
539.8960, 1241.568
541.0730, 1256.741
542.2490, 1365.922
543.4250, 1450.109
544.6020, 1906.306
545.7780, 2063.508
546.9530, 2420.719
548.1290, 2785.937
549.3040, 2940.161
550.4800, 3302.402
551.6550, 3214.652
552.8300, 3050.908
554.0040, 2601.172
555.1790, 2365.453
556.3540, 1900.742
557.5280, 1484.052
558.7020, 1235.369
559.8760, 971.6934
561.0500, 846.0234
562.2230, 589.3613
563.3970, 579.7051
564.5700, 377.0557
565.7430, 437.4131
566.9160, 334.7773
568.0890, 441.1670
569.2620, 344.5625
570.4340, 391.9639
571.6070, 310.3721
572.7790, 188.7852
573.9510, 251.2168
575.1230, 102.6553
576.2940, 151.0977
577.4660, 148.5479
578.6370, 13.98828
579.8080, 98.47461
580.9790, 159.9434
582.1500, 74.41797
583.3210, 76.89746
584.4910, 2.381836
585.6620, 25.12891
586.8320, 68.35449
588.0020, 40.84375
589.1720, 26.33789
590.3410, 70.16309
591.5110, 88.69238
592.6800, 6.741211
593.8500, 16.17969
595.0190, 114.6240
596.1880, 29.07227
597.3560, 44.52637
598.5250, 85.98535
599.6930, 73.44922
600.8620, 89.70898
602.0300, 44.60840
603.1970, 77.84766
604.3650, 59.30957
605.5330, 18.77441
606.7000, 140.7549
607.8680, 92.35254
609.0350, 31.99121
610.2020, 118.3613
611.3680, 80.71973
612.5350, 125.0898
613.7010, 172.4648
614.8680, 35.85059
616.0340, 12.75879
617.2000, 23.62598
618.3660, 142.0156
619.5310, 21.41016
620.6970, 4.976563
621.8620, 70.37891
623.0270, 42.78516
624.1920, 40.79297
625.3570, 156.6123
626.5220, 137.0469
627.6860, 105.5000
628.8500, 60.47070
630.0140, 143.7783
631.1780, 231.2617
632.3420, 74.55371
633.5060, 99.89941
634.6700, 65.35840
635.8330, 228.8203
636.9960, 126.2998
638.1590, 195.7832
639.3220, 250.2695
640.4850, 191.7598
641.6470, 102.2539
642.8100, 289.7520
643.9720, 197.2510
645.1340, 127.7559
646.2960, 311.2627
647.4570, 328.7734
648.6190, 318.2871
649.7800, 312.8037
650.9420, 420.3242
652.1030, 522.1357
653.2640, 414.6611
654.4240, 686.7266
655.5850, 595.2588
656.7450, 721.7920
657.9060, 752.3281
659.0660, 811.8672
660.2260, 900.4092
661.3850, 965.6133
662.5450, 1105.499
663.7040, 1127.047
664.8640, 1377.598
666.0230, 1448.339
667.1820, 1648.894
668.3410, 1612.450
669.4990, 1852.009
670.6580, 1877.569
671.8160, 2164.133
672.9740, 2306.696
674.1320, 2356.263
675.2900, 2630.830
676.4480, 2634.398
677.6050, 2871.971
678.7630, 2849.686
679.9200, 2970.258
681.0770, 2958.832
682.2340, 2849.407
683.3900, 2953.983
684.5470, 2892.562
685.7030, 2773.140
686.8590, 2674.719
688.0150, 2554.079
689.1710, 2388.007
690.3270, 2270.588
691.4830, 2128.170
692.6380, 1939.752
693.7930, 2018.948
694.9480, 1659.531
696.1030, 1653.568
697.2580, 1455.152
698.4130, 1295.735
699.5670, 1310.318
700.7210, 1215.900
701.8750, 981.4844
703.0290, 947.0664
704.1830, 983.6484
705.3370, 1011.229
706.4900, 982.1807
707.6430, 927.7227
708.7970, 829.3438
709.9490, 751.9238
711.1020, 717.5029
712.2550, 647.6104
713.4070, 656.1875
714.5600, 543.7656
715.7120, 538.3418
716.8640, 522.5732
718.0160, 412.4639
719.1670, 531.0361
720.3190, 482.6074
721.4700, 411.1777
722.6210, 476.7471
723.7720, 524.2803
724.9230, 313.5625
726.0740, 270.1279
727.2250, 290.6914
728.3750, 237.2549
729.5250, 341.9902
730.6750, 231.6123
731.8250, 299.2402
732.9750, 123.7988
734.1240, 266.3555
735.2740, 224.9111
736.4230, 265.4668
737.5720, 172.0215
738.7210, 326.5732
739.8700, 115.1240
741.0190, 215.2100
742.1670, 103.7607
743.3150, 182.3086
744.4630, 206.8555
745.6110, 255.0205
746.7590, 300.2041
747.9070, 215.8770
749.0540, 252.4219
750.2020, 118.9619
751.3490, 176.5059
752.4960, 128.3320
753.6430, 303.8750
754.7890, 189.5752
755.9360, 154.2168
757.0820, 131.7578
758.2280, 76.49316
759.3740, 110.0098
760.5200, 34.55371
761.6660, 89.78613
762.8120, 103.0361
763.9570, 95.08789
765.1020, 139.5332
766.2470, 95.30469
767.3920, 101.6230
768.5370, 190.4150
769.6810, 85.95703
770.8260, 140.2568
771.9700, 143.0020
773.1140, 136.5469
774.2580, 149.1572
775.4020, 166.6992
776.5460, 181.2393
777.6890, 221.7783
778.8320, 148.3154
779.9750, 43.84961
781.1180, 81.01172
782.2610, 219.9121
783.4040, 108.4902
784.5460, 197.0156
785.6890, 269.5400
786.8310, 210.0615
787.9730, 147.5811
789.1150, 4.097656
790.2560, 53.60840
791.3980, 15.88379
792.5390, 105.6074
793.6810, 113.0977
794.8220, 100.5850
795.9630, 140.4287
797.1030, 73.55078
798.2440, 125.0293
799.3840, 110.5059
800.5240, 74.97949
801.6650, 192.4580
802.8040, 9.016602
803.9440, 99.48145
805.0840, 270.9424
806.2230, 92.40137
807.3630, 247.8584
808.5020, 26.31250
809.6410, 109.7666
810.7790, 112.2324
811.9180, 178.6787
813.0570, 36.12207
814.1950, 100.5625
815.3330, 56.00000
816.4710, 117.3994
817.6090, 134.7969
818.7470, 32.19043
819.8840, 70.58105
821.0220, 102.9688
822.1590, 37.35352
823.2960, 86.73535
824.4330, 104.1143
825.5690, 23.50977
826.7060, 133.8438
827.8420, 115.1963
828.9790, 103.5449
830.1150, 31.10938
831.2510, 44.20898
832.3860, 44.47559
833.5220, 72.80762
834.6570, 220.0879
835.7930, 245.3652
836.9280, 241.1377
838.0630, 206.8779
839.1980, 111.2051
840.3320, 49.47852
841.4670, 42.38867
842.6010, 58.98340
843.7350, 43.42188
844.8690, 59.64551
846.0030, 79.87012
847.1370, 68.08984
848.2700, 29.69336
849.4040, 57.49902
850.5370, 250.7109
851.6700, 147.9199
852.8030, 15.86816
853.9360, 310.3252
855.0680, 175.5195
856.2000, 272.7090
857.3330, 147.8955
858.4650, 147.0791
859.5970, 171.2588
860.7290, 186.4395
861.8600, 241.6221
862.9920, 136.8018
864.1230, 132.9785
865.2540, 336.1514
866.3850, 194.3369
867.5160, 27.54102
868.6460, 217.7471
869.7770, 319.9512
870.9070, 206.1504
872.0370, 280.3467
873.1670, 251.9482
874.2970, 132.7275
875.4270, 213.9121
876.5570, 110.0947
877.6860, 88.28223
878.8150, 60.46973
879.9440, 101.6748
881.0730, 45.87695
882.2020, 48.11621
883.3300, 4.625977
884.4590, 87.62695
885.5870, 21.11523
886.7150, 95.12109
887.8430, 9.648438
888.9710, 177.7451
890.0990, 119.9824
891.2260, 28.21875
892.3530, 106.4551
893.4810, 19.68555
894.6080, 65.91211
895.7340, 63.13574
896.8610, 31.64551
897.9880, 39.54395
899.1140, 85.25781
900.2400, 42.11621
901.3660, 17.99121
902.4920, 102.0938
903.6180, 52.80859
904.7430, 73.33301
905.8690, 130.3955
906.9940, 21.47363
908.1190, 132.5439
909.2440, 37.38867
910.3690, 114.6475
911.4930, 104.6787
912.6180, 123.7051
913.7420, 214.7285
914.8660, 217.7471
915.9900, 134.7617
917.1140, 162.7715
918.2380, 45.77637
919.3610, 64.77734
920.4850, 106.4043
921.6080, 98.76660
922.7310, 208.7598
923.8540, 206.7539
924.9760, 198.4531
926.0990, 115.4385
927.2210, 118.8828
928.3440, 128.8584
929.4660, 197.8291
930.5880, 91.79785
931.7090, 197.7607
932.8310, 233.7197
933.9520, 88.67383
935.0740, 169.6250
936.1950, 57.60645
937.3160, 38.59375
938.4360, 140.3887
939.5570, 82.36719
940.6780, 112.3613
941.7980, 201.3115
942.9180, 116.2783
944.0380, 60.24023
945.1580, 57.06543
946.2780, 76.16406
947.3970, 172.1211
948.5170, 142.0723
949.6360, 288.0205
950.7550, 155.8193
951.8740, 58.75781
952.9930, 171.7061
954.1110, 216.6484
955.2300, 76.58691
956.3480, 290.5215
957.4660, 170.4512
958.5840, 170.3770
959.7020, 264.2969
960.8190, 184.0859
961.9370, 309.9980
963.0540, 335.9053
964.1710, 247.8086
965.2880, 108.0947
966.4050, 129.9893
967.5220, 246.4238
968.6380, 135.3105
969.7550, 189.2344
970.8710, 235.2676
971.9870, 226.1406
973.1030, 239.0107
974.2190, 231.8750
975.3340, 151.7354
976.4500, 334.5918
977.5650, 16.07422
978.6800, 190.0029
979.7950, 288.6104
980.9100, 127.4482
982.0250, 322.3008
983.1390, 250.7012
984.2530, 108.1279
985.3680, 188.0068
986.4820, 185.8828
987.5950, 225.1846
988.7090, 131.9922
989.8230, 58.79590
990.9360, 158.6172
992.0490, 323.4824
993.1620, 148.3760
994.2750, 234.6289
995.3880, 151.4082
996.5010, 225.3115
997.6130, 209.7324
998.7250, 255.8486
999.8370, 200.6104
1000.949, 223.3672
1002.061, 225.4824
1003.173, 234.2295
1004.284, 255.0576
1005.396, 236.7949
1006.507, 249.5273
1007.618, 247.2529
1008.729, 127.9756
1009.839, 138.6924
1010.950, 253.4033
1012.060, 134.3857
1013.171, 200.5293
1014.281, 167.2510
1015.391, 216.7441
1016.500, 167.6719
1017.610, 97.21484
1018.719, 123.5518
1019.829, 70.25195
1020.938, 174.9424
1022.047, 26.34375
1023.156, 153.8828
1024.264, 246.5547
1025.373, 210.8154
1026.481, 311.6250
1027.589, 164.9336
1028.697, 318.5801
1029.805, 304.2197
1030.913, 125.1631
1032.020, 273.7334
1033.128, 346.2949
1034.235, 223.6270
1035.342, 198.0234
1036.449, 185.7803
1037.556, 41.65723
1038.663, 176.5820
1039.769, 320.1904
1040.875, 304.5957
1041.981, 265.1914
1043.087, 247.7178
1044.193, 263.4238
1045.299, 263.4033
1046.404, 314.4590
1047.510, 318.0273
1048.615, 348.5898
1049.720, 402.4580
1050.825, 380.7002
1051.930, 440.1973
1053.034, 349.8057
1054.139, 314.3418
1055.243, 451.8828
1056.347, 270.3232
1057.451, 395.0469
1058.555, 212.5625
1059.658, 223.0850
1060.762, 285.5967
1061.865, 390.1025
1062.968, 372.4619
1064.071, 405.0957
1065.174, 334.5830
1066.277, 355.0654
1067.380, 234.5420
1068.482, 147.2930
1069.584, 227.2744
1070.686, 301.7656
1071.788, 509.2188
1072.890, 499.2852
1073.992, 305.1436
1075.093, 570.6865
1076.194, 449.1143
1077.295, 508.3281
1078.396, 537.7256
1079.497, 515.2227
1080.598, 564.6240
1081.698, 476.2373
1082.799, 653.6270
1083.899, 753.0264
1084.999, 746.3877
1086.099, 641.7744
1087.199, 761.1553
1088.298, 604.5947
1089.398, 389.9609
1090.497, 548.3223
1091.596, 336.6758
1092.695, 515.0234
1093.794, 382.3740
1094.892, 416.7168
1095.991, 188.0547
1097.089, 177.3838
1098.187, 263.7197
1099.285, 195.0479
1100.383, 285.3838
1101.481, 63.71484
1102.579, 20.96191
1103.676, 136.4336
1104.773, 243.7266
1105.870, 131.0107
1106.967, 159.2891
1108.064, 100.6738
1109.161, 136.9404
1110.257, 54.03809
1111.353, 1.308594
1112.449, 100.5645
1113.545, 68.81445
1114.641, 50.05664
1115.737, 75.69629
1116.832, 59.49609
1117.928, 3.318359
1119.023, 37.89258
1120.118, 33.32133
1121.213, 39.58122
1122.308, 67.45801
1123.402, 55.60742
1124.497, 47.74902
1125.591, 8.882813
1126.685, 142.0059
1127.779, 42.12207
1128.873, 239.2314
1129.967, 77.33398
1131.060, 211.4297
1132.153, 213.5186
1133.247, 9.398438
1134.340, 186.6650
1135.433, 50.72266
1136.525, 144.7734
1137.618, 143.8174
1138.710, 111.8945
1139.802, 135.8857
1140.895, 74.91016
1141.987, 85.92871
1143.078, 19.13770
1144.170, 71.58691
1145.261, 169.6660
1146.353, 3.608398
1147.444, 74.29688
1148.535, 221.2188
1149.626, 9.860352
1150.716, 122.0400
1151.807, 94.94141
1152.897, 116.8369
1153.988, 77.44531
1155.078, 85.51700
1156.168, 96.27376
1157.257, 88.04297
1158.347, 123.8564
1159.436, 133.6631
1160.526, 145.1641
1161.615, 121.9385
1162.704, 101.0596
1163.793, 97.08691
1164.881, 53.90137
1165.970, 32.75896
1167.058, 42.99023
1168.147, 3.200195
1169.235, 18.53223
1170.323, 82.33105
1171.410, 112.1230
1172.498, 104.9102
1173.585, 183.6904
1174.673, 227.4785
1175.760, 130.2598
1176.847, 108.0352
1177.934, 84.80566
1179.020, 81.56934
1180.107, 73.32617
1181.193, 73.45703
1182.279, 71.30371
1183.365, 53.56250
1184.451, 74.29492
1185.537, 2.2461001E-02
1186.623, 1.444336
1187.708, 22.43066
1188.793, 69.12012
1189.878, 64.80371
1190.963, 146.4814
1192.048, 121.1533
1193.133, 177.8184
1194.217, 139.4785
1195.302, 71.13281
1196.386, 79.78027
1197.470, 66.42383
1198.554, 116.9395
1199.638, 25.37793
1200.721, 35.15625
1201.805, 31.91630
1202.888, 85.20605
1203.971, 53.72266
1205.054, 36.23438
1206.137, 100.7393
1207.219, 14.76074
1208.302, 192.7168
1209.384, 39.19922
1210.466, 292.6738
1211.548, 13.14355
1212.630, 208.6074
1213.712, 159.0645
1214.794, 34.48340
1215.875, 218.9395
1216.956, 138.3545
1218.037, 40.76562
1219.118, 187.1719
1220.199, 146.5732
1221.280, 169.9688
1222.360, 129.3730
1223.441, 160.7715
1224.521, 91.16602
1225.601, 110.5566
1226.681, 127.9414
1227.760, 211.3223
1228.840, 183.6973
1229.919, 197.0684
1230.999, 112.4355
1232.078, 139.7539
1233.157, 23.95898
1234.236, 207.4287
1235.314, 125.7842
1236.393, 110.1377
1237.471, 18.48438
1238.549, 112.8281
1239.627, 76.12695
1240.705, 112.4199
1241.783, 102.9863
1242.860, 58.31445
1243.938, 67.61816
1245.015, 85.84082
1246.092, 43.50586
1247.169, 44.81055
1248.246, 24.06055
1249.323, 83.21875
1250.399, 132.5225
1251.475, 12.82129
1252.552, 107.9043
1253.628, 145.3154
1254.703, 168.5010
1255.779, 224.3223
1256.855, 236.6064
1257.930, 198.7617
1259.005, 184.0410
1260.080, 203.3174
1261.155, 308.5898
1262.230, 140.8613
1263.305, 85.70508
1264.379, 166.9795
1265.454, 303.1660
1266.528, 312.4365
1267.602, 278.5127
1268.676, 220.9688
1269.750, 98.23145
1270.823, 75.49316
1271.897, 35.24707
1272.970, 20.69629
1274.043, 39.56836
1275.116, 31.72266
1276.189, 13.86230
1277.261, 46.32617
1278.334, 51.51758
1279.406, 58.07129
1280.478, 94.26074
1281.550, 96.42773
1282.622, 117.5732
1283.694, 77.95703
1284.766, 140.1426
1285.837, 55.63281
1286.908, 53.81836
1287.979, 46.00195
1289.050, 130.1875
1290.121, 28.37207
1291.192, 133.5557
1292.262, 6.259766
1293.333, 127.9219
1294.403, 80.96680
1295.473, 178.1768
1296.543, 204.1885
1297.613, 126.0459
1298.682, 99.87891
1299.752, 88.02441
1300.821, 296.1699
1301.890, 33.31738
1302.959, 126.4658
1304.028, 285.6143
1305.096, 215.7656
1306.165, 142.9180
1307.233, 188.0713
1308.301, 118.2285
1309.370, 266.3867
1310.437, 245.5488
1311.505, 49.71875
1312.573, 299.8203
1313.640, 86.98926
1314.708, 196.1475
1315.775, 185.3994
1316.842, 124.3623
1317.908, 290.5303
1318.975, 185.6855
1320.042, 209.8535
1321.108, 64.02246
1322.174, 146.1924
1323.240, 258.3613
1324.306, 113.5332
1325.372, 205.7051
1326.438, 172.8770
1327.503, 268.7715
1328.568, 346.4219
1329.634, 160.4785
1330.699, 195.6582
