##NAMES=Clinoptilolite-Ca
##RRUFFID=R060662
##IDEAL CHEMISTRY=Ca_3_(Si_30_Al_6_)O_72_&#183;20H_2_O
##LOCALITY=Succor Creek, Malheur County, Oregon, USA
##OWNER=RRUFF
##SOURCE=Michael Scott
##DESCRIPTION=Group of colorless platy prismatic crystals
##STATUS=The identification of this mineral has been confirmed by X-ray diffraction and chemical analysis
##URL=rruff.info/R060662
##MEASURED CHEMISTRY=(Ca_1.02_Na_0.97_K_0.59_)_Σ=2.58_(Si_14.40_Al_3.60_)_Σ=18_O_36_·10.96H_2_O
##PIN_ID=M00063
##ORIENTATION=Laser parallel to -a* (-1 0 0). Fiducial mark perpendicular to laser is parallel to b [0 1 0]
134.1270, 0.0000000E+00
135.3560, 85.35352
136.5850, 318.0410
137.8140, 472.5039
139.0430, 801.3105
140.2710, 1082.807
141.5000, 902.7422
142.7280, 1206.625
143.9560, 1437.598
145.1840, 1733.633
146.4120, 1450.301
147.6390, 1599.852
148.8670, 1720.564
150.0940, 1646.566
151.3210, 1676.342
152.5490, 1781.641
153.7750, 1843.402
155.0020, 1727.064
156.2290, 1900.850
157.4550, 1910.455
158.6810, 1787.342
159.9080, 1865.643
161.1340, 1712.959
162.3590, 2234.229
163.5850, 2042.758
164.8110, 2091.854
166.0360, 2173.248
167.2610, 2080.664
168.4860, 1997.139
169.7110, 1917.145
170.9360, 2187.916
172.1610, 2116.324
173.3850, 2258.820
174.6100, 2321.379
175.8340, 2586.873
177.0580, 2430.703
178.2820, 2551.816
179.5050, 2695.196
180.7290, 2668.243
181.9520, 2532.302
183.1760, 2429.835
184.3990, 2197.356
185.6220, 2048.156
186.8450, 2109.957
188.0670, 1902.739
189.2900, 1778.845
190.5120, 1699.853
191.7340, 1517.461
192.9560, 1443.109
194.1780, 1301.851
195.4000, 1253.742
196.6220, 1120.552
197.8430, 1002.858
199.0640, 1067.872
200.2860, 940.0723
201.5070, 971.8135
202.7270, 790.7842
203.9480, 462.1465
205.1690, 161.5947
206.3890, 99.13379
207.6090, 23.41211
208.8290, 373.1631
210.0490, 180.1777
211.2690, 308.8662
212.4890, 198.0693
213.7080, 388.3018
214.9280, 357.8154
216.1470, 309.2197
217.3660, 295.8584
218.5850, 230.4688
219.8030, 275.4609
221.0220, 172.7529
222.2400, 227.6680
223.4590, 118.3359
224.6770, 285.8760
225.8950, 108.4199
227.1120, 81.12109
228.3300, 237.8779
229.5480, 145.4570
230.7650, 342.5449
231.9820, 727.0850
233.1990, 858.0312
234.4160, 922.3662
235.6330, 1146.070
236.8490, 1432.119
238.0660, 1715.506
239.2820, 1947.214
240.4980, 2138.251
241.7140, 2405.714
242.9300, 2604.907
244.1460, 2859.656
245.3610, 3020.764
246.5770, 3186.563
247.7920, 3362.006
249.0070, 3470.890
250.2220, 3536.189
251.4370, 3639.178
252.6510, 3588.213
253.8660, 3561.394
255.0800, 3634.024
256.2940, 3608.250
257.5080, 3835.200
258.7220, 3679.369
259.9360, 3911.578
261.1490, 3433.134
262.3630, 3224.662
263.5760, 3043.207
264.7890, 2907.802
266.0020, 2965.484
267.2150, 2844.279
268.4270, 2806.211
269.6400, 2531.345
270.8520, 2480.622
272.0640, 2385.091
273.2760, 2062.768
274.4880, 2002.710
275.7000, 2018.808
276.9120, 1770.092
278.1230, 1728.545
279.3340, 1699.133
280.5450, 1529.188
281.7560, 1424.768
282.9670, 1446.155
284.1780, 1534.027
285.3880, 1544.199
286.5980, 1686.542
287.8090, 1637.961
289.0190, 1595.404
290.2290, 1682.819
291.4380, 1693.143
292.6480, 1708.334
293.8570, 1886.342
295.0670, 1917.227
296.2760, 2068.985
297.4850, 2210.606
298.6930, 2394.061
299.9020, 2541.230
301.1110, 2523.064
302.3190, 2755.544
303.5270, 2850.748
304.7350, 3121.767
305.9430, 3196.620
307.1510, 3235.316
308.3580, 3213.356
309.5660, 3433.690
310.7730, 3604.023
311.9800, 3692.550
313.1870, 3764.692
314.3940, 3876.580
315.6010, 3856.805
316.8070, 3954.099
318.0130, 4113.461
319.2200, 4083.155
320.4260, 4210.668
321.6310, 4334.345
322.8370, 4187.804
324.0430, 4389.569
325.2480, 4591.887
326.4540, 4694.527
327.6590, 4644.746
328.8640, 4731.969
330.0680, 4882.412
331.2730, 4827.491
332.4780, 5171.070
333.6820, 5049.949
334.8860, 5082.876
336.0900, 5138.264
337.2940, 5460.281
338.4980, 5654.851
339.7010, 5719.415
340.9050, 5831.758
342.1080, 5740.893
343.3110, 6229.812
344.5140, 6177.798
345.7170, 6595.417
346.9200, 6832.668
348.1220, 6881.857
349.3240, 7246.238
350.5270, 7464.658
351.7290, 7736.862
352.9310, 8019.344
354.1320, 8444.250
355.3340, 8540.744
356.5350, 8917.589
357.7370, 9219.787
358.9380, 9808.434
360.1390, 10052.38
361.3400, 10668.76
362.5400, 11069.37
363.7410, 11612.47
364.9410, 12257.15
366.1410, 12743.66
367.3410, 13148.11
368.5410, 13793.80
369.7410, 14474.34
370.9400, 14847.39
372.1400, 15376.50
373.3390, 16146.94
374.5380, 16663.66
375.7370, 17230.22
376.9360, 17649.97
378.1350, 18612.91
379.3330, 19126.49
380.5310, 20114.39
381.7300, 21110.83
382.9280, 21987.97
384.1260, 23147.11
385.3230, 24375.11
386.5210, 25926.39
387.7180, 27344.54
388.9160, 29121.21
390.1130, 31145.84
391.3100, 33277.20
392.5060, 34965.53
393.7030, 36995.63
394.9000, 39396.43
396.0960, 41548.88
397.2920, 43239.27
398.4880, 45140.66
399.6840, 46452.66
400.8800, 47532.64
402.0750, 48416.45
403.2710, 48879.40
404.4660, 48786.57
405.6610, 48430.60
406.8560, 47449.85
408.0510, 46551.60
409.2450, 44658.54
410.4400, 42874.74
411.6340, 41334.83
412.8280, 39090.71
414.0220, 36847.02
415.2160, 34805.22
416.4100, 32598.84
417.6030, 30476.12
418.7970, 28329.07
419.9900, 26233.51
421.1830, 24444.84
422.3760, 22197.97
423.5690, 20584.07
424.7610, 19037.11
425.9540, 17312.79
427.1460, 15978.95
428.3380, 14680.22
429.5300, 13620.15
430.7220, 12691.00
431.9140, 11654.15
433.1050, 10807.82
434.2970, 10028.88
435.4880, 9239.866
436.6790, 8605.665
437.8700, 8043.969
439.0610, 7883.177
440.2510, 7478.799
441.4420, 7233.808
442.6320, 7079.388
443.8220, 7001.402
445.0120, 6983.371
446.2020, 7074.758
447.3910, 7174.258
448.5810, 7377.344
449.7700, 7644.948
450.9600, 8123.423
452.1490, 8528.780
453.3370, 9121.018
454.5260, 9848.151
455.7150, 10870.19
456.9030, 11761.15
458.0910, 12932.03
459.2800, 13719.84
460.4670, 14823.60
461.6550, 15720.32
462.8430, 16590.01
464.0300, 17414.68
465.2180, 17973.34
466.4050, 18433.01
467.5920, 19115.68
468.7790, 19654.39
469.9650, 20305.11
471.1520, 21300.87
472.3380, 21728.67
473.5250, 23373.50
474.7110, 25115.39
475.8970, 26354.33
477.0820, 27703.31
478.2680, 29484.35
479.4540, 30511.45
480.6390, 31336.62
481.8240, 31523.86
483.0090, 31242.16
484.1940, 30167.55
485.3780, 29403.00
486.5630, 26959.54
487.7470, 24387.15
488.9320, 21887.86
490.1160, 19496.63
491.3000, 16822.51
492.4830, 14467.48
493.6670, 12447.60
494.8500, 10672.92
496.0340, 8903.415
497.2170, 7634.172
498.4000, 6542.143
499.5820, 5548.359
500.7650, 4579.791
501.9480, 3926.482
503.1300, 3388.428
504.3120, 2893.611
505.4940, 2422.026
506.6760, 2205.656
507.8580, 1806.511
509.0390, 1420.561
510.2210, 1382.818
511.4020, 1193.253
512.5830, 1033.908
513.7640, 995.7344
514.9450, 892.7236
516.1250, 846.8477
517.3060, 738.5176
518.4860, 652.4648
519.6660, 507.0703
520.8460, 493.2646
522.0260, 358.8340
523.2060, 340.7168
524.3850, 229.5781
525.5650, 227.7627
526.7440, 221.6318
527.9230, 193.4502
529.1020, 194.5713
530.2810, 99.27051
531.4590, 43.33496
532.6380, 54.63770
533.8160, 23.15625
534.9940, 1.393555
536.1720, 14.57422
537.3500, 64.83691
538.5270, 25.27637
539.7050, 116.8008
540.8820, 76.91895
542.0590, 102.3428
543.2360, 213.6240
544.4130, 191.3594
545.5900, 41.65723
546.7660, 143.0586
547.9430, 248.0146
549.1190, 62.99414
550.2950, 240.4902
551.4710, 336.1992
552.6470, 300.5576
553.8220, 236.2100
554.9980, 159.0928
556.1730, 201.3232
557.3480, 215.3994
558.5230, 348.9834
559.6980, 245.5752
560.8730, 146.9854
562.0470, 304.4043
563.2220, 114.9590
564.3960, 37.45801
565.5700, 83.96875
566.7440, 25.45996
567.9170, 95.27637
569.0910, 80.28516
570.2640, 95.84570
571.4380, 180.4180
572.6110, 226.9248
573.7840, 274.5684
574.9570, 346.9502
576.1290, 417.3350
577.3020, 406.2412
578.4740, 464.0049
579.6460, 532.7148
580.8180, 653.1738
581.9900, 804.4932
583.1620, 764.2393
584.3330, 770.7227
585.5040, 880.5986
586.6760, 815.4609
587.8470, 1059.924
589.0180, 1118.027
590.1880, 1407.632
591.3590, 1422.144
592.5290, 1380.114
593.7000, 1553.726
594.8700, 1788.979
596.0400, 1926.606
597.2090, 2422.686
598.3790, 2427.123
599.5490, 2860.396
600.7180, 3151.357
601.8870, 3433.242
603.0560, 3893.152
604.2250, 4259.132
605.3940, 4664.150
606.5620, 5040.190
607.7300, 5390.439
608.8990, 5742.496
610.0670, 5957.712
611.2350, 6239.850
612.4020, 6379.775
613.5700, 6615.955
614.7370, 6636.900
615.9050, 6469.869
617.0720, 6552.931
618.2390, 6196.919
619.4060, 5826.926
620.5720, 5744.938
621.7390, 5302.185
622.9050, 5118.286
624.0710, 4747.357
625.2370, 4476.428
626.4030, 4094.999
627.5690, 3662.580
628.7340, 3308.662
629.9000, 2988.745
631.0650, 2666.825
632.2300, 2430.904
633.3950, 2267.010
634.5600, 2048.121
635.7240, 1888.229
636.8890, 1651.330
638.0530, 1447.428
639.2170, 1317.516
640.3810, 1267.592
641.5450, 1093.657
642.7080, 1051.709
643.8720, 896.7480
645.0350, 837.7764
646.1980, 757.7861
647.3610, 722.7803
648.5240, 664.7627
649.6870, 533.7227
650.8490, 492.6680
652.0120, 623.5898
653.1740, 496.5098
654.3360, 511.4023
655.4980, 303.2656
656.6600, 287.0996
657.8210, 365.9023
658.9830, 258.6748
660.1440, 135.4111
661.3050, 301.1104
662.4660, 240.4316
663.6270, 256.6572
664.7870, 188.3965
665.9480, 272.1055
667.1080, 290.7686
668.2680, 224.2920
669.4280, 117.7949
670.5880, 244.8672
671.7480, 189.6807
672.9070, 11.51367
674.0670, 18.12988
675.2260, 3.467773
676.3850, 9.432617
677.5440, 86.97754
678.7030, 135.5518
679.8610, 108.1094
681.0200, 52.03418
682.1780, 3.943359
683.3360, 6.993164
684.4940, 33.87891
685.6520, 96.50977
686.8090, 120.2588
687.9670, 107.1582
689.1240, 81.89844
690.2810, 79.93359
691.4380, 96.05664
692.5950, 116.8457
693.7520, 20.93164
694.9080, 54.62891
696.0650, 141.4766
697.2210, 1.416992
698.3770, 11.21680
699.5330, 127.4697
700.6880, 41.86816
701.8440, 8.072266
702.9990, 87.66895
704.1550, 88.00977
705.3100, 6.844727
706.4650, 39.95508
707.6190, 21.12109
708.7740, 76.32324
709.9290, 78.95117
711.0830, 99.47852
712.2370, 73.35449
713.3910, 142.0889
714.5450, 148.0322
715.6980, 40.43457
716.8520, 72.33105
718.0050, 94.37695
719.1580, 167.2812
720.3110, 227.3594
721.4640, 121.5664
722.6170, 191.1455
723.7700, 105.4092
724.9220, 117.0840
726.0740, 216.9707
727.2260, 72.97949
728.3780, 204.6982
729.5300, 253.9492
730.6810, 131.8945
731.8330, 219.8438
732.9840, 75.29590
734.1350, 227.4863
735.2860, 134.8037
736.4370, 65.75977
737.5880, 95.97266
738.7380, 185.0713
739.8880, 217.9795
741.0390, 219.1494
742.1890, 219.4990
743.3380, 217.0791
744.4880, 213.9736
745.6380, 174.6064
746.7870, 223.2188
747.9360, 202.3330
749.0850, 232.9668
750.2340, 324.6963
751.3830, 230.7988
752.5310, 338.4072
753.6800, 362.8242
754.8280, 271.4248
755.9760, 292.9805
757.1240, 403.0586
758.2720, 317.1621
759.4190, 243.9121
760.5670, 288.8105
761.7140, 424.7617
762.8610, 421.6450
764.0080, 561.6528
765.1550, 432.1709
766.3020, 499.2544
767.4480, 554.4653
768.5950, 545.7812
769.7410, 548.8970
770.8870, 481.8755
772.0330, 465.7319
773.1780, 505.2324
774.3240, 492.8301
775.4690, 622.9731
776.6140, 523.9189
777.7590, 628.0493
778.9040, 594.0400
780.0490, 654.1167
781.1940, 583.3369
782.3380, 491.3525
783.4820, 592.3662
784.6260, 623.3027
785.7700, 520.7026
786.9140, 602.1650
788.0580, 510.5195
789.2010, 608.8398
790.3450, 489.5366
791.4880, 468.5215
792.6310, 452.6689
793.7730, 577.5845
794.9160, 488.2290
796.0590, 563.8833
797.2010, 334.1597
798.3430, 405.2959
799.4850, 486.5630
800.6270, 468.7710
801.7690, 492.0459
802.9100, 536.7725
804.0520, 519.2915
805.1930, 581.2544
806.3340, 710.3726
807.4750, 690.6348
808.6160, 928.7988
809.7560, 740.0664
810.8970, 614.0664
812.0370, 632.2881
813.1770, 727.6533
814.3170, 713.2480
815.4570, 867.9443
816.5960, 868.6577
817.7360, 867.8833
818.8750, 857.3359
820.0140, 902.5664
821.1530, 895.1489
822.2920, 790.1953
823.4310, 740.2422
824.5690, 643.8135
825.7070, 509.2690
826.8460, 422.1685
827.9840, 283.1772
829.1220, 301.7090
830.2590, 245.4185
831.3970, 68.25293
832.5340, 163.3442
833.6710, 164.1870
834.8080, 150.4399
835.9450, 53.41943
837.0820, 218.4141
838.2190, 4.175781
839.3550, 38.95361
840.4910, 80.59961
841.6270, 110.1997
842.7630, 55.79785
843.8990, 2.966309
845.0350, 1.105469
846.1700, 40.22119
847.3060, 60.49463
848.4410, 50.79492
849.5760, 68.95264
850.7100, 74.57227
851.8450, 46.60010
852.9800, 75.36768
854.1140, 18.24707
855.2480, 17.85645
856.3820, 4.753418
857.5160, 24.78955
858.6500, 26.16455
859.7830, 6.104980
860.9170, 2.133301
862.0500, 49.07178
863.1830, 10.10742
864.3160, 54.98047
865.4480, 99.57422
866.5810, 44.82520
867.7130, 148.2529
868.8460, 23.35449
869.9780, 71.33545
871.1100, 71.39404
872.2410, 21.35498
873.3730, 54.69482
874.5050, 71.84326
875.6360, 70.14014
876.7670, 11.42969
877.8980, 95.79834
879.0290, 4.313965
880.1590, 89.08203
881.2900, 45.58643
882.4200, 62.47266
883.5500, 99.31836
884.6800, 61.34424
885.8100, 38.64111
886.9400, 7.205566
888.0690, 37.11230
889.1990, 32.32471
890.3280, 28.63086
891.4570, 4.554199
892.5860, 47.71729
893.7140, 47.03906
894.8430, 5.746582
895.9710, 65.83105
897.1000, 84.33252
898.2280, 41.12744
899.3560, 26.54004
900.4830, 18.09668
901.6110, 12.20312
902.7380, 2.453125
903.8660, 85.65137
904.9930, 0.1943360
906.1200, 99.09180
907.2460, 35.09082
908.3730, 16.84229
909.5000, 19.72900
910.6260, 15.42920
911.7520, 62.35791
912.8780, 20.10352
914.0040, 24.80566
915.1290, 11.46582
916.2550, 0.9169920
917.3800, 21.34521
918.5050, 0.1728520
919.6300, 0.3520510
920.7550, 33.92041
921.8800, 29.45459
923.0040, 37.20996
924.1290, 30.06934
925.2530, 95.68945
926.3770, 76.46631
927.5010, 20.58691
928.6250, 52.67090
929.7480, 83.71973
930.8720, 87.73584
931.9950, 107.9595
933.1180, 2.670410
934.2410, 117.5903
935.3640, 53.47998
936.4860, 36.33838
937.6090, 82.16553
938.7310, 10.03564
939.8530, 94.72852
940.9750, 174.4639
942.0970, 157.1729
943.2180, 1.142090
944.3400, 158.5127
945.4610, 97.14307
946.5820, 111.7676
947.7030, 193.3862
948.8240, 232.0029
949.9450, 197.6167
951.0650, 105.2134
952.1860, 160.7881
953.3060, 181.3438
954.4260, 109.8882
955.5460, 192.4316
956.6650, 210.9736
957.7850, 249.5054
958.9040, 246.0195
960.0230, 265.5142
961.1420, 222.9888
962.2610, 258.4458
963.3800, 160.8711
964.4990, 193.5513
965.6170, 280.5234
966.7350, 196.6006
967.8530, 304.4727
968.9710, 285.3291
970.0890, 368.1299
971.2070, 310.5586
972.3240, 362.6279
973.4410, 264.6860
974.5580, 409.1875
975.6750, 329.6553
976.7920, 361.3486
977.9090, 323.5161
979.0250, 400.0254
980.1410, 355.2993
981.2580, 454.1660
982.3740, 466.4487
983.4890, 451.5322
984.6050, 382.9116
985.7200, 445.3413
986.8360, 448.5288
987.9510, 535.7207
989.0660, 544.9272
990.1810, 595.2217
991.2950, 666.2871
992.4100, 677.1685
993.5240, 667.6221
994.6390, 623.3403
995.7530, 701.5933
996.8660, 655.5820
997.9800, 789.3931
999.0940, 752.4438
1000.207, 796.9058
1001.320, 852.6235
1002.433, 840.3105
1003.546, 849.4614
1004.659, 795.8218
1005.772, 840.0137
1006.884, 918.5107
1007.996, 938.6919
1009.108, 804.9331
1010.220, 948.3130
1011.332, 890.3789
1012.444, 1006.229
1013.555, 987.7939
1014.666, 990.2871
1015.777, 967.3955
1016.888, 1073.766
1017.999, 1012.580
1019.110, 1099.836
1020.220, 1036.942
1021.331, 1177.647
1022.441, 1175.793
1023.551, 1207.113
1024.661, 1191.210
1025.770, 1202.324
1026.880, 1229.863
1027.989, 1221.324
1029.098, 1247.086
1030.207, 1189.649
1031.316, 1236.111
1032.425, 1162.594
1033.533, 1252.910
1034.642, 1239.672
1035.750, 1207.820
1036.858, 1303.796
1037.966, 1350.618
1039.073, 1219.597
1040.181, 1349.666
1041.288, 1359.807
1042.396, 1474.251
1043.503, 1384.779
1044.610, 1381.273
1045.716, 1422.141
1046.823, 1289.783
1047.929, 1353.516
1049.036, 1425.119
1050.142, 1260.528
1051.248, 1300.093
1052.353, 1354.610
1053.459, 1232.160
1054.564, 1282.199
1055.670, 1153.134
1056.775, 1167.128
1057.880, 1321.107
1058.985, 1249.662
1060.089, 1151.879
1061.194, 1189.884
1062.298, 1158.048
1063.402, 1182.377
1064.506, 1184.747
1065.610, 1244.226
1066.713, 1191.277
1067.817, 1086.842
1068.920, 1152.164
1070.023, 1151.439
1071.126, 1193.931
1072.229, 1303.935
1073.332, 1122.527
1074.435, 1364.174
1075.537, 1281.852
1076.639, 1480.116
1077.741, 1408.830
1078.843, 1512.560
1079.945, 1621.304
1081.046, 1617.063
1082.148, 1679.838
1083.249, 1869.627
1084.350, 1898.431
1085.451, 2027.251
1086.551, 2011.087
1087.652, 2168.938
1088.752, 2279.805
1089.853, 2355.688
1090.953, 2385.586
1092.053, 2486.501
1093.152, 2702.433
1094.252, 2604.381
1095.351, 2871.345
1096.451, 3000.326
1097.550, 3070.329
1098.649, 3198.350
1099.748, 3365.394
1100.846, 3257.458
1101.945, 3555.542
1103.043, 3443.644
1104.141, 3602.801
1105.239, 3752.978
1106.337, 3703.187
1107.434, 3693.429
1108.532, 3809.693
1109.629, 3751.978
1110.726, 3885.283
1111.823, 3979.630
1112.920, 3887.015
1114.017, 3906.508
1115.113, 3986.938
1116.210, 4149.390
1117.306, 4166.864
1118.402, 4195.360
1119.498, 4286.605
1120.593, 4194.431
1121.689, 4331.194
1122.784, 4323.800
1123.879, 4194.438
1124.974, 4225.114
1126.069, 4202.575
1127.164, 4095.433
1128.259, 4246.829
1129.353, 4024.673
1130.447, 3942.323
1131.541, 4038.183
1132.635, 3939.662
1133.729, 4134.103
1134.822, 4132.146
1135.916, 4114.753
1137.009, 4233.187
1138.102, 4174.542
1139.195, 4085.300
1140.288, 4125.391
1141.380, 4185.378
1142.473, 4138.573
1143.565, 4194.114
1144.657, 4338.392
1145.749, 4304.695
1146.841, 4322.034
1147.932, 4317.395
1149.024, 4278.810
1150.115, 4324.617
1151.206, 4354.104
1152.297, 4353.247
1153.388, 4319.790
1154.479, 4422.662
1155.569, 4341.224
1156.659, 4564.286
1157.750, 4462.721
1158.839, 4370.700
1159.929, 4398.397
1161.019, 4218.471
1162.108, 4259.761
1163.198, 4226.954
1164.287, 4115.620
1165.376, 4040.383
1166.465, 4107.671
1167.553, 4138.724
1168.642, 3914.595
1169.730, 3815.739
1170.818, 3731.718
1171.906, 3824.712
1172.994, 3723.836
1174.082, 3548.385
1175.170, 3507.546
1176.257, 3347.297
1177.344, 3332.824
1178.431, 3234.923
1179.518, 3214.498
1180.605, 2902.766
1181.691, 3022.909
1182.778, 2755.229
1183.864, 2680.724
1184.950, 2550.015
1186.036, 2552.207
1187.122, 2567.433
1188.207, 2352.706
1189.292, 2301.966
1190.378, 2239.672
1191.463, 2118.600
1192.548, 2056.297
1193.632, 1905.164
1194.717, 1664.853
1195.801, 1744.203
1196.886, 1550.561
1197.970, 1400.097
1199.054, 1382.512
1200.137, 1420.005
1201.221, 1112.403
1202.305, 1239.809
1203.388, 1070.226
1204.471, 1005.869
1205.554, 889.9277
1206.637, 846.2046
1207.719, 827.8799
1208.802, 838.3462
1209.884, 759.9053
1210.966, 691.4761
1212.048, 618.0044
1213.130, 523.5425
1214.212, 431.0625
1215.293, 443.7139
1216.374, 356.3184
1217.456, 369.9888
1218.536, 371.6582
1219.617, 364.2002
1220.698, 356.9116
1221.778, 314.3193
1222.859, 322.2891
1223.939, 247.0708
1225.019, 217.9331
1226.099, 256.7271
1227.178, 101.3027
1228.258, 119.0371
1229.337, 145.1792
1230.417, 178.9492
1231.496, 112.6489
1232.574, 156.4385
1233.653, 102.6514
1234.732, 30.92676
1235.810, 80.55371
1236.888, 10.39648
1237.966, 78.97070
1239.044, 89.82471
1240.122, 58.39990
1241.199, 170.4487
1242.277, 140.0718
1243.354, 44.35205
1244.431, 30.21387
1245.508, 33.99414
1246.585, 93.58398
1247.661, 39.69775
1248.738, 33.47119
1249.814, 95.15088
1250.890, 11.28564
1251.966, 90.40674
1253.042, 36.17188
1254.117, 6.899414
1255.193, 29.54834
1256.268, 7.006836
1257.343, 24.92871
1258.418, 2.841797
1259.493, 29.11572
1260.567, 3.396484
1261.642, 22.01758
1262.716, 124.3677
1263.790, 100.7998
1264.864, 20.75879
1265.938, 55.13428
1267.011, 38.42090
1268.085, 58.98730
1269.158, 34.31885
1270.231, 22.08594
1271.304, 74.35693
1272.377, 80.07715
1273.450, 15.24365
1274.522, 46.49512
1275.594, 3.888672
1276.666, 28.12402
1277.738, 6.193359
1278.810, 58.97314
1279.882, 70.46240
1280.953, 93.36914
1282.025, 46.39697
1283.096, 133.5039
1284.167, 47.48730
1285.238, 86.21143
1286.308, 7.709473
1287.379, 69.74902
1288.449, 80.80566
1289.519, 0.6958010
1290.589, 2.430176
1291.659, 16.39307
1292.729, 23.26367
1293.798, 23.72852
1294.868, 2.104492
1295.937, 9.916504
1297.006, 5.824707
1298.075, 9.486816
1299.143, 5.696289
1300.212, 53.16797
1301.280, 30.07812
1302.348, 27.17871
1303.416, 32.54297
1304.484, 12.46387
1305.552, 23.92334
