##NAMES=Clinozoisite
##RRUFFID=R060284
##IDEAL CHEMISTRY=Ca_2_Al_3_(Si_2_O_7_)(SiO_4_)O(OH)
##LOCALITY=near Zagi Mountain, Khaffor Dehri, North-West Frontier Province, Pakistan
##OWNER=RRUFF
##SOURCE=Herb Obodda
##DESCRIPTION=Greenish-brown fragment of a prismatic crystal
##STATUS=The identification of this mineral has been confirmed by X-ray diffraction and chemical analysis
##URL=rruff.info/R060284
##MEASURED CHEMISTRY=Ca_2.00_(Al_0.90_Fe^3+^_0.10_)_3_(Si_1.00_O_4_)(Si_2.00_O_7_)O(OH)
##PIN_ID=L00506
##ORIENTATION=Laser parallel to -a* (-1 0 0). Fiducial mark perpendicular to laser is parallel to b [0 1 0]
118.1340, 0.0000000E+00
119.3650, 112.4404
120.5960, 9.167969
121.8270, 9.708008
123.0580, 48.15527
124.2880, 171.4678
125.5190, 363.8418
126.7490, 605.0713
127.9790, 868.5137
129.2090, 1198.689
130.4390, 1665.742
131.6680, 2255.993
132.8980, 2682.478
134.1270, 3213.141
135.3560, 3890.420
136.5850, 4758.326
137.8140, 5566.018
139.0430, 6460.850
140.2710, 6806.449
141.5000, 7247.325
142.7280, 7418.668
143.9560, 7497.428
145.1840, 7631.359
146.4120, 7457.084
147.6390, 7532.096
148.8670, 7201.799
150.0940, 7097.541
151.3210, 7256.611
152.5490, 7034.258
153.7750, 6952.916
155.0020, 7105.808
156.2290, 7289.529
157.4550, 7585.612
158.6810, 7642.830
159.9080, 7649.156
161.1340, 7875.656
162.3590, 8100.256
163.5850, 8477.882
164.8110, 8606.477
166.0360, 8720.976
167.2610, 8604.324
168.4860, 8709.470
169.7110, 8507.371
170.9360, 8080.989
172.1610, 7548.295
173.3850, 6902.246
174.6100, 6309.760
175.8340, 5805.780
177.0580, 4774.285
178.2820, 4175.270
179.5050, 3219.727
180.7290, 2633.651
181.9520, 1969.037
183.1760, 1403.882
184.3990, 953.1777
185.6220, 511.9277
186.8450, 373.1230
188.0670, 19.23535
189.2900, 133.1514
190.5120, 269.5264
191.7340, 424.7314
192.9560, 554.6055
194.1780, 411.3145
195.4000, 411.6006
196.6220, 422.5225
197.8430, 255.2793
199.0640, 180.8652
200.2860, 177.7197
201.5070, 230.9570
202.7270, 371.3945
203.9480, 476.4688
205.1690, 580.6934
206.3890, 693.0674
207.6090, 958.5928
208.8290, 1046.270
210.0490, 1205.086
211.2690, 1446.991
212.4890, 1580.959
213.7080, 1686.997
214.9280, 1795.116
216.1470, 1828.328
217.3660, 1868.641
218.5850, 1941.063
219.8030, 1999.605
221.0220, 2200.272
222.2400, 2276.072
223.4590, 2569.012
224.6770, 2765.098
225.8950, 3336.335
227.1120, 3807.541
228.3300, 4543.398
229.5480, 5188.665
230.7650, 5989.480
231.9820, 7215.039
233.1990, 8151.746
234.4160, 8882.685
235.6330, 9819.860
236.8490, 10330.27
238.0660, 10689.92
239.2820, 11149.80
240.4980, 11263.93
241.7140, 11615.30
242.9300, 12080.92
244.1460, 12816.77
245.3610, 13829.87
246.5770, 14828.22
247.7920, 16430.82
249.0070, 18037.66
250.2220, 19623.76
251.4370, 20837.11
252.6510, 22068.71
253.8660, 22969.56
255.0800, 23273.68
256.2940, 22903.04
257.5080, 22159.66
258.7220, 21474.54
259.9360, 19801.67
261.1490, 18038.07
262.3630, 17273.25
263.5760, 16332.98
264.7890, 16284.72
266.0020, 16176.65
267.2150, 16748.79
268.4270, 17213.26
269.6400, 18008.70
270.8520, 18920.08
272.0640, 19476.30
273.2760, 20179.30
274.4880, 20485.24
275.7000, 20347.35
276.9120, 19727.62
278.1230, 18632.01
279.3340, 17468.53
280.5450, 16122.18
281.7560, 14668.95
282.9670, 13789.79
284.1780, 12499.59
285.3880, 11592.31
286.5980, 10574.00
287.8090, 10089.67
289.0190, 9297.366
290.2290, 8733.104
291.4380, 8310.896
292.6480, 7998.762
293.8570, 7540.714
295.0670, 7395.764
296.2760, 7240.918
297.4850, 7138.186
298.6930, 6914.574
299.9020, 6762.492
301.1110, 6611.017
302.3190, 6396.430
303.5270, 6209.115
304.7350, 6041.491
305.9430, 5926.113
307.1510, 5978.981
308.3580, 6153.091
309.5660, 6506.436
310.7730, 6529.014
311.9800, 6936.824
313.1870, 7228.861
314.3940, 7518.125
315.6010, 8085.613
316.8070, 8352.322
318.0130, 8675.249
319.2200, 9200.396
320.4260, 9918.754
321.6310, 10580.33
322.8370, 10791.12
324.0430, 11315.13
325.2480, 11721.34
326.4540, 12021.76
327.6590, 12308.40
328.8640, 12701.24
330.0680, 13594.30
331.2730, 14368.56
332.4780, 15418.03
333.6820, 16500.00
334.8860, 18004.05
336.0900, 19286.80
337.2940, 20521.05
338.4980, 21733.02
339.7010, 23455.02
340.9050, 24682.40
342.1080, 25832.52
343.3110, 27181.83
344.5140, 28190.20
345.7170, 29068.38
346.9200, 30257.09
348.1220, 31377.99
349.3240, 32358.06
350.5270, 33080.31
351.7290, 32598.75
352.9310, 31751.36
354.1320, 29272.16
355.3340, 26694.13
356.5350, 23254.29
357.7370, 19838.64
358.9380, 16683.18
360.1390, 13851.89
361.3400, 11403.80
362.5400, 9782.880
363.7410, 8462.148
364.9410, 7362.604
366.1410, 6610.242
367.3410, 6141.064
368.5410, 5568.070
369.7410, 5182.262
370.9400, 4943.640
372.1400, 4504.203
373.3390, 4227.955
374.5380, 3866.895
375.7370, 3584.028
376.9360, 3451.357
378.1350, 3246.881
379.3330, 3307.601
380.5310, 3275.513
381.7300, 3591.618
382.9280, 4158.916
384.1260, 4593.406
385.3230, 5160.089
386.5210, 5894.963
387.7180, 6032.023
388.9160, 6111.277
390.1130, 6037.721
391.3100, 5626.352
392.5060, 5291.168
393.7030, 4753.172
394.9000, 4365.363
396.0960, 3647.739
397.2920, 3081.299
398.4880, 2740.044
399.6840, 2209.971
400.8800, 1360.079
402.0750, 885.8770
403.2710, 281.1143
404.4660, 248.7070
405.6610, 605.0664
406.8560, 947.0996
408.0510, 1099.108
409.2450, 1387.902
410.4400, 1271.086
411.6340, 1322.602
412.8280, 1037.482
414.0220, 912.5977
415.2160, 450.8936
416.4100, 22.17871
417.6030, 591.6895
418.7970, 1396.736
419.9900, 2159.962
421.1830, 3200.365
422.3760, 4248.949
423.5690, 5419.707
424.7610, 6897.643
425.9540, 7721.754
427.1460, 8624.046
428.3380, 9104.514
429.5300, 9220.158
430.7220, 9399.979
431.9140, 8750.980
433.1050, 8675.162
434.2970, 8113.522
435.4880, 8242.062
436.6790, 8433.779
437.8700, 8875.676
439.0610, 9927.758
440.2510, 11310.03
441.4420, 12914.48
442.6320, 14892.13
443.8220, 17666.98
445.0120, 20529.04
446.2020, 24309.34
447.3910, 27681.89
448.5810, 31612.70
449.7700, 35145.78
450.9600, 38015.13
452.1490, 39914.75
453.3370, 40655.64
454.5260, 40290.82
455.7150, 38710.26
456.9030, 36191.00
458.0910, 33436.02
459.2800, 30041.33
460.4670, 27294.90
461.6550, 24398.71
462.8430, 22415.81
464.0300, 20622.16
465.2180, 19349.79
466.4050, 18621.71
467.5920, 18202.94
468.7790, 18067.48
469.9650, 17801.34
471.1520, 17841.54
472.3380, 17861.04
473.5250, 17830.85
474.7110, 18160.94
475.8970, 17992.32
477.0820, 17822.06
478.2680, 18112.15
479.4540, 17976.66
480.6390, 17865.59
481.8240, 18064.96
483.0090, 17586.75
484.1940, 16951.94
485.3780, 16267.53
486.5630, 15122.45
487.7470, 13969.70
488.9320, 12593.20
490.1160, 11142.94
491.3000, 10135.93
492.4830, 8744.183
493.6670, 7674.686
494.8500, 6884.400
496.0340, 6484.322
497.2170, 5976.475
498.4000, 5810.840
499.5820, 5661.579
500.7650, 5993.350
501.9480, 6524.297
503.1300, 6775.466
504.3120, 7440.805
505.4940, 8349.329
506.6760, 8562.023
507.8580, 9340.883
509.0390, 9206.903
510.2210, 9015.077
511.4020, 9211.405
512.5830, 8781.885
513.7640, 8641.512
514.9450, 8559.284
516.1250, 8716.194
517.3060, 8371.244
518.4860, 8446.426
519.6660, 8619.742
520.8460, 8258.186
522.0260, 8399.758
523.2060, 7877.453
524.3850, 7893.275
525.5650, 7749.217
526.7440, 7380.279
527.9230, 7437.455
529.1020, 7200.750
530.2810, 6609.153
531.4590, 5938.672
532.6380, 4875.299
533.8160, 4143.037
534.9940, 2933.882
536.1720, 2381.833
537.3500, 1448.891
538.5270, 1085.051
539.7050, 521.3125
540.8820, 432.6748
542.0590, 129.1357
543.2360, 12.30469
544.4130, 73.66211
545.5900, 63.94824
546.7660, 117.5693
547.9430, 55.05664
549.1190, 22.60547
550.2950, 235.8916
551.4710, 578.8486
552.6470, 558.3418
553.8220, 984.2314
554.9980, 1465.844
556.1730, 2184.038
557.3480, 2867.831
558.5230, 4007.228
559.6980, 5133.032
560.8730, 6575.939
562.0470, 8512.945
563.2220, 10955.05
564.3960, 13865.35
565.5700, 17183.54
566.7440, 21148.92
567.9170, 25536.41
569.0910, 30361.98
570.2640, 34393.64
571.4380, 36383.39
572.6110, 35552.21
573.7840, 32667.13
574.9570, 28085.13
576.1290, 22517.21
577.3020, 17155.37
578.4740, 13109.61
579.6460, 10133.50
580.8180, 7603.412
581.9900, 6678.438
583.1620, 5972.493
584.3330, 5747.650
585.5040, 5615.131
586.6760, 5958.736
587.8470, 6396.292
589.0180, 6980.512
590.1880, 7696.922
591.3590, 8176.020
592.5290, 9004.238
593.7000, 9920.615
594.8700, 10721.03
596.0400, 11680.39
597.2090, 12775.79
598.3790, 13682.77
599.5490, 14903.95
600.7180, 15879.14
601.8870, 17125.68
603.0560, 18044.36
604.2250, 18518.49
605.3940, 18766.40
606.5620, 18495.79
607.7300, 17644.37
608.8990, 16665.41
610.0670, 15313.89
611.2350, 14018.30
612.4020, 12378.11
613.5700, 11397.17
614.7370, 10070.22
615.9050, 9307.258
617.0720, 8461.736
618.2390, 7462.931
619.4060, 6662.424
620.5720, 5404.799
621.7390, 4651.326
622.9050, 3834.418
624.0710, 2795.824
625.2370, 2054.370
626.4030, 1725.063
627.5690, 1284.310
628.7340, 1058.671
629.9000, 744.6025
631.0650, 548.9482
632.2300, 348.7168
633.3950, 183.3330
634.5600, 105.9863
635.7240, 152.2109
636.8890, 142.5430
638.0530, 166.7764
639.2170, 16.51367
640.3810, 126.1904
641.5450, 118.6396
642.7080, 236.9609
643.8720, 288.9209
645.0350, 278.0957
646.1980, 709.0176
647.3610, 833.9434
648.5240, 1241.856
649.6870, 1648.170
650.8490, 2004.429
652.0120, 2464.354
653.1740, 2828.119
654.3360, 3275.551
655.4980, 3678.789
656.6600, 3735.086
657.8210, 3692.010
658.9830, 3801.582
660.1440, 3382.227
661.3050, 3300.019
662.4660, 3038.327
663.6270, 2627.571
664.7870, 2396.396
665.9480, 2199.832
667.1080, 2005.780
668.2680, 1933.314
669.4280, 1793.388
670.5880, 1833.346
671.7480, 1784.188
672.9070, 1637.917
674.0670, 1763.525
675.2260, 1707.017
676.3850, 1681.388
677.5440, 1994.639
678.7030, 2069.768
679.8610, 2458.773
681.0200, 2492.654
682.1780, 2819.412
683.3360, 2967.535
684.4940, 2970.271
685.6520, 2928.118
686.8090, 3085.554
687.9670, 3207.662
689.1240, 3208.482
690.2810, 3256.922
691.4380, 3170.520
692.5950, 3253.246
693.7520, 3213.115
694.9080, 3379.057
696.0650, 3751.044
697.2210, 3763.979
698.3770, 3911.787
699.5330, 3894.456
700.6880, 3979.984
701.8440, 3920.372
702.9990, 3911.618
704.1550, 3575.718
705.3100, 3310.676
706.4650, 3085.486
707.6190, 2731.151
708.7740, 2290.670
709.9290, 2048.039
711.0830, 1657.260
712.2370, 1501.330
713.3910, 1231.251
714.5450, 943.0176
715.6980, 711.6338
716.8520, 612.0947
718.0050, 322.4023
719.1580, 215.5479
720.3110, 220.5195
721.4640, 164.3174
722.6170, 88.92969
723.7700, 59.26855
724.9220, 6.060547
726.0740, 53.54785
727.2260, 60.89746
728.3780, 124.5371
729.5300, 132.4990
730.6810, 83.79297
731.8330, 131.3916
732.9840, 145.3242
734.1350, 173.9863
735.2860, 156.2305
736.4370, 227.2109
737.5880, 164.5811
738.7380, 99.30859
739.8880, 39.36035
741.0390, 151.7041
742.1890, 109.4014
743.3380, 184.4307
744.4880, 206.8311
745.6380, 272.6162
746.7870, 342.8213
747.9360, 317.4814
749.0850, 411.5869
750.2340, 290.1865
751.3830, 326.2158
752.5310, 166.6924
753.6800, 294.5361
754.8280, 349.8115
755.9760, 234.5479
757.1240, 367.6826
758.2720, 287.2881
759.4190, 227.3193
760.5670, 253.7451
761.7140, 228.5781
762.8610, 200.8057
764.0080, 157.4092
765.1550, 168.3682
766.3020, 140.6836
767.4480, 120.3428
768.5950, 177.3330
769.7410, 218.6826
770.8870, 155.4131
772.0330, 47.48828
773.1780, 27.84961
774.3240, 112.4863
775.4690, 66.43945
776.6140, 61.56250
777.7590, 2.381836
778.9040, 59.83105
780.0490, 115.1777
781.1940, 63.50391
782.3380, 9.030273
783.4820, 51.18555
784.6260, 82.18457
785.7700, 124.9785
786.9140, 150.9775
788.0580, 87.98242
789.2010, 155.1895
790.3450, 239.2090
791.4880, 170.0537
792.6310, 269.7148
793.7730, 246.2061
794.9160, 447.5254
796.0590, 298.6846
797.2010, 455.6787
798.3430, 390.5166
799.4850, 476.1953
800.6270, 460.7188
801.7690, 530.0898
802.9100, 591.3105
804.0520, 640.3828
805.1930, 740.3105
806.3340, 897.0938
807.4750, 1024.733
808.6160, 1073.230
809.7560, 1157.586
810.8970, 1212.801
812.0370, 1340.875
813.1770, 1543.810
814.3170, 1706.606
815.4570, 1855.267
816.5960, 1844.790
817.7360, 2116.179
818.8750, 2069.434
820.0140, 2414.553
821.1530, 2658.547
822.2920, 2739.422
823.4310, 2956.177
824.5690, 3014.820
825.7070, 3187.344
826.8460, 3188.742
827.9840, 3444.014
829.1220, 3494.154
830.2590, 3738.163
831.3970, 3827.045
832.5340, 3938.795
833.6710, 4145.414
834.8080, 4367.906
835.9450, 4402.269
837.0820, 4523.506
838.2190, 4950.615
839.3550, 5141.600
840.4910, 5256.463
841.6270, 5674.201
842.7630, 5922.817
843.8990, 6213.314
845.0350, 6545.691
846.1700, 6888.950
847.3060, 7214.094
848.4410, 7670.120
849.5760, 7820.031
850.7100, 8490.827
851.8450, 8868.512
852.9800, 9458.085
854.1140, 10117.55
855.2480, 10808.33
856.3820, 11620.05
857.5160, 12611.63
858.6500, 13529.15
859.7830, 14611.52
860.9170, 16104.54
862.0500, 17276.40
863.1830, 18834.28
864.3160, 20473.46
865.4480, 22433.41
866.5810, 24814.64
867.7130, 26268.71
868.8460, 28476.58
869.9780, 30384.39
871.1100, 32192.20
872.2410, 32956.95
873.3730, 33647.07
874.5050, 34006.95
875.6360, 34623.78
876.7670, 35281.23
877.8980, 35702.50
879.0290, 36380.31
880.1590, 37195.32
881.2900, 37477.80
882.4200, 38182.09
883.5500, 38887.87
884.6800, 38991.18
885.8100, 39641.54
886.9400, 40321.46
888.0690, 41080.11
889.1990, 42590.77
890.3280, 43656.38
891.4570, 45573.54
892.5860, 46832.00
893.7140, 48115.16
894.8430, 49044.39
895.9710, 49412.47
897.1000, 48925.95
898.2280, 47748.11
899.3560, 46071.08
900.4830, 43949.88
901.6110, 42301.14
902.7380, 40378.24
903.8660, 38875.74
904.9930, 37895.80
906.1200, 37584.43
907.2460, 37748.18
908.3730, 37870.86
909.5000, 38448.94
910.6260, 39079.88
911.7520, 39492.90
912.8780, 39838.39
914.0040, 39229.85
915.1290, 38901.54
916.2550, 37494.33
917.3800, 35943.46
918.5050, 34474.36
919.6300, 32661.44
920.7550, 30739.48
921.8800, 29166.49
923.0040, 27583.03
924.1290, 26001.60
925.2530, 24691.47
926.3770, 23451.59
927.5010, 22276.78
928.6250, 21331.23
929.7480, 20141.57
930.8720, 19229.24
931.9950, 18055.21
933.1180, 16951.05
934.2410, 15645.69
935.3640, 14475.75
936.4860, 13254.83
937.6090, 12238.26
938.7310, 11082.03
939.8530, 9848.878
940.9750, 8727.785
942.0970, 8045.755
943.2180, 7141.783
944.3400, 6518.886
945.4610, 5954.061
946.5820, 5249.306
947.7030, 4865.616
948.8240, 4565.992
949.9450, 4340.436
951.0650, 3978.947
952.1860, 3852.521
953.3060, 3582.163
954.4260, 3630.878
955.5460, 3425.662
956.6650, 3386.533
957.7850, 3605.482
958.9040, 3456.497
960.0230, 3548.588
961.1420, 3541.755
962.2610, 3509.991
963.3800, 3703.299
964.4990, 3636.686
965.6170, 3867.154
966.7350, 3891.705
967.8530, 3893.336
968.9710, 3965.046
970.0890, 4257.839
971.2070, 4481.723
972.3240, 4859.695
973.4410, 5226.759
974.5580, 5910.900
975.6750, 6685.127
976.7920, 7503.436
977.9090, 8774.837
979.0250, 9994.328
980.1410, 11433.92
981.2580, 13158.59
982.3740, 14564.36
983.4890, 15693.22
984.6050, 16334.17
985.7200, 16769.24
986.8360, 16249.40
987.9510, 15425.64
989.0660, 13845.01
990.1810, 12451.49
991.2950, 10448.06
992.4100, 9115.729
993.5240, 7603.515
994.6390, 6532.427
995.7530, 5433.490
996.8660, 4601.725
997.9800, 4106.153
999.0940, 3394.752
1000.207, 3055.539
1001.320, 2439.508
1002.433, 2093.732
1003.546, 1716.071
1004.659, 1576.602
1005.772, 1190.346
1006.884, 1040.284
1007.996, 818.4160
1009.108, 611.8877
1010.220, 528.4688
1011.332, 593.1953
1012.444, 507.3262
1013.555, 535.2334
1014.666, 842.0381
1015.777, 677.7822
1016.888, 935.2881
1017.999, 1018.675
1019.110, 1187.450
1020.220, 1604.276
1021.331, 1908.767
1022.441, 2508.353
1023.551, 3044.886
1024.661, 3762.014
1025.770, 4505.361
1026.880, 5231.107
1027.989, 5732.108
1029.098, 6003.729
1030.207, 6280.394
1031.316, 6033.226
1032.425, 5848.811
1033.533, 5437.213
1034.642, 4983.099
1035.750, 4755.648
1036.858, 4358.354
1037.966, 4150.570
1039.073, 3937.541
1040.181, 3943.771
1041.288, 3900.105
1042.396, 3866.949
1043.503, 3959.140
1044.610, 3801.450
1045.716, 3917.895
1046.823, 3794.749
1047.929, 3803.258
1049.036, 3567.277
1050.142, 3454.114
1051.248, 3291.815
1052.353, 3265.459
1053.459, 2779.336
1054.564, 2719.624
1055.670, 2435.867
1056.775, 2137.939
1057.880, 1865.903
1058.985, 1661.828
1060.089, 1326.808
1061.194, 1391.218
1062.298, 1095.498
1063.402, 1072.562
1064.506, 982.7451
1065.610, 905.7080
1066.713, 858.5566
1067.817, 894.0010
1068.920, 823.5293
1070.023, 1001.142
1071.126, 1227.834
1072.229, 1294.323
1073.332, 1629.180
1074.435, 1824.248
1075.537, 2031.771
1076.639, 2558.271
1077.741, 2878.830
1078.843, 3330.063
1079.945, 3848.064
1081.046, 4408.072
1082.148, 4871.017
1083.249, 5734.789
1084.350, 6684.596
1085.451, 7765.941
1086.551, 9187.756
1087.652, 10755.58
1088.752, 12310.13
1089.853, 14437.42
1090.953, 15875.46
1092.053, 17568.94
1093.152, 18600.97
1094.252, 18685.21
1095.351, 18034.04
1096.451, 16568.95
1097.550, 14261.29
1098.649, 11917.77
1099.748, 9667.338
1100.846, 7784.973
1101.945, 6294.473
1103.043, 5008.410
1104.141, 4111.643
1105.239, 3399.665
1106.337, 3151.591
1107.434, 2660.554
1108.532, 2495.642
1109.629, 2191.019
1110.726, 1886.701
1111.823, 1788.362
1112.920, 1542.497
1114.017, 1712.812
1115.113, 1461.080
1116.210, 1527.779
1117.306, 1492.002
1118.402, 1367.686
1119.498, 1485.623
1120.593, 1405.358
1121.689, 1508.779
1122.784, 1470.484
1123.879, 1236.369
1124.974, 1056.924
1126.069, 880.1582
1127.164, 734.5674
1128.259, 600.8125
1129.353, 481.1084
1130.447, 357.5645
1131.541, 202.4082
1132.635, 66.59766
1133.729, 0.6894530
1134.822, 21.66699
1135.916, 57.79102
1137.009, 10.07617
1138.102, 9.881836
1139.195, 56.51465
1140.288, 8.066406
1141.380, 0.4316410
1142.473, 58.10742
1143.565, 157.4600
1144.657, 116.2637
1145.749, 133.6289
1146.841, 94.71777
1147.932, 78.04199
1149.024, 95.65039
1150.115, 98.08887
1151.206, 58.25488
1152.297, 149.9854
1153.388, 188.7529
1154.479, 54.57324
1155.569, 141.1641
1156.659, 260.7578
1157.750, 241.7285
1158.839, 88.71680
1159.929, 202.8164
1161.019, 112.6748
1162.108, 151.9004
1163.198, 95.42285
1164.287, 106.4619
1165.376, 245.7998
1166.465, 73.39160
1167.553, 70.32422
1168.642, 176.3174
1169.730, 164.9297
1170.818, 104.4932
1171.906, 99.87500
1172.994, 84.11230
1174.082, 124.5088
1175.170, 60.79883
1176.257, 78.01953
1177.344, 39.24902
1178.431, 143.3066
1179.518, 146.5039
1180.605, 63.76367
1181.691, 93.89062
1182.778, 14.67188
1183.864, 29.79980
1184.950, 46.67578
1186.036, 14.12500
1187.122, 39.46680
1188.207, 86.12207
1189.292, 27.52539
1190.378, 124.3320
1191.463, 35.74707
1192.548, 45.78613
1193.632, 31.21094
1194.717, 107.7197
1195.801, 40.61719
1196.886, 49.46973
1197.970, 87.28125
1199.054, 86.05762
1200.137, 87.09277
1201.221, 46.36035
1202.305, 57.73145
1203.388, 139.6172
1204.471, 30.41406
1205.554, 73.91602
1206.637, 14.37109
1207.719, 17.80273
1208.802, 28.10645
1209.884, 82.34082
1210.966, 62.52051
1212.048, 96.60254
1213.130, 79.12793
1214.212, 116.1377
1215.293, 103.0977
1216.374, 71.13184
1217.456, 184.2412
1218.536, 9.033203
1219.617, 100.7832
1220.698, 168.4131
1221.778, 106.9922
1222.859, 126.5088
1223.939, 178.9648
1225.019, 146.4014
1226.099, 150.6045
1227.178, 112.3223
1228.258, 113.8857
1229.337, 147.1504
1230.417, 151.2305
1231.496, 162.2471
1232.574, 97.20020
1233.653, 120.0674
1234.732, 130.8594
1235.810, 259.5723
1236.888, 177.2285
1237.966, 246.0879
1239.044, 141.6191
1240.122, 169.0703
1241.199, 143.4492
1242.277, 164.7451
1243.354, 335.9648
1244.431, 140.1240
1245.508, 197.1963
1246.585, 99.19629
1247.661, 268.0928
1248.738, 168.9238
1249.814, 76.72656
1250.890, 196.3613
1251.966, 339.9199
1253.042, 302.4160
1254.117, 206.8467
1255.193, 187.4707
1256.268, 94.18652
1257.343, 61.33301
1258.418, 45.34961
1259.493, 197.2246
1260.567, 188.0127
1261.642, 344.9395
1262.716, 168.5674
1263.790, 259.0234
1264.864, 275.4746
1265.938, 368.8496
1267.011, 305.1377
1268.085, 324.3613
1269.158, 368.6348
1270.231, 361.2559
1271.304, 379.2324
1272.377, 346.1240
1273.450, 476.4150
1274.522, 368.3613
1275.594, 259.5430
1276.666, 337.9209
1277.738, 393.4346
1278.810, 352.5000
1279.882, 323.9131
1280.953, 426.8975
1282.025, 442.3809
1283.096, 440.9385
1284.167, 360.6777
1285.238, 269.9854
1286.308, 185.4707
1287.379, 214.9844
1288.449, 177.1611
1289.519, 197.8721
1290.589, 209.8711
