##NAMES=Clinozoisite
##RRUFFID=R040085
##IDEAL CHEMISTRY=Ca_2_Al_3_(Si_2_O_7_)(SiO_4_)O(OH)
##LOCALITY=Alamos, Sonora, Mexico
##OWNER=RRUFF
##SOURCE=University of Arizona Mineral Museum
##DESCRIPTION=Divergent aggregate of red thin prismatic crystals
##STATUS=The identification of this mineral has been confirmed by X-ray diffraction and chemical analysis
##URL=rruff.info/R040085
##MEASURED CHEMISTRY=Ca_2.03_(Al_0.90_Fe_0.13_)_3_(Si_1.00_O_4_)(Si_2.00_O_7_)O(OH)
##PIN_ID=M00391
##ORIENTATION=Laser parallel to c* (0 0 1). Fiducial mark perpendicular to laser is parallel to a [1 0 0]
178.2820, 0.0000000E+00
179.5050, 12.35742
180.7290, 48.17969
181.9520, 14.07422
183.1760, 18.40820
184.3990, 57.69531
185.6220, 16.90430
186.8450, 85.77344
188.0670, 72.83398
189.2900, 74.42969
190.5120, 175.3730
191.7340, 213.8672
192.9560, 291.1895
194.1780, 382.4766
195.4000, 521.0684
196.6220, 611.2168
197.8430, 860.5684
199.0640, 1038.820
200.2860, 1178.754
201.5070, 1311.344
202.7270, 1455.979
203.9480, 1450.832
205.1690, 1669.586
206.3890, 1753.887
207.6090, 1791.451
208.8290, 2057.051
210.0490, 2230.518
211.2690, 2512.703
212.4890, 2393.492
213.7080, 2718.793
214.9280, 2392.529
216.1470, 2654.633
217.3660, 2468.049
218.5850, 2524.742
219.8030, 2849.678
221.0220, 2647.086
222.2400, 3046.807
223.4590, 2929.588
224.6770, 3216.375
225.8950, 3108.969
227.1120, 3279.289
228.3300, 3095.672
229.5480, 3180.973
230.7650, 3185.562
231.9820, 3191.500
233.1990, 3233.846
234.4160, 3107.652
235.6330, 3029.963
236.8490, 3340.822
238.0660, 3446.268
239.2820, 3736.332
240.4980, 4273.047
241.7140, 4783.441
242.9300, 5363.539
244.1460, 6328.359
245.3610, 7355.928
246.5770, 7961.268
247.7920, 8746.393
249.0070, 9270.332
250.2220, 9546.094
251.4370, 9814.680
252.6510, 9921.062
253.8660, 9268.258
255.0800, 8840.324
256.2940, 8376.295
257.5080, 7915.195
258.7220, 7577.043
259.9360, 6847.855
261.1490, 6057.643
262.3630, 5661.902
263.5760, 5880.363
264.7890, 5805.027
266.0020, 6151.021
267.2150, 6509.426
268.4270, 6877.109
269.6400, 7324.797
270.8520, 7741.832
272.0640, 7747.094
273.2760, 7524.154
274.4880, 6762.465
275.7000, 5920.691
276.9120, 5059.100
278.1230, 4221.549
279.3340, 3027.975
280.5450, 2807.986
281.7560, 1899.148
282.9670, 1458.451
284.1780, 1048.891
285.3880, 877.4746
286.5980, 569.1934
287.8090, 304.0488
289.0190, 483.0352
290.2290, 259.1562
291.4380, 360.4062
292.6480, 383.7852
293.8570, 433.2930
295.0670, 428.9277
296.2760, 588.6836
297.4850, 568.5566
298.6930, 670.5254
299.9020, 991.5820
301.1110, 885.7188
302.3190, 1100.934
303.5270, 1177.227
304.7350, 1504.600
305.9430, 1272.053
307.1510, 1730.590
308.3580, 1804.211
309.5660, 1645.918
310.7730, 1815.717
311.9800, 1690.604
313.1870, 1988.580
314.3940, 2043.652
315.6010, 1842.828
316.8070, 1850.105
318.0130, 1672.215
319.2200, 1410.977
320.4260, 1294.576
321.6310, 1223.293
322.8370, 1020.125
324.0430, 1205.336
325.2480, 991.7031
326.4540, 1229.475
327.6590, 1303.789
328.8640, 1105.543
330.0680, 916.7109
331.2730, 757.0781
332.4780, 757.9434
333.6820, 583.1035
334.8860, 420.5371
336.0900, 152.2188
337.2940, 391.1309
338.4980, 186.2520
339.7010, 392.5684
340.9050, 309.0664
342.1080, 97.73633
343.3110, 140.5684
344.5140, 89.54883
345.7170, 29.32617
346.9200, 21.07617
348.1220, 255.2852
349.3240, 78.76758
350.5270, 214.3574
351.7290, 12.05078
352.9310, 34.83398
354.1320, 27.29297
355.3340, 17.65430
356.5350, 55.31445
357.7370, 441.2227
358.9380, 215.1484
360.1390, 288.0527
361.3400, 515.9453
362.5400, 438.8848
363.7410, 520.8496
364.9410, 379.8652
366.1410, 482.8945
367.3410, 334.9648
368.5410, 530.0469
369.7410, 310.2031
370.9400, 222.3906
372.1400, 270.6074
373.3390, 443.8691
374.5380, 343.2188
375.7370, 342.6230
376.9360, 289.0840
378.1350, 37.41602
379.3330, 9.943359
380.5310, 364.4980
381.7300, 706.0938
382.9280, 932.7227
384.1260, 1260.396
385.3230, 1777.111
386.5210, 1920.869
387.7180, 2613.672
388.9160, 3052.766
390.1130, 3836.426
391.3100, 4000.377
392.5060, 4205.379
393.7030, 4300.436
394.9000, 4323.764
396.0960, 4555.707
397.2920, 4193.930
398.4880, 3979.205
399.6840, 3734.539
400.8800, 3031.936
402.0750, 2333.389
403.2710, 2001.904
404.4660, 1923.477
405.6610, 1365.111
406.8560, 1302.781
408.0510, 1451.490
409.2450, 1455.262
410.4400, 1653.082
411.6340, 2230.928
412.8280, 2461.639
414.0220, 3465.221
415.2160, 4351.514
416.4100, 5306.551
417.6030, 6922.367
418.7970, 8492.969
419.9900, 10166.48
421.1830, 12062.80
422.3760, 16040.00
423.5690, 18647.28
424.7610, 17317.65
425.9540, 17311.12
427.1460, 17137.67
428.3380, 16945.32
429.5300, 15716.05
430.7220, 14304.87
431.9140, 12143.79
433.1050, 11287.79
434.2970, 10334.88
435.4880, 9865.061
436.6790, 9844.336
437.8700, 8915.711
439.0610, 10000.18
440.2510, 9409.746
441.4420, 9093.445
442.6320, 9619.230
443.8220, 10292.11
445.0120, 11362.13
446.2020, 12944.28
447.3910, 14687.57
448.5810, 15976.96
449.7700, 16154.87
450.9600, 16319.64
452.1490, 15622.09
453.3370, 14891.12
454.5260, 14009.28
455.7150, 12520.60
456.9030, 11546.05
458.0910, 9992.645
459.2800, 9188.363
460.4670, 8297.244
461.6550, 7578.301
462.8430, 7104.516
464.0300, 6605.863
465.2180, 6216.348
466.4050, 6187.984
467.5920, 5851.816
468.7790, 5914.840
469.9650, 5982.062
471.1520, 6065.479
472.3380, 6427.076
473.5250, 6414.121
474.7110, 6546.457
475.8970, 6511.795
477.0820, 6624.953
478.2680, 6529.273
479.4540, 6477.682
480.6390, 6577.176
481.8240, 6547.777
483.0090, 6397.459
484.1940, 6401.260
485.3780, 6365.164
486.5630, 6521.148
487.7470, 6043.250
488.9320, 6171.836
490.1160, 6157.967
491.3000, 5651.385
492.4830, 5531.879
493.6670, 5260.525
494.8500, 5080.492
496.0340, 4933.254
497.2170, 4886.723
498.4000, 4993.211
499.5820, 4750.592
500.7650, 4826.939
501.9480, 4941.633
503.1300, 4913.506
504.3120, 4896.914
505.4940, 4996.809
506.6760, 5084.148
507.8580, 5178.502
509.0390, 5020.385
510.2210, 5411.506
511.4020, 5608.930
512.5830, 5789.678
513.7640, 5405.246
514.9450, 5711.402
516.1250, 5477.264
517.3060, 5540.740
518.4860, 5523.387
519.6660, 5683.086
520.8460, 5672.643
522.0260, 5794.898
523.2060, 5785.613
524.3850, 5866.398
525.5650, 5800.254
526.7440, 5537.178
527.9230, 5297.170
529.1020, 4858.225
530.2810, 4511.352
531.4590, 4054.539
532.6380, 3496.787
533.8160, 3361.098
534.9940, 2863.473
536.1720, 2405.906
537.3500, 2481.400
538.5270, 2342.953
539.7050, 2549.564
540.8820, 2736.232
542.0590, 2551.957
543.2360, 2794.738
544.4130, 2953.576
545.5900, 2957.471
546.7660, 3160.418
547.9430, 3246.418
549.1190, 3188.475
550.2950, 3725.582
551.4710, 3683.744
552.6470, 4140.957
553.8220, 4662.221
554.9980, 4716.537
556.1730, 5217.904
557.3480, 5995.324
558.5230, 6485.797
559.6980, 7361.328
560.8730, 8914.914
562.0470, 10503.55
563.2220, 12751.24
564.3960, 15310.99
565.5700, 17432.79
566.7440, 19861.65
567.9170, 21731.56
569.0910, 22574.52
570.2640, 22018.54
571.4380, 20382.61
572.6110, 17576.72
573.7840, 15003.88
574.9570, 12051.63
576.1290, 9687.535
577.3020, 7567.213
578.4740, 5781.607
579.6460, 4541.258
580.8180, 3976.561
581.9900, 3385.016
583.1620, 2903.779
584.3330, 2875.838
585.5040, 2866.635
586.6760, 2738.949
587.8470, 3009.016
589.0180, 3168.168
590.1880, 3518.012
591.3590, 4021.938
592.5290, 4352.133
593.7000, 5134.023
594.8700, 5828.213
596.0400, 7294.777
597.2090, 8482.320
598.3790, 9185.865
599.5490, 10047.70
600.7180, 10428.49
601.8870, 10991.50
603.0560, 11318.47
604.2250, 11382.21
605.3940, 11129.18
606.5620, 10945.82
607.7300, 9959.438
608.8990, 8987.516
610.0670, 7956.273
611.2350, 7066.055
612.4020, 6322.207
613.5700, 5445.535
614.7370, 4687.811
615.9050, 3946.930
617.0720, 3396.375
618.2390, 3065.217
619.4060, 3056.572
620.5720, 2993.754
621.7390, 2538.305
622.9050, 2585.379
624.0710, 2383.793
625.2370, 2202.043
626.4030, 1893.492
627.5690, 1760.627
628.7340, 1639.041
629.9000, 1457.260
631.0650, 1490.047
632.2300, 1391.129
633.3950, 1308.980
634.5600, 1200.324
635.7240, 1127.957
636.8890, 725.2715
638.0530, 943.9727
639.2170, 979.6172
640.3810, 592.9961
641.5450, 1001.201
642.7080, 843.6074
643.8720, 751.1055
645.0350, 798.1582
646.1980, 832.8574
647.3610, 864.4043
648.5240, 1048.719
649.6870, 1085.094
650.8490, 1152.271
652.0120, 1404.459
653.1740, 1548.816
654.3360, 1679.143
655.4980, 1905.164
656.6600, 2162.203
657.8210, 2172.328
658.9830, 2316.438
660.1440, 2556.391
661.3050, 2762.475
662.4660, 2929.441
663.6270, 2911.137
664.7870, 2978.762
665.9480, 3099.357
667.1080, 2872.137
668.2680, 2786.398
669.4280, 2629.326
670.5880, 2815.471
671.7480, 2710.457
672.9070, 2676.549
674.0670, 2731.852
675.2260, 2582.119
676.3850, 2708.736
677.5440, 2707.170
678.7030, 2627.537
679.8610, 2400.834
681.0200, 3003.059
682.1780, 2575.215
683.3360, 2715.297
684.4940, 3003.309
685.6520, 2744.246
686.8090, 2881.109
687.9670, 2955.898
689.1240, 2928.609
690.2810, 3280.246
691.4380, 2908.805
692.5950, 3203.285
693.7520, 3017.688
694.9080, 2718.010
696.0650, 3049.252
697.2210, 2944.412
698.3770, 2592.492
699.5330, 2486.488
700.6880, 2260.402
701.8440, 1915.230
702.9990, 1770.664
704.1550, 1563.633
705.3100, 1350.205
706.4650, 1225.688
707.6190, 1058.084
708.7740, 930.9434
709.9290, 741.6133
711.0830, 700.7402
712.2370, 441.7812
713.3910, 308.7266
714.5450, 290.5762
715.6980, 124.3242
716.8520, 35.96875
718.0050, 25.51953
719.1580, 29.08789
720.3110, 62.17578
721.4640, 2.328125
722.6170, 143.3418
723.7700, 150.7539
724.9220, 76.07031
726.0740, 148.5684
727.2260, 187.7129
728.3780, 298.1191
729.5300, 105.2539
730.6810, 106.5977
731.8330, 274.1465
732.9840, 84.99414
734.1350, 168.0410
735.2860, 101.3320
736.4370, 130.8359
737.5880, 45.56836
738.7380, 185.4883
739.8880, 258.6660
741.0390, 176.1445
742.1890, 90.87891
743.3380, 81.82812
744.4880, 175.9824
745.6380, 274.3984
746.7870, 280.1152
747.9360, 305.3848
749.0850, 272.4219
750.2340, 261.1465
751.3830, 183.1055
752.5310, 133.3242
753.6800, 161.7891
754.8280, 26.48242
755.9760, 203.4082
757.1240, 99.41602
758.2720, 111.0977
759.4190, 21.35938
760.5670, 211.9902
761.7140, 49.78516
762.8610, 14.77148
764.0080, 99.05078
765.1550, 42.26953
766.3020, 32.20703
767.4480, 187.4863
768.5950, 143.5391
769.7410, 210.4277
770.8870, 212.8164
772.0330, 323.6426
773.1780, 31.97656
774.3240, 177.1406
775.4690, 18.83008
776.6140, 253.0059
777.7590, 37.70898
778.9040, 357.2461
780.0490, 176.6562
781.1940, 19.92969
782.3380, 232.0254
783.4820, 169.9863
784.6260, 5.189453
785.7700, 70.56055
786.9140, 82.84570
788.0580, 153.0117
789.2010, 29.96289
790.3450, 147.8555
791.4880, 253.5293
792.6310, 307.0684
793.7730, 179.4766
794.9160, 302.7441
796.0590, 312.8789
797.2010, 353.8828
798.3430, 107.7559
799.4850, 326.4805
800.6270, 377.0723
801.7690, 380.5332
802.9100, 612.8672
804.0520, 315.0801
805.1930, 664.1641
806.3340, 489.1309
807.4750, 661.9707
808.6160, 683.6953
809.7560, 758.3008
810.8970, 555.7910
812.0370, 778.1621
813.1770, 708.4199
814.3170, 1121.561
815.4570, 967.5879
816.5960, 1030.504
817.7360, 1354.305
818.8750, 1407.992
820.0140, 1355.566
821.1530, 1627.029
822.2920, 1845.381
823.4310, 1981.621
824.5690, 2376.746
825.7070, 2694.762
826.8460, 3009.666
827.9840, 2775.461
829.1220, 3020.145
830.2590, 3070.717
831.3970, 3261.182
832.5340, 3105.533
833.6710, 3443.777
834.8080, 3324.914
835.9450, 2986.939
837.0820, 3083.859
838.2190, 3011.668
839.3550, 2823.369
840.4910, 2868.965
841.6270, 2642.453
842.7630, 2684.834
843.8990, 2426.107
845.0350, 2562.275
846.1700, 2588.338
847.3060, 2576.299
848.4410, 2738.150
849.5760, 2742.900
850.7100, 2838.012
851.8450, 2992.910
852.9800, 2955.977
854.1140, 2978.268
855.2480, 3265.248
856.3820, 3141.518
857.5160, 3071.574
858.6500, 3250.266
859.7830, 3450.602
860.9170, 3633.143
862.0500, 3815.105
863.1830, 3851.260
864.3160, 3920.264
865.4480, 4326.514
866.5810, 4160.621
867.7130, 4621.396
868.8460, 4834.418
869.9780, 4782.078
871.1100, 5181.293
872.2410, 5349.475
873.3730, 5423.586
874.5050, 5780.834
875.6360, 6162.094
876.7670, 6058.553
877.8980, 5888.422
879.0290, 6038.023
880.1590, 5723.244
881.2900, 5708.137
882.4200, 5267.244
883.5500, 5120.256
884.6800, 4897.174
885.8100, 4523.154
886.9400, 4398.551
888.0690, 4210.406
889.1990, 3893.125
890.3280, 3820.779
891.4570, 3821.068
892.5860, 3770.910
893.7140, 3736.182
894.8430, 4041.586
895.9710, 4012.549
897.1000, 4116.922
898.2280, 4341.904
899.3560, 4735.982
900.4830, 5163.795
901.6110, 5655.957
902.7380, 5967.582
903.8660, 6280.469
904.9930, 6843.746
906.1200, 7173.674
907.2460, 7798.766
908.3730, 8161.305
909.5000, 9020.492
910.6260, 9042.932
911.7520, 9776.922
912.8780, 10403.91
914.0040, 10292.11
915.1290, 10986.53
916.2550, 11461.72
917.3800, 11600.83
918.5050, 11944.44
919.6300, 11787.42
920.7550, 11920.81
921.8800, 11689.08
923.0040, 11490.58
924.1290, 11344.27
925.2530, 11229.07
926.3770, 10891.74
927.5010, 10886.41
928.6250, 10601.39
929.7480, 10440.38
930.8720, 10171.30
931.9950, 9997.273
933.1180, 9584.441
934.2410, 9491.414
935.3640, 8943.438
936.4860, 8460.652
937.6090, 8280.887
938.7310, 7869.066
939.8530, 7574.008
940.9750, 7389.387
942.0970, 6988.285
943.2180, 6692.352
944.3400, 6326.766
945.4610, 6046.391
946.5820, 5734.246
947.7030, 5488.023
948.8240, 5322.305
949.9450, 5101.859
951.0650, 4982.398
952.1860, 4935.371
953.3060, 4928.438
954.4260, 4887.934
955.5460, 5079.422
956.6650, 5169.895
957.7850, 5341.352
958.9040, 5042.805
960.0230, 5113.238
961.1420, 4954.660
962.2610, 4879.070
963.3800, 4753.469
964.4990, 4652.852
965.6170, 4458.230
966.7350, 3925.602
967.8530, 4164.969
968.9710, 3933.328
970.0890, 3944.688
971.2070, 4120.035
972.3240, 4043.379
973.4410, 4229.711
974.5580, 4271.035
975.6750, 4548.352
976.7920, 4853.664
977.9090, 5332.965
979.0250, 6148.258
980.1410, 6673.547
981.2580, 7351.828
982.3740, 7579.109
983.4890, 7655.383
984.6050, 7427.660
985.7200, 7144.938
986.8360, 6534.215
987.9510, 5965.496
989.0660, 5297.785
990.1810, 4708.090
991.2950, 3838.414
992.4100, 3433.742
993.5240, 2903.094
994.6390, 2686.449
995.7530, 2085.977
996.8660, 1902.461
997.9800, 1814.012
999.0940, 1436.570
1000.207, 1514.242
1001.320, 1471.965
1002.433, 1008.750
1003.546, 855.6289
1004.659, 724.5625
1005.772, 286.5703
1006.884, 250.4453
1007.996, 261.5742
1009.108, 72.23047
1010.220, 49.57031
1011.332, 41.07422
1012.444, 111.8438
1013.555, 88.83984
1014.666, 37.51172
1015.777, 143.7305
1016.888, 56.53516
1017.999, 270.0195
1019.110, 95.85547
1020.220, 105.1133
1021.331, 131.3516
1022.441, 17.50781
1023.551, 41.57422
1024.661, 127.7227
1025.770, 345.6328
1026.880, 261.2070
1027.989, 456.7695
1029.098, 395.3594
1030.207, 350.8125
1031.316, 540.8125
1032.425, 502.3555
1033.533, 636.9375
1034.642, 698.2930
1035.750, 896.9844
1036.858, 990.0430
1037.966, 1108.047
1039.073, 1172.426
1040.181, 1381.676
1041.288, 1217.887
1042.396, 1548.594
1043.503, 1618.516
1044.610, 1862.062
1045.716, 1725.105
1046.823, 2068.898
1047.929, 1860.719
1049.036, 2241.621
1050.142, 1909.480
1051.248, 1615.594
1052.353, 1950.406
1053.459, 1864.578
1054.564, 1321.438
1055.670, 1562.000
1056.775, 1649.086
1057.880, 1432.688
1058.985, 1302.242
1060.089, 1411.582
1061.194, 1653.469
1062.298, 2025.621
1063.402, 1810.719
1064.506, 2242.633
1065.610, 2453.312
1066.713, 2641.812
1067.817, 3012.594
1068.920, 3107.555
1070.023, 3594.297
1071.126, 4028.469
1072.229, 4521.016
1073.332, 5064.555
1074.435, 5752.477
1075.537, 6225.055
1076.639, 7007.445
1077.741, 7684.012
1078.843, 8365.434
1079.945, 8964.613
1081.046, 9682.633
1082.148, 10620.07
1083.249, 12000.51
1084.350, 13279.95
1085.451, 14775.78
1086.551, 16443.68
1087.652, 18316.00
1088.752, 20176.00
1089.853, 22353.39
1090.953, 23881.80
1092.053, 24206.62
1093.152, 24100.03
1094.252, 22676.39
1095.351, 20461.17
1096.451, 17831.51
1097.550, 15027.20
1098.649, 12385.28
1099.748, 10061.70
1100.846, 8316.648
1101.945, 6534.102
1103.043, 5232.445
1104.141, 4141.027
1105.239, 3278.289
1106.337, 2645.828
1107.434, 2454.082
1108.532, 1822.316
1109.629, 1462.543
1110.726, 1356.754
1111.823, 894.9570
1112.920, 943.4219
1114.017, 813.1523
1115.113, 877.4453
1116.210, 829.2695
1117.306, 790.5195
1118.402, 703.4141
1119.498, 634.8750
1120.593, 633.3047
1121.689, 390.5781
1122.784, 400.6445
1123.879, 252.0078
1124.974, 480.2578
1126.069, 432.5430
1127.164, 141.5742
1128.259, 491.0625
1129.353, 320.6797
1130.447, 399.6953
1131.541, 519.4023
1132.635, 401.0352
1133.729, 261.2969
1134.822, 235.3320
1135.916, 209.6484
1137.009, 297.5078
1138.102, 12.35156
1139.195, 396.1680
1140.288, 89.96484
1141.380, 188.0547
1142.473, 268.1836
1143.565, 97.80469
1144.657, 20.10938
1145.749, 22.73828
1146.841, 188.7344
1147.932, 86.76562
1149.024, 58.66797
1150.115, 216.3984
1151.206, 67.70312
1152.297, 45.62891
1153.388, 28.53906
1154.479, 94.82031
1155.569, 61.29297
1156.659, 71.36719
1157.750, 31.07422
1158.839, 61.36328
1159.929, 10.74219
1161.019, 24.60547
1162.108, 47.58984
1163.198, 23.13672
1164.287, 3.179688
1165.376, 88.45312
1166.465, 82.92188
1167.553, 182.6562
1168.642, 67.85156
1169.730, 40.44141
1170.818, 13.88281
1171.906, 33.84766
1172.994, 93.42578
1174.082, 51.23828
1175.170, 147.9258
1176.257, 41.98438
1177.344, 4.011719
1178.431, 13.97656
1179.518, 92.85547
1180.605, 16.17969
1181.691, 13.29297
1182.778, 138.6094
1183.864, 463.7969
1184.950, 122.4844
1186.036, 99.99609
1187.122, 124.3711
1188.207, 193.1914
1189.292, 127.0508
1190.378, 85.94922
1191.463, 196.8984
1192.548, 6.199219
1193.632, 12.19922
1194.717, 96.04688
1195.801, 123.4219
1196.886, 40.05078
1197.970, 246.3945
1199.054, 205.7266
1200.137, 56.99609
1201.221, 160.1797
1202.305, 36.69922
1203.388, 217.3203
1204.471, 77.28906
1205.554, 66.19531
1206.637, 39.05078
1207.719, 35.56641
1208.802, 103.2852
1209.884, 160.9531
1210.966, 200.9453
1212.048, 383.5078
1213.130, 339.0156
1214.212, 98.48047
1215.293, 241.3242
1216.374, 227.7617
1217.456, 48.06250
1218.536, 199.3359
1219.617, 383.5195
1220.698, 99.42578
1221.778, 240.9922
1222.859, 340.0156
1223.939, 418.9883
1225.019, 249.5781
1226.099, 427.7930
1227.178, 268.7266
1228.258, 34.08984
1229.337, 92.87891
1230.417, 200.5117
1231.496, 51.08594
1232.574, 343.5938
1233.653, 285.0508
1234.732, 383.4531
1235.810, 292.3477
1236.888, 373.7578
1237.966, 510.0000
1239.044, 458.1992
1240.122, 428.9844
1241.199, 556.8594
1242.277, 302.9023
1243.354, 238.4023
1244.431, 339.3359
1245.508, 76.21875
1246.585, 344.0391
1247.661, 188.7969
1248.738, 288.5195
1249.814, 294.5234
1250.890, 328.1367
1251.966, 397.6992
1253.042, 309.4453
1254.117, 334.8984
1255.193, 322.7617
1256.268, 416.0391
1257.343, 17.68359
1258.418, 236.4961
1259.493, 136.6250
1260.567, 84.68750
1261.642, 218.6797
1262.716, 304.6133
1263.790, 353.6992
1264.864, 282.5273
1265.938, 455.6016
1267.011, 404.0273
1268.085, 385.7344
1269.158, 525.2148
1270.231, 311.1016
1271.304, 297.1641
1272.377, 309.0430
1273.450, 243.2930
1274.522, 338.9844
1275.594, 300.4570
1276.666, 488.5547
1277.738, 555.1875
1278.810, 480.6992
1279.882, 283.1016
1280.953, 309.1133
1282.025, 362.9570
1283.096, 8.218750
1284.167, 100.4297
1285.238, 56.41797
1286.308, 124.6680
1287.379, 183.8633
1288.449, 308.3008
1289.519, 357.4883
1290.589, 488.1094
1291.659, 453.1602
1292.729, 428.6328
1293.798, 366.0781
1294.868, 372.0469
1295.937, 349.2773
1297.006, 383.3086
1298.075, 353.6328
1299.143, 379.2578
1300.212, 414.6328
1301.280, 327.7734
1302.348, 489.0430
1303.416, 287.0742
1304.484, 349.6367
1305.552, 457.5195
1306.620, 334.6094
1307.687, 411.6562
1308.754, 228.5820
1309.821, 68.57422
1310.888, 199.2461
1311.955, 217.1758
1313.021, 320.7148
1314.088, 388.5703
1315.154, 330.7305
1316.220, 296.3945
1317.286, 556.5000
1318.352, 436.6602
1319.417, 467.0156
1320.483, 534.7891
1321.548, 159.2617
1322.613, 472.7617
1323.678, 396.3945
1324.743, 65.22656
1325.807, 1.808594
1326.872, 292.8555
1327.936, 401.3047
1329.000, 427.9453
1330.064, 423.1211
1331.128, 476.9883
1332.191, 446.2109
1333.255, 451.9180
1334.318, 408.5312
1335.381, 235.3008
1336.444, 107.8477
1337.507, 370.4961
1338.569, 165.3398
1339.632, 316.3164
1340.694, 326.8242
1341.756, 371.2930
1342.818, 149.7266
1343.880, 232.7070
1344.941, 525.5820
