##NAMES=Clinoptilolite-Ca
##RRUFFID=R060662
##IDEAL CHEMISTRY=Ca_3_(Si_30_Al_6_)O_72_&#183;20H_2_O
##LOCALITY=Succor Creek, Malheur County, Oregon, USA
##OWNER=RRUFF
##SOURCE=Michael Scott
##DESCRIPTION=Group of colorless platy prismatic crystals
##STATUS=The identification of this mineral has been confirmed by X-ray diffraction and chemical analysis
##URL=rruff.info/R060662
##MEASURED CHEMISTRY=(Ca_1.02_Na_0.97_K_0.59_)_Σ=2.58_(Si_14.40_Al_3.60_)_Σ=18_O_36_·10.96H_2_O
##PIN_ID=M00397
##ORIENTATION=Laser parallel to c* (0 0 1). Fiducial mark perpendicular to laser is parallel to -a [-1 0 0]
84.83700, 0.0000000E+00
86.07200, 60.36914
87.30800, 218.6914
88.54200, 906.4277
89.77700, 1678.551
91.01200, 2554.256
92.24600, 3190.354
93.48000, 3799.166
94.71400, 4251.938
95.94800, 5005.461
97.18200, 5358.270
98.41600, 5939.959
99.64900, 6258.479
100.8830, 6807.045
102.1160, 6702.277
103.3490, 7305.914
104.5820, 8035.598
105.8150, 8556.098
107.0470, 9767.191
108.2800, 9684.674
109.5120, 10355.18
110.7440, 9753.945
111.9760, 10130.63
113.2080, 10251.22
114.4400, 10541.93
115.6710, 10750.14
116.9030, 10942.46
118.1340, 10744.62
119.3650, 10792.62
120.5960, 10719.09
121.8270, 10739.97
123.0580, 11053.90
124.2880, 11270.68
125.5190, 10994.77
126.7490, 11033.42
127.9790, 11625.15
129.2090, 11492.62
130.4390, 11748.44
131.6680, 11932.12
132.8980, 12350.13
134.1270, 12686.86
135.3560, 12873.67
136.5850, 13310.89
137.8140, 13688.79
139.0430, 14141.61
140.2710, 14696.59
141.5000, 14766.90
142.7280, 14616.71
143.9560, 14445.16
145.1840, 14915.38
146.4120, 14780.51
147.6390, 14867.66
148.8670, 14670.73
150.0940, 14855.80
151.3210, 15244.46
152.5490, 14858.32
153.7750, 14714.45
155.0020, 15102.71
156.2290, 14819.38
157.4550, 14871.14
158.6810, 14361.86
159.9080, 14039.40
161.1340, 13631.16
162.3590, 12925.81
163.5850, 12351.04
164.8110, 11658.96
166.0360, 10943.77
167.2610, 10224.39
168.4860, 9622.559
169.7110, 8897.637
170.9360, 8602.586
172.1610, 7745.371
173.3850, 7266.949
174.6100, 6673.289
175.8340, 6486.344
177.0580, 6094.076
178.2820, 5679.426
179.5050, 5111.348
180.7290, 5045.793
181.9520, 4819.715
183.1760, 4647.084
184.3990, 4647.859
185.6220, 4467.014
186.8450, 4399.514
188.0670, 4451.666
189.2900, 4673.453
190.5120, 4615.844
191.7340, 4585.467
192.9560, 4741.266
194.1780, 4328.158
195.4000, 4461.055
196.6220, 4557.885
197.8430, 4309.605
199.0640, 4146.207
200.2860, 4009.689
201.5070, 3810.051
202.7270, 3543.295
203.9480, 3088.426
205.1690, 2566.443
206.3890, 2252.348
207.6090, 1815.145
208.8290, 1356.830
210.0490, 968.4023
211.2690, 793.8691
212.4890, 482.2246
213.7080, 276.4707
214.9280, 38.39648
216.1470, 179.3730
217.3660, 401.4570
218.5850, 491.6523
219.8030, 694.9590
221.0220, 785.7734
222.2400, 931.9062
223.4590, 970.7500
224.6770, 1049.332
225.8950, 1157.992
227.1120, 1290.008
228.3300, 1201.545
229.5480, 1289.764
230.7650, 979.7051
231.9820, 1190.996
233.1990, 913.2930
234.4160, 960.4531
235.6330, 649.2148
236.8490, 603.4004
238.0660, 553.6230
239.2820, 313.3145
240.4980, 352.7656
241.7140, 134.7461
242.9300, 162.1172
244.1460, 372.1680
245.3610, 531.7891
246.5770, 790.8789
247.7920, 823.3848
249.0070, 1074.240
250.2220, 1370.359
251.4370, 1268.660
252.6510, 1621.031
253.8660, 1499.383
255.0800, 1574.693
256.2940, 1782.904
257.5080, 2132.066
258.7220, 2102.115
259.9360, 2295.000
261.1490, 2047.797
262.3630, 2032.408
263.5760, 1728.900
264.7890, 2012.201
266.0020, 1989.271
267.2150, 2008.957
268.4270, 2061.133
269.6400, 1827.750
270.8520, 2147.826
272.0640, 1841.367
273.2760, 2045.385
274.4880, 1929.959
275.7000, 1892.121
276.9120, 1837.846
278.1230, 1999.199
279.3340, 1863.156
280.5450, 2050.754
281.7560, 2010.969
282.9670, 1952.822
284.1780, 1971.340
285.3880, 2057.518
286.5980, 2097.359
287.8090, 2164.971
289.0190, 2209.117
290.2290, 2254.277
291.4380, 2293.680
292.6480, 2335.025
293.8570, 2392.094
295.0670, 2422.867
296.2760, 2422.771
297.4850, 2285.205
298.6930, 2389.020
299.9020, 2341.061
301.1110, 2301.746
302.3190, 2405.365
303.5270, 2555.137
304.7350, 2743.287
305.9430, 2647.014
307.1510, 2713.662
308.3580, 2879.439
309.5660, 2902.668
310.7730, 2864.664
311.9800, 2892.592
313.1870, 2786.488
314.3940, 2994.529
315.6010, 3393.180
316.8070, 3399.973
318.0130, 3593.721
319.2200, 3793.424
320.4260, 3992.074
321.6310, 4197.672
322.8370, 4268.211
324.0430, 4367.688
325.2480, 4690.104
326.4540, 4640.449
327.6590, 5017.727
328.8640, 4819.932
330.0680, 4972.061
331.2730, 5059.113
332.4780, 5024.090
333.6820, 5188.986
334.8860, 5273.799
336.0900, 5839.525
337.2940, 5920.170
338.4980, 6274.727
339.7010, 6563.197
340.9050, 6332.578
342.1080, 5449.875
343.3110, 5545.080
344.5140, 5663.197
345.7170, 6005.227
346.9200, 5689.172
348.1220, 6177.025
349.3240, 6185.795
350.5270, 6453.477
351.7290, 6915.068
352.9310, 6914.574
354.1320, 7220.992
355.3340, 7277.324
356.5350, 7979.570
357.7370, 8052.934
358.9380, 8675.863
360.1390, 8873.512
361.3400, 9407.113
362.5400, 9749.582
363.7410, 10204.19
364.9410, 10831.85
366.1410, 11050.62
367.3410, 11861.04
368.5410, 12174.84
369.7410, 12617.55
370.9400, 13089.31
372.1400, 13375.82
373.3390, 14030.74
374.5380, 14455.73
375.7370, 15237.44
376.9360, 15764.83
378.1350, 16282.62
379.3330, 17156.05
380.5310, 17958.40
381.7300, 18438.46
382.9280, 19364.95
384.1260, 20706.71
385.3230, 21436.01
386.5210, 22811.37
387.7180, 24200.58
388.9160, 25397.55
390.1130, 26970.23
391.3100, 28563.02
392.5060, 30194.59
393.7030, 31686.10
394.9000, 33233.21
396.0960, 34707.21
397.2920, 36182.92
398.4880, 37203.46
399.6840, 38050.29
400.8800, 39102.02
402.0750, 39215.43
403.2710, 39132.63
404.4660, 38788.61
405.6610, 37977.41
406.8560, 37041.03
408.0510, 35524.77
409.2450, 34512.75
410.4400, 32653.98
411.6340, 31405.25
412.8280, 29694.12
414.0220, 27799.13
415.2160, 26172.38
416.4100, 24266.56
417.6030, 22688.71
418.7970, 21192.30
419.9900, 19584.09
421.1830, 18157.96
422.3760, 16769.35
423.5690, 15365.64
424.7610, 14070.29
425.9540, 12875.72
427.1460, 11641.14
428.3380, 10679.89
429.5300, 9732.314
430.7220, 8779.613
431.9140, 8205.762
433.1050, 7513.594
434.2970, 6801.602
435.4880, 6236.316
436.6790, 5696.688
437.8700, 5507.619
439.0610, 5276.893
440.2510, 5391.318
441.4420, 4617.029
442.6320, 4503.312
443.8220, 4392.824
445.0120, 4627.227
446.2020, 4330.527
447.3910, 4525.738
448.5810, 4704.859
449.7700, 4776.902
450.9600, 5192.871
452.1490, 5471.766
453.3370, 5811.592
454.5260, 6161.346
455.7150, 6883.037
456.9030, 7506.658
458.0910, 8191.209
459.2800, 8828.695
460.4670, 9737.111
461.6550, 10448.46
462.8430, 11299.74
464.0300, 12096.95
465.2180, 12642.63
466.4050, 13557.16
467.5920, 13716.16
468.7790, 14756.09
469.9650, 15348.96
471.1520, 16245.75
472.3380, 17282.48
473.5250, 18787.13
474.7110, 20109.72
475.8970, 21924.24
477.0820, 22939.69
478.2680, 24571.07
479.4540, 25755.38
480.6390, 26707.63
481.8240, 26842.81
483.0090, 26780.92
484.1940, 25882.96
485.3780, 24521.94
486.5630, 23005.85
487.7470, 21063.69
488.9320, 18744.47
490.1160, 16610.18
491.3000, 14268.82
492.4830, 12356.40
493.6670, 10691.91
494.8500, 8867.354
496.0340, 7547.730
497.2170, 6479.043
498.4000, 5522.289
499.5820, 4650.473
500.7650, 3915.857
501.9480, 3250.334
503.1300, 2737.834
504.3120, 2250.055
505.4940, 1882.418
506.6760, 1656.482
507.8580, 1423.230
509.0390, 1393.221
510.2210, 953.6680
511.4020, 1052.660
512.5830, 880.5391
513.7640, 553.5059
514.9450, 726.1484
516.1250, 434.3965
517.3060, 390.4434
518.4860, 394.1641
519.6660, 374.1328
520.8460, 155.3496
522.0260, 207.4766
523.2060, 133.5762
524.3850, 24.63477
525.5650, 229.0000
526.7440, 80.18555
527.9230, 109.8750
529.1020, 74.71289
530.2810, 50.81445
531.4590, 45.00000
532.6380, 88.42578
533.8160, 178.2422
534.9940, 165.0293
536.1720, 224.4160
537.3500, 96.90820
538.5270, 37.73438
539.7050, 93.74414
540.8820, 6.173828
542.0590, 291.6992
543.2360, 33.48828
544.4130, 142.7812
545.5900, 252.8594
546.7660, 26.10156
547.9430, 266.9512
549.1190, 127.0078
550.2950, 292.6016
551.4710, 76.03320
552.6470, 137.8203
553.8220, 11.21680
554.9980, 143.2070
556.1730, 101.5430
557.3480, 39.14062
558.5230, 220.7949
559.6980, 237.1465
560.8730, 55.62109
562.0470, 218.6035
563.2220, 54.17969
564.3960, 134.7754
565.5700, 115.5078
566.7440, 1.841797
567.9170, 59.46484
569.0910, 48.81250
570.2640, 287.0762
571.4380, 66.48438
572.6110, 70.37500
573.7840, 325.9277
574.9570, 249.8965
576.1290, 285.7949
577.3020, 95.63086
578.4740, 406.3945
579.6460, 530.0977
580.8180, 461.7461
581.9900, 362.3379
583.1620, 433.8691
584.3330, 676.3438
585.5040, 604.7676
586.6760, 811.1406
587.8470, 950.4629
589.0180, 1082.734
590.1880, 1151.957
591.3590, 1068.129
592.5290, 1269.252
593.7000, 1273.326
594.8700, 1488.350
596.0400, 1737.779
597.2090, 1776.703
598.3790, 1928.594
599.5490, 2311.898
600.7180, 2574.117
601.8870, 2737.172
603.0560, 3124.891
604.2250, 3472.578
605.3940, 3730.213
606.5620, 3915.820
607.7300, 4225.381
608.8990, 4646.887
610.0670, 4680.342
611.2350, 5134.789
612.4020, 5025.184
613.5700, 5153.551
614.7370, 4954.863
615.9050, 5090.174
617.0720, 4893.455
618.2390, 4773.688
619.4060, 4596.900
620.5720, 4041.104
621.7390, 3869.293
622.9050, 3627.449
624.0710, 3416.553
625.2370, 3298.604
626.4030, 3031.600
627.5690, 2817.807
628.7340, 2238.445
629.9000, 2252.318
631.0650, 1901.156
632.2300, 1469.959
633.3950, 1506.709
634.5600, 1491.414
635.7240, 1244.084
636.8890, 1220.703
638.0530, 1121.270
639.2170, 1074.807
640.3810, 990.6914
641.5450, 905.8809
642.7080, 780.3652
643.8720, 639.7949
645.0350, 627.6992
646.1980, 448.4961
647.3610, 580.7598
648.5240, 585.9863
649.6870, 536.1562
650.8490, 476.2930
652.0120, 641.4180
653.1740, 401.4766
654.3360, 330.3438
655.4980, 270.3027
656.6600, 408.5820
657.8210, 79.60547
658.9830, 339.5527
660.1440, 345.3418
661.3050, 194.1250
662.4660, 47.03320
663.6270, 127.5293
664.7870, 199.0781
665.9480, 94.76953
667.1080, 242.7168
668.2680, 206.6973
669.4280, 142.3848
670.5880, 111.7598
671.7480, 46.97461
672.9070, 84.29883
674.0670, 28.60938
675.2260, 86.65625
676.3850, 286.0625
677.5440, 212.3457
678.7030, 220.6777
679.8610, 11.91406
681.0200, 131.6133
682.1780, 1.167969
683.3360, 31.20898
684.4940, 142.3477
685.6520, 15.11523
686.8090, 282.3418
687.9670, 28.25781
689.1240, 52.76367
690.2810, 174.2891
691.4380, 69.31836
692.5950, 23.07617
693.7520, 1.281250
694.9080, 18.80469
696.0650, 278.8691
697.2210, 21.82617
698.3770, 126.2402
699.5330, 28.80078
700.6880, 177.6504
701.8440, 255.6289
702.9990, 228.3594
704.1550, 211.1289
705.3100, 180.7324
706.4650, 311.7832
707.6190, 138.7305
708.7740, 377.9180
709.9290, 318.6953
711.0830, 403.3574
712.2370, 290.1504
713.3910, 411.0312
714.5450, 409.3828
715.6980, 373.9824
716.8520, 456.6270
718.0050, 392.9922
719.1580, 539.6055
720.3110, 435.7793
721.4640, 538.6992
722.6170, 392.1621
723.7700, 583.1211
724.9220, 504.6660
726.0740, 460.5312
727.2260, 614.3477
728.3780, 488.9199
729.5300, 449.5723
730.6810, 467.1641
731.8330, 530.6855
732.9840, 515.1016
734.1350, 247.8887
735.2860, 502.9082
736.4370, 538.1914
737.5880, 246.0059
738.7380, 260.8320
739.8880, 286.3867
741.0390, 651.8516
742.1890, 361.5527
743.3380, 571.7559
744.4880, 467.4746
745.6380, 613.0508
746.7870, 630.2500
747.9360, 578.0273
749.0850, 611.3242
750.2340, 734.2988
751.3830, 630.5059
752.5310, 741.4297
753.6800, 760.0469
754.8280, 1087.748
755.9760, 590.1836
757.1240, 964.0020
758.2720, 830.8887
759.4190, 1052.586
760.5670, 1233.154
761.7140, 1172.408
762.8610, 1378.631
764.0080, 1297.650
765.1550, 1198.727
766.3020, 1345.168
767.4480, 1482.201
768.5950, 1655.701
769.7410, 1728.057
770.8870, 1913.559
772.0330, 1890.629
773.1780, 2063.518
774.3240, 1922.875
775.4690, 2245.303
776.6140, 2218.574
777.7590, 2334.818
778.9040, 2238.393
780.0490, 2419.404
781.1940, 2488.316
782.3380, 2555.164
783.4820, 2654.160
784.6260, 2669.828
785.7700, 2703.496
786.9140, 2682.115
788.0580, 2669.209
789.2010, 2475.250
790.3450, 2717.473
791.4880, 2726.809
792.6310, 2530.729
793.7730, 2528.650
794.9160, 2754.662
796.0590, 2503.182
797.2010, 2520.691
798.3430, 2486.191
799.4850, 2282.615
800.6270, 2159.373
801.7690, 2254.488
802.9100, 2150.799
804.0520, 2032.094
805.1930, 1879.266
806.3340, 1941.838
807.4750, 1633.332
808.6160, 1680.873
809.7560, 1469.688
810.8970, 1380.605
812.0370, 1327.268
813.1770, 1491.309
814.3170, 1270.250
815.4570, 1370.887
816.5960, 1465.555
817.7360, 1385.986
818.8750, 1366.029
820.0140, 1235.443
821.1530, 1161.578
822.2920, 1157.881
823.4310, 933.6309
824.5690, 914.4883
825.7070, 743.8828
826.8460, 662.6250
827.9840, 765.9707
829.1220, 455.8613
830.2590, 341.7051
831.3970, 548.1348
832.5340, 408.7227
833.6710, 154.3984
834.8080, 165.9551
835.9450, 249.0039
837.0820, 196.9570
838.2190, 236.2520
839.3550, 116.9297
840.4910, 77.46094
841.6270, 197.9258
842.7630, 284.1992
843.8990, 161.9629
845.0350, 131.9766
846.1700, 28.14062
847.3060, 260.4453
848.4410, 214.1582
849.5760, 30.45898
850.7100, 250.1094
851.8450, 210.6094
852.9800, 231.0430
854.1140, 113.4102
855.2480, 160.7051
856.3820, 179.9238
857.5160, 124.0742
858.6500, 48.15039
859.7830, 68.15430
860.9170, 149.0762
862.0500, 54.92773
863.1830, 47.70117
864.3160, 88.39844
865.4480, 50.53906
866.5810, 46.56445
867.7130, 45.03320
868.8460, 52.42773
869.9780, 16.74609
871.1100, 108.5293
872.2410, 27.30664
873.3730, 120.7539
874.5050, 22.72461
875.6360, 219.7500
876.7670, 56.73242
877.8980, 6.972656
879.0290, 18.41406
880.1590, 59.88672
881.2900, 42.52148
882.4200, 113.8594
883.5500, 195.1309
884.6800, 138.6641
885.8100, 108.3867
886.9400, 60.63281
888.0690, 82.23047
889.1990, 149.9707
890.3280, 57.33398
891.4570, 9.191406
892.5860, 94.35938
893.7140, 129.0391
894.8430, 111.8691
895.9710, 47.83789
897.1000, 79.09180
898.2280, 66.09766
899.3560, 93.75391
900.4830, 59.49219
901.6110, 10.16602
902.7380, 82.23047
903.8660, 43.74414
904.9930, 43.35742
906.1200, 90.93359
907.2460, 10.83594
908.3730, 57.67969
909.5000, 61.37305
910.6260, 22.36523
911.7520, 69.70312
912.8780, 182.8750
914.0040, 190.2148
915.1290, 35.28125
916.2550, 36.71484
917.3800, 30.09375
918.5050, 13.58789
919.6300, 139.6621
920.7550, 77.14062
921.8800, 5.953125
923.0040, 107.0098
924.1290, 192.0918
925.2530, 22.66992
926.3770, 34.37500
927.5010, 190.9688
928.6250, 0.4667970
929.7480, 49.98438
930.8720, 52.38477
931.9950, 14.25391
933.1180, 41.33789
934.2410, 126.3047
935.3640, 78.51953
936.4860, 90.69727
937.6090, 99.20508
938.7310, 215.9355
939.8530, 134.0020
940.9750, 220.0293
942.0970, 154.0234
943.2180, 92.98438
944.3400, 138.3984
945.4610, 160.8008
946.5820, 163.6934
947.7030, 165.2695
948.8240, 158.9629
949.9450, 152.2227
951.0650, 134.9961
952.1860, 168.7383
953.3060, 171.4492
954.4260, 123.1309
955.5460, 289.7832
956.6650, 197.4180
957.7850, 254.0234
958.9040, 131.6055
960.0230, 316.1523
961.1420, 527.6797
962.2610, 481.1758
963.3800, 439.6406
964.4990, 126.0781
965.6170, 364.1738
966.7350, 369.5547
967.8530, 359.8867
968.9710, 636.1309
970.0890, 166.3984
971.2070, 487.9883
972.3240, 446.3438
973.4410, 553.8359
974.5580, 533.8027
975.6750, 718.5977
976.7920, 627.8672
977.9090, 599.4824
979.0250, 778.5586
980.1410, 710.4844
981.2580, 860.8984
982.3740, 897.3047
983.4890, 1090.492
984.6050, 775.6680
985.7200, 922.9551
986.8360, 938.0703
987.9510, 1138.260
989.0660, 940.9336
990.1810, 718.7773
991.2950, 1080.684
992.4100, 832.3281
993.5240, 1227.639
994.6390, 1176.008
995.7530, 1262.697
996.8660, 1058.990
997.9800, 1249.234
999.0940, 1441.633
1000.207, 1272.857
1001.320, 1378.057
1002.433, 1463.328
1003.546, 1480.613
1004.659, 1370.449
1005.772, 1421.961
1006.884, 1442.113
1007.996, 1452.666
1009.108, 1552.170
1010.220, 1489.020
1011.332, 1677.596
1012.444, 1478.000
1013.555, 1557.807
1014.666, 1736.012
1015.777, 1720.268
1016.888, 1875.816
1017.999, 1692.703
1019.110, 1807.980
1020.220, 1783.488
1021.331, 1801.152
1022.441, 1831.473
1023.551, 1929.707
1024.661, 1889.150
1025.770, 2002.771
1026.880, 2177.930
1027.989, 1953.961
1029.098, 1897.094
1030.207, 1874.273
1031.316, 2143.678
1032.425, 1873.031
1033.533, 2092.502
1034.642, 2107.830
1035.750, 1973.723
1036.858, 1941.939
1037.966, 2113.604
1039.073, 1828.330
1040.181, 2111.871
1041.288, 1970.760
1042.396, 2022.748
1043.503, 2090.199
1044.610, 2078.494
1045.716, 2121.869
1046.823, 2083.188
1047.929, 1797.092
1049.036, 1949.961
1050.142, 1849.066
1051.248, 1955.285
1052.353, 1917.453
1053.459, 1670.340
1054.564, 1843.684
1055.670, 1711.994
1056.775, 1966.580
1057.880, 1892.395
1058.985, 1649.355
1060.089, 1798.891
1061.194, 1645.469
1062.298, 1434.715
1063.402, 1641.369
1064.506, 1725.059
1065.610, 1765.777
1066.713, 1626.459
1067.817, 1728.518
1068.920, 1649.969
1070.023, 1611.348
1071.126, 1621.354
1072.229, 1591.875
1073.332, 1697.074
1074.435, 1578.660
1075.537, 1640.990
1076.639, 1570.086
1077.741, 1750.393
1078.843, 1997.814
1079.945, 1915.271
1081.046, 2063.615
1082.148, 1805.234
1083.249, 2086.711
1084.350, 2084.141
1085.451, 1987.746
1086.551, 2407.387
1087.652, 2153.848
1088.752, 2533.650
1089.853, 2594.463
1090.953, 2666.283
1092.053, 2611.869
1093.152, 2839.715
1094.252, 2886.570
1095.351, 3121.441
1096.451, 3212.338
1097.550, 3416.037
1098.649, 3408.959
1099.748, 3298.895
1100.846, 3378.984
1101.945, 3632.945
1103.043, 3532.031
1104.141, 3878.027
1105.239, 3612.039
1106.337, 3673.064
1107.434, 4135.662
1108.532, 4245.729
1109.629, 4153.494
1110.726, 4094.633
1111.823, 4209.750
1112.920, 4292.887
1114.017, 4178.055
1115.113, 4483.246
1116.210, 4545.477
1117.306, 4474.715
1118.402, 4637.359
1119.498, 4700.641
1120.593, 4781.924
1121.689, 4672.225
1122.784, 4982.545
1123.879, 4863.881
1124.974, 5222.969
1126.069, 5334.344
1127.164, 5076.826
1128.259, 5106.006
1129.353, 4959.432
1130.447, 4983.859
1131.541, 4993.596
1132.635, 5020.252
1133.729, 5102.785
1134.822, 5216.801
1135.916, 5282.506
1137.009, 5151.066
1138.102, 5309.037
1139.195, 5295.281
1140.288, 5278.168
1141.380, 5547.363
1142.473, 5502.795
1143.565, 5501.613
1144.657, 5504.836
1145.749, 5425.039
1146.841, 5208.328
1147.932, 5549.617
1149.024, 5311.529
1150.115, 5221.854
1151.206, 5401.262
1152.297, 5387.406
1153.388, 5444.594
1154.479, 5325.867
1155.569, 5160.932
1156.659, 5065.523
1157.750, 5143.703
1158.839, 4947.209
1159.929, 5281.762
1161.019, 4652.613
1162.108, 5026.301
1163.198, 4847.648
1164.287, 4932.422
1165.376, 4792.016
1166.465, 4649.959
1167.553, 4614.367
1168.642, 4475.869
1169.730, 4312.359
1170.818, 4376.836
1171.906, 4302.623
1172.994, 4171.172
1174.082, 4052.072
1175.170, 4108.033
1176.257, 3963.740
1177.344, 3919.652
1178.431, 3680.346
1179.518, 3745.100
1180.605, 3341.260
1181.691, 3579.621
1182.778, 3377.061
1183.864, 3251.564
1184.950, 3060.814
1186.036, 3047.885
1187.122, 3054.832
1188.207, 2849.709
1189.292, 2901.238
1190.378, 2597.797
1191.463, 2715.031
1192.548, 2640.117
1193.632, 2205.461
1194.717, 2301.896
1195.801, 1909.217
1196.886, 1958.742
1197.970, 1999.553
1199.054, 1622.629
1200.137, 1533.674
1201.221, 1529.127
1202.305, 1581.062
1203.388, 1277.398
1204.471, 1259.883
1205.554, 1214.932
1206.637, 996.9805
1207.719, 1118.568
1208.802, 1008.621
1209.884, 884.2207
1210.966, 802.2676
1212.048, 970.3613
1213.130, 817.1602
1214.212, 909.9531
1215.293, 541.2480
1216.374, 740.0391
1217.456, 344.0762
1218.536, 694.1953
1219.617, 235.2227
1220.698, 180.2500
1221.778, 568.3867
1222.859, 521.5918
1223.939, 282.8535
1225.019, 455.8887
1226.099, 168.2129
1227.178, 231.4785
1228.258, 231.2188
1229.337, 117.3711
1230.417, 2.228516
1231.496, 205.2969
1232.574, 2.302734
1233.653, 125.0684
1234.732, 50.55859
1235.810, 129.5469
1236.888, 106.3008
1237.966, 149.8164
1239.044, 48.25586
1240.122, 31.64648
1241.199, 162.7500
1242.277, 105.2891
1243.354, 83.16016
1244.431, 264.8926
1245.508, 53.19727
1246.585, 200.0742
1247.661, 92.09375
1248.738, 66.31641
1249.814, 113.4238
1250.890, 131.2305
1251.966, 127.5723
1253.042, 183.7559
1254.117, 12.82617
1255.193, 126.9648
1256.268, 62.56641
1257.343, 88.55078
1258.418, 122.5547
1259.493, 15.75391
1260.567, 30.44141
1261.642, 57.01953
1262.716, 365.0781
