##NAMES=Clinozoisite
##RRUFFID=R040085
##IDEAL CHEMISTRY=Ca_2_Al_3_(Si_2_O_7_)(SiO_4_)O(OH)
##LOCALITY=Alamos, Sonora, Mexico
##OWNER=RRUFF
##SOURCE=University of Arizona Mineral Museum
##DESCRIPTION=Divergent aggregate of red thin prismatic crystals
##STATUS=The identification of this mineral has been confirmed by X-ray diffraction and chemical analysis
##URL=rruff.info/R040085
##MEASURED CHEMISTRY=Ca_2.03_(Al_0.90_Fe_0.13_)_3_(Si_1.00_O_4_)(Si_2.00_O_7_)O(OH)
##PIN_ID=M00327
##ORIENTATION=Laser parallel to (1 0 1). Fiducial mark perpendicular to laser is parallel to -b [0 -1 0]
191.7340, 0.0000000E+00
192.9560, 31.58203
194.1780, 202.6094
195.4000, 138.3340
196.6220, 64.41211
197.8430, 130.4727
199.0640, 0.1484380
200.2860, 226.2617
201.5070, 293.9727
202.7270, 221.3887
203.9480, 437.9414
205.1690, 90.79883
206.3890, 183.7363
207.6090, 8.302734
208.8290, 67.61914
210.0490, 197.4395
211.2690, 10.09961
212.4890, 12.46289
213.7080, 86.69531
214.9280, 255.5234
216.1470, 73.99609
217.3660, 120.1367
218.5850, 23.86719
219.8030, 102.1836
221.0220, 73.07227
222.2400, 100.4883
223.4590, 181.3945
224.6770, 181.7637
225.8950, 530.5645
227.1120, 373.7754
228.3300, 434.3809
229.5480, 639.3535
230.7650, 570.6621
231.9820, 682.2832
233.1990, 1051.193
234.4160, 1329.373
235.6330, 1513.809
236.8490, 1762.490
238.0660, 2270.414
239.2820, 2673.742
240.4980, 3258.178
241.7140, 3904.195
242.9300, 4607.672
244.1460, 5547.307
245.3610, 6389.135
246.5770, 7444.455
247.7920, 8940.238
249.0070, 10120.18
250.2220, 11456.25
251.4370, 12209.45
252.6510, 12942.77
253.8660, 13148.23
255.0800, 13018.82
256.2940, 12052.55
257.5080, 11021.42
258.7220, 10281.43
259.9360, 9139.574
261.1490, 7994.863
262.3630, 7272.301
263.5760, 6442.877
264.7890, 5663.590
266.0020, 5423.367
267.2150, 4681.180
268.4270, 4318.994
269.6400, 4024.832
270.8520, 3643.709
272.0640, 3210.629
273.2760, 2826.564
274.4880, 2604.562
275.7000, 2489.617
276.9120, 2206.719
278.1230, 2115.879
279.3340, 1835.127
280.5450, 1855.465
281.7560, 1369.895
282.9670, 1368.416
284.1780, 1434.035
285.3880, 1519.557
286.5980, 1405.539
287.8090, 1379.992
289.0190, 1273.645
290.2290, 1389.406
291.4380, 1390.279
292.6480, 1404.270
293.8570, 1258.365
295.0670, 1279.576
296.2760, 1425.898
297.4850, 1180.461
298.6930, 1429.252
299.9020, 1226.227
301.1110, 1125.330
302.3190, 1089.617
303.5270, 883.4590
304.7350, 826.2559
305.9430, 646.1680
307.1510, 724.1973
308.3580, 771.3438
309.5660, 417.6074
310.7730, 585.9883
311.9800, 663.4883
313.1870, 625.0977
314.3940, 902.8223
315.6010, 835.6602
316.8070, 843.6094
318.0130, 883.6738
319.2200, 1107.850
320.4260, 1210.135
321.6310, 1093.535
322.8370, 947.0430
324.0430, 1163.662
325.2480, 1390.393
326.4540, 1704.236
327.6590, 2018.191
328.8640, 2214.652
330.0680, 2317.441
331.2730, 2659.738
332.4780, 2921.146
333.6820, 3198.670
334.8860, 3184.305
336.0900, 3652.057
337.2940, 3740.723
338.4980, 3699.607
339.7010, 4044.016
340.9050, 4317.773
342.1080, 4877.035
343.3110, 5579.941
344.5140, 5952.734
345.7170, 7122.816
346.9200, 7762.027
348.1220, 8294.324
349.3240, 8936.598
350.5270, 9010.859
351.7290, 8666.441
352.9310, 8154.883
354.1320, 7060.754
355.3340, 6150.828
356.5350, 5283.996
357.7370, 4283.578
358.9380, 3535.082
360.1390, 2812.711
361.3400, 2312.055
362.5400, 1738.941
363.7410, 1603.953
364.9410, 1088.074
366.1410, 1188.305
367.3410, 914.6484
368.5410, 729.0977
369.7410, 430.6562
370.9400, 386.3164
372.1400, 198.0820
373.3390, 184.9492
374.5380, 273.9141
375.7370, 77.97656
376.9360, 108.8594
378.1350, 62.38672
379.3330, 10.73047
380.5310, 139.8359
381.7300, 303.3203
382.9280, 163.7539
384.1260, 112.8828
385.3230, 127.6055
386.5210, 158.4180
387.7180, 213.3516
388.9160, 212.3047
390.1130, 191.3750
391.3100, 276.5312
392.5060, 318.7656
393.7030, 475.0820
394.9000, 347.4805
396.0960, 401.9570
397.2920, 302.5156
398.4880, 319.1484
399.6840, 178.8672
400.8800, 17.66016
402.0750, 5.464844
403.2710, 68.48828
404.4660, 52.48438
405.6610, 80.38672
406.8560, 133.2148
408.0510, 225.9844
409.2450, 153.7109
410.4400, 24.62891
411.6340, 168.9609
412.8280, 109.4922
414.0220, 156.0391
415.2160, 415.6484
416.4100, 417.3359
417.6030, 591.0938
418.7970, 535.9336
419.9900, 820.8477
421.1830, 1004.836
422.3760, 1334.902
423.5690, 1507.043
424.7610, 1786.262
425.9540, 1908.551
427.1460, 2222.922
428.3380, 2409.363
429.5300, 2350.863
430.7220, 2545.414
431.9140, 2547.945
433.1050, 2861.555
434.2970, 3028.238
435.4880, 3508.996
436.6790, 3790.828
437.8700, 4115.734
439.0610, 5033.715
440.2510, 5751.770
441.4420, 6622.895
442.6320, 7934.098
443.8220, 8670.340
445.0120, 9927.594
446.2020, 11188.90
447.3910, 12301.27
448.5810, 12997.70
449.7700, 13839.21
450.9600, 13557.79
452.1490, 13431.50
453.3370, 12915.30
454.5260, 11765.18
455.7150, 10224.12
456.9030, 8716.133
458.0910, 7291.234
459.2800, 6573.445
460.4670, 5265.793
461.6550, 4480.207
462.8430, 3881.703
464.0300, 3716.262
465.2180, 3147.887
466.4050, 3130.617
467.5920, 2698.406
468.7790, 2847.266
469.9650, 2488.188
471.1520, 2870.250
472.3380, 2914.379
473.5250, 2835.648
474.7110, 3087.996
475.8970, 3065.418
477.0820, 3267.961
478.2680, 3778.586
479.4540, 3975.270
480.6390, 4138.027
481.8240, 4423.879
483.0090, 4674.809
484.1940, 4581.852
485.3780, 4438.004
486.5630, 4414.266
487.7470, 4029.805
488.9320, 3824.238
490.1160, 3568.395
491.3000, 3095.711
492.4830, 2971.723
493.6670, 2684.578
494.8500, 2359.551
496.0340, 2338.961
497.2170, 2298.176
498.4000, 2197.410
499.5820, 2321.641
500.7650, 2085.273
501.9480, 2279.758
503.1300, 2316.305
504.3120, 2629.945
505.4940, 2838.676
506.6760, 2858.477
507.8580, 3224.348
509.0390, 3237.285
510.2210, 3509.285
511.4020, 3634.352
512.5830, 3903.480
513.7640, 4062.676
514.9450, 4357.930
516.1250, 4747.250
517.3060, 4765.641
518.4860, 4914.109
519.6660, 4958.188
520.8460, 4908.809
522.0260, 4497.488
523.2060, 4281.805
524.3850, 4139.086
525.5650, 4025.723
526.7440, 3629.641
527.9230, 3556.609
529.1020, 3216.645
530.2810, 2719.730
531.4590, 2644.871
532.6380, 2185.070
533.8160, 1704.328
534.9940, 1205.641
536.1720, 1087.004
537.3500, 551.4180
538.5270, 529.8945
539.7050, 416.4219
540.8820, 384.0000
542.0590, 374.6289
543.2360, 275.3125
544.4130, 241.9492
545.5900, 199.7383
546.7660, 157.6484
547.9430, 165.9141
549.1190, 48.71875
550.2950, 380.3477
551.4710, 216.5703
552.6470, 268.6445
553.8220, 687.4609
554.9980, 861.2109
556.1730, 719.4297
557.3480, 916.6953
558.5230, 1116.008
559.6980, 1480.227
560.8730, 2033.770
562.0470, 2610.219
563.2220, 3395.871
564.3960, 4425.246
565.5700, 5351.832
566.7440, 6528.457
567.9170, 7922.125
569.0910, 8715.832
570.2640, 9673.578
571.4380, 9177.371
572.6110, 8288.207
573.7840, 6560.078
574.9570, 4950.996
576.1290, 3871.949
577.3020, 2901.945
578.4740, 1827.980
579.6460, 1609.055
580.8180, 1291.164
581.9900, 1044.316
583.1620, 916.6719
584.3330, 761.4336
585.5040, 742.7344
586.6760, 751.0977
587.8470, 782.0703
589.0180, 760.7930
590.1880, 846.1914
591.3590, 981.7930
592.5290, 1028.262
593.7000, 1117.387
594.8700, 1077.914
596.0400, 1415.531
597.2090, 1708.125
598.3790, 1615.855
599.5490, 1685.430
600.7180, 2345.660
601.8870, 2225.664
603.0560, 2077.027
604.2250, 2242.789
605.3940, 2087.586
606.5620, 2497.109
607.7300, 2071.953
608.8990, 1933.816
610.0670, 1568.699
611.2350, 1141.398
612.4020, 1123.328
613.5700, 747.5547
614.7370, 847.0352
615.9050, 806.8789
617.0720, 606.9844
618.2390, 522.6797
619.4060, 431.9922
620.5720, 389.4219
621.7390, 267.0703
622.9050, 120.3164
624.0710, 66.27344
625.2370, 187.9219
626.4030, 150.5156
627.5690, 4.828125
628.7340, 209.4336
629.9000, 175.3281
631.0650, 38.39062
632.2300, 35.87109
633.3950, 69.61719
634.5600, 262.1523
635.7240, 5.707031
636.8890, 292.5703
638.0530, 368.9141
639.2170, 71.98828
640.3810, 121.6055
641.5450, 156.6484
642.7080, 128.6602
643.8720, 93.35156
645.0350, 19.06641
646.1980, 145.0273
647.3610, 223.3320
648.5240, 483.3594
649.6870, 311.3008
650.8490, 301.3398
652.0120, 348.5234
653.1740, 594.5469
654.3360, 584.4414
655.4980, 691.7031
656.6600, 703.3438
657.8210, 439.4805
658.9830, 308.9297
660.1440, 612.0469
661.3050, 501.0781
662.4660, 651.9727
663.6270, 302.8750
664.7870, 337.8125
665.9480, 471.7500
667.1080, 433.6836
668.2680, 202.3750
669.4280, 235.4688
670.5880, 214.3711
671.7480, 191.2539
672.9070, 261.6797
674.0670, 219.5391
675.2260, 197.7695
676.3850, 132.6016
677.5440, 111.4102
678.7030, 162.2188
679.8610, 128.9492
681.0200, 257.7852
682.1780, 337.5547
683.3360, 481.3008
684.4940, 628.0273
685.6520, 673.4297
686.8090, 680.1172
687.9670, 719.1250
689.1240, 575.8359
690.2810, 442.5273
691.4380, 363.2188
692.5950, 551.8906
693.7520, 785.5664
694.9080, 653.2266
696.0650, 770.8711
697.2210, 733.4922
698.3770, 722.0938
699.5330, 635.6719
700.6880, 852.2266
701.8440, 704.7617
702.9990, 766.2734
704.1550, 526.7578
705.3100, 603.2266
706.4650, 618.6641
707.6190, 569.0820
708.7740, 273.4727
709.9290, 259.8359
711.0830, 303.1758
712.2370, 230.4883
713.3910, 372.7773
714.5450, 184.0391
715.6980, 163.2695
716.8520, 221.4766
718.0050, 148.6562
719.1580, 74.80469
720.3110, 155.9297
721.4640, 18.02344
722.6170, 133.0664
723.7700, 78.07812
724.9220, 78.07031
726.0740, 99.02344
727.2260, 195.9453
728.3780, 128.8398
729.5300, 81.70312
730.6810, 168.4688
731.8330, 17.80078
732.9840, 343.8008
734.1350, 100.3672
735.2860, 164.8984
736.4370, 4.593750
737.5880, 96.16016
738.7380, 152.8359
739.8880, 60.35156
741.0390, 52.49219
742.1890, 131.5820
743.3380, 148.6484
744.4880, 54.32031
745.6380, 163.6172
746.7870, 265.5156
747.9360, 251.3828
749.0850, 194.7773
750.2340, 161.8789
751.3830, 232.4922
752.5310, 44.94141
753.6800, 65.32031
754.8280, 163.3555
755.9760, 44.79688
757.1240, 141.8906
758.2720, 88.94141
759.4190, 7.941406
760.5670, 155.8672
761.7140, 91.24609
762.8610, 10.50391
764.0080, 51.82031
765.1550, 92.74219
766.3020, 111.0586
767.4480, 70.48047
768.5950, 3.851563
769.7410, 64.17578
770.8870, 16.70703
772.0330, 96.24219
773.1780, 25.26172
774.3240, 25.70312
775.4690, 145.9023
776.6140, 110.6211
777.7590, 7.382813
778.9040, 93.75000
780.0490, 191.2969
781.1940, 309.8086
782.3380, 78.73047
783.4820, 196.6211
784.6260, 90.93359
785.7700, 105.1953
786.9140, 226.4102
788.0580, 184.5898
789.2010, 167.7227
790.3450, 189.2305
791.4880, 116.8789
792.6310, 161.8906
793.7730, 44.85938
794.9160, 30.76562
796.0590, 22.60547
797.2010, 7.625000
798.3430, 193.0664
799.4850, 282.7109
800.6270, 284.1797
801.7690, 461.8867
802.9100, 254.4180
804.0520, 268.9141
805.1930, 138.3672
806.3340, 193.7812
807.4750, 286.1484
808.6160, 266.4805
809.7560, 158.7734
810.8970, 239.0273
812.0370, 175.2344
813.1770, 236.8516
814.3170, 129.5391
815.4570, 356.6211
816.5960, 301.6641
817.7360, 313.6719
818.8750, 238.6406
820.0140, 448.5742
821.1530, 353.4648
822.2920, 464.3203
823.4310, 470.1406
824.5690, 408.9219
825.7070, 239.6602
826.8460, 560.3633
827.9840, 331.0312
829.1220, 735.6562
830.2590, 657.2461
831.3970, 512.8008
832.5340, 537.3125
833.6710, 569.7891
834.8080, 941.2227
835.9450, 782.6289
837.0820, 735.9883
838.2190, 983.3164
839.3550, 760.6016
840.4910, 932.8516
841.6270, 859.0625
842.7630, 891.2422
843.8990, 889.3828
845.0350, 884.4844
846.1700, 1063.551
847.3060, 1330.578
848.4410, 1075.574
849.5760, 1137.531
850.7100, 1428.449
851.8450, 1612.336
852.9800, 1654.230
854.1140, 1651.996
855.2480, 1758.770
856.3820, 1975.512
857.5160, 2064.219
858.6500, 2199.176
859.7830, 2370.809
860.9170, 2533.785
862.0500, 2803.852
863.1830, 2889.383
864.3160, 3101.875
865.4480, 3206.336
866.5810, 3601.594
867.7130, 3589.988
868.8460, 3664.730
869.9780, 4387.059
871.1100, 4651.297
872.2410, 4849.934
873.3730, 5396.156
874.5050, 5725.207
875.6360, 6208.168
876.7670, 6248.406
877.8980, 6512.594
879.0290, 6670.684
880.1590, 6704.758
881.2900, 6307.027
882.4200, 6291.668
883.5500, 5741.656
884.6800, 5259.680
885.8100, 4973.828
886.9400, 4698.133
888.0690, 4525.609
889.1990, 4162.949
890.3280, 3882.961
891.4570, 3572.699
892.5860, 3682.832
893.7140, 3431.352
894.8430, 3164.738
895.9710, 3105.945
897.1000, 2828.484
898.2280, 2996.328
899.3560, 2588.480
900.4830, 2892.680
901.6110, 2499.801
902.7380, 2789.312
903.8660, 2733.176
904.9930, 3051.656
906.1200, 3216.879
907.2460, 3148.133
908.3730, 3273.316
909.5000, 3379.941
910.6260, 3699.562
911.7520, 3652.750
912.8780, 3663.320
914.0040, 3555.574
915.1290, 3649.922
916.2550, 3588.496
917.3800, 3290.078
918.5050, 2937.199
919.6300, 2538.766
920.7550, 2500.984
921.8800, 2181.469
923.0040, 1883.020
924.1290, 1907.461
925.2530, 1927.738
926.3770, 1476.164
927.5010, 1313.699
928.6250, 1244.852
929.7480, 928.6055
930.8720, 1259.848
931.9950, 1373.750
933.1180, 1134.016
934.2410, 911.3672
935.3640, 1130.832
936.4860, 493.2891
937.6090, 674.7383
938.7310, 760.1758
939.8530, 667.6016
940.9750, 591.2500
942.0970, 572.4766
943.2180, 386.8828
944.3400, 471.2695
945.4610, 508.1016
946.5820, 282.4805
947.7030, 335.4688
948.8240, 206.8281
949.9450, 155.1953
951.0650, 180.5430
952.1860, 130.3320
953.3060, 445.2148
954.4260, 149.5273
955.5460, 385.8477
956.6650, 439.1602
957.7850, 367.4727
958.9040, 241.7734
960.0230, 361.0703
961.1420, 459.3320
962.2610, 397.6133
963.3800, 337.8945
964.4990, 247.1680
965.6170, 353.4414
966.7350, 255.7031
967.8530, 204.9727
968.9710, 283.2266
970.0890, 157.4844
971.2070, 467.7656
972.3240, 582.0469
973.4410, 803.3203
974.5580, 912.5938
975.6750, 1164.859
976.7920, 1045.125
977.9090, 1146.391
979.0250, 1223.652
980.1410, 1732.910
981.2580, 1796.164
982.3740, 1912.418
983.4890, 2100.676
984.6050, 1894.922
985.7200, 2059.176
986.8360, 2072.418
987.9510, 1654.668
989.0660, 1186.918
990.1810, 1174.160
991.2950, 874.4414
992.4100, 871.6523
993.5240, 672.9062
994.6390, 627.1641
995.7530, 644.4180
996.8660, 485.6758
997.9800, 453.9844
999.0940, 486.2969
1000.207, 380.6406
1001.320, 173.9805
1002.433, 276.3867
1003.546, 237.8164
1004.659, 281.2461
1005.772, 59.32031
1006.884, 7.898438
1007.996, 66.74609
1009.108, 75.98828
1010.220, 26.47656
1011.332, 37.03516
1012.444, 47.05078
1013.555, 19.00391
1014.666, 67.47656
1015.777, 34.94141
1016.888, 11.58984
1017.999, 49.26562
1019.110, 104.6562
1020.220, 25.74219
1021.331, 83.07812
1022.441, 95.57812
1023.551, 2.011719
1024.661, 132.7031
1025.770, 196.9961
1026.880, 586.2344
1027.989, 380.0195
1029.098, 352.8750
1030.207, 494.7305
1031.316, 341.5898
1032.425, 412.5039
1033.533, 458.4414
1034.642, 400.3438
1035.750, 224.3320
1036.858, 460.3320
1037.966, 308.1953
1039.073, 781.4531
1040.181, 686.0703
1041.288, 707.2148
1042.396, 564.7617
1043.503, 879.9844
1044.610, 685.2266
1045.716, 786.4805
1046.823, 658.7344
1047.929, 689.0195
1049.036, 880.3125
1050.142, 584.6094
1051.248, 746.9023
1052.353, 919.3672
1053.459, 770.1250
1054.564, 799.4961
1055.670, 366.8750
1056.775, 740.2578
1057.880, 1036.645
1058.985, 992.0352
1060.089, 611.4336
1061.194, 775.8398
1062.298, 951.2539
1063.402, 776.6875
1064.506, 816.1328
1065.610, 1184.617
1066.713, 1133.086
1067.817, 1149.586
1068.920, 927.0938
1070.023, 1052.602
1071.126, 1113.109
1072.229, 1270.629
1073.332, 1183.148
1074.435, 1209.855
1075.537, 992.2109
1076.639, 1198.746
1077.741, 1289.289
1078.843, 1477.840
1079.945, 1321.391
1081.046, 1415.117
1082.148, 1198.680
1083.249, 1328.254
1084.350, 1884.828
1085.451, 1608.410
1086.551, 1925.996
1087.652, 2388.586
1088.752, 2613.184
1089.853, 2773.781
1090.953, 2733.387
1092.053, 3384.996
1093.152, 2891.609
1094.252, 3105.227
1095.351, 2721.848
1096.451, 2371.480
1097.550, 2163.113
1098.649, 1765.746
1099.748, 1483.391
1100.846, 1218.035
1101.945, 1113.691
1103.043, 641.8281
1104.141, 694.4883
1105.239, 657.1562
1106.337, 816.8203
1107.434, 492.4961
1108.532, 847.1758
1109.629, 492.8594
1110.726, 522.5469
1111.823, 591.2383
1112.920, 435.9336
1114.017, 283.6367
1115.113, 579.3438
1116.210, 310.0508
1117.306, 238.7695
1118.402, 598.4883
1119.498, 270.2109
1120.593, 518.9414
1121.689, 651.6797
1122.784, 365.4180
1123.879, 198.1602
1124.974, 500.9062
1126.069, 468.6562
1127.164, 369.4102
1128.259, 156.1719
1129.353, 151.0625
1130.447, 92.82812
1131.541, 138.5273
1132.635, 371.3047
1133.729, 244.0820
1134.822, 432.8633
1135.916, 239.6484
1137.009, 308.4375
1138.102, 235.8555
1139.195, 185.5547
1140.288, 43.58594
1141.380, 160.1953
1142.473, 84.39062
1143.565, 129.0312
1144.657, 281.8047
1145.749, 430.5781
1146.841, 337.4062
1147.932, 190.5547
1149.024, 112.3320
1150.115, 170.0469
1151.206, 241.8242
1152.297, 12.20703
1153.388, 111.1211
1154.479, 101.0938
1155.569, 105.6250
1156.659, 166.3594
1157.750, 202.1367
1158.839, 354.8711
1159.929, 36.12891
1161.019, 196.5820
1162.108, 123.2969
1163.198, 117.0117
1164.287, 140.7227
1165.376, 1.562500
1166.465, 119.1484
1167.553, 291.8672
1168.642, 15.40625
1169.730, 15.30078
1170.818, 25.98828
1171.906, 239.6953
1172.994, 182.6250
1174.082, 122.9531
1175.170, 78.52734
1176.257, 307.1094
1177.344, 298.6875
1178.431, 121.2617
1179.518, 185.8398
1180.605, 293.4141
1181.691, 362.9922
1182.778, 21.51953
1183.864, 37.91016
1184.950, 31.63281
1186.036, 262.1719
1187.122, 284.7070
1188.207, 242.2461
1189.292, 135.7891
1190.378, 310.3281
1191.463, 280.8594
1192.548, 193.3945
1193.632, 110.9297
1194.717, 232.4688
1195.801, 79.00000
1196.886, 46.52344
1197.970, 248.9219
1199.054, 190.3633
1200.137, 409.8008
1201.221, 240.2422
1202.305, 252.6836
1203.388, 266.1250
1204.471, 413.5625
1205.554, 471.9922
1206.637, 462.7930
1207.719, 307.8672
1208.802, 315.3008
1209.884, 333.7344
1210.966, 21.16406
1212.048, 382.5938
1213.130, 414.0234
1214.212, 68.44922
1215.293, 478.8750
1216.374, 270.2969
1217.456, 181.7188
1218.536, 229.1445
1219.617, 179.5664
1220.698, 131.9844
1221.778, 366.4023
1222.859, 515.8203
1223.939, 467.6172
1225.019, 153.6523
1226.099, 306.0703
1227.178, 360.4805
1228.258, 31.89453
1229.337, 266.3047
1230.417, 173.7227
1231.496, 409.1289
1232.574, 103.4609
1233.653, 196.8828
1234.732, 99.22656
1235.810, 149.5664
1236.888, 276.9102
1237.966, 228.2500
1239.044, 269.5898
1240.122, 454.9258
1241.199, 276.2656
1242.277, 403.6016
1243.354, 135.9375
1244.431, 391.2656
1245.508, 85.60547
1246.585, 360.9375
1247.661, 402.2695
1248.738, 271.6016
1249.814, 106.9336
1250.890, 27.26172
1251.966, 51.59375
1253.042, 335.9180
1254.117, 152.2461
1255.193, 212.5742
1256.268, 94.90234
1257.343, 220.2266
1258.418, 180.4492
1259.493, 180.7734
1260.567, 98.00781
1261.642, 75.15234
1262.716, 314.3125
1263.790, 342.4688
1264.864, 495.6289
1265.938, 398.7852
1267.011, 129.1055
1268.085, 272.2734
1269.158, 210.5781
1270.231, 5.250000
1271.304, 41.92578
1272.377, 9.175781
1273.450, 24.28516
1274.522, 52.15625
1275.594, 154.3633
1276.666, 94.55859
1277.738, 119.7500
1278.810, 124.9453
1279.882, 106.1445
1280.953, 192.3516
1282.025, 225.5000
1283.096, 188.7148
1284.167, 97.18359
1285.238, 285.4023
1286.308, 14.62500
1287.379, 188.8477
1288.449, 145.9258
1289.519, 217.1953
1290.589, 150.3516
1291.659, 168.5117
1292.729, 323.6719
1293.798, 290.8320
1294.868, 491.0742
1295.937, 290.1719
1297.006, 585.8086
1298.075, 359.1719
1299.143, 398.1719
1300.212, 22.85156
1301.280, 430.0352
1302.348, 167.8711
1303.416, 257.0625
1304.484, 222.2578
1305.552, 134.4531
1306.620, 283.6602
1307.687, 417.8672
1308.754, 46.07812
1309.821, 204.2930
1310.888, 37.48047
1311.955, 335.6211
1313.021, 563.4414
1314.088, 185.6641
1315.154, 107.8945
1316.220, 155.1250
1317.286, 256.3672
1318.352, 428.6211
1319.417, 249.8750
1320.483, 498.1367
1321.548, 160.4219
1322.613, 121.7070
1323.678, 464.9961
1324.743, 151.2695
1325.807, 301.5859
1326.872, 329.8828
1327.936, 342.1836
1329.000, 676.4844
1330.064, 469.7930
1331.128, 171.0977
1332.191, 367.4102
1333.255, 181.7305
1334.318, 324.0469
1335.381, 20.37109
1336.444, 232.6992
1337.507, 311.0352
1338.569, 366.3672
1339.632, 481.5430
1340.694, 207.8828
1341.756, 311.2305
1342.818, 788.5859
1343.880, 147.9375
1344.941, 305.3008
1346.003, 587.6641
1347.064, 192.0391
1348.125, 510.4141
1349.186, 245.7930
1350.247, 282.1797
1351.308, 105.5703
1352.368, 519.9688
1353.428, 281.3672
1354.489, 335.7773
1355.549, 149.1914
1356.608, 418.6133
