##NAMES=Clinozoisite
##RRUFFID=R060284
##IDEAL CHEMISTRY=Ca_2_Al_3_(Si_2_O_7_)(SiO_4_)O(OH)
##LOCALITY=near Zagi Mountain, Khaffor Dehri, North-West Frontier Province, Pakistan
##OWNER=RRUFF
##SOURCE=Herb Obodda
##DESCRIPTION=Greenish-brown fragment of a prismatic crystal
##STATUS=The identification of this mineral has been confirmed by X-ray diffraction and chemical analysis
##URL=rruff.info/R060284
##MEASURED CHEMISTRY=Ca_2.00_(Al_0.90_Fe^3+^_0.10_)_3_(Si_1.00_O_4_)(Si_2.00_O_7_)O(OH)
##PIN_ID=L01751
##ORIENTATION=Laser parallel to (1 0 1). Fiducial mark perpendicular to laser is parallel to -b [0 -1 0]
118.1340, 0.0000000E+00
119.3650, 9.301758
120.5960, 89.67480
121.8270, 84.64160
123.0580, 197.5347
124.2880, 158.9043
125.5190, 237.5166
126.7490, 229.5342
127.9790, 331.2695
129.2090, 256.8604
130.4390, 213.2856
131.6680, 87.43701
132.8980, 17.84082
134.1270, 9.281738
135.3560, 56.34668
136.5850, 68.81250
137.8140, 81.19434
139.0430, 35.41602
140.2710, 140.8984
141.5000, 270.1260
142.7280, 251.9727
143.9560, 323.3193
145.1840, 655.0596
146.4120, 777.0957
147.6390, 1061.341
148.8670, 1226.715
150.0940, 1446.145
151.3210, 1726.594
152.5490, 1920.078
153.7750, 2046.132
155.0020, 2340.139
156.2290, 2617.261
157.4550, 2741.467
158.6810, 2953.645
159.9080, 3119.680
161.1340, 3205.480
162.3590, 3534.982
163.5850, 3683.127
164.8110, 3942.866
166.0360, 4277.158
167.2610, 4523.969
168.4860, 4964.266
169.7110, 5360.018
170.9360, 5916.208
172.1610, 5933.811
173.3850, 6115.807
174.6100, 5762.182
175.8340, 5286.918
177.0580, 4935.004
178.2820, 4385.426
179.5050, 3645.169
180.7290, 3197.229
181.9520, 2610.592
183.1760, 2229.262
184.3990, 1966.348
185.6220, 1541.495
186.8450, 1462.119
188.0670, 1291.812
189.2900, 1328.509
190.5120, 1209.219
191.7340, 1263.477
192.9560, 1342.778
194.1780, 1499.964
195.4000, 1636.385
196.6220, 1739.610
197.8430, 1977.649
199.0640, 2241.482
200.2860, 2698.092
201.5070, 2878.467
202.7270, 3248.740
203.9480, 3539.964
205.1690, 3810.153
206.3890, 4173.323
207.6090, 4582.482
208.8290, 4866.645
210.0490, 5194.818
211.2690, 5488.010
212.4890, 5564.230
213.7080, 5810.484
214.9280, 6031.779
216.1470, 6179.119
217.3660, 6438.508
218.5850, 6407.953
219.8030, 6703.456
221.0220, 6575.022
222.2400, 6898.656
223.4590, 7014.357
224.6770, 7515.133
225.8950, 8163.982
227.1120, 8641.911
228.3300, 9596.913
229.5480, 10593.00
230.7650, 11676.16
231.9820, 12868.41
233.1990, 13588.73
234.4160, 14308.15
235.6330, 14333.64
236.8490, 14156.23
238.0660, 13247.90
239.2820, 12451.66
240.4980, 11693.51
241.7140, 10820.45
242.9300, 9881.484
244.1460, 9365.612
245.3610, 8901.838
246.5770, 8591.156
247.7920, 8613.593
249.0070, 8553.276
250.2220, 8681.005
251.4370, 8748.278
252.6510, 8445.377
253.8660, 8115.920
255.0800, 7469.928
256.2940, 6931.562
257.5080, 6322.318
258.7220, 5932.186
259.9360, 5305.157
261.1490, 4597.232
262.3630, 4028.413
263.5760, 3997.708
264.7890, 4014.260
266.0020, 4412.304
267.2150, 4759.359
268.4270, 5155.061
269.6400, 5922.711
270.8520, 6730.076
272.0640, 7326.404
273.2760, 7990.042
274.4880, 8140.627
275.7000, 7777.418
276.9120, 7141.561
278.1230, 6455.977
279.3340, 5685.316
280.5450, 4924.807
281.7560, 4258.621
282.9670, 3818.988
284.1780, 3401.855
285.3880, 3322.209
286.5980, 3232.779
287.8090, 3125.560
289.0190, 3094.541
290.2290, 2925.718
291.4380, 3086.082
292.6480, 3122.631
293.8570, 3018.356
295.0670, 2932.254
296.2760, 3093.319
297.4850, 3035.548
298.6930, 2901.935
299.9020, 2779.475
301.1110, 2891.160
302.3190, 2954.990
303.5270, 3101.959
304.7350, 3251.251
305.9430, 3336.292
307.1510, 3642.651
308.3580, 3864.137
309.5660, 4152.740
310.7730, 4517.469
311.9800, 4455.312
313.1870, 4614.271
314.3940, 4449.344
315.6010, 4192.530
316.8070, 3980.828
318.0130, 3623.234
319.2200, 3395.748
320.4260, 3260.371
321.6310, 3131.130
322.8370, 3151.742
324.0430, 3159.871
325.2480, 3341.912
326.4540, 3605.055
327.6590, 3993.701
328.8640, 4526.648
330.0680, 5061.092
331.2730, 5736.617
332.4780, 6417.219
333.6820, 7455.896
334.8860, 8231.650
336.0900, 9375.483
337.2940, 10202.39
338.4980, 11226.38
339.7010, 12362.43
340.9050, 13253.55
342.1080, 14304.74
343.3110, 15680.00
344.5140, 17553.33
345.7170, 19509.75
346.9200, 21339.23
348.1220, 23449.80
349.3240, 25328.45
350.5270, 26186.17
351.7290, 26866.98
352.9310, 26116.88
354.1320, 24307.84
355.3340, 22538.90
356.5350, 19480.04
357.7370, 16875.26
358.9380, 14082.57
360.1390, 11502.96
361.3400, 9203.441
362.5400, 7551.004
363.7410, 6111.652
364.9410, 4758.387
366.1410, 4121.207
367.3410, 3312.112
368.5410, 2585.105
369.7410, 2048.185
370.9400, 1563.350
372.1400, 1060.603
373.3390, 618.9414
374.5380, 327.0361
375.7370, 50.87891
376.9360, 130.5254
378.1350, 286.8828
379.3330, 423.2246
380.5310, 591.5811
381.7300, 724.9932
382.9280, 713.4912
384.1260, 638.0723
385.3230, 573.7197
386.5210, 438.4180
387.7180, 170.1357
388.9160, 100.8145
390.1130, 145.5605
391.3100, 506.0195
392.5060, 758.5596
393.7030, 1038.062
394.9000, 1542.384
396.0960, 1799.420
397.2920, 1855.236
398.4880, 1720.982
399.6840, 1705.790
400.8800, 1375.692
402.0750, 1088.689
403.2710, 583.7822
404.4660, 388.9678
405.6610, 11.24805
406.8560, 294.3877
408.0510, 463.0820
409.2450, 626.8975
410.4400, 687.9023
411.6340, 603.1240
412.8280, 346.5205
414.0220, 271.9707
415.2160, 255.5586
416.4100, 753.1982
417.6030, 1497.953
418.7970, 2370.282
419.9900, 3379.807
421.1830, 4491.904
422.3760, 5770.117
423.5690, 7109.459
424.7610, 8427.920
425.9540, 9397.508
427.1460, 10126.22
428.3380, 10391.06
429.5300, 10583.01
430.7220, 10288.05
431.9140, 9961.204
433.1050, 9642.457
434.2970, 9369.809
435.4880, 9328.262
436.6790, 9356.818
437.8700, 9698.471
439.0610, 10419.22
440.2510, 11371.07
441.4420, 12487.02
442.6320, 14009.07
443.8220, 15517.22
445.0120, 17046.47
446.2020, 18979.83
447.3910, 20600.28
448.5810, 22444.86
449.7700, 23901.56
450.9600, 24668.38
452.1490, 25037.32
453.3370, 24939.39
454.5260, 24283.58
455.7150, 23201.90
456.9030, 21857.36
458.0910, 20272.94
459.2800, 18825.62
460.4670, 17654.46
461.6550, 16448.44
462.8430, 15504.55
464.0300, 14669.81
465.2180, 14191.24
466.4050, 14012.83
467.5920, 13838.59
468.7790, 13401.52
469.9650, 13392.63
471.1520, 13116.90
472.3380, 12773.37
473.5250, 12444.02
474.7110, 11822.83
475.8970, 11485.82
477.0820, 10999.96
478.2680, 10676.30
479.4540, 10163.81
480.6390, 9746.503
481.8240, 9273.399
483.0090, 8739.434
484.1940, 7999.637
485.3780, 7502.995
486.5630, 7155.527
487.7470, 6369.231
488.9320, 5949.105
490.1160, 5441.157
491.3000, 5175.361
492.4830, 4594.736
493.6670, 4368.268
494.8500, 4295.928
496.0340, 4261.756
497.2170, 4305.738
498.4000, 4483.104
499.5820, 4984.069
500.7650, 5099.420
501.9480, 5584.891
503.1300, 6180.495
504.3120, 6544.209
505.4940, 6938.036
506.6760, 7292.969
507.8580, 7418.008
509.0390, 7473.145
510.2210, 7159.412
511.4020, 7185.773
512.5830, 6782.246
513.7640, 6616.815
514.9450, 6532.484
516.1250, 6547.233
517.3060, 6121.060
518.4860, 5885.943
519.6660, 5788.469
520.8460, 5211.319
522.0260, 4768.074
523.2060, 4171.739
524.3850, 3609.014
525.5650, 3041.038
526.7440, 2503.390
527.9230, 1952.320
529.1020, 1555.696
530.2810, 1088.986
531.4590, 796.5869
532.6380, 537.3174
533.8160, 360.1123
534.9940, 227.9736
536.1720, 287.8994
537.3500, 187.8896
538.5270, 149.9473
539.7050, 337.0713
540.8820, 373.2617
542.0590, 219.5195
543.2360, 290.8418
544.4130, 484.2275
545.5900, 611.6787
546.7660, 709.1914
547.9430, 757.7881
549.1190, 1059.394
550.2950, 1442.290
551.4710, 1594.396
552.6470, 1995.312
553.8220, 2330.979
554.9980, 2979.561
556.1730, 3597.022
557.3480, 4438.107
558.5230, 5547.258
559.6980, 6769.471
560.8730, 8884.747
562.0470, 11212.09
563.2220, 14157.49
564.3960, 18353.94
565.5700, 22866.47
566.7440, 28246.03
567.9170, 34588.68
569.0910, 40457.36
570.2640, 44492.11
571.4380, 45225.91
572.6110, 43501.75
573.7840, 39017.65
574.9570, 33667.61
576.1290, 27674.62
577.3020, 22121.66
578.4740, 17065.77
579.6460, 13654.91
580.8180, 11138.10
581.9900, 9832.369
583.1620, 9039.037
584.3330, 8953.538
585.5040, 9246.795
586.6760, 9689.911
587.8470, 10504.35
589.0180, 11519.62
590.1880, 12757.39
591.3590, 13919.32
592.5290, 15204.74
593.7000, 16841.30
594.8700, 18336.50
596.0400, 20081.96
597.2090, 21966.50
598.3790, 23877.36
599.5490, 25994.57
600.7180, 27918.62
601.8870, 29351.92
603.0560, 30742.42
604.2250, 31604.59
605.3940, 31353.86
606.5620, 30606.88
607.7300, 28748.12
608.8990, 26093.82
610.0670, 23716.09
611.2350, 20873.92
612.4020, 18323.01
613.5700, 16122.87
614.7370, 14006.66
615.9050, 12229.00
617.0720, 10641.71
618.2390, 9315.236
619.4060, 7847.576
620.5720, 7025.846
621.7390, 6240.686
622.9050, 5392.278
624.0710, 4543.348
625.2370, 4018.675
626.4030, 3317.425
627.5690, 2990.715
628.7340, 2800.680
629.9000, 2438.350
631.0650, 2066.559
632.2300, 2003.802
633.3950, 1916.812
634.5600, 1739.027
635.7240, 1748.323
636.8890, 1531.607
638.0530, 1540.863
639.2170, 1581.883
640.3810, 1516.804
641.5450, 1514.754
642.7080, 1537.375
643.8720, 1567.701
645.0350, 1550.419
646.1980, 1764.305
647.3610, 1843.013
648.5240, 2084.849
649.6870, 2500.241
650.8490, 2915.751
652.0120, 3308.941
653.1740, 3844.975
654.3360, 4026.935
655.4980, 4256.201
656.6600, 4281.817
657.8210, 4596.285
658.9830, 4532.380
660.1440, 4146.123
661.3050, 3838.303
662.4660, 3854.419
663.6270, 3559.529
664.7870, 3228.131
665.9480, 3085.594
667.1080, 2856.602
668.2680, 2633.782
669.4280, 2498.950
670.5880, 2270.015
671.7480, 2152.240
672.9070, 2171.190
674.0670, 2062.066
675.2260, 1970.868
676.3850, 1873.593
677.5440, 2157.243
678.7030, 1957.814
679.8610, 2198.308
681.0200, 2152.723
682.1780, 2365.059
683.3360, 2395.314
684.4940, 2420.489
685.6520, 2582.582
686.8090, 2527.593
687.9670, 2570.531
689.1240, 2584.456
690.2810, 2640.405
691.4380, 2680.413
692.5950, 2827.496
693.7520, 2906.630
694.9080, 3107.761
696.0650, 3202.866
697.2210, 3510.883
698.3770, 3630.811
699.5330, 3744.648
700.6880, 3975.395
701.8440, 4003.049
702.9990, 3885.612
704.1550, 3707.082
705.3100, 3582.459
706.4650, 3207.742
707.6190, 2923.930
708.7740, 2463.022
709.9290, 2167.019
711.0830, 1814.918
712.2370, 1583.721
713.3910, 1274.425
714.5450, 980.0317
715.6980, 786.5391
716.8520, 609.9468
718.0050, 546.2549
719.1580, 407.4614
720.3110, 330.5669
721.4640, 251.5698
722.6170, 135.4658
723.7700, 171.2466
724.9220, 105.9136
726.0740, 169.4590
727.2260, 12.88916
728.3780, 8.837891
729.5300, 23.26514
730.6810, 1.213379
731.8330, 0.9951170
732.9840, 25.60791
734.1350, 72.93555
735.2860, 7.310547
736.4370, 43.61182
737.5880, 104.2700
738.7380, 106.9824
739.8880, 29.46631
741.0390, 79.14160
742.1890, 104.0366
743.3380, 120.1646
744.4880, 194.5347
745.6380, 165.1870
746.7870, 203.1055
747.9360, 195.3130
749.0850, 155.8042
750.2340, 286.5601
751.3830, 218.6484
752.5310, 185.0347
753.6800, 193.7012
754.8280, 119.6533
755.9760, 307.8521
757.1240, 193.3950
758.2720, 240.2236
759.4190, 313.3623
760.5670, 86.84814
761.7140, 190.5630
762.8610, 147.5615
764.0080, 218.8193
765.1550, 212.3745
766.3020, 208.2222
767.4480, 236.5571
768.5950, 150.8052
769.7410, 216.5083
770.8870, 166.5044
772.0330, 75.76660
773.1780, 206.2471
774.3240, 176.0112
775.4690, 50.04492
776.6140, 48.27979
777.7590, 64.71289
778.9040, 67.35352
780.0490, 96.20117
781.1940, 24.26953
782.3380, 44.51953
783.4820, 11.96045
784.6260, 27.57520
785.7700, 15.63135
786.9140, 123.3184
788.0580, 15.50439
789.2010, 61.82617
790.3450, 14.34814
791.4880, 16.03564
792.6310, 73.11084
793.7730, 47.13184
794.9160, 114.0225
796.0590, 139.7939
797.2010, 77.45068
798.3430, 118.9854
799.4850, 126.8896
800.6270, 311.7095
801.7690, 214.9106
802.9100, 268.0039
804.0520, 391.9912
805.1930, 361.8765
806.3340, 368.6602
807.4750, 477.3413
808.6160, 329.9233
809.7560, 519.4028
810.8970, 560.7832
812.0370, 744.0649
813.1770, 688.2495
814.3170, 749.3369
815.4570, 862.3267
816.5960, 980.2212
817.7360, 989.0205
818.8750, 1106.725
820.0140, 1215.335
821.1530, 1296.852
822.2920, 1500.277
823.4310, 1502.609
824.5690, 1759.850
825.7070, 2078.000
826.8460, 2171.061
827.9840, 2373.031
829.1220, 2568.911
830.2590, 2660.701
831.3970, 2905.401
832.5340, 3075.011
833.6710, 3245.532
834.8080, 3368.965
835.9450, 3453.609
837.0820, 3487.567
838.2190, 3584.739
839.3550, 3644.826
840.4910, 3748.827
841.6270, 3705.744
842.7630, 3869.578
843.8990, 3832.330
845.0350, 3950.999
846.1700, 4001.328
847.3060, 3998.097
848.4410, 4134.525
849.5760, 4133.876
850.7100, 4258.149
851.8450, 4301.344
852.9800, 4528.465
854.1140, 4726.510
855.2480, 4882.480
856.3820, 5146.378
857.5160, 5446.178
858.6500, 5612.550
859.7830, 5860.053
860.9170, 6184.778
862.0500, 6464.614
863.1830, 6813.101
864.3160, 7261.735
865.4480, 7619.833
866.5810, 8193.747
867.7130, 8811.145
868.8460, 9194.370
869.9780, 9948.924
871.1100, 10487.20
872.2410, 11043.36
873.3730, 11830.19
874.5050, 12508.63
875.6360, 13072.21
876.7670, 14103.53
877.8980, 14846.61
879.0290, 15582.02
880.1590, 16237.30
881.2900, 16852.82
882.4200, 17143.07
883.5500, 17664.86
884.6800, 17505.05
885.8100, 17805.64
886.9400, 18004.99
888.0690, 18280.53
889.1990, 18716.16
890.3280, 18822.19
891.4570, 19732.85
892.5860, 20324.68
893.7140, 21342.69
894.8430, 22230.75
895.9710, 23064.22
897.1000, 24301.96
898.2280, 25575.21
899.3560, 26889.19
900.4830, 28501.73
901.6110, 30186.70
902.7380, 32375.96
903.8660, 34774.49
904.9930, 37505.46
906.1200, 40514.38
907.2460, 44039.52
908.3730, 47541.44
909.5000, 50645.27
910.6260, 53225.11
911.7520, 55361.95
912.8780, 56854.04
914.0040, 57169.21
915.1290, 57014.37
916.2550, 56459.82
917.3800, 54799.93
918.5050, 53085.91
919.6300, 51150.08
920.7550, 48460.41
921.8800, 46404.58
923.0040, 44075.20
924.1290, 41758.71
925.2530, 40060.51
926.3770, 38102.47
927.5010, 35965.50
928.6250, 34209.19
929.7480, 32316.50
930.8720, 30012.93
931.9950, 28117.71
933.1180, 26484.87
934.2410, 24122.65
935.3640, 22081.57
936.4860, 20162.62
937.6090, 17997.34
938.7310, 16230.34
939.8530, 14507.93
940.9750, 13112.47
942.0970, 11902.09
943.2180, 10469.85
944.3400, 9496.445
945.4610, 8662.293
946.5820, 7762.183
947.7030, 7213.117
948.8240, 6605.102
949.9450, 6262.139
951.0650, 5863.251
952.1860, 5754.425
953.3060, 5576.650
954.4260, 5300.950
955.5460, 5289.305
956.6650, 5207.709
957.7850, 5097.164
958.9040, 5054.688
960.0230, 5019.277
961.1420, 5171.933
962.2610, 5090.658
963.3800, 5193.447
964.4990, 5132.292
965.6170, 5232.195
966.7350, 5112.157
967.8530, 5114.186
968.9710, 5264.287
970.0890, 5295.449
971.2070, 5413.678
972.3240, 5647.967
973.4410, 6109.318
974.5580, 6497.730
975.6750, 7235.233
976.7920, 7851.797
977.9090, 9042.433
979.0250, 10279.13
980.1410, 11357.90
981.2580, 12751.73
982.3740, 13779.65
983.4890, 14665.64
984.6050, 15175.71
985.7200, 14720.87
986.8360, 14298.12
987.9510, 12960.44
989.0660, 11747.83
990.1810, 9989.304
991.2950, 8804.851
992.4100, 7386.475
993.5240, 6085.181
994.6390, 5210.969
995.7530, 4284.842
996.8660, 3592.807
997.9800, 3160.861
999.0940, 2654.038
1000.207, 2199.327
1001.320, 1872.715
1002.433, 1506.210
1003.546, 1224.669
1004.659, 1082.566
1005.772, 794.4141
1006.884, 663.6074
1007.996, 598.6855
1009.108, 440.1631
1010.220, 404.2539
1011.332, 316.0801
1012.444, 301.7266
1013.555, 252.9102
1014.666, 174.0117
1015.777, 300.3096
1016.888, 548.6211
1017.999, 554.0088
1019.110, 727.7031
1020.220, 791.6748
1021.331, 992.4609
1022.441, 1184.491
1023.551, 1465.688
1024.661, 1772.056
1025.770, 1916.383
1026.880, 2394.432
1027.989, 2425.313
1029.098, 2731.305
1030.207, 2995.792
1031.316, 3058.847
1032.425, 3101.036
1033.533, 3363.762
1034.642, 3424.664
1035.750, 3434.737
1036.858, 3549.982
1037.966, 3921.127
1039.073, 4082.515
1040.181, 4322.527
1041.288, 4481.015
1042.396, 4741.969
1043.503, 5068.988
1044.610, 5089.930
1045.716, 5359.303
1046.823, 5226.082
1047.929, 5205.986
1049.036, 5251.830
1050.142, 5007.861
1051.248, 4734.519
1052.353, 4630.444
1053.459, 4277.114
1054.564, 4000.454
1055.670, 3667.681
1056.775, 3245.135
1057.880, 2860.875
1058.985, 2584.559
1060.089, 2185.413
1061.194, 1899.473
1062.298, 1687.713
1063.402, 1556.942
1064.506, 1179.414
1065.610, 1050.317
1066.713, 953.8896
1067.817, 936.7891
1068.920, 943.4648
1070.023, 923.6914
1071.126, 895.6631
1072.229, 956.6436
1073.332, 1037.568
1074.435, 1073.508
1075.537, 1320.750
1076.639, 1536.971
1077.741, 1554.102
1078.843, 1912.294
1079.945, 2153.548
1081.046, 2651.229
1082.148, 3080.969
1083.249, 3683.077
1084.350, 4449.040
1085.451, 5273.593
1086.551, 6459.028
1087.652, 7608.840
1088.752, 9194.565
1089.853, 10362.35
1090.953, 11968.98
1092.053, 13095.08
1093.152, 14025.04
1094.252, 14237.92
1095.351, 13539.67
1096.451, 12435.78
1097.550, 10740.94
1098.649, 9171.492
1099.748, 7312.433
1100.846, 6055.612
1101.945, 4624.167
1103.043, 3780.853
1104.141, 3147.316
1105.239, 2421.828
1106.337, 2116.389
1107.434, 1768.083
1108.532, 1531.736
1109.629, 1280.816
1110.726, 1077.562
1111.823, 962.3506
1112.920, 961.6865
1114.017, 869.7393
1115.113, 874.0244
1116.210, 892.3281
1117.306, 892.7129
1118.402, 909.7500
1119.498, 916.9814
1120.593, 792.4795
1121.689, 755.0674
1122.784, 766.4316
1123.879, 681.2881
1124.974, 460.9062
1126.069, 460.6699
1127.164, 379.3066
1128.259, 326.9326
1129.353, 271.9658
1130.447, 253.6436
1131.541, 90.49023
1132.635, 122.0781
1133.729, 58.99121
1134.822, 4.162109
1135.916, 97.04785
1137.009, 68.83496
1138.102, 66.57812
1139.195, 149.1396
1140.288, 100.0693
1141.380, 57.07715
1142.473, 3.887695
1143.565, 117.0479
1144.657, 67.93652
1145.749, 58.98633
1146.841, 16.22363
1147.932, 6.084961
1149.024, 85.29199
1150.115, 7.495117
1151.206, 156.6367
1152.297, 72.38867
1153.388, 145.4814
1154.479, 42.58984
1155.569, 141.1602
1156.659, 134.8652
1157.750, 99.70801
1158.839, 34.44629
1159.929, 109.1592
1161.019, 230.4307
1162.108, 120.7705
1163.198, 117.9834
1164.287, 90.70020
1165.376, 71.71875
1166.465, 10.25391
1167.553, 46.12402
1168.642, 43.36035
1169.730, 43.82031
1170.818, 74.70605
1171.906, 79.48535
1172.994, 83.98535
1174.082, 99.66992
1175.170, 5.048828
1176.257, 151.8252
1177.344, 136.5078
1178.431, 97.44043
1179.518, 53.56836
1180.605, 126.9990
1181.691, 19.46094
1182.778, 133.2129
1183.864, 11.79883
1184.950, 0.4023440
1186.036, 91.57617
1187.122, 90.88672
1188.207, 74.26855
1189.292, 50.71289
1190.378, 49.98340
1191.463, 95.15723
1192.548, 36.23633
1193.632, 48.79102
1194.717, 28.58594
1195.801, 26.99902
1196.886, 5.369141
1197.970, 8.119141
1199.054, 19.24414
1200.137, 31.58984
1201.221, 28.80957
1202.305, 2.875977
1203.388, 6.938477
1204.471, 113.1836
1205.554, 28.19141
1206.637, 64.17773
1207.719, 114.4609
1208.802, 112.3154
1209.884, 113.4082
1210.966, 65.35742
1212.048, 68.20117
1213.130, 48.05566
1214.212, 22.56543
1215.293, 105.1299
1216.374, 28.15234
1217.456, 92.38477
1218.536, 129.7979
1219.617, 128.6855
1220.698, 31.03027
1221.778, 45.31348
1222.859, 31.54102
1223.939, 36.70508
1225.019, 64.80566
1226.099, 128.8535
1227.178, 181.8779
1228.258, 113.0859
1229.337, 76.21094
1230.417, 51.18555
1231.496, 129.9951
1232.574, 95.76367
1233.653, 257.4795
1234.732, 174.1777
1235.810, 214.8135
1236.888, 3.501953
1237.966, 169.0303
1239.044, 109.4873
1240.122, 335.8926
1241.199, 194.2520
1242.277, 149.5684
1243.354, 71.83594
1244.431, 84.45312
1245.508, 90.74316
1246.585, 25.04004
1247.661, 85.00488
1248.738, 141.8984
1249.814, 136.7354
1250.890, 137.5127
1251.966, 149.2324
1253.042, 135.8936
1254.117, 147.7324
1255.193, 146.3623
1256.268, 154.6963
1257.343, 125.1152
1258.418, 117.2583
1259.493, 55.53906
1260.567, 165.2778
1261.642, 252.5610
1262.716, 218.8203
1263.790, 162.9922
1264.864, 141.2075
1265.938, 247.1235
1267.011, 198.3271
1268.085, 279.0986
1269.158, 271.0845
1270.231, 184.4590
1271.304, 178.0049
1272.377, 273.4688
1273.450, 236.8960
1274.522, 252.9497
1275.594, 325.0991
1276.666, 241.2344
1277.738, 325.4551
1278.810, 374.4780
1279.882, 289.6504
1280.953, 233.4766
1282.025, 268.6538
1283.096, 241.8018
1284.167, 230.7686
1285.238, 221.9043
1286.308, 226.8379
1287.379, 168.4600
1288.449, 210.1914
1289.519, 186.9121
1290.589, 261.5547
1291.659, 166.8555
