##NAMES=Clinozoisite
##RRUFFID=R040085
##IDEAL CHEMISTRY=Ca_2_Al_3_(Si_2_O_7_)(SiO_4_)O(OH)
##LOCALITY=Alamos, Sonora, Mexico
##OWNER=RRUFF
##SOURCE=University of Arizona Mineral Museum
##DESCRIPTION=Divergent aggregate of red thin prismatic crystals
##STATUS=The identification of this mineral has been confirmed by X-ray diffraction and chemical analysis
##URL=rruff.info/R040085
##MEASURED CHEMISTRY=Ca_2.03_(Al_0.90_Fe_0.13_)_3_(Si_1.00_O_4_)(Si_2.00_O_7_)O(OH)
##PIN_ID=M00327
##ORIENTATION=Laser parallel to (1 0 1). Fiducial mark perpendicular to laser is parallel to -b [0 -1 0]
191.7340, 0.0000000E+00
192.9560, 51.35938
194.1780, 198.8379
195.4000, 255.5645
196.6220, 18.47852
197.8430, 218.0684
199.0640, 225.9414
200.2860, 115.2109
201.5070, 268.1680
202.7270, 282.2461
203.9480, 220.9961
205.1690, 237.0879
206.3890, 220.2637
207.6090, 159.2969
208.8290, 426.9922
210.0490, 132.1660
211.2690, 345.6660
212.4890, 482.3516
213.7080, 448.0957
214.9280, 782.8027
216.1470, 595.4531
217.3660, 507.0371
218.5850, 674.4727
219.8030, 753.7207
221.0220, 538.7422
222.2400, 570.4512
223.4590, 857.7754
224.6770, 813.6602
225.8950, 905.0527
227.1120, 955.9160
228.3300, 1055.400
229.5480, 1371.895
230.7650, 1444.928
231.9820, 1578.281
233.1990, 2047.928
234.4160, 1953.848
235.6330, 2067.029
236.8490, 1473.457
238.0660, 1601.260
239.2820, 1390.826
240.4980, 1390.189
241.7140, 1345.172
242.9300, 1223.650
244.1460, 1111.393
245.3610, 1084.707
246.5770, 1152.719
247.7920, 1158.285
249.0070, 1288.887
250.2220, 1348.520
251.4370, 1478.180
252.6510, 1416.887
253.8660, 1243.633
255.0800, 1392.430
256.2940, 1229.277
257.5080, 1195.180
258.7220, 1170.141
259.9360, 982.1602
261.1490, 889.2500
262.3630, 850.3984
263.5760, 813.6211
264.7890, 741.8906
266.0020, 677.1133
267.2150, 889.2773
268.4270, 1113.406
269.6400, 1061.535
270.8520, 1164.676
272.0640, 1228.840
273.2760, 1308.035
274.4880, 1242.270
275.7000, 955.5469
276.9120, 972.8750
278.1230, 769.2578
279.3340, 762.7031
280.5450, 637.2031
281.7560, 476.7734
282.9670, 517.4023
284.1780, 339.8984
285.3880, 580.4375
286.5980, 489.8320
287.8090, 409.1680
289.0190, 656.5469
290.2290, 496.4961
291.4380, 556.9297
292.6480, 448.3203
293.8570, 577.8086
295.0670, 241.3867
296.2760, 518.0547
297.4850, 551.8047
298.6930, 332.6406
299.9020, 479.9883
301.1110, 414.2812
302.3190, 501.8516
303.5270, 532.1484
304.7350, 546.2578
305.9430, 582.2031
307.1510, 665.0781
308.3580, 666.0430
309.5660, 784.0977
310.7730, 657.2383
311.9800, 879.4688
313.1870, 892.7773
314.3940, 950.1641
315.6010, 778.6328
316.8070, 668.1797
318.0130, 585.8086
319.2200, 539.5195
320.4260, 571.2969
321.6310, 548.1562
322.8370, 705.0859
324.0430, 655.0938
325.2480, 509.1836
326.4540, 677.3477
327.6590, 678.5898
328.8640, 645.9102
330.0680, 1001.309
331.2730, 1208.789
332.4780, 1070.340
333.6820, 1461.973
334.8860, 1418.684
336.0900, 1697.473
337.2940, 1848.789
338.4980, 1950.434
339.7010, 2297.891
340.9050, 2350.680
342.1080, 2504.664
343.3110, 2965.012
344.5140, 3188.594
345.7170, 3806.395
346.9200, 4004.395
348.1220, 4343.574
349.3240, 4437.926
350.5270, 4655.441
351.7290, 4632.109
352.9310, 4545.914
354.1320, 4157.859
355.3340, 3506.934
356.5350, 2875.129
357.7370, 2273.445
358.9380, 1912.867
360.1390, 1550.406
361.3400, 1231.867
362.5400, 1069.781
363.7410, 759.6172
364.9410, 600.5430
366.1410, 359.5586
367.3410, 411.6602
368.5410, 266.8438
369.7410, 340.1133
370.9400, 376.4531
372.1400, 135.8750
373.3390, 191.3711
374.5380, 25.05859
375.7370, 149.4180
376.9360, 185.7344
378.1350, 100.9883
379.3330, 112.2227
380.5310, 56.38281
381.7300, 137.5156
382.9280, 230.5195
384.1260, 205.5312
385.3230, 74.47266
386.5210, 114.4609
387.7180, 139.3594
388.9160, 2.773438
390.1130, 198.9570
391.3100, 58.19531
392.5060, 208.5820
393.7030, 295.9102
394.9000, 422.2969
396.0960, 462.7344
397.2920, 336.2266
398.4880, 374.9531
399.6840, 440.5352
400.8800, 206.1602
402.0750, 277.8398
403.2710, 219.5703
404.4660, 119.6523
405.6610, 179.8516
406.8560, 3.972656
408.0510, 323.1602
409.2450, 179.3047
410.4400, 110.5703
411.6340, 158.5117
412.8280, 26.57031
414.0220, 182.4180
415.2160, 92.45703
416.4100, 350.5430
417.6030, 350.6836
418.7970, 560.8711
419.9900, 729.1055
421.1830, 1081.395
422.3760, 1206.605
423.5690, 1395.504
424.7610, 1528.543
425.9540, 1572.027
427.1460, 1666.555
428.3380, 1505.090
429.5300, 1670.625
430.7220, 1610.164
431.9140, 1498.691
433.1050, 1707.219
434.2970, 1209.727
435.4880, 1425.293
436.6790, 1416.910
437.8700, 1528.574
439.0610, 1497.285
440.2510, 1638.051
441.4420, 1786.438
442.6320, 2007.699
443.8220, 2257.543
445.0120, 2681.312
446.2020, 3144.098
447.3910, 3184.934
448.5810, 3800.828
449.7700, 3957.812
450.9600, 4146.855
452.1490, 4003.953
453.3370, 4030.164
454.5260, 3662.430
455.7150, 3516.785
456.9030, 3347.230
458.0910, 2851.723
459.2800, 2597.266
460.4670, 2415.852
461.6550, 2292.492
462.8430, 2314.180
464.0300, 2086.918
465.2180, 2202.734
466.4050, 2145.613
467.5920, 1997.535
468.7790, 2070.535
469.9650, 2146.578
471.1520, 1904.664
472.3380, 1920.801
473.5250, 2075.977
474.7110, 2069.203
475.8970, 2010.469
477.0820, 2016.637
478.2680, 1941.207
479.4540, 1912.660
480.6390, 1767.172
481.8240, 1765.746
483.0090, 1679.422
484.1940, 1669.160
485.3780, 1394.012
486.5630, 1183.961
487.7470, 902.9766
488.9320, 1285.062
490.1160, 911.1992
491.3000, 767.3906
492.4830, 958.6445
493.6670, 658.9961
494.8500, 710.4336
496.0340, 771.9414
497.2170, 1007.531
498.4000, 900.1797
499.5820, 812.8945
500.7650, 997.6641
501.9480, 1167.480
503.1300, 1059.352
504.3120, 1204.277
505.4940, 1431.254
506.6760, 1180.277
507.8580, 1157.340
509.0390, 814.4531
510.2210, 1145.637
511.4020, 659.8633
512.5830, 1080.152
513.7640, 915.4883
514.9450, 904.8984
516.1250, 1015.375
517.3060, 738.1484
518.4860, 913.2500
519.6660, 638.8164
520.8460, 844.4883
522.0260, 687.2344
523.2060, 465.1523
524.3850, 310.9453
525.5650, 472.5938
526.7440, 190.4297
527.9230, 137.3438
529.1020, 301.1992
530.2810, 123.0391
531.4590, 177.9805
532.6380, 68.05859
533.8160, 50.82031
534.9940, 93.33203
536.1720, 171.5312
537.3500, 13.76562
538.5270, 5.066406
539.7050, 12.58984
540.8820, 118.7891
542.0590, 216.2031
543.2360, 113.6484
544.4130, 45.13672
545.5900, 207.6562
546.7660, 196.7656
547.9430, 277.3398
549.1190, 189.8594
550.2950, 341.7148
551.4710, 147.4062
552.6470, 534.1289
553.8220, 498.8008
554.9980, 797.6250
556.1730, 876.4531
557.3480, 798.3203
558.5230, 954.2109
559.6980, 1225.137
560.8730, 1787.094
562.0470, 2053.086
563.2220, 2627.109
564.3960, 3564.160
565.5700, 4511.246
566.7440, 5610.359
567.9170, 6486.512
569.0910, 7885.688
570.2640, 8466.898
571.4380, 8376.133
572.6110, 7219.402
573.7840, 6085.703
574.9570, 4573.027
576.1290, 3675.391
577.3020, 3125.773
578.4740, 2191.195
579.6460, 1884.637
580.8180, 1335.113
581.9900, 1504.617
583.1620, 1822.148
584.3330, 1413.707
585.5040, 1649.297
586.6760, 1652.910
587.8470, 1709.742
589.0180, 2031.141
590.1880, 2300.238
591.3590, 2466.914
592.5290, 2605.664
593.7000, 2758.547
594.8700, 2799.344
596.0400, 3228.062
597.2090, 3389.445
598.3790, 3554.316
599.5490, 4129.652
600.7180, 4461.559
601.8870, 4712.492
603.0560, 4905.441
604.2250, 4883.230
605.3940, 4953.602
606.5620, 4508.906
607.7300, 4104.934
608.8990, 3533.320
610.0670, 3359.383
611.2350, 2877.461
612.4020, 2582.895
613.5700, 2179.008
614.7370, 1773.137
615.9050, 1728.285
617.0720, 1493.449
618.2390, 1410.434
619.4060, 1196.875
620.5720, 957.3555
621.7390, 901.5742
622.9050, 947.8086
624.0710, 491.0547
625.2370, 851.0352
626.4030, 300.1719
627.5690, 489.1328
628.7340, 479.5781
629.9000, 171.8672
631.0650, 326.1680
632.2300, 325.8438
633.3950, 390.6797
634.5600, 362.8633
635.7240, 197.6523
636.8890, 369.0352
638.0530, 256.3359
639.2170, 403.4805
640.3810, 370.0078
641.5450, 256.9297
642.7080, 399.4492
643.8720, 505.2695
645.0350, 588.5039
646.1980, 373.5859
647.3610, 351.5352
648.5240, 642.8828
649.6870, 613.1250
650.8490, 748.4727
652.0120, 1165.938
653.1740, 849.2852
654.3360, 1045.004
655.4980, 1094.352
656.6600, 949.5703
657.8210, 1154.055
658.9830, 1007.402
660.1440, 857.7773
661.3050, 701.1484
662.4660, 768.6562
663.6270, 510.1953
664.7870, 728.8438
665.9480, 491.2227
667.1080, 504.6602
668.2680, 557.3203
669.4280, 430.7656
670.5880, 332.2266
671.7480, 402.5430
672.9070, 425.3945
674.0670, 497.7305
675.2260, 509.6875
676.3850, 510.1016
677.5440, 497.1055
678.7030, 491.3555
679.8610, 387.8984
681.0200, 485.2695
682.1780, 418.6250
683.3360, 477.9688
684.4940, 763.3047
685.6520, 485.6211
686.8090, 573.9492
687.9670, 438.2891
689.1240, 755.6211
690.2810, 371.9961
691.4380, 329.3906
692.5950, 716.7695
693.7520, 636.1562
694.9080, 610.5352
696.0650, 474.9023
697.2210, 909.2500
698.3770, 662.5859
699.5330, 1043.898
700.6880, 887.2031
701.8440, 903.4844
702.9990, 889.7500
704.1550, 879.9961
705.3100, 628.2266
706.4650, 520.4414
707.6190, 621.6328
708.7740, 499.8086
709.9290, 503.9648
711.0830, 734.0977
712.2370, 411.2148
713.3910, 238.3125
714.5450, 329.3906
715.6980, 107.4492
716.8520, 126.4844
718.0050, 187.4961
719.1580, 242.4922
720.3110, 111.4688
721.4640, 181.4180
722.6170, 126.3477
723.7700, 100.1523
724.9220, 102.1367
726.0740, 39.00000
727.2260, 15.16406
728.3780, 104.3789
729.5300, 16.69141
730.6810, 96.94531
731.8330, 224.4453
732.9840, 90.00781
734.1350, 139.5703
735.2860, 101.2617
736.4370, 219.9453
737.5880, 45.12500
738.7380, 130.2734
739.8880, 158.3945
741.0390, 194.4961
742.1890, 1.429688
743.3380, 49.35938
744.4880, 27.35938
745.6380, 108.5742
746.7870, 42.52344
747.9360, 164.3086
749.0850, 129.1094
750.2340, 70.89844
751.3830, 263.6523
752.5310, 251.3828
753.6800, 124.0820
754.8280, 64.24219
755.9760, 3.339844
757.1240, 3.132813
758.2720, 88.33594
759.4190, 201.7734
760.5670, 124.8164
761.7140, 234.4766
762.8610, 119.2695
764.0080, 121.1328
765.1550, 34.87891
766.3020, 29.14844
767.4480, 183.7383
768.5950, 164.6016
769.7410, 49.43750
770.8870, 144.7734
772.0330, 70.11719
773.1780, 15.56250
774.3240, 72.52734
775.4690, 9.152344
776.6140, 4.363281
777.7590, 62.89453
778.9040, 47.77734
780.0490, 65.09375
781.1940, 21.42969
782.3380, 80.51172
783.4820, 90.55859
784.6260, 99.56250
785.7700, 258.5352
786.9140, 51.52344
788.0580, 250.3281
789.2010, 22.85156
790.3450, 79.89453
791.4880, 74.40625
792.6310, 4.804688
793.7730, 82.27344
794.9160, 154.1523
796.0590, 246.5469
797.2010, 274.9180
798.3430, 337.2891
799.4850, 165.6484
800.6270, 159.9961
801.7690, 143.3164
802.9100, 88.60156
804.0520, 318.8438
805.1930, 75.05078
806.3340, 253.2188
807.4750, 212.3594
808.6160, 47.46484
809.7560, 67.52734
810.8970, 223.5430
812.0370, 25.53125
813.1770, 280.4688
814.3170, 65.63281
815.4570, 94.17188
816.5960, 267.9297
817.7360, 245.6641
818.8750, 372.3672
820.0140, 444.0391
821.1530, 408.6836
822.2920, 381.2891
823.4310, 501.8711
824.5690, 375.4180
825.7070, 568.9336
826.8460, 444.4180
827.9840, 543.8750
829.1220, 723.3008
830.2590, 660.6914
831.3970, 585.0547
832.5340, 511.3867
833.6710, 611.6836
834.8080, 756.9492
835.9450, 821.1875
837.0820, 713.3906
838.2190, 472.5664
839.3550, 620.7109
840.4910, 415.8203
841.6270, 640.9062
842.7630, 574.9570
843.8990, 914.9766
845.0350, 599.9648
846.1700, 679.9258
847.3060, 876.8555
848.4410, 595.7578
849.5760, 638.6289
850.7100, 871.4688
851.8450, 784.2812
852.9800, 793.0625
854.1140, 816.8125
855.2480, 828.5352
856.3820, 864.6172
857.5160, 1134.887
858.6500, 1017.520
859.7830, 1071.125
860.9170, 1312.695
862.0500, 1307.246
863.1830, 1468.578
864.3160, 1240.336
865.4480, 1288.402
866.5810, 1458.887
867.7130, 1422.293
868.8460, 1670.562
869.9780, 1880.914
871.1100, 1673.348
872.2410, 2161.105
873.3730, 2008.383
874.5050, 2012.430
875.6360, 2026.660
876.7670, 2440.867
877.8980, 2715.051
879.0290, 2742.867
880.1590, 2830.047
881.2900, 2749.891
882.4200, 2577.012
883.5500, 3031.766
884.6800, 2816.840
885.8100, 2542.996
886.9400, 2954.691
888.0690, 2583.750
889.1990, 2766.793
890.3280, 2913.812
891.4570, 2897.809
892.5860, 3338.973
893.7140, 3293.684
894.8430, 3389.371
895.9710, 3481.320
897.1000, 3805.238
898.2280, 3914.148
899.3560, 4143.305
900.4830, 4137.305
901.6110, 4634.473
902.7380, 4919.148
903.8660, 5470.969
904.9930, 5826.773
906.1200, 6559.211
907.2460, 6887.477
908.3730, 7140.395
909.5000, 8302.727
910.6260, 8401.445
911.7520, 8932.242
912.8780, 9270.180
914.0040, 9237.727
915.1290, 9260.871
916.2550, 8871.402
917.3800, 8389.621
918.5050, 8083.414
919.6300, 7569.352
920.7550, 7175.406
921.8800, 6565.055
923.0040, 6396.789
924.1290, 6384.414
925.2530, 5706.902
926.3770, 5818.500
927.5010, 5143.715
928.6250, 5076.281
929.7480, 4570.969
930.8720, 4545.379
931.9950, 4180.477
933.1180, 4125.426
934.2410, 3362.055
935.3640, 3044.582
936.4860, 2920.945
937.6090, 2746.188
938.7310, 2606.727
939.8530, 2076.219
940.9750, 1869.473
942.0970, 1755.953
943.2180, 1293.422
944.3400, 1519.008
945.4610, 1342.051
946.5820, 1221.492
947.7030, 1141.395
948.8240, 1153.848
949.9450, 1016.418
951.0650, 802.9180
952.1860, 1133.355
953.3060, 917.7930
954.4260, 1143.219
955.5460, 851.6484
956.6650, 1049.066
957.7850, 1073.480
958.9040, 994.8867
960.0230, 816.2891
961.1420, 945.6875
962.2610, 943.0781
963.3800, 722.4688
964.4990, 750.8477
965.6170, 783.2266
966.7350, 789.5977
967.8530, 774.9648
968.9710, 770.3281
970.0890, 631.6875
971.2070, 867.0469
972.3240, 1004.398
973.4410, 1005.766
974.5580, 943.1328
975.6750, 1327.508
976.7920, 1432.879
977.9090, 1725.242
979.0250, 1750.629
980.1410, 1858.008
981.2580, 2079.676
982.3740, 2406.051
983.4890, 2696.422
984.6050, 2664.797
985.7200, 2662.164
986.8360, 2343.523
987.9510, 2272.883
989.0660, 1686.242
990.1810, 1550.602
991.2950, 1334.961
992.4100, 1219.320
993.5240, 923.6797
994.6390, 687.0469
995.7530, 592.9805
996.8660, 406.6094
997.9800, 393.6797
999.0940, 312.1680
1000.207, 243.6953
1001.320, 457.2383
1002.433, 46.77734
1003.546, 39.38672
1004.659, 258.1250
1005.772, 21.85547
1006.884, 188.5430
1007.996, 15.76562
1009.108, 63.92969
1010.220, 210.6172
1011.332, 28.30469
1012.444, 222.0078
1013.555, 35.19141
1014.666, 445.2109
1015.777, 152.9883
1016.888, 56.63672
1017.999, 59.36719
1019.110, 72.89453
1020.220, 102.2969
1021.331, 323.9258
1022.441, 129.7031
1023.551, 406.4844
1024.661, 133.2617
1025.770, 405.0703
1026.880, 417.1875
1027.989, 191.8633
1029.098, 336.8438
1030.207, 357.6797
1031.316, 338.0820
1032.425, 535.9648
1033.533, 569.8945
1034.642, 565.8711
1035.750, 246.1133
1036.858, 597.1211
1037.966, 625.1289
1039.073, 791.1367
1040.181, 347.1484
1041.288, 655.2188
1042.396, 642.1484
1043.503, 956.2695
1044.610, 1026.422
1045.716, 777.5938
1046.823, 1023.777
1047.929, 515.9648
1049.036, 532.1602
1050.142, 672.3633
1051.248, 626.5703
1052.353, 629.0195
1053.459, 578.0078
1054.564, 565.4141
1055.670, 533.6328
1056.775, 547.8789
1057.880, 375.1211
1058.985, 369.3906
1060.089, 418.6602
1061.194, 49.96875
1062.298, 215.2891
1063.402, 180.6484
1064.506, 42.99219
1065.610, 136.6484
1066.713, 83.62500
1067.817, 83.85938
1068.920, 88.24219
1070.023, 160.4414
1071.126, 300.9414
1072.229, 481.1562
1073.332, 192.3555
1074.435, 171.5547
1075.537, 341.7578
1076.639, 412.9570
1077.741, 408.1680
1078.843, 697.3750
1079.945, 215.5898
1081.046, 412.3594
1082.148, 700.5781
1083.249, 501.2891
1084.350, 1140.539
1085.451, 1402.789
1086.551, 1504.742
1087.652, 1515.988
1088.752, 1806.453
1089.853, 1712.691
1090.953, 1911.930
1092.053, 2294.168
1093.152, 2452.398
1094.252, 2198.648
1095.351, 2041.871
1096.451, 1885.102
1097.550, 1363.391
1098.649, 1371.609
1099.748, 1200.824
1100.846, 694.0391
1101.945, 942.2539
1103.043, 539.4570
1104.141, 432.6641
1105.239, 465.9375
1106.337, 495.1367
1107.434, 390.8867
1108.532, 383.3828
1109.629, 230.2695
1110.726, 228.9844
1111.823, 165.1641
1112.920, 11.33984
1114.017, 533.5117
1115.113, 431.6758
1116.210, 332.8398
1117.306, 271.9961
1118.402, 276.1484
1119.498, 159.2969
1120.593, 436.5508
1121.689, 485.1562
1122.784, 568.5898
1123.879, 248.0781
1124.974, 219.5039
1126.069, 147.8203
1127.164, 259.8594
1128.259, 342.0430
1129.353, 19.35547
1130.447, 216.0703
1131.541, 156.5586
1132.635, 116.6680
1133.729, 174.0469
1134.822, 127.1289
1135.916, 88.19922
1137.009, 102.2656
1138.102, 158.3242
1139.195, 143.0117
1140.288, 157.4375
1141.380, 170.1992
1142.473, 129.2266
1143.565, 136.5000
1144.657, 64.94531
1145.749, 89.73438
1146.841, 84.30859
1147.932, 218.2305
1149.024, 101.5195
1150.115, 317.6797
1151.206, 24.35547
1152.297, 179.7617
1153.388, 219.1211
1154.479, 282.0391
1155.569, 197.8086
1156.659, 235.8398
1157.750, 73.64453
1158.839, 75.64062
1159.929, 112.0508
1161.019, 348.6836
1162.108, 35.30078
1163.198, 288.9023
1164.287, 182.4922
1165.376, 166.3516
1166.465, 86.91797
1167.553, 276.8164
1168.642, 356.3594
1169.730, 44.10938
1170.818, 207.3672
1171.906, 410.8320
1172.994, 72.71875
1174.082, 321.7188
1175.170, 312.0898
1176.257, 495.3164
1177.344, 513.9297
1178.431, 431.6133
1179.518, 414.3125
1180.605, 302.6211
1181.691, 210.9102
1182.778, 353.1914
1183.864, 275.4609
1184.950, 108.7148
1186.036, 450.9570
1187.122, 477.1875
1188.207, 213.4023
1189.292, 337.6055
1190.378, 394.7930
1191.463, 309.9688
1192.548, 452.1328
1193.632, 255.2812
1194.717, 293.4180
1195.801, 270.9961
1196.886, 285.7031
1197.970, 126.7031
1199.054, 116.6641
1200.137, 209.7344
1201.221, 69.78906
1202.305, 139.5078
1203.388, 340.8516
1204.471, 190.8711
1205.554, 232.8711
1206.637, 312.8633
1207.719, 458.8398
1208.802, 176.8008
1209.884, 352.7500
1210.966, 72.31250
1212.048, 358.5547
1213.130, 36.40625
1214.212, 373.2461
1215.293, 234.0703
1216.374, 25.87891
1217.456, 275.6680
1218.536, 90.44531
1219.617, 287.2031
1220.698, 418.9531
1221.778, 408.6875
1222.859, 251.4062
1223.939, 140.1094
1225.019, 412.7969
1226.099, 581.4805
1227.178, 127.1484
1228.258, 456.8008
1229.337, 346.4414
1230.417, 195.0625
1231.496, 207.6758
1232.574, 454.2734
1233.653, 356.8594
1234.732, 48.57031
1235.810, 263.9453
1236.888, 8.558594
1237.966, 230.9023
1239.044, 260.3477
1240.122, 40.21875
1241.199, 398.1641
1242.277, 507.5312
1243.354, 539.5938
1244.431, 575.8789
1245.508, 420.2656
1246.585, 319.5781
1247.661, 248.8789
1248.738, 151.5078
1249.814, 115.7031
1250.890, 32.70312
1251.966, 69.94531
1253.042, 54.17188
1254.117, 68.38672
1255.193, 20.41016
1256.268, 0.2460940
1257.343, 178.1094
1258.418, 5.046875
1259.493, 91.42578
1260.567, 41.48047
1261.642, 136.6875
1262.716, 69.56641
1263.790, 143.4297
1264.864, 585.2734
1265.938, 183.9883
1267.011, 272.7383
1268.085, 409.5547
1269.158, 151.3516
1270.231, 481.1445
1271.304, 319.9258
1272.377, 72.69141
1273.450, 21.44531
1274.522, 195.0195
1275.594, 101.0195
1276.666, 395.6523
1277.738, 35.40234
1278.810, 218.9219
1279.882, 10.67578
1280.953, 238.7852
1282.025, 191.5430
1283.096, 71.90625
1284.167, 104.3438
1285.238, 37.77734
1286.308, 90.19141
1287.379, 210.3008
1288.449, 88.85938
1289.519, 150.1094
1290.589, 338.4883
1291.659, 291.3398
1292.729, 367.7070
1293.798, 32.06250
1294.868, 365.4102
1295.937, 15.49219
1297.006, 234.8203
1298.075, 342.1328
1299.143, 237.4492
1300.212, 260.7578
1301.280, 244.0625
1302.348, 68.51953
1303.416, 453.8086
1304.484, 6.910156
1305.552, 200.3555
1306.620, 295.6211
1307.687, 90.87500
1308.754, 336.1250
1309.821, 495.3672
1310.888, 261.6055
1311.955, 206.8398
1313.021, 569.0703
1314.088, 580.1094
1315.154, 616.3242
1316.220, 412.5430
1317.286, 533.7578
1318.352, 429.9648
1319.417, 142.1758
1320.483, 320.3789
1321.548, 139.5859
1322.613, 491.8008
1323.678, 205.9961
1324.743, 479.1992
1325.807, 283.4219
1326.872, 427.5781
1327.936, 719.7227
1329.000, 570.9570
1330.064, 478.8867
1331.128, 395.0977
1332.191, 241.3125
1333.255, 334.5234
1334.318, 207.7266
1335.381, 362.9258
1336.444, 604.1172
1337.507, 438.3008
1338.569, 230.4766
1339.632, 531.1016
1340.694, 202.2656
1341.756, 414.9648
1342.818, 404.1211
1343.880, 475.2656
1344.941, 662.7031
1346.003, 275.8438
1347.064, 108.7539
1348.125, 309.8828
1349.186, 218.0078
1350.247, 234.1250
1351.308, 398.2383
1352.368, 456.3359
1353.428, 459.6211
1354.489, 514.5430
1355.549, 412.5742
1356.608, 327.6562
