##NAMES=Clinozoisite
##RRUFFID=R060284
##IDEAL CHEMISTRY=Ca_2_Al_3_(Si_2_O_7_)(SiO_4_)O(OH)
##LOCALITY=near Zagi Mountain, Khaffor Dehri, North-West Frontier Province, Pakistan
##OWNER=RRUFF
##SOURCE=Herb Obodda
##DESCRIPTION=Greenish-brown fragment of a prismatic crystal
##STATUS=The identification of this mineral has been confirmed by X-ray diffraction and chemical analysis
##URL=rruff.info/R060284
##MEASURED CHEMISTRY=Ca_2.00_(Al_0.90_Fe^3+^_0.10_)_3_(Si_1.00_O_4_)(Si_2.00_O_7_)O(OH)
##PIN_ID=L00766
##ORIENTATION=Laser parallel to b* (0 1 0). Fiducial mark perpendicular to laser is parallel to c [0 0 1]
118.1340, 0.0000000E+00
119.3650, 0.4414060
120.5960, 27.30615
121.8270, 48.47021
123.0580, 150.3745
124.2880, 531.9966
125.5190, 700.1182
126.7490, 1344.391
127.9790, 2017.589
129.2090, 2972.226
130.4390, 4262.793
131.6680, 5424.731
132.8980, 6513.158
134.1270, 7830.637
135.3560, 9148.558
136.5850, 10343.86
137.8140, 11667.82
139.0430, 12474.19
140.2710, 13098.58
141.5000, 13812.12
142.7280, 13583.58
143.9560, 13584.65
145.1840, 12962.05
146.4120, 12645.25
147.6390, 11986.60
148.8670, 11460.41
150.0940, 10772.91
151.3210, 10647.31
152.5490, 10539.91
153.7750, 10575.89
155.0020, 10921.36
156.2290, 11375.47
157.4550, 12045.22
158.6810, 12951.35
159.9080, 13944.36
161.1340, 15251.79
162.3590, 16710.81
163.5850, 17844.41
164.8110, 18784.38
166.0360, 19225.44
167.2610, 19396.32
168.4860, 19221.55
169.7110, 18768.83
170.9360, 17884.31
172.1610, 16609.35
173.3850, 14932.91
174.6100, 13456.99
175.8340, 11756.54
177.0580, 10095.55
178.2820, 8877.982
179.5050, 7501.789
180.7290, 6295.936
181.9520, 5437.404
183.1760, 4624.184
184.3990, 3546.083
185.6220, 3094.663
186.8450, 2575.989
188.0670, 2026.470
189.2900, 1761.107
190.5120, 1290.146
191.7340, 977.4824
192.9560, 708.4590
194.1780, 655.6934
195.4000, 468.0020
196.6220, 362.4209
197.8430, 164.9766
199.0640, 51.68457
200.2860, 61.55273
201.5070, 88.58789
202.7270, 57.79102
203.9480, 38.84082
205.1690, 127.3086
206.3890, 197.6221
207.6090, 212.7832
208.8290, 243.0791
210.0490, 178.6660
211.2690, 231.3926
212.4890, 218.9805
213.7080, 192.4346
214.9280, 235.4424
216.1470, 217.2441
217.3660, 245.1992
218.5850, 247.3027
219.8030, 172.3330
221.0220, 228.2852
222.2400, 126.8438
223.4590, 81.05566
224.6770, 297.3564
225.8950, 650.7461
227.1120, 881.2266
228.3300, 1256.801
229.5480, 1754.469
230.7650, 2316.233
231.9820, 2827.088
233.1990, 3601.026
234.4160, 4580.026
235.6330, 5443.925
236.8490, 6641.623
238.0660, 8002.145
239.2820, 9555.491
240.4980, 11408.67
241.7140, 13512.25
242.9300, 15958.52
244.1460, 18465.46
245.3610, 21321.53
246.5770, 24389.76
247.7920, 27493.13
249.0070, 30460.19
250.2220, 33400.66
251.4370, 35886.44
252.6510, 37549.84
253.8660, 38146.16
255.0800, 38267.21
256.2940, 37090.37
257.5080, 35545.67
258.7220, 33075.12
259.9360, 29996.71
261.1490, 26673.44
262.3630, 23416.57
263.5760, 20866.02
264.7890, 18631.54
266.0020, 16832.55
267.2150, 15254.48
268.4270, 13743.90
269.6400, 12559.19
270.8520, 11548.25
272.0640, 10524.94
273.2760, 9904.152
274.4880, 9076.822
275.7000, 8359.879
276.9120, 7740.267
278.1230, 7209.930
279.3340, 6793.824
280.5450, 6367.924
281.7560, 5938.207
282.9670, 5629.656
284.1780, 5315.258
285.3880, 5229.000
286.5980, 5019.857
287.8090, 5000.785
289.0190, 4970.774
290.2290, 4972.705
291.4380, 5058.672
292.6480, 5079.652
293.8570, 5217.659
295.0670, 5265.697
296.2760, 5212.773
297.4850, 5563.895
298.6930, 5270.062
299.9020, 5297.283
301.1110, 5108.556
302.3190, 4869.885
303.5270, 4542.270
304.7350, 4288.700
305.9430, 3926.179
307.1510, 3586.634
308.3580, 3274.825
309.5660, 3022.678
310.7730, 2836.247
311.9800, 2689.552
313.1870, 2666.579
314.3940, 2709.322
315.6010, 2643.859
316.8070, 2844.520
318.0130, 2989.303
319.2200, 3251.205
320.4260, 3480.227
321.6310, 3834.366
322.8370, 4098.622
324.0430, 4642.994
325.2480, 5213.475
326.4540, 5841.070
327.6590, 6648.777
328.8640, 7585.598
330.0680, 8454.522
331.2730, 9347.548
332.4780, 10303.67
333.6820, 11129.89
334.8860, 12343.20
336.0900, 13129.61
337.2940, 13998.11
338.4980, 15179.69
339.7010, 16433.37
340.9050, 17890.12
342.1080, 19910.97
343.3110, 22063.90
344.5140, 24397.52
345.7170, 26800.44
346.9200, 29088.63
348.1220, 31724.67
349.3240, 33486.75
350.5270, 34682.36
351.7290, 34958.26
352.9310, 33882.48
354.1320, 32086.18
355.3340, 29366.52
356.5350, 26204.10
357.7370, 22393.46
358.9380, 18705.41
360.1390, 15322.12
361.3400, 12398.92
362.5400, 9841.313
363.7410, 7888.699
364.9410, 6358.275
366.1410, 5053.920
367.3410, 3965.732
368.5410, 3180.634
369.7410, 2447.625
370.9400, 2026.705
372.1400, 1441.875
373.3390, 1012.134
374.5380, 559.4824
375.7370, 187.9189
376.9360, 38.91504
378.1350, 247.2988
379.3330, 302.3369
380.5310, 381.7002
381.7300, 316.0674
382.9280, 197.4209
384.1260, 391.7324
385.3230, 333.0449
386.5210, 104.3428
387.7180, 35.42480
388.9160, 138.2832
390.1130, 311.2393
391.3100, 322.2920
392.5060, 399.4404
393.7030, 514.5918
394.9000, 488.6514
396.0960, 463.6670
397.2920, 494.5879
398.4880, 408.5693
399.6840, 333.0312
400.8800, 126.8320
402.0750, 64.11035
403.2710, 127.5137
404.4660, 358.0723
405.6610, 359.6191
406.8560, 465.2725
408.0510, 427.1289
409.2450, 413.0635
410.4400, 315.4160
411.6340, 124.1045
412.8280, 46.90820
414.0220, 298.0225
415.2160, 646.2344
416.4100, 1157.544
417.6030, 1707.948
418.7970, 2303.444
419.9900, 3021.029
421.1830, 3708.706
422.3760, 4493.469
423.5690, 5225.320
424.7610, 5903.260
425.9540, 6702.283
427.1460, 7301.223
428.3380, 7912.334
429.5300, 8510.864
430.7220, 9015.226
431.9140, 9563.673
433.1050, 10105.20
434.2970, 11017.82
435.4880, 11726.52
436.6790, 12811.31
437.8700, 14507.18
439.0610, 16272.14
440.2510, 18949.18
441.4420, 21670.32
442.6320, 25272.55
443.8220, 29238.87
445.0120, 33171.29
446.2020, 37775.83
447.3910, 41604.50
448.5810, 45382.27
449.7700, 48442.15
450.9600, 50714.14
452.1490, 51219.23
453.3370, 50762.47
454.5260, 48805.86
455.7150, 46375.36
456.9030, 42610.98
458.0910, 38637.72
459.2800, 34542.58
460.4670, 30440.55
461.6550, 27156.67
462.8430, 24460.94
464.0300, 22105.33
465.2180, 20417.88
466.4050, 19268.58
467.5920, 18365.43
468.7790, 17668.58
469.9650, 17621.59
471.1520, 17209.90
472.3380, 17177.37
473.5250, 17574.97
474.7110, 17652.74
475.8970, 17762.66
477.0820, 17798.73
478.2680, 18326.94
479.4540, 18816.29
480.6390, 19139.78
481.8240, 19468.39
483.0090, 19425.13
484.1940, 19336.98
485.3780, 19001.97
486.5630, 18513.12
487.7470, 17464.40
488.9320, 16410.80
490.1160, 15190.35
491.3000, 13863.45
492.4830, 12984.35
493.6670, 11951.31
494.8500, 10782.18
496.0340, 10072.50
497.2170, 9479.341
498.4000, 9189.471
499.5820, 8961.938
500.7650, 9082.055
501.9480, 8990.228
503.1300, 9470.558
504.3120, 9856.042
505.4940, 10175.69
506.6760, 10627.48
507.8580, 11171.20
509.0390, 11691.50
510.2210, 12434.70
511.4020, 13112.98
512.5830, 13891.33
513.7640, 14856.80
514.9450, 15404.34
516.1250, 16107.97
517.3060, 16673.68
518.4860, 17219.46
519.6660, 17509.14
520.8460, 17936.57
522.0260, 17594.12
523.2060, 17258.47
524.3850, 17052.50
525.5650, 17068.91
526.7440, 16741.05
527.9230, 16358.50
529.1020, 15354.91
530.2810, 14542.44
531.4590, 13262.04
532.6380, 11508.70
533.8160, 10135.44
534.9940, 8462.235
536.1720, 6772.104
537.3500, 5421.039
538.5270, 4301.041
539.7050, 3523.108
540.8820, 2822.244
542.0590, 2274.444
543.2360, 1926.711
544.4130, 1734.041
545.5900, 1667.850
546.7660, 1472.852
547.9430, 1387.892
549.1190, 1482.312
550.2950, 1391.941
551.4710, 1587.478
552.6470, 1936.471
553.8220, 2034.312
554.9980, 2467.227
556.1730, 3173.207
557.3480, 3649.251
558.5230, 4664.359
559.6980, 5534.529
560.8730, 7232.764
562.0470, 8732.062
563.2220, 11221.41
564.3960, 13431.83
565.5700, 16084.31
566.7440, 18738.85
567.9170, 21513.44
569.0910, 24104.09
570.2640, 25754.80
571.4380, 26197.56
572.6110, 24976.39
573.7840, 22851.26
574.9570, 19317.19
576.1290, 15902.17
577.3020, 11997.21
578.4740, 8976.297
579.6460, 6614.689
580.8180, 5236.742
581.9900, 3971.810
583.1620, 3323.079
584.3330, 2982.614
585.5040, 2813.127
586.6760, 2764.033
587.8470, 2598.352
589.0180, 2947.679
590.1880, 3183.158
591.3590, 3432.359
592.5290, 3590.406
593.7000, 3891.588
594.8700, 4034.828
596.0400, 4770.585
597.2090, 5070.227
598.3790, 5433.688
599.5490, 6070.531
600.7180, 6472.175
601.8870, 6811.379
603.0560, 7043.558
604.2250, 7123.242
605.3940, 7175.992
606.5620, 6915.348
607.7300, 6644.131
608.8990, 6099.980
610.0670, 5404.885
611.2350, 4685.559
612.4020, 4012.012
613.5700, 3398.846
614.7370, 2967.926
615.9050, 2479.656
617.0720, 2069.748
618.2390, 1750.553
619.4060, 1373.062
620.5720, 1133.778
621.7390, 917.1123
622.9050, 600.3457
624.0710, 544.0449
625.2370, 350.0303
626.4030, 378.8994
627.5690, 269.6123
628.7340, 124.0996
629.9000, 87.92773
631.0650, 26.00684
632.2300, 2.573242
633.3950, 84.95801
634.5600, 162.8848
635.7240, 147.6680
636.8890, 133.2354
638.0530, 66.28125
639.2170, 69.64160
640.3810, 123.1045
641.5450, 12.43164
642.7080, 149.7881
643.8720, 112.8711
645.0350, 210.3389
646.1980, 391.9541
647.3610, 572.2607
648.5240, 833.7432
649.6870, 1047.582
650.8490, 1316.072
652.0120, 1531.401
653.1740, 1751.034
654.3360, 1993.524
655.4980, 2086.209
656.6600, 2150.479
657.8210, 2052.939
658.9830, 2228.016
660.1440, 1875.153
661.3050, 1839.056
662.4660, 1780.926
663.6270, 1503.715
664.7870, 1438.122
665.9480, 1411.998
667.1080, 1071.312
668.2680, 988.5469
669.4280, 934.8350
670.5880, 1050.994
671.7480, 916.4570
672.9070, 918.1719
674.0670, 876.5430
675.2260, 949.8672
676.3850, 958.8896
677.5440, 1014.094
678.7030, 1069.550
679.8610, 1191.678
681.0200, 1303.756
682.1780, 1487.783
683.3360, 1477.759
684.4940, 1824.682
685.6520, 1662.584
686.8090, 1890.519
687.9670, 1799.481
689.1240, 1864.499
690.2810, 1917.560
691.4380, 1882.659
692.5950, 2028.774
693.7520, 2011.864
694.9080, 2148.896
696.0650, 2069.867
697.2210, 2371.779
698.3770, 2331.631
699.5330, 2385.422
700.6880, 2246.150
701.8440, 2184.817
702.9990, 2185.422
704.1550, 2001.962
705.3100, 1824.437
706.4650, 1687.848
707.6190, 1392.193
708.7740, 1244.472
709.9290, 1087.685
711.0830, 899.8291
712.2370, 741.9072
713.3910, 521.9150
714.5450, 420.3994
715.6980, 265.7256
716.8520, 226.5264
718.0050, 130.2549
719.1580, 78.90918
720.3110, 86.48242
721.4640, 78.97363
722.6170, 25.38086
723.7700, 8.690430
724.9220, 11.10840
726.0740, 79.02734
727.2260, 29.10352
728.3780, 19.68945
729.5300, 22.62402
730.6810, 2.070313
731.8330, 113.6377
732.9840, 144.3867
734.1350, 8.666016
735.2860, 35.39941
736.4370, 42.39160
737.5880, 34.92383
738.7380, 18.61523
739.8880, 84.96387
741.0390, 130.7158
742.1890, 6.333008
743.3380, 168.7441
744.4880, 129.0430
745.6380, 118.5410
746.7870, 150.2344
747.9360, 102.1416
749.0850, 129.2363
750.2340, 172.5342
751.3830, 82.05762
752.5310, 180.7617
753.6800, 126.6973
754.8280, 115.8369
755.9760, 126.6611
757.1240, 57.71777
758.2720, 108.4287
759.4190, 22.33594
760.5670, 36.39258
761.7140, 43.60938
762.8610, 47.98730
764.0080, 173.5303
765.1550, 107.3037
766.3020, 7.726563
767.4480, 109.3779
768.5950, 33.67969
769.7410, 58.57031
770.8870, 21.72070
772.0330, 35.03906
773.1780, 12.68164
774.3240, 4.747070
775.4690, 1.289063
776.6140, 46.10156
777.7590, 30.72363
778.9040, 2.961914
780.0490, 32.73340
781.1940, 22.37012
782.3380, 43.35938
783.4820, 180.2383
784.6260, 47.02832
785.7700, 7.289063
786.9140, 33.73633
788.0580, 105.6758
789.2010, 95.99023
790.3450, 45.79395
791.4880, 166.2754
792.6310, 17.25391
793.7730, 86.11914
794.9160, 154.8857
796.0590, 93.56152
797.2010, 86.14062
798.3430, 38.62402
799.4850, 227.0020
800.6270, 258.2939
801.7690, 166.5039
802.9100, 247.6211
804.0520, 182.6543
805.1930, 195.5986
806.3340, 186.4551
807.4750, 195.6035
808.6160, 346.9043
809.7560, 267.5039
810.8970, 411.0205
812.0370, 497.4561
813.1770, 443.8115
814.3170, 445.0859
815.4570, 489.2822
816.5960, 503.3994
817.7360, 702.4375
818.8750, 676.3965
820.0140, 738.2783
821.1530, 732.0801
822.2920, 783.8066
823.4310, 774.4541
824.5690, 1057.024
825.7070, 1062.517
826.8460, 1225.932
827.9840, 1167.269
829.1220, 1256.527
830.2590, 1311.709
831.3970, 1387.812
832.5340, 1413.838
833.6710, 1559.787
834.8080, 1732.658
835.9450, 1568.455
837.0820, 1681.175
838.2190, 1810.819
839.3550, 1975.389
840.4910, 2078.885
841.6270, 2265.826
842.7630, 2436.453
843.8990, 2615.928
845.0350, 2785.129
846.1700, 2943.258
847.3060, 3203.435
848.4410, 3317.301
849.5760, 3721.214
850.7100, 3956.059
851.8450, 4189.831
852.9800, 4757.533
854.1140, 4906.168
855.2480, 5396.480
856.3820, 5955.111
857.5160, 6248.712
858.6500, 6811.092
859.7830, 7193.188
860.9170, 7641.288
862.0500, 8095.975
863.1830, 8811.232
864.3160, 9228.461
865.4480, 9746.516
866.5810, 10658.83
867.7130, 11468.28
868.8460, 12512.57
869.9780, 13548.79
871.1100, 14807.47
872.2410, 16093.24
873.3730, 17432.17
874.5050, 19180.70
875.6360, 20373.40
876.7670, 21845.53
877.8980, 22594.65
879.0290, 23123.27
880.1590, 23559.80
881.2900, 22944.71
882.4200, 22204.17
883.5500, 20965.54
884.6800, 19152.83
885.8100, 17604.35
886.9400, 15630.06
888.0690, 14184.38
889.1990, 12676.44
890.3280, 11346.81
891.4570, 10014.80
892.5860, 9343.053
893.7140, 8459.578
894.8430, 7937.874
895.9710, 7632.538
897.1000, 7266.290
898.2280, 7090.172
899.3560, 6944.706
900.4830, 6982.573
901.6110, 6898.762
902.7380, 7120.148
903.8660, 7336.184
904.9930, 7610.954
906.1200, 8068.178
907.2460, 8469.351
908.3730, 9067.165
909.5000, 9453.645
910.6260, 9850.859
911.7520, 10089.51
912.8780, 10205.43
914.0040, 10163.42
915.1290, 9907.354
916.2550, 9371.445
917.3800, 8601.786
918.5050, 8071.709
919.6300, 7314.453
920.7550, 6530.471
921.8800, 5916.288
923.0040, 5176.474
924.1290, 4825.458
925.2530, 4342.336
926.3770, 3683.873
927.5010, 3523.520
928.6250, 3093.938
929.7480, 2788.731
930.8720, 2697.303
931.9950, 2318.220
933.1180, 2199.058
934.2410, 1983.166
935.3640, 1679.348
936.4860, 1720.668
937.6090, 1629.411
938.7310, 1375.702
939.8530, 1292.611
940.9750, 1279.646
942.0970, 1120.623
943.2180, 894.6953
944.3400, 753.4248
945.4610, 759.8672
946.5820, 727.6143
947.7030, 606.3721
948.8240, 542.1436
949.9450, 521.3154
951.0650, 546.7432
952.1860, 495.5635
953.3060, 448.3955
954.4260, 449.2393
955.5460, 428.2666
956.6650, 453.9678
957.7850, 457.8613
958.9040, 541.7705
960.0230, 620.6934
961.1420, 698.5420
962.2610, 767.5879
963.3800, 848.5859
964.4990, 857.6055
965.6170, 889.6426
966.7350, 990.6992
967.8530, 1072.777
968.9710, 1244.872
970.0890, 1457.192
971.2070, 1687.396
972.3240, 2006.339
973.4410, 2337.545
974.5580, 2698.779
975.6750, 3213.037
976.7920, 3622.319
977.9090, 4379.627
979.0250, 5103.965
980.1410, 6026.328
981.2580, 6749.717
982.3740, 7635.134
983.4890, 7932.574
984.6050, 8410.042
985.7200, 8246.535
986.8360, 7972.082
987.9510, 7460.666
989.0660, 6523.276
990.1810, 6006.928
991.2950, 5198.625
992.4100, 4335.365
993.5240, 3626.155
994.6390, 3026.000
995.7530, 2493.424
996.8660, 2112.834
997.9800, 1748.866
999.0940, 1596.959
1000.207, 1445.103
1001.320, 1342.306
1002.433, 1136.580
1003.546, 891.9404
1004.659, 595.3945
1005.772, 711.9043
1006.884, 470.4805
1007.996, 441.1055
1009.108, 295.7998
1010.220, 186.5488
1011.332, 207.5283
1012.444, 122.4746
1013.555, 2.480469
1014.666, 86.10645
1015.777, 154.3164
1016.888, 50.31250
1017.999, 157.1357
1019.110, 199.4648
1020.220, 227.7559
1021.331, 285.4893
1022.441, 396.8555
1023.551, 413.7891
1024.661, 520.8232
1025.770, 504.9551
1026.880, 567.7021
1027.989, 528.9072
1029.098, 671.1270
1030.207, 657.1094
1031.316, 738.2842
1032.425, 781.0361
1033.533, 839.9785
1034.642, 937.8223
1035.750, 971.0908
1036.858, 1007.760
1037.966, 1163.893
1039.073, 1158.252
1040.181, 1391.907
1041.288, 1497.002
1042.396, 1604.430
1043.503, 1644.002
1044.610, 1740.884
1045.716, 1824.566
1046.823, 2017.835
1047.929, 1770.665
1049.036, 1943.722
1050.142, 1821.426
1051.248, 1973.593
1052.353, 1858.665
1053.459, 1708.782
1054.564, 1722.021
1055.670, 1660.251
1056.775, 1522.068
1057.880, 1653.122
1058.985, 1783.516
1060.089, 1789.983
1061.194, 1805.494
1062.298, 2066.061
1063.402, 1973.675
1064.506, 1865.334
1065.610, 2178.041
1066.713, 2271.373
1067.817, 2384.178
1068.920, 2413.022
1070.023, 2572.909
1071.126, 2535.838
1072.229, 2571.808
1073.332, 2480.819
1074.435, 2580.874
1075.537, 2773.971
1076.639, 2891.108
1077.741, 3110.285
1078.843, 3159.501
1079.945, 3576.127
1081.046, 3832.893
1082.148, 4260.354
1083.249, 4590.877
1084.350, 5148.284
1085.451, 5466.729
1086.551, 6096.211
1087.652, 6966.730
1088.752, 7884.287
1089.853, 8429.722
1090.953, 9230.354
1092.053, 9611.022
1093.152, 9806.724
1094.252, 9370.467
1095.351, 8997.061
1096.451, 8024.736
1097.550, 6915.592
1098.649, 5679.862
1099.748, 4634.791
1100.846, 3758.751
1101.945, 3080.638
1103.043, 2556.677
1104.141, 2247.744
1105.239, 2093.232
1106.337, 1942.272
1107.434, 1781.704
1108.532, 1677.350
1109.629, 1576.980
1110.726, 1430.280
1111.823, 1335.006
1112.920, 1286.418
1114.017, 1092.230
1115.113, 1044.431
1116.210, 819.8643
1117.306, 992.3311
1118.402, 1044.142
1119.498, 1062.961
1120.593, 943.5215
1121.689, 981.7061
1122.784, 903.8525
1123.879, 788.1113
1124.974, 703.0469
1126.069, 671.6758
1127.164, 605.4170
1128.259, 434.4551
1129.353, 271.2598
1130.447, 383.9863
1131.541, 100.8389
1132.635, 136.7188
1133.729, 91.89258
1134.822, 168.0781
1135.916, 133.8154
1137.009, 125.0176
1138.102, 102.0254
1139.195, 46.12305
1140.288, 21.17871
1141.380, 23.29590
1142.473, 54.83984
1143.565, 18.56934
1144.657, 36.21875
1145.749, 141.6543
1146.841, 65.48242
1147.932, 36.35840
1149.024, 59.86035
1150.115, 70.60254
1151.206, 92.55176
1152.297, 14.62695
1153.388, 60.74512
1154.479, 5.560547
1155.569, 60.79395
1156.659, 62.12988
1157.750, 14.63477
1158.839, 45.38574
1159.929, 88.10156
1161.019, 79.63184
1162.108, 26.40332
1163.198, 92.42090
1164.287, 44.20312
1165.376, 81.01465
1166.465, 13.92578
1167.553, 99.08594
1168.642, 8.317383
1169.730, 5.461914
1170.818, 13.03125
1171.906, 74.79980
1172.994, 31.29688
1174.082, 30.47559
1175.170, 36.25781
1176.257, 36.04395
1177.344, 40.70215
1178.431, 27.50391
1179.518, 54.28320
1180.605, 19.08691
1181.691, 0.8964840
1182.778, 31.91504
1183.864, 45.05273
1184.950, 47.68945
1186.036, 56.49316
1187.122, 9.323242
1188.207, 37.14453
1189.292, 33.01855
1190.378, 63.18359
1191.463, 60.34961
1192.548, 90.74316
1193.632, 85.90723
1194.717, 69.07031
1195.801, 100.2324
1196.886, 27.60645
1197.970, 81.53711
1199.054, 152.6797
1200.137, 41.83691
1201.221, 60.97461
1202.305, 248.1084
1203.388, 101.2393
1204.471, 81.36621
1205.554, 21.48926
1206.637, 181.6084
1207.719, 69.72363
1208.802, 71.83398
1209.884, 8.937500
1210.966, 7.182617
1212.048, 25.73438
1213.130, 5.675781
1214.212, 129.4590
1215.293, 57.49414
1216.374, 90.59473
1217.456, 72.61621
1218.536, 66.63086
1219.617, 13.36230
1220.698, 37.61914
1221.778, 138.5928
1222.859, 193.5586
1223.939, 53.79590
1225.019, 73.25488
1226.099, 11.39746
1227.178, 103.8955
1228.258, 26.75488
1229.337, 87.60156
1230.417, 58.43652
1231.496, 16.26270
1232.574, 51.93066
1233.653, 91.82129
1234.732, 33.56152
1235.810, 20.28613
1236.888, 40.99023
1237.966, 35.70508
1239.044, 38.66016
1240.122, 22.08496
1241.199, 40.44629
1242.277, 57.38477
1243.354, 53.01270
1244.431, 60.74707
1245.508, 106.3623
1246.585, 70.96484
1247.661, 41.44824
1248.738, 8.080078
1249.814, 137.5732
1250.890, 5.052734
1251.966, 26.49316
1253.042, 6.905273
1254.117, 2.719727
1255.193, 3.608398
1256.268, 131.8955
1257.343, 67.16602
1258.418, 85.41699
1259.493, 7.773438
1260.567, 90.96582
1261.642, 155.1416
1262.716, 4.300781
1263.790, 77.49512
1264.864, 143.5879
1265.938, 187.6670
1267.011, 191.5547
1268.085, 92.76367
1269.158, 132.7832
1270.231, 97.78711
1271.304, 2.769531
1272.377, 87.60352
1273.450, 80.51367
1274.522, 142.3994
1275.594, 203.7559
1276.666, 140.6045
1277.738, 54.74219
1278.810, 2.871094
1279.882, 85.06445
1280.953, 81.11523
1282.025, 83.84180
1283.096, 98.94238
1284.167, 106.5957
1285.238, 102.2334
1286.308, 136.8438
1287.379, 124.3008
1288.449, 37.72754
1289.519, 58.45605
1290.589, 168.4688
