##NAMES=Clinoptilolite-Ca
##RRUFFID=R060662
##IDEAL CHEMISTRY=Ca_3_(Si_30_Al_6_)O_72_&#183;20H_2_O
##LOCALITY=Succor Creek, Malheur County, Oregon, USA
##OWNER=RRUFF
##SOURCE=Michael Scott
##DESCRIPTION=Group of colorless platy prismatic crystals
##STATUS=The identification of this mineral has been confirmed by X-ray diffraction and chemical analysis
##URL=rruff.info/R060662
##MEASURED CHEMISTRY=(Ca_1.02_Na_0.97_K_0.59_)_Σ=2.58_(Si_14.40_Al_3.60_)_Σ=18_O_36_·10.96H_2_O
##PIN_ID=M00063
##ORIENTATION=Laser parallel to -a* (-1 0 0). Fiducial mark perpendicular to laser is parallel to b [0 1 0]
134.1270, 0.0000000E+00
135.3560, 233.9414
136.5850, 18.41406
137.8140, 372.1875
139.0430, 754.1445
140.2710, 901.3906
141.5000, 1092.207
142.7280, 1407.996
143.9560, 1655.309
145.1840, 2078.691
146.4120, 2378.215
147.6390, 3035.355
148.8670, 3646.051
150.0940, 4262.789
151.3210, 4320.828
152.5490, 4955.234
153.7750, 5073.746
155.0020, 5523.633
156.2290, 5326.773
157.4550, 5039.633
158.6810, 5174.793
159.9080, 4697.457
161.1340, 4616.246
162.3590, 4523.957
163.5850, 4191.996
164.8110, 3677.516
166.0360, 2855.195
167.2610, 2527.482
168.4860, 1979.525
169.7110, 1921.822
170.9360, 1401.723
172.1610, 1000.594
173.3850, 1087.447
174.6100, 919.2988
175.8340, 1312.625
177.0580, 1633.975
178.2820, 1871.691
179.5050, 2690.213
180.7290, 3597.693
181.9520, 4222.430
183.1760, 5417.434
184.3990, 6223.461
185.6220, 7222.514
186.8450, 7820.783
188.0670, 8527.699
189.2900, 9180.742
190.5120, 9544.121
191.7340, 10087.66
192.9560, 10469.94
194.1780, 10447.48
195.4000, 10580.72
196.6220, 10460.75
197.8430, 10386.38
199.0640, 10184.90
200.2860, 9742.559
201.5070, 9197.363
202.7270, 8548.584
203.9480, 7744.666
205.1690, 6805.625
206.3890, 5931.482
207.6090, 5505.662
208.8290, 4567.408
210.0490, 4026.658
211.2690, 3601.322
212.4890, 2877.297
213.7080, 2586.469
214.9280, 1924.730
216.1470, 1481.975
217.3660, 1219.100
218.5850, 1064.998
219.8030, 547.6094
221.0220, 166.2402
222.2400, 112.1934
223.4590, 57.96875
224.6770, 248.1055
225.8950, 374.6641
227.1120, 463.0039
228.3300, 558.0391
229.5480, 584.4961
230.7650, 646.7285
231.9820, 476.0508
233.1990, 457.5664
234.4160, 447.3379
235.6330, 263.3965
236.8490, 271.7441
238.0660, 276.3887
239.2820, 80.32031
240.4980, 219.4707
241.7140, 362.9863
242.9300, 573.1484
244.1460, 712.2383
245.3610, 881.9785
246.5770, 1016.396
247.7920, 1076.410
249.0070, 1269.877
250.2220, 1398.230
251.4370, 1656.428
252.6510, 1778.859
253.8660, 2073.719
255.0800, 2399.861
256.2940, 2428.316
257.5080, 3204.295
258.7220, 3602.023
259.9360, 3430.680
261.1490, 3280.729
262.3630, 3035.410
263.5760, 3438.875
264.7890, 3512.197
266.0020, 3739.436
267.2150, 3910.756
268.4270, 4024.262
269.6400, 4184.961
270.8520, 4264.080
272.0640, 4383.951
273.2760, 4433.215
274.4880, 4749.684
275.7000, 4904.389
276.9120, 5015.162
278.1230, 4898.006
279.3340, 5009.951
280.5450, 5047.355
281.7560, 4754.516
282.9670, 4878.703
284.1780, 4766.910
285.3880, 4643.318
286.5980, 4769.969
287.8090, 4494.543
289.0190, 4116.355
290.2290, 4144.332
291.4380, 4167.410
292.6480, 4227.543
293.8570, 4094.686
295.0670, 3886.801
296.2760, 3914.883
297.4850, 3723.949
298.6930, 3943.949
299.9020, 3995.738
301.1110, 4014.336
302.3190, 3818.809
303.5270, 3745.191
304.7350, 3693.373
305.9430, 3671.283
307.1510, 3378.916
308.3580, 3566.324
309.5660, 3783.586
310.7730, 3507.773
311.9800, 3430.957
313.1870, 3613.211
314.3940, 3414.594
315.6010, 3416.168
316.8070, 3754.783
318.0130, 4087.689
319.2200, 3929.875
320.4260, 3980.172
321.6310, 4190.691
322.8370, 4393.852
324.0430, 4247.217
325.2480, 4410.859
326.4540, 4652.818
327.6590, 4583.365
328.8640, 4707.646
330.0680, 4704.943
331.2730, 4886.641
332.4780, 4671.945
333.6820, 5018.473
334.8860, 4828.426
336.0900, 4705.930
337.2940, 5026.059
338.4980, 5082.895
339.7010, 5082.512
340.9050, 5122.965
342.1080, 5495.344
343.3110, 5399.650
344.5140, 5519.879
345.7170, 5911.068
346.9200, 6039.225
348.1220, 5938.350
349.3240, 6193.441
350.5270, 6349.506
351.7290, 6605.539
352.9310, 6862.539
354.1320, 7183.498
355.3340, 7631.814
356.5350, 8030.381
357.7370, 8348.930
358.9380, 8683.270
360.1390, 8944.277
361.3400, 9462.639
362.5400, 9746.100
363.7410, 10114.73
364.9410, 10705.89
366.1410, 11154.14
367.3410, 11445.02
368.5410, 11881.17
369.7410, 12328.27
370.9400, 12771.55
372.1400, 13200.50
373.3390, 13911.11
374.5380, 14049.73
375.7370, 14510.14
376.9360, 15302.42
378.1350, 15542.15
379.3330, 16351.62
380.5310, 17107.25
381.7300, 17587.19
382.9280, 18585.20
384.1260, 19337.69
385.3230, 20350.37
386.5210, 21657.19
387.7180, 22778.87
388.9160, 24373.57
390.1130, 25392.20
391.3100, 27025.13
392.5060, 28614.51
393.7030, 30352.02
394.9000, 32093.52
396.0960, 33202.48
397.2920, 35019.66
398.4880, 36064.29
399.6840, 37232.70
400.8800, 38096.21
402.0750, 38650.97
403.2710, 38902.94
404.4660, 38836.72
405.6610, 38513.75
406.8560, 37916.53
408.0510, 36926.86
409.2450, 35592.03
410.4400, 34241.32
411.6340, 32665.32
412.8280, 30891.08
414.0220, 29654.67
415.2160, 27567.01
416.4100, 26009.60
417.6030, 24406.17
418.7970, 22866.95
419.9900, 21298.10
421.1830, 19621.12
422.3760, 18291.20
423.5690, 16819.42
424.7610, 15551.59
425.9540, 14087.67
427.1460, 13157.37
428.3380, 12074.69
429.5300, 11180.88
430.7220, 10319.63
431.9140, 9536.531
433.1050, 8842.387
434.2970, 8233.918
435.4880, 7653.770
436.6790, 7196.832
437.8700, 6781.793
439.0610, 6440.877
440.2510, 6146.627
441.4420, 5871.445
442.6320, 5697.254
443.8220, 5627.881
445.0120, 5438.699
446.2020, 5426.520
447.3910, 5686.152
448.5810, 5849.578
449.7700, 6200.715
450.9600, 6514.447
452.1490, 6848.783
453.3370, 7340.531
454.5260, 7842.289
455.7150, 8390.570
456.9030, 9060.459
458.0910, 9878.375
459.2800, 10612.15
460.4670, 11306.99
461.6550, 12244.70
462.8430, 12871.29
464.0300, 13396.75
465.2180, 13802.10
466.4050, 14499.33
467.5920, 14873.46
468.7790, 15513.47
469.9650, 16083.39
471.1520, 17077.20
472.3380, 17921.94
473.5250, 18858.59
474.7110, 20186.18
475.8970, 21271.70
477.0820, 22428.16
478.2680, 23361.56
479.4540, 24587.91
480.6390, 24860.21
481.8240, 25101.44
483.0090, 24769.62
484.1940, 24049.76
485.3780, 23081.82
486.5630, 21150.85
487.7470, 19239.82
488.9320, 17576.74
490.1160, 15452.60
491.3000, 13256.41
492.4830, 11694.17
493.6670, 9988.867
494.8500, 8345.516
496.0340, 7273.113
497.2170, 6040.652
498.4000, 5273.146
499.5820, 4483.598
500.7650, 3759.021
501.9480, 3073.424
503.1300, 2830.822
504.3120, 2429.229
505.4940, 2067.656
506.6760, 1855.113
507.8580, 1523.633
509.0390, 1339.139
510.2210, 974.3691
511.4020, 1059.176
512.5830, 843.3613
513.7640, 847.7793
514.9450, 753.8125
516.1250, 404.2324
517.3060, 294.2012
518.4860, 546.0312
519.6660, 289.9746
520.8460, 321.3223
522.0260, 702.8340
523.2060, 321.0449
524.3850, 48.37500
525.5650, 302.7422
526.7440, 43.08203
527.9230, 14.97461
529.1020, 125.3906
530.2810, 42.30859
531.4590, 61.04492
532.6380, 76.18945
533.8160, 32.14844
534.9940, 143.8203
536.1720, 66.59961
537.3500, 8.068359
538.5270, 301.7852
539.7050, 66.47070
540.8820, 383.4082
542.0590, 121.1797
543.2360, 224.7266
544.4130, 190.5703
545.5900, 90.35352
546.7660, 231.5723
547.9430, 225.9766
549.1190, 221.5469
550.2950, 57.99414
551.4710, 107.5098
552.6470, 100.5137
553.8220, 307.9180
554.9980, 235.5430
556.1730, 147.8066
557.3480, 42.62695
558.5230, 556.8340
559.6980, 15.18750
560.8730, 64.18555
562.0470, 21.91211
563.2220, 144.8906
564.3960, 110.0801
565.5700, 171.2539
566.7440, 16.60156
567.9170, 45.85352
569.0910, 10.66992
570.2640, 13.36914
571.4380, 8.326172
572.6110, 5.142578
573.7840, 166.0801
574.9570, 12.21680
576.1290, 291.5137
577.3020, 181.2129
578.4740, 147.7988
579.6460, 299.7520
580.8180, 323.6602
581.9900, 489.4082
583.1620, 676.8398
584.3330, 665.5938
585.5040, 567.3027
586.6760, 781.8555
587.8470, 826.6504
589.0180, 1051.221
590.1880, 1037.938
591.3590, 1202.588
592.5290, 1118.719
593.7000, 1149.520
594.8700, 1526.438
596.0400, 1576.186
597.2090, 1714.867
598.3790, 2057.590
599.5490, 2099.945
600.7180, 2500.771
601.8870, 2722.457
603.0560, 3083.270
604.2250, 3247.859
605.3940, 3481.254
606.5620, 3722.621
607.7300, 3924.309
608.8990, 4106.723
610.0670, 4458.102
611.2350, 4677.451
612.4020, 4813.789
613.5700, 4837.082
614.7370, 4949.381
615.9050, 4977.631
617.0720, 4756.859
618.2390, 4608.041
619.4060, 4528.174
620.5720, 4287.262
621.7390, 4112.881
622.9050, 3840.365
624.0710, 3662.379
625.2370, 3370.344
626.4030, 3129.270
627.5690, 2782.207
628.7340, 2456.094
629.9000, 2324.951
631.0650, 2336.754
632.2300, 1901.510
633.3950, 1765.213
634.5600, 1770.885
635.7240, 1561.514
636.8890, 1376.098
638.0530, 1380.635
639.2170, 1073.117
640.3810, 1166.547
641.5450, 906.9277
642.7080, 1007.275
643.8720, 869.5977
645.0350, 851.8750
646.1980, 772.1211
647.3610, 688.3203
648.5240, 750.4844
649.6870, 509.6016
650.8490, 377.0820
652.0120, 590.8906
653.1740, 579.7812
654.3360, 485.6641
655.4980, 457.1445
656.6600, 390.1504
657.8210, 488.6602
658.9830, 518.1875
660.1440, 484.6035
661.3050, 480.1074
662.4660, 366.1875
663.6270, 379.6270
664.7870, 170.8750
665.9480, 206.2344
667.1080, 323.2305
668.2680, 204.1504
669.4280, 233.4824
670.5880, 237.1426
671.7480, 324.1250
672.9070, 29.50781
674.0670, 188.1348
675.2260, 188.4453
676.3850, 335.7891
677.5440, 47.80078
678.7030, 80.60156
679.8610, 117.6465
681.0200, 44.76758
682.1780, 158.7637
683.3360, 94.74219
684.4940, 119.1543
685.6520, 38.47656
686.8090, 180.9844
687.9670, 169.6484
689.1240, 5.457031
690.2810, 75.06445
691.4380, 153.8691
692.5950, 214.0625
693.7520, 14.59375
694.9080, 0.7324220
696.0650, 73.51758
697.2210, 51.76562
698.3770, 75.88477
699.5330, 14.97461
700.6880, 81.03711
701.8440, 35.74023
702.9990, 70.86523
704.1550, 121.5605
705.3100, 34.42578
706.4650, 154.9375
707.6190, 85.44531
708.7740, 4.355469
709.9290, 137.6270
711.0830, 12.84961
712.2370, 115.7090
713.3910, 60.31445
714.5450, 255.9688
715.6980, 140.2949
716.8520, 159.6250
718.0050, 52.00195
719.1580, 43.45117
720.3110, 302.6602
721.4640, 127.1426
722.6170, 279.2285
723.7700, 294.2617
724.9220, 316.1191
726.0740, 227.6777
727.2260, 63.19141
728.3780, 240.8066
729.5300, 244.0137
730.6810, 361.0273
731.8330, 187.7812
732.9840, 148.4375
734.1350, 176.4043
735.2860, 181.1719
736.4370, 165.7676
737.5880, 241.3770
738.7380, 357.3027
739.8880, 456.4648
741.0390, 333.5898
742.1890, 407.0625
743.3380, 289.3008
744.4880, 286.4434
745.6380, 319.9922
746.7870, 462.1816
747.9360, 503.7285
749.0850, 524.5312
750.2340, 453.6914
751.3830, 587.2559
752.5310, 706.1250
753.6800, 664.2324
754.8280, 821.8457
755.9760, 909.1250
757.1240, 795.5781
758.2720, 859.5508
759.4190, 1093.814
760.5670, 1074.346
761.7140, 1281.930
762.8610, 1036.393
764.0080, 1227.592
765.1550, 1400.662
766.3020, 1332.518
767.4480, 1646.865
768.5950, 1492.881
769.7410, 1801.609
770.8870, 1670.836
772.0330, 1618.512
773.1780, 1704.646
774.3240, 1662.869
775.4690, 1570.777
776.6140, 1743.395
777.7590, 1734.416
778.9040, 1556.143
780.0490, 1798.330
781.1940, 1811.088
782.3380, 1774.100
783.4820, 1780.154
784.6260, 1707.277
785.7700, 1807.049
786.9140, 1639.240
788.0580, 1680.074
789.2010, 1565.365
790.3450, 1725.832
791.4880, 1519.654
792.6310, 1527.631
793.7730, 1434.141
794.9160, 1347.314
796.0590, 1121.266
797.2010, 1303.254
798.3430, 1054.049
799.4850, 1210.561
800.6270, 1246.189
801.7690, 911.5879
802.9100, 845.8438
804.0520, 1003.549
805.1930, 1094.381
806.3340, 1025.617
807.4750, 950.9219
808.6160, 961.2070
809.7560, 911.2012
810.8970, 968.1660
812.0370, 863.1387
813.1770, 859.1094
814.3170, 823.6660
815.4570, 867.4102
816.5960, 824.7109
817.7360, 902.5156
818.8750, 840.7852
820.0140, 611.6875
821.1530, 744.7070
822.2920, 493.4961
823.4310, 565.5645
824.5690, 467.6367
825.7070, 459.6953
826.8460, 271.4492
827.9840, 180.1211
829.1220, 141.1094
830.2590, 142.3301
831.3970, 157.5527
832.5340, 322.6094
833.6710, 252.3047
834.8080, 244.9492
835.9450, 74.56445
837.0820, 122.7559
838.2190, 43.31445
839.3550, 163.3770
840.4910, 166.9199
841.6270, 3.621094
842.7630, 106.4512
843.8990, 2.025391
845.0350, 56.11914
846.1700, 212.2891
847.3060, 50.56641
848.4410, 118.2676
849.5760, 68.64062
850.7100, 97.92188
851.8450, 77.46289
852.9800, 50.69141
854.1140, 120.1094
855.2480, 238.4121
856.3820, 76.63086
857.5160, 15.88086
858.6500, 0.6875000
859.7830, 116.7090
860.9170, 96.15234
862.0500, 101.0469
863.1830, 92.51367
864.3160, 5.232422
865.4480, 124.6094
866.5810, 5.058594
867.7130, 193.6719
868.8460, 46.62109
869.9780, 102.3418
871.1100, 129.1250
872.2410, 24.12695
873.3730, 126.4551
874.5050, 60.29688
875.6360, 193.5684
876.7670, 183.0898
877.8980, 80.93945
879.0290, 118.1289
880.1590, 4.908203
881.2900, 14.44727
882.4200, 70.35352
883.5500, 24.71875
884.6800, 13.88086
885.8100, 104.1270
886.9400, 27.49805
888.0690, 166.9355
889.1990, 211.4668
890.3280, 71.17773
891.4570, 131.0684
892.5860, 69.26367
893.7140, 25.40820
894.8430, 89.50781
895.9710, 29.53711
897.1000, 66.64844
898.2280, 29.14062
899.3560, 3.875000
900.4830, 208.4531
901.6110, 50.04492
902.7380, 39.50781
903.8660, 242.8613
904.9930, 36.18555
906.1200, 114.4590
907.2460, 54.31445
908.3730, 3.832031
909.5000, 17.08008
910.6260, 105.9414
911.7520, 153.9238
912.8780, 36.86328
914.0040, 85.75781
915.1290, 62.39062
916.2550, 91.62109
917.3800, 12.94727
918.5050, 67.33203
919.6300, 19.79688
920.7550, 50.32031
921.8800, 25.91602
923.0040, 59.42773
924.1290, 36.73633
925.2530, 1.992188
926.3770, 66.23438
927.5010, 57.57422
928.6250, 83.45117
929.7480, 3.591797
930.8720, 53.59961
931.9950, 228.5742
933.1180, 155.5176
934.2410, 97.56836
935.3640, 41.73633
936.4860, 56.04492
937.6090, 176.7969
938.7310, 26.47656
939.8530, 21.78516
940.9750, 182.8691
942.0970, 291.5000
943.2180, 128.1094
944.3400, 174.6973
945.4610, 306.2578
946.5820, 252.8203
947.7030, 266.3633
948.8240, 259.8848
949.9450, 131.3828
951.0650, 290.8691
952.1860, 310.3359
953.3060, 287.7852
954.4260, 188.2344
955.5460, 330.6641
956.6650, 173.1074
957.7850, 142.5312
958.9040, 286.9551
960.0230, 228.3594
961.1420, 401.7422
962.2610, 363.7520
963.3800, 548.3691
964.4990, 420.8105
965.6170, 483.2441
966.7350, 402.7422
967.8530, 344.9258
968.9710, 401.8047
970.0890, 371.6660
971.2070, 639.6973
972.3240, 553.0391
973.4410, 611.3867
974.5580, 482.7832
975.6750, 574.2852
976.7920, 589.4902
977.9090, 553.7266
979.0250, 796.0293
980.1410, 688.6738
981.2580, 707.3418
982.3740, 989.8750
983.4890, 873.1445
984.6050, 988.5059
985.7200, 917.0352
986.8360, 820.0879
987.9510, 989.6152
989.0660, 1044.893
990.1810, 1108.672
991.2950, 996.7305
992.4100, 955.1484
993.5240, 1032.684
994.6390, 1236.238
995.7530, 1183.502
996.8660, 1181.812
997.9800, 1395.111
999.0940, 1276.232
1000.207, 1506.686
1001.320, 1304.250
1002.433, 1500.000
1003.546, 1696.771
1004.659, 1367.160
1005.772, 1726.670
1006.884, 1456.275
1007.996, 1630.789
1009.108, 1623.908
1010.220, 1608.717
1011.332, 1759.494
1012.444, 1897.852
1013.555, 1893.373
1014.666, 1874.986
1015.777, 1795.121
1016.888, 1850.539
1017.999, 1729.535
1019.110, 1998.205
1020.220, 1761.449
1021.331, 1825.230
1022.441, 2038.689
1023.551, 2044.887
1024.661, 1893.561
1025.770, 2052.533
1026.880, 1932.289
1027.989, 2196.453
1029.098, 1821.266
1030.207, 1865.738
1031.316, 2020.100
1032.425, 1913.516
1033.533, 1862.129
1034.642, 1996.809
1035.750, 1940.635
1036.858, 1836.904
1037.966, 1942.445
1039.073, 1688.207
1040.181, 1970.426
1041.288, 1673.148
1042.396, 1802.367
1043.503, 1697.463
1044.610, 1517.820
1045.716, 1899.404
1046.823, 1779.523
1047.929, 1748.879
1049.036, 1752.715
1050.142, 1768.914
1051.248, 1791.555
1052.353, 1697.592
1053.459, 1780.250
1054.564, 1707.205
1055.670, 1492.678
1056.775, 1366.168
1057.880, 1509.598
1058.985, 1307.629
1060.089, 1462.252
1061.194, 1444.324
1062.298, 1485.967
1063.402, 1387.369
1064.506, 1427.084
1065.610, 1412.121
1066.713, 1553.184
1067.817, 1255.469
1068.920, 1253.125
1070.023, 1430.031
1071.126, 1171.180
1072.229, 1451.994
1073.332, 1547.145
1074.435, 1655.363
1075.537, 1572.605
1076.639, 1465.871
1077.741, 1722.160
1078.843, 1540.475
1079.945, 1864.812
1081.046, 1813.184
1082.148, 1767.582
1083.249, 1948.018
1084.350, 1912.477
1085.451, 2042.963
1086.551, 2130.473
1087.652, 2209.006
1088.752, 2316.105
1089.853, 2399.150
1090.953, 2484.758
1092.053, 2564.395
1093.152, 2615.055
1094.252, 2821.740
1095.351, 2753.453
1096.451, 2925.197
1097.550, 2946.975
1098.649, 3191.779
1099.748, 3010.611
1100.846, 3289.473
1101.945, 3552.363
1103.043, 3452.279
1104.141, 3759.229
1105.239, 3794.211
1106.337, 3821.230
1107.434, 3934.340
1108.532, 3892.482
1109.629, 3897.928
1110.726, 3718.152
1111.823, 3840.422
1112.920, 3863.488
1114.017, 4287.066
1115.113, 4158.441
1116.210, 4218.844
1117.306, 4571.312
1118.402, 4431.840
1119.498, 4425.412
1120.593, 4764.041
1121.689, 4740.918
1122.784, 4472.609
1123.879, 4640.328
1124.974, 4672.094
1126.069, 4705.547
1127.164, 4817.426
1128.259, 4647.475
1129.353, 4627.365
1130.447, 4482.770
1131.541, 4829.783
1132.635, 4989.822
1133.729, 4703.908
1134.822, 4718.023
1135.916, 4678.623
1137.009, 4842.812
1138.102, 4749.027
1139.195, 4664.291
1140.288, 4771.582
1141.380, 4814.912
1142.473, 4956.859
1143.565, 5119.246
1144.657, 4947.662
1145.749, 4763.779
1146.841, 5162.266
1147.932, 4944.789
1149.024, 5018.105
1150.115, 5101.717
1151.206, 4990.391
1152.297, 5333.664
1153.388, 5126.152
1154.479, 5082.805
1155.569, 4828.189
1156.659, 5033.820
1157.750, 5038.979
1158.839, 4966.969
1159.929, 4880.047
1161.019, 5032.119
1162.108, 4637.672
1163.198, 4537.838
1164.287, 4505.033
1165.376, 4749.262
1166.465, 4445.576
1167.553, 4816.916
1168.642, 4580.295
1169.730, 4306.695
1170.818, 4193.568
1171.906, 4136.514
1172.994, 4139.557
1174.082, 4249.725
1175.170, 3816.180
1176.257, 3539.803
1177.344, 3785.449
1178.431, 3471.119
1179.518, 3452.809
1180.605, 3314.541
1181.691, 3384.320
1182.778, 3102.129
1183.864, 2949.162
1184.950, 3181.041
1186.036, 3200.957
1187.122, 2748.000
1188.207, 2664.965
1189.292, 2662.234
1190.378, 2412.250
1191.463, 2409.354
1192.548, 2410.410
1193.632, 2254.508
1194.717, 2144.625
1195.801, 2021.760
1196.886, 1795.914
1197.970, 1843.086
1199.054, 1768.297
1200.137, 1616.811
1201.221, 1398.145
1202.305, 1484.570
1203.388, 1323.865
1204.471, 1055.182
1205.554, 1100.514
1206.637, 1095.861
1207.719, 942.2559
1208.802, 1052.688
1209.884, 823.4941
1210.966, 715.7852
1212.048, 813.5059
1213.130, 749.5078
1214.212, 628.9473
1215.293, 426.5293
1216.374, 369.0000
1217.456, 576.4844
1218.536, 376.9805
1219.617, 465.4863
1220.698, 165.0059
1221.778, 232.6172
1222.859, 475.1602
1223.939, 414.7148
1225.019, 403.5859
1226.099, 373.1582
1227.178, 197.0352
1228.258, 285.6289
1229.337, 309.3027
1230.417, 107.9121
1231.496, 233.8184
1232.574, 192.4688
1233.653, 232.1113
1234.732, 17.13672
1235.810, 55.51172
1236.888, 104.1914
1237.966, 155.6094
1239.044, 15.69727
1240.122, 89.97266
1241.199, 100.6797
1242.277, 114.3926
1243.354, 251.9277
1244.431, 61.76172
1245.508, 29.49023
1246.585, 74.31641
1247.661, 88.12500
1248.738, 111.6094
1249.814, 96.45117
1250.890, 44.80469
1251.966, 148.9355
1253.042, 180.6738
1254.117, 80.41602
1255.193, 317.8438
1256.268, 165.7461
1257.343, 131.4668
1258.418, 109.9297
1259.493, 44.44141
1260.567, 114.3516
1261.642, 181.8359
1262.716, 130.3086
1263.790, 166.9453
1264.864, 40.61328
1265.938, 213.5410
1267.011, 121.5020
1268.085, 217.4414
1269.158, 69.88867
1270.231, 165.6270
1271.304, 15.70117
1272.377, 108.8047
1273.450, 102.5098
1274.522, 262.7930
1275.594, 98.89062
1276.666, 146.9082
1277.738, 14.81055
1278.810, 207.9414
1279.882, 48.03320
1280.953, 42.38477
1282.025, 173.1660
1283.096, 189.3164
1284.167, 167.6465
1285.238, 121.7949
1286.308, 80.83789
1287.379, 83.95703
1288.449, 20.90430
1289.519, 90.82227
1290.589, 3.228516
1291.659, 57.93164
1292.729, 202.6641
1293.798, 107.1504
1294.868, 198.8594
1295.937, 226.5566
1297.006, 148.2402
1298.075, 122.2461
1299.143, 57.05859
1300.212, 25.04883
1301.280, 56.57422
1302.348, 68.82227
1303.416, 8.250000
1304.484, 197.3320
1305.552, 263.8594
