##NAMES=Clinoptilolite-Ca
##RRUFFID=R060662
##IDEAL CHEMISTRY=Ca_3_(Si_30_Al_6_)O_72_&#183;20H_2_O
##LOCALITY=Succor Creek, Malheur County, Oregon, USA
##OWNER=RRUFF
##SOURCE=Michael Scott
##DESCRIPTION=Group of colorless platy prismatic crystals
##STATUS=The identification of this mineral has been confirmed by X-ray diffraction and chemical analysis
##URL=rruff.info/R060662
##MEASURED CHEMISTRY=(Ca_1.02_Na_0.97_K_0.59_)_Σ=2.58_(Si_14.40_Al_3.60_)_Σ=18_O_36_·10.96H_2_O
##PIN_ID=M00221
##ORIENTATION=Laser parallel to b* (0 1 0). Fiducial mark perpendicular to laser is parallel to c [0 0 1]
221.0220, 0.0000000E+00
222.2400, 312.4785
223.4590, 412.4199
224.6770, 138.1816
225.8950, 22.25977
227.1120, 162.5078
228.3300, 541.8262
229.5480, 416.1934
230.7650, 451.3047
231.9820, 568.4219
233.1990, 531.3086
234.4160, 844.2734
235.6330, 905.7754
236.8490, 1097.158
238.0660, 1226.975
239.2820, 1643.918
240.4980, 1635.756
241.7140, 1793.326
242.9300, 1745.508
244.1460, 1794.248
245.3610, 1995.156
246.5770, 2018.471
247.7920, 2193.611
249.0070, 2190.285
250.2220, 2399.600
251.4370, 2403.623
252.6510, 2336.412
253.8660, 2476.008
255.0800, 2444.447
256.2940, 2804.754
257.5080, 3267.957
258.7220, 3177.143
259.9360, 2960.662
261.1490, 3173.053
262.3630, 2196.973
263.5760, 2012.869
264.7890, 2046.785
266.0020, 2120.746
267.2150, 2036.441
268.4270, 1852.273
269.6400, 1945.750
270.8520, 1601.482
272.0640, 1486.775
273.2760, 1640.393
274.4880, 1647.016
275.7000, 1592.643
276.9120, 1450.453
278.1230, 1466.432
279.3340, 1399.572
280.5450, 1312.859
281.7560, 1276.279
282.9670, 1096.812
284.1780, 769.1426
285.3880, 993.0156
286.5980, 1104.023
287.8090, 1108.217
289.0190, 685.5566
290.2290, 814.2930
291.4380, 722.1738
292.6480, 621.0293
293.8570, 827.5508
295.0670, 467.2305
296.2760, 668.8906
297.4850, 646.2617
298.6930, 726.4023
299.9020, 584.2871
301.1110, 510.9414
302.3190, 660.1133
303.5270, 686.2832
304.7350, 519.1738
305.9430, 606.7051
307.1510, 217.1016
308.3580, 207.9219
309.5660, 309.9844
310.7730, 237.3203
311.9800, 128.8848
313.1870, 7.464844
314.3940, 106.7168
315.6010, 101.9004
316.8070, 232.0195
318.0130, 113.1074
319.2200, 237.1895
320.4260, 38.24023
321.6310, 108.2441
322.8370, 63.77539
324.0430, 81.18945
325.2480, 51.14648
326.4540, 30.89258
327.6590, 29.07422
328.8640, 74.68945
330.0680, 297.9590
331.2730, 170.9551
332.4780, 301.9336
333.6820, 255.8867
334.8860, 372.8184
336.0900, 407.7246
337.2940, 517.6094
338.4980, 576.1582
339.7010, 553.2988
340.9050, 719.0312
342.1080, 632.5586
343.3110, 731.9062
344.5140, 792.1758
345.7170, 1003.381
346.9200, 1110.887
348.1220, 1234.691
349.3240, 1390.812
350.5270, 1586.910
351.7290, 1659.982
352.9310, 1973.031
354.1320, 2008.055
355.3340, 2162.439
356.5350, 2281.016
357.7370, 2378.953
358.9380, 2515.859
360.1390, 2612.738
361.3400, 2765.584
362.5400, 2957.266
363.7410, 3131.182
364.9410, 3400.930
366.1410, 3703.084
367.3410, 3978.039
368.5410, 4381.729
369.7410, 4483.709
370.9400, 5001.609
372.1400, 4999.553
373.3390, 5415.002
374.5380, 5709.162
375.7370, 6166.057
376.9360, 6551.340
378.1350, 6734.691
379.3330, 7362.590
380.5310, 8053.396
381.7300, 8204.977
382.9280, 8845.918
384.1260, 9531.336
385.3230, 10164.50
386.5210, 10659.19
387.7180, 11612.02
388.9160, 12275.75
390.1130, 12932.63
391.3100, 13908.68
392.5060, 14864.83
393.7030, 15768.74
394.9000, 16871.18
396.0960, 17727.35
397.2920, 18827.78
398.4880, 19527.69
399.6840, 20256.06
400.8800, 21104.82
402.0750, 21382.69
403.2710, 21575.15
404.4660, 21588.00
405.6610, 21430.59
406.8560, 20753.37
408.0510, 20108.54
409.2450, 19415.23
410.4400, 18499.33
411.6340, 17488.90
412.8280, 16260.42
414.0220, 15401.82
415.2160, 14232.88
416.4100, 13241.28
417.6030, 12408.92
418.7970, 11228.17
419.9900, 10502.92
421.1830, 9354.340
422.3760, 8589.059
423.5690, 7932.824
424.7610, 7086.473
425.9540, 6444.129
427.1460, 5990.123
428.3380, 5199.064
429.5300, 4728.836
430.7220, 4307.367
431.9140, 3843.213
433.1050, 3581.711
434.2970, 3089.529
435.4880, 2723.500
436.6790, 2501.125
437.8700, 2289.027
439.0610, 2016.438
440.2510, 1779.867
441.4420, 1700.682
442.6320, 1596.473
443.8220, 1476.240
445.0120, 1564.982
446.2020, 1179.699
447.3910, 1421.387
448.5810, 1417.049
449.7700, 1349.680
450.9600, 1672.279
452.1490, 1623.846
453.3370, 1713.377
454.5260, 1823.869
455.7150, 1995.717
456.9030, 2364.529
458.0910, 2559.523
459.2800, 2847.740
460.4670, 3330.855
461.6550, 3603.369
462.8430, 3814.061
464.0300, 4438.113
465.2180, 4700.760
466.4050, 5285.852
467.5920, 5709.547
468.7790, 6118.164
469.9650, 6625.127
471.1520, 7557.250
472.3380, 8114.127
473.5250, 8923.957
474.7110, 9610.746
475.8970, 10646.49
477.0820, 11502.19
478.2680, 11915.84
479.4540, 12504.45
480.6390, 12740.02
481.8240, 12719.21
483.0090, 12647.01
484.1940, 12109.43
485.3780, 11605.82
486.5630, 10696.16
487.7470, 9748.445
488.9320, 8953.695
490.1160, 7755.898
491.3000, 6792.055
492.4830, 5932.166
493.6670, 5089.234
494.8500, 4296.256
496.0340, 3831.232
497.2170, 3257.160
498.4000, 2705.041
499.5820, 2405.877
500.7650, 2000.666
501.9480, 1684.408
503.1300, 1573.102
504.3120, 1264.748
505.4940, 1197.348
506.6760, 929.8984
507.8580, 842.4004
509.0390, 827.8613
510.2210, 658.2793
511.4020, 559.6504
512.5830, 319.9805
513.7640, 294.2695
514.9450, 214.9863
516.1250, 106.6875
517.3060, 173.8047
518.4860, 121.8672
519.6660, 125.8633
520.8460, 70.79883
522.0260, 90.70703
523.2060, 24.92188
524.3850, 89.65039
525.5650, 46.70898
526.7440, 40.91797
527.9230, 34.05273
529.1020, 145.0410
530.2810, 0.9824220
531.4590, 0.6445310
532.6380, 114.4277
533.8160, 242.8086
534.9940, 29.36328
536.1720, 69.28906
537.3500, 87.05078
538.5270, 14.05664
539.7050, 171.4883
540.8820, 3.015625
542.0590, 152.4336
543.2360, 91.20898
544.4130, 8.462891
545.5900, 175.8281
546.7660, 9.363281
547.9430, 26.75781
549.1190, 69.57422
550.2950, 108.4453
551.4710, 29.48828
552.6470, 296.5781
553.8220, 131.0293
554.9980, 259.5234
556.1730, 304.6738
557.3480, 228.9512
558.5230, 200.4922
559.6980, 63.87695
560.8730, 99.04102
562.0470, 126.0469
563.2220, 206.5117
564.3960, 201.5039
565.5700, 215.7754
566.7440, 214.7246
567.9170, 352.7305
569.0910, 362.2617
570.2640, 410.4688
571.4380, 465.3906
572.6110, 386.8750
573.7840, 467.4102
574.9570, 386.3574
576.1290, 585.9766
577.3020, 426.4805
578.4740, 594.4961
579.6460, 468.8086
580.8180, 458.9570
581.9900, 771.0273
583.1620, 720.2812
584.3330, 695.2109
585.5040, 854.1250
586.6760, 810.2090
587.8470, 918.9590
589.0180, 844.5996
590.1880, 1081.168
591.3590, 1136.662
592.5290, 1233.086
593.7000, 1380.436
594.8700, 1442.711
596.0400, 1570.066
597.2090, 1755.047
598.3790, 1829.109
599.5490, 1906.115
600.7180, 2115.068
601.8870, 2457.002
603.0560, 2364.885
604.2250, 2597.750
605.3940, 3074.545
606.5620, 2916.289
607.7300, 3150.961
608.8990, 3332.574
610.0670, 3426.121
611.2350, 3577.596
612.4020, 3824.002
613.5700, 3857.332
614.7370, 4203.592
615.9050, 4035.779
617.0720, 4059.891
618.2390, 4203.930
619.4060, 4119.896
620.5720, 4017.789
621.7390, 3942.607
622.9050, 3919.354
624.0710, 3741.023
625.2370, 3614.623
626.4030, 3416.576
627.5690, 3214.137
628.7340, 2942.977
629.9000, 2701.279
631.0650, 2447.512
632.2300, 2260.420
633.3950, 1995.754
634.5600, 1889.766
635.7240, 1871.701
636.8890, 1654.566
638.0530, 1761.359
639.2170, 1627.076
640.3810, 1438.721
641.5450, 1544.293
642.7080, 1650.791
643.8720, 1522.232
645.0350, 1696.600
646.1980, 1671.895
647.3610, 1606.129
648.5240, 1563.303
649.6870, 1511.252
650.8490, 1422.490
652.0120, 1384.492
653.1740, 1340.016
654.3360, 1243.260
655.4980, 1181.549
656.6600, 994.5879
657.8210, 980.2129
658.9830, 847.4844
660.1440, 677.7051
661.3050, 633.3984
662.4660, 469.1777
663.6270, 671.1621
664.7870, 478.7852
665.9480, 209.8945
667.1080, 450.2520
668.2680, 239.0703
669.4280, 367.7207
670.5880, 261.4219
671.7480, 155.9141
672.9070, 57.16211
674.0670, 33.79297
675.2260, 199.3750
676.3850, 158.9258
677.5440, 82.25586
678.7030, 200.0488
679.8610, 83.86133
681.0200, 70.13672
682.1780, 47.92188
683.3360, 81.96875
684.4940, 115.6094
685.6520, 93.24414
686.8090, 12.25781
687.9670, 145.5176
689.1240, 126.1680
690.2810, 40.74219
691.4380, 91.16992
692.5950, 16.80859
693.7520, 51.61328
694.9080, 32.75586
696.0650, 68.07422
697.2210, 41.88867
698.3770, 9.101563
699.5330, 23.39453
700.6880, 46.44922
701.8440, 15.82422
702.9990, 79.51172
704.1550, 87.72461
705.3100, 85.97461
706.4650, 78.86328
707.6190, 260.8535
708.7740, 37.45703
709.9290, 149.3027
711.0830, 209.2246
712.2370, 175.7559
713.3910, 295.5586
714.5450, 140.9590
715.6980, 144.1309
716.8520, 216.5684
718.0050, 364.6484
719.1580, 496.1445
720.3110, 499.5078
721.4640, 316.4883
722.6170, 488.3730
723.7700, 357.2090
724.9220, 295.9922
726.0740, 355.7188
727.2260, 642.3965
728.3780, 469.0234
729.5300, 582.5996
730.6810, 458.1270
731.8330, 655.6055
732.9840, 654.0312
734.1350, 507.4121
735.2860, 481.7422
736.4370, 526.0234
737.5880, 705.2559
738.7380, 931.4414
739.8880, 586.5781
741.0390, 803.6680
742.1890, 851.7109
743.3380, 701.7070
744.4880, 948.6543
745.6380, 849.5566
746.7870, 873.4121
747.9360, 765.2227
749.0850, 980.9844
750.2340, 1064.701
751.3830, 949.3750
752.5310, 910.0020
753.6800, 1014.584
754.8280, 1108.121
755.9760, 1152.617
757.1240, 1277.146
758.2720, 1253.475
759.4190, 1434.840
760.5670, 1381.162
761.7140, 1327.443
762.8610, 1515.682
764.0080, 1497.879
765.1550, 1862.035
766.3020, 1695.148
767.4480, 2006.223
768.5950, 2180.254
769.7410, 2109.250
770.8870, 2130.205
772.0330, 2176.119
773.1780, 2388.000
774.3240, 2342.836
775.4690, 2749.639
776.6140, 2660.400
777.7590, 2823.125
778.9040, 2854.812
780.0490, 3021.465
781.1940, 3054.340
782.3380, 3128.920
783.4820, 3209.465
784.6260, 3260.549
785.7700, 3350.438
786.9140, 3412.688
788.0580, 3464.461
789.2010, 3492.105
790.3450, 3454.352
791.4880, 3483.654
792.6310, 3440.926
793.7730, 3389.469
794.9160, 3347.352
796.0590, 3282.588
797.2010, 3217.750
798.3430, 3133.492
799.4850, 3100.934
800.6270, 3005.359
801.7690, 2936.783
802.9100, 2866.787
804.0520, 2757.348
805.1930, 2735.260
806.3340, 2657.154
807.4750, 2683.588
808.6160, 2795.516
809.7560, 2736.492
810.8970, 2926.375
812.0370, 2880.086
813.1770, 3115.641
814.3170, 3167.916
815.4570, 3202.307
816.5960, 3241.014
817.7360, 3242.820
818.8750, 3240.293
820.0140, 3190.348
821.1530, 3129.805
822.2920, 3009.195
823.4310, 2805.975
824.5690, 2538.332
825.7070, 2241.900
826.8460, 1924.314
827.9840, 1907.463
829.1220, 1683.465
830.2590, 1450.020
831.3970, 1511.438
832.5340, 1338.115
833.6710, 1208.578
834.8080, 1003.691
835.9450, 1001.875
837.0820, 917.1875
838.2190, 1184.568
839.3550, 873.3965
840.4910, 901.3730
841.6270, 1044.465
842.7630, 884.5508
843.8990, 1165.498
845.0350, 1014.834
846.1700, 1066.416
847.3060, 1091.195
848.4410, 1076.336
849.5760, 1288.344
850.7100, 1445.859
851.8450, 1424.625
852.9800, 1674.428
854.1140, 1558.637
855.2480, 1814.473
856.3820, 1858.395
857.5160, 2009.312
858.6500, 2077.973
859.7830, 2041.885
860.9170, 1981.732
862.0500, 1801.336
863.1830, 1746.199
864.3160, 1533.098
865.4480, 1278.992
866.5810, 1176.883
867.7130, 1103.775
868.8460, 954.1777
869.9780, 807.5547
871.1100, 776.4434
872.2410, 692.3535
873.3730, 627.2227
874.5050, 703.1113
875.6360, 646.0000
876.7670, 657.8906
877.8980, 385.7812
879.0290, 349.6738
880.1590, 283.5703
881.2900, 429.4688
882.4200, 212.3672
883.5500, 165.2734
884.6800, 354.1797
885.8100, 344.0918
886.9400, 399.0039
888.0690, 336.9238
889.1990, 181.8477
890.3280, 458.7773
891.4570, 239.7109
892.5860, 335.8516
893.7140, 566.5977
894.8430, 434.5469
895.9710, 192.5078
897.1000, 285.4727
898.2280, 150.4453
899.3560, 222.4277
900.4830, 209.4141
901.6110, 147.4121
902.7380, 354.4180
903.8660, 118.4297
904.9930, 387.4531
906.1200, 288.2871
907.2460, 209.3184
908.3730, 279.5801
909.5000, 53.64453
910.6260, 197.7188
911.7520, 195.8027
912.8780, 90.90039
914.0040, 209.0078
915.1290, 186.1270
916.2550, 60.73828
917.3800, 47.37500
918.5050, 139.5020
919.6300, 57.35742
920.7550, 35.23242
921.8800, 72.11328
923.0040, 101.0137
924.1290, 20.94727
925.2530, 49.11914
926.3770, 206.2012
927.5010, 9.298828
928.6250, 187.5879
929.7480, 99.45117
930.8720, 18.49219
931.9950, 43.56836
933.1180, 108.3516
934.2410, 27.30469
935.3640, 3.257813
936.4860, 131.1953
937.6090, 5.175781
938.7310, 197.1426
939.8530, 125.1719
940.9750, 144.2383
942.0970, 2.656250
943.2180, 27.66992
944.3400, 85.48438
945.4610, 12.52148
946.5820, 8.531250
947.7030, 34.50781
948.8240, 112.5723
949.9450, 253.6641
951.0650, 18.79883
952.1860, 74.95508
953.3060, 77.14453
954.4260, 175.3633
955.5460, 163.6328
956.6650, 135.9668
957.7850, 6.435547
958.9040, 32.97070
960.0230, 84.57617
961.1420, 192.2773
962.2610, 294.0508
963.3800, 228.8887
964.4990, 117.7949
965.6170, 210.7754
966.7350, 319.8301
967.8530, 67.93555
968.9710, 160.1250
970.0890, 47.36523
971.2070, 317.6523
972.3240, 48.98633
973.4410, 251.3574
974.5580, 258.7734
975.6750, 293.2246
976.7920, 172.7070
977.9090, 211.2246
979.0250, 327.8008
980.1410, 97.40625
981.2580, 467.0684
982.3740, 300.7559
983.4890, 438.4746
984.6050, 530.2207
985.7200, 450.9961
986.8360, 650.8066
987.9510, 749.6465
989.0660, 420.5156
990.1810, 676.4102
991.2950, 551.3418
992.4100, 791.3008
993.5240, 668.2871
994.6390, 694.3008
995.7530, 1101.342
996.8660, 1259.416
997.9800, 1250.516
999.0940, 1569.643
1000.207, 1722.797
1001.320, 1707.982
1002.433, 1687.195
1003.546, 1572.434
1004.659, 1456.703
1005.772, 1371.590
1006.884, 1174.326
1007.996, 1141.678
1009.108, 1024.062
1010.220, 900.4746
1011.332, 1094.914
1012.444, 1020.387
1013.555, 1127.889
1014.666, 1201.418
1015.777, 1273.980
1016.888, 1277.570
1017.999, 1129.191
1019.110, 1382.842
1020.220, 1392.523
1021.331, 1696.236
1022.441, 1449.979
1023.551, 1430.754
1024.661, 1376.561
1025.770, 1398.396
1026.880, 1457.264
1027.989, 1540.164
1029.098, 1369.096
1030.207, 1531.059
1031.316, 1412.053
1032.425, 1379.080
1033.533, 1355.137
1034.642, 1157.229
1035.750, 1552.352
1036.858, 1626.508
1037.966, 1410.695
1039.073, 1426.918
1040.181, 1477.172
1041.288, 1599.457
1042.396, 1537.777
1043.503, 1418.131
1044.610, 1691.520
1045.716, 1245.939
1046.823, 1462.395
1047.929, 1465.881
1049.036, 1578.402
1050.142, 1592.340
1051.248, 1601.289
1052.353, 1546.910
1053.459, 1497.756
1054.564, 1443.174
1055.670, 1325.189
1056.775, 1324.582
1057.880, 1229.193
1058.985, 1240.027
1060.089, 1224.898
1061.194, 1180.885
1062.298, 1266.746
1063.402, 1134.725
1064.506, 1145.721
1065.610, 1162.773
1066.713, 1297.254
1067.817, 1215.986
1068.920, 1073.844
1070.023, 1225.254
1071.126, 1259.129
1072.229, 1170.072
1073.332, 1245.996
1074.435, 1324.949
1075.537, 1172.287
1076.639, 1252.916
1077.741, 1252.059
1078.843, 1569.984
1079.945, 1535.139
1081.046, 1555.736
1082.148, 1605.373
1083.249, 1688.594
1084.350, 1823.311
1085.451, 1807.068
1086.551, 1718.863
1087.652, 1969.107
1088.752, 1752.984
1089.853, 1812.316
1090.953, 1681.270
1092.053, 1698.428
1093.152, 1751.906
1094.252, 2002.168
1095.351, 1998.336
1096.451, 2120.414
1097.550, 2180.336
1098.649, 2071.301
1099.748, 2213.549
1100.846, 2163.463
1101.945, 2200.781
1103.043, 2469.135
1104.141, 2362.523
1105.239, 2600.949
1106.337, 2536.406
1107.434, 2688.896
1108.532, 2537.426
1109.629, 2830.986
1110.726, 2697.582
1111.823, 2918.213
1112.920, 2968.879
1114.017, 2939.576
1115.113, 2984.311
1116.210, 2941.078
1117.306, 2898.131
1118.402, 2830.688
1119.498, 2792.088
1120.593, 2708.992
1121.689, 2690.932
1122.784, 2807.896
1123.879, 2414.906
1124.974, 2587.951
1126.069, 2431.031
1127.164, 2317.145
1128.259, 2464.816
1129.353, 2347.000
1130.447, 2553.221
1131.541, 2387.477
1132.635, 2407.766
1133.729, 2298.092
1134.822, 2263.451
1135.916, 2257.848
1137.009, 2107.281
1138.102, 2212.748
1139.195, 2380.250
1140.288, 2057.789
1141.380, 2334.363
1142.473, 2286.971
1143.565, 2273.617
1144.657, 2335.301
1145.749, 2287.016
1146.841, 2258.309
1147.932, 2365.559
1149.024, 2122.383
1150.115, 2177.244
1151.206, 2066.559
1152.297, 2155.070
1153.388, 2059.037
1154.479, 2173.049
1155.569, 2225.094
1156.659, 1940.176
1157.750, 2206.293
1158.839, 2008.447
1159.929, 1985.635
1161.019, 2019.857
1162.108, 2009.117
1163.198, 1899.412
1164.287, 1908.746
1165.376, 1972.113
1166.465, 1707.518
1167.553, 2104.957
1168.642, 1722.434
1169.730, 1798.943
1170.818, 1735.490
1171.906, 1626.070
1172.994, 1749.688
1174.082, 1598.340
1175.170, 1635.025
1176.257, 1569.746
1177.344, 1446.506
1178.431, 1502.299
1179.518, 1205.125
1180.605, 1364.986
1181.691, 1160.902
1182.778, 1000.848
1183.864, 1277.830
1184.950, 892.8613
1186.036, 1078.939
1187.122, 1061.066
1188.207, 786.2539
1189.292, 897.4785
1190.378, 780.7422
1191.463, 751.0391
1192.548, 562.3672
1193.632, 563.7754
1194.717, 532.2168
1195.801, 414.6992
1196.886, 419.8438
1197.970, 369.7891
1199.054, 322.4043
1200.137, 335.0547
1201.221, 222.7695
1202.305, 168.5195
1203.388, 169.3496
1204.471, 262.2402
1205.554, 11.19922
1206.637, 96.80859
1207.719, 122.8184
1208.802, 72.17188
1209.884, 6.199219
1210.966, 22.26172
1212.048, 66.35547
1213.130, 33.51758
1214.212, 258.6270
1215.293, 51.80273
1216.374, 235.0117
1217.456, 72.74805
1218.536, 18.49609
1219.617, 299.2305
1220.698, 22.94336
1221.778, 146.8496
1222.859, 72.67188
1223.939, 202.4980
1225.019, 52.37891
1226.099, 7.251953
1227.178, 157.0996
1228.258, 193.9844
1229.337, 81.08008
1230.417, 95.82617
1231.496, 76.25586
1232.574, 256.3730
1233.653, 31.52148
1234.732, 61.69922
1235.810, 349.9121
1236.888, 437.1543
1237.966, 161.4297
1239.044, 250.7363
1240.122, 274.0742
1241.199, 193.4453
1242.277, 143.8477
1243.354, 144.2832
1244.431, 147.7480
1245.508, 268.2441
1246.585, 456.7715
1247.661, 7.664063
1248.738, 356.9238
1249.814, 269.5469
1250.890, 346.2734
1251.966, 41.95508
1253.042, 141.8262
1254.117, 207.6387
1255.193, 198.5332
1256.268, 222.4629
1257.343, 8.560547
1258.418, 237.4688
1259.493, 79.52734
1260.567, 175.6641
1261.642, 304.8281
1262.716, 383.0293
1263.790, 423.2715
1264.864, 403.5488
1265.938, 366.8574
1267.011, 502.1973
1268.085, 501.5684
1269.158, 652.9707
1270.231, 432.4609
1271.304, 503.9414
1272.377, 947.4531
1273.450, 639.9961
1274.522, 648.5703
1275.594, 334.1719
1276.666, 391.2461
1277.738, 347.6406
1278.810, 440.1641
1279.882, 377.8906
1280.953, 287.8457
1282.025, 270.6270
1283.096, 436.7129
1284.167, 283.5547
1285.238, 380.4297
1286.308, 241.3320
1287.379, 321.2617
1288.449, 304.2246
1289.519, 201.2109
1290.589, 256.2266
1291.659, 366.2676
1292.729, 273.5195
1293.798, 317.6367
1294.868, 463.7812
1295.937, 403.9492
1297.006, 533.1426
1298.075, 533.3555
1299.143, 511.5938
1300.212, 331.8574
1301.280, 403.1426
1302.348, 447.4473
1303.416, 600.7734
1304.484, 820.1230
1305.552, 479.4941
1306.620, 599.8867
1307.687, 489.2969
1308.754, 608.7266
1309.821, 652.1758
1310.888, 605.6406
1311.955, 953.1230
1313.021, 976.6230
1314.088, 903.1406
1315.154, 796.6719
1316.220, 601.2227
1317.286, 956.7832
1318.352, 733.3613
1319.417, 943.9531
1320.483, 692.5605
1321.548, 796.1836
1322.613, 912.8184
1323.678, 1075.473
1324.743, 712.1543
1325.807, 438.8555
1326.872, 413.5801
1327.936, 516.3262
1329.000, 399.0957
1330.064, 642.8887
1331.128, 913.7031
1332.191, 508.5391
1333.255, 661.3984
1334.318, 296.2812
1335.381, 164.6895
1336.444, 193.8047
1337.507, 339.7559
1338.569, 397.7188
1339.632, 197.7188
1340.694, 431.7441
1341.756, 303.2480
1342.818, 362.3223
1343.880, 81.42383
1344.941, 208.5488
1346.003, 253.2930
1347.064, 266.4707
1348.125, 181.2559
1349.186, 248.4844
1350.247, 307.5742
1351.308, 180.4082
1352.368, 181.5195
1353.428, 47.35938
1354.489, 429.2090
1355.549, 122.8516
1356.608, 6.507813
1357.668, 334.9414
1358.727, 160.7715
1359.787, 379.2559
1360.846, 375.9141
1361.905, 186.2969
1362.964, 369.8574
1364.022, 193.4395
1365.081, 183.0469
1366.139, 318.6777
1367.197, 58.32227
1368.255, 240.4727
1369.313, 186.1680
1370.371, 22.88672
1371.428, 108.6875
1372.486, 224.4531
1373.543, 313.2402
1374.600, 251.8770
1375.657, 336.5391
1376.713, 274.1309
1377.770, 188.2285
1378.826, 461.0762
1379.882, 286.0996
1380.938, 383.0605
