##NAMES=Clinoptilolite-Ca
##RRUFFID=R060662
##IDEAL CHEMISTRY=Ca_3_(Si_30_Al_6_)O_72_&#183;20H_2_O
##LOCALITY=Succor Creek, Malheur County, Oregon, USA
##OWNER=RRUFF
##SOURCE=Michael Scott
##DESCRIPTION=Group of colorless platy prismatic crystals
##STATUS=The identification of this mineral has been confirmed by X-ray diffraction and chemical analysis
##URL=rruff.info/R060662
##MEASURED CHEMISTRY=(Ca_1.02_Na_0.97_K_0.59_)_Σ=2.58_(Si_14.40_Al_3.60_)_Σ=18_O_36_·10.96H_2_O
##PIN_ID=M00063
##ORIENTATION=Laser parallel to -a* (-1 0 0). Fiducial mark perpendicular to laser is parallel to b [0 1 0]
134.1270, 0.0000000E+00
135.3560, 16.45312
136.5850, 137.3203
137.8140, 86.89844
139.0430, 583.0195
140.2710, 779.6328
141.5000, 997.2031
142.7280, 1331.602
143.9560, 1697.289
145.1840, 2090.359
146.4120, 2268.926
147.6390, 2846.281
148.8670, 3265.959
150.0940, 4020.037
151.3210, 4574.021
152.5490, 4612.750
153.7750, 5005.170
155.0020, 5414.840
156.2290, 5461.195
157.4550, 5387.979
158.6810, 5057.312
159.9080, 4880.996
161.1340, 4586.494
162.3590, 4472.426
163.5850, 3837.604
164.8110, 3568.760
166.0360, 2743.695
167.2610, 2406.426
168.4860, 2100.270
169.7110, 1734.707
170.9360, 1229.057
172.1610, 1019.154
173.3850, 885.9121
174.6100, 981.7402
175.8340, 1099.352
177.0580, 1350.162
178.2820, 1842.932
179.5050, 2529.006
180.7290, 3365.896
181.9520, 4183.633
183.1760, 5201.324
184.3990, 5831.500
185.6220, 6992.199
186.8450, 7940.355
188.0670, 8399.078
189.2900, 8884.074
190.5120, 9632.059
191.7340, 10060.50
192.9560, 10390.30
194.1780, 10607.01
195.4000, 10711.64
196.6220, 10586.02
197.8430, 10504.32
199.0640, 10203.51
200.2860, 9643.881
201.5070, 9287.266
202.7270, 8924.477
203.9480, 7751.545
205.1690, 6674.496
206.3890, 6144.363
207.6090, 5528.572
208.8290, 4567.326
210.0490, 4171.547
211.2690, 3548.199
212.4890, 3052.115
213.7080, 2705.207
214.9280, 2007.363
216.1470, 1635.482
217.3660, 1250.457
218.5850, 898.1855
219.8030, 590.5723
221.0220, 294.5273
222.2400, 84.63672
223.4590, 67.38281
224.6770, 255.2324
225.8950, 372.8379
227.1120, 503.3184
228.3300, 573.7480
229.5480, 566.1523
230.7650, 674.5586
231.9820, 510.0469
233.1990, 499.7148
234.4160, 518.6270
235.6330, 481.8125
236.8490, 318.7305
238.0660, 125.9648
239.2820, 16.07031
240.4980, 163.6270
241.7140, 118.0566
242.9300, 48.23633
244.1460, 461.1660
245.3610, 500.8535
246.5770, 802.2441
247.7920, 999.2520
249.0070, 1202.758
250.2220, 1417.789
251.4370, 1604.578
252.6510, 1767.338
253.8660, 1945.566
255.0800, 2077.104
256.2940, 2325.967
257.5080, 2882.350
258.7220, 3447.383
259.9360, 3427.629
261.1490, 3258.264
262.3630, 3524.006
263.5760, 3255.178
264.7890, 3610.828
266.0020, 3892.402
267.2150, 3919.008
268.4270, 3997.660
269.6400, 4331.445
270.8520, 4661.465
272.0640, 4591.719
273.2760, 4668.311
274.4880, 4989.191
275.7000, 5122.328
276.9120, 5036.699
278.1230, 5101.289
279.3340, 5030.012
280.5450, 4968.543
281.7560, 4950.961
282.9670, 4893.170
284.1780, 4975.578
285.3880, 4766.809
286.5980, 4695.439
287.8090, 4595.357
289.0190, 4695.498
290.2290, 4428.783
291.4380, 4487.154
292.6480, 4527.574
293.8570, 4085.004
295.0670, 4122.410
296.2760, 4011.795
297.4850, 3969.174
298.6930, 3933.459
299.9020, 3821.521
301.1110, 3989.396
302.3190, 3890.154
303.5270, 3896.857
304.7350, 3773.410
305.9430, 3822.734
307.1510, 3769.834
308.3580, 3721.752
309.5660, 3805.555
310.7730, 3501.314
311.9800, 3820.102
313.1870, 3714.986
314.3940, 4030.031
315.6010, 3832.652
316.8070, 4090.115
318.0130, 4164.721
319.2200, 4175.734
320.4260, 4339.033
321.6310, 4499.500
322.8370, 4689.365
324.0430, 4656.080
325.2480, 5022.639
326.4540, 4917.957
327.6590, 5086.936
328.8640, 5027.674
330.0680, 5168.418
331.2730, 5251.430
332.4780, 5152.445
333.6820, 5095.621
334.8860, 5305.047
336.0900, 5410.953
337.2940, 5571.488
338.4980, 5471.746
339.7010, 5692.797
340.9050, 5624.672
342.1080, 5766.467
343.3110, 5652.201
344.5140, 5961.877
345.7170, 6271.525
346.9200, 6269.145
348.1220, 6451.738
349.3240, 6641.307
350.5270, 6820.846
351.7290, 7029.359
352.9310, 7341.848
354.1320, 7554.297
355.3340, 8145.033
356.5350, 8345.188
357.7370, 8829.292
358.9380, 9104.956
360.1390, 9405.756
361.3400, 9927.510
362.5400, 10192.76
363.7410, 10841.69
364.9410, 11128.68
366.1410, 11645.94
367.3410, 12151.82
368.5410, 12689.04
369.7410, 13120.57
370.9400, 13555.88
372.1400, 13975.82
373.3390, 14350.60
374.5380, 14769.20
375.7370, 15179.84
376.9360, 15867.21
378.1350, 16303.44
379.3330, 16870.54
380.5310, 17628.34
381.7300, 18466.71
382.9280, 19294.30
384.1260, 20338.98
385.3230, 21277.06
386.5210, 22314.88
387.7180, 23874.86
388.9160, 25017.89
390.1130, 26396.72
391.3100, 27881.28
392.5060, 29677.31
393.7030, 31503.59
394.9000, 33288.30
396.0960, 34852.33
397.2920, 36365.55
398.4880, 37526.47
399.6840, 38788.48
400.8800, 39873.50
402.0750, 40197.52
403.2710, 40660.71
404.4660, 40347.02
405.6610, 39964.93
406.8560, 39088.18
408.0510, 38375.45
409.2450, 37000.99
410.4400, 35540.06
411.6340, 34121.20
412.8280, 32615.88
414.0220, 30921.92
415.2160, 28987.35
416.4100, 27395.92
417.6030, 25451.50
418.7970, 23595.82
419.9900, 22082.42
421.1830, 20598.23
422.3760, 19208.78
423.5690, 17681.18
424.7610, 16412.15
425.9540, 14938.32
427.1460, 13780.35
428.3380, 12813.19
429.5300, 11546.96
430.7220, 10619.45
431.9140, 9810.799
433.1050, 9277.457
434.2970, 8426.704
435.4880, 7824.371
436.6790, 7470.283
437.8700, 7059.211
439.0610, 6638.330
440.2510, 6261.375
441.4420, 6116.914
442.6320, 5861.043
443.8220, 5895.601
445.0120, 5662.048
446.2020, 5630.951
447.3910, 5892.602
448.5810, 6198.402
449.7700, 6237.533
450.9600, 6633.491
452.1490, 6907.283
453.3370, 7334.909
454.5260, 7952.870
455.7150, 8657.185
456.9030, 9212.352
458.0910, 9999.063
459.2800, 10818.38
460.4670, 11507.01
461.6550, 12463.64
462.8430, 13162.15
464.0300, 13685.56
465.2180, 14473.85
466.4050, 15042.04
467.5920, 15454.12
468.7790, 16155.09
469.9650, 16666.96
471.1520, 17499.74
472.3380, 18403.45
473.5250, 19513.07
474.7110, 20609.63
475.8970, 22021.13
477.0820, 23130.56
478.2680, 24434.94
479.4540, 25339.27
480.6390, 25949.54
481.8240, 25965.76
483.0090, 25810.93
484.1940, 24731.05
485.3780, 23495.12
486.5630, 21974.14
487.7470, 20168.11
488.9320, 18340.02
490.1160, 15969.89
491.3000, 14202.70
492.4830, 12397.47
493.6670, 10354.18
494.8500, 8867.840
496.0340, 7773.449
497.2170, 6574.006
498.4000, 5587.515
499.5820, 4775.984
500.7650, 3874.426
501.9480, 3443.842
503.1300, 2992.250
504.3120, 2644.663
505.4940, 2171.095
506.6760, 1913.564
507.8580, 1516.092
509.0390, 1313.146
510.2210, 1252.438
511.4020, 1036.330
512.5830, 952.4199
513.7640, 981.7402
514.9450, 821.3564
516.1250, 791.3369
517.3060, 646.4629
518.4860, 605.8809
519.6660, 368.8691
520.8460, 411.3545
522.0260, 376.3242
523.2060, 349.2148
524.3850, 382.0576
525.5650, 391.0391
526.7440, 184.1602
527.9230, 160.4199
529.1020, 206.0869
530.2810, 110.2754
531.4590, 74.56445
532.6380, 33.31641
533.8160, 59.77441
534.9940, 115.9990
536.1720, 78.25879
537.3500, 121.8662
538.5270, 65.87109
539.7050, 212.5635
540.8820, 68.69922
542.0590, 3.886719
543.2360, 150.0752
544.4130, 185.5098
545.5900, 145.8223
546.7660, 282.3252
547.9430, 130.4766
549.1190, 250.3008
550.2950, 294.5977
551.4710, 313.3057
552.6470, 169.3535
553.8220, 288.3516
554.9980, 154.4102
556.1730, 242.6885
557.3480, 68.93652
558.5230, 351.3516
559.6980, 106.5947
560.8730, 134.6133
562.0470, 23.46973
563.2220, 132.2217
564.3960, 13.94727
565.5700, 81.85547
566.7440, 8.569336
567.9170, 167.7197
569.0910, 152.9414
570.2640, 104.0029
571.4380, 120.2979
572.6110, 90.05664
573.7840, 197.9727
574.9570, 236.3604
576.1290, 315.7070
577.3020, 438.1123
578.4740, 377.5742
579.6460, 514.6475
580.8180, 476.6699
581.9900, 543.5693
583.1620, 588.2637
584.3330, 673.0449
585.5040, 648.7793
586.6760, 728.9189
587.8470, 740.7246
589.0180, 657.7773
590.1880, 942.3408
591.3590, 1103.743
592.5290, 1042.464
593.7000, 1252.079
594.8700, 1407.586
596.0400, 1526.498
597.2090, 1748.743
598.3790, 2039.245
599.5490, 2155.406
600.7180, 2445.062
601.8870, 2596.001
603.0560, 2800.766
604.2250, 3179.149
605.3940, 3597.516
606.5620, 3741.842
607.7300, 4127.230
608.8990, 4281.479
610.0670, 4498.691
611.2350, 4620.883
612.4020, 4593.031
613.5700, 5200.131
614.7370, 5021.192
615.9050, 5003.227
617.0720, 4802.224
618.2390, 4582.200
619.4060, 4523.140
620.5720, 4293.064
621.7390, 4049.967
622.9050, 3805.832
624.0710, 3564.663
625.2370, 3182.457
626.4030, 3080.214
627.5690, 2845.935
628.7340, 2645.620
629.9000, 2246.272
631.0650, 2035.895
632.2300, 1970.480
633.3950, 1827.028
634.5600, 1774.528
635.7240, 1563.004
636.8890, 1434.429
638.0530, 1230.825
639.2170, 1143.195
640.3810, 1219.543
641.5450, 1000.852
642.7080, 956.1064
643.8720, 804.3115
645.0350, 913.4648
646.1980, 967.5645
647.3610, 797.6113
648.5240, 791.6055
649.6870, 615.5449
650.8490, 814.4277
652.0120, 704.8457
653.1740, 790.9062
654.3360, 589.0645
655.4980, 565.5332
656.6600, 604.8457
657.8210, 593.5215
658.9830, 511.9912
660.1440, 447.4307
661.3050, 387.0039
662.4660, 458.3799
663.6270, 511.5928
664.7870, 492.8945
665.9480, 482.7930
667.1080, 460.4814
668.2680, 375.7666
669.4280, 399.1113
670.5880, 339.8945
671.7480, 362.7676
672.9070, 321.0049
674.0670, 340.4355
675.2260, 202.5498
676.3850, 283.9814
677.5440, 228.6279
678.7030, 132.4404
679.8610, 195.5186
681.0200, 184.0186
682.1780, 165.4912
683.3360, 186.2803
684.4940, 111.2520
685.6520, 115.9844
686.8090, 15.40723
687.9670, 91.58301
689.1240, 3.587891
690.2810, 1.821289
691.4380, 2.223633
692.5950, 12.69531
693.7520, 78.77539
694.9080, 86.96777
696.0650, 21.16699
697.2210, 35.97754
698.3770, 88.34375
699.5330, 63.65137
700.6880, 65.66309
701.8440, 1.391602
702.9990, 119.6455
704.1550, 136.1055
705.3100, 20.76953
706.4650, 61.87012
707.6190, 27.74805
708.7740, 48.54492
709.9290, 68.90625
711.0830, 78.69141
712.2370, 19.07422
713.3910, 137.5342
714.5450, 126.9658
715.6980, 106.0879
716.8520, 77.98828
718.0050, 155.6201
719.1580, 151.5537
720.3110, 145.3350
721.4640, 77.98730
722.6170, 61.23828
723.7700, 168.5332
724.9220, 56.43359
726.0740, 122.7822
727.2260, 49.63672
728.3780, 152.8047
729.5300, 179.9580
730.6810, 336.9141
731.8330, 408.9873
732.9840, 147.7803
734.1350, 277.7969
735.2860, 193.9102
736.4370, 120.1279
737.5880, 194.1709
738.7380, 304.0088
739.8880, 237.3086
741.0390, 288.4023
742.1890, 392.3057
743.3380, 432.5947
744.4880, 503.0723
745.6380, 355.1914
746.7870, 376.4971
747.9360, 562.9199
749.0850, 680.7969
750.2340, 542.2266
751.3830, 502.9355
752.5310, 588.8135
753.6800, 708.1299
754.8280, 669.5547
755.9760, 843.2705
757.1240, 1007.660
758.2720, 945.8750
759.4190, 1013.208
760.5670, 1227.579
761.7140, 1042.711
762.8610, 1208.853
764.0080, 1341.061
765.1550, 1153.689
766.3020, 1585.359
767.4480, 1439.496
768.5950, 1616.940
769.7410, 1591.356
770.8870, 1733.448
772.0330, 1626.982
773.1780, 1801.777
774.3240, 1672.261
775.4690, 1700.021
776.6140, 1764.235
777.7590, 1796.020
778.9040, 1804.762
780.0490, 1795.625
781.1940, 1759.413
782.3380, 1762.647
783.4820, 1727.617
784.6260, 1711.134
785.7700, 1648.603
786.9140, 1553.958
788.0580, 1514.237
789.2010, 1620.817
790.3450, 1417.692
791.4880, 1477.242
792.6310, 1501.433
793.7730, 1354.918
794.9160, 1559.435
796.0590, 1248.172
797.2010, 1124.336
798.3430, 1243.391
799.4850, 1134.807
800.6270, 1193.406
801.7690, 1086.336
802.9100, 1060.631
804.0520, 1020.221
805.1930, 978.0996
806.3340, 879.9814
807.4750, 839.9092
808.6160, 790.2432
809.7560, 846.2852
810.8970, 724.7734
812.0370, 703.3145
813.1770, 705.2676
814.3170, 883.5117
815.4570, 879.5176
816.5960, 622.0938
817.7360, 810.9648
818.8750, 719.7617
820.0140, 648.4395
821.1530, 608.2109
822.2920, 579.6875
823.4310, 573.1875
824.5690, 507.7334
825.7070, 475.5771
826.8460, 410.3564
827.9840, 377.3125
829.1220, 366.3955
830.2590, 329.2520
831.3970, 134.9619
832.5340, 206.7139
833.6710, 20.76172
834.8080, 149.7500
835.9450, 105.8633
837.0820, 89.58105
838.2190, 103.9619
839.3550, 199.0840
840.4910, 106.0068
841.6270, 85.95898
842.7630, 99.41309
843.8990, 6.993164
845.0350, 6.352539
846.1700, 95.72168
847.3060, 73.71875
848.4410, 117.1123
849.5760, 62.78809
850.7100, 184.6787
851.8450, 64.94727
852.9800, 16.21094
854.1140, 15.17773
855.2480, 61.40039
856.3820, 57.54688
857.5160, 118.6084
858.6500, 50.33496
859.7830, 50.06934
860.9170, 121.8535
862.0500, 80.25195
863.1830, 195.8701
864.3160, 54.12793
865.4480, 27.75781
866.5810, 27.56738
867.7130, 109.6582
868.8460, 173.1191
869.9780, 86.04492
871.1100, 36.30469
872.2410, 46.88770
873.3730, 4.290039
874.5050, 16.75684
875.6360, 78.80664
876.7670, 156.7871
877.8980, 42.75293
879.0290, 83.46094
880.1590, 13.71289
881.2900, 20.81543
882.4200, 56.74609
883.5500, 43.28711
884.6800, 69.40625
885.8100, 32.36426
886.9400, 114.0742
888.0690, 10.72949
889.1990, 50.68262
890.3280, 3.190430
891.4570, 77.54102
892.5860, 6.461914
893.7140, 89.22461
894.8430, 77.10254
895.9710, 12.08594
897.1000, 27.14355
898.2280, 12.28027
899.3560, 15.48828
900.4830, 24.76953
901.6110, 27.58594
902.7380, 37.66016
903.8660, 45.07617
904.9930, 29.67480
906.1200, 26.34863
907.2460, 37.90332
908.3730, 76.89355
909.5000, 26.21387
910.6260, 63.72852
911.7520, 73.75781
912.8780, 101.8799
914.0040, 19.10742
915.1290, 47.60254
916.2550, 44.26660
917.3800, 37.88770
918.5050, 75.46484
919.6300, 45.34961
920.7550, 35.49316
921.8800, 40.94434
923.0040, 76.35352
924.1290, 145.7227
925.2530, 44.94434
926.3770, 184.3223
927.5010, 21.44629
928.6250, 94.73242
929.7480, 96.87500
930.8720, 24.98242
931.9950, 65.05078
933.1180, 10.08496
934.2410, 86.08496
935.3640, 97.05371
936.4860, 54.99219
937.6090, 11.89844
938.7310, 154.7705
939.8530, 89.61328
940.9750, 161.4268
942.0970, 177.2139
943.2180, 269.9746
944.3400, 173.7100
945.4610, 263.4189
946.5820, 102.1045
947.7030, 161.7656
948.8240, 323.4053
949.9450, 160.0205
951.0650, 187.6143
952.1860, 329.1895
953.3060, 352.7422
954.4260, 300.2754
955.5460, 364.7891
956.6650, 376.2812
957.7850, 329.7549
958.9040, 236.2109
960.0230, 435.6553
961.1420, 469.0820
962.2610, 399.4980
963.3800, 412.9053
964.4990, 373.3018
965.6170, 414.6025
966.7350, 468.0781
967.8530, 390.8389
968.9710, 543.3496
970.0890, 497.8496
971.2070, 571.1914
972.3240, 716.4521
973.4410, 630.7891
974.5580, 549.5156
975.6750, 612.8408
976.7920, 507.0674
977.9090, 766.3438
979.0250, 683.6426
980.1410, 706.9141
981.2580, 602.1611
982.3740, 780.3369
983.4890, 806.6982
984.6050, 695.0801
985.7200, 935.7354
986.8360, 883.9697
987.9510, 1005.878
989.0660, 1008.737
990.1810, 1029.806
991.2950, 913.8076
992.4100, 1177.157
993.5240, 1066.031
994.6390, 1209.154
995.7530, 1221.510
996.8660, 1191.698
997.9800, 1248.405
999.0940, 1224.408
1000.207, 1378.838
1001.320, 1384.393
1002.433, 1423.755
1003.546, 1414.320
1004.659, 1394.596
1005.772, 1624.698
1006.884, 1566.621
1007.996, 1579.641
1009.108, 1522.826
1010.220, 1674.480
1011.332, 1788.267
1012.444, 1625.178
1013.555, 1777.633
1014.666, 1837.824
1015.777, 1848.316
1016.888, 1939.564
1017.999, 1862.623
1019.110, 1954.156
1020.220, 1941.066
1021.331, 1952.646
1022.441, 1909.985
1023.551, 1932.817
1024.661, 1970.473
1025.770, 1962.407
1026.880, 1999.513
1027.989, 1996.676
1029.098, 2021.371
1030.207, 2039.959
1031.316, 2009.559
1032.425, 1979.081
1033.533, 1956.142
1034.642, 1906.704
1035.750, 1899.186
1036.858, 1824.466
1037.966, 1837.372
1039.073, 1838.248
1040.181, 1790.381
1041.288, 1735.010
1042.396, 1890.320
1043.503, 1877.878
1044.610, 1861.097
1045.716, 1772.798
1046.823, 1706.868
1047.929, 1705.421
1049.036, 1665.982
1050.142, 1716.687
1051.248, 1650.584
1052.353, 1691.674
1053.459, 1684.667
1054.564, 1756.649
1055.670, 1554.685
1056.775, 1638.897
1057.880, 1565.432
1058.985, 1504.771
1060.089, 1557.384
1061.194, 1472.265
1062.298, 1307.710
1063.402, 1499.194
1064.506, 1365.414
1065.610, 1394.736
1066.713, 1516.059
1067.817, 1436.635
1068.920, 1379.289
1070.023, 1453.809
1071.126, 1621.183
1072.229, 1502.020
1073.332, 1513.792
1074.435, 1573.691
1075.537, 1546.610
1076.639, 1469.551
1077.741, 1578.509
1078.843, 1767.492
1079.945, 1715.496
1081.046, 1838.521
1082.148, 1895.572
1083.249, 1916.652
1084.350, 1915.758
1085.451, 2001.886
1086.551, 2195.037
1087.652, 2105.211
1088.752, 2301.406
1089.853, 2287.627
1090.953, 2466.869
1092.053, 2715.133
1093.152, 2723.420
1094.252, 2865.790
1095.351, 2901.064
1096.451, 2947.423
1097.550, 3051.838
1098.649, 3243.238
1099.748, 3268.685
1100.846, 3363.156
1101.945, 3587.674
1103.043, 3582.219
1104.141, 3535.791
1105.239, 3869.393
1106.337, 3917.021
1107.434, 3774.699
1108.532, 4080.408
1109.629, 4107.479
1110.726, 4136.253
1111.823, 4151.211
1112.920, 4098.061
1114.017, 4269.940
1115.113, 4356.047
1116.210, 4303.312
1117.306, 4501.342
1118.402, 4682.397
1119.498, 4528.180
1120.593, 4718.328
1121.689, 4676.515
1122.784, 4605.168
1123.879, 4802.416
1124.974, 4669.691
1126.069, 4834.002
1127.164, 4704.808
1128.259, 4797.846
1129.353, 4615.537
1130.447, 4628.721
1131.541, 4840.219
1132.635, 4877.664
1133.729, 4806.245
1134.822, 4821.854
1135.916, 4858.178
1137.009, 4916.900
1138.102, 4893.987
1139.195, 4935.791
1140.288, 4989.132
1141.380, 5082.229
1142.473, 5059.157
1143.565, 5020.205
1144.657, 5147.259
1145.749, 5148.369
1146.841, 5172.096
1147.932, 4944.068
1149.024, 5240.279
1150.115, 4993.536
1151.206, 5562.850
1152.297, 5148.225
1153.388, 5187.614
1154.479, 5183.033
1155.569, 5206.504
1156.659, 5188.568
1157.750, 5197.814
1158.839, 5127.706
1159.929, 5078.871
1161.019, 5010.494
1162.108, 4925.232
1163.198, 4816.019
1164.287, 4680.846
1165.376, 4645.710
1166.465, 4560.896
1167.553, 4576.832
1168.642, 4355.809
1169.730, 4440.393
1170.818, 4342.443
1171.906, 4046.531
1172.994, 4139.894
1174.082, 4071.049
1175.170, 3856.373
1176.257, 3913.592
1177.344, 3667.861
1178.431, 3676.805
1179.518, 3602.667
1180.605, 3641.877
1181.691, 3468.279
1182.778, 3209.154
1183.864, 3085.623
1184.950, 3093.325
1186.036, 2871.800
1187.122, 2833.425
1188.207, 2581.941
1189.292, 2645.469
1190.378, 2451.031
1191.463, 2331.759
1192.548, 2257.365
1193.632, 2085.988
1194.717, 2029.530
1195.801, 2038.355
1196.886, 1844.027
1197.970, 1754.799
1199.054, 1589.771
1200.137, 1487.983
1201.221, 1378.963
1202.305, 1233.896
1203.388, 1251.775
1204.471, 1025.788
1205.554, 1080.582
1206.637, 1065.388
1207.719, 1019.207
1208.802, 874.4521
1209.884, 849.2959
1210.966, 573.4326
1212.048, 610.3770
1213.130, 577.6904
1214.212, 584.1436
1215.293, 391.5215
1216.374, 525.7031
1217.456, 347.7969
1218.536, 353.8369
1219.617, 493.8740
1220.698, 223.0049
1221.778, 313.9697
1222.859, 354.9434
1223.939, 221.9287
1225.019, 281.4102
1226.099, 170.4121
1227.178, 141.9336
1228.258, 114.9531
1229.337, 206.9795
1230.417, 282.0146
1231.496, 167.0566
1232.574, 65.14355
1233.653, 54.22852
1234.732, 82.55859
1235.810, 54.77344
1236.888, 128.1719
1237.966, 108.2568
1239.044, 21.36035
1240.122, 47.64941
1241.199, 118.2236
1242.277, 88.08594
1243.354, 40.55078
1244.431, 96.43359
1245.508, 114.7207
1246.585, 20.70801
1247.661, 97.81445
1248.738, 30.58789
1249.814, 26.91406
1250.890, 47.57910
1251.966, 20.95605
1253.042, 24.51562
1254.117, 26.56934
1255.193, 37.88965
1256.268, 19.78320
1257.343, 50.48047
1258.418, 163.3574
1259.493, 87.37891
1260.567, 46.82227
1261.642, 30.44434
1262.716, 182.9980
1263.790, 104.1670
1264.864, 63.29785
1265.938, 60.29199
1267.011, 10.49023
1268.085, 49.70508
1269.158, 155.2832
1270.231, 32.31543
1271.304, 84.47266
1272.377, 45.74316
1273.450, 108.3877
1274.522, 19.31055
1275.594, 51.94727
1276.666, 54.59961
1277.738, 68.88770
1278.810, 77.89746
1279.882, 62.87598
1280.953, 69.60059
1282.025, 12.64355
1283.096, 22.96973
1284.167, 67.61816
1285.238, 92.23242
1286.308, 83.86523
1287.379, 92.72363
1288.449, 21.78320
1289.519, 94.83398
1290.589, 48.98047
1291.659, 71.37598
1292.729, 127.5156
1293.798, 72.69531
1294.868, 43.90039
1295.937, 48.56055
1297.006, 165.8389
1298.075, 4.330078
1299.143, 77.75977
1300.212, 64.98145
1301.280, 4.813477
1302.348, 87.35938
1303.416, 28.65137
1304.484, 158.7852
1305.552, 239.5537
