##NAMES=Clinoptilolite-Ca
##RRUFFID=R060662
##IDEAL CHEMISTRY=Ca_3_(Si_30_Al_6_)O_72_&#183;20H_2_O
##LOCALITY=Succor Creek, Malheur County, Oregon, USA
##OWNER=RRUFF
##SOURCE=Michael Scott
##DESCRIPTION=Group of colorless platy prismatic crystals
##STATUS=The identification of this mineral has been confirmed by X-ray diffraction and chemical analysis
##URL=rruff.info/R060662
##MEASURED CHEMISTRY=(Ca_1.02_Na_0.97_K_0.59_)_Σ=2.58_(Si_14.40_Al_3.60_)_Σ=18_O_36_·10.96H_2_O
##PIN_ID=M00134
##ORIENTATION=Laser parallel to (1 0 1). Fiducial mark perpendicular to laser is parallel to b [0 1 0]
134.1270, 0.0000000E+00
135.3560, 144.7656
136.5850, 957.9531
137.8140, 1201.227
139.0430, 1393.164
140.2710, 1564.930
141.5000, 1528.523
142.7280, 1489.621
143.9560, 1855.000
145.1840, 1612.738
146.4120, 1655.418
147.6390, 1759.277
148.8670, 1494.615
150.0940, 1603.457
151.3210, 1668.570
152.5490, 1293.646
153.7750, 1559.299
155.0020, 1442.633
156.2290, 1171.168
157.4550, 784.0859
158.6810, 895.3086
159.9080, 756.1855
161.1340, 1034.318
162.3590, 676.2461
163.5850, 601.8262
164.8110, 655.2871
166.0360, 611.3789
167.2610, 385.1211
168.4860, 247.5859
169.7110, 477.0234
170.9360, 437.4707
172.1610, 797.5059
173.3850, 756.8730
174.6100, 736.4766
175.8340, 744.9160
177.0580, 631.4570
178.2820, 637.2598
179.5050, 518.9609
180.7290, 425.4805
181.9520, 407.7617
183.1760, 447.7930
184.3990, 331.3320
185.6220, 313.2891
186.8450, 171.0586
188.0670, 224.5547
189.2900, 252.0254
190.5120, 288.4531
191.7340, 123.8398
192.9560, 161.2246
194.1780, 11.36133
195.4000, 106.1211
196.6220, 41.71094
197.8430, 32.87500
199.0640, 40.39062
200.2860, 293.2285
201.5070, 419.2422
202.7270, 202.9629
203.9480, 169.2305
205.1690, 288.9453
206.3890, 319.1074
207.6090, 329.3477
208.8290, 319.7500
210.0490, 232.2871
211.2690, 159.6855
212.4890, 209.9043
213.7080, 2.322266
214.9280, 122.6797
216.1470, 135.0723
217.3660, 308.4688
218.5850, 205.4453
219.8030, 349.4375
221.0220, 383.5977
222.2400, 521.3516
223.4590, 420.9609
224.6770, 592.9258
225.8950, 659.4629
227.1120, 1092.633
228.3300, 1030.547
229.5480, 1174.988
230.7650, 1099.580
231.9820, 1655.967
233.1990, 1712.795
234.4160, 2077.035
235.6330, 2091.721
236.8490, 2212.834
238.0660, 2504.299
239.2820, 2496.139
240.4980, 2698.391
241.7140, 2894.215
242.9300, 2950.252
244.1460, 2995.273
245.3610, 3198.324
246.5770, 3086.564
247.7920, 3258.217
249.0070, 2988.457
250.2220, 2933.324
251.4370, 2902.861
252.6510, 2984.080
253.8660, 2770.031
255.0800, 2557.750
256.2940, 2593.258
257.5080, 2750.604
258.7220, 2500.859
259.9360, 2509.965
261.1490, 2194.008
262.3630, 1873.969
263.5760, 1726.857
264.7890, 1570.674
266.0020, 1476.467
267.2150, 1224.203
268.4270, 1069.900
269.6400, 948.5410
270.8520, 954.1914
272.0640, 714.7871
273.2760, 743.3066
274.4880, 558.7734
275.7000, 397.1719
276.9120, 233.4980
278.1230, 113.6660
279.3340, 80.75586
280.5450, 8.320313
281.7560, 106.9238
282.9670, 2.650391
284.1780, 107.7539
285.3880, 9.494141
286.5980, 147.8730
287.8090, 29.36133
289.0190, 38.02539
290.2290, 126.2715
291.4380, 250.6211
292.6480, 95.13477
293.8570, 15.64258
295.0670, 14.87695
296.2760, 386.8887
297.4850, 286.6504
298.6930, 152.1816
299.9020, 140.5625
301.1110, 446.8750
302.3190, 389.0371
303.5270, 516.2188
304.7350, 382.6836
305.9430, 575.4766
307.1510, 634.3633
308.3580, 787.9824
309.5660, 812.4941
310.7730, 783.3164
311.9800, 875.0840
313.1870, 927.0430
314.3940, 846.7188
315.6010, 1296.275
316.8070, 1301.154
318.0130, 1192.150
319.2200, 1472.545
320.4260, 1313.768
321.6310, 1547.400
322.8370, 1786.523
324.0430, 1623.246
325.2480, 1912.391
326.4540, 1803.105
327.6590, 2213.383
328.8640, 2278.994
330.0680, 2362.006
331.2730, 2565.674
332.4780, 2407.670
333.6820, 2612.848
334.8860, 2582.494
336.0900, 2761.760
337.2940, 3036.787
338.4980, 2892.783
339.7010, 3413.059
340.9050, 3273.820
342.1080, 3603.389
343.3110, 3757.746
344.5140, 4090.488
345.7170, 4073.727
346.9200, 4178.395
348.1220, 4514.240
349.3240, 4561.430
350.5270, 4862.148
351.7290, 5125.965
352.9310, 5396.105
354.1320, 5713.863
355.3340, 6108.816
356.5350, 6362.125
357.7370, 6685.254
358.9380, 7027.287
360.1390, 7278.732
361.3400, 7803.904
362.5400, 8204.418
363.7410, 8652.535
364.9410, 8834.289
366.1410, 9355.207
367.3410, 10036.17
368.5410, 10519.19
369.7410, 10696.54
370.9400, 11571.39
372.1400, 11865.20
373.3390, 12224.66
374.5380, 13024.66
375.7370, 13523.28
376.9360, 13916.56
378.1350, 15089.79
379.3330, 15767.14
380.5310, 16796.35
381.7300, 17250.79
382.9280, 18649.87
384.1260, 19624.84
385.3230, 20677.54
386.5210, 21973.49
387.7180, 23213.34
388.9160, 24588.46
390.1130, 26041.89
391.3100, 27587.19
392.5060, 29162.82
393.7030, 30968.55
394.9000, 32116.29
396.0960, 33053.09
397.2920, 34649.92
398.4880, 35403.11
399.6840, 35701.47
400.8800, 35954.30
402.0750, 36047.31
403.2710, 35566.85
404.4660, 34923.20
405.6610, 34115.93
406.8560, 32839.31
408.0510, 31470.22
409.2450, 30161.70
410.4400, 28691.58
411.6340, 26786.19
412.8280, 25302.48
414.0220, 23550.56
415.2160, 21872.88
416.4100, 20386.19
417.6030, 18985.72
418.7970, 17713.87
419.9900, 16345.21
421.1830, 15193.46
422.3760, 13832.90
423.5690, 12961.73
424.7610, 11877.49
425.9540, 10827.65
427.1460, 9989.090
428.3380, 9160.891
429.5300, 8364.816
430.7220, 7767.756
431.9140, 7190.121
433.1050, 6558.496
434.2970, 6288.438
435.4880, 5877.863
436.6790, 5422.920
437.8700, 5170.084
439.0610, 4893.203
440.2510, 4677.891
441.4420, 4420.672
442.6320, 4321.141
443.8220, 4240.334
445.0120, 4237.516
446.2020, 4188.297
447.3910, 4467.467
448.5810, 4508.943
449.7700, 4827.109
450.9600, 5018.410
452.1490, 5161.256
453.3370, 5667.113
454.5260, 6077.773
455.7150, 6623.752
456.9030, 7100.174
458.0910, 7629.951
459.2800, 8105.281
460.4670, 8672.910
461.6550, 9177.078
462.8430, 9578.418
464.0300, 10030.11
465.2180, 10447.80
466.4050, 10975.51
467.5920, 11172.56
468.7790, 11912.86
469.9650, 12331.75
471.1520, 13188.37
472.3380, 14116.98
473.5250, 15047.59
474.7110, 16078.20
475.8970, 16908.82
477.0820, 17426.44
478.2680, 17982.07
479.4540, 18319.70
480.6390, 18524.34
481.8240, 17990.99
483.0090, 17079.68
484.1940, 16290.39
485.3780, 14836.12
486.5630, 13642.89
487.7470, 12316.70
488.9320, 10941.49
490.1160, 9414.289
491.3000, 8250.088
492.4830, 7240.965
493.6670, 6087.953
494.8500, 5512.057
496.0340, 4725.281
497.2170, 3974.621
498.4000, 3490.061
499.5820, 3093.584
500.7650, 3647.197
501.9480, 2759.799
503.1300, 2604.541
504.3120, 1680.244
505.4940, 1655.957
506.6760, 1285.689
507.8580, 1129.434
509.0390, 1036.186
510.2210, 1072.943
511.4020, 791.7109
512.5830, 824.4805
513.7640, 640.2500
514.9450, 689.0156
516.1250, 529.7754
517.3060, 661.5273
518.4860, 397.2695
519.6660, 451.5508
520.8460, 298.2578
522.0260, 330.2148
523.2060, 384.6152
524.3850, 263.6152
525.5650, 268.3887
526.7440, 309.9863
527.9230, 232.2090
529.1020, 255.1172
530.2810, 149.6523
531.4590, 70.37695
532.6380, 338.1562
533.8160, 5.941406
534.9940, 226.3281
536.1720, 139.9531
537.3500, 186.8164
538.5270, 44.90234
539.7050, 311.8066
540.8820, 59.70898
542.0590, 15.10547
543.2360, 23.61133
544.4130, 195.9492
545.5900, 187.4727
546.7660, 81.33008
547.9430, 46.33984
549.1190, 73.73828
550.2950, 28.89844
551.4710, 23.43164
552.6470, 170.6445
553.8220, 10.90430
554.9980, 182.2852
556.1730, 9.687500
557.3480, 182.8379
558.5230, 12.38477
559.6980, 8.923828
560.8730, 44.51172
562.0470, 158.5254
563.2220, 225.3926
564.3960, 36.92969
565.5700, 127.2656
566.7440, 28.48633
567.9170, 6.734375
569.0910, 15.84180
570.2640, 216.8457
571.4380, 93.66602
572.6110, 124.5332
573.7840, 150.4180
574.9570, 362.3164
576.1290, 14.76758
577.3020, 450.2129
578.4740, 361.2168
579.6460, 312.2441
580.8180, 653.2988
581.9900, 821.3672
583.1620, 682.4551
584.3330, 684.5684
585.5040, 438.7051
586.6760, 844.8555
587.8470, 827.0293
589.0180, 1023.217
590.1880, 964.4238
591.3590, 1053.648
592.5290, 1226.887
593.7000, 1446.139
594.8700, 1426.404
596.0400, 1445.686
597.2090, 1937.980
598.3790, 2103.283
599.5490, 2401.602
600.7180, 2676.924
601.8870, 2862.252
603.0560, 3120.594
604.2250, 3366.939
605.3940, 3701.291
606.5620, 3872.645
607.7300, 4113.990
608.8990, 4290.350
610.0670, 4860.703
611.2350, 4554.082
612.4020, 4935.457
613.5700, 4940.824
614.7370, 4859.186
615.9050, 4722.547
617.0720, 4580.902
618.2390, 4488.252
619.4060, 4359.598
620.5720, 4167.734
621.7390, 3896.303
622.9050, 3814.650
624.0710, 3477.000
625.2370, 3395.342
626.4030, 3110.672
627.5690, 2778.994
628.7340, 2657.361
629.9000, 2099.643
631.0650, 2229.961
632.2300, 1859.307
633.3950, 1511.645
634.5600, 1583.969
635.7240, 1440.314
636.8890, 1237.656
638.0530, 1274.006
639.2170, 1019.355
640.3810, 974.7168
641.5450, 1012.088
642.7080, 1003.445
643.8720, 914.8008
645.0350, 925.1543
646.1980, 878.4902
647.3610, 833.8516
648.5240, 676.2051
649.6870, 888.5586
650.8490, 583.9219
652.0120, 763.2715
653.1740, 570.6191
654.3360, 571.9512
655.4980, 391.2812
656.6600, 293.5957
657.8210, 543.9043
658.9830, 131.8086
660.1440, 275.9336
661.3050, 196.4180
662.4660, 19.04492
663.6270, 170.8809
664.7870, 216.2227
665.9480, 248.6035
667.1080, 90.15820
668.2680, 32.59570
669.4280, 43.69141
670.5880, 180.5234
671.7480, 85.98633
672.9070, 146.5938
674.0670, 184.2402
675.2260, 32.73242
676.3850, 35.37695
677.5440, 26.64844
678.7030, 91.02734
679.8610, 68.74023
681.0200, 89.23242
682.1780, 102.6719
683.3360, 92.14453
684.4940, 0.5898440
685.6520, 188.9102
686.8090, 70.96094
687.9670, 229.8516
689.1240, 16.42969
690.2810, 274.0293
691.4380, 141.1230
692.5950, 168.5371
693.7520, 98.05078
694.9080, 80.74023
696.0650, 49.20117
697.2210, 112.1250
698.3770, 138.9473
699.5330, 72.34961
700.6880, 224.8750
701.8440, 139.9180
702.9990, 21.65039
704.1550, 214.8340
705.3100, 242.3125
706.4650, 279.7617
707.6190, 254.6641
708.7740, 212.0605
709.9290, 221.3008
711.0830, 202.0234
712.2370, 315.8750
713.3910, 250.8398
714.5450, 385.6719
715.6980, 222.1992
716.8520, 306.1152
718.0050, 374.9453
719.1580, 475.5664
720.3110, 450.4355
721.4640, 489.2402
722.6170, 468.1328
723.7700, 446.9551
724.9220, 370.7637
726.0740, 274.5547
727.2260, 251.3281
728.3780, 434.0859
729.5300, 327.8281
730.6810, 346.7617
731.8330, 356.4688
732.9840, 307.1562
734.1350, 495.8281
735.2860, 408.7441
736.4370, 618.3789
737.5880, 509.9941
738.7380, 502.5918
739.8880, 337.1738
741.0390, 471.1934
742.1890, 790.8750
743.3380, 792.9004
744.4880, 733.4062
745.6380, 532.9199
746.7870, 637.2578
747.9360, 662.7031
749.0850, 699.2090
750.2340, 573.8066
751.3830, 788.1914
752.5310, 951.8926
753.6800, 1143.709
754.8280, 954.0898
755.9760, 1071.271
757.1240, 1118.314
758.2720, 1086.516
759.4190, 1240.770
760.5670, 1176.246
761.7140, 1425.701
762.8610, 1419.299
764.0080, 1610.508
765.1550, 1797.064
766.3020, 1848.070
767.4480, 1826.354
768.5950, 1975.404
769.7410, 1849.553
770.8870, 2002.998
772.0330, 2246.150
773.1780, 2154.367
774.3240, 2307.127
775.4690, 2339.789
776.6140, 2617.805
777.7590, 2591.441
778.9040, 2637.008
780.0490, 2731.521
781.1940, 2592.652
782.3380, 2622.053
783.4820, 2574.922
784.6260, 2527.955
785.7700, 2597.480
786.9140, 2556.367
788.0580, 2563.422
789.2010, 2341.168
790.3450, 2395.996
791.4880, 2152.988
792.6310, 2225.502
793.7730, 1935.762
794.9160, 1828.744
796.0590, 1980.184
797.2010, 2182.102
798.3430, 2164.531
799.4850, 1702.555
800.6270, 1705.285
801.7690, 1669.441
802.9100, 1700.600
804.0520, 1632.305
805.1930, 1788.004
806.3340, 2039.812
807.4750, 1952.941
808.6160, 2295.771
809.7560, 2199.613
810.8970, 2818.766
812.0370, 2449.719
813.1770, 2813.064
814.3170, 2951.984
815.4570, 3176.326
816.5960, 3312.684
817.7360, 3357.443
818.8750, 3151.770
820.0140, 3263.135
821.1530, 3136.621
822.2920, 2630.771
823.4310, 2604.596
824.5690, 2276.826
825.7070, 1658.723
826.8460, 1508.303
827.9840, 1508.201
829.1220, 1016.719
830.2590, 1272.396
831.3970, 932.7637
832.5340, 857.2656
833.6710, 672.4688
834.8080, 808.9883
835.9450, 540.6113
837.0820, 522.9414
838.2190, 419.8027
839.3550, 491.4590
840.4910, 462.8516
841.6270, 359.7402
842.7630, 579.6367
843.8990, 334.5156
845.0350, 576.3789
846.1700, 549.2246
847.3060, 543.0469
848.4410, 575.8516
849.5760, 291.6348
850.7100, 634.3945
851.8450, 330.1289
852.9800, 553.8535
854.1140, 441.5508
855.2480, 489.2207
856.3820, 647.8711
857.5160, 518.4941
858.6500, 612.0918
859.7830, 572.6680
860.9170, 505.2148
862.0500, 493.7383
863.1830, 667.2383
864.3160, 363.7129
865.4480, 417.1621
866.5810, 147.5879
867.7130, 311.9883
868.8460, 208.3652
869.9780, 296.7168
871.1100, 133.0410
872.2410, 240.3438
873.3730, 290.6230
874.5050, 202.8770
875.6360, 197.1074
876.7670, 23.31445
877.8980, 159.4844
879.0290, 73.62695
880.1590, 191.7441
881.2900, 183.8359
882.4200, 7.093750
883.5500, 195.9238
884.6800, 76.08203
885.8100, 30.82812
886.9400, 237.7031
888.0690, 106.5547
889.1990, 1.617188
890.3280, 172.1621
891.4570, 42.91797
892.5860, 48.64453
893.7140, 10.66016
894.8430, 29.11328
895.9710, 119.5723
897.1000, 0.1328130
898.2280, 78.65234
899.3560, 165.1445
900.4830, 76.61523
901.6110, 28.94336
902.7380, 129.4434
903.8660, 2.806641
904.9930, 112.8730
906.1200, 71.34766
907.2460, 134.5410
908.3730, 84.28516
909.5000, 13.19922
910.6260, 45.16016
911.7520, 2.187500
912.8780, 78.25195
914.0040, 62.05859
915.1290, 41.38477
916.2550, 24.86328
917.3800, 12.16016
918.5050, 114.4980
919.6300, 121.8652
920.7550, 1.328125
921.8800, 41.83203
923.0040, 61.39258
924.1290, 11.97656
925.2530, 27.76172
926.3770, 49.60938
927.5010, 41.12500
928.6250, 25.08789
929.7480, 0.7246090
930.8720, 252.4258
931.9950, 128.5586
933.1180, 130.6758
934.2410, 44.22461
935.3640, 102.8223
936.4860, 50.14258
937.6090, 64.16016
938.7310, 30.75977
939.8530, 83.34180
940.9750, 120.4863
942.0970, 115.3184
943.2180, 195.1387
944.3400, 213.0566
945.4610, 21.64258
946.5820, 100.6758
947.7030, 57.98438
948.8240, 185.6348
949.9450, 158.7109
951.0650, 176.8574
952.1860, 54.41406
953.3060, 116.9844
954.4260, 290.5410
955.5460, 43.08594
956.6650, 219.6465
957.7850, 482.2090
958.9040, 245.8125
960.0230, 186.4180
961.1420, 182.0098
962.2610, 173.6055
963.3800, 164.8965
964.4990, 116.7559
965.6170, 213.3125
966.7350, 211.8555
967.8530, 306.4180
968.9710, 82.96875
970.0890, 175.5137
971.2070, 108.0469
972.3240, 321.5684
973.4410, 225.0840
974.5580, 191.5898
975.6750, 159.0957
976.7920, 196.5840
977.9090, 292.0801
979.0250, 367.5605
980.1410, 396.0312
981.2580, 433.4883
982.3740, 184.9375
983.4890, 312.3750
984.6050, 261.8027
985.7200, 330.2402
986.8360, 410.6680
987.9510, 419.0859
989.0660, 512.4902
990.1810, 478.8848
991.2950, 332.2695
992.4100, 377.6406
993.5240, 412.1016
994.6390, 468.4492
995.7530, 663.8711
996.8660, 543.2988
997.9800, 801.7168
999.0940, 866.1719
1000.207, 739.6680
1001.320, 1003.947
1002.433, 935.8047
1003.546, 1128.893
1004.659, 951.3535
1005.772, 902.5449
1006.884, 850.9902
1007.996, 942.4258
1009.108, 848.8555
1010.220, 930.2793
1011.332, 945.3945
1012.444, 815.5039
1013.555, 1072.404
1014.666, 1072.799
1015.777, 1263.158
1016.888, 882.6738
1017.999, 1098.055
1019.110, 883.3496
1020.220, 1100.529
1021.331, 1217.895
1022.441, 1212.920
1023.551, 1035.805
1024.661, 1220.102
1025.770, 1046.572
1026.880, 1035.152
1027.989, 1148.557
1029.098, 1116.881
1030.207, 1170.959
1031.316, 1453.035
1032.425, 1428.943
1033.533, 1343.217
1034.642, 1209.121
1035.750, 1339.549
1036.858, 1307.680
1037.966, 1335.020
1039.073, 1384.236
1040.181, 1428.139
1041.288, 1211.307
1042.396, 1340.389
1043.503, 1535.908
1044.610, 1213.498
1045.716, 1534.715
1046.823, 1575.287
1047.929, 1450.910
1049.036, 1359.564
1050.142, 1251.578
1051.248, 1230.371
1052.353, 1538.535
1053.459, 1426.584
1054.564, 1368.117
1055.670, 1306.268
1056.775, 1051.230
1057.880, 1098.482
1058.985, 1296.631
1060.089, 1334.594
1061.194, 917.0098
1062.298, 1292.664
1063.402, 1061.574
1064.506, 1198.008
1065.610, 1046.389
1066.713, 1139.797
1067.817, 1069.445
1068.920, 1153.637
1070.023, 1116.887
1071.126, 1010.307
1072.229, 1404.303
1073.332, 1140.631
1074.435, 1123.111
1075.537, 1362.590
1076.639, 1355.131
1077.741, 1398.545
1078.843, 1595.639
1079.945, 1330.273
1081.046, 1640.656
1082.148, 1416.301
1083.249, 1773.541
1084.350, 1600.271
1085.451, 1793.781
1086.551, 1794.545
1087.652, 1607.316
1088.752, 2007.846
1089.853, 1648.646
1090.953, 2083.469
1092.053, 1833.793
1093.152, 2011.643
1094.252, 2081.502
1095.351, 1917.377
1096.451, 2205.266
1097.550, 2123.176
1098.649, 2234.098
1099.748, 2276.031
1100.846, 2345.986
1101.945, 2370.236
1103.043, 2487.666
1104.141, 2609.211
1105.239, 2642.479
1106.337, 2706.504
1107.434, 2613.541
1108.532, 2754.594
1109.629, 2725.004
1110.726, 2579.082
1111.823, 2820.176
1112.920, 2672.281
1114.017, 2808.139
1115.113, 2694.273
1116.210, 2886.363
1117.306, 2904.102
1118.402, 3117.230
1119.498, 3068.424
1120.593, 2779.631
1121.689, 2933.857
1122.784, 2973.098
1123.879, 3223.352
1124.974, 2931.006
1126.069, 3230.289
1127.164, 3037.027
1128.259, 2916.682
1129.353, 2959.004
1130.447, 3142.404
1131.541, 2847.553
1132.635, 2532.914
1133.729, 3012.289
1134.822, 2751.691
1135.916, 2854.107
1137.009, 2958.535
1138.102, 2760.977
1139.195, 3064.461
1140.288, 2837.957
1141.380, 2789.467
1142.473, 2784.994
1143.565, 2745.543
1144.657, 3011.105
1145.749, 2997.684
1146.841, 2943.197
1147.932, 3024.275
1149.024, 2813.551
1150.115, 2828.221
1151.206, 2905.936
1152.297, 2465.670
1153.388, 2656.418
1154.479, 2574.180
1155.569, 2402.965
1156.659, 2553.766
1157.750, 2455.635
1158.839, 2400.527
1159.929, 2538.443
1161.019, 2610.395
1162.108, 2458.395
1163.198, 2491.418
1164.287, 2464.457
1165.376, 2222.508
1166.465, 2282.578
1167.553, 2248.695
1168.642, 2214.824
1169.730, 2244.977
1170.818, 2099.332
1171.906, 2144.754
1172.994, 2104.098
1174.082, 1919.270
1175.170, 2009.574
1176.257, 1823.918
1177.344, 1625.277
1178.431, 1913.688
1179.518, 1697.137
1180.605, 1603.594
1181.691, 1421.086
1182.778, 1338.602
1183.864, 1535.125
1184.950, 1386.711
1186.036, 1455.309
1187.122, 1398.945
1188.207, 1328.402
1189.292, 1067.301
1190.378, 1191.016
1191.463, 1092.742
1192.548, 992.5000
1193.632, 1183.277
1194.717, 794.0703
1195.801, 896.8750
1196.886, 756.6953
1197.970, 789.5195
1199.054, 732.3789
1200.137, 883.3047
1201.221, 724.2695
1202.305, 621.2070
1203.388, 537.1523
1204.471, 384.1406
1205.554, 327.1406
1206.637, 348.3594
1207.719, 513.1680
1208.802, 343.4570
1209.884, 519.5547
1210.966, 251.4336
1212.048, 27.58594
1213.130, 406.5391
1214.212, 164.0195
1215.293, 246.2500
1216.374, 399.0977
1217.456, 251.3359
1218.536, 774.5898
1219.617, 359.0156
1220.698, 163.7773
1221.778, 81.65234
1222.859, 312.6094
1223.939, 284.8750
1225.019, 98.48438
1226.099, 145.8594
1227.178, 46.41016
1228.258, 160.7070
1229.337, 112.0078
1230.417, 105.7617
1231.496, 47.92578
1232.574, 170.3906
1233.653, 7.703125
1234.732, 45.97266
1235.810, 166.6289
1236.888, 136.9492
1237.966, 143.3281
1239.044, 85.33594
1240.122, 141.9727
1241.199, 111.3398
1242.277, 349.6562
1243.354, 27.95703
1244.431, 48.36328
1245.508, 111.0703
1246.585, 115.5898
1247.661, 235.8555
1248.738, 154.5195
1249.814, 145.8203
1250.890, 122.8242
1251.966, 178.1328
1253.042, 132.4453
1254.117, 188.2344
1255.193, 35.99219
1256.268, 139.7773
1257.343, 72.60547
1258.418, 9.535156
1259.493, 179.3242
1260.567, 206.2695
1261.642, 58.69141
1262.716, 47.64453
1263.790, 49.48438
1264.864, 401.4453
1265.938, 309.4102
1267.011, 357.3750
1268.085, 250.5352
1269.158, 92.50391
1270.231, 216.4805
1271.304, 231.6953
1272.377, 162.6719
1273.450, 243.9805
1274.522, 82.00391
1275.594, 187.9922
1276.666, 15.10156
1277.738, 145.8750
1278.810, 203.2031
1279.882, 147.4883
1280.953, 93.68750
1282.025, 127.5391
1283.096, 154.6328
1284.167, 182.8594
1285.238, 207.6328
1286.308, 224.8203
1287.379, 224.9727
1288.449, 243.9297
1289.519, 157.8906
1290.589, 164.5781
1291.659, 364.5273
1292.729, 211.4727
1293.798, 350.4102
1294.868, 235.3477
1295.937, 274.5664
1297.006, 483.4922
1298.075, 274.4180
1299.143, 47.33594
1300.212, 36.24219
1301.280, 288.4766
1302.348, 349.3750
1303.416, 167.5078
1304.484, 348.6875
1305.552, 328.5625
1306.620, 312.2227
