##NAMES=Colemanite
##RRUFFID=R050102
##IDEAL CHEMISTRY=CaB_3_O_4_(OH)_3_&#183;H_2_O
##LOCALITY=Kramer deposit, Boron, Kern County, California, USA
##OWNER=RRUFF
##SOURCE=Rock Currier
##DESCRIPTION=Colorless prismatic to tabular crystals
##STATUS=The identification of this mineral has been confirmed by X-ray diffraction and chemical analysis
##URL=rruff.info/R050102
##MEASURED CHEMISTRY=Ca_1.00_B_3.00_O_4_(OH)_3_Â·H_2_O ; trace amounts of Na; B assumed by stoichiometry and charge balance.
##PIN_ID=L00081
##ORIENTATION=Laser parallel to a* (1 0 0). Fiducial mark perpendicular to laser is parallel to b [0 1 0]
73.000, 0.000
74.399, 817.740
75.797, 490.066
77.196, 644.097
78.594, 1554.647
79.992, 1407.669
81.389, 1782.522
82.787, 2333.673
84.184, 3231.491
85.581, 4123.006
86.978, 5655.982
88.374, 6308.088
89.770, 6589.965
91.166, 6065.287
92.562, 5386.640
93.958, 4114.102
95.353, 2952.582
96.748, 1963.182
98.143, 1200.024
99.538, 929.026
100.932, 547.199
102.326, 285.830
103.720, 45.073
105.114, 35.547
106.508, 209.353
107.901, 72.889
109.294, 36.252
110.687, 105.415
112.079, 127.854
113.472, 199.018
114.864, 105.273
116.256, 170.980
117.647, 206.201
119.039, 80.998
120.430, 74.565
121.821, 19.568
123.211, 66.555
124.602, 42.896
125.992, 80.569
127.382, 163.864
128.772, 257.008
130.162, 310.010
131.551, 262.883
132.940, 446.782
134.329, 554.947
135.718, 722.406
137.106, 567.265
138.494, 724.814
139.882, 650.371
141.270, 586.606
142.657, 646.627
144.045, 685.407
145.432, 705.497
146.819, 662.888
148.205, 650.357
149.592, 667.886
150.978, 755.455
152.364, 813.060
153.749, 820.695
155.135, 848.361
156.520, 936.489
157.905, 1053.791
159.290, 1131.639
160.674, 1269.604
162.059, 1407.694
163.443, 1485.907
164.826, 1694.352
166.210, 1743.022
167.593, 2051.901
168.977, 2001.021
170.360, 2330.324
171.742, 2729.796
173.125, 3309.516
174.507, 4119.307
175.889, 4799.086
177.271, 5178.961
178.652, 4658.982
180.034, 3859.079
181.415, 2959.246
182.796, 1969.389
184.176, 1439.549
185.557, 1079.709
186.937, 719.871
188.317, 550.029
189.697, 380.277
191.076, 280.589
192.456, 70.925
193.835, 81.232
195.213, 31.500
196.592, 91.726
197.970, 31.911
199.349, 2.056
200.726, 27.837
202.104, 137.771
203.482, 37.740
204.859, 137.739
206.236, 32.258
207.613, 127.749
208.989, 127.681
210.366, 167.575
211.742, 127.503
213.118, 22.530
214.493, 47.479
215.869, 52.467
217.244, 192.353
218.619, 202.174
219.994, 281.878
221.368, 371.366
222.742, 460.658
224.117, 569.740
225.490, 708.549
226.864, 812.367
228.237, 805.814
229.611, 1064.387
230.984, 1192.935
232.356, 1341.458
233.729, 1749.957
235.101, 2038.431
236.473, 2516.879
237.845, 3125.303
239.216, 3863.638
240.588, 4293.428
241.959, 4633.961
243.330, 4970.832
244.701, 5064.868
246.071, 5207.625
247.441, 4969.443
248.811, 4751.180
250.181, 4342.764
251.551, 4184.768
252.920, 4236.826
254.289, 4029.163
255.658, 4254.551
257.027, 4326.807
258.395, 4749.697
259.763, 4710.994
261.131, 4797.292
262.499, 5041.765
263.867, 5083.258
265.234, 5222.396
266.601, 5273.565
267.968, 5379.367
269.334, 5206.010
270.701, 5193.490
272.067, 5073.053
273.433, 4461.352
274.799, 4174.031
276.164, 3541.079
277.530, 2811.569
278.895, 2402.143
280.260, 1702.855
281.624, 1456.246
282.989, 1178.333
284.353, 1001.528
285.717, 733.069
287.080, 528.597
288.444, 696.383
289.807, 484.896
291.170, 576.850
292.533, 716.812
293.896, 787.396
295.258, 887.287
296.620, 1357.144
297.982, 1437.414
299.344, 1807.165
300.705, 2527.343
302.067, 2917.021
303.428, 4021.959
304.789, 4866.378
306.149, 5845.674
307.510, 7173.266
308.870, 7492.315
310.230, 7941.453
311.589, 6860.609
312.949, 5929.031
314.308, 4417.626
315.667, 3246.020
317.026, 2624.398
318.385, 1852.765
319.743, 1571.115
321.101, 1389.450
322.459, 1607.771
323.817, 1646.076
325.174, 1824.363
326.532, 1981.135
327.889, 2130.889
329.246, 2169.123
330.602, 2357.339
331.958, 2155.768
333.315, 2284.549
334.671, 2152.873
336.026, 2001.030
337.382, 2094.820
338.737, 1903.121
340.092, 1991.371
341.447, 1839.832
342.802, 1928.021
344.156, 1853.328
345.510, 1881.299
346.864, 1950.017
348.218, 1668.081
349.571, 1776.051
350.925, 1573.927
352.278, 1561.756
353.630, 1429.691
354.983, 1307.463
356.336, 1004.787
357.688, 822.292
359.040, 968.116
360.391, 575.703
361.743, 711.466
363.094, 515.593
364.445, 557.807
365.796, 423.081
367.147, 414.599
368.497, 339.804
369.847, 485.351
371.197, 421.110
372.547, 496.834
373.897, 460.013
375.246, 565.664
376.595, 750.559
377.944, 871.157
379.293, 1187.209
380.641, 1344.439
381.989, 1771.644
383.337, 2108.822
384.685, 2705.975
386.032, 2923.103
387.380, 3190.233
388.727, 3185.621
390.074, 2934.431
391.421, 2751.496
392.767, 2378.542
394.113, 1815.567
395.459, 1692.570
396.805, 1169.553
398.151, 1206.515
399.496, 823.455
400.841, 670.392
402.186, 767.309
403.531, 434.200
404.875, 461.062
406.219, 257.891
407.564, 434.687
408.907, 191.448
410.251, 218.173
411.594, 344.860
412.937, 151.513
414.280, 138.126
415.623, 104.699
416.966, 158.771
418.308, 97.604
419.650, 43.938
420.992, 180.220
422.334, 183.533
423.675, 2.549
425.016, 108.564
426.357, 75.457
427.698, 140.414
429.038, 23.750
430.379, 37.991
431.719, 52.318
433.059, 86.735
434.399, 178.735
435.738, 24.187
437.077, 89.586
438.416, 35.034
439.755, 190.292
441.094, 114.414
442.432, 0.761
443.770, 25.876
445.108, 0.946
446.446, 24.042
447.783, 39.085
449.121, 105.796
450.458, 170.657
451.795, 15.500
453.131, 320.295
454.468, 85.063
455.804, 249.799
457.140, 234.509
458.476, 109.193
459.811, 243.849
461.146, 98.479
462.482, 183.079
463.816, 52.346
465.151, 47.844
466.486, 106.587
467.820, 109.006
469.154, 75.304
470.488, 59.588
471.821, 53.849
473.155, 308.085
474.488, 152.303
475.821, 546.502
477.154, 490.682
478.486, 774.844
479.818, 768.988
481.150, 793.115
482.482, 776.526
483.814, 631.317
485.145, 555.391
486.477, 389.449
487.808, 243.490
489.138, 327.514
490.469, 181.521
491.799, 115.513
493.129, 46.604
494.459, 140.555
495.789, 234.485
497.119, 71.601
498.448, 122.246
499.777, 126.078
501.106, 150.080
502.434, 123.654
503.763, 102.627
505.091, 321.010
506.419, 4.631
507.747, 118.229
509.074, 131.811
510.402, 145.375
511.729, 338.926
513.056, 112.463
514.383, 165.984
515.709, 209.490
517.035, 312.984
518.361, 226.469
519.687, 159.947
521.013, 483.412
522.338, 276.875
523.663, 230.340
524.988, 653.818
526.313, 537.334
527.638, 860.867
528.962, 854.441
530.286, 938.010
531.610, 1551.619
532.934, 1535.268
534.257, 2478.965
535.581, 2662.703
536.904, 4036.439
538.227, 4660.195
539.549, 5843.947
540.872, 6967.688
542.194, 7531.420
543.516, 7935.139
544.838, 7368.848
546.159, 6408.211
547.480, 6191.898
548.802, 5075.740
550.123, 4889.408
551.443, 4823.064
552.764, 4686.836
554.084, 5050.475
555.404, 5604.104
556.724, 6547.807
558.044, 8051.418
559.363, 9688.521
560.682, 12862.113
562.001, 16535.689
563.320, 20259.268
564.639, 23222.832
565.957, 23336.387
567.275, 20939.934
568.593, 16403.203
569.911, 13126.570
571.228, 9740.094
572.546, 7783.174
573.863, 6696.166
575.180, 5328.852
576.496, 4608.461
577.813, 4301.066
579.129, 3952.648
580.445, 3615.822
581.761, 3143.979
583.076, 3183.881
584.392, 2966.666
585.707, 3171.738
587.022, 3164.773
588.337, 3043.164
589.651, 3430.699
590.966, 3477.377
592.280, 3551.936
593.594, 4065.150
594.907, 4116.496
596.221, 4699.273
597.534, 4957.391
598.847, 6110.809
600.160, 7114.064
601.473, 7944.625
602.785, 10296.449
604.097, 12527.168
605.409, 16056.402
606.721, 20524.762
608.033, 25608.002
609.344, 31431.537
610.655, 33733.402
611.966, 33417.215
613.277, 28630.518
614.588, 22254.473
615.898, 16968.436
617.208, 12051.955
618.518, 9375.932
619.828, 6739.430
621.137, 5313.336
622.446, 4151.758
623.755, 3230.596
625.064, 2854.297
626.373, 2149.459
627.681, 1673.062
628.990, 1586.559
630.298, 1200.059
631.605, 1344.291
632.913, 898.355
634.220, 742.615
635.527, 856.885
636.834, 431.160
638.141, 505.447
639.448, 369.740
640.754, 344.039
642.060, 378.350
643.366, 182.666
644.672, 176.992
645.977, 11.326
647.283, 145.668
648.588, 370.018
649.892, 205.859
651.197, 407.865
652.502, 92.037
653.806, 156.357
655.110, 435.201
656.414, 199.348
657.717, 560.217
659.021, 574.168
660.324, 998.373
661.627, 1565.445
662.930, 1769.832
664.232, 2973.457
665.534, 3577.717
666.837, 4662.051
668.138, 5816.465
669.440, 5900.902
670.742, 6625.219
672.043, 5619.678
673.344, 4824.150
674.645, 3888.635
675.946, 3033.129
677.246, 2347.635
678.546, 1742.152
679.846, 1546.682
681.146, 1091.219
682.446, 755.770
683.745, 960.330
685.045, 694.902
686.344, 429.482
687.642, 554.076
688.941, 188.678
690.239, 693.291
691.538, 247.914
692.836, 352.549
694.133, 207.189
695.431, 61.842
696.728, 246.502
698.025, 11.174
699.322, 135.852
700.619, 240.543
701.916, 184.758
703.212, 199.900
704.508, 15.430
705.804, 59.246
707.100, 123.932
708.395, 11.373
709.690, 183.332
710.985, 68.047
712.280, 7.230
713.575, 177.502
714.869, 137.754
716.164, 266.969
717.458, 151.701
718.751, 476.447
720.045, 351.199
721.338, 325.965
722.632, 700.742
723.925, 525.527
725.217, 670.324
726.510, 515.135
727.802, 659.955
729.095, 984.791
730.386, 969.639
731.678, 1344.498
732.970, 1689.432
734.261, 1954.377
735.552, 2689.344
736.843, 3214.322
738.134, 4356.719
739.424, 6031.801
740.715, 6996.896
742.005, 9392.039
743.295, 10867.195
744.584, 11792.387
745.874, 12048.141
747.163, 10273.410
748.452, 9329.109
749.741, 7506.523
751.030, 6226.834
752.318, 4784.971
753.607, 3700.365
754.895, 3151.062
756.182, 2462.779
757.470, 2008.449
758.758, 1602.766
760.045, 1325.566
761.332, 1023.723
762.619, 1029.299
763.905, 505.285
765.192, 947.672
766.478, 223.283
767.764, 598.988
769.050, 474.613
770.335, 630.645
771.621, 407.039
772.906, 442.678
774.191, 548.986
775.475, 834.314
776.760, 849.965
778.044, 1162.971
779.329, 1088.676
780.613, 1683.051
781.896, 2048.799
783.180, 2264.977
784.463, 3857.406
785.746, 3803.168
787.029, 4851.980
788.312, 4487.816
789.594, 3973.578
790.877, 3659.424
792.159, 2485.186
793.441, 2090.949
794.722, 1696.713
796.004, 1002.477
797.285, 1188.238
798.566, 694.002
799.847, 599.762
801.128, 585.521
802.408, 231.281
803.689, 227.039
804.969, 115.678
806.249, 231.439
807.528, 107.199
808.808, 22.959
810.087, 80.471
811.366, 115.477
812.645, 110.246
813.923, 156.008
815.202, 171.775
816.480, 117.570
817.758, 173.367
819.036, 99.162
820.314, 214.957
821.591, 110.752
822.868, 206.543
824.145, 352.334
825.422, 378.123
826.699, 603.908
827.975, 329.693
829.251, 845.475
830.527, 651.254
831.803, 967.029
833.079, 1172.801
834.354, 1128.570
835.629, 1404.338
836.904, 1720.102
838.179, 1805.859
839.454, 1941.615
840.728, 1977.408
842.002, 1723.156
843.276, 2108.902
844.550, 1554.641
845.824, 1850.377
847.097, 1676.107
848.370, 1441.834
849.643, 1567.555
850.916, 1233.271
852.188, 1018.982
853.461, 1104.688
854.733, 920.391
856.005, 850.424
857.277, 966.320
858.548, 881.844
859.820, 947.662
861.091, 413.340
862.362, 988.893
863.633, 494.559
864.903, 510.219
866.173, 685.791
867.444, 472.057
868.713, 744.199
869.983, 719.900
871.253, 425.734
872.522, 901.424
873.791, 667.348
875.060, 643.023
876.329, 768.705
877.597, 574.379
878.866, 830.045
880.134, 596.316
881.402, 591.982
882.670, 427.684
883.937, 383.377
885.204, 629.064
886.472, 284.748
887.739, 430.422
889.005, 376.088
890.272, 88.205
891.538, 367.428
892.804, 293.057
894.070, 208.676
895.336, 404.285
896.601, 287.850
897.867, 45.549
899.132, 231.160
900.397, 76.809
901.662, 2.443
902.926, 201.953
904.190, 166.402
905.455, 308.852
906.718, 45.818
907.982, 60.547
909.246, 134.660
910.509, 100.119
911.772, 74.988
913.035, 0.068
914.298, 235.088
915.560, 90.094
916.823, 64.885
918.085, 280.061
919.347, 435.004
920.608, 239.662
921.870, 94.320
923.131, 48.963
924.392, 213.584
925.653, 58.191
926.914, 107.217
928.175, 197.277
929.435, 228.240
930.695, 226.082
931.955, 89.609
933.215, 344.613
934.474, 98.820
935.734, 56.988
936.993, 327.131
938.252, 1.240
939.511, 185.307
940.769, 309.361
942.027, 183.400
943.286, 277.424
944.544, 211.439
945.801, 265.439
947.059, 449.428
948.316, 413.400
949.573, 490.652
950.830, 401.309
952.087, 565.240
953.344, 629.160
954.600, 719.602
955.856, 716.953
957.112, 940.861
958.368, 1064.754
959.623, 1408.631
960.879, 1452.318
962.134, 1246.166
963.389, 1883.305
964.644, 1507.119
965.898, 1750.918
967.153, 2134.703
968.407, 1458.469
969.661, 1832.221
970.915, 1115.955
972.168, 1139.672
973.422, 1233.375
974.675, 967.061
975.928, 880.729
977.181, 824.381
978.433, 729.994
979.686, 781.633
980.938, 675.234
982.190, 698.816
983.442, 662.385
984.693, 515.934
985.945, 859.465
987.196, 452.980
988.447, 396.479
989.698, 639.959
990.949, 203.422
992.199, 686.865
993.449, 610.295
994.699, 313.707
995.949, 657.098
997.199, 320.475
998.448, 493.836
999.697, 547.178
1000.947, 450.502
1002.195, 523.812
1003.444, 287.105
1004.693, 330.389
1005.941, 653.652
1007.189, 166.930
1008.437, 500.189
1009.684, 183.432
1010.932, 376.662
1012.179, 419.879
1013.426, 283.082
1014.673, 386.273
1015.920, 459.777
1017.166, 92.939
1018.413, 716.084
1019.659, 243.238
1020.905, 196.371
1022.151, 609.488
1023.396, 172.590
1024.641, 735.676
1025.887, 620.840
1027.132, 313.895
1028.376, 876.936
1029.621, 112.938
1030.865, 525.943
1032.109, 507.953
1033.353, 571.367
1034.597, 574.328
1035.841, 347.480
1037.084, 370.416
1038.327, 354.965
1039.570, 347.621
1040.813, 453.174
1042.056, 486.432
1043.298, 619.297
1044.540, 882.150
1045.782, 633.152
1047.024, 785.982
1048.266, 588.277
1049.507, 471.285
1050.748, 993.705
1051.990, 1014.412
1053.230, 502.232
1054.471, 902.230
1055.711, 984.996
1056.952, 1032.463
1058.192, 988.955
1059.432, 1128.986
1060.671, 1651.816
1061.911, 1317.262
1063.150, 1467.373
1064.389, 1580.086
1065.628, 1388.598
1066.867, 1914.506
1068.105, 1867.203
1069.344, 2019.803
1070.582, 2292.488
1071.820, 2284.764
1073.058, 2786.678
1074.295, 3169.357
1075.532, 3251.363
1076.770, 3824.352
1078.007, 3997.021
1079.243, 4382.365
1080.480, 4895.033
1081.716, 4869.033
1082.953, 5011.699
1084.189, 5233.947
1085.424, 5099.941
1086.660, 5272.613
1087.895, 4452.232
1089.131, 4534.836
1090.366, 4497.381
1091.601, 3329.844
1092.835, 3722.367
1094.070, 3014.893
1095.304, 2577.387
1096.538, 2689.785
1097.772, 2012.180
1099.005, 1994.576
1100.239, 2036.852
1101.472, 1429.115
1102.705, 1721.285
1103.938, 1223.449
1105.171, 1365.488
1106.404, 1277.518
1107.636, 1129.543
1108.868, 1191.559
1110.100, 1143.480
1111.332, 675.391
1112.563, 1377.234
1113.795, 739.062
1115.026, 910.873
1116.257, 1072.670
1117.488, 214.447
1118.718, 1216.203
1119.949, 807.943
1121.179, 349.658
1122.409, 1221.352
1123.639, 563.020
1124.868, 604.660
1126.098, 796.275
1127.327, 137.867
1128.556, 789.432
1129.785, 690.977
1131.014, 292.500
1132.242, 904.010
1133.470, 475.506
1134.699, 326.986
1135.927, 1058.457
1137.154, 379.924
1138.382, 841.387
1139.609, 602.803
1140.836, 184.262
1142.063, 945.721
1143.290, 667.188
1144.517, 578.664
1145.743, 940.156
1146.969, 191.668
1148.195, 643.211
1149.421, 534.785
1150.647, 446.402
1151.872, 1008.975
1153.097, 400.717
1154.322, 662.543
1155.547, 714.076
1156.772, 345.828
1157.996, 877.521
1159.221, 600.053
1160.445, 342.566
1161.669, 774.434
1162.892, 46.848
1164.116, 579.037
1165.339, 561.102
1166.562, 196.617
1167.785, 584.988
1169.008, 317.154
1170.231, 359.254
1171.453, 661.332
1172.675, 6.662
1173.897, 395.340
1175.119, 327.320
1176.341, 20.801
1177.562, 171.008
1178.783, 117.240
1180.004, 34.719
1181.225, 466.754
1182.446, 58.832
1183.666, 360.998
1184.887, 233.219
1186.107, 154.602
1187.327, 907.758
1188.546, 40.275
1189.766, 312.795
1190.985, 525.371
1192.204, 101.908
1193.423, 270.955
1194.642, 573.873
1195.861, 133.123
1197.079, 789.924
1198.297, 272.973
1199.515, 226.033
1200.733, 599.098
1201.951, 232.174
1203.168, 705.262
1204.385, 518.367
1205.602, 68.506
1206.819, 644.645
1208.036, 147.816
1209.253, 511.020
1210.469, 534.250
1211.685, 62.486
1212.901, 660.807
1214.117, 224.137
1215.332, 237.506
1216.548, 790.922
1217.763, 434.377
1218.978, 617.883
1220.193, 681.439
1221.407, 225.047
1222.622, 638.715
1223.836, 872.438
1225.050, 246.223
1226.264, 1000.066
1227.477, 803.973
1228.691, 547.924
1229.904, 1021.934
1231.117, 626.008
1232.330, 710.133
1233.543, 973.635
1234.755, 807.867
1235.968, 912.006
1237.180, 885.826
1238.392, 525.029
1239.604, 1448.879
1240.815, 445.893
1242.027, 1287.367
1243.238, 1080.322
1244.449, 763.811
1245.660, 1568.705
1246.871, 1110.680
1248.081, 1122.180
1249.291, 1644.605
1250.501, 1138.975
1251.711, 1210.648
1252.921, 1942.230
1254.131, 1283.725
1255.340, 1805.754
1256.549, 1416.523
1257.758, 1397.367
1258.967, 1927.270
1260.175, 986.949
1261.384, 1716.385
1262.592, 1505.543
1263.800, 1124.395
1265.008, 1522.900
1266.216, 841.020
1267.423, 328.705
1268.630, 1205.914
1269.838, 453.148
1271.044, 390.520
1272.251, 977.600
1273.458, 5.207
1274.664, 832.908
1275.870, 321.281
1277.076, 90.406
1278.282, 1119.922
1279.488, 239.695
1280.693, 270.398
1281.898, 251.711
1283.103, 223.199
1284.308, 444.961
1285.513, 157.156
1286.717, 30.000
1287.922, 343.652
1289.126, 578.273
1290.330, 13.949
1291.534, 550.766
1292.737, 218.828
1293.940, 248.363
1295.144, 629.777
1296.347, 16.496
1297.549, 1090.082
1298.752, 310.371
1299.955, 172.715
1301.157, 726.613
1302.359, 0.000
##END=



