##NAMES=Columbite-(Fe)
##RRUFFID=R050348
##IDEAL CHEMISTRY=Fe^2+^Nb^5+^_2_O_6_
##LOCALITY=Lord Hill mine, Stoneham, Oxford County, Maine, USA
##OWNER=RRUFF
##SOURCE=California Institute of Technology
##DESCRIPTION=Black fragment
##STATUS=The identification of this mineral has been confirmed by X-ray diffraction and chemical analysis
##URL=rruff.info/R050348
##MEASURED CHEMISTRY=(Fe^2+^_0.69_Mn^2+^_0.30_Ti_0.01_)(Nb_0.89_Ta_0.10_Ti_0.01_)_2_O_6_
##PIN_ID=L01882
##ORIENTATION=Laser parallel to -a* (-1 0 0). Fiducial mark perpendicular to laser is parallel to b [0 1 0]
221.0220, 0.0000000E+00
222.2400, 65.04102
223.4590, 40.22656
224.6770, 19.97070
225.8950, 113.3418
227.1120, 263.5176
228.3300, 273.5996
229.5480, 508.3066
230.7650, 441.9238
231.9820, 583.7383
233.1990, 626.0469
234.4160, 485.2734
235.6330, 682.1074
236.8490, 710.5938
238.0660, 862.8848
239.2820, 980.8105
240.4980, 1167.146
241.7140, 1309.217
242.9300, 1151.787
244.1460, 1487.643
245.3610, 1332.625
246.5770, 1639.637
247.7920, 1588.912
249.0070, 1649.648
250.2220, 1704.254
251.4370, 1670.373
252.6510, 1915.574
253.8660, 2132.150
255.0800, 2152.297
256.2940, 2092.102
257.5080, 2386.258
258.7220, 2482.230
259.9360, 2425.812
261.1490, 2820.871
262.3630, 2310.291
263.5760, 2203.947
264.7890, 2134.898
266.0020, 2114.205
267.2150, 2140.912
268.4270, 2095.072
269.6400, 2108.719
270.8520, 2042.906
272.0640, 2107.986
273.2760, 1851.941
274.4880, 1992.256
275.7000, 1969.090
276.9120, 2123.541
278.1230, 2107.402
279.3340, 2112.473
280.5450, 1936.305
281.7560, 2047.566
282.9670, 2021.414
284.1780, 1923.756
285.3880, 1918.666
286.5980, 1732.350
287.8090, 1821.240
289.0190, 1660.746
290.2290, 1776.895
291.4380, 1806.387
292.6480, 1574.029
293.8570, 1667.941
295.0670, 1709.188
296.2760, 1455.281
297.4850, 1546.262
298.6930, 1474.324
299.9020, 1243.404
301.1110, 1178.496
302.3190, 996.5957
303.5270, 1091.701
304.7350, 1217.811
305.9430, 949.9180
307.1510, 1090.020
308.3580, 939.1133
309.5660, 995.1992
310.7730, 819.2793
311.9800, 821.4062
313.1870, 651.5684
314.3940, 674.6992
315.6010, 468.7930
316.8070, 579.8496
318.0130, 544.8848
319.2200, 458.9160
320.4260, 588.0098
321.6310, 375.1426
322.8370, 273.2344
324.0430, 411.7148
325.2480, 110.2891
326.4540, 264.7012
327.6590, 60.81055
328.8640, 132.3066
330.0680, 161.7793
331.2730, 162.7031
332.4780, 28.18359
333.6820, 68.40039
334.8860, 42.80664
336.0900, 14.40234
337.2940, 71.54102
338.4980, 45.59766
339.7010, 12.12695
340.9050, 1.402344
342.1080, 16.60352
343.3110, 33.82422
344.5140, 63.21680
345.7170, 24.33398
346.9200, 145.4453
348.1220, 24.27344
349.3240, 1.101563
350.5270, 141.5918
351.7290, 6.794922
352.9310, 139.9844
354.1320, 58.58789
355.3340, 62.51172
356.5350, 105.5703
357.7370, 34.17578
358.9380, 17.07227
360.1390, 43.62695
361.3400, 186.7324
362.5400, 132.2031
363.7410, 71.67188
364.9410, 278.4668
366.1410, 117.8770
367.3410, 158.1055
368.5410, 237.5898
369.7410, 272.5117
370.9400, 361.1621
372.1400, 473.5898
373.3390, 453.8008
374.5380, 608.6777
375.7370, 493.2070
376.9360, 651.0469
378.1350, 726.8809
379.3330, 751.7012
380.5310, 688.4961
381.7300, 911.2598
382.9280, 1018.982
384.1260, 844.6562
385.3230, 1060.275
386.5210, 1110.834
387.7180, 1278.332
388.9160, 1256.766
390.1130, 1516.135
391.3100, 1368.438
392.5060, 1298.676
393.7030, 1450.844
394.9000, 1412.939
396.0960, 1403.955
397.2920, 1273.881
398.4880, 1308.711
399.6840, 1233.205
400.8800, 1291.826
402.0750, 1186.445
403.2710, 1149.256
404.4660, 945.6582
405.6610, 989.8926
406.8560, 796.0391
408.0510, 653.1016
409.2450, 566.2715
410.4400, 1197.174
411.6340, 966.0020
412.8280, 709.7559
414.0220, 1260.777
415.2160, 649.1191
416.4100, 400.0742
417.6030, 324.5801
418.7970, 160.9512
419.9900, 277.2324
421.1830, 207.3477
422.3760, 349.5586
423.5690, 198.4883
424.7610, 205.1660
425.9540, 111.7754
427.1460, 159.4082
428.3380, 257.5645
429.5300, 100.6035
430.7220, 201.4316
431.9140, 75.08594
433.1050, 74.52148
434.2970, 50.80859
435.4880, 81.18555
436.6790, 161.0957
437.8700, 146.1602
439.0610, 161.1855
440.2510, 38.17969
441.4420, 122.1270
442.6320, 148.0430
443.8220, 11.93164
445.0120, 259.7676
446.2020, 273.5742
447.3910, 21.64648
448.5810, 57.07422
449.7700, 11.75781
450.9600, 255.3906
452.1490, 397.9980
453.3370, 257.5781
454.5260, 221.1309
455.7150, 168.6562
456.9030, 57.15430
458.0910, 302.6191
459.2800, 176.0566
460.4670, 302.4688
461.6550, 107.8535
462.8430, 140.2148
464.0300, 128.5430
465.2180, 278.8477
466.4050, 424.0137
467.5920, 377.2539
468.7790, 311.1816
469.9650, 250.2168
471.1520, 309.1680
472.3380, 308.1250
473.5250, 304.3809
474.7110, 271.5859
475.8970, 184.4844
477.0820, 278.2441
478.2680, 204.2422
479.4540, 190.1523
480.6390, 248.6797
481.8240, 283.9844
483.0090, 250.7832
484.1940, 46.33008
485.3780, 116.5703
486.5630, 149.1484
487.7470, 147.0508
488.9320, 16.18750
490.1160, 47.19531
491.3000, 20.59961
492.4830, 9.982422
493.6670, 45.17969
494.8500, 64.52148
496.0340, 10.69922
497.2170, 14.89258
498.4000, 6.458984
499.5820, 43.21484
500.7650, 128.7891
501.9480, 251.6641
503.1300, 35.33398
504.3120, 235.2422
505.4940, 84.02734
506.6760, 139.3535
507.8580, 5.314453
509.0390, 169.8359
510.2210, 23.87305
511.4020, 119.1641
512.5830, 96.37695
513.7640, 47.53320
514.9450, 54.37109
516.1250, 47.25586
517.3060, 14.20312
518.4860, 33.51953
519.6660, 50.08008
520.8460, 88.98242
522.0260, 95.62109
523.2060, 145.2988
524.3850, 144.9688
525.5650, 157.6289
526.7440, 111.2812
527.9230, 39.92383
529.1020, 168.5586
530.2810, 148.1895
531.4590, 228.8105
532.6380, 188.4297
533.8160, 227.0430
534.9940, 301.6523
536.1720, 300.2578
537.3500, 160.8633
538.5270, 173.4609
539.7050, 57.06250
540.8820, 62.33594
542.0590, 33.24414
543.2360, 207.1719
544.4130, 114.3418
545.5900, 23.14258
546.7660, 158.3691
547.9430, 110.8867
549.1190, 256.4082
550.2950, 11.06445
551.4710, 35.46484
552.6470, 59.00195
553.8220, 56.54883
554.9980, 116.8965
556.1730, 38.98438
557.3480, 25.30469
558.5230, 0.2949220
559.6980, 57.25391
560.8730, 93.04688
562.0470, 6.380859
563.2220, 27.10547
564.3960, 69.65430
565.5700, 115.8926
566.7440, 226.5840
567.9170, 18.56055
569.0910, 115.4746
570.2640, 41.12891
571.4380, 333.8516
572.6110, 136.4883
573.7840, 190.4727
574.9570, 217.5273
576.1290, 195.6719
577.3020, 292.1699
578.4740, 257.8027
579.6460, 251.2793
580.8180, 205.0664
581.9900, 196.1211
583.1620, 145.3574
584.3330, 268.2051
585.5040, 333.1738
586.6760, 439.2109
587.8470, 302.2773
589.0180, 440.5098
590.1880, 346.2246
591.3590, 145.7617
592.5290, 301.9629
593.7000, 435.2031
594.8700, 266.4746
596.0400, 346.7871
597.2090, 204.1328
598.3790, 438.6973
599.5490, 420.1191
600.7180, 510.5801
601.8870, 454.0781
603.0560, 448.5840
604.2250, 543.1621
605.3940, 694.7812
606.5620, 358.4434
607.7300, 479.1465
608.8990, 610.8926
610.0670, 414.6855
611.2350, 600.5273
612.4020, 650.9590
613.5700, 633.6016
614.7370, 839.3340
615.9050, 720.3965
617.0720, 1006.910
618.2390, 982.9785
619.4060, 745.8789
620.5720, 878.1660
621.7390, 764.5117
622.9050, 876.9414
624.0710, 768.4395
625.2370, 707.5547
626.4030, 874.1914
627.5690, 875.9102
628.7340, 999.7188
629.9000, 1025.453
631.0650, 1051.428
632.2300, 888.8125
633.3950, 790.9023
634.5600, 856.1543
635.7240, 826.8652
636.8890, 867.7422
638.0530, 1041.531
639.2170, 1084.514
640.3810, 1286.414
641.5450, 929.0137
642.7080, 1074.662
643.8720, 874.5430
645.0350, 878.7539
646.1980, 912.5410
647.3610, 766.5840
648.5240, 617.3477
649.6870, 809.1035
650.8490, 651.3320
652.0120, 814.1504
653.1740, 1134.250
654.3360, 911.5820
655.4980, 1133.291
656.6600, 733.2402
657.8210, 852.6465
658.9830, 855.8672
660.1440, 816.1777
661.3050, 610.5801
662.4660, 639.0488
663.6270, 663.5879
664.7870, 774.2129
665.9480, 757.9121
667.1080, 589.7129
668.2680, 625.5918
669.4280, 645.6016
670.5880, 518.3789
671.7480, 668.8848
672.9070, 402.1484
674.0670, 615.4824
675.2260, 700.8867
676.3850, 646.3633
677.5440, 601.9141
678.7030, 530.5352
679.8610, 568.1387
681.0200, 619.2285
682.1780, 657.0684
683.3360, 603.8789
684.4940, 658.8652
685.6520, 615.3887
686.8090, 508.5938
687.9670, 525.8027
689.1240, 459.0879
690.2810, 362.2578
691.4380, 567.6914
692.5950, 514.2031
693.7520, 536.7891
694.9080, 537.1094
696.0650, 522.1172
697.2210, 459.5215
698.3770, 618.3672
699.5330, 399.3340
700.6880, 621.3789
701.8440, 377.4102
702.9990, 715.6113
704.1550, 517.8887
705.3100, 522.3223
706.4650, 604.7559
707.6190, 582.0430
708.7740, 663.6445
709.9290, 590.3223
711.0830, 720.0859
712.2370, 583.9297
713.3910, 554.8633
714.5450, 501.8887
715.6980, 454.1055
716.8520, 660.2129
718.0050, 471.5000
719.1580, 598.8652
720.3110, 757.3125
721.4640, 720.8516
722.6170, 793.4746
723.7700, 866.1758
724.9220, 776.9766
726.0740, 928.8555
727.2260, 954.8125
728.3780, 788.8770
729.5300, 913.0312
730.6810, 898.2871
731.8330, 865.6211
732.9840, 977.0332
734.1350, 898.5273
735.2860, 1125.102
736.4370, 1219.756
737.5880, 960.5117
738.7380, 1021.357
739.8880, 1173.309
741.0390, 1057.348
742.1890, 1172.486
743.3380, 1253.734
744.4880, 1218.086
745.6380, 1439.529
746.7870, 1340.068
747.9360, 1328.703
749.0850, 1382.428
750.2340, 1309.248
751.3830, 1405.170
752.5310, 1564.201
753.6800, 1613.340
754.8280, 1376.580
755.9760, 1634.941
757.1240, 1554.393
758.2720, 1467.932
759.4190, 1611.570
760.5670, 1728.283
761.7140, 1920.092
762.8610, 1871.979
764.0080, 1757.943
765.1550, 1835.994
766.3020, 1870.141
767.4480, 1681.361
768.5950, 1833.670
769.7410, 1907.068
770.8870, 1941.551
772.0330, 2054.129
773.1780, 2179.785
774.3240, 2194.535
775.4690, 2189.361
776.6140, 2183.270
777.7590, 2186.250
778.9040, 2259.260
780.0490, 2019.324
781.1940, 2058.627
782.3380, 2092.117
783.4820, 2294.336
784.6260, 2222.803
785.7700, 2474.037
786.9140, 2498.832
788.0580, 2547.713
789.2010, 2474.189
790.3450, 2564.227
791.4880, 2563.867
792.6310, 2487.236
793.7730, 2351.547
794.9160, 2600.098
796.0590, 2679.471
797.2010, 2534.699
798.3430, 2690.043
799.4850, 2776.611
800.6270, 2815.232
801.7690, 2794.445
802.9100, 2995.883
804.0520, 2966.363
805.1930, 3022.605
806.3340, 3107.957
807.4750, 3075.328
808.6160, 3137.314
809.7560, 3132.236
810.8970, 3440.320
812.0370, 3445.455
813.1770, 3441.637
814.3170, 3608.869
815.4570, 3603.148
816.5960, 3589.471
817.7360, 3851.838
818.8750, 3969.260
820.0140, 3917.729
821.1530, 3835.275
822.2920, 3993.868
823.4310, 4041.509
824.5690, 4457.193
825.7070, 4517.925
826.8460, 4463.697
827.9840, 4739.514
829.1220, 4784.369
830.2590, 5072.265
831.3970, 4998.197
832.5340, 5198.185
833.6710, 5418.210
834.8080, 5303.277
835.9450, 5610.385
837.0820, 5728.525
838.2190, 5984.703
839.3550, 6259.918
840.4910, 6498.000
841.6270, 6784.457
842.7630, 7038.788
843.8990, 7430.156
845.0350, 7630.077
846.1700, 7801.994
847.3060, 8036.460
848.4410, 8515.954
849.5760, 8968.477
850.7100, 9348.028
851.8450, 9766.606
852.9800, 10272.21
854.1140, 10718.84
855.2480, 11157.50
856.3820, 11662.18
857.5160, 12112.89
858.6500, 12516.62
859.7830, 12978.38
860.9170, 13456.15
862.0500, 13855.62
863.1830, 14284.15
864.3160, 14674.61
865.4480, 15055.54
866.5810, 15430.55
867.7130, 15758.97
868.8460, 15668.30
869.9780, 15930.01
871.1100, 15434.40
872.2410, 15213.71
873.3730, 14461.51
874.5050, 13760.18
875.6360, 12732.71
876.7670, 11897.50
877.8980, 10719.40
879.0290, 9823.239
880.1590, 8903.917
881.2900, 8011.438
882.4200, 7072.695
883.5500, 5647.785
884.6800, 5320.577
885.8100, 4290.497
886.9400, 3674.791
888.0690, 3277.324
889.1990, 2770.030
890.3280, 2504.124
891.4570, 2349.867
892.5860, 1997.819
893.7140, 1742.600
894.8430, 1581.895
895.9710, 1421.435
897.1000, 1208.108
898.2280, 923.7842
899.3560, 967.9014
900.4830, 698.6797
901.6110, 612.2793
902.7380, 618.3125
903.8660, 531.8779
904.9930, 492.2383
906.1200, 435.0088
907.2460, 412.9150
908.3730, 323.2695
909.5000, 317.8330
910.6260, 317.1953
911.7520, 166.0205
912.8780, 9.226563
914.0040, 32.76855
915.1290, 139.8945
916.2550, 30.46777
917.3800, 176.8184
918.5050, 91.56934
919.6300, 150.1338
920.7550, 257.8555
921.8800, 27.90234
923.0040, 28.81445
924.1290, 60.20801
925.2530, 23.49414
926.3770, 133.5811
927.5010, 190.4092
928.6250, 233.9795
929.7480, 86.47559
930.8720, 196.7500
931.9950, 93.65820
933.1180, 93.31836
934.2410, 17.02832
935.3640, 51.79297
936.4860, 65.32324
937.6090, 7.466797
938.7310, 114.7246
939.8530, 30.09473
940.9750, 226.9922
942.0970, 88.96875
943.2180, 62.03223
944.3400, 43.33105
945.4610, 129.3467
946.5820, 133.0361
947.7030, 301.5264
948.8240, 212.0908
949.9450, 288.0947
951.0650, 199.0635
952.1860, 279.1934
953.3060, 279.8838
954.4260, 307.2158
955.5460, 499.2178
956.6650, 516.0039
957.7850, 522.4697
958.9040, 662.3535
960.0230, 835.2578
961.1420, 759.1836
962.2610, 824.5371
963.3800, 857.4668
964.4990, 826.0537
965.6170, 856.5713
966.7350, 866.5381
967.8530, 968.4316
968.9710, 908.0518
970.0890, 1016.994
971.2070, 1062.646
972.3240, 1032.353
973.4410, 964.8682
974.5580, 1024.598
975.6750, 1019.415
976.7920, 1063.369
977.9090, 939.3086
979.0250, 895.8545
980.1410, 766.0801
981.2580, 730.9893
982.3740, 736.9990
983.4890, 651.6465
984.6050, 661.8213
985.7200, 698.1377
986.8360, 642.6641
987.9510, 541.0928
989.0660, 521.4668
990.1810, 498.5293
991.2950, 580.5645
992.4100, 480.0254
993.5240, 468.5312
994.6390, 410.6895
995.7530, 373.2266
996.8660, 331.8008
997.9800, 279.8291
999.0940, 223.5107
1000.207, 211.5615
1001.320, 131.6211
1002.433, 156.4004
1003.546, 118.2402
1004.659, 158.8457
1005.772, 94.43262
1006.884, 48.39648
1007.996, 54.21289
1009.108, 17.33984
1010.220, 55.17285
1011.332, 11.45996
1012.444, 34.37500
1013.555, 1.196289
1014.666, 44.23340
1015.777, 23.16895
1016.888, 20.41895
1017.999, 69.20020
1019.110, 20.25781
1020.220, 1.949219
1021.331, 20.66211
1022.441, 22.40918
1023.551, 4.190430
1024.661, 69.00098
1025.770, 48.92773
1026.880, 83.76855
1027.989, 4.575195
1029.098, 258.0352
1030.207, 36.91113
1031.316, 137.3984
1032.425, 176.6738
1033.533, 92.13379
1034.642, 20.94824
1035.750, 187.9814
1036.858, 103.9600
1037.966, 62.36914
1039.073, 104.5146
1040.181, 88.98438
1041.288, 126.1133
1042.396, 291.9277
1043.503, 339.7412
1044.610, 238.1260
1045.716, 377.4336
1046.823, 217.7461
1047.929, 231.2344
1049.036, 175.4824
1050.142, 238.6143
1051.248, 115.7002
1052.353, 103.2744
1053.459, 268.4678
1054.564, 97.81348
1055.670, 351.5098
1056.775, 286.1582
1057.880, 340.2568
1058.985, 283.8047
1060.089, 208.8848
1061.194, 342.2168
1062.298, 280.4541
1063.402, 209.5586
1064.506, 136.5557
1065.610, 242.3545
1066.713, 219.8887
1067.817, 359.9697
1068.920, 321.5391
1070.023, 310.6846
1071.126, 329.1982
1072.229, 329.1562
1073.332, 203.2637
1074.435, 173.3018
1075.537, 155.1045
1076.639, 234.8076
1077.741, 191.7227
1078.843, 215.7344
1079.945, 239.4297
1081.046, 79.36426
1082.148, 445.1074
1083.249, 392.0977
1084.350, 295.8320
1085.451, 156.5547
1086.551, 232.1484
1087.652, 302.1914
1088.752, 133.6396
1089.853, 174.4443
1090.953, 113.4512
1092.053, 107.3242
1093.152, 276.7949
1094.252, 165.6299
1095.351, 258.3232
1096.451, 331.1240
1097.550, 337.9795
1098.649, 328.1738
1099.748, 432.3535
1100.846, 282.9053
1101.945, 195.0430
1103.043, 253.9619
1104.141, 230.2119
1105.239, 265.1211
1106.337, 134.0225
1107.434, 270.8252
1108.532, 434.4355
1109.629, 142.5352
1110.726, 201.4180
1111.823, 266.2891
1112.920, 329.9541
1114.017, 294.3379
1115.113, 378.1963
1116.210, 388.2930
1117.306, 284.5957
1118.402, 360.2275
1119.498, 401.0771
1120.593, 409.0166
1121.689, 285.6543
1122.784, 331.6699
1123.879, 310.1338
1124.974, 285.3135
1126.069, 354.9805
1127.164, 250.8428
1128.259, 319.4180
1129.353, 318.4883
1130.447, 349.4951
1131.541, 311.8320
1132.635, 294.9209
1133.729, 345.9531
1134.822, 359.4326
1135.916, 313.0537
1137.009, 345.3203
1138.102, 236.5713
1139.195, 249.2354
1140.288, 314.3574
1141.380, 265.5410
1142.473, 296.0859
1143.565, 295.5547
1144.657, 160.3359
1145.749, 256.3867
1146.841, 254.9854
1147.932, 151.8770
1149.024, 247.3408
1150.115, 161.2295
1151.206, 61.73145
1152.297, 94.80566
1153.388, 79.22266
1154.479, 148.4414
1155.569, 91.40137
1156.659, 50.66309
1157.750, 221.5332
1158.839, 10.41113
1159.929, 58.22266
1161.019, 137.3115
1162.108, 200.2910
1163.198, 230.1201
1164.287, 166.2559
1165.376, 412.6982
1166.465, 210.5137
1167.553, 16.01953
1168.642, 82.26660
1169.730, 166.8994
1170.818, 46.22754
1171.906, 72.43750
1172.994, 115.2744
1174.082, 96.33594
1175.170, 16.01465
1176.257, 80.94434
1177.344, 47.52734
1178.431, 109.6006
1179.518, 89.13574
1180.605, 22.87207
1181.691, 103.9707
1182.778, 65.59668
1183.864, 87.76074
1184.950, 113.2549
1186.036, 128.4893
1187.122, 125.2627
1188.207, 111.5596
1189.292, 111.2422
1190.378, 79.36523
1191.463, 82.45996
1192.548, 116.8584
1193.632, 89.06934
1194.717, 152.8486
1195.801, 229.1270
1196.886, 398.2480
1197.970, 69.06250
1199.054, 2.711914
1200.137, 128.8193
1201.221, 221.3721
1202.305, 98.43457
1203.388, 238.7861
1204.471, 214.8701
1205.554, 144.8066
1206.637, 290.5420
1207.719, 212.7188
1208.802, 143.5605
1209.884, 200.9902
1210.966, 125.4619
1212.048, 150.0244
1213.130, 74.30469
1214.212, 118.3008
1215.293, 103.1299
1216.374, 114.9434
1217.456, 228.0244
1218.536, 113.3428
1219.617, 313.7852
1220.698, 179.4570
1221.778, 167.6182
1222.859, 51.66602
1223.939, 161.5967
1225.019, 1.993164
1226.099, 131.7422
1227.178, 101.3066
1228.258, 254.5732
1229.337, 227.7158
1230.417, 120.7705
1231.496, 201.4092
1232.574, 234.8584
1233.653, 137.5352
1234.732, 199.9346
1235.810, 183.2393
1236.888, 186.7910
1237.966, 214.0098
1239.044, 79.57520
1240.122, 111.0557
1241.199, 95.68066
1242.277, 126.9395
1243.354, 179.2402
1244.431, 47.55273
1245.508, 212.1826
1246.585, 116.4111
1247.661, 291.3818
1248.738, 447.4688
1249.814, 325.3623
1250.890, 740.0703
1251.966, 273.7197
1253.042, 125.6416
1254.117, 311.3066
1255.193, 277.2715
1256.268, 109.3789
1257.343, 90.14258
1258.418, 209.6670
1259.493, 97.96094
1260.567, 150.8057
1261.642, 197.1670
1262.716, 185.4160
1263.790, 124.8477
1264.864, 109.3008
1265.938, 66.52344
1267.011, 144.8418
1268.085, 56.66992
1269.158, 177.9346
1270.231, 55.04395
1271.304, 128.2891
1272.377, 122.9180
1273.450, 153.4170
1274.522, 67.79004
1275.594, 229.9287
1276.666, 2.781250
1277.738, 110.8076
1278.810, 34.08301
1279.882, 121.7314
1280.953, 77.47070
1282.025, 31.30371
1283.096, 156.0508
1284.167, 108.6562
1285.238, 104.3652
1286.308, 130.3809
1287.379, 110.7480
1288.449, 68.57031
1289.519, 122.2441
1290.589, 100.4521
1291.659, 118.9727
1292.729, 163.2207
1293.798, 153.4326
1294.868, 178.1709
1295.937, 219.1523
1297.006, 190.6885
1298.075, 371.4912
1299.143, 105.9326
1300.212, 233.5918
1301.280, 24.73730
1302.348, 141.6367
1303.416, 23.42676
1304.484, 119.5352
1305.552, 109.1982
1306.620, 82.88281
1307.687, 95.81641
1308.754, 144.6719
1309.821, 337.8721
1310.888, 149.5000
1311.955, 190.9258
1313.021, 13.20410
1314.088, 5.398438
1315.154, 134.0459
1316.220, 241.6514
1317.286, 171.4102
1318.352, 97.90430
1319.417, 96.24316
1320.483, 169.5703
1321.548, 162.0137
1322.613, 196.3965
1323.678, 366.0332
1324.743, 139.0752
1325.807, 198.6855
1326.872, 103.8174
1327.936, 295.9883
1329.000, 63.12305
1330.064, 231.8145
1331.128, 113.9678
1332.191, 41.68164
1333.255, 60.68457
1334.318, 85.95898
1335.381, 177.6689
1336.444, 236.1855
1337.507, 291.3906
1338.569, 227.8965
1339.632, 119.9824
1340.694, 60.15430
1341.756, 113.9834
1342.818, 93.06152
1343.880, 190.9932
1344.941, 243.0908
1346.003, 286.5537
1347.064, 280.3438
1348.125, 361.7529
1349.186, 386.8018
1350.247, 330.1270
1351.308, 437.6689
1352.368, 660.6523
1353.428, 431.8398
1354.489, 35.66113
1355.549, 100.3086
1356.608, 107.6826
1357.668, 146.8193
1358.727, 156.4873
1359.787, 101.6074
1360.846, 93.71289
1361.905, 123.3867
1362.964, 280.5898
1364.022, 254.3936
1365.081, 240.1973
1366.139, 227.0781
1367.197, 217.3516
1368.255, 0.2646480
1369.313, 105.0332
1370.371, 25.56250
1371.428, 96.02344
1372.486, 81.04199
1373.543, 214.7090
1374.600, 130.9551
1375.657, 258.6172
1376.713, 126.2598
1377.770, 95.97559
1378.826, 175.5723
1379.882, 134.6543
1380.938, 231.7891
1381.994, 30.67676
1383.050, 79.99414
