##NAMES=Columbite-(Fe)
##RRUFFID=R050348
##IDEAL CHEMISTRY=Fe^2+^Nb^5+^_2_O_6_
##LOCALITY=Lord Hill mine, Stoneham, Oxford County, Maine, USA
##OWNER=RRUFF
##SOURCE=California Institute of Technology
##DESCRIPTION=Black fragment
##STATUS=The identification of this mineral has been confirmed by X-ray diffraction and chemical analysis
##URL=rruff.info/R050348
##MEASURED CHEMISTRY=(Fe^2+^_0.69_Mn^2+^_0.30_Ti_0.01_)(Nb_0.89_Ta_0.10_Ti_0.01_)_2_O_6_
##PIN_ID=L00509
##ORIENTATION=Laser parallel to -b* (0 -1 0). Fiducial mark perpendicular to laser is parallel to -c [0 0 -1]
221.0220, 0.0000000E+00
222.2400, 2.784180
223.4590, 229.2173
224.6770, 121.8647
225.8950, 126.8418
227.1120, 59.27588
228.3300, 43.20361
229.5480, 115.3320
230.7650, 66.68652
231.9820, 113.6836
233.1990, 224.0396
234.4160, 177.5635
235.6330, 213.0952
236.8490, 240.4917
238.0660, 237.4326
239.2820, 295.2510
240.4980, 291.7998
241.7140, 378.5781
242.9300, 458.7832
244.1460, 478.4121
245.3610, 525.4478
246.5770, 457.6660
247.7920, 553.5332
249.0070, 614.9946
250.2220, 643.8447
251.4370, 541.7114
252.6510, 609.1738
253.8660, 609.1387
255.0800, 606.4121
256.2940, 698.3496
257.5080, 615.9619
258.7220, 706.2021
259.9360, 727.5576
261.1490, 780.3848
262.3630, 765.1040
263.5760, 771.3389
264.7890, 846.0205
266.0020, 883.4053
267.2150, 789.3491
268.4270, 819.8784
269.6400, 726.3882
270.8520, 822.0430
272.0640, 713.6621
273.2760, 683.0225
274.4880, 745.4282
275.7000, 708.9980
276.9120, 645.6436
278.1230, 663.1938
279.3340, 488.0566
280.5450, 651.4399
281.7560, 430.8330
282.9670, 454.1655
284.1780, 622.7144
285.3880, 407.7778
286.5980, 527.0137
287.8090, 552.7686
289.0190, 453.0303
290.2290, 437.4736
291.4380, 468.1519
292.6480, 405.5073
293.8570, 405.4829
295.0670, 319.4912
296.2760, 334.4385
297.4850, 311.4019
298.6930, 376.3013
299.9020, 360.3755
301.1110, 271.3330
302.3190, 235.1162
303.5270, 313.3696
304.7350, 308.2021
305.9430, 322.0757
307.1510, 267.1157
308.3580, 244.0664
309.5660, 265.6606
310.7730, 311.2739
311.9800, 269.0293
313.1870, 257.9839
314.3940, 274.5073
315.6010, 212.7505
316.8070, 307.3047
318.0130, 272.5850
319.2200, 343.7300
320.4260, 346.0645
321.6310, 336.8906
322.8370, 300.6318
324.0430, 243.3452
325.2480, 290.8809
326.4540, 255.0884
327.6590, 193.7031
328.8640, 217.8706
330.0680, 155.4614
331.2730, 245.2036
332.4780, 271.9404
333.6820, 201.7217
334.8860, 179.5151
336.0900, 95.31006
337.2940, 153.1616
338.4980, 195.9595
339.7010, 80.81689
340.9050, 135.5933
342.1080, 148.2783
343.3110, 235.8228
344.5140, 90.32031
345.7170, 78.78662
346.9200, 90.20068
348.1220, 14.43799
349.3240, 131.8706
350.5270, 55.12891
351.7290, 215.3296
352.9310, 140.7676
354.1320, 68.57031
355.3340, 24.61328
356.5350, 78.59814
357.7370, 42.50049
358.9380, 57.34863
360.1390, 95.54004
361.3400, 87.27393
362.5400, 124.9492
363.7410, 144.5757
364.9410, 141.2134
366.1410, 151.7134
367.3410, 111.2134
368.5410, 74.46875
369.7410, 68.82812
370.9400, 61.68213
372.1400, 50.32861
373.3390, 25.68408
374.5380, 61.21973
375.7370, 61.76807
376.9360, 101.3203
378.1350, 106.8726
379.3330, 68.41846
380.5310, 48.95117
381.7300, 29.46582
382.9280, 8.208008
384.1260, 87.41309
385.3230, 34.15527
386.5210, 6.228516
387.7180, 36.04346
388.9160, 87.86475
390.1130, 16.87793
391.3100, 59.32764
392.5060, 110.4937
393.7030, 57.37988
394.9000, 26.67969
396.0960, 40.30908
397.2920, 68.36230
398.4880, 38.50928
399.6840, 60.33154
400.8800, 26.10645
402.0750, 117.8350
403.2710, 44.51367
404.4660, 36.85693
405.6610, 85.70508
406.8560, 94.22070
408.0510, 54.31201
409.2450, 42.91943
410.4400, 119.6025
411.6340, 123.6108
412.8280, 46.25391
414.0220, 63.20850
415.2160, 7.247559
416.4100, 92.64160
417.6030, 14.25537
418.7970, 39.72998
419.9900, 21.04053
421.1830, 42.57812
422.3760, 92.55957
423.5690, 111.0640
424.7610, 92.51416
425.9540, 35.91309
427.1460, 18.85693
428.3380, 37.24414
429.5300, 14.55518
430.7220, 30.39893
431.9140, 22.47217
433.1050, 33.18750
434.2970, 41.07715
435.4880, 125.0259
436.6790, 77.00586
437.8700, 140.1938
439.0610, 192.0020
440.2510, 349.9771
441.4420, 295.1689
442.6320, 283.2393
443.8220, 256.5532
445.0120, 216.3574
446.2020, 162.4702
447.3910, 154.0361
448.5810, 157.3750
449.7700, 142.5425
450.9600, 179.9731
452.1490, 122.1265
453.3370, 124.5649
454.5260, 152.6445
455.7150, 137.9980
456.9030, 102.2529
458.0910, 160.1094
459.2800, 103.8628
460.4670, 138.3618
461.6550, 107.1787
462.8430, 194.6187
464.0300, 200.8198
465.2180, 259.1328
466.4050, 201.4419
467.5920, 150.4873
468.7790, 306.7085
469.9650, 259.8848
471.1520, 114.9648
472.3380, 276.0728
473.5250, 132.9482
474.7110, 286.0215
475.8970, 156.0791
477.0820, 240.1172
478.2680, 163.0513
479.4540, 247.4941
480.6390, 197.2969
481.8240, 203.2690
483.0090, 211.5269
484.1940, 194.2261
485.3780, 287.9697
486.5630, 242.8940
487.7470, 276.2500
488.9320, 120.4624
490.1160, 175.8096
491.3000, 148.0620
492.4830, 169.6943
493.6670, 202.5542
494.8500, 99.39600
496.0340, 139.0513
497.2170, 49.13916
498.4000, 104.3013
499.5820, 100.5210
500.7650, 133.1543
501.9480, 124.0840
503.1300, 102.4360
504.3120, 72.65430
505.4940, 69.37402
506.6760, 23.02832
507.8580, 70.65527
509.0390, 166.3091
510.2210, 96.64502
511.4020, 84.93799
512.5830, 37.00537
513.7640, 113.9365
514.9450, 118.6440
516.1250, 139.7109
517.3060, 150.5708
518.4860, 137.4175
519.6660, 128.6860
520.8460, 153.9766
522.0260, 191.8662
523.2060, 164.3726
524.3850, 192.3457
525.5650, 188.4619
526.7440, 140.5039
527.9230, 200.9292
529.1020, 176.8325
530.2810, 186.0679
531.4590, 163.0488
532.6380, 124.4189
533.8160, 225.9395
534.9940, 78.06006
536.1720, 193.7930
537.3500, 46.37354
538.5270, 181.1206
539.7050, 115.0801
540.8820, 249.9810
542.0590, 33.41309
543.2360, 26.86914
544.4130, 195.9463
545.5900, 98.96338
546.7660, 145.7666
547.9430, 161.5815
549.1190, 129.4844
550.2950, 147.4272
551.4710, 126.5000
552.6470, 133.0332
553.8220, 29.30615
554.9980, 39.42725
556.1730, 44.47949
557.3480, 51.04150
558.5230, 41.05566
559.6980, 52.32471
560.8730, 16.99902
562.0470, 95.50049
563.2220, 36.34473
564.3960, 37.57715
565.5700, 76.93506
566.7440, 83.32764
567.9170, 42.82715
569.0910, 0.3178710
570.2640, 24.93115
571.4380, 53.35010
572.6110, 13.42676
573.7840, 94.33301
574.9570, 29.06592
576.1290, 32.45215
577.3020, 2.718750
578.4740, 41.79590
579.6460, 59.21045
580.8180, 8.249023
581.9900, 4.874512
583.1620, 99.89795
584.3330, 127.7788
585.5040, 25.30664
586.6760, 105.5972
587.8470, 5.523438
589.0180, 4.559082
590.1880, 65.34570
591.3590, 0.7211910
592.5290, 27.82178
593.7000, 18.15234
594.8700, 41.09863
596.0400, 18.63770
597.2090, 17.83301
598.3790, 10.17383
599.5490, 4.340332
600.7180, 13.40820
601.8870, 13.39111
603.0560, 108.7441
604.2250, 37.02051
605.3940, 33.22510
606.5620, 1.490234
607.7300, 67.22510
608.8990, 78.06299
610.0670, 39.37158
611.2350, 67.70117
612.4020, 68.05322
613.5700, 99.42627
614.7370, 127.8223
615.9050, 10.24072
617.0720, 86.68213
618.2390, 241.1465
619.4060, 149.6333
620.5720, 156.1470
621.7390, 148.6846
622.9050, 18.24609
624.0710, 188.8350
625.2370, 154.4492
626.4030, 128.0894
627.5690, 252.7544
628.7340, 192.4463
629.9000, 292.1675
631.0650, 201.9160
632.2300, 247.7065
633.3950, 143.5244
634.5600, 278.3726
635.7240, 141.2471
636.8890, 220.1499
638.0530, 213.7056
639.2170, 302.6729
640.3810, 178.6704
641.5450, 299.7012
642.7080, 261.7632
643.8720, 262.8545
645.0350, 280.8408
646.1980, 367.3242
647.3610, 418.0718
648.5240, 437.0581
649.6870, 324.8550
650.8490, 382.1182
652.0120, 371.5151
653.1740, 357.7324
654.3360, 438.9424
655.4980, 345.9810
656.6600, 425.7637
657.8210, 436.6372
658.9830, 479.1050
660.1440, 453.2734
661.3050, 448.5815
662.4660, 512.2778
663.6270, 538.1670
664.7870, 504.6421
665.9480, 549.3735
667.1080, 454.4551
668.2680, 482.2178
669.4280, 562.9351
670.5880, 533.1733
671.7480, 579.4873
672.9070, 596.9272
674.0670, 482.8774
675.2260, 526.0728
676.3850, 477.4834
677.5440, 554.9448
678.7030, 624.4976
679.8610, 605.1357
681.0200, 547.8511
682.1780, 613.6377
683.3360, 631.4819
684.4940, 535.3696
685.6520, 645.3110
686.8090, 609.3359
687.9670, 708.4062
689.1240, 705.5498
690.2810, 655.7744
691.4380, 741.0649
692.5950, 668.4521
693.7520, 744.4028
694.9080, 823.4722
696.0650, 754.1060
697.2210, 764.8145
698.3770, 793.8032
699.5330, 771.3911
700.6880, 812.9766
701.8440, 852.2642
702.9990, 874.9976
704.1550, 883.3569
705.3100, 917.0503
706.4650, 861.2119
707.6190, 961.8174
708.7740, 976.9644
709.9290, 1076.397
711.0830, 912.7876
712.2370, 995.1895
713.3910, 1139.931
714.5450, 1011.484
715.6980, 1076.975
716.8520, 1240.438
718.0050, 1153.697
719.1580, 1255.337
720.3110, 1205.806
721.4640, 1321.557
722.6170, 1347.644
723.7700, 1290.521
724.9220, 1338.395
726.0740, 1359.444
727.2260, 1467.257
728.3780, 1447.251
729.5300, 1514.238
730.6810, 1561.289
731.8330, 1649.410
732.9840, 1661.170
734.1350, 1720.289
735.2860, 1757.484
736.4370, 1818.053
737.5880, 1864.381
738.7380, 1738.747
739.8880, 1866.157
741.0390, 1848.368
742.1890, 2096.860
743.3380, 1915.562
744.4880, 2079.136
745.6380, 2114.735
746.7870, 2164.607
747.9360, 2308.304
749.0850, 2141.040
750.2340, 2351.819
751.3830, 2333.637
752.5310, 2508.495
753.6800, 2485.394
754.8280, 2538.334
755.9760, 2768.313
757.1240, 2702.125
758.2720, 2752.646
759.4190, 2750.493
760.5670, 2742.633
761.7140, 2827.813
762.8610, 2908.032
764.0080, 2818.292
765.1550, 2912.590
766.3020, 2883.928
767.4480, 2928.305
768.5950, 2995.723
769.7410, 3011.179
770.8870, 3098.673
772.0330, 3026.207
773.1780, 2992.778
774.3240, 3071.389
775.4690, 3126.038
776.6140, 3111.729
777.7590, 3180.575
778.9040, 3177.393
780.0490, 3237.024
781.1940, 3224.865
782.3380, 3210.744
783.4820, 3308.660
784.6260, 3169.612
785.7700, 3295.607
786.9140, 3309.641
788.0580, 3224.709
789.2010, 3342.815
790.3450, 3315.957
791.4880, 3383.139
792.6310, 3363.355
793.7730, 3369.608
794.9160, 3283.672
796.0590, 3403.997
797.2010, 3277.356
798.3430, 3494.088
799.4850, 3398.687
800.6270, 3360.161
801.7690, 3357.963
802.9100, 3491.684
804.0520, 3574.982
805.1930, 3381.708
806.3340, 3601.229
807.4750, 3419.243
808.6160, 3565.092
809.7560, 3562.312
810.8970, 3478.530
812.0370, 3690.169
813.1770, 3723.096
814.3170, 3592.560
815.4570, 3655.678
816.5960, 3610.603
817.7360, 3743.428
818.8750, 3818.890
820.0140, 3872.037
821.1530, 3925.042
822.2920, 3952.589
823.4310, 3959.724
824.5690, 4201.115
825.7070, 4081.798
826.8460, 4081.363
827.9840, 4212.690
829.1220, 4047.981
830.2590, 4207.167
831.3970, 4308.940
832.5340, 4503.244
833.6710, 4531.075
834.8080, 4485.737
835.9450, 4587.630
837.0820, 4541.155
838.2190, 4699.809
839.3550, 4724.833
840.4910, 4790.208
841.6270, 4958.669
842.7630, 5090.957
843.8990, 5207.380
845.0350, 5194.827
846.1700, 5444.291
847.3060, 5625.771
848.4410, 5630.277
849.5760, 5906.796
850.7100, 5927.511
851.8450, 6236.080
852.9800, 6416.666
854.1140, 6637.268
855.2480, 6689.888
856.3820, 6944.529
857.5160, 7122.187
858.6500, 7327.140
859.7830, 7549.907
860.9170, 7872.637
862.0500, 8125.379
863.1830, 8284.148
864.3160, 8491.930
865.4480, 8605.401
866.5810, 8783.212
867.7130, 8975.039
868.8460, 8998.870
869.9780, 8809.714
871.1100, 8792.570
872.2410, 8533.436
873.3730, 8301.315
874.5050, 7981.204
875.6360, 7318.100
876.7670, 6891.003
877.8980, 6275.916
879.0290, 5609.834
880.1590, 4942.766
881.2900, 4461.701
882.4200, 3830.646
883.5500, 3418.604
884.6800, 3000.568
885.8100, 2686.539
886.9400, 2341.516
888.0690, 2046.497
889.1990, 1826.484
890.3280, 1699.474
891.4570, 1434.469
892.5860, 1180.470
893.7140, 1175.473
894.8430, 1008.480
895.9710, 887.4897
897.1000, 729.5034
898.2280, 675.5381
899.3560, 609.5552
900.4830, 570.5796
901.6110, 557.6045
902.7380, 440.7007
903.8660, 459.7275
904.9930, 486.7549
906.1200, 266.7827
907.2460, 354.8130
908.3730, 225.8433
909.5000, 156.8730
910.6260, 254.9014
911.7520, 137.8345
912.8780, 209.9531
914.0040, 247.3579
915.1290, 251.9297
916.2550, 125.2681
917.3800, 168.0625
918.5050, 142.9478
919.6300, 115.0474
920.7550, 181.6807
921.8800, 74.10498
923.0040, 139.2437
924.1290, 135.4248
925.2530, 163.1680
926.3770, 122.5806
927.5010, 49.14551
928.6250, 52.14014
929.7480, 10.87158
930.8720, 24.10107
931.9950, 109.0679
933.1180, 2.8809000E-02
934.2410, 14.02246
935.3640, 13.90576
936.4860, 78.17236
937.6090, 27.30566
938.7310, 114.4590
939.8530, 87.68848
940.9750, 34.98096
942.0970, 9.308594
943.2180, 100.6587
944.3400, 89.07910
945.4610, 71.55078
946.5820, 2.927246
947.7030, 127.6147
948.8240, 7.246094
949.9450, 95.90479
951.0650, 43.63818
952.1860, 104.4185
953.3060, 97.27881
954.4260, 43.21240
955.5460, 45.80518
956.6650, 15.18896
957.7850, 55.21924
958.9040, 5.692871
960.0230, 93.42041
961.1420, 42.61182
962.2610, 42.14355
963.3800, 20.11377
964.4990, 102.5908
965.6170, 9.718262
966.7350, 33.06494
967.8530, 40.46240
968.9710, 36.74512
970.0890, 23.41797
971.2070, 53.03076
972.3240, 33.53711
973.4410, 9.840820
974.5580, 81.18750
975.6750, 67.83154
976.7920, 8.158691
977.9090, 90.11816
979.0250, 165.3789
980.1410, 85.87500
981.2580, 133.2314
982.3740, 241.0918
983.4890, 124.3115
984.6050, 72.51514
985.7200, 136.7007
986.8360, 147.8687
987.9510, 120.0190
989.0660, 132.5439
990.1810, 131.2710
991.2950, 108.3711
992.4100, 74.45459
993.5240, 92.51855
994.6390, 161.5635
995.7530, 147.5908
996.8660, 141.6006
997.9800, 185.5908
999.0940, 60.57129
1000.207, 302.5259
1001.320, 119.4624
1002.433, 150.3804
1003.546, 202.4707
1004.659, 172.3564
1005.772, 234.3086
1006.884, 153.4150
1007.996, 198.2412
1009.108, 217.1494
1010.220, 165.9370
1011.332, 276.7593
1012.444, 157.6553
1013.555, 186.3838
1014.666, 160.0923
1015.777, 263.8921
1016.888, 171.5615
1017.999, 187.5054
1019.110, 202.1338
1020.220, 242.1997
1021.331, 263.9453
1022.441, 158.5103
1023.551, 288.0537
1024.661, 171.7979
1025.770, 312.7236
1026.880, 252.2173
1027.989, 227.7827
1029.098, 259.2500
1030.207, 205.0117
1031.316, 158.4351
1032.425, 241.8354
1033.533, 216.2773
1034.642, 185.6333
1035.750, 151.9663
1036.858, 300.2769
1037.966, 197.6309
1039.073, 234.9487
1040.181, 246.8013
1041.288, 226.1060
1042.396, 281.3037
1043.503, 194.4780
1044.610, 288.0781
1045.716, 211.3633
1046.823, 237.7051
1047.929, 288.1680
1049.036, 267.2500
1050.142, 365.0767
1051.248, 211.2383
1052.353, 406.3682
1053.459, 261.3325
1054.564, 353.4180
1055.670, 315.5356
1056.775, 373.4268
1057.880, 394.2935
1058.985, 407.4800
1060.089, 334.6865
1061.194, 348.9644
1062.298, 306.7319
1063.402, 371.8232
1064.506, 359.6455
1065.610, 273.6104
1066.713, 376.9917
1067.817, 365.5337
1068.920, 403.4946
1070.023, 375.1631
1071.126, 332.6738
1072.229, 378.6997
1073.332, 349.2803
1074.435, 337.0073
1075.537, 348.6357
1076.639, 399.3945
1077.741, 249.2144
1078.843, 327.9468
1079.945, 439.7593
1081.046, 325.1582
1082.148, 537.9883
1083.249, 390.3521
1084.350, 380.6743
1085.451, 224.2490
1086.551, 304.9272
1087.652, 332.0967
1088.752, 359.5337
1089.853, 296.4302
1090.953, 268.5630
1092.053, 252.8765
1093.152, 297.6084
1094.252, 258.3364
1095.351, 288.9595
1096.451, 279.4575
1097.550, 296.9478
1098.649, 258.5854
1099.748, 280.7085
1100.846, 268.1172
1101.945, 292.4087
1103.043, 209.8423
1104.141, 256.6763
1105.239, 237.6362
1106.337, 171.5864
1107.434, 264.4497
1108.532, 219.2549
1109.629, 266.3652
1110.726, 204.2031
1111.823, 115.4458
1112.920, 161.3438
1114.017, 179.3784
1115.113, 319.1719
1116.210, 309.0557
1117.306, 238.7725
1118.402, 177.4912
1119.498, 340.1924
1120.593, 390.2217
1121.689, 441.9917
1122.784, 354.7900
1123.879, 377.6455
1124.974, 393.3706
1126.069, 292.1719
1127.164, 284.8311
1128.259, 230.6055
1129.353, 221.1509
1130.447, 157.7739
1131.541, 189.6025
1132.635, 159.1929
1133.729, 146.1396
1134.822, 58.64502
1135.916, 141.5908
1137.009, 85.24072
1138.102, 45.64600
1139.195, 115.1260
1140.288, 81.82275
1141.380, 121.3428
1142.473, 92.74609
1143.565, 70.29932
1144.657, 137.8857
1145.749, 147.4756
1146.841, 79.10352
1147.932, 216.5767
1149.024, 40.12402
1150.115, 114.5298
1151.206, 21.89404
1152.297, 67.30176
1153.388, 172.4580
1154.479, 129.7173
1155.569, 51.84082
1156.659, 23.36816
1157.750, 162.8452
1158.839, 84.91357
1159.929, 118.2588
1161.019, 41.55664
1162.108, 156.7490
1163.198, 155.7300
1164.287, 2.041504
1165.376, 205.0337
1166.465, 143.9741
1167.553, 112.0317
1168.642, 94.11572
1169.730, 97.00781
1170.818, 10.80371
1171.906, 89.09229
1172.994, 132.6973
1174.082, 143.0786
1175.170, 22.28809
1176.257, 70.85547
1177.344, 51.46289
1178.431, 29.26025
1179.518, 101.5825
1180.605, 0.3222660
1181.691, 70.53516
1182.778, 72.53516
1183.864, 106.0503
1184.950, 71.26562
1186.036, 57.51221
1187.122, 112.4688
1188.207, 129.0449
1189.292, 30.59131
1190.378, 11.82910
1191.463, 13.87646
1192.548, 119.4097
1193.632, 74.95312
1194.717, 79.46045
1195.801, 39.07471
1196.886, 91.54980
1197.970, 87.01367
1199.054, 26.46973
1200.137, 22.90771
1201.221, 25.64795
1202.305, 50.87256
1203.388, 57.37695
1204.471, 72.82861
1205.554, 7.387207
1206.637, 10.82617
1207.719, 54.72070
1208.802, 21.41406
1209.884, 32.48926
1210.966, 63.90625
1212.048, 72.80811
1213.130, 149.7827
1214.212, 22.32959
1215.293, 50.86230
1216.374, 8.644531
1217.456, 72.95215
1218.536, 44.50439
1219.617, 44.98340
1220.698, 87.46094
1221.778, 5.947754
1222.859, 54.42920
1223.939, 83.92969
1225.019, 4.554688
1226.099, 9.974121
1227.178, 126.5146
1228.258, 57.99023
1229.337, 54.63232
1230.417, 139.1094
1231.496, 4.405762
1232.574, 81.07910
1233.653, 75.61279
1234.732, 91.09473
1235.810, 91.83301
1236.888, 9.668457
1237.966, 121.9888
1239.044, 67.75586
1240.122, 118.9243
1241.199, 13.38721
1242.277, 77.82666
1243.354, 77.57861
1244.431, 94.78955
1245.508, 69.24707
1246.585, 65.74609
1247.661, 149.1377
1248.738, 186.4546
1249.814, 22.75879
1250.890, 76.04785
1251.966, 65.32324
1253.042, 47.58545
1254.117, 16.83350
1255.193, 35.06738
1256.268, 82.28760
1257.343, 50.49414
1258.418, 131.7158
1259.493, 27.10352
1260.567, 104.0796
1261.642, 78.22119
1262.716, 7.350586
1263.790, 90.46436
1264.864, 17.62646
1265.938, 47.46094
1267.011, 135.4849
1268.085, 79.28174
1269.158, 25.36084
1270.231, 61.29150
1271.304, 85.37256
1272.377, 45.50586
1273.450, 33.34814
1274.522, 28.32568
1275.594, 21.48340
1276.666, 48.32129
1277.738, 26.93848
1278.810, 55.88379
1279.882, 61.79199
1280.953, 46.24609
1282.025, 186.9688
1283.096, 73.58887
1284.167, 113.6958
1285.238, 14.31885
1286.308, 47.27588
1287.379, 119.7148
1288.449, 61.60205
1289.519, 39.12891
1290.589, 59.72607
1291.659, 117.5923
1292.729, 43.43652
1293.798, 73.11523
1294.868, 103.7817
1295.937, 52.48389
1297.006, 59.14258
1298.075, 114.9053
1299.143, 82.07861
1300.212, 19.16016
1301.280, 13.67432
1302.348, 87.25000
1303.416, 71.92041
1304.484, 88.02344
1305.552, 96.44238
1306.620, 108.7773
1307.687, 100.8984
1308.754, 123.7046
1309.821, 83.40381
1310.888, 59.04199
1311.955, 64.36572
1313.021, 54.81787
1314.088, 68.18506
1315.154, 3.411133
1316.220, 224.8247
1317.286, 113.3545
1318.352, 161.0933
1319.417, 65.16846
1320.483, 111.2070
1321.548, 95.56494
1322.613, 127.8491
1323.678, 72.30518
1324.743, 152.3633
1325.807, 107.1230
1326.872, 189.4023
1327.936, 184.3550
1329.000, 157.4600
1330.064, 76.42969
1331.128, 84.49316
1332.191, 126.8340
1333.255, 74.01416
1334.318, 174.7607
1335.381, 100.5415
1336.444, 18.88721
1337.507, 146.3228
1338.569, 115.2549
1339.632, 133.3110
1340.694, 154.3960
1341.756, 72.58594
1342.818, 76.36182
1343.880, 90.59326
1344.941, 68.11719
1346.003, 80.80322
1347.064, 216.7583
1348.125, 98.03271
1349.186, 181.1050
1350.247, 106.1025
1351.308, 134.2329
1352.368, 122.1001
1353.428, 76.46631
1354.489, 138.5498
1355.549, 123.6147
1356.608, 55.49902
1357.668, 132.3589
1358.727, 157.4785
1359.787, 105.7954
1360.846, 87.10156
1361.905, 145.0088
1362.964, 37.42676
1364.022, 116.5020
1365.081, 55.50537
1366.139, 148.3130
1367.197, 233.1362
1368.255, 97.08350
1369.313, 162.6001
1370.371, 58.43359
1371.428, 144.1021
1372.486, 70.01660
1373.543, 56.78271
1374.600, 79.51953
1375.657, 148.4341
1376.713, 118.2983
1377.770, 104.8081
1378.826, 116.7241
1379.882, 109.7949
1380.938, 98.79150
1381.994, 102.1963
