##NAMES=Columbite-(Fe)
##RRUFFID=R060001
##IDEAL CHEMISTRY=Fe^2+^Nb^5+^_2_O_6_
##LOCALITY=Gypsy mine, Minas Gerais, Brazil
##OWNER=RRUFF
##SOURCE=Eric Van Valkenburg
##DESCRIPTION=Steel gray fragment with internal red hints
##STATUS=The identification of this mineral has been confirmed by X-ray diffraction and chemical analysis
##URL=rruff.info/R060001
##MEASURED CHEMISTRY=(Fe^2+^_0.52_Mn^2+^_0.48_)_Σ=1_(Nb_1.61_Ta_0.39_)_Σ=2_O_6_
##PIN_ID=L00607
##ORIENTATION=Laser parallel to b* (0 1 0). Fiducial mark perpendicular to laser is parallel to c [0 0 1]
110.4750, 0.0000000E+00
111.7110, 3.215576
112.9460, 21.97876
114.1820, 337.7329
115.4170, 396.6899
116.6530, 476.7134
117.8880, 479.3428
119.1230, 470.0151
120.3580, 606.7173
121.5920, 755.8108
122.8270, 787.0161
124.0610, 989.5959
125.2950, 935.3130
126.5290, 1094.878
127.7630, 1188.234
128.9970, 1293.324
130.2300, 1417.094
131.4640, 1360.500
132.6970, 1263.500
133.9300, 1331.591
135.1630, 1303.668
136.3950, 1304.021
137.6280, 1257.985
138.8600, 1276.451
140.0920, 1074.377
141.3240, 1235.729
142.5560, 1212.472
143.7880, 626.5776
145.0190, 458.0190
146.2510, 417.7720
147.4820, 274.8223
148.7130, 253.1624
149.9440, 192.7825
151.1750, 187.6758
152.4050, 95.83545
153.6360, 20.24927
154.8660, 69.90332
156.0960, 3.779785
157.3260, 36.13940
158.5560, 45.17798
159.7850, 52.42529
161.0150, 75.82080
162.2440, 21.06665
163.4730, 36.82690
164.7020, 39.85229
165.9310, 88.00146
167.1590, 221.2671
168.3880, 154.6421
169.6160, 266.1206
170.8440, 341.6965
172.0720, 372.3643
173.3000, 346.1187
174.5280, 459.9551
175.7550, 488.8687
176.9820, 448.8577
178.2100, 556.9148
179.4370, 591.0381
180.6630, 636.2244
181.8900, 634.4829
183.1170, 534.8735
184.3430, 527.4695
185.5690, 587.1741
186.7950, 513.0002
188.0210, 551.9575
189.2470, 492.1047
190.4720, 454.3530
191.6970, 525.7451
192.9230, 580.2949
194.1480, 660.8965
195.3730, 670.5815
196.5970, 822.3516
197.8220, 833.1704
199.0460, 998.9944
200.2700, 1100.814
201.4940, 1212.627
202.7180, 1195.434
203.9420, 958.2373
205.1660, 844.0393
206.3890, 799.8408
207.6120, 651.6394
208.8350, 581.4189
210.0580, 567.1733
211.2810, 448.9331
212.5040, 516.7002
213.7260, 450.4753
214.9480, 391.2590
216.1700, 373.0498
217.3920, 338.8491
218.6140, 289.6562
219.8360, 280.4712
221.0570, 295.2925
222.2790, 340.1208
223.5000, 367.9473
224.7210, 351.7949
225.9410, 451.6401
227.1620, 486.4893
228.3820, 498.3428
229.6030, 656.1997
230.8230, 756.0586
232.0430, 824.9204
233.2630, 945.7837
234.4820, 1102.648
235.7020, 1156.512
236.9210, 1289.377
238.1400, 1426.241
239.3590, 1638.104
240.5780, 1733.967
241.7970, 1807.856
243.0150, 1809.714
244.2340, 1865.569
245.4520, 1862.806
246.6700, 1879.280
247.8880, 1845.124
249.1060, 1760.964
250.3230, 1739.470
251.5400, 1717.006
252.7580, 1742.222
253.9750, 1723.482
255.1920, 1761.600
256.4080, 1819.283
257.6250, 1998.655
258.8410, 2220.396
260.0580, 2269.189
261.2740, 2322.133
262.4900, 2282.062
263.7050, 2412.034
264.9210, 2600.538
266.1360, 2850.946
267.3520, 2844.094
268.5670, 3081.806
269.7820, 3021.114
270.9960, 3108.713
272.2110, 3075.211
273.4250, 3116.687
274.6400, 2808.107
275.8540, 2791.395
277.0680, 2649.797
278.2810, 2406.163
279.4950, 2336.188
280.7090, 2139.375
281.9220, 2080.590
283.1350, 1902.229
284.3480, 1742.971
285.5610, 1722.710
286.7730, 1607.151
287.9860, 1553.927
289.1980, 1574.433
290.4100, 1477.964
291.6220, 1488.529
292.8340, 1390.117
294.0460, 1358.725
295.2570, 1366.370
296.4690, 1192.047
297.6800, 1072.746
298.8910, 1071.481
300.1020, 946.2432
301.3120, 910.0254
302.5230, 953.8318
303.7330, 757.0762
304.9440, 817.1338
306.1540, 713.0588
307.3630, 612.3608
308.5730, 682.0454
309.7830, 670.0215
310.9920, 606.0161
312.2010, 647.0339
313.4100, 493.0625
314.6190, 533.1067
315.8280, 551.1533
317.0370, 584.2019
318.2450, 524.2593
319.4530, 520.3174
320.6610, 530.3782
321.8690, 447.4482
323.0770, 364.5183
324.2850, 473.5874
325.4920, 421.6548
326.6990, 356.7212
327.9060, 309.7852
329.1130, 354.8462
330.3200, 302.9038
331.5270, 186.9565
332.7330, 244.0049
333.9390, 163.0474
335.1450, 197.0833
336.3510, 181.1123
337.5570, 276.1333
338.7630, 124.1462
339.9680, 152.1497
341.1740, 188.1440
342.3790, 122.1287
343.5840, 149.1030
344.7890, 134.0671
345.9930, 106.0210
347.1980, 135.9646
348.4020, 102.8979
349.6060, 99.82056
350.8100, 81.73291
352.0140, 103.6348
353.2180, 65.52563
354.4210, 62.40625
355.6250, 141.2761
356.8280, 94.13550
358.0310, 138.2615
359.2340, 58.82178
360.4360, 153.6487
361.6390, 134.4641
362.8410, 84.26855
364.0430, 166.0618
365.2450, 51.84399
366.4470, 52.61450
367.6490, 143.3735
368.8510, 128.1208
370.0520, 44.85669
371.2530, 138.5801
372.4540, 98.29175
373.6550, 169.9915
374.8560, 94.67896
376.0560, 97.35474
377.2570, 86.51099
378.4570, 162.6692
379.6570, 59.30811
380.8570, 115.9346
382.0570, 148.5486
383.2560, 94.15015
384.4560, 145.7397
385.6550, 77.31641
386.8540, 50.88013
388.0530, 79.43018
389.2520, 88.96777
390.4510, 39.49292
391.6490, 88.00244
392.8470, 59.49927
394.0450, 114.9829
395.2430, 13.45239
396.4410, 31.10010
397.6390, 19.31543
398.8360, 22.29443
400.0340, 50.04224
401.2310, 68.65430
402.4280, 30.41113
403.6250, 28.20288
404.8210, 58.03442
406.0180, 12.07739
407.2140, 51.83276
408.4100, 41.79810
409.6060, 85.81519
410.8020, 31.90723
411.9980, 7.046631
413.1930, 15.22119
414.3890, 50.43555
415.5840, 31.70850
416.7790, 78.03125
417.9740, 4.572510
419.1680, 8.144775
420.3630, 30.68750
421.5570, 40.79102
422.7510, 46.67456
423.9450, 20.87720
425.1390, 21.47461
426.3330, 27.90308
427.5270, 26.23633
428.7200, 64.54639
429.9130, 117.9922
431.1060, 66.40308
432.2990, 119.6267
433.4920, 113.8843
434.6840, 198.7539
435.8770, 157.9880
437.0690, 176.2395
438.2610, 209.6199
439.4530, 211.2881
440.6450, 185.4963
441.8360, 283.5698
443.0280, 269.5718
444.2190, 311.4819
445.4100, 370.5835
446.6010, 301.4814
447.7920, 391.4124
448.9820, 407.4412
450.1730, 412.6116
451.3630, 475.9248
452.5530, 521.1196
453.7430, 550.6091
454.9330, 519.5552
456.1230, 569.1697
457.3120, 588.8750
458.5010, 606.1587
459.6910, 670.7207
460.8800, 654.1680
462.0680, 721.1582
463.2570, 756.8376
464.4460, 810.9504
465.6340, 831.7046
466.8220, 864.2517
468.0100, 931.4014
469.1980, 937.7449
470.3860, 995.5757
471.5730, 1039.391
472.7600, 1087.033
473.9480, 1154.793
475.1350, 1205.743
476.3210, 1275.497
477.5080, 1319.841
478.6950, 1412.959
479.8810, 1417.668
481.0670, 1491.363
482.2530, 1560.042
483.4390, 1533.707
484.6250, 1625.357
485.8100, 1579.993
486.9960, 1630.615
488.1810, 1589.223
489.3660, 1704.817
490.5510, 1691.397
491.7360, 1655.964
492.9200, 1652.518
494.1050, 1590.057
495.2890, 1605.584
496.4730, 1505.098
497.6570, 1546.599
498.8400, 1486.533
500.0240, 1409.563
501.2070, 1382.026
502.3910, 1359.477
503.5740, 1260.915
504.7570, 1206.342
505.9400, 1173.756
507.1220, 1083.159
508.3050, 1172.551
509.4870, 1106.931
510.6690, 1138.300
511.8510, 1221.658
513.0330, 1053.979
514.2140, 1119.314
515.3960, 1132.640
516.5770, 1154.956
517.7580, 1120.261
518.9390, 1209.556
520.1200, 1270.841
521.3010, 1381.117
522.4810, 1402.373
523.6610, 1496.630
524.8420, 1473.877
526.0220, 1496.116
527.2010, 1529.346
528.3810, 1524.567
529.5610, 1537.608
530.7400, 1506.813
531.9190, 1521.010
533.0980, 1466.318
534.2770, 1434.930
535.4560, 1342.976
536.6340, 1265.143
537.8120, 1172.878
538.9910, 1079.986
540.1690, 982.8979
541.3460, 925.4829
542.5240, 773.2319
543.7020, 721.8374
544.8790, 650.8110
546.0560, 697.8921
547.2330, 552.0723
548.4100, 565.4668
549.5870, 420.9829
550.7630, 380.1055
551.9400, 393.4429
553.1160, 316.1445
554.2920, 305.3760
555.4680, 293.0918
556.6440, 269.5825
557.8190, 238.4072
558.9950, 153.9731
560.1700, 157.8203
561.3450, 131.8511
562.5200, 83.81641
563.6950, 168.8662
564.8690, 182.2979
566.0440, 135.5928
567.2180, 9.149414
568.3920, 62.67188
569.5660, 44.43164
570.7400, 7.230469
571.9130, 7.361816
573.0870, 30.80957
574.2600, 12.31104
575.4330, 44.56250
576.6060, 41.54590
577.7790, 7.660645
578.9520, 75.21924
580.1240, 63.12939
581.2960, 17.06396
582.4690, 91.00146
583.6410, 53.97510
584.8120, 33.96680
585.9840, 57.96729
587.1560, 14.98633
588.3270, 57.00488
589.4980, 149.0405
590.6690, 84.13672
591.8400, 141.2612
593.0110, 89.43994
594.1810, 63.64795
595.3510, 86.87256
596.5220, 34.12402
597.6920, 61.37793
598.8610, 7.354492
600.0310, 33.09814
601.2010, 38.14551
602.3700, 30.60889
603.5390, 12.62402
604.7080, 51.84766
605.8770, 115.9224
607.0460, 90.70605
608.2140, 158.5044
609.3830, 202.3164
610.5510, 206.1431
611.7190, 198.9844
612.8870, 255.8413
614.0550, 263.7129
615.2220, 341.6006
616.3900, 256.5044
617.5570, 437.4238
618.7240, 435.3604
619.8910, 390.3130
621.0580, 450.2827
622.2240, 575.2700
623.3910, 534.2744
624.5570, 625.2969
625.7230, 600.3379
626.8890, 641.3970
628.0550, 620.4741
629.2200, 677.5703
630.3860, 729.6855
631.5510, 769.8193
632.7160, 689.9736
633.8810, 726.1475
635.0460, 754.3418
636.2100, 658.5557
637.3750, 754.7905
638.5390, 767.0459
639.7030, 728.3228
640.8670, 676.6211
642.0310, 595.9409
643.1950, 636.2822
644.3580, 522.6455
645.5210, 598.0312
646.6850, 493.4390
647.8480, 444.8701
649.0100, 324.3242
650.1730, 374.8013
651.3350, 327.3022
652.4980, 345.8267
653.6600, 365.3755
654.8220, 316.9482
655.9840, 276.5454
657.1450, 307.1670
658.3070, 195.8135
659.4680, 265.4854
660.6300, 268.1821
661.7910, 324.9048
662.9510, 251.6533
664.1120, 201.4272
665.2730, 189.2275
666.4330, 245.0542
667.5930, 210.9077
668.7530, 201.6147
669.9130, 294.6958
671.0730, 168.6309
672.2320, 99.59375
673.3920, 129.5864
674.5510, 188.6118
675.7100, 191.6655
676.8690, 226.7505
678.0280, 155.8711
679.1860, 166.0391
680.3450, 211.2417
681.5030, 128.4912
682.6610, 235.7778
683.8190, 188.1274
684.9770, 206.5293
686.1340, 250.9888
687.2920, 298.5083
688.4490, 261.0659
689.6060, 279.6963
690.7630, 260.3911
691.9200, 281.1504
693.0760, 207.9673
694.2330, 211.8447
695.3890, 188.7686
696.5450, 242.7676
697.7010, 276.8306
698.8570, 315.9688
700.0130, 360.1494
701.1680, 341.3901
702.3230, 336.6685
703.4780, 269.0005
704.6330, 395.3682
705.7880, 310.7983
706.9430, 362.2710
708.0970, 368.8223
709.2520, 455.4287
710.4060, 456.9175
711.5600, 425.4858
712.7140, 472.2612
713.8670, 424.0308
715.0210, 418.2168
716.1740, 501.0830
717.3270, 563.9673
718.4800, 516.7612
719.6330, 502.2925
720.7860, 586.3247
721.9380, 560.5186
723.0910, 537.8057
724.2430, 628.2202
725.3950, 674.4766
726.5470, 623.9707
727.6980, 650.4575
728.8500, 648.8789
730.0010, 600.0688
731.1530, 681.1470
732.3040, 702.2397
733.4550, 742.8408
734.6050, 685.2725
735.7560, 696.4985
736.9060, 728.4678
738.0560, 781.1685
739.2060, 777.9072
740.3560, 751.2754
741.5060, 723.1074
742.6560, 849.6421
743.8050, 823.6260
744.9540, 795.5859
746.1030, 940.5938
747.2520, 863.6401
748.4010, 824.7275
749.5500, 996.8623
750.6980, 979.0361
751.8460, 963.2490
752.9950, 932.5137
754.1420, 980.8203
755.2900, 1061.168
756.4380, 989.5547
757.5850, 992.9814
758.7330, 1096.448
759.8800, 1122.954
761.0270, 1100.499
762.1730, 1125.083
763.3200, 1029.709
764.4670, 1161.376
765.6130, 1084.083
766.7590, 1084.829
767.9050, 1201.622
769.0510, 1220.453
770.1960, 1160.322
771.3420, 1155.231
772.4870, 1155.549
773.6320, 1167.759
774.7770, 1163.202
775.9220, 1266.270
777.0670, 1286.375
778.2110, 1396.520
779.3560, 1277.707
780.5000, 1291.932
781.6440, 1447.194
782.7880, 1315.495
783.9320, 1375.834
785.0750, 1386.211
786.2180, 1430.626
787.3620, 1433.078
788.5050, 1377.567
789.6480, 1431.095
790.7900, 1399.658
791.9330, 1445.260
793.0750, 1426.898
794.2170, 1422.573
795.3590, 1413.285
796.5010, 1429.219
797.6430, 1380.820
798.7850, 1480.642
799.9260, 1519.500
801.0670, 1565.395
802.2080, 1538.326
803.3490, 1584.295
804.4900, 1545.299
805.6310, 1587.340
806.7710, 1618.417
807.9110, 1690.528
809.0510, 1721.676
810.1910, 1787.858
811.3310, 1796.835
812.4710, 1810.087
813.6100, 1856.881
814.7490, 1879.306
815.8880, 1903.663
817.0270, 1921.054
818.1660, 1996.677
819.3050, 2040.321
820.4430, 2127.677
821.5820, 2201.867
822.7200, 2263.475
823.8580, 2408.762
824.9950, 2462.385
826.1330, 2362.902
827.2710, 2431.143
828.4080, 2662.860
829.5450, 2596.132
830.6820, 2781.420
831.8190, 2854.229
832.9560, 2849.251
834.0920, 2936.926
835.2280, 3046.093
836.3650, 3217.189
837.5010, 3306.307
838.6360, 3430.287
839.7720, 3554.292
840.9080, 3645.327
842.0430, 3807.163
843.1780, 4019.151
844.3130, 4081.616
845.4480, 4483.104
846.5830, 4621.271
847.7170, 5002.513
848.8520, 5279.734
849.9860, 5595.280
851.1200, 5916.860
852.2540, 6411.833
853.3870, 6892.968
854.5210, 7528.858
855.6540, 8114.918
856.7880, 8801.785
857.9210, 9619.180
859.0540, 10454.69
860.1860, 11297.39
861.3190, 12386.44
862.4510, 13448.47
863.5840, 14847.48
864.7160, 16183.42
865.8480, 18092.57
866.9790, 20021.10
868.1110, 22091.08
869.2420, 24063.62
870.3740, 26041.50
871.5050, 28160.18
872.6360, 29745.12
873.7660, 31079.52
874.8970, 31765.51
876.0280, 31690.87
877.1580, 30893.05
878.2880, 29339.90
879.4180, 27216.99
880.5480, 24560.76
881.6770, 21565.64
882.8070, 18715.76
883.9360, 16173.32
885.0650, 13464.36
886.1940, 11402.52
887.3230, 9570.686
888.4520, 8053.817
889.5800, 6918.699
890.7090, 5832.360
891.8370, 4992.612
892.9650, 4319.000
894.0930, 3912.556
895.2200, 3477.809
896.3480, 2956.344
897.4750, 2669.617
898.6020, 2337.341
899.7290, 2191.544
900.8560, 2056.945
901.9830, 1770.260
903.1090, 1690.620
904.2360, 1518.953
905.3620, 1397.295
906.4880, 1342.653
907.6140, 1200.704
908.7400, 1063.529
909.8650, 1018.146
910.9900, 918.5347
912.1160, 882.9351
913.2410, 735.3848
914.3660, 652.8965
915.4900, 606.3232
916.6150, 566.7559
917.7390, 497.1938
918.8640, 506.6362
919.9880, 462.3428
921.1120, 454.7944
922.2350, 380.2505
923.3590, 269.7109
924.4820, 366.1748
925.6060, 243.6426
926.7290, 196.1133
927.8520, 234.5869
928.9740, 227.0703
930.0970, 198.5552
931.2190, 214.0425
932.3420, 231.5303
933.4640, 280.0254
934.5860, 224.5176
935.7080, 149.0112
936.8290, 121.5063
937.9510, 153.3926
939.0720, 83.88867
940.1930, 75.38477
941.3140, 114.8804
942.4350, 100.3765
943.5560, 140.8711
944.6760, 110.3647
945.7960, 29.14307
946.9170, 42.33887
948.0370, 21.18018
949.1560, 5.706543
950.2760, 29.76367
951.3960, 12.23145
952.5150, 9.303223
953.6340, 32.84424
954.7530, 26.40137
955.8720, 20.97119
956.9910, 45.55176
958.1090, 20.15723
959.2280, 42.22559
960.3460, 73.39697
961.4640, 50.05957
962.5820, 18.25000
963.6990, 30.44629
964.8170, 63.16309
965.9340, 12.08105
967.0510, 71.68018
968.1690, 48.48682
969.2850, 41.32471
970.4020, 23.80664
971.5190, 67.06787
972.6350, 55.01709
973.7510, 24.09424
974.8670, 34.16455
975.9830, 40.77393
977.0990, 41.74609
978.2150, 63.75342
979.3300, 46.80859
980.4450, 57.09961
981.5600, 71.99658
982.6750, 19.85352
983.7900, 10.30371
984.9050, 9.484375
986.0190, 70.68799
987.1340, 36.94824
988.2480, 44.24683
989.3620, 4.457520
990.4750, 54.90332
991.5890, 1.685547
992.7020, 51.35864
993.8160, 32.08594
994.9290, 20.46973
996.0420, 18.98950
997.1550, 18.45581
998.2670, 0.9233400
999.3800, 19.32593
1000.492, 11.70996
1001.604, 10.92700
1002.716, 34.59790
1003.828, 115.6843
1004.940, 15.95239
1006.051, 70.19775
1007.163, 11.57129
1008.274, 96.62231
1009.385, 9.132080
1010.496, 12.01001
1011.606, 1.126221
1012.717, 59.21045
1013.827, 26.27881
1014.937, 3.384033
1016.047, 99.40503
1017.157, 38.40186
1018.267, 3.377686
1019.377, 109.3196
1020.486, 85.24487
1021.595, 11.51514
1022.704, 34.35059
1023.813, 44.19238
1024.922, 74.01270
1026.030, 63.88086
1027.139, 54.67773
1028.247, 87.52734
1029.355, 59.69067
1030.463, 103.9978
1031.571, 52.70532
1032.678, 35.51074
1033.786, 78.21313
1034.893, 111.0627
1036.000, 10.92261
1037.107, 139.5076
1038.214, 118.3481
1039.321, 114.5864
1040.427, 35.11548
1041.533, 102.8027
1042.639, 77.62598
1043.745, 142.1335
1044.851, 104.6580
1045.957, 100.4011
1047.062, 42.36279
1048.168, 182.7551
1049.273, 150.1970
1050.378, 138.5415
1051.482, 149.8538
1052.587, 87.20068
1053.692, 150.4702
1054.796, 132.8054
1055.900, 142.0352
1057.004, 174.2439
1058.108, 154.5508
1059.212, 180.7480
1060.315, 131.0027
1061.418, 197.6462
1062.522, 224.7634
1063.625, 206.8496
1064.728, 154.9153
1065.830, 132.9944
1066.933, 177.2136
1068.035, 262.4209
1069.137, 195.4783
1070.239, 91.48804
1071.341, 253.6580
1072.443, 182.5989
1073.545, 179.5603
1074.646, 193.6726
1075.747, 265.5261
1076.848, 206.3582
1077.949, 259.2200
1079.050, 309.2520
1080.150, 263.2402
1081.251, 327.6885
1082.351, 202.5083
1083.451, 299.3723
1084.551, 237.1604
1085.651, 260.6243
1086.750, 253.2107
1087.850, 240.9468
1088.949, 238.9717
1090.048, 309.5034
1091.147, 216.4202
1092.246, 329.0527
1093.345, 207.7080
1094.443, 239.8594
1095.541, 199.3923
1096.639, 204.3254
1097.737, 259.2512
1098.835, 231.6660
1099.933, 185.8760
1101.030, 191.4929
1102.128, 210.4055
1103.225, 238.9531
1104.322, 188.2107
1105.419, 159.5066
1106.515, 223.8823
1107.612, 264.2163
1108.708, 252.6768
1109.804, 204.9932
1110.900, 248.9326
1111.996, 209.1792
1113.092, 140.6543
1114.187, 143.7510
1115.283, 160.3628
1116.378, 249.1758
1117.473, 217.9636
1118.568, 115.8337
1119.662, 167.8853
1120.757, 98.26904
1121.851, 161.6301
1122.946, 136.2114
1124.040, 79.26709
1125.134, 105.2319
1126.227, 78.09546
1127.321, 156.5959
1128.414, 105.0859
1129.508, 88.61743
1130.601, 176.2356
1131.693, 173.6890
1132.786, 163.7734
1133.879, 159.4644
1134.971, 150.5881
1136.064, 143.4299
1137.156, 143.4717
1138.248, 169.2639
1139.339, 171.5925
1140.431, 73.38696
1141.522, 132.8333
1142.614, 139.5322
1143.705, 86.54175
1144.796, 153.2737
1145.887, 70.27612
1146.977, 81.16309
1148.068, 138.8208
1149.158, 120.0334
1150.248, 88.75903
1151.338, 88.37427
1152.428, 28.97778
1153.518, 105.6152
1154.607, 94.50000
1155.696, 111.6047
1156.785, 62.11792
1157.874, 74.49268
1158.963, 56.69580
1160.052, 138.2004
1161.141, 155.4746
1162.229, 89.95288
1163.317, 47.97827
1164.405, 65.52002
1165.493, 35.86084
1166.581, 32.28418
1167.668, 163.6560
1168.756, 26.05225
1169.843, 13.56616
1170.930, 150.7878
1172.017, 34.99170
1173.103, 18.32007
1174.190, 60.39844
1175.276, 51.69922
1176.363, 18.98389
1177.449, 28.78833
1178.535, 65.36084
1179.620, 48.58887
1180.706, 66.80469
1181.791, 72.00879
1182.877, 56.20166
1183.962, 81.12476
1185.047, 48.29468
1186.131, 74.45288
1187.216, 76.23315
1188.300, 39.73657
1189.385, 72.86108
1190.469, 34.97778
1191.553, 14.90771
1192.637, 64.17041
1193.720, 134.2380
1194.804, 82.29517
1195.887, 57.34229
1196.970, 25.37427
1198.053, 23.90625
1199.136, 46.41211
1200.219, 52.41504
1201.301, 19.04810
1202.383, 57.05859
1203.465, 47.51538
1204.547, 17.47632
1205.629, 75.42554
1206.711, 69.44019
1207.792, 49.37134
1208.874, 65.53369
1209.955, 17.53979
1211.036, 18.45508
1212.117, 19.34302
1213.198, 23.34985
1214.278, 34.22803
1215.359, 103.1096
1216.439, 31.97119
1217.519, 65.83008
1218.599, 36.42456
1219.678, 124.3704
1220.758, 44.22192
1221.837, 34.33984
1222.917, 84.17847
1223.996, 13.14673
1225.075, 42.14014
1226.153, 102.9822
1227.232, 54.82373
1228.310, 142.7368
1229.389, 78.58838
1230.467, 41.44287
1231.545, 83.64624
1232.622, 9.509521
1233.700, 16.63013
1234.777, 68.22607
1235.855, 28.07568
1236.932, 33.05347
1238.009, 75.89014
1239.086, 60.84961
1240.162, 29.84204
1241.239, 5.210693
1242.315, 21.33154
1243.391, 71.59497
1244.467, 7.540527
1245.543, 119.3142
1246.619, 119.1702
1247.694, 108.0266
1248.769, 15.06274
1249.844, 54.13867
1250.919, 71.19092
1251.994, 45.08081
1253.069, 145.2808
1254.144, 71.12573
1255.218, 24.26367
1256.292, 80.06934
1257.366, 97.98169
1258.440, 74.90015
1259.514, 73.90747
1260.587, 65.82397
1261.661, 62.39966
1262.734, 57.62012
1263.807, 69.56763
1264.880, 71.59106
1265.952, 79.60229
1267.025, 70.32861
1268.097, 57.83252
1269.170, 45.77759
1270.242, 33.72925
1271.314, 19.70337
1272.385, 25.64990
1273.457, 33.59961
1274.528, 48.54492
1275.600, 51.30078
1276.671, 69.39893
1277.742, 74.36548
1278.812, 84.30811
1279.883, 88.56689
1280.954, 68.70020
1282.024, 79.30884
1283.094, 91.25806
1284.164, 60.27637
1285.234, 92.22485
1286.303, 81.10425
1287.373, 136.0334
1288.442, 133.8870
