##NAMES=Columbite-(Fe)
##RRUFFID=R060001
##IDEAL CHEMISTRY=Fe^2+^Nb^5+^_2_O_6_
##LOCALITY=Gypsy mine, Minas Gerais, Brazil
##OWNER=RRUFF
##SOURCE=Eric Van Valkenburg
##DESCRIPTION=Steel gray fragment with internal red hints
##STATUS=The identification of this mineral has been confirmed by X-ray diffraction and chemical analysis
##URL=rruff.info/R060001
##MEASURED CHEMISTRY=(Fe^2+^_0.52_Mn^2+^_0.48_)_Σ=1_(Nb_1.61_Ta_0.39_)_Σ=2_O_6_
##PIN_ID=L01167
##ORIENTATION=Laser parallel to c* (0 0 1). Fiducial mark perpendicular to laser is parallel to -a [-1 0 0]
130.2300, 0.0000000E+00
131.4640, 142.2764
132.6970, 0.8974610
133.9300, 193.6553
135.1630, 271.9258
136.3950, 315.0898
137.6280, 683.8340
138.8600, 745.7324
140.0920, 646.2637
141.3240, 375.4912
142.5560, 351.7109
143.7880, 249.5752
145.0190, 147.4961
146.2510, 238.4727
147.4820, 75.93652
148.7130, 145.0586
149.9440, 188.6729
151.1750, 475.8398
152.4050, 401.6143
153.6360, 321.1406
154.8660, 294.1299
156.0960, 185.6680
157.3260, 75.66406
158.5560, 53.33398
159.7850, 9.235352
161.0150, 151.2783
162.2440, 167.8643
163.4730, 187.5020
164.7020, 347.1836
165.9310, 264.9102
167.1590, 35.70996
168.3880, 71.59180
169.6160, 133.5596
170.8440, 211.6094
172.0720, 135.7314
173.3000, 192.9062
174.5280, 176.1182
175.7550, 88.47559
176.9820, 228.6123
178.2100, 367.6025
179.4370, 219.8418
180.6630, 244.7080
181.8900, 48.54980
183.1170, 115.6045
184.3430, 146.2656
185.5690, 234.6338
186.7950, 383.9229
188.0210, 339.5469
189.2470, 486.2324
190.4720, 438.9512
191.6970, 722.6719
192.9230, 710.3408
194.1480, 878.9346
195.3730, 963.4482
196.5970, 985.8857
197.8220, 1241.354
199.0460, 1322.781
200.2700, 1610.282
201.4940, 1737.021
202.7180, 1734.048
203.9420, 1552.148
205.1660, 1387.407
206.3890, 1393.767
207.6120, 1200.200
208.8350, 1083.633
210.0580, 847.1396
211.2810, 794.6367
212.5040, 700.0449
213.7260, 763.3506
214.9480, 540.5762
216.1700, 400.7295
217.3920, 294.7490
218.6140, 353.6025
219.8360, 177.3584
221.0570, 264.0459
222.2790, 181.6650
223.5000, 193.1982
224.7210, 82.66699
225.9410, 230.0703
227.1620, 219.4062
228.3820, 180.6885
229.6030, 133.9092
230.8230, 194.0605
232.0430, 261.3184
233.2630, 209.9365
234.4820, 477.2490
235.7020, 320.7070
236.9210, 374.9277
238.1400, 220.2676
239.3590, 252.6230
240.5780, 391.6875
241.7970, 498.5146
243.0150, 463.3613
244.2340, 530.9609
245.4520, 583.5244
246.6700, 553.2119
247.8880, 690.9180
249.1060, 670.4434
250.3230, 840.8193
251.5400, 915.1074
252.7580, 1098.633
253.9750, 1228.007
255.1920, 1239.791
256.4080, 1384.408
257.6250, 2118.242
258.8410, 2075.066
260.0580, 2187.067
261.2740, 2443.184
262.4900, 2226.780
263.7050, 2329.160
264.9210, 2699.174
266.1360, 2913.815
267.3520, 3017.022
268.5670, 3024.871
269.7820, 3166.244
270.9960, 3140.965
272.2110, 3023.656
273.4250, 2913.590
274.6400, 2842.365
275.8540, 2709.842
277.0680, 2388.810
278.2810, 2168.337
279.4950, 1806.583
280.7090, 1622.057
281.9220, 1373.633
283.1350, 1228.755
284.3480, 1163.577
285.5610, 896.4941
286.7730, 879.7256
287.9860, 719.5742
289.1980, 694.5635
290.4100, 686.4785
291.6220, 639.7168
292.8340, 678.6055
294.0460, 601.3076
295.2570, 567.6152
296.4690, 605.1055
297.6800, 460.0586
298.8910, 564.9766
300.1020, 470.8701
301.3120, 521.7393
302.5230, 469.1074
303.7330, 426.3213
304.9440, 452.6396
306.1540, 632.1465
307.3630, 631.3633
308.5730, 434.6641
309.7830, 662.0400
310.9920, 546.8008
312.2010, 672.5039
313.4100, 892.6729
314.6190, 705.2979
315.8280, 847.4121
317.0370, 866.8359
318.2450, 913.9238
319.4530, 719.2324
320.6610, 824.4502
321.8690, 686.1270
323.0770, 614.5107
324.2850, 608.0283
325.4920, 616.3125
326.6990, 524.6709
327.9060, 450.8184
329.1130, 405.5684
330.3200, 306.4463
331.5270, 365.6719
332.7330, 235.9932
333.9390, 173.2871
335.1450, 263.5518
336.3510, 176.0273
337.5570, 148.3945
338.7630, 147.1709
339.9680, 77.31738
341.1740, 46.42969
342.3790, 106.5039
343.5840, 119.5459
344.7890, 172.5576
345.9930, 78.54102
347.1980, 156.4873
348.4020, 72.40332
349.6060, 195.2822
350.8100, 195.1279
352.0140, 221.9414
353.2180, 95.72461
354.4210, 124.4688
355.6250, 69.82227
356.8280, 106.8193
358.0310, 0.4228520
359.2340, 41.97754
360.4360, 106.4912
361.6390, 142.9688
362.8410, 159.4150
364.0430, 151.8320
365.2450, 149.8633
366.4470, 96.21777
367.6490, 0.2070310
368.8510, 82.19727
370.0520, 197.4912
371.2530, 131.5771
372.4540, 210.5918
373.6550, 108.4170
374.8560, 141.0195
376.0560, 130.8467
377.2570, 86.91895
378.4570, 225.7559
379.6570, 284.7646
380.8570, 226.7334
382.0570, 131.6562
383.2560, 343.3760
384.4560, 211.1934
385.6550, 330.0127
386.8540, 298.8066
388.0530, 115.5674
389.2520, 133.2510
390.4510, 305.8740
391.6490, 290.4688
392.8470, 119.0400
394.0450, 33.58301
395.2430, 48.06641
396.4410, 157.5195
397.6390, 2.951172
398.8360, 147.3418
400.0340, 91.70898
401.2310, 125.0537
402.4280, 182.3779
403.6250, 91.68457
404.8210, 11.03125
406.0180, 13.21680
407.2140, 29.77637
408.4100, 51.40918
409.6060, 7.315430
410.8020, 13.25684
411.9980, 12.76660
413.1930, 48.25977
414.3890, 71.36914
415.5840, 35.42578
416.7790, 87.83301
417.9740, 30.79395
419.1680, 32.35449
420.3630, 51.88184
421.5570, 70.63867
422.7510, 69.74609
423.9450, 45.09766
425.1390, 117.5898
426.3330, 81.60645
427.5270, 35.77148
428.7200, 23.90039
429.9130, 162.9912
431.1060, 81.94336
432.2990, 157.0303
433.4920, 17.01855
434.6840, 34.87891
435.8770, 129.7529
437.0690, 231.6074
438.2610, 163.4492
439.4530, 107.6611
440.6450, 99.52637
441.8360, 235.4336
443.0280, 201.8477
444.2190, 192.7939
445.4100, 320.5928
446.6010, 279.6455
447.7920, 186.1396
448.9820, 217.1758
450.1730, 227.9316
451.3630, 216.5664
452.5530, 216.6641
453.7430, 284.3418
454.9330, 306.4531
456.1230, 243.0957
457.3120, 263.1201
458.5010, 411.0527
459.6910, 269.6592
460.8800, 275.5439
462.0680, 472.1211
463.2570, 401.6836
464.4460, 384.2305
465.6340, 464.7676
466.8220, 419.2891
468.0100, 419.7969
469.1980, 359.2891
470.3860, 644.7676
471.5730, 563.2383
472.7600, 476.6963
473.9480, 678.1455
475.1350, 598.5801
476.3210, 655.8896
477.5080, 653.8945
478.6950, 676.2920
479.8810, 727.3145
481.0670, 790.1045
482.2530, 802.8828
483.4390, 874.5723
484.6250, 830.4756
485.8100, 866.3223
486.9960, 771.1758
488.1810, 864.1670
489.3660, 832.8916
490.5510, 784.7529
491.7360, 756.3525
492.9200, 851.4453
494.1050, 610.5381
495.2890, 857.7441
496.4730, 703.8516
497.6570, 804.4102
498.8400, 783.0264
500.0240, 701.3457
501.2070, 798.3789
502.3910, 748.2090
503.5740, 726.5566
504.7570, 767.3789
505.9400, 705.3467
507.1220, 728.6523
508.3050, 637.1748
509.4870, 738.4219
510.6690, 689.5146
511.8510, 696.5137
513.0330, 801.6953
514.2140, 709.5264
515.3960, 702.7275
516.5770, 662.2959
517.7580, 706.2539
518.9390, 647.1445
520.1200, 792.3916
521.3010, 881.5977
522.4810, 922.8066
523.6610, 915.0156
524.8420, 815.0010
526.0220, 717.2168
527.2010, 873.4346
528.3810, 877.6553
529.5610, 868.8799
530.7400, 944.8154
531.9190, 841.9268
533.0980, 849.1631
534.2770, 806.7178
535.4560, 899.7930
536.6340, 848.9580
537.8120, 765.6387
538.9910, 690.9053
540.1690, 788.7334
541.3460, 683.0391
542.5240, 780.9268
543.7020, 725.1875
544.8790, 557.5400
546.0560, 613.5342
547.2330, 475.9541
548.4100, 556.4951
549.5870, 596.4854
550.7630, 599.2207
551.9400, 461.4150
553.1160, 508.4492
554.2920, 482.7910
555.4680, 450.3799
556.6440, 519.9971
557.8190, 405.2607
558.9950, 472.3105
560.1700, 471.0312
561.3450, 392.8418
562.5200, 432.5703
563.6950, 265.6768
564.8690, 558.0029
566.0440, 521.7129
567.2180, 406.0674
568.3920, 294.6719
569.5660, 482.2676
570.7400, 326.7471
571.9130, 446.1406
573.0870, 193.0889
574.2600, 276.8105
575.4330, 167.9873
576.6060, 229.9951
577.7790, 191.7920
578.9520, 42.61621
580.1240, 8.536133
581.2960, 29.66406
582.4690, 31.77637
583.6410, 140.8730
584.8120, 109.8115
585.9840, 31.12012
587.1560, 114.2295
588.3270, 51.34961
589.4980, 66.45703
590.6690, 131.5566
591.8400, 151.6719
593.0110, 43.80859
594.1810, 38.07031
595.3510, 187.0195
596.5220, 67.85547
597.6920, 13.23730
598.8610, 43.30371
600.0310, 41.43945
601.2010, 10.31543
602.3700, 67.65039
603.5390, 8.697266
604.7080, 17.77930
605.8770, 46.89258
607.0460, 62.12012
608.2140, 137.2236
609.3830, 131.4414
610.5510, 267.6924
611.7190, 260.9795
612.8870, 330.3027
614.0550, 257.6611
615.2220, 293.0566
616.3900, 447.4873
617.5570, 310.9561
618.7240, 465.4629
619.8910, 541.0078
621.0580, 622.5918
622.2240, 712.2168
623.3910, 735.8809
624.5570, 788.5918
625.7230, 846.3535
626.8890, 823.1562
628.0550, 1044.004
629.2200, 867.8936
630.3860, 1054.829
631.5510, 1157.808
632.7160, 1191.834
633.8810, 1047.900
635.0460, 1145.011
636.2100, 1069.161
637.3750, 1196.359
638.5390, 1225.602
639.7030, 1337.926
640.8670, 1225.294
642.0310, 1147.723
643.1950, 1065.207
644.3580, 971.8281
645.5210, 922.3125
646.6850, 825.9346
647.8480, 719.6006
649.0100, 698.8203
650.1730, 645.5518
651.3350, 682.8936
652.4980, 605.7676
653.6600, 470.6855
654.8220, 433.6514
655.9840, 331.6621
657.1450, 392.2227
658.3070, 312.8301
659.4680, 506.9844
660.6300, 416.1904
661.7910, 355.4424
662.9510, 247.7422
664.1120, 152.0869
665.2730, 131.2627
666.4330, 132.9238
667.5930, 93.41309
668.7530, 125.9512
669.9130, 120.5361
671.0730, 122.1719
672.2320, 114.3467
673.3920, 24.41016
674.5510, 103.3682
675.7100, 3.196289
676.8690, 45.08398
678.0280, 151.0264
679.1860, 22.01953
680.3450, 7.8125000E-02
681.5030, 121.1846
682.6610, 77.35547
683.8190, 3.424805
684.9770, 127.8467
686.1340, 31.82129
687.2920, 211.5762
688.4490, 135.0762
689.6060, 37.65039
690.7630, 18.63379
691.9200, 5.964844
693.0760, 203.0576
694.2330, 79.02148
695.3890, 161.0869
696.5450, 150.2676
697.7010, 197.5459
698.8570, 63.94336
700.0130, 196.4326
701.1680, 37.99219
702.3230, 192.6094
703.4780, 179.3096
704.6330, 188.1025
705.7880, 357.9580
706.9430, 311.9326
708.0970, 301.9590
709.2520, 233.0654
710.4060, 416.2402
711.5600, 425.4814
712.7140, 377.8105
713.8670, 549.2051
715.0210, 508.6855
716.1740, 486.2334
717.3270, 419.8555
718.4800, 341.5312
719.6330, 503.8721
720.7860, 416.6113
721.9380, 447.3438
723.0910, 631.6094
724.2430, 660.4062
725.3950, 615.3906
726.5470, 609.1562
727.6980, 489.5547
728.8500, 651.4561
730.0010, 651.7012
731.1530, 548.1074
732.3040, 593.0977
733.4550, 690.5479
734.6050, 665.6074
735.7560, 727.1787
736.9060, 750.4170
738.0560, 685.7969
739.2060, 703.5439
740.3560, 764.0518
741.5060, 708.9102
742.6560, 730.8242
743.8050, 917.7920
744.9540, 908.8145
746.1030, 904.8906
747.2520, 901.0234
748.4010, 965.2109
749.5500, 877.4521
750.6980, 898.7471
751.8460, 918.0967
752.9950, 851.5000
754.1420, 895.2959
755.2900, 1011.468
756.4380, 980.0322
757.5850, 979.6523
758.7330, 1140.326
759.8800, 1067.059
761.0270, 1036.845
762.1730, 1119.682
763.3200, 1162.583
764.4670, 1130.536
765.6130, 1186.543
766.7590, 1211.601
767.9050, 1294.711
769.0510, 1220.874
770.1960, 1186.088
771.3420, 898.3555
772.4870, 1182.673
773.6320, 1250.044
774.7770, 1119.465
775.9220, 1326.938
777.0670, 1128.462
778.2110, 1216.037
779.3560, 1327.661
780.5000, 1204.337
781.6440, 1133.062
782.7880, 1320.838
783.9320, 1249.243
785.0750, 1292.538
786.2180, 1263.462
787.3620, 1265.354
788.5050, 1312.288
789.6480, 1338.819
790.7900, 1346.050
791.9330, 1276.018
793.0750, 1305.864
794.2170, 1295.759
795.3590, 1284.051
796.5010, 1328.091
797.6430, 1269.549
798.7850, 1312.794
799.9260, 1371.337
801.0670, 1380.885
802.2080, 1369.791
803.3490, 1452.124
804.4900, 1377.812
805.6310, 1400.547
806.7710, 1447.326
807.9110, 1431.153
809.0510, 1538.024
810.1910, 1498.941
811.3310, 1596.590
812.4710, 1541.596
813.6100, 1674.639
814.7490, 1800.734
815.8880, 1798.874
817.0270, 1786.057
818.1660, 1705.260
819.3050, 1940.743
820.4430, 2053.056
821.5820, 2042.410
822.7200, 2127.600
823.8580, 2162.631
824.9950, 2369.226
826.1330, 2391.749
827.2710, 2566.431
828.4080, 2646.152
829.5450, 2834.547
830.6820, 2831.823
831.8190, 2833.883
832.9560, 2870.316
834.0920, 3087.953
835.2280, 3320.630
836.3650, 3334.906
837.5010, 3422.950
838.6360, 3523.090
839.7720, 3688.051
840.9080, 3761.640
842.0430, 3836.000
843.1780, 4186.908
844.3130, 4180.992
845.4480, 4506.090
846.5830, 4936.238
847.7170, 5063.301
848.8520, 5537.684
849.9860, 5809.589
851.1200, 6116.589
852.2540, 6635.398
853.3870, 7217.453
854.5210, 7772.795
855.6540, 8462.943
856.7880, 9128.987
857.9210, 9967.277
859.0540, 10683.80
860.1860, 11585.54
861.3190, 12625.71
862.4510, 13883.29
863.5840, 15172.03
864.7160, 16673.78
865.8480, 18190.67
866.9790, 20014.40
868.1110, 22158.95
869.2420, 24166.91
870.3740, 26329.95
871.5050, 28669.32
872.6360, 30989.05
873.7660, 33006.91
874.8970, 34330.38
876.0280, 35250.70
877.1580, 35445.30
878.2880, 35282.71
879.4180, 34144.72
880.5480, 32618.78
881.6770, 30489.84
882.8070, 28021.25
883.9360, 25141.34
885.0650, 22203.46
886.1940, 19493.59
887.3230, 16747.74
888.4520, 14501.90
889.5800, 12203.08
890.7090, 10556.28
891.8370, 8963.485
892.9650, 7671.225
894.0930, 6523.651
895.2200, 5517.780
896.3480, 4897.045
897.4750, 4149.322
898.6020, 3569.564
899.7290, 3229.914
900.8560, 2827.230
901.9830, 2554.156
903.1090, 2251.995
904.2360, 2088.246
905.3620, 1837.605
906.4880, 1490.977
907.6140, 1513.358
908.7400, 1320.749
909.8650, 1351.150
910.9900, 1081.561
912.1160, 1039.978
913.2410, 901.4062
914.3660, 837.8408
915.4900, 708.2852
916.6150, 747.7363
917.7390, 619.1943
918.8640, 539.6602
919.9880, 281.1328
921.1120, 510.6113
922.2350, 322.0967
923.3590, 410.5869
924.4820, 322.0830
925.6060, 268.5850
926.7290, 339.1006
927.8520, 261.6357
928.9740, 281.1738
930.0970, 320.7168
931.2190, 205.2637
932.3420, 280.8145
933.4640, 155.3691
934.5860, 306.9268
935.7080, 178.4854
936.8290, 154.0459
937.9510, 294.6084
939.0720, 255.1719
940.1930, 297.7373
941.3140, 193.3037
942.4350, 56.87305
943.5560, 203.4443
944.6760, 221.0225
945.7960, 86.60059
946.9170, 221.1777
948.0370, 10.75586
949.1560, 20.33105
950.2760, 223.9062
951.3960, 66.47852
952.5150, 105.0498
953.6340, 29.38086
954.7530, 114.1680
955.8720, 18.71289
956.9910, 18.74512
958.1090, 26.77441
959.2280, 140.7080
960.3460, 118.7256
961.4640, 217.8447
962.5820, 90.54199
963.6990, 5.701172
964.8170, 42.07031
965.9340, 70.88086
967.0510, 92.74512
968.1690, 126.6748
969.2850, 93.79883
970.4020, 101.7676
971.5190, 11.92090
972.6350, 33.89746
973.7510, 89.70801
974.8670, 116.4893
975.9830, 5.231445
977.0990, 54.06445
978.2150, 111.5879
979.3300, 54.76855
980.4450, 3.170898
981.5600, 17.60059
982.6750, 48.93066
983.7900, 12.54688
984.9050, 30.06152
986.0190, 8.619141
987.1340, 45.21094
988.2480, 76.14453
989.3620, 107.4893
990.4750, 18.17773
991.5890, 70.12207
992.7020, 25.41016
993.8160, 64.32520
994.9290, 42.87695
996.0420, 127.0605
997.1550, 27.24219
998.2670, 76.40234
999.3800, 12.45312
1000.492, 128.6484
1001.604, 13.73828
1002.716, 77.82227
1003.828, 29.89746
1004.940, 22.94727
1006.051, 44.96973
1007.163, 41.99805
1008.274, 61.30273
1009.385, 72.34277
1010.496, 108.9678
1011.606, 104.9277
1012.717, 145.8721
1013.827, 179.7998
1014.937, 118.7139
1016.047, 80.61230
1017.157, 158.4932
1018.267, 181.3574
1019.377, 136.2129
1020.486, 216.0547
1021.595, 281.8789
1022.704, 190.6895
1023.813, 206.4834
1024.922, 256.2607
1026.030, 79.02051
1027.139, 103.7588
1028.247, 62.47754
1029.355, 184.1729
1030.463, 144.8496
1031.571, 31.50977
1032.678, 126.5762
1033.786, 185.2422
1034.893, 223.4502
1036.000, 242.2949
1037.107, 183.8213
1038.214, 225.1514
1039.321, 226.4531
1040.427, 226.0977
1041.533, 281.4141
1042.639, 234.0811
1043.745, 288.4795
1044.851, 302.2393
1045.957, 223.3799
1047.062, 374.7803
1048.168, 274.1680
1049.273, 259.5361
1050.378, 259.8848
1051.482, 465.2529
1052.587, 368.5625
1053.692, 416.8525
1054.796, 314.1211
1055.900, 339.3721
1057.004, 372.6348
1058.108, 404.9854
1059.212, 372.3691
1060.315, 488.5898
1061.418, 543.7402
1062.522, 495.1289
1063.625, 395.4600
1064.728, 429.5518
1065.830, 384.6240
1066.933, 377.6748
1068.035, 513.7041
1069.137, 391.7129
1070.239, 475.7002
1071.341, 408.6660
1072.443, 440.6611
1073.545, 470.6758
1074.646, 517.5264
1075.747, 524.4062
1076.848, 433.8193
1077.949, 464.8750
1079.050, 567.6904
1080.150, 414.4824
1081.251, 440.6104
1082.351, 468.4492
1083.451, 366.1758
1084.551, 416.9033
1085.651, 460.5859
1086.750, 463.9473
1087.850, 496.6904
1088.949, 498.4121
1090.048, 452.2676
1091.147, 414.9600
1092.246, 417.3945
1093.345, 546.0244
1094.443, 513.4102
1095.541, 517.4043
1096.639, 550.4023
1097.737, 489.2461
1098.835, 365.3252
1099.933, 373.0469
1101.030, 422.5928
1102.128, 337.2578
1103.225, 351.1826
1104.322, 321.3564
1105.419, 334.8730
1106.515, 301.4941
1107.612, 394.1680
1108.708, 369.4395
1109.804, 225.8203
1110.900, 246.0361
1111.996, 389.9834
1113.092, 396.1641
1114.187, 503.4404
1115.283, 494.7705
1116.378, 306.9697
1117.473, 437.3945
1118.568, 428.9707
1119.662, 373.3994
1120.757, 496.4658
1121.851, 290.6328
1122.946, 346.8359
1124.040, 341.7939
1125.134, 329.7383
1126.227, 272.3057
1127.321, 181.7061
1128.414, 320.1748
1129.508, 243.9912
1130.601, 301.8213
1131.693, 311.5293
1132.786, 219.4775
1133.879, 356.3193
1134.971, 315.7480
1136.064, 264.3984
1137.156, 189.8887
1138.248, 206.4922
1139.339, 273.4961
1140.431, 261.0127
1141.522, 280.9570
1142.614, 319.8926
1143.705, 190.6426
1144.796, 256.4746
1145.887, 179.2383
1146.977, 229.9482
1148.068, 278.7012
1149.158, 260.5557
1150.248, 266.6992
1151.338, 304.7549
1152.428, 321.7588
1153.518, 319.8096
1154.607, 240.1553
1155.696, 260.3682
1156.785, 240.4932
1157.874, 218.4463
1158.963, 252.5762
1160.052, 183.2080
1161.141, 216.8096
1162.229, 209.5869
1163.317, 218.9307
1164.405, 189.8047
1165.493, 175.2559
1166.581, 199.9814
1167.668, 201.2666
1168.756, 167.8477
1169.843, 180.1416
1170.930, 110.6318
1172.017, 112.8398
1173.103, 212.6221
1174.190, 126.9795
1175.276, 236.3242
1176.363, 161.6543
1177.449, 144.1416
1178.535, 147.4805
1179.620, 108.4375
1180.706, 104.0645
1181.791, 89.32324
1182.877, 98.75781
1183.962, 115.9883
1185.047, 108.2041
1186.131, 101.4062
1187.216, 90.60352
1188.300, 71.96484
1189.385, 15.58301
1190.469, 29.45605
1191.553, 135.6289
1192.637, 57.60352
1193.720, 61.65918
1194.804, 143.7002
1195.887, 139.0996
1196.970, 157.0938
1198.053, 202.2324
1199.136, 157.2207
1200.219, 205.1953
1201.301, 193.1582
1202.383, 85.10840
1203.465, 75.21387
1204.547, 2.136719
1205.629, 110.0762
1206.711, 9.035156
1207.792, 56.82715
1208.874, 190.6748
1209.955, 140.5098
1211.036, 137.3330
1212.117, 30.14453
1213.198, 150.9404
1214.278, 88.72461
1215.359, 98.62793
1216.439, 0.6132810
1217.519, 68.13867
1218.599, 60.27637
1219.678, 79.63965
1220.758, 63.48145
1221.837, 178.1924
1222.917, 66.93066
1223.996, 140.6582
1225.075, 172.4346
1226.153, 62.22754
1227.232, 186.0117
1228.310, 131.8037
1229.389, 124.6074
1230.467, 87.42969
1231.545, 55.27930
1232.622, 115.2588
1233.700, 151.1494
1234.777, 23.03906
1235.855, 33.05176
1236.932, 186.9160
1238.009, 12.19238
1239.086, 119.6816
1240.162, 126.5684
1241.239, 18.42480
1242.315, 112.4482
1243.391, 238.3633
1244.467, 65.58105
1245.543, 100.4453
1246.619, 77.31348
1247.694, 89.24121
1248.769, 68.11719
1249.844, 173.0039
1250.919, 61.17090
1251.994, 13.96387
1253.069, 237.9189
1254.144, 184.7900
1255.218, 3.343750
1256.292, 78.53223
1257.366, 31.59668
1258.440, 260.2402
1259.514, 113.3301
1260.587, 250.1562
1261.661, 77.98633
1262.734, 83.19238
1263.807, 19.25000
1264.880, 107.4053
1265.952, 62.15039
1267.025, 96.10938
1268.097, 63.56934
1269.170, 10.63379
1270.242, 13.02148
1271.314, 52.66602
1272.385, 105.2998
1273.457, 69.92480
1274.528, 82.75000
1275.600, 104.1475
1276.671, 23.74512
1277.742, 49.33301
1278.812, 15.08984
1279.883, 5.307617
1280.954, 123.0088
1282.024, 20.64551
1283.094, 119.5684
1284.164, 73.08301
1285.234, 95.65332
1286.303, 101.1504
1287.373, 48.64160
1288.442, 185.1240
1289.511, 23.60254
1290.580, 52.07031
1291.649, 63.53027
1292.718, 165.9873
1293.786, 26.56152
1294.855, 11.13672
1295.923, 238.2686
1296.991, 26.43848
1298.059, 104.8262
1299.126, 10.85449
1300.194, 316.2236
1301.261, 105.7471
1302.328, 134.0996
1303.395, 161.4453
1304.462, 92.78320
