##NAMES=Columbite-(Fe)
##RRUFFID=R050348
##IDEAL CHEMISTRY=Fe^2+^Nb^5+^_2_O_6_
##LOCALITY=Lord Hill mine, Stoneham, Oxford County, Maine, USA
##OWNER=RRUFF
##SOURCE=California Institute of Technology
##DESCRIPTION=Black fragment
##STATUS=The identification of this mineral has been confirmed by X-ray diffraction and chemical analysis
##URL=rruff.info/R050348
##MEASURED CHEMISTRY=(Fe^2+^_0.69_Mn^2+^_0.30_Ti_0.01_)(Nb_0.89_Ta_0.10_Ti_0.01_)_2_O_6_
##PIN_ID=L00573
##ORIENTATION=Laser parallel to -c* (0 0 -1). Fiducial mark perpendicular to laser is parallel to -a [-1 0 0]
221.0220, 0.0000000E+00
222.2400, 138.1543
223.4590, 2.640625
224.6770, 111.7114
225.8950, 83.35352
227.1120, 10.48145
228.3300, 79.48096
229.5480, 79.05371
230.7650, 112.8452
231.9820, 177.4878
233.1990, 142.8271
234.4160, 327.8638
235.6330, 366.6743
236.8490, 452.2793
238.0660, 432.3496
239.2820, 671.6216
240.4980, 696.9365
241.7140, 736.1885
242.9300, 869.3174
244.1460, 823.8643
245.3610, 847.2070
246.5770, 793.7227
247.7920, 763.5034
249.0070, 753.4155
250.2220, 643.7432
251.4370, 717.0986
252.6510, 701.8354
253.8660, 552.8379
255.0800, 697.1602
256.2940, 618.8740
257.5080, 771.0410
258.7220, 1192.720
259.9360, 1023.945
261.1490, 1364.000
262.3630, 983.5615
263.5760, 778.7441
264.7890, 798.8579
266.0020, 827.7817
267.2150, 798.0674
268.4270, 769.9854
269.6400, 720.3833
270.8520, 719.4204
272.0640, 710.0684
273.2760, 712.0459
274.4880, 797.2588
275.7000, 844.0244
276.9120, 777.4761
278.1230, 885.6729
279.3340, 875.8916
280.5450, 801.5879
281.7560, 770.1431
282.9670, 795.3550
284.1780, 720.2622
285.3880, 697.9312
286.5980, 648.6187
287.8090, 605.5830
289.0190, 568.0361
290.2290, 520.7651
291.4380, 461.8965
292.6480, 397.2656
293.8570, 313.0532
295.0670, 315.8979
296.2760, 261.7998
297.4850, 258.7622
298.6930, 132.7837
299.9020, 155.8623
301.1110, 195.9956
302.3190, 251.1802
303.5270, 129.4131
304.7350, 140.6919
305.9430, 130.0132
307.1510, 121.3745
308.3580, 111.7715
309.5660, 24.20166
310.7730, 21.66162
311.9800, 23.14941
313.1870, 58.66211
314.3940, 11.19873
315.6010, 37.75732
316.8070, 64.33594
318.0130, 65.06787
319.2200, 72.54150
320.4260, 38.16309
321.6310, 25.20703
322.8370, 98.42578
324.0430, 63.05908
325.2480, 13.69238
326.4540, 2.326172
327.6590, 5.034180
328.8640, 33.38086
330.0680, 26.74268
331.2730, 60.04443
332.4780, 55.46777
333.6820, 72.65869
334.8860, 50.92627
336.0900, 38.14844
337.2940, 30.35693
338.4980, 8.562988
339.7010, 3.779297
340.9050, 13.01465
342.1080, 30.71680
343.3110, 62.41797
344.5140, 13.12158
345.7170, 15.82910
346.9200, 52.50928
348.1220, 108.1328
349.3240, 162.6714
350.5270, 174.4980
351.7290, 204.9365
352.9310, 186.8647
354.1320, 198.2061
355.3340, 178.5596
356.5350, 109.9204
357.7370, 232.2983
358.9380, 281.6934
360.1390, 263.1055
361.3400, 246.5347
362.5400, 259.9805
363.7410, 281.4448
364.9410, 302.5186
366.1410, 647.2368
367.3410, 349.1152
368.5410, 489.5630
369.7410, 464.5781
370.9400, 293.6343
372.1400, 425.7148
373.3390, 501.8174
374.5380, 567.9302
375.7370, 657.4873
376.9360, 760.1665
378.1350, 801.2817
379.3330, 791.3911
380.5310, 869.4897
381.7300, 1021.575
382.9280, 1109.644
384.1260, 1318.695
385.3230, 1418.730
386.5210, 1627.747
387.7180, 1522.748
388.9160, 1755.729
390.1130, 1792.689
391.3100, 1893.625
392.5060, 2103.538
393.7030, 2176.420
394.9000, 2180.266
396.0960, 2191.078
397.2920, 2237.855
398.4880, 2278.604
399.6840, 2144.327
400.8800, 1850.036
402.0750, 1831.724
403.2710, 1640.392
404.4660, 1556.042
405.6610, 1341.676
406.8560, 1299.296
408.0510, 1277.904
409.2450, 1026.498
410.4400, 921.0459
411.6340, 838.5630
412.8280, 694.0410
414.0220, 640.4331
415.2160, 482.8130
416.4100, 524.1484
417.6030, 526.4668
418.7970, 391.7437
419.9900, 423.9404
421.1830, 327.0254
422.3760, 323.9990
423.5690, 350.9038
424.7610, 280.7793
425.9540, 377.6406
427.1460, 186.5068
428.3380, 254.3794
429.5300, 213.2642
430.7220, 269.1626
431.9140, 214.0728
433.1050, 271.6890
434.2970, 298.0435
435.4880, 241.1953
436.6790, 203.6289
437.8700, 289.9653
439.0610, 126.9521
440.2510, 167.1157
441.4420, 296.1270
442.6320, 208.8184
443.8220, 263.9614
445.0120, 219.7363
446.2020, 226.7939
447.3910, 274.6621
448.5810, 200.5400
449.7700, 299.6309
450.9600, 285.7144
452.1490, 311.1143
453.3370, 322.9600
454.5260, 344.2734
455.7150, 279.1821
456.9030, 360.0620
458.0910, 361.6323
459.2800, 351.0693
460.4670, 423.4116
461.6550, 541.0493
462.8430, 489.1216
464.0300, 547.7324
465.2180, 521.6128
466.4050, 596.3389
467.5920, 479.4907
468.7790, 537.6323
469.9650, 671.2134
471.1520, 591.4243
472.3380, 564.9048
473.5250, 623.8491
474.7110, 586.7505
475.8970, 490.9873
477.0820, 557.5859
478.2680, 589.1992
479.4540, 568.6577
480.6390, 410.6484
481.8240, 471.0493
483.0090, 495.7930
484.1940, 591.0000
485.3780, 558.1763
486.5630, 510.6133
487.7470, 420.3975
488.9320, 507.3145
490.1160, 515.7905
491.3000, 440.2793
492.4830, 514.7822
493.6670, 477.2988
494.8500, 586.8311
496.0340, 482.3784
497.2170, 640.9404
498.4000, 477.5176
499.5820, 443.1099
500.7650, 621.7173
501.9480, 511.3403
503.1300, 537.9785
504.3120, 761.6323
505.4940, 851.3008
506.6760, 895.9854
507.8580, 717.6846
509.0390, 840.3921
510.2210, 876.1094
511.4020, 899.8379
512.5830, 1080.576
513.7640, 1082.324
514.9450, 1264.080
516.1250, 1200.846
517.3060, 1434.621
518.4860, 1490.404
519.6660, 1555.197
520.8460, 1660.000
522.0260, 1708.823
523.2060, 1837.632
524.3850, 1814.463
525.5650, 1980.304
526.7440, 1991.155
527.9230, 2011.016
529.1020, 1859.888
530.2810, 1878.769
531.4590, 1838.662
532.6380, 1571.565
533.8160, 1565.480
534.9940, 1571.407
536.1720, 1341.346
537.3500, 1270.296
538.5270, 1049.259
539.7050, 1087.234
540.8820, 960.2227
542.0590, 903.8242
543.2360, 863.8394
544.4130, 744.8672
545.5900, 632.9180
546.7660, 610.9736
547.9430, 447.0439
549.1190, 437.1289
550.2950, 487.2275
551.4710, 316.3413
552.6470, 474.4702
553.8220, 262.6138
554.9980, 218.7739
556.1730, 217.9497
557.3480, 154.1445
558.5230, 169.3457
559.6980, 219.1890
560.8730, 186.4321
562.0470, 184.6934
563.2220, 191.9731
564.3960, 142.5645
565.5700, 115.5908
566.7440, 70.92871
567.9170, 85.28711
569.0910, 79.66553
570.2640, 44.06396
571.4380, 58.48291
572.6110, 41.92236
573.7840, 18.59961
574.9570, 11.12695
576.1290, 4.638184
577.3020, 12.81787
578.4740, 9.608887
579.6460, 21.93018
580.8180, 3.510254
581.9900, 33.06738
583.1620, 33.33447
584.3330, 2.273438
585.5040, 35.09961
586.6760, 45.53613
587.8470, 91.80713
589.0180, 47.16309
590.1880, 77.48535
591.3590, 42.15430
592.5290, 60.15576
593.7000, 10.57520
594.8700, 40.70850
596.0400, 25.02100
597.2090, 3.157715
598.3790, 47.28662
599.5490, 18.42285
600.7180, 108.2515
601.8870, 87.10205
603.0560, 16.05029
604.2250, 79.96973
605.3940, 80.08691
606.5620, 15.13525
607.7300, 0.1508790
608.8990, 38.13965
610.0670, 48.15479
611.2350, 79.19824
612.4020, 43.27246
613.5700, 70.38428
614.7370, 34.53125
615.9050, 135.7236
617.0720, 13.04102
618.2390, 179.2373
619.4060, 221.5576
620.5720, 161.9160
621.7390, 208.3105
622.9050, 213.7354
624.0710, 139.1895
625.2370, 127.6738
626.4030, 57.40430
627.5690, 136.3613
628.7340, 180.6279
629.9000, 192.0771
631.0650, 72.32422
632.2300, 122.0361
633.3950, 103.8652
634.5600, 82.92969
635.7240, 156.5518
636.8890, 55.99023
638.0530, 128.1533
639.2170, 131.3965
640.3810, 166.2139
641.5450, 132.7285
642.7080, 120.3643
643.8720, 176.3691
645.0350, 194.5488
646.1980, 153.2783
647.3610, 190.2236
648.5240, 87.47949
649.6870, 219.8701
650.8490, 110.8252
652.0120, 240.8008
653.1740, 200.7979
654.3360, 231.8154
655.4980, 279.8545
656.6600, 97.91406
657.8210, 182.9932
658.9830, 137.0947
660.1440, 185.2158
661.3050, 213.3584
662.4660, 191.5234
663.6270, 223.7090
664.7870, 74.91602
665.9480, 124.1426
667.1080, 101.3926
668.2680, 77.66699
669.4280, 72.96777
670.5880, 129.3105
671.7480, 54.69238
672.9070, 148.1025
674.0670, 152.5439
675.2260, 95.02344
676.3850, 187.5283
677.5440, 8.066406
678.7030, 142.6377
679.8610, 164.2510
681.0200, 73.10840
682.1780, 163.5439
683.3360, 28.22754
684.4940, 0.9570310
685.6520, 99.70996
686.8090, 38.48340
687.9670, 127.2773
689.1240, 116.0918
690.2810, 144.9463
691.4380, 114.8262
692.5950, 151.7441
693.7520, 167.7041
694.9080, 27.70020
696.0650, 1.736328
697.2210, 108.8271
698.3770, 23.04980
699.5330, 223.1162
700.6880, 113.3037
701.8440, 180.5137
702.9990, 117.7852
704.1550, 155.0947
705.3100, 170.4258
706.4650, 324.7764
707.6190, 226.7822
708.7740, 192.7998
709.9290, 103.9561
711.0830, 32.39551
712.2370, 0.1455080
713.3910, 30.63867
714.5450, 151.7188
715.6980, 65.03223
716.8520, 179.0967
718.0050, 136.2910
719.1580, 123.8643
720.3110, 32.29102
721.4640, 50.16602
722.6170, 59.28418
723.7700, 40.91699
724.9220, 95.27246
726.0740, 67.95117
727.2260, 145.8291
728.3780, 6.745117
729.5300, 121.4756
730.6810, 132.2227
731.8330, 3.348633
732.9840, 21.43066
734.1350, 44.72461
735.2860, 5.462891
736.4370, 67.23535
737.5880, 113.0830
738.7380, 136.9473
739.8880, 58.83008
741.0390, 4.268555
742.1890, 106.6484
743.3380, 55.58203
744.4880, 151.3535
745.6380, 19.16699
746.7870, 15.76953
747.9360, 6.763672
749.0850, 73.77539
750.2340, 6.802734
751.3830, 19.84473
752.5310, 58.90137
753.6800, 19.97266
754.8280, 49.05957
755.9760, 15.76465
757.1240, 64.87988
758.2720, 74.00781
759.4190, 53.14844
760.5670, 104.3037
761.7140, 31.47266
762.8610, 35.65527
764.0080, 140.8506
765.1550, 112.0586
766.3020, 12.27832
767.4480, 13.51074
768.5950, 60.75391
769.7410, 252.0098
770.8870, 114.2754
772.0330, 30.55176
773.1780, 173.8408
774.3240, 93.13867
775.4690, 42.44824
776.6140, 82.76758
777.7590, 88.09766
778.9040, 232.4385
780.0490, 235.7900
781.1940, 187.1514
782.3380, 142.5215
783.4820, 155.9014
784.6260, 209.2900
785.7700, 191.6885
786.9140, 157.0947
788.0580, 267.5107
789.2010, 233.9355
790.3450, 389.3691
791.4880, 398.8096
792.6310, 319.2588
793.7730, 319.7178
794.9160, 453.1826
796.0590, 371.6562
797.2010, 460.1377
798.3430, 495.6260
799.4850, 518.3770
800.6270, 552.0352
801.7690, 596.2539
802.9100, 707.0635
804.0520, 641.8926
805.1930, 723.1523
806.3340, 647.0693
807.4750, 687.5020
808.6160, 900.2773
809.7560, 821.3789
810.8970, 915.6191
812.0370, 1028.868
813.1770, 1186.526
814.3170, 1153.164
815.4570, 1179.311
816.5960, 1230.915
817.7360, 1260.087
818.8750, 1354.430
820.0140, 1556.326
821.1530, 1505.754
822.2920, 1488.275
823.4310, 1645.864
824.5690, 1861.564
825.7070, 1826.156
826.8460, 1875.641
827.9840, 1862.179
829.1220, 1905.159
830.2590, 1905.926
831.3970, 2189.032
832.5340, 2139.370
833.6710, 2279.513
834.8080, 2306.619
835.9450, 2345.611
837.0820, 2446.679
838.2190, 2743.071
839.3550, 2803.398
840.4910, 3155.384
841.6270, 3152.551
842.7630, 3324.553
843.8990, 3609.946
845.0350, 3835.532
846.1700, 4168.549
847.3060, 4413.938
848.4410, 4579.675
849.5760, 5108.203
850.7100, 5508.589
851.8450, 6138.105
852.9800, 6402.209
854.1140, 7188.102
855.2480, 7715.602
856.3820, 8497.095
857.5160, 9427.582
858.6500, 10182.07
859.7830, 11146.67
860.9170, 12533.17
862.0500, 13460.84
863.1830, 15060.30
864.3160, 16432.77
865.4480, 17775.28
866.5810, 19200.73
867.7130, 20514.22
868.8460, 21658.62
869.9780, 22268.06
871.1100, 22695.50
872.2410, 22728.97
873.3730, 22130.91
874.5050, 21485.56
875.6360, 20089.23
876.7670, 18522.61
877.8980, 16890.93
879.0290, 15176.70
880.1590, 13407.44
881.2900, 11723.80
882.4200, 10310.37
883.5500, 8671.614
884.6800, 7711.252
885.8100, 6683.869
886.9400, 5647.484
888.0690, 5129.796
889.1990, 4343.066
890.3280, 3807.771
891.4570, 3246.063
892.5860, 2978.614
893.7140, 2777.837
894.8430, 2394.045
895.9710, 2076.631
897.1000, 1862.178
898.2280, 1730.700
899.3560, 1529.904
900.4830, 1362.242
901.6110, 1219.530
902.7380, 1159.760
903.8660, 1041.888
904.9930, 930.0137
906.1200, 912.0859
907.2460, 758.1426
908.3730, 784.1855
909.5000, 694.6338
910.6260, 572.2236
911.7520, 541.3115
912.8780, 465.4082
914.0040, 316.5752
915.1290, 419.5225
916.2550, 375.6230
917.3800, 408.5449
918.5050, 325.4502
919.6300, 507.5898
920.7550, 401.0391
921.8800, 377.1406
923.0040, 248.9268
924.1290, 297.7686
925.2530, 118.6094
926.3770, 192.4307
927.5010, 303.3750
928.6250, 207.1611
929.7480, 169.9424
930.8720, 205.7275
931.9950, 193.4941
933.1180, 159.2490
934.2410, 68.98535
935.3640, 94.71680
936.4860, 133.4365
937.6090, 206.1348
938.7310, 66.81445
939.8530, 39.47070
940.9750, 17.10156
942.0970, 42.30078
943.2180, 31.33398
944.3400, 14.71094
945.4610, 5.846680
946.5820, 21.44727
947.7030, 30.90039
948.8240, 10.78320
949.9450, 2.513672
951.0650, 41.28809
952.1860, 17.87402
953.3060, 13.98926
954.4260, 3.127930
955.5460, 52.79785
956.6650, 43.20605
957.7850, 311.1787
958.9040, 141.6162
960.0230, 456.0586
961.1420, 36.03516
962.2610, 46.80762
963.3800, 27.38086
964.4990, 39.62988
965.6170, 12.94629
966.7350, 32.31543
967.8530, 92.74902
968.9710, 3.722656
970.0890, 67.85156
971.2070, 81.49512
972.3240, 58.81348
973.4410, 110.8975
974.5580, 25.71582
975.6750, 74.40625
976.7920, 90.56543
977.9090, 59.63184
979.0250, 178.6680
980.1410, 88.67969
981.2580, 20.66504
982.3740, 140.6094
983.4890, 185.5293
984.6050, 60.42676
985.7200, 198.2939
986.8360, 80.14258
987.9510, 102.9629
989.0660, 210.7559
990.1810, 210.5254
991.2950, 211.2715
992.4100, 193.9941
993.5240, 166.6924
994.6390, 192.4873
995.7530, 148.0166
996.8660, 204.6406
997.9800, 246.2412
999.0940, 187.8174
1000.207, 230.3701
1001.320, 192.8994
1002.433, 307.5693
1003.546, 206.2998
1004.659, 247.7568
1005.772, 178.1885
1006.884, 94.59570
1007.996, 145.0547
1009.108, 138.4326
1010.220, 59.03809
1011.332, 235.4072
1012.444, 111.6758
1013.555, 112.9170
1014.666, 230.1299
1015.777, 143.3896
1016.888, 164.5537
1017.999, 133.6914
1019.110, 135.9473
1020.220, 134.0312
1021.331, 204.0879
1022.441, 300.1211
1023.551, 108.1289
1024.661, 200.2783
1025.770, 136.3447
1026.880, 227.3662
1027.989, 243.2705
1029.098, 119.5527
1030.207, 125.4043
1031.316, 128.4346
1032.425, 201.2402
1033.533, 166.0127
1034.642, 175.1680
1035.750, 186.1436
1036.858, 207.2070
1037.966, 204.6729
1039.073, 217.8965
1040.181, 227.0205
1041.288, 225.8262
1042.396, 220.5039
1043.503, 283.1299
1044.610, 192.7656
1045.716, 187.2646
1046.823, 166.6963
1047.929, 290.5176
1049.036, 177.6143
1050.142, 241.0137
1051.248, 314.7705
1052.353, 256.2021
1053.459, 442.6855
1054.564, 341.1602
1055.670, 257.3066
1056.775, 220.8398
1057.880, 293.6846
1058.985, 298.8896
1060.089, 190.0693
1061.194, 438.5400
1062.298, 315.4961
1063.402, 233.8486
1064.506, 449.2910
1065.610, 323.6006
1066.713, 377.9268
1067.817, 348.5215
1068.920, 486.9131
1070.023, 352.0117
1071.126, 374.9873
1072.229, 371.5918
1073.332, 385.7461
1074.435, 380.2246
1075.537, 389.1699
1076.639, 370.8008
1077.741, 407.1279
1078.843, 306.4658
1079.945, 395.7734
1081.046, 298.4473
1082.148, 479.3232
1083.249, 548.6094
1084.350, 440.3086
1085.451, 407.9092
1086.551, 367.5840
1087.652, 309.8545
1088.752, 367.6758
1089.853, 264.3223
1090.953, 336.9863
1092.053, 327.3750
1093.152, 451.8506
1094.252, 402.5234
1095.351, 315.9004
1096.451, 334.9248
1097.550, 325.1445
1098.649, 273.0732
1099.748, 292.6787
1100.846, 295.5547
1101.945, 251.3496
1103.043, 282.6279
1104.141, 236.4229
1105.239, 207.8662
1106.337, 202.3564
1107.434, 288.3418
1108.532, 131.9473
1109.629, 182.6982
1110.726, 187.0352
1111.823, 350.1572
1112.920, 237.8271
1114.017, 225.1484
1115.113, 320.6738
1116.210, 325.7412
1117.306, 475.5781
1118.402, 498.8477
1119.498, 615.3486
1120.593, 731.9941
1121.689, 657.0146
1122.784, 931.0186
1123.879, 825.0078
1124.974, 727.9727
1126.069, 762.8047
1127.164, 547.7266
1128.259, 497.4453
1129.353, 485.3613
1130.447, 325.4658
1131.541, 190.2998
1132.635, 178.1738
1133.729, 94.99707
1134.822, 73.84180
1135.916, 196.6709
1137.009, 164.4854
1138.102, 164.1797
1139.195, 112.4443
1140.288, 124.9688
1141.380, 63.44922
1142.473, 111.2061
1143.565, 137.9385
1144.657, 132.3574
1145.749, 170.6680
1146.841, 110.3623
1147.932, 164.7725
1149.024, 149.7578
1150.115, 90.59668
1151.206, 138.0068
1152.297, 182.3203
1153.388, 154.3779
1154.479, 146.5801
1155.569, 81.67188
1156.659, 95.20801
1157.750, 98.46387
1158.839, 149.0215
1159.929, 23.56738
1161.019, 126.7109
1162.108, 85.86621
1163.198, 99.02051
1164.287, 138.4678
1165.376, 18.75684
1166.465, 55.06738
1167.553, 27.41113
1168.642, 7.828125
1169.730, 18.21973
1170.818, 181.6377
1171.906, 63.04590
1172.994, 159.4424
1174.082, 67.82910
1175.170, 84.20410
1176.257, 132.4756
1177.344, 30.71289
1178.431, 175.8525
1179.518, 23.81445
1180.605, 117.3301
1181.691, 15.62793
1182.778, 86.91406
1183.864, 68.19043
1184.950, 63.45508
1186.036, 76.28906
1187.122, 36.91797
1188.207, 56.88672
1189.292, 109.2705
1190.378, 241.4189
1191.463, 25.42090
1192.548, 45.44727
1193.632, 84.34766
1194.717, 12.69824
1195.801, 21.25391
1196.886, 26.77441
1197.970, 63.20801
1199.054, 27.22852
1200.137, 60.72949
1201.221, 83.67871
1202.305, 157.6221
1203.388, 142.6943
1204.471, 113.4941
1205.554, 102.4287
1206.637, 78.37695
1207.719, 68.33691
1208.802, 27.29688
1209.884, 27.30859
1210.966, 75.23633
1212.048, 27.20996
1213.130, 41.18750
1214.212, 66.16992
1215.293, 47.83203
1216.374, 77.85547
1217.456, 121.0928
1218.536, 58.04590
1219.617, 70.02148
1220.698, 46.00195
1221.778, 91.97656
1222.859, 124.9453
1223.939, 224.9102
1225.019, 99.89258
1226.099, 143.8760
1227.178, 79.87402
1228.258, 59.19434
1229.337, 76.97070
1230.417, 52.04297
1231.496, 81.15527
1232.574, 119.2754
1233.653, 73.43555
1234.732, 172.5947
1235.810, 92.75488
1236.888, 30.95605
1237.966, 113.1709
1239.044, 153.3184
1240.122, 85.53320
1241.199, 93.74902
1242.277, 78.96191
1243.354, 60.17676
1244.431, 73.39844
1245.508, 13.89258
1246.585, 95.83691
1247.661, 29.92480
1248.738, 59.29883
1249.814, 187.5225
1250.890, 157.7471
1251.966, 129.9697
1253.042, 168.1904
1254.117, 67.41016
1255.193, 97.65820
1256.268, 193.9062
1257.343, 256.1523
1258.418, 106.3984
1259.493, 18.64355
1260.567, 130.8838
1261.642, 151.1230
1262.716, 142.3594
1263.790, 188.4297
1264.864, 104.4111
1265.938, 232.6416
1267.011, 211.8701
1268.085, 183.0977
1269.158, 231.2451
1270.231, 230.4482
1271.304, 114.3975
1272.377, 215.5537
1273.450, 40.78320
1274.522, 195.0137
1275.594, 124.2441
1276.666, 157.4043
1277.738, 226.6338
1278.810, 77.86230
1279.882, 45.94531
1280.953, 63.17090
1282.025, 131.3965
1283.096, 128.4609
1284.167, 205.8428
1285.238, 193.8955
1286.308, 167.0049
1287.379, 208.1299
1288.449, 189.3477
1289.519, 241.1582
1290.589, 235.3721
1291.659, 234.4473
1292.729, 255.5791
1293.798, 231.7861
1294.868, 311.5830
1295.937, 200.5312
1297.006, 264.3652
1298.075, 255.0879
1299.143, 405.8818
1300.212, 290.0742
1301.280, 281.0547
1302.348, 164.2402
1303.416, 301.2383
1304.484, 353.3271
1305.552, 239.5020
1306.620, 277.3447
1307.687, 201.5146
1308.754, 322.0068
1309.821, 375.1709
1310.888, 244.9502
1311.955, 175.0293
1313.021, 247.0293
1314.088, 443.0078
1315.154, 481.7656
1316.220, 329.6318
1317.286, 364.4150
1318.352, 347.7920
1319.417, 286.1787
1320.483, 276.3105
1321.548, 304.5146
1322.613, 345.7432
1323.678, 386.3916
1324.743, 401.7607
1325.807, 421.0781
1326.872, 410.7598
1327.936, 416.4785
1329.000, 386.4746
1330.064, 357.0537
1331.128, 497.1992
1332.191, 314.4102
1333.255, 367.5625
1334.318, 510.7178
1335.381, 353.8291
1336.444, 248.9043
1337.507, 344.0928
1338.569, 413.5225
1339.632, 383.6455
1340.694, 323.5742
1341.756, 221.5664
1342.818, 346.7490
1343.880, 292.4463
1344.941, 356.4414
1346.003, 377.6328
1347.064, 303.6367
1348.125, 447.9482
1349.186, 340.1611
1350.247, 522.3877
1351.308, 361.5938
1352.368, 438.1260
1353.428, 349.5928
1354.489, 331.8301
1355.549, 274.4365
1356.608, 276.7021
1357.668, 299.5439
1358.727, 303.4551
1359.787, 404.2861
1360.846, 432.3564
1361.905, 520.0371
1362.964, 322.5732
1364.022, 412.2432
1365.081, 377.2988
1366.139, 393.8984
1367.197, 392.6406
1368.255, 374.6064
1369.313, 369.2266
1370.371, 331.2920
1371.428, 386.1406
1372.486, 326.4160
1373.543, 393.0029
1374.600, 306.8242
1375.657, 265.0078
1376.713, 266.5205
1377.770, 287.0186
1378.826, 225.5088
1379.882, 377.0820
1380.938, 340.4648
1381.994, 262.5693
