##NAMES=Columbite-(Fe)
##RRUFFID=R050348
##IDEAL CHEMISTRY=Fe^2+^Nb^5+^_2_O_6_
##LOCALITY=Lord Hill mine, Stoneham, Oxford County, Maine, USA
##OWNER=RRUFF
##SOURCE=California Institute of Technology
##DESCRIPTION=Black fragment
##STATUS=The identification of this mineral has been confirmed by X-ray diffraction and chemical analysis
##URL=rruff.info/R050348
##MEASURED CHEMISTRY=(Fe^2+^_0.69_Mn^2+^_0.30_Ti_0.01_)(Nb_0.89_Ta_0.10_Ti_0.01_)_2_O_6_
##PIN_ID=L01882
##ORIENTATION=Laser parallel to -a* (-1 0 0). Fiducial mark perpendicular to laser is parallel to b [0 1 0]
221.0220, 0.0000000E+00
222.2400, 55.79785
223.4590, 142.1650
224.6770, 21.28125
225.8950, 124.6113
227.1120, 85.14941
228.3300, 184.9736
229.5480, 241.4551
230.7650, 399.4463
231.9820, 322.1660
233.1990, 532.9922
234.4160, 905.4385
235.6330, 863.1045
236.8490, 918.6211
238.0660, 976.7178
239.2820, 1420.225
240.4980, 1560.125
241.7140, 1626.310
242.9300, 1608.555
244.1460, 1779.676
245.3610, 1808.621
246.5770, 1879.278
247.7920, 2001.797
249.0070, 1943.761
250.2220, 2019.060
251.4370, 1897.665
252.6510, 2121.919
253.8660, 2211.441
255.0800, 2266.605
256.2940, 2289.510
257.5080, 2181.670
258.7220, 2244.710
259.9360, 2240.843
261.1490, 2234.097
262.3630, 2321.778
263.5760, 2235.219
264.7890, 2489.127
266.0020, 2480.699
267.2150, 2352.240
268.4270, 2308.566
269.6400, 2254.528
270.8520, 2291.509
272.0640, 2190.091
273.2760, 2196.390
274.4880, 2131.194
275.7000, 2058.583
276.9120, 1910.003
278.1230, 1866.639
279.3340, 1737.655
280.5450, 1560.152
281.7560, 1472.844
282.9670, 1389.762
284.1780, 1171.156
285.3880, 1182.532
286.5980, 1202.899
287.8090, 1075.922
289.0190, 1055.539
290.2290, 937.0195
291.4380, 1074.109
292.6480, 978.7002
293.8570, 982.4678
295.0670, 818.2402
296.2760, 955.1025
297.4850, 885.1904
298.6930, 736.7158
299.9020, 742.8691
301.1110, 791.1475
302.3190, 724.1885
303.5270, 657.5596
304.7350, 827.5195
305.9430, 672.9189
307.1510, 871.6318
308.3580, 808.0039
309.5660, 937.0215
310.7730, 927.1162
311.9800, 946.2441
313.1870, 761.0947
314.3940, 1064.310
315.6010, 876.7871
316.8070, 1094.856
318.0130, 1094.958
319.2200, 1181.392
320.4260, 996.0439
321.6310, 1199.043
322.8370, 944.9893
324.0430, 1216.069
325.2480, 945.6182
326.4540, 945.8896
327.6590, 842.5107
328.8640, 811.2188
330.0680, 868.9258
331.2730, 834.4082
332.4780, 756.4980
333.6820, 546.8809
334.8860, 505.4189
336.0900, 460.2412
337.2940, 519.6465
338.4980, 341.0186
339.7010, 425.3584
340.9050, 374.7852
342.1080, 353.9766
343.3110, 327.1104
344.5140, 282.6162
345.7170, 243.6172
346.9200, 213.9434
348.1220, 168.7051
349.3240, 157.3887
350.5270, 172.9707
351.7290, 305.4297
352.9310, 165.7656
354.1320, 204.8467
355.3340, 20.06348
356.5350, 134.0166
357.7370, 124.8291
358.9380, 87.50781
360.1390, 20.94238
361.3400, 122.4453
362.5400, 39.69238
363.7410, 121.7568
364.9410, 67.67480
366.1410, 40.95801
367.3410, 40.87891
368.5410, 62.67090
369.7410, 81.71387
370.9400, 74.71777
372.1400, 78.17285
373.3390, 11.39258
374.5380, 54.97559
375.7370, 87.55762
376.9360, 80.91602
378.1350, 81.66406
379.3330, 42.15820
380.5310, 20.59375
381.7300, 57.95605
382.9280, 51.24414
384.1260, 104.4482
385.3230, 78.57031
386.5210, 7.403320
387.7180, 42.51074
388.9160, 35.74512
390.1130, 228.0088
391.3100, 97.59961
392.5060, 78.07715
393.7030, 93.43652
394.9000, 14.67773
396.0960, 27.21191
397.2920, 53.75195
398.4880, 143.5889
399.6840, 109.3027
400.8800, 17.89062
402.0750, 50.33594
403.2710, 23.36133
404.4660, 15.22363
405.6610, 10.24707
406.8560, 141.4326
408.0510, 192.8125
409.2450, 72.59961
410.4400, 76.13086
411.6340, 50.04102
412.8280, 153.1230
414.0220, 123.5889
415.2160, 112.2783
416.4100, 61.57910
417.6030, 94.15332
418.7970, 95.15430
419.9900, 58.18164
421.1830, 112.4619
422.3760, 52.92578
423.5690, 48.87695
424.7610, 64.64258
425.9540, 24.70215
427.1460, 6.612305
428.3380, 98.36230
429.5300, 31.96094
430.7220, 19.41504
431.9140, 12.71777
433.1050, 26.25195
434.2970, 52.77441
435.4880, 87.54395
436.6790, 182.7754
437.8700, 188.2480
439.0610, 174.4863
440.2510, 204.1895
441.4420, 179.5771
442.6320, 249.2305
443.8220, 143.7334
445.0120, 257.2227
446.2020, 394.8174
447.3910, 348.8721
448.5810, 323.6309
449.7700, 279.1582
450.9600, 342.5664
452.1490, 357.9980
453.3370, 393.0039
454.5260, 435.4355
455.7150, 577.4619
456.9030, 541.1846
458.0910, 284.8389
459.2800, 506.6709
460.4670, 378.8408
461.6550, 304.8066
462.8430, 391.9375
464.0300, 446.3467
465.2180, 366.2510
466.4050, 547.0146
467.5920, 477.0371
468.7790, 581.6172
469.9650, 458.9727
471.1520, 486.3604
472.3380, 480.4648
473.5250, 672.6631
474.7110, 718.4404
475.8970, 612.2900
477.0820, 628.6377
478.2680, 590.7100
479.4540, 527.5693
480.6390, 652.5928
481.8240, 560.9092
483.0090, 567.5566
484.1940, 667.9717
485.3780, 700.2803
486.5630, 584.4551
487.7470, 538.4219
488.9320, 531.0547
490.1160, 572.4326
491.3000, 656.3115
492.4830, 515.0488
493.6670, 516.9844
494.8500, 776.9590
496.0340, 635.3936
497.2170, 601.0938
498.4000, 638.7119
499.5820, 504.1641
500.7650, 582.4805
501.9480, 485.1045
503.1300, 393.4697
504.3120, 355.8057
505.4940, 469.2285
506.6760, 609.6055
507.8580, 566.8926
509.0390, 500.3750
510.2210, 508.4795
511.4020, 414.1729
512.5830, 537.6592
513.7640, 652.5273
514.9450, 699.1182
516.1250, 690.2002
517.3060, 779.7881
518.4860, 924.1543
519.6660, 861.1748
520.8460, 895.4365
522.0260, 830.3857
523.2060, 911.4678
524.3850, 970.7871
525.5650, 957.8477
526.7440, 995.0879
527.9230, 1075.909
529.1020, 904.0879
530.2810, 1199.617
531.4590, 994.8428
532.6380, 954.4668
533.8160, 957.3945
534.9940, 962.7969
536.1720, 940.5420
537.3500, 936.5723
538.5270, 928.9893
539.7050, 828.4834
540.8820, 893.0518
542.0590, 852.1826
543.2360, 732.5723
544.4130, 811.1250
545.5900, 614.4805
546.7660, 521.3047
547.9430, 757.4043
549.1190, 510.2334
550.2950, 459.8076
551.4710, 569.6055
552.6470, 609.4521
553.8220, 281.9170
554.9980, 460.8965
556.1730, 339.9580
557.3480, 351.7900
558.5230, 332.2041
559.6980, 360.8555
560.8730, 135.4463
562.0470, 270.3623
563.2220, 250.8818
564.3960, 113.1523
565.5700, 208.6934
566.7440, 261.3271
567.9170, 206.3682
569.0910, 230.2695
570.2640, 149.2090
571.4380, 115.6816
572.6110, 156.5840
573.7840, 2.837891
574.9570, 46.53027
576.1290, 167.8867
577.3020, 73.46973
578.4740, 74.71777
579.6460, 57.98145
580.8180, 15.18359
581.9900, 145.4199
583.1620, 28.82617
584.3330, 138.5869
585.5040, 91.64062
586.6760, 72.05078
587.8470, 29.08594
589.0180, 24.54688
590.1880, 20.71973
591.3590, 53.38477
592.5290, 26.36523
593.7000, 107.3281
594.8700, 95.29492
596.0400, 115.2627
597.2090, 45.23535
598.3790, 99.19043
599.5490, 0.7333980
600.7180, 51.46973
601.8870, 33.09082
603.0560, 96.96680
604.2250, 110.8330
605.3940, 73.69434
606.5620, 19.46387
607.7300, 16.74902
608.8990, 11.89355
610.0670, 39.83203
611.2350, 45.52539
612.4020, 73.18750
613.5700, 135.8232
614.7370, 29.45215
615.9050, 102.0439
617.0720, 12.61523
618.2390, 34.85645
619.4060, 67.01465
620.5720, 169.9414
621.7390, 142.5547
622.9050, 132.2197
624.0710, 53.93457
625.2370, 148.6396
626.4030, 183.7676
627.5690, 264.3887
628.7340, 287.3145
629.9000, 208.2959
631.0650, 78.33691
632.2300, 115.2568
633.3950, 281.5986
634.5600, 178.8213
635.7240, 203.1006
636.8890, 378.4424
638.0530, 348.8438
639.2170, 374.3213
640.3810, 392.8652
641.5450, 290.4746
642.7080, 551.1533
643.8720, 420.9219
645.0350, 568.1562
646.1980, 421.6650
647.3610, 457.6436
648.5240, 452.9131
649.6870, 447.8203
650.8490, 528.0430
652.0120, 421.3682
653.1740, 685.7998
654.3360, 520.3379
655.4980, 542.9854
656.6600, 442.7168
657.8210, 609.5264
658.9830, 639.4131
660.1440, 680.3760
661.3050, 515.4150
662.4660, 683.5518
663.6270, 695.7949
664.7870, 753.1201
665.9480, 798.5293
667.1080, 685.0273
668.2680, 724.6162
669.4280, 737.3193
670.5880, 725.1377
671.7480, 889.0889
672.9070, 730.1387
674.0670, 853.3008
675.2260, 960.5879
676.3850, 933.9736
677.5440, 980.5068
678.7030, 1073.184
679.8610, 955.0049
681.0200, 1071.935
682.1780, 1111.994
683.3360, 1213.181
684.4940, 1093.504
685.6520, 1234.955
686.8090, 1223.820
687.9670, 1206.793
689.1240, 1268.196
690.2810, 1267.289
691.4380, 1272.521
692.5950, 1339.564
693.7520, 1359.464
694.9080, 1435.200
696.0650, 1436.071
697.2210, 1439.070
698.3770, 1528.706
699.5330, 1527.707
700.6880, 1668.836
701.8440, 1617.367
702.9990, 1648.066
704.1550, 1750.890
705.3100, 1878.858
706.4650, 1884.930
707.6190, 1896.146
708.7740, 2024.482
709.9290, 2140.923
711.0830, 2098.476
712.2370, 2158.134
713.3910, 2165.594
714.5450, 2096.787
715.6980, 2262.758
716.8520, 2254.210
718.0050, 2349.029
719.1580, 2511.594
720.3110, 2545.914
721.4640, 2644.870
722.6170, 2737.480
723.7700, 2745.088
724.9220, 2722.663
726.0740, 2841.087
727.2260, 3053.029
728.3780, 3036.201
729.5300, 3162.588
730.6810, 3259.068
731.8330, 3337.486
732.9840, 3274.268
734.1350, 3473.615
735.2860, 3419.325
736.4370, 3560.588
737.5880, 3783.138
738.7380, 3703.725
739.8880, 3846.277
741.0390, 4006.131
742.1890, 3974.227
743.3380, 4078.926
744.4880, 4222.018
745.6380, 4350.172
746.7870, 4452.062
747.9360, 4529.729
749.0850, 4638.926
750.2340, 4639.421
751.3830, 4753.206
752.5310, 4808.936
753.6800, 4815.121
754.8280, 4989.278
755.9760, 5076.971
757.1240, 5321.968
758.2720, 5334.045
759.4190, 5503.207
760.5670, 5473.451
761.7140, 5474.775
762.8610, 5798.184
764.0080, 5754.672
765.1550, 5860.238
766.3020, 5879.885
767.4480, 6047.613
768.5950, 5934.422
769.7410, 6133.307
770.8870, 6129.272
772.0330, 6204.316
773.1780, 6184.438
774.3240, 6237.041
775.4690, 6295.091
776.6140, 6317.278
777.7590, 6395.713
778.9040, 6435.224
780.0490, 6428.812
781.1940, 6566.477
782.3380, 6656.219
783.4820, 6572.034
784.6260, 6819.923
785.7700, 6805.891
786.9140, 6700.932
788.0580, 6740.047
789.2010, 6771.235
790.3450, 6856.496
791.4880, 6665.833
792.6310, 6795.238
793.7730, 6754.717
794.9160, 6869.266
796.0590, 6913.886
797.2010, 6925.577
798.3430, 6940.338
799.4850, 6974.881
800.6270, 6934.781
801.7690, 6926.758
802.9100, 7012.792
804.0520, 7085.143
805.1930, 6959.061
806.3340, 7048.496
807.4750, 7191.869
808.6160, 7292.188
809.7560, 7225.108
810.8970, 7392.902
812.0370, 7334.896
813.1770, 7422.176
814.3170, 7262.121
815.4570, 7524.619
816.5960, 7414.705
817.7360, 7545.031
818.8750, 7677.885
820.0140, 7621.682
821.1530, 7768.512
822.2920, 7869.905
823.4310, 8059.091
824.5690, 7963.139
825.7070, 8144.009
826.8460, 8038.777
827.9840, 8238.100
829.1220, 8352.515
830.2590, 8491.536
831.3970, 8504.031
832.5340, 8713.594
833.6710, 8701.263
834.8080, 8958.637
835.9450, 9165.588
837.0820, 9117.054
838.2190, 9334.146
839.3550, 9575.662
840.4910, 9790.980
841.6270, 9995.496
842.7630, 10133.61
843.8990, 10379.97
845.0350, 10680.92
846.1700, 10978.62
847.3060, 11322.52
848.4410, 11665.70
849.5760, 12016.15
850.7100, 12359.97
851.8450, 12722.32
852.9800, 13186.42
854.1140, 13627.13
855.2480, 14171.41
856.3820, 14673.24
857.5160, 15192.86
858.6500, 15841.11
859.7830, 16438.40
860.9170, 17024.87
862.0500, 17773.21
863.1830, 18378.25
864.3160, 18969.64
865.4480, 19698.32
866.5810, 20178.75
867.7130, 20621.22
868.8460, 20692.80
869.9780, 20764.32
871.1100, 20281.87
872.2410, 19869.45
873.3730, 19299.05
874.5050, 18531.68
875.6360, 17242.33
876.7670, 15916.00
877.8980, 14348.69
879.0290, 13235.41
880.1590, 11661.15
881.2900, 10273.92
882.4200, 9104.691
883.5500, 7921.151
884.6800, 7062.464
885.8100, 6011.906
886.9400, 5481.871
888.0690, 4874.719
889.1990, 4188.658
890.3280, 3836.541
891.4570, 3159.691
892.5860, 3062.947
893.7140, 2687.162
894.8430, 2438.348
895.9710, 2143.447
897.1000, 1905.547
898.2280, 1791.475
899.3560, 1690.406
900.4830, 1522.340
901.6110, 1413.426
902.7380, 1282.581
903.8660, 1144.896
904.9930, 1025.078
906.1200, 875.0107
907.2460, 734.9424
908.3730, 633.8711
909.5000, 612.8037
910.6260, 626.7305
911.7520, 453.6543
912.8780, 503.5713
914.0040, 458.4863
915.1290, 368.3984
916.2550, 356.3066
917.3800, 382.2061
918.5050, 278.0986
919.6300, 245.9854
920.7550, 265.8633
921.8800, 126.7324
923.0040, 198.5947
924.1290, 316.4443
925.2530, 447.2832
926.3770, 149.1436
927.5010, 115.9902
928.6250, 194.8271
929.7480, 60.64941
930.8720, 43.45996
931.9950, 31.25488
933.1180, 98.03711
934.2410, 41.19824
935.3640, 61.47559
936.4860, 24.19238
937.6090, 37.84180
938.7310, 25.52539
939.8530, 14.93457
940.9750, 37.38281
942.0970, 80.88281
943.2180, 140.4609
944.3400, 67.14844
945.4610, 77.91016
946.5820, 125.7520
947.7030, 15.70117
948.8240, 166.7012
949.9450, 92.83203
951.0650, 163.0576
952.1860, 68.41797
953.3060, 121.8613
954.4260, 70.41895
955.5460, 116.0674
956.6650, 26.82812
957.7850, 84.65723
958.9040, 64.02344
960.0230, 90.59863
961.1420, 38.71680
962.2610, 124.9141
963.3800, 76.23145
964.4990, 83.64648
965.6170, 88.98730
966.7350, 119.7988
967.8530, 87.54980
968.9710, 15.58691
970.0890, 24.33984
971.2070, 77.65430
972.3240, 29.61816
973.4410, 43.47363
974.5580, 97.33984
975.6750, 23.88477
976.7920, 71.80469
977.9090, 97.55371
979.0250, 24.95996
980.1410, 33.41016
981.2580, 30.79785
982.3740, 138.1221
983.4890, 111.4062
984.6050, 213.6484
985.7200, 70.85352
986.8360, 181.0059
987.9510, 121.1211
989.0660, 214.2041
990.1810, 130.2480
991.2950, 147.2480
992.4100, 202.2061
993.5240, 200.1309
994.6390, 75.01465
995.7530, 232.8418
996.8660, 145.6299
997.9800, 269.3711
999.0940, 180.0723
1000.207, 299.7324
1001.320, 246.3506
1002.433, 215.5889
1003.546, 302.3760
1004.659, 354.4023
1005.772, 373.5732
1006.884, 261.4668
1007.996, 319.1260
1009.108, 308.9521
1010.220, 295.8682
1011.332, 376.9014
1012.444, 283.7783
1013.555, 363.2246
1014.666, 373.7217
1015.777, 165.7910
1016.888, 188.8281
1017.999, 203.8174
1019.110, 137.9717
1020.220, 260.6084
1021.331, 321.6865
1022.441, 282.5059
1023.551, 309.3203
1024.661, 246.0332
1025.770, 236.6953
1026.880, 244.4336
1027.989, 251.0664
1029.098, 272.5811
1030.207, 276.0469
1031.316, 322.8008
1032.425, 361.8193
1033.533, 382.1367
1034.642, 427.7061
1035.750, 446.3672
1036.858, 488.5537
1037.966, 537.4531
1039.073, 543.3672
1040.181, 531.4502
1041.288, 494.0020
1042.396, 415.1973
1043.503, 416.0781
1044.610, 418.3174
1045.716, 422.1367
1046.823, 482.7871
1047.929, 407.1396
1049.036, 361.7500
1050.142, 482.5088
1051.248, 373.4199
1052.353, 398.1865
1053.459, 540.5049
1054.564, 528.0430
1055.670, 515.0908
1056.775, 522.5928
1057.880, 532.8154
1058.985, 662.2197
1060.089, 540.3564
1061.194, 605.2871
1062.298, 649.5586
1063.402, 596.8174
1064.506, 577.3340
1065.610, 555.7129
1066.713, 578.6719
1067.817, 580.9902
1068.920, 615.6387
1070.023, 558.6152
1071.126, 755.0068
1072.229, 628.7305
1073.332, 570.5654
1074.435, 584.2559
1075.537, 391.6855
1076.639, 635.4043
1077.741, 456.1953
1078.843, 625.2773
1079.945, 582.4365
1081.046, 543.2861
1082.148, 645.3359
1083.249, 519.6357
1084.350, 450.7080
1085.451, 560.4277
1086.551, 563.6182
1087.652, 479.6602
1088.752, 528.8906
1089.853, 564.6904
1090.953, 517.2705
1092.053, 417.6211
1093.152, 434.3682
1094.252, 433.9473
1095.351, 581.3086
1096.451, 394.4424
1097.550, 517.1211
1098.649, 418.6982
1099.748, 420.2051
1100.846, 382.3496
1101.945, 344.8047
1103.043, 381.7812
1104.141, 406.2002
1105.239, 500.2480
1106.337, 307.9707
1107.434, 471.7637
1108.532, 390.4385
1109.629, 465.2197
1110.726, 547.6914
1111.823, 348.9092
1112.920, 289.9746
1114.017, 314.2939
1115.113, 357.8965
1116.210, 307.2207
1117.306, 478.1699
1118.402, 426.4453
1119.498, 421.2979
1120.593, 674.2070
1121.689, 408.8574
1122.784, 446.1133
1123.879, 474.4639
1124.974, 487.6455
1126.069, 346.2100
1127.164, 316.6992
1128.259, 382.4951
1129.353, 445.3613
1130.447, 228.0273
1131.541, 316.4482
1132.635, 306.0898
1133.729, 285.7041
1134.822, 262.1475
1135.916, 243.7607
1137.009, 192.9688
1138.102, 202.6611
1139.195, 108.1982
1140.288, 91.50586
1141.380, 100.3086
1142.473, 202.1143
1143.565, 177.3867
1144.657, 238.4639
1145.749, 191.5254
1146.841, 68.98145
1147.932, 230.2871
1149.024, 258.5391
1150.115, 148.4189
1151.206, 59.74219
1152.297, 144.3809
1153.388, 195.9277
1154.479, 185.6055
1155.569, 270.1230
1156.659, 222.3057
1157.750, 150.9141
1158.839, 204.2578
1159.929, 199.6758
1161.019, 212.2354
1162.108, 114.4492
1163.198, 64.45996
1164.287, 148.8877
1165.376, 76.26465
1166.465, 209.4570
1167.553, 189.7529
1168.642, 217.0654
1169.730, 125.1084
1170.818, 98.06152
1171.906, 67.12793
1172.994, 9.007813
1174.082, 194.2705
1175.170, 89.39551
1176.257, 177.2227
1177.344, 28.15332
1178.431, 49.88477
1179.518, 21.54688
1180.605, 139.7354
1181.691, 90.85352
1182.778, 111.6748
1183.864, 24.92090
1184.950, 140.4170
1186.036, 37.21777
1187.122, 123.0508
1188.207, 178.7188
1189.292, 114.5674
1190.378, 170.8613
1191.463, 20.10938
1192.548, 111.6064
1193.632, 101.0596
1194.717, 43.20996
1195.801, 52.32617
1196.886, 131.4102
1197.970, 100.6426
1199.054, 5.684570
1200.137, 83.73633
1201.221, 15.83887
1202.305, 59.80176
1203.388, 138.9502
1204.471, 51.87598
1205.554, 131.0215
1206.637, 76.70215
1207.719, 156.6357
1208.802, 118.5684
1209.884, 54.50488
1210.966, 61.45410
1212.048, 94.39062
1213.130, 143.3545
1214.212, 58.32812
1215.293, 86.32812
1216.374, 87.33301
1217.456, 137.3535
1218.536, 85.43262
1219.617, 54.42383
1220.698, 5.500977
1221.778, 21.54102
1222.859, 0.4160160
1223.939, 27.63672
1225.019, 26.31543
1226.099, 2.741211
1227.178, 4.196289
1228.258, 83.87500
1229.337, 33.04004
1230.417, 168.0566
1231.496, 139.1709
1232.574, 115.2773
1233.653, 46.61621
1234.732, 62.46387
1235.810, 37.83008
1236.888, 65.58691
1237.966, 45.62988
1239.044, 114.6777
1240.122, 127.6416
1241.199, 44.06348
1242.277, 181.1084
1243.354, 87.21484
1244.431, 71.47559
1245.508, 65.82910
1246.585, 83.82129
1247.661, 35.79102
1248.738, 82.89258
1249.814, 47.17871
1250.890, 118.7314
1251.966, 42.75098
1253.042, 68.59473
1254.117, 26.58203
1255.193, 93.20703
1256.268, 70.04688
1257.343, 29.79883
1258.418, 80.87891
1259.493, 43.24609
1260.567, 29.40723
1261.642, 31.07227
1262.716, 28.71387
1263.790, 37.49902
1264.864, 7.094727
1265.938, 17.92285
1267.011, 85.18359
1268.085, 13.70898
1269.158, 48.83105
1270.231, 38.87695
1271.304, 70.07715
1272.377, 29.32227
1273.450, 66.60156
1274.522, 61.96680
1275.594, 2.725586
1276.666, 4.043945
1277.738, 18.04102
1278.810, 4.228516
1279.882, 37.09863
1280.953, 16.78711
1282.025, 12.33691
1283.096, 67.78418
1284.167, 113.1211
1285.238, 125.4561
1286.308, 6.727539
1287.379, 57.18750
1288.449, 39.78320
1289.519, 19.57617
1290.589, 93.88477
1291.659, 6.289063
1292.729, 65.83105
1293.798, 69.44727
1294.868, 104.2920
1295.937, 71.28711
1297.006, 59.51367
1298.075, 115.9209
1299.143, 134.1924
1300.212, 92.86426
1301.280, 129.5244
1302.348, 25.76465
1303.416, 45.84961
1304.484, 118.3994
1305.552, 80.75879
1306.620, 118.2256
1307.687, 127.0273
1308.754, 3.894531
1309.821, 110.3320
1310.888, 118.0596
1311.955, 23.81348
1313.021, 121.8486
1314.088, 41.69922
1315.154, 24.91406
1316.220, 56.81055
1317.286, 38.51270
1318.352, 83.16895
1319.417, 126.6699
1320.483, 50.30762
1321.548, 53.20020
1322.613, 134.3936
1323.678, 180.4512
1324.743, 193.4844
1325.807, 76.65625
1326.872, 128.1299
1327.936, 111.1211
1329.000, 91.98633
1330.064, 167.0195
1331.128, 67.93457
1332.191, 141.9668
1333.255, 146.6309
1334.318, 183.1396
1335.381, 152.6426
1336.444, 142.0225
1337.507, 199.7969
1338.569, 219.5850
1339.632, 180.0693
1340.694, 218.6162
1341.756, 117.5977
1342.818, 138.8633
1343.880, 213.2393
1344.941, 176.7275
1346.003, 216.4258
1347.064, 227.0010
1348.125, 105.8213
1349.186, 213.1143
1350.247, 221.8848
1351.308, 128.5039
1352.368, 228.0879
1353.428, 147.6221
1354.489, 132.4111
1355.549, 164.7266
1356.608, 147.5820
1357.668, 208.5898
1358.727, 194.5664
1359.787, 174.1553
1360.846, 182.8291
1361.905, 104.5566
1362.964, 187.3828
1364.022, 161.2402
1365.081, 188.1084
1366.139, 165.2773
1367.197, 84.19922
1368.255, 67.05078
1369.313, 124.5410
1370.371, 94.42578
1371.428, 55.07031
1372.486, 30.34180
1373.543, 167.0361
1374.600, 160.7676
1375.657, 76.14844
1376.713, 152.7119
1377.770, 103.4854
1378.826, 72.34863
1379.882, 203.8311
1380.938, 139.1387
1381.994, 155.2793
1383.050, 89.81250
