##NAMES=Columbite-(Fe)
##RRUFFID=R060001
##IDEAL CHEMISTRY=Fe^2+^Nb^5+^_2_O_6_
##LOCALITY=Gypsy mine, Minas Gerais, Brazil
##OWNER=RRUFF
##SOURCE=Eric Van Valkenburg
##DESCRIPTION=Steel gray fragment with internal red hints
##STATUS=The identification of this mineral has been confirmed by X-ray diffraction and chemical analysis
##URL=rruff.info/R060001
##MEASURED CHEMISTRY=(Fe^2+^_0.52_Mn^2+^_0.48_)_Σ=1_(Nb_1.61_Ta_0.39_)_Σ=2_O_6_
##PIN_ID=L00607
##ORIENTATION=Laser parallel to b* (0 1 0). Fiducial mark perpendicular to laser is parallel to c [0 0 1]
110.4750, 0.0000000E+00
111.7110, 15.28931
112.9460, 5.132813
114.1820, 279.3306
115.4170, 250.5220
116.6530, 180.4292
117.8880, 143.7390
119.1230, 101.5500
120.3580, 199.2153
121.5920, 296.2546
122.8270, 477.3027
124.0610, 458.0752
125.2950, 341.3438
126.5290, 398.9219
127.7630, 582.6550
128.9970, 642.4131
130.2300, 706.0889
131.4640, 758.5923
132.6970, 736.8481
133.9300, 725.7917
135.1630, 738.3657
136.3950, 854.5176
137.6280, 869.2002
138.8600, 813.1287
140.0920, 821.9907
141.3240, 632.0266
142.5560, 520.4475
143.7880, 386.2246
145.0190, 332.3313
146.2510, 352.7446
147.4820, 262.4475
148.7130, 276.4312
149.9440, 202.6826
151.1750, 272.1897
152.4050, 236.9438
153.6360, 166.9370
154.8660, 241.1592
156.0960, 77.59985
157.3260, 105.2432
158.5560, 127.0747
159.7850, 101.0830
161.0150, 104.2549
162.2440, 160.5801
163.4730, 196.0488
164.7020, 232.6523
165.9310, 248.3818
167.1590, 263.2300
168.3880, 235.1895
169.6160, 314.2544
170.8440, 256.4319
172.0720, 311.7026
173.3000, 268.0608
174.5280, 259.5012
175.7550, 265.0190
176.9820, 309.6104
178.2100, 384.2703
179.4370, 365.9954
180.6630, 268.7847
181.8900, 362.6565
183.1170, 347.6050
184.3430, 399.7212
185.5690, 411.9692
186.7950, 490.3232
188.0210, 465.7742
189.2470, 580.3296
190.4720, 577.9500
191.6970, 642.6895
192.9230, 750.5286
194.1480, 810.4297
195.3730, 958.5625
196.5970, 1025.691
197.8220, 1237.885
199.0460, 1398.208
200.2700, 1638.568
201.4940, 1598.622
202.7180, 1574.568
203.9420, 1506.667
205.1660, 1425.632
206.3890, 1298.447
207.6120, 1224.854
208.8350, 1103.265
210.0580, 995.6824
211.2810, 845.1055
212.5040, 827.5349
213.7260, 672.9702
214.9480, 618.4119
216.1700, 480.8594
217.3920, 437.3123
218.6140, 347.7705
219.8360, 424.2346
221.0570, 346.7039
222.2790, 321.1775
223.5000, 305.6560
224.7210, 284.1382
225.9410, 315.6240
227.1620, 337.1133
228.3820, 366.6052
229.6030, 374.4763
230.8230, 428.9688
232.0430, 434.1086
233.2630, 388.9626
234.4820, 445.4575
235.7020, 475.9519
236.9210, 443.4463
238.1400, 545.9399
239.3590, 601.4321
240.5780, 573.9229
241.7970, 689.4111
243.0150, 611.8975
244.2340, 730.3809
245.4520, 789.8608
246.6700, 731.3372
247.8880, 777.8098
249.1060, 878.2786
250.3230, 915.9521
251.5400, 985.4094
252.7580, 1058.098
253.9750, 1151.849
255.1920, 1257.016
256.4080, 1399.024
257.6250, 1541.533
258.8410, 1722.837
260.0580, 1872.107
261.2740, 2055.960
262.4900, 2203.683
263.7050, 2393.550
264.9210, 2579.591
266.1360, 2752.633
267.3520, 2874.355
268.5670, 2969.640
269.7820, 2993.790
270.9960, 2946.099
272.2110, 2905.885
273.4250, 2866.023
274.6400, 2684.669
275.8540, 2487.817
277.0680, 2414.138
278.2810, 2089.288
279.4950, 1896.329
280.7090, 1578.631
281.9220, 1404.365
283.1350, 1304.552
284.3480, 1127.443
285.5610, 1043.732
286.7730, 928.8176
287.9860, 749.9653
289.1980, 740.0747
290.4100, 696.4355
291.6220, 663.6799
292.8340, 569.9631
294.0460, 603.2812
295.2570, 526.7373
296.4690, 527.1184
297.6800, 553.5417
298.8910, 457.3391
300.1020, 456.3965
301.3120, 461.8984
302.5230, 529.4897
303.7330, 534.0386
304.9440, 542.6145
306.1540, 520.1987
307.3630, 561.7949
308.5730, 650.4041
309.7830, 673.0203
310.9920, 664.6418
312.2010, 795.2688
313.4100, 804.9004
314.6190, 792.5356
315.8280, 824.1743
317.0370, 812.8157
318.2450, 919.4595
319.4530, 792.1050
320.6610, 756.7515
321.8690, 730.3989
323.0770, 601.0474
324.2850, 686.6956
325.4920, 462.3435
326.6990, 409.9910
327.9060, 441.6375
329.1130, 282.2820
330.3200, 318.9248
331.5270, 207.5642
332.7330, 197.2007
333.9390, 204.8330
335.1450, 99.46045
336.3510, 199.0837
337.5570, 135.7012
338.7630, 96.31299
339.9680, 120.9182
341.1740, 109.5164
342.3790, 70.10718
343.5840, 73.69019
344.7890, 67.26489
345.9930, 10.16919
347.1980, 27.44214
348.4020, 113.9324
349.6060, 28.47021
350.8100, 64.99902
352.0140, 11.51855
353.2180, 76.02905
354.4210, 97.53027
355.6250, 58.02222
356.8280, 104.5049
358.0310, 69.97803
359.2340, 62.44165
360.4360, 58.89575
361.6390, 97.34033
362.8410, 99.77490
364.0430, 97.72095
365.2450, 117.6150
366.4470, 124.7961
367.6490, 142.4155
368.8510, 149.8010
370.0520, 187.1763
371.2530, 190.9702
372.4540, 192.8962
373.6550, 178.2410
374.8560, 137.5725
376.0560, 105.8940
377.2570, 191.2048
378.4570, 125.5054
379.6570, 166.7959
380.8570, 87.07544
382.0570, 147.3450
383.2560, 143.6040
384.4560, 74.85254
385.6550, 123.0906
386.8540, 95.31812
388.0530, 31.53540
389.2520, 73.74072
390.4510, 61.93555
391.6490, 36.12012
392.8470, 10.70728
394.0450, 120.4456
395.2430, 52.58643
396.4410, 114.7166
397.6390, 55.82544
398.8360, 22.07666
400.0340, 20.00244
401.2310, 47.97656
402.4280, 59.98877
403.6250, 92.04321
404.8210, 28.15796
406.0180, 24.30371
407.2140, 23.47974
408.4100, 57.68628
409.6060, 20.94116
410.8020, 30.22729
411.9980, 3.549561
413.1930, 3.533936
414.3890, 71.26392
415.5840, 6.689941
416.7790, 11.14355
417.9740, 69.62646
419.1680, 42.14014
420.3630, 9.728760
421.5570, 39.00488
422.7510, 0.7680660
423.9450, 14.87280
425.1390, 25.54541
426.3330, 1.698486
427.5270, 32.91333
428.7200, 66.70825
429.9130, 43.52197
431.1060, 93.65234
432.2990, 35.31348
433.4920, 71.69434
434.6840, 93.31445
435.8770, 178.0784
437.0690, 166.0229
438.2610, 86.42285
439.4530, 144.0076
440.6450, 109.0503
441.8360, 42.18335
443.0280, 72.58984
444.2190, 130.5972
445.4100, 112.6462
446.6010, 208.7842
447.7920, 291.4580
448.9820, 216.3496
450.1730, 218.8848
451.3630, 168.9600
452.5530, 169.8152
453.7430, 244.6587
454.9330, 204.4900
456.1230, 226.3096
457.3120, 316.1174
458.5010, 313.9131
459.6910, 255.6973
460.8800, 391.4697
462.0680, 294.2305
463.2570, 347.9800
464.4460, 334.7178
465.6340, 398.4443
466.8220, 375.1597
468.0100, 468.8635
469.1980, 422.5566
470.3860, 520.2385
471.5730, 470.9097
472.7600, 514.5698
473.9480, 561.2192
475.1350, 573.8579
476.3210, 673.4863
477.5080, 651.1050
478.6950, 572.7129
479.8810, 604.3105
481.0670, 636.8979
482.2530, 677.4756
483.4390, 661.0444
484.6250, 634.6030
485.8100, 612.1519
486.9960, 666.6919
488.1810, 662.2227
489.3660, 615.4365
490.5510, 716.9497
491.7360, 560.4541
492.9200, 574.9497
494.1050, 671.4370
495.2890, 529.9106
496.4730, 535.3818
497.6570, 571.8447
498.8400, 535.3003
500.0240, 449.7480
501.2070, 403.1890
502.3910, 403.8032
503.5740, 349.0483
504.7570, 429.4683
505.9400, 424.8809
507.1220, 450.2871
508.3050, 401.6870
509.4870, 368.0806
510.6690, 410.4683
511.8510, 367.8506
513.0330, 328.2271
514.2140, 452.5977
515.3960, 413.9634
516.5770, 388.3237
517.7580, 366.6797
518.9390, 374.5723
520.1200, 466.3765
521.3010, 408.7188
522.4810, 486.0566
523.6610, 504.3906
524.8420, 461.7207
526.0220, 549.0469
527.2010, 515.3701
528.3810, 559.6904
529.5610, 641.0078
530.7400, 579.1211
531.9190, 512.4326
533.0980, 524.7417
534.2770, 554.8706
535.4560, 445.1738
536.6340, 398.4775
537.8120, 323.7407
538.9910, 333.0420
540.1690, 319.7227
541.3460, 289.8037
542.5240, 263.6255
543.7020, 256.1953
544.8790, 186.3379
546.0560, 156.5752
547.2330, 135.5278
548.4100, 194.6816
549.5870, 91.85986
550.7630, 214.0122
551.9400, 104.2959
553.1160, 110.0166
554.2920, 76.28174
555.4680, 125.9434
556.6440, 110.2090
557.8190, 122.2432
558.9950, 94.90723
560.1700, 7.673828
561.3450, 19.20801
562.5200, 17.02002
563.6950, 30.02539
564.8690, 2.125488
566.0440, 58.93408
567.2180, 20.60889
568.3920, 33.74707
569.5660, 3.226563
570.7400, 60.65137
571.9130, 22.29785
573.0870, 10.97217
574.2600, 28.57422
575.4330, 55.39697
576.6060, 79.08008
577.7790, 68.78516
578.9520, 48.50635
580.1240, 78.34424
581.2960, 107.0923
582.4690, 28.87598
583.6410, 98.00977
584.8120, 71.39551
585.9840, 93.21240
587.1560, 33.11133
588.3270, 87.94727
589.4980, 11.19775
590.6690, 20.64111
591.8400, 35.47168
593.0110, 32.70215
594.1810, 6.893555
595.3510, 11.10059
596.5220, 50.32520
597.6920, 133.5679
598.8610, 95.82812
600.0310, 32.10596
601.2010, 174.4028
602.3700, 155.7173
603.5390, 222.0513
604.7080, 203.4043
605.8770, 314.7764
607.0460, 337.4819
608.2140, 329.5508
609.3830, 397.0112
610.5510, 369.4639
611.7190, 414.2261
612.8870, 471.4307
614.0550, 501.9453
615.2220, 549.4814
616.3900, 646.0396
617.5570, 612.6191
618.7240, 746.2212
619.8910, 751.8457
621.0580, 785.4922
622.2240, 851.1626
623.3910, 884.8560
624.5570, 939.1382
625.7230, 1002.312
626.8890, 1044.077
628.0550, 1154.865
629.2200, 1215.678
630.3860, 1153.517
631.5510, 1300.382
632.7160, 1361.271
633.8810, 1241.187
635.0460, 1296.127
636.2100, 1289.093
637.3750, 1284.085
638.5390, 1195.104
639.7030, 1168.148
640.8670, 1139.221
642.0310, 1076.319
643.1950, 1089.445
644.3580, 923.5981
645.5210, 827.7788
646.6850, 789.9873
647.8480, 678.2236
649.0100, 638.4883
650.1730, 657.7817
651.3350, 533.1030
652.4980, 403.4541
653.6600, 470.8340
654.8220, 369.2432
655.9840, 367.6816
657.1450, 266.1504
658.3070, 231.6489
659.4680, 385.1777
660.6300, 353.7363
661.7910, 190.3252
662.9510, 295.9453
664.1120, 174.5967
665.2730, 187.2788
666.4330, 205.9922
667.5930, 198.7368
668.7530, 110.5132
669.9130, 116.3213
671.0730, 110.1631
672.2320, 172.0366
673.3920, 122.9429
674.5510, 153.8828
675.7100, 182.8770
676.8690, 103.9111
678.0280, 148.9790
679.1860, 150.1035
680.3450, 78.26172
681.5030, 113.4663
682.6610, 212.7231
683.8190, 144.0366
684.9770, 183.4072
686.1340, 159.8564
687.2920, 126.3701
688.4490, 228.9346
689.6060, 215.5566
690.7630, 198.2427
691.9200, 127.9780
693.0760, 222.7705
694.2330, 143.6074
695.3890, 155.4917
696.5450, 210.4399
697.7010, 229.4346
698.8570, 246.4785
700.0130, 268.8657
701.1680, 275.9146
702.3230, 291.6006
703.4780, 278.0015
704.6330, 291.0181
705.7880, 270.1196
706.9430, 249.5728
708.0970, 266.8945
709.2520, 353.4771
710.4060, 303.0835
711.5600, 347.7085
712.7140, 409.8779
713.8670, 422.3574
715.0210, 445.6255
716.1740, 365.7949
717.3270, 366.5557
718.4800, 379.4272
719.6330, 384.9048
720.7860, 388.9985
721.9380, 482.0059
723.0910, 424.7920
724.2430, 401.0312
725.3950, 461.2720
726.5470, 530.4512
727.6980, 530.1284
728.8500, 531.6304
730.0010, 485.5508
731.1530, 456.9663
732.3040, 556.6304
733.4550, 613.3403
734.6050, 526.0977
735.7560, 587.8999
736.9060, 560.7480
738.0560, 571.6387
739.2060, 768.5723
740.3560, 801.5479
741.5060, 724.5649
742.6560, 647.6279
743.8050, 739.7349
744.9540, 687.8940
746.1030, 819.0933
747.2520, 751.3335
748.4010, 715.6143
749.5500, 796.9360
750.6980, 638.2988
751.8460, 841.7148
752.9950, 818.1714
754.1420, 803.6699
755.2900, 806.2085
756.4380, 870.7891
757.5850, 831.4214
758.7330, 867.6890
759.8800, 881.5889
761.0270, 889.5752
762.1730, 926.3774
763.3200, 922.2212
764.4670, 934.2202
765.6130, 939.0288
766.7590, 935.9922
767.9050, 921.9971
769.0510, 911.0430
770.1960, 915.1279
771.3420, 996.2534
772.4870, 983.4175
773.6320, 1023.623
774.7770, 931.8740
775.9220, 1016.166
777.0670, 994.4951
778.2110, 957.8643
779.3560, 1036.274
780.5000, 1011.723
781.6440, 930.2104
782.7880, 996.7368
783.9320, 1083.301
785.0750, 972.9043
786.2180, 1037.558
787.3620, 1010.250
788.5050, 1055.980
789.6480, 1038.750
790.7900, 1020.557
791.9330, 1051.402
793.0750, 1085.283
794.2170, 1082.203
795.3590, 1116.070
796.5010, 1065.152
797.6430, 1113.183
798.7850, 1176.250
799.9260, 1081.353
801.0670, 1078.493
802.2080, 1017.669
803.3490, 1144.881
804.4900, 1170.130
805.6310, 1169.414
806.7710, 1169.734
807.9110, 1206.088
809.0510, 1243.479
810.1910, 1260.893
811.3310, 1346.365
812.4710, 1349.491
813.6100, 1353.479
814.7490, 1461.043
815.8880, 1558.864
817.0270, 1524.496
818.1660, 1598.161
819.3050, 1600.087
820.4430, 1710.296
821.5820, 1811.060
822.7200, 1786.849
823.8580, 1970.005
824.9950, 2057.143
826.1330, 2051.751
827.2710, 2106.143
828.4080, 2146.093
829.5450, 2305.286
830.6820, 2352.295
831.8190, 2571.056
832.9560, 2525.376
834.0920, 2723.473
835.2280, 2885.644
836.3650, 2869.797
837.5010, 3068.998
838.6360, 3179.097
839.7720, 3304.110
840.9080, 3694.413
842.0430, 3770.429
843.1780, 3998.048
844.3130, 4546.267
845.4480, 4576.397
846.5830, 5009.880
847.7170, 5384.346
848.8520, 5779.253
849.9860, 6139.036
851.1200, 6689.588
852.2540, 7332.036
853.3870, 8010.782
854.5210, 8539.781
855.6540, 9342.204
856.7880, 10189.99
857.9210, 11189.51
859.0540, 12251.00
860.1860, 13530.48
861.3190, 14858.33
862.4510, 16444.28
863.5840, 18098.82
864.7160, 19698.28
865.8480, 21934.13
866.9790, 24036.21
868.1110, 26414.40
869.2420, 28650.46
870.3740, 31313.82
871.5050, 33135.78
872.6360, 35075.09
873.7660, 36078.42
874.8970, 36437.90
876.0280, 35872.41
877.1580, 34813.57
878.2880, 32514.78
879.4180, 29864.72
880.5480, 26621.36
881.6770, 23450.56
882.8070, 20133.77
883.9360, 17280.00
885.0650, 14197.24
886.1940, 12091.73
887.3230, 10217.50
888.4520, 8731.122
889.5800, 7270.527
890.7090, 6366.819
891.8370, 5311.377
892.9650, 4729.421
894.0930, 4201.744
895.2200, 3502.156
896.3480, 3172.346
897.4750, 2898.801
898.6020, 2538.369
899.7290, 2404.789
900.8560, 2133.163
901.9830, 1967.543
903.1090, 1707.429
904.2360, 1632.885
905.3620, 1392.287
906.4880, 1315.739
907.6140, 1199.298
908.7400, 1131.956
909.8650, 965.1094
910.9900, 907.5381
912.1160, 787.9707
913.2410, 753.4077
914.3660, 660.3701
915.4900, 608.8149
916.6150, 513.3057
917.7390, 497.7559
918.8640, 371.2632
919.9880, 390.8320
921.1120, 328.9629
922.2350, 352.4219
923.3590, 340.4531
924.4820, 263.9155
925.6060, 304.3799
926.7290, 331.8447
927.8520, 307.3101
928.9740, 151.7754
930.0970, 283.2412
931.2190, 223.7065
932.3420, 154.1714
933.4640, 297.6392
934.5860, 86.10156
935.7080, 197.5620
936.8290, 134.0220
937.9510, 163.4795
939.0720, 27.93457
940.1930, 121.3867
941.3140, 114.8364
942.4350, 30.28271
943.5560, 70.72754
944.6760, 34.16895
945.7960, 121.6055
946.9170, 59.96240
948.0370, 38.55859
949.1560, 26.82568
950.2760, 100.7944
951.3960, 115.5332
952.5150, 7.863770
953.6340, 29.80664
954.7530, 14.49609
955.8720, 21.80322
956.9910, 56.90479
958.1090, 61.64697
959.2280, 7.426270
960.3460, 32.21680
961.4640, 27.03223
962.5820, 43.12988
963.6990, 20.71631
964.8170, 35.41748
965.9340, 10.45752
967.0510, 1.491211
968.1690, 95.79395
969.2850, 3.891113
970.4020, 16.45654
971.5190, 9.051758
972.6350, 56.88330
973.7510, 69.86377
974.8670, 15.10303
975.9830, 1.941895
977.0990, 6.994141
978.2150, 35.08398
979.3300, 48.19531
980.4450, 68.35205
981.5600, 44.43555
982.6750, 9.209961
983.7900, 5.032715
984.9050, 50.69922
986.0190, 44.58154
987.1340, 27.09033
988.2480, 66.25342
989.3620, 55.65771
990.4750, 44.11670
991.5890, 85.96924
992.7020, 12.79102
993.8160, 82.81396
994.9290, 23.49023
996.0420, 48.79102
997.1550, 11.05615
998.2670, 23.70361
999.3800, 98.50732
1000.492, 11.60498
1001.604, 43.69043
1002.716, 14.76172
1003.828, 9.806152
1004.940, 19.98438
1006.051, 12.82178
1007.163, 47.93115
1008.274, 41.88232
1009.385, 42.73145
1010.496, 76.82861
1011.606, 21.75537
1012.717, 30.65186
1013.827, 3.401855
1014.937, 100.4004
1016.047, 153.1851
1017.157, 104.8066
1018.267, 222.7012
1019.377, 62.43262
1020.486, 0.8579100
1021.595, 58.89795
1022.704, 76.54688
1023.813, 107.1953
1024.922, 68.80518
1026.030, 1.605469
1027.139, 142.9409
1028.247, 34.47168
1029.355, 43.17822
1030.463, 88.88916
1031.571, 80.54248
1032.678, 98.21680
1033.786, 120.6260
1034.893, 170.0728
1036.000, 65.46533
1037.107, 103.0723
1038.214, 259.4272
1039.321, 107.7729
1040.427, 97.05566
1041.533, 89.31641
1042.639, 26.55518
1043.745, 166.7578
1044.851, 158.9395
1045.957, 137.1270
1047.062, 74.29395
1048.168, 208.4087
1049.273, 119.5029
1050.378, 200.5752
1051.482, 120.6260
1052.587, 114.6558
1053.692, 11.66309
1054.796, 214.6255
1055.900, 78.56592
1057.004, 236.5913
1058.108, 147.8086
1059.212, 201.6787
1060.315, 198.6260
1061.418, 191.0708
1062.522, 218.3462
1063.625, 201.2002
1064.728, 171.0947
1065.830, 145.8330
1066.933, 179.5498
1068.035, 191.2437
1069.137, 218.1616
1070.239, 190.8110
1071.341, 223.4380
1072.443, 192.0430
1073.545, 158.6250
1074.646, 175.3081
1075.747, 203.2959
1076.848, 287.8110
1077.949, 243.3032
1079.050, 278.4839
1080.150, 243.6387
1081.251, 261.6050
1082.351, 286.1265
1083.451, 248.3013
1084.551, 311.6963
1085.651, 243.0166
1086.750, 284.2368
1087.850, 321.0493
1088.949, 243.3184
1090.048, 292.6943
1091.147, 246.5898
1092.246, 317.5142
1093.345, 208.9775
1094.443, 233.6670
1095.541, 264.8086
1096.639, 230.7134
1097.737, 296.8105
1098.835, 141.3921
1099.933, 186.2031
1101.030, 224.9004
1102.128, 232.9717
1103.225, 254.9702
1104.322, 276.9326
1105.419, 225.0044
1106.515, 252.1733
1107.612, 203.0688
1108.708, 229.2583
1109.804, 164.9849
1110.900, 283.0718
1111.996, 155.1772
1113.092, 231.9360
1114.187, 242.7285
1115.283, 168.0903
1116.378, 276.5947
1117.473, 154.3296
1118.568, 173.1841
1119.662, 163.7607
1120.757, 160.1016
1121.851, 169.0337
1122.946, 176.6172
1124.040, 222.5020
1125.134, 175.4380
1126.227, 216.4575
1127.321, 186.0747
1128.414, 235.6011
1129.508, 164.1699
1130.601, 166.5625
1131.693, 197.1968
1132.786, 183.6074
1133.879, 105.7134
1134.971, 135.2124
1136.064, 188.3564
1137.156, 167.0771
1138.248, 69.25391
1139.339, 182.4194
1140.431, 74.77051
1141.522, 176.7544
1142.614, 91.08301
1143.705, 91.86572
1144.796, 73.40527
1145.887, 96.30566
1146.977, 105.9746
1148.068, 118.8447
1149.158, 139.0527
1150.248, 130.4297
1151.338, 116.6768
1152.428, 73.88232
1153.518, 131.7734
1154.607, 88.86572
1155.696, 137.1377
1156.785, 194.1968
1157.874, 143.7598
1158.963, 90.14600
1160.052, 50.16504
1161.141, 45.62793
1162.229, 50.09521
1163.317, 44.56836
1164.405, 99.56689
1165.493, 74.72559
1166.581, 82.75000
1167.668, 41.26318
1168.756, 79.86133
1169.843, 77.18018
1170.930, 142.2456
1172.017, 142.0557
1173.103, 152.0020
1174.190, 89.22314
1175.276, 95.14111
1176.363, 78.04688
1177.449, 77.74707
1178.535, 104.4775
1179.620, 95.41504
1180.706, 130.3389
1181.791, 126.1831
1182.877, 115.1318
1183.962, 136.8408
1185.047, 144.9771
1186.131, 145.7754
1187.216, 51.99072
1188.300, 23.76904
1189.385, 169.5298
1190.469, 54.27930
1191.553, 166.0166
1192.637, 55.74365
1193.720, 59.45850
1194.804, 44.16211
1195.887, 100.8540
1196.970, 107.5312
1198.053, 113.9253
1199.136, 28.86279
1200.219, 109.5112
1201.301, 114.1494
1202.383, 78.77783
1203.465, 134.3965
1204.547, 43.00488
1205.629, 6.603027
1206.711, 137.1875
1207.792, 122.7622
1208.874, 69.32764
1209.955, 59.88379
1211.036, 136.4419
1212.117, 41.00000
1213.198, 64.54834
1214.278, 24.88916
1215.359, 8.351563
1216.439, 35.16895
1217.519, 93.68555
1218.599, 106.1968
1219.678, 36.69873
1220.758, 118.2056
1221.837, 114.7192
1222.917, 114.6841
1223.996, 146.1919
1225.075, 63.69922
1226.153, 75.19824
1227.232, 106.6953
1228.310, 18.18506
1229.389, 101.6782
1230.467, 36.84277
1231.545, 39.70068
1232.622, 72.15430
1233.700, 113.5996
1234.777, 67.03955
1235.855, 96.58398
1236.932, 61.04785
1238.009, 62.50488
1239.086, 31.11914
1240.162, 13.43213
1241.239, 191.0132
1242.315, 62.46826
1243.391, 136.9390
1244.467, 119.4033
1245.543, 55.35059
1246.619, 98.81152
1247.694, 112.2661
1248.769, 74.73145
1249.844, 91.19189
1250.919, 87.07227
1251.994, 78.56494
1253.069, 68.63281
1254.144, 47.59863
1255.218, 36.58301
1256.292, 50.39746
1257.366, 50.36084
1258.440, 111.9126
1259.514, 57.46387
1260.587, 83.07080
1261.661, 176.8203
1262.734, 11.58398
1263.807, 38.00098
1264.880, 104.5850
1265.952, 33.82959
1267.025, 89.73633
1268.097, 123.1650
1269.170, 2.271484
1270.242, 67.18262
1271.314, 55.73877
1272.385, 6.745117
1273.457, 89.77344
1274.528, 38.21631
1275.600, 124.7690
1276.671, 55.31738
1277.742, 4.137207
1278.812, 107.3994
1279.883, 73.93262
1280.954, 7.537598
1282.024, 36.94531
1283.094, 38.47607
1284.164, 20.98340
1285.234, 9.507324
1286.303, 10.02832
1287.373, 0.8339840
