##NAMES=Columbite-(Fe)
##RRUFFID=R060001
##IDEAL CHEMISTRY=Fe^2+^Nb^5+^_2_O_6_
##LOCALITY=Gypsy mine, Minas Gerais, Brazil
##OWNER=RRUFF
##SOURCE=Eric Van Valkenburg
##DESCRIPTION=Steel gray fragment with internal red hints
##STATUS=The identification of this mineral has been confirmed by X-ray diffraction and chemical analysis
##URL=rruff.info/R060001
##MEASURED CHEMISTRY=(Fe^2+^_0.52_Mn^2+^_0.48_)_Σ=1_(Nb_1.61_Ta_0.39_)_Σ=2_O_6_
##PIN_ID=L01167
##ORIENTATION=Laser parallel to c* (0 0 1). Fiducial mark perpendicular to laser is parallel to -a [-1 0 0]
124.0610, 0.0000000E+00
125.2950, 4.042969
126.5290, 633.7734
127.7630, 1424.191
128.9970, 2208.796
130.2300, 3052.656
131.4640, 3529.016
132.6970, 4301.271
133.9300, 4469.759
135.1630, 4707.772
136.3950, 4604.040
137.6280, 4596.664
138.8600, 4320.943
140.0920, 3704.484
141.3240, 2805.295
142.5560, 2256.254
143.7880, 1578.209
145.0190, 1252.678
146.2510, 935.7588
147.4820, 585.3242
148.7130, 412.1035
149.9440, 471.9580
151.1750, 746.2988
152.4050, 575.9414
153.6360, 381.5850
154.8660, 276.9365
156.0960, 207.9463
157.3260, 187.3965
158.5560, 70.75879
159.7850, 51.03125
161.0150, 10.20898
162.2440, 13.32715
163.4730, 71.56445
164.7020, 25.38379
165.9310, 49.49805
167.1590, 27.95605
168.3880, 3.256836
169.6160, 5.290039
170.8440, 17.57324
172.0720, 2.817383
173.3000, 75.38281
174.5280, 78.24414
175.7550, 93.52734
176.9820, 75.06641
178.2100, 52.52930
179.4370, 28.18555
180.6630, 1.367188
181.8900, 45.07715
183.1170, 26.79688
184.3430, 57.33984
185.5690, 234.7168
186.7950, 202.9355
188.0210, 442.0039
189.2470, 459.9277
190.4720, 413.7158
191.6970, 712.3770
192.9230, 850.9160
194.1480, 1055.342
195.3730, 1222.659
196.5970, 1435.874
197.8220, 1656.116
199.0460, 1907.769
200.2700, 2178.809
201.4940, 2328.185
202.7180, 2381.015
203.9420, 2409.730
205.1660, 2307.789
206.3890, 2118.967
207.6120, 1968.215
208.8350, 1823.666
210.0580, 1741.907
211.2810, 1549.852
212.5040, 1285.731
213.7260, 1076.332
214.9480, 791.0039
216.1700, 513.9678
217.3920, 373.8955
218.6140, 253.3496
219.8360, 116.2256
221.0570, 212.7041
222.2790, 83.30371
223.5000, 113.8965
224.7210, 63.37305
225.9410, 126.6436
227.1620, 282.8691
228.3820, 153.9385
229.6030, 320.3809
230.8230, 306.2256
232.0430, 343.7754
233.2630, 376.7510
234.4820, 485.4922
235.7020, 549.8125
236.9210, 436.7363
238.1400, 545.0361
239.3590, 674.8350
240.5780, 758.6504
241.7970, 913.4844
243.0150, 818.3320
244.2340, 843.1865
245.4520, 1003.022
246.6700, 904.8301
247.8880, 933.6035
249.1060, 970.3457
250.3230, 871.0684
251.5400, 961.7734
252.7580, 939.4688
253.9750, 892.1572
255.1920, 921.8350
256.4080, 985.0449
257.6250, 1026.729
258.8410, 1048.026
260.0580, 987.9072
261.2740, 1032.933
262.4900, 1035.812
263.7050, 1036.967
264.9210, 1096.795
266.1360, 1048.518
267.3520, 1201.923
268.5670, 1267.904
269.7820, 1338.390
270.9960, 1389.318
272.2110, 1471.723
273.4250, 1522.018
274.6400, 1502.959
275.8540, 1673.413
277.0680, 1575.301
278.2810, 1622.563
279.4950, 1529.172
280.7090, 1338.092
281.9220, 1381.312
283.1350, 1273.793
284.3480, 1245.549
285.5610, 1071.575
286.7730, 1047.852
287.9860, 853.3955
289.1980, 800.1855
290.4100, 765.1299
291.6220, 582.3105
292.8340, 413.9951
294.0460, 571.8945
295.2570, 437.2725
296.4690, 332.9268
297.6800, 408.9697
298.8910, 295.8643
300.1020, 274.7227
301.3120, 278.6582
302.5230, 137.9932
303.7330, 208.1611
304.9440, 139.8789
306.1540, 50.29492
307.3630, 228.3730
308.5730, 158.0684
309.7830, 146.8350
310.9920, 172.4668
312.2010, 108.4619
313.4100, 53.00781
314.6190, 100.5918
315.8280, 9.236328
317.0370, 45.26270
318.2450, 105.7695
319.4530, 79.79785
320.6610, 30.69141
321.8690, 56.69824
323.0770, 23.91406
324.2850, 64.43457
325.4920, 6.256836
326.6990, 82.35742
327.9060, 26.98730
329.1130, 34.08105
330.3200, 2.292969
331.5270, 120.0498
332.7330, 160.8564
333.9390, 117.5977
335.1450, 142.2686
336.3510, 23.84277
337.5570, 77.85840
338.7630, 75.59473
339.9680, 113.3633
341.1740, 14.17676
342.3790, 93.00586
343.5840, 60.87207
344.7890, 24.23047
345.9930, 49.32031
347.1980, 75.39453
348.4020, 54.45312
349.6060, 113.4346
350.8100, 117.5234
352.0140, 199.5332
353.2180, 244.5264
354.4210, 274.5029
355.6250, 276.4639
356.8280, 189.4062
358.0310, 344.3242
359.2340, 352.2168
360.4360, 483.0830
361.6390, 539.5371
362.8410, 351.4004
364.0430, 762.7588
365.2450, 635.2881
366.4470, 858.4453
367.6490, 1022.689
368.8510, 1029.206
370.0520, 1066.244
371.2530, 1184.729
372.4540, 1363.087
373.6550, 1489.846
374.8560, 1610.180
376.0560, 1876.367
377.2570, 2086.617
378.4570, 2358.933
379.6570, 2711.612
380.8570, 2834.584
382.0570, 3200.107
383.2560, 3473.108
384.4560, 4022.325
385.6550, 4558.545
386.8540, 4834.770
388.0530, 5263.000
389.2520, 5763.233
390.4510, 6242.475
391.6490, 6619.717
392.8470, 7100.965
394.0450, 7357.219
395.2430, 7791.480
396.4410, 7765.745
397.6390, 7698.016
398.8360, 7717.291
400.0340, 7364.574
401.2310, 7185.861
402.4280, 6839.155
403.6250, 6375.455
404.8210, 5927.758
406.0180, 5441.070
407.2140, 4898.387
408.4100, 4374.710
409.6060, 3927.038
410.8020, 3615.373
411.9980, 3344.715
413.1930, 2966.062
414.3890, 2794.416
415.5840, 2528.714
416.7790, 2176.951
417.9740, 2051.129
419.1680, 2041.249
420.3630, 1938.312
421.5570, 1791.322
422.7510, 1632.281
423.9450, 1588.190
425.1390, 1513.055
426.3330, 1435.877
427.5270, 1371.660
428.7200, 1315.108
429.9130, 1259.492
431.1060, 1222.807
432.2990, 1168.465
433.4920, 1137.651
434.6840, 1101.478
435.8770, 1108.318
437.0690, 1085.800
438.2610, 1117.378
439.4530, 1166.953
440.6450, 1247.127
441.8360, 1147.637
443.0280, 1135.694
444.2190, 1050.690
445.4100, 1078.735
446.6010, 1136.227
447.7920, 1087.777
448.9820, 1002.477
450.1730, 997.5078
451.3630, 1183.020
452.5530, 1115.231
453.7430, 1199.282
454.9330, 1279.446
456.1230, 1256.922
457.3120, 1402.198
458.5010, 1418.076
459.6910, 1421.580
460.8800, 1466.741
462.0680, 1381.346
463.2570, 1454.427
464.4460, 1460.583
465.6340, 1553.638
466.8220, 1746.811
468.0100, 1635.305
469.1980, 1567.693
470.3860, 1753.981
471.5730, 1840.822
472.7600, 1784.881
473.9480, 1827.910
475.1350, 1926.817
476.3210, 1977.283
477.5080, 1923.522
478.6950, 2010.263
479.8810, 1999.818
481.0670, 2018.407
482.2530, 2075.160
483.4390, 2051.656
484.6250, 2122.195
485.8100, 2030.928
486.9960, 2114.702
488.1810, 2066.422
489.3660, 2102.266
490.5510, 1974.237
491.7360, 2005.142
492.9200, 2073.312
494.1050, 1892.521
495.2890, 1926.920
496.4730, 1793.323
497.6570, 1867.732
498.8400, 1818.148
500.0240, 1810.569
501.2070, 1763.994
502.3910, 1825.427
503.5740, 1856.865
504.7570, 1795.312
505.9400, 1913.770
507.1220, 1900.241
508.3050, 1935.730
509.4870, 1892.232
510.6690, 1937.755
511.8510, 2026.363
513.0330, 2136.852
514.2140, 2296.429
515.3960, 2405.020
516.5770, 2638.627
517.7580, 2869.251
518.9390, 3052.889
520.1200, 3200.543
521.3010, 3530.212
522.4810, 3587.896
523.6610, 3919.593
524.8420, 4097.305
526.0220, 4381.029
527.2010, 4582.768
528.3810, 4666.518
529.5610, 4688.279
530.7400, 4905.098
531.9190, 4887.887
533.0980, 4638.688
534.2770, 4794.504
535.4560, 4519.333
536.6340, 4361.176
537.8120, 4240.031
538.9910, 3944.901
540.1690, 3743.785
541.3460, 3498.683
542.5240, 3201.596
543.7020, 3021.411
544.8790, 2802.463
546.0560, 2591.418
547.2330, 2398.391
548.4100, 2210.926
549.5870, 2034.327
550.7630, 1870.394
551.9400, 1698.426
553.1160, 1549.474
554.2920, 1433.995
555.4680, 1389.656
556.6440, 1257.754
557.8190, 1197.868
558.9950, 1175.002
560.1700, 1054.153
561.3450, 1091.323
562.5200, 1007.514
563.6950, 786.7227
564.8690, 893.9551
566.0440, 882.2070
567.2180, 712.4805
568.3920, 587.7764
569.5660, 601.0938
570.7400, 742.4355
571.9130, 625.8008
573.0870, 576.1885
574.2600, 540.6006
575.4330, 441.0381
576.6060, 384.4990
577.7790, 422.9854
578.9520, 407.4961
580.1240, 343.8145
581.2960, 254.5957
582.4690, 245.1865
583.6410, 122.8037
584.8120, 135.4502
585.9840, 44.53516
587.1560, 28.05957
588.3270, 79.43750
589.4980, 27.71582
590.6690, 24.98535
591.8400, 113.2412
593.0110, 112.5244
594.1810, 145.8350
595.3510, 37.18750
596.5220, 147.5342
597.6920, 40.92188
598.8610, 67.30273
600.0310, 79.68848
601.2010, 134.0742
602.3700, 136.6338
603.5390, 69.94824
604.7080, 132.4082
605.8770, 48.90039
607.0460, 22.61230
608.2140, 1.842773
609.3830, 108.2549
610.5510, 211.6816
611.7190, 160.1523
612.8870, 87.66699
614.0550, 76.18945
615.2220, 18.28418
616.3900, 102.2109
617.5570, 103.6777
618.7240, 22.94531
619.8910, 17.47363
621.0580, 112.1182
622.2240, 91.80664
623.3910, 103.5498
624.5570, 59.35840
625.7230, 152.2070
626.8890, 158.2451
628.0550, 236.0762
629.2200, 244.0703
630.3860, 369.0986
631.5510, 412.1592
632.7160, 390.2529
633.8810, 515.3809
635.0460, 511.8721
636.2100, 561.6523
637.3750, 589.9365
638.5390, 597.8525
639.7030, 524.3818
640.8670, 556.0918
642.0310, 545.6963
643.1950, 533.6035
644.3580, 580.2041
645.5210, 457.4375
646.6850, 590.9248
647.8480, 512.4453
649.0100, 405.9980
650.1730, 560.5879
651.3350, 496.2090
652.4980, 360.8652
653.6600, 408.5557
654.8220, 254.2793
655.9840, 325.0391
657.1450, 364.8320
658.3070, 259.6602
659.4680, 249.5225
660.6300, 254.4199
661.7910, 148.3516
662.9510, 344.3193
664.1120, 202.3223
665.2730, 192.3604
666.4330, 259.4336
667.5930, 181.5430
668.7530, 138.6865
669.9130, 0.8681640
671.0730, 264.0840
672.2320, 136.3350
673.3920, 185.6221
674.5510, 202.9463
675.7100, 100.3057
676.8690, 191.7031
678.0280, 116.1367
679.1860, 66.60645
680.3450, 269.1143
681.5030, 170.6582
682.6610, 146.2402
683.8190, 143.8594
684.9770, 183.5146
686.1340, 100.2129
687.2920, 126.9570
688.4490, 229.7393
689.6060, 91.56934
690.7630, 143.4473
691.9200, 210.4180
693.0760, 0.4472660
694.2330, 18.52734
695.3890, 184.6875
696.5450, 194.9150
697.7010, 213.2217
698.8570, 255.5684
700.0130, 328.0117
701.1680, 327.5518
702.3230, 288.1865
703.4780, 422.8613
704.6330, 297.5947
705.7880, 413.3857
706.9430, 302.2324
708.0970, 447.1221
709.2520, 325.0811
710.4060, 302.0801
711.5600, 507.1367
712.7140, 379.2324
713.8670, 414.3672
715.0210, 553.5527
716.1740, 564.7812
717.3270, 628.0596
718.4800, 632.4004
719.6330, 546.8066
720.7860, 677.2666
721.9380, 653.6377
723.0910, 772.3115
724.2430, 629.8926
725.3950, 874.5127
726.5470, 683.1709
727.6980, 844.1387
728.8500, 792.7744
730.0010, 845.6035
731.1530, 883.0049
732.3040, 916.5430
733.4550, 1024.334
734.6050, 957.8506
735.7560, 902.6885
736.9060, 1054.146
738.0560, 1114.354
739.2060, 1032.010
740.3560, 1219.880
741.5060, 1204.692
742.6560, 1310.058
743.8050, 1181.264
744.9540, 1274.836
746.1030, 1150.285
747.2520, 1278.213
748.4010, 1298.036
749.5500, 1306.345
750.6980, 1471.547
751.8460, 1366.648
752.9950, 1442.409
754.1420, 1619.168
755.2900, 1433.790
756.4380, 1650.423
757.5850, 1538.078
758.7330, 1668.057
759.8800, 1729.041
761.0270, 1679.069
762.1730, 1827.141
763.3200, 1801.256
764.4670, 1857.414
765.6130, 1850.616
766.7590, 1894.862
767.9050, 1809.149
769.0510, 1779.485
770.1960, 2080.862
771.3420, 1973.283
772.4870, 2035.744
773.6320, 1992.250
774.7770, 2004.796
775.9220, 2076.385
777.0670, 2060.016
778.2110, 2161.689
779.3560, 2108.404
780.5000, 2185.159
781.6440, 2266.957
782.7880, 2280.795
783.9320, 2062.676
785.0750, 2118.597
786.2180, 2238.557
787.3620, 2182.559
788.5050, 2300.602
789.6480, 2306.686
790.7900, 2433.809
791.9330, 2414.622
793.0750, 2359.176
794.2170, 2381.420
795.3590, 2344.703
796.5010, 2319.025
797.6430, 2247.389
798.7850, 2317.790
799.9260, 2428.230
801.0670, 2254.713
802.2080, 2256.229
803.3490, 2422.788
804.4900, 2422.384
805.6310, 2537.019
806.7710, 2366.691
807.9110, 2650.359
809.0510, 2492.108
810.1910, 2611.896
811.3310, 2655.720
812.4710, 2708.581
813.6100, 2771.480
814.7490, 2827.407
815.8880, 2926.391
817.0270, 2994.399
818.1660, 2986.446
819.3050, 3151.529
820.4430, 3287.649
821.5820, 3468.805
822.7200, 3520.732
823.8580, 3765.563
824.9950, 3788.825
826.1330, 3785.584
827.2710, 3944.433
828.4080, 4079.395
829.5450, 4239.301
830.6820, 4371.645
831.8190, 4529.489
832.9560, 4673.260
834.0920, 4833.631
835.2280, 4996.189
836.3650, 5134.084
837.5010, 5375.303
838.6360, 5393.127
839.7720, 5632.854
840.9080, 5862.072
842.0430, 5999.664
843.1780, 6422.188
844.3130, 6542.596
845.4480, 7064.514
846.5830, 7230.343
847.7170, 7761.254
848.8520, 7989.134
849.9860, 8615.243
851.1200, 9051.915
852.2540, 9708.186
853.3870, 10409.50
854.5210, 11186.65
855.6540, 11946.92
856.7880, 12994.88
857.9210, 14062.57
859.0540, 15077.02
860.1860, 16530.12
861.3190, 18156.24
862.4510, 19717.38
863.5840, 21733.54
864.7160, 24000.12
865.8480, 26291.36
866.9790, 29192.93
868.1110, 32396.49
869.2420, 35572.86
870.3740, 39258.12
871.5050, 42931.56
872.6360, 46265.07
873.7660, 48402.77
874.8970, 50517.33
876.0280, 51637.95
877.1580, 51392.74
878.2880, 50599.53
879.4180, 48338.37
880.5480, 45207.15
881.6770, 41708.36
882.8070, 37678.21
883.9360, 33426.07
885.0650, 29110.95
886.1940, 25263.91
887.3230, 21411.07
888.4520, 18244.09
889.5800, 15455.14
890.7090, 12985.20
891.8370, 11116.63
892.9650, 9127.140
894.0930, 7880.285
895.2200, 6855.541
896.3480, 5940.713
897.4750, 5100.898
898.6020, 4571.090
899.7290, 3990.377
900.8560, 3438.603
901.9830, 3038.838
903.1090, 2667.254
904.2360, 2410.389
905.3620, 2163.650
906.4880, 1842.920
907.6140, 1892.197
908.7400, 1634.480
909.8650, 1488.771
910.9900, 1268.067
912.1160, 1215.399
913.2410, 1059.709
914.3660, 917.0244
915.4900, 917.3447
916.6150, 761.2197
917.7390, 728.0000
918.8640, 616.3340
919.9880, 555.6729
921.1120, 607.0156
922.2350, 365.3613
923.3590, 328.7109
924.4820, 386.0635
925.6060, 376.4189
926.7290, 325.7773
927.8520, 392.1367
928.9740, 276.4971
930.0970, 361.8613
931.2190, 312.2246
932.3420, 249.5898
933.4640, 319.9541
934.5860, 368.3203
935.7080, 388.6895
936.8290, 411.0576
937.9510, 374.4385
939.0720, 275.8184
940.1930, 295.1973
941.3140, 337.5762
942.4350, 328.9512
943.5560, 201.3291
944.6760, 306.7041
945.7960, 175.0752
946.9170, 208.4463
948.0370, 243.8330
949.1560, 175.2168
950.2760, 129.6064
951.3960, 209.9932
952.5150, 238.3750
953.6340, 47.75293
954.7530, 41.12598
955.8720, 190.4951
956.9910, 9.140625
958.1090, 22.79297
959.2280, 58.53125
960.3460, 35.15137
961.4640, 17.86328
962.5820, 194.6006
963.6990, 64.45215
964.8170, 38.35254
965.9340, 140.2891
967.0510, 88.31543
968.1690, 144.6670
969.2850, 48.40820
970.4020, 204.7695
971.5190, 194.0742
972.6350, 193.5020
973.7510, 36.94727
974.8670, 53.61523
975.9830, 42.22949
977.0990, 39.88867
978.2150, 12.40625
979.3300, 91.31738
980.4450, 73.88672
981.5600, 40.92090
982.6750, 110.2236
983.7900, 39.35742
984.9050, 17.52148
986.0190, 34.55957
987.1340, 9.373047
988.2480, 54.34180
989.3620, 69.36719
990.4750, 16.39844
991.5890, 28.46777
992.7020, 41.47363
993.8160, 108.1504
994.9290, 91.97363
996.0420, 106.7832
997.1550, 120.5791
998.2670, 18.63965
999.3800, 100.0977
1000.492, 31.90527
1001.604, 94.23633
1002.716, 117.3438
1003.828, 33.91016
1004.940, 192.4512
1006.051, 116.0078
1007.163, 5.616211
1008.274, 140.0879
1009.385, 91.83887
1010.496, 31.27637
1011.606, 33.68359
1012.717, 87.06445
1013.827, 102.4258
1014.937, 69.76953
1016.047, 97.06250
1017.157, 102.4043
1018.267, 115.6885
1019.377, 42.95410
1020.486, 93.18945
1021.595, 120.4043
1022.704, 191.6035
1023.813, 219.7812
1024.922, 85.96289
1026.030, 84.12207
1027.139, 151.2559
1028.247, 111.4229
1029.355, 145.5166
1030.463, 208.5889
1031.571, 210.6416
1032.678, 118.6719
1033.786, 219.7500
1034.893, 251.7373
1036.000, 115.3027
1037.107, 68.26953
1038.214, 248.1836
1039.321, 260.0752
1040.427, 302.0010
1041.533, 235.8779
1042.639, 269.7500
1043.745, 200.6807
1044.851, 144.5068
1045.957, 304.3135
1047.062, 252.1621
1048.168, 256.8799
1049.273, 278.6621
1050.378, 209.3340
1051.482, 395.9863
1052.587, 380.6152
1053.692, 371.3105
1054.796, 267.0361
1055.900, 361.6016
1057.004, 355.1582
1058.108, 385.8730
1059.212, 309.3828
1060.315, 479.8682
1061.418, 437.3301
1062.522, 350.7666
1063.625, 425.1807
1064.728, 391.5957
1065.830, 392.9590
1066.933, 484.2979
1068.035, 402.4102
1069.137, 322.8516
1070.239, 390.8184
1071.341, 355.2422
1072.443, 524.6465
1073.545, 453.9092
1074.646, 299.0752
1075.747, 456.7090
1076.848, 360.8232
1077.949, 459.9121
1079.050, 453.5352
1080.150, 499.8350
1081.251, 442.0293
1082.351, 427.4336
1083.451, 387.4766
1084.551, 485.5215
1085.651, 470.5811
1086.750, 396.4668
1087.850, 399.6895
1088.949, 356.5332
1090.048, 325.0244
1091.147, 414.8252
1092.246, 355.6934
1093.345, 394.9707
1094.443, 380.4297
1095.541, 458.7344
1096.639, 344.8887
1097.737, 342.7598
1098.835, 370.9502
1099.933, 315.5049
1101.030, 334.4756
1102.128, 322.6650
1103.225, 318.6660
1104.322, 363.0098
1105.419, 303.5674
1106.515, 358.9678
1107.612, 247.8818
1108.708, 281.5205
1109.804, 251.2617
1110.900, 345.1797
1111.996, 266.6582
1113.092, 390.0127
1114.187, 299.5029
1115.283, 236.9463
1116.378, 182.4219
1117.473, 318.9521
1118.568, 221.8867
1119.662, 253.2021
1120.757, 156.2100
1121.851, 94.37109
1122.946, 235.9258
1124.040, 221.6650
1125.134, 212.7080
1126.227, 219.1953
1127.321, 178.3076
1128.414, 154.3936
1129.508, 154.4600
1130.601, 165.1738
1131.693, 55.26855
1132.786, 185.0947
1133.879, 242.8301
1134.971, 186.4258
1136.064, 152.9697
1137.156, 88.98340
1138.248, 73.26270
1139.339, 150.6240
1140.431, 40.51855
1141.522, 208.3623
1142.614, 216.0781
1143.705, 320.8203
1144.796, 251.6016
1145.887, 109.6064
1146.977, 92.04199
1148.068, 263.8838
1149.158, 126.7363
1150.248, 109.5518
1151.338, 173.3555
1152.428, 113.0537
1153.518, 93.82422
1154.607, 258.9541
1155.696, 175.3652
1156.785, 428.6797
1157.874, 162.9648
1158.963, 86.84082
1160.052, 120.3486
1161.141, 115.3213
1162.229, 160.1074
1163.317, 148.6572
1164.405, 36.71973
1165.493, 111.7705
1166.581, 12.24512
1167.668, 93.95898
1168.756, 119.5332
1169.843, 119.0117
1170.930, 85.95020
1172.017, 92.57129
1173.103, 89.38965
1174.190, 70.02148
1175.276, 89.36133
1176.363, 88.77637
1177.449, 73.08691
1178.535, 131.7324
1179.620, 78.01074
1180.706, 303.4893
1181.791, 100.3613
1182.877, 186.7656
1183.962, 79.44141
1185.047, 66.64453
1186.131, 164.0645
1187.216, 115.6582
1188.300, 57.98242
1189.385, 127.1221
1190.469, 327.3447
1191.553, 245.7959
1192.637, 244.1631
1193.720, 244.6338
1194.804, 93.70215
1195.887, 120.7559
1196.970, 108.7939
1198.053, 2.180664
1199.136, 62.82129
1200.219, 34.19043
1201.301, 54.75879
1202.383, 52.86914
1203.465, 80.78809
1204.547, 101.7881
1205.629, 12.67871
1206.711, 157.5508
1207.792, 130.4111
1208.874, 6.257813
1209.955, 60.91309
1211.036, 51.86816
1212.117, 31.96387
1213.198, 75.77637
1214.278, 68.50488
1215.359, 58.21777
1216.439, 117.2549
1217.519, 25.54492
1218.599, 129.2344
1219.678, 111.8926
1220.758, 88.54395
1221.837, 69.20215
1222.917, 149.8369
1223.996, 87.47070
1225.075, 10.09961
1226.153, 98.76758
1227.232, 48.48047
1228.310, 93.15820
1229.389, 126.8652
1230.467, 97.60645
1231.545, 61.63086
1232.622, 33.15625
1233.700, 96.91797
1234.777, 29.83398
1235.855, 224.6846
1236.932, 88.52539
1238.009, 76.07715
1239.086, 68.09180
1240.162, 58.48047
1241.239, 42.64746
1242.315, 160.5195
1243.391, 43.38281
1244.467, 63.25000
1245.543, 18.10645
1246.619, 144.9492
1247.694, 113.7939
1248.769, 14.62988
1249.844, 109.4873
1250.919, 54.33301
1251.994, 28.13281
1253.069, 42.99512
1254.144, 18.14941
1255.218, 51.68262
1256.292, 139.5029
1257.366, 99.31445
1258.440, 98.11523
1259.514, 80.90625
1260.587, 80.01758
1261.661, 65.51074
1262.734, 107.3145
1263.807, 78.14453
1264.880, 125.9648
1265.952, 77.77832
1267.025, 119.5498
1268.097, 146.4180
1269.170, 111.6465
1270.242, 184.1357
1271.314, 127.0840
1272.385, 118.7227
1273.457, 76.53027
1274.528, 44.28906
1275.600, 85.03711
1276.671, 65.76660
1277.742, 65.53809
1278.812, 77.42285
1279.883, 67.40625
1280.954, 56.45801
1282.024, 77.15918
1283.094, 10.84766
1284.164, 83.35840
1285.234, 67.26270
1286.303, 86.87500
1287.373, 33.48047
1288.442, 107.1025
1289.511, 17.68848
1290.580, 42.26270
1291.649, 152.8799
1292.718, 53.43262
1293.786, 131.0361
1294.855, 121.5742
1295.923, 10.50684
1296.991, 88.00195
1298.059, 78.51660
1299.126, 1.021484
