##NAMES=Columbite-(Fe)
##RRUFFID=R050348
##IDEAL CHEMISTRY=Fe^2+^Nb^5+^_2_O_6_
##LOCALITY=Lord Hill mine, Stoneham, Oxford County, Maine, USA
##OWNER=RRUFF
##SOURCE=California Institute of Technology
##DESCRIPTION=Black fragment
##STATUS=The identification of this mineral has been confirmed by X-ray diffraction and chemical analysis
##URL=rruff.info/R050348
##MEASURED CHEMISTRY=(Fe^2+^_0.69_Mn^2+^_0.30_Ti_0.01_)(Nb_0.89_Ta_0.10_Ti_0.01_)_2_O_6_
##PIN_ID=L00573
##ORIENTATION=Laser parallel to -c* (0 0 -1). Fiducial mark perpendicular to laser is parallel to -a [-1 0 0]
221.0220, 0.0000000E+00
222.2400, 3.142578
223.4590, 53.38281
224.6770, 2.473145
225.8950, 61.43945
227.1120, 48.16113
228.3300, 6.734863
229.5480, 140.2837
230.7650, 57.65332
231.9820, 7.286621
233.1990, 18.34521
234.4160, 74.46484
235.6330, 219.0249
236.8490, 168.9780
238.0660, 165.2920
239.2820, 260.9395
240.4980, 155.8823
241.7140, 188.0571
242.9300, 330.4150
244.1460, 162.9185
245.3610, 262.5664
246.5770, 299.3838
247.7920, 311.4033
249.0070, 367.6162
250.2220, 360.0093
251.4370, 288.5127
252.6510, 464.1279
253.8660, 419.9902
255.0800, 539.9189
256.2940, 674.0264
257.5080, 802.3311
258.7220, 1014.522
259.9360, 1000.763
261.1490, 1087.212
262.3630, 1047.100
263.5760, 1137.137
264.7890, 1279.114
266.0020, 1358.041
267.2150, 1527.021
268.4270, 1506.118
269.6400, 1664.465
270.8520, 1745.058
272.0640, 1788.873
273.2760, 1784.101
274.4880, 1746.505
275.7000, 1796.923
276.9120, 1568.185
278.1230, 1526.992
279.3340, 1240.953
280.5450, 1132.783
281.7560, 1036.655
282.9670, 897.6309
284.1780, 788.8877
285.3880, 727.8213
286.5980, 547.4961
287.8090, 425.5410
289.0190, 301.2100
290.2290, 398.2070
291.4380, 367.9199
292.6480, 348.4473
293.8570, 273.0352
295.0670, 257.9805
296.2760, 271.9287
297.4850, 232.6396
298.6930, 203.9160
299.9020, 261.1680
301.1110, 315.3965
302.3190, 284.3574
303.5270, 258.7949
304.7350, 269.9658
305.9430, 271.1191
307.1510, 297.2559
308.3580, 193.3730
309.5660, 193.4756
310.7730, 207.7100
311.9800, 312.3457
313.1870, 518.3984
314.3940, 498.2227
315.6010, 578.1299
316.8070, 591.7734
318.0130, 576.8086
319.2200, 665.0928
320.4260, 620.6299
321.6310, 360.7588
322.8370, 442.7363
324.0430, 506.4873
325.2480, 401.2705
326.4540, 632.4844
327.6590, 327.8418
328.8640, 377.6865
330.0680, 360.6318
331.2730, 194.5459
332.4780, 239.4658
333.6820, 62.41113
334.8860, 251.3516
336.0900, 163.2832
337.2940, 272.2061
338.4980, 249.1211
339.7010, 154.0430
340.9050, 191.9531
342.1080, 83.85254
343.3110, 120.7393
344.5140, 66.61230
345.7170, 48.47070
346.9200, 105.3125
348.1220, 8.137695
349.3240, 183.9463
350.5270, 24.73633
351.7290, 55.51172
352.9310, 92.26953
354.1320, 92.01367
355.3340, 46.74023
356.5350, 101.4502
357.7370, 72.12988
358.9380, 206.7881
360.1390, 47.56934
361.3400, 159.0596
362.5400, 144.6748
363.7410, 17.23730
364.9410, 62.78223
366.1410, 145.6904
367.3410, 29.17090
368.5410, 90.69531
369.7410, 118.7764
370.9400, 82.36523
372.1400, 46.96875
373.3390, 93.64746
374.5380, 124.2188
375.7370, 171.8809
376.9360, 136.4287
378.1350, 183.1113
379.3330, 130.8008
380.5310, 221.4951
381.7300, 162.1914
382.9280, 246.8906
384.1260, 99.58789
385.3230, 204.2832
386.5210, 277.9746
387.7180, 182.6631
388.9160, 210.3447
390.1130, 194.0225
391.3100, 178.6934
392.5060, 132.3564
393.7030, 220.0127
394.9000, 170.4512
396.0960, 263.2930
397.2920, 118.9199
398.4880, 141.5342
399.6840, 54.13672
400.8800, 17.16406
402.0750, 140.2949
403.2710, 0.1474610
404.4660, 25.38770
405.6610, 110.9062
406.8560, 10.41309
408.0510, 22.09961
409.2450, 69.36133
410.4400, 63.18945
411.6340, 28.22266
412.8280, 65.61719
414.0220, 43.99902
415.2160, 2.635742
416.4100, 14.70410
417.6030, 47.62891
418.7970, 78.35156
419.9900, 52.87793
421.1830, 33.08887
422.3760, 9.277344
423.5690, 45.55664
424.7610, 3.428711
425.9540, 45.32520
427.1460, 100.2598
428.3380, 41.24609
429.5300, 30.71582
430.7220, 16.34570
431.9140, 13.56641
433.1050, 62.45605
434.2970, 50.66406
435.4880, 42.55664
436.6790, 53.37500
437.8700, 69.27637
439.0610, 106.0332
440.2510, 93.14258
441.4420, 127.1895
442.6320, 185.9160
443.8220, 185.3750
445.0120, 192.5352
446.2020, 218.2432
447.3910, 141.9326
448.5810, 146.6123
449.7700, 142.2852
450.9600, 92.94727
452.1490, 140.6611
453.3370, 77.30664
454.5260, 138.9434
455.7150, 291.0186
456.9030, 207.2988
458.0910, 237.1904
459.2800, 156.7383
460.4670, 202.2373
461.6550, 192.7285
462.8430, 207.3936
464.0300, 260.5762
465.2180, 295.9521
466.4050, 280.2852
467.5920, 371.5723
468.7790, 344.7812
469.9650, 391.9668
471.1520, 327.1426
472.3380, 406.2852
473.5250, 367.4268
474.7110, 435.5645
475.8970, 351.7002
477.0820, 385.8389
478.2680, 419.6895
479.4540, 395.8174
480.6390, 401.9443
481.8240, 387.0684
483.0090, 477.1914
484.1940, 426.3711
485.3780, 443.3594
486.5630, 405.4756
487.7470, 410.4238
488.9320, 458.1465
490.1160, 511.2578
491.3000, 429.8086
492.4830, 480.9180
493.6670, 496.1289
494.8500, 502.9980
496.0340, 367.1045
497.2170, 436.2109
498.4000, 349.9795
499.5820, 435.0859
500.7650, 296.1240
501.9480, 368.2305
503.1300, 387.4717
504.3120, 283.5801
505.4940, 242.6885
506.6760, 304.8037
507.8580, 332.8369
509.0390, 436.9434
510.2210, 505.4502
511.4020, 503.8506
512.5830, 499.6494
513.7640, 487.7480
514.9450, 514.6289
516.1250, 485.7197
517.3060, 502.0977
518.4860, 406.8936
519.6660, 519.9766
520.8460, 458.0557
522.0260, 468.1328
523.2060, 544.2061
524.3850, 585.2773
525.5650, 629.3457
526.7440, 644.6611
527.9230, 527.4736
529.1020, 603.5342
530.2810, 558.5908
531.4590, 439.6465
532.6380, 438.7002
533.8160, 442.4922
534.9940, 412.8115
536.1720, 447.8486
537.3500, 415.8945
538.5270, 259.9385
539.7050, 220.9805
540.8820, 250.0215
542.0590, 130.9678
543.2360, 174.0127
544.4130, 198.0508
545.5900, 180.2109
546.7660, 313.5469
547.9430, 120.5830
549.1190, 62.32422
550.2950, 136.0996
551.4710, 214.1309
552.6470, 66.32715
553.8220, 43.76270
554.9980, 110.7871
556.1730, 67.62402
557.3480, 67.62891
558.5230, 2.417969
559.6980, 106.7520
560.8730, 46.00000
562.0470, 89.98926
563.2220, 99.60449
564.3960, 107.3184
565.5700, 138.1162
566.7440, 12.64746
567.9170, 144.0205
569.0910, 96.95898
570.2640, 4.614258
571.4380, 97.24609
572.6110, 47.49414
573.7840, 123.5176
574.9570, 20.62402
576.1290, 122.2324
577.3020, 32.37988
578.4740, 79.34863
579.6460, 18.70215
580.8180, 41.24219
581.9900, 12.18945
583.1620, 5.867188
584.3330, 76.06836
585.5040, 13.02246
586.6760, 1.029297
587.8470, 20.08984
589.0180, 4.157227
590.1880, 14.23340
591.3590, 87.31836
592.5290, 2.588867
593.7000, 89.51270
594.8700, 12.62305
596.0400, 47.25684
597.2090, 34.85840
598.3790, 47.98340
599.5490, 68.11719
600.7180, 124.2607
601.8870, 139.4160
603.0560, 191.5801
604.2250, 180.7549
605.3940, 251.9414
606.5620, 320.1387
607.7300, 132.3457
608.8990, 344.5645
610.0670, 240.7969
611.2350, 266.0391
612.4020, 360.2959
613.5700, 329.6846
614.7370, 472.9658
615.9050, 709.2295
617.0720, 354.5664
618.2390, 1086.887
619.4060, 713.2207
620.5720, 400.5762
621.7390, 465.9365
622.9050, 568.3096
624.0710, 624.6963
625.2370, 652.0967
626.4030, 649.5098
627.5690, 844.9385
628.7340, 851.3799
629.9000, 882.8369
631.0650, 871.3086
632.2300, 968.7998
633.3950, 917.3066
634.5600, 939.8408
635.7240, 899.4873
636.8890, 883.0410
638.0530, 869.6094
639.2170, 743.1934
640.3810, 790.7910
641.5450, 763.4043
642.7080, 677.0322
643.8720, 716.1562
645.0350, 609.8330
646.1980, 610.5264
647.3610, 494.2383
648.5240, 416.9648
649.6870, 451.7080
650.8490, 489.4678
652.0120, 462.2422
653.1740, 321.0322
654.3360, 349.8389
655.4980, 420.6592
656.6600, 423.5859
657.8210, 235.4395
658.9830, 373.3066
660.1440, 255.1914
661.3050, 186.0908
662.4660, 354.0166
663.6270, 286.9600
664.7870, 249.9443
665.9480, 234.9434
667.1080, 227.9648
668.2680, 259.0020
669.4280, 259.0537
670.5880, 183.1240
671.7480, 264.2100
672.9070, 114.3105
674.0670, 272.4326
675.2260, 150.5703
676.3850, 140.7236
677.5440, 213.8955
678.7030, 118.0830
679.8610, 336.2930
681.0200, 235.5195
682.1780, 268.7646
683.3360, 165.0479
684.4940, 211.3555
685.6520, 216.7197
686.8090, 179.1074
687.9670, 211.4580
689.1240, 191.1865
690.2810, 217.5371
691.4380, 178.0723
692.5950, 163.6816
693.7520, 156.3564
694.9080, 172.0811
696.0650, 232.8311
697.2210, 319.6221
698.3770, 140.0889
699.5330, 236.9590
700.6880, 187.8789
701.8440, 128.8174
702.9990, 239.7988
704.1550, 172.8027
705.3100, 184.8457
706.4650, 144.9160
707.6190, 178.0234
708.7740, 197.2939
709.9290, 147.3818
711.0830, 277.5986
712.2370, 278.2461
713.3910, 331.1152
714.5450, 308.4023
715.6980, 342.3115
716.8520, 267.6221
718.0050, 297.8555
719.1580, 304.2373
720.3110, 203.2734
721.4640, 259.3789
722.6170, 212.8135
723.7700, 155.3945
724.9220, 140.5449
726.0740, 147.0244
727.2260, 249.5312
728.3780, 208.0566
729.5300, 239.6025
730.6810, 132.1660
731.8330, 109.6885
732.9840, 223.2881
734.1350, 133.9072
735.2860, 107.0889
736.4370, 192.7461
737.5880, 152.4189
738.7380, 79.11133
739.8880, 214.8203
741.0390, 212.5488
742.1890, 95.29395
743.3380, 127.0576
744.4880, 129.8418
745.6380, 138.6426
746.7870, 173.4609
747.9360, 173.2979
749.0850, 213.1514
750.2340, 79.03516
751.3830, 13.06348
752.5310, 6.680664
753.6800, 216.8027
754.8280, 15.76172
755.9760, 121.7373
757.1240, 168.7314
758.2720, 0.7402340
759.4190, 433.7676
760.5670, 313.8115
761.7140, 275.8721
762.8610, 58.95117
764.0080, 56.04688
765.1550, 184.1582
766.3020, 141.2871
767.4480, 115.4316
768.5950, 83.59277
769.7410, 138.7705
770.8870, 215.9639
772.0330, 193.1748
773.1780, 12.59961
774.3240, 57.64062
775.4690, 126.8965
776.6140, 71.16699
777.7590, 201.4551
778.9040, 189.7578
780.0490, 126.0762
781.1940, 32.59082
782.3380, 173.7529
783.4820, 60.11230
784.6260, 132.4863
785.7700, 27.87500
786.9140, 98.27832
788.0580, 33.69629
789.2010, 198.1299
790.3450, 3.577148
791.4880, 159.0381
792.6310, 31.51562
793.7730, 9.994141
794.9160, 148.5098
796.0590, 58.02734
797.2010, 202.5586
798.3430, 149.1045
799.4850, 168.1523
800.6270, 240.7266
801.7690, 124.0898
802.9100, 276.7373
804.0520, 143.3232
805.1930, 168.9473
806.3340, 262.5840
807.4750, 217.2334
808.6160, 280.8955
809.7560, 291.5703
810.8970, 308.7803
812.0370, 318.4785
813.1770, 455.1895
814.3170, 516.9766
815.4570, 461.7109
816.5960, 506.4883
817.7360, 420.2441
818.8750, 726.1592
820.0140, 626.7412
821.1530, 780.1367
822.2920, 787.9482
823.4310, 676.5977
824.5690, 897.6533
825.7070, 909.8213
826.8460, 815.6611
827.9840, 1113.279
829.1220, 1063.366
830.2590, 1024.170
831.3970, 1229.349
832.5340, 1147.453
833.6710, 1230.059
834.8080, 1245.504
835.9450, 1468.370
837.0820, 1465.287
838.2190, 1684.376
839.3550, 1855.255
840.4910, 1719.312
841.6270, 1882.249
842.7630, 2071.323
843.8990, 2208.256
845.0350, 2496.191
846.1700, 2727.232
847.3060, 2831.175
848.4410, 3038.121
849.5760, 3490.070
850.7100, 3695.021
851.8450, 3982.977
852.9800, 4251.957
854.1140, 4880.008
855.2480, 5430.012
856.3820, 5988.086
857.5160, 6293.156
858.6500, 6855.201
859.7830, 7763.262
860.9170, 8643.296
862.0500, 9388.332
863.1830, 10505.37
864.3160, 11532.41
865.4480, 12805.45
866.5810, 13926.78
867.7130, 15384.82
868.8460, 16377.06
869.9780, 17523.31
871.1100, 18149.35
872.2410, 18367.73
873.3730, 18545.86
874.5050, 18187.92
875.6360, 17160.97
876.7670, 16020.21
877.8980, 14452.27
879.0290, 12831.38
880.1590, 11326.85
881.2900, 9944.904
882.4200, 8571.962
883.5500, 7298.085
884.6800, 6123.201
885.8100, 5480.248
886.9400, 4581.306
888.0690, 4075.846
889.1990, 3327.900
890.3280, 3212.956
891.4570, 2743.008
892.5860, 2201.058
893.7140, 2216.104
894.8430, 1942.336
895.9710, 1672.377
897.1000, 1533.551
898.2280, 1547.814
899.3560, 1336.707
900.4830, 1175.047
901.6110, 1035.986
902.7380, 902.0840
903.8660, 767.0283
904.9930, 680.5947
906.1200, 543.2002
907.2460, 543.2148
908.3730, 498.2246
909.5000, 477.1123
910.6260, 389.1143
911.7520, 392.5654
912.8780, 346.1113
914.0040, 359.1035
915.1290, 224.0918
916.2550, 169.0742
917.3800, 316.5918
918.5050, 177.5674
919.6300, 206.1562
920.7550, 226.5000
921.8800, 187.4570
923.0040, 162.4072
924.1290, 220.3652
925.2530, 78.32715
926.3770, 213.2832
927.5010, 118.2334
928.6250, 147.1797
929.7480, 97.02930
930.8720, 160.9609
931.9950, 186.8848
933.1180, 231.8008
934.2410, 25.29004
935.3640, 157.5898
936.4860, 76.53809
937.6090, 32.27539
938.7310, 1.080078
939.8530, 126.8682
940.9750, 143.7148
942.0970, 206.4150
943.2180, 164.1768
944.3400, 113.9287
945.4610, 13.67188
946.5820, 58.40527
947.7030, 126.1279
948.8240, 44.84180
949.9450, 114.1465
951.0650, 6.242188
952.1860, 126.9160
953.3060, 33.59180
954.4260, 36.74609
955.5460, 1.247070
956.6650, 86.85254
957.7850, 14.02051
958.9040, 105.4551
960.0230, 26.99707
961.1420, 108.4209
962.2610, 1.172852
963.3800, 87.79199
964.4990, 146.4863
965.6170, 88.28418
966.7350, 9.843750
967.8530, 30.51953
968.9710, 28.02246
970.0890, 17.94141
971.2070, 16.06738
972.3240, 48.05469
973.4410, 48.96973
974.5580, 58.94922
975.6750, 89.85742
976.7920, 58.75098
977.9090, 104.6328
979.0250, 117.5029
980.1410, 72.36035
981.2580, 100.2451
982.3740, 154.0771
983.4890, 157.8975
984.6050, 147.1650
985.7200, 112.5088
986.8360, 111.3018
987.9510, 88.08105
989.0660, 116.8467
990.1810, 89.34082
991.2950, 93.00977
992.4100, 100.0664
993.5240, 98.80469
994.6390, 197.5283
995.7530, 234.3945
996.8660, 186.0205
997.9800, 197.2031
999.0940, 163.5029
1000.207, 56.18555
1001.320, 234.8633
1002.433, 70.52832
1003.546, 67.17676
1004.659, 219.8105
1005.772, 56.42969
1006.884, 100.0312
1007.996, 191.6182
1009.108, 183.5850
1010.220, 79.14453
1011.332, 253.7314
1012.444, 112.2607
1013.555, 54.77441
1014.666, 154.2715
1015.777, 150.7549
1016.888, 110.2227
1017.999, 112.6758
1019.110, 8.469727
1020.220, 240.9268
1021.331, 16.30859
1022.441, 272.1768
1023.551, 274.7871
1024.661, 235.1113
1025.770, 236.4209
1026.880, 180.7168
1027.989, 88.22070
1029.098, 156.4854
1030.207, 103.7344
1031.316, 82.13086
1032.425, 162.3467
1033.533, 171.6924
1034.642, 119.4287
1035.750, 121.5986
1036.858, 207.5596
1037.966, 127.6963
1039.073, 184.0625
1040.181, 215.3857
1041.288, 148.6240
1042.396, 168.7500
1043.503, 163.1191
1044.610, 251.0742
1045.716, 224.1025
1046.823, 204.3877
1047.929, 236.7900
1049.036, 205.7979
1050.142, 207.9131
1051.248, 267.4141
1052.353, 306.3994
1053.459, 285.3730
1054.564, 200.3496
1055.670, 191.2363
1056.775, 256.9795
1057.880, 307.6143
1058.985, 400.4531
1060.089, 223.5459
1061.194, 352.8604
1062.298, 210.6504
1063.402, 368.4248
1064.506, 282.1816
1065.610, 260.0596
1066.713, 310.9658
1067.817, 230.1855
1068.920, 385.0049
1070.023, 285.0156
1071.126, 280.6289
1072.229, 376.2988
1073.332, 427.9268
1074.435, 341.6602
1075.537, 231.2568
1076.639, 372.8359
1077.741, 462.4785
1078.843, 374.1582
1079.945, 321.6895
1081.046, 346.3301
1082.148, 402.8525
1083.249, 629.3359
1084.350, 581.7734
1085.451, 397.5352
1086.551, 598.8242
1087.652, 413.4102
1088.752, 341.4502
1089.853, 402.9111
1090.953, 240.8164
1092.053, 252.1143
1093.152, 350.1191
1094.252, 253.4453
1095.351, 331.9893
1096.451, 374.0537
1097.550, 212.4375
1098.649, 205.3994
1099.748, 309.7217
1100.846, 247.2422
1101.945, 277.0527
1103.043, 157.3232
1104.141, 120.7764
1105.239, 121.0146
1106.337, 338.2266
1107.434, 256.3428
1108.532, 254.4834
1109.629, 241.4785
1110.726, 166.2910
1111.823, 166.7324
1112.920, 93.84180
1114.017, 133.8193
1115.113, 216.0352
1116.210, 351.0986
1117.306, 228.1973
1118.402, 406.4590
1119.498, 314.4961
1120.593, 380.4561
1121.689, 227.4697
1122.784, 346.4971
1123.879, 293.4307
1124.974, 423.2324
1126.069, 175.1709
1127.164, 80.14941
1128.259, 222.4355
1129.353, 154.3740
1130.447, 276.3008
1131.541, 261.8457
1132.635, 225.0342
1133.729, 130.9238
1134.822, 231.7041
1135.916, 325.3652
1137.009, 156.2188
1138.102, 181.7393
1139.195, 141.4893
1140.288, 2.693359
1141.380, 247.0977
1142.473, 104.6982
1143.565, 142.4658
1144.657, 259.1729
1145.749, 167.5059
1146.841, 258.5762
1147.932, 149.2959
1149.024, 150.9346
1150.115, 4.430664
1151.206, 131.2510
1152.297, 156.9121
1153.388, 13.95703
1154.479, 44.59082
1155.569, 138.3965
1156.659, 163.1504
1157.750, 137.0635
1158.839, 55.66406
1159.929, 133.0547
1161.019, 142.6299
1162.108, 69.05957
1163.198, 145.3838
1164.287, 73.06250
1165.376, 8.672852
1166.465, 189.1074
1167.553, 1.538086
1168.642, 158.0254
1169.730, 48.44629
1170.818, 54.90820
1171.906, 71.36035
1172.994, 93.79980
1174.082, 32.22852
1175.170, 1.355469
1176.257, 121.0410
1177.344, 40.42871
1178.431, 17.80371
1179.518, 98.16602
1180.605, 68.51758
1181.691, 3.858398
1182.778, 92.18262
1183.864, 90.49805
1184.950, 85.80176
1186.036, 129.0957
1187.122, 34.61914
1188.207, 33.36816
1189.292, 196.8496
1190.378, 37.05762
1191.463, 3.254883
1192.548, 155.4375
1193.632, 167.6123
1194.717, 242.7773
1195.801, 66.93359
1196.886, 56.07812
1197.970, 119.5947
1199.054, 68.73242
1200.137, 71.85840
1201.221, 124.0010
1202.305, 150.1357
1203.388, 163.2656
1204.471, 68.38867
1205.554, 205.5000
1206.637, 211.6045
1207.719, 77.70020
1208.802, 3.212891
1209.884, 109.8613
1210.966, 65.93066
1212.048, 73.99121
1213.130, 112.0439
1214.212, 116.0879
1215.293, 30.87012
1216.374, 258.1426
1217.456, 25.85059
1218.536, 35.14648
1219.617, 73.14355
1220.698, 32.83887
1221.778, 45.84570
1222.859, 214.1484
1223.939, 145.1494
1225.019, 91.14355
1226.099, 138.1387
1227.178, 81.15625
1228.258, 177.2148
1229.337, 20.29590
1230.417, 174.3750
1231.496, 57.46289
1232.574, 84.54492
1233.653, 26.63477
1234.732, 35.71973
1235.810, 106.7988
1236.888, 67.89160
1237.966, 191.9805
1239.044, 105.0898
1240.122, 109.5391
1241.199, 235.4756
1242.277, 64.56543
1243.354, 123.6094
1244.431, 164.6865
1245.508, 211.7559
1246.585, 30.17871
1247.661, 37.86133
1248.738, 431.9072
1249.814, 837.9473
1250.890, 225.0117
1251.966, 66.04102
1253.042, 214.0645
1254.117, 90.24609
1255.193, 151.7178
1256.268, 61.32422
1257.343, 9.456055
1258.418, 167.3652
1259.493, 92.26855
1260.567, 23.83398
1261.642, 38.95605
1262.716, 225.8945
1263.790, 66.73926
1264.864, 328.5791
1265.938, 141.4150
1267.011, 119.2451
1268.085, 192.0713
1269.158, 126.8926
1270.231, 158.2969
1271.304, 89.12793
1272.377, 138.8936
1273.450, 213.6973
1274.522, 132.4971
1275.594, 4.293945
1276.666, 91.08496
1277.738, 435.8711
1278.810, 133.6533
1279.882, 328.0146
1280.953, 169.8018
1282.025, 205.5840
1283.096, 190.0566
1284.167, 43.02832
1285.238, 52.91504
1286.308, 11.91797
1287.379, 92.67969
1288.449, 224.2139
1289.519, 329.9678
1290.589, 208.7178
1291.659, 128.2998
1292.729, 51.04297
1293.798, 64.13574
1294.868, 273.8770
1295.937, 165.7988
1297.006, 181.7168
1298.075, 278.4385
1299.143, 144.9121
1300.212, 190.5273
1301.280, 185.1328
1302.348, 188.7871
1303.416, 253.1816
1304.484, 169.0811
1305.552, 200.7754
1306.620, 157.2324
1307.687, 201.5146
1308.754, 222.1738
1309.821, 169.7061
1310.888, 129.8516
1311.955, 138.4971
1313.021, 211.1328
1314.088, 338.7891
1315.154, 338.4756
1316.220, 156.5664
1317.286, 274.5312
1318.352, 208.2080
1319.417, 195.6543
1320.483, 250.8779
1321.548, 269.5420
1322.613, 296.1982
1323.678, 101.8525
1324.743, 468.3652
1325.807, 3.167969
1326.872, 260.4785
1327.936, 498.9951
1329.000, 268.5254
1330.064, 203.1670
1331.128, 188.8076
1332.191, 97.44531
1333.255, 286.9619
1334.318, 191.5977
1335.381, 207.2324
1336.444, 462.3262
1337.507, 375.6143
1338.569, 393.1572
1339.632, 465.7051
1340.694, 254.2471
1341.756, 355.8779
1342.818, 259.6426
1343.880, 243.9629
1344.941, 328.5928
1346.003, 243.2441
1347.064, 128.6230
1348.125, 308.1621
1349.186, 216.4111
1350.247, 119.8555
1351.308, 155.4756
1352.368, 127.0791
1353.428, 138.6836
1354.489, 202.2861
1355.549, 199.8516
1356.608, 168.4541
1357.668, 230.7646
1358.727, 170.3682
1359.787, 193.3457
1360.846, 156.5117
1361.905, 180.2793
1362.964, 315.6562
1364.022, 275.2695
1365.081, 67.78516
1366.139, 324.1973
1367.197, 21.21875
1368.255, 31.36328
1369.313, 112.9434
1370.371, 184.4961
1371.428, 256.0742
1372.486, 352.6543
1373.543, 386.2559
1374.600, 191.7949
1375.657, 257.5293
1376.713, 341.2148
1377.770, 69.93164
1378.826, 198.5117
1379.882, 226.2168
1380.938, 48.09570
1381.994, 76.97852
1383.050, 202.5469
