##NAMES=Columbite-(Fe)
##RRUFFID=R060001
##IDEAL CHEMISTRY=Fe^2+^Nb^5+^_2_O_6_
##LOCALITY=Gypsy mine, Minas Gerais, Brazil
##OWNER=RRUFF
##SOURCE=Eric Van Valkenburg
##DESCRIPTION=Steel gray fragment with internal red hints
##STATUS=The identification of this mineral has been confirmed by X-ray diffraction and chemical analysis
##URL=rruff.info/R060001
##MEASURED CHEMISTRY=(Fe^2+^_0.52_Mn^2+^_0.48_)_Σ=1_(Nb_1.61_Ta_0.39_)_Σ=2_O_6_
##PIN_ID=L01130
##ORIENTATION=Laser parallel to a* (1 0 0). Fiducial mark perpendicular to laser is parallel to -b [0 -1 0]
120.3580, 0.0000000E+00
121.5920, 55.62744
122.8270, 162.1729
124.0610, 367.2207
125.2950, 589.7412
126.5290, 875.8096
127.7630, 1077.992
128.9970, 1337.424
130.2300, 1515.159
131.4640, 1736.692
132.6970, 1798.914
133.9300, 1845.023
135.1630, 1875.652
136.3950, 1822.136
137.6280, 1813.675
138.8600, 1727.330
140.0920, 1845.120
141.3240, 1437.508
142.5560, 1128.914
143.7880, 930.9160
145.0190, 644.4653
146.2510, 536.5112
147.4820, 396.0127
148.7130, 248.9468
149.9440, 169.2793
151.1750, 173.9731
152.4050, 133.9946
153.6360, 46.31592
154.8660, 80.90918
156.0960, 42.24951
157.3260, 116.1836
158.5560, 122.9043
159.7850, 98.41260
161.0150, 9.707520
162.2440, 23.79004
163.4730, 171.3394
164.7020, 205.6724
165.9310, 255.2061
167.1590, 204.9229
168.3880, 202.7803
169.6160, 391.8013
170.8440, 450.9033
172.0720, 412.1167
173.3000, 426.4751
174.5280, 399.9839
175.7550, 382.7583
176.9820, 428.6313
178.2100, 328.5781
179.4370, 358.5757
180.6630, 248.6162
181.8900, 226.6958
183.1170, 201.8184
184.3430, 204.9873
185.5690, 198.1963
186.7950, 183.4346
188.0210, 312.6938
189.2470, 236.9727
190.4720, 278.2676
191.6970, 414.5767
192.9230, 472.8979
194.1480, 555.2603
195.3730, 632.6958
196.5970, 702.2563
197.8220, 754.0137
199.0460, 889.9272
200.2700, 1074.992
201.4940, 1240.201
202.7180, 1012.557
203.9420, 942.0957
205.1660, 718.7192
206.3890, 608.4424
207.6120, 627.2158
208.8350, 551.0688
210.0580, 433.8965
211.2810, 366.3911
212.5040, 341.3193
213.7260, 253.8184
214.9480, 199.2051
216.1700, 188.5869
217.3920, 63.95654
218.6140, 147.3550
219.8360, 161.7378
221.0570, 77.11719
222.2790, 141.4897
223.5000, 207.8467
224.7210, 66.35498
225.9410, 163.4526
227.1620, 183.0352
228.3820, 150.2334
229.6030, 271.4990
230.8230, 269.0469
232.0430, 290.9580
233.2630, 338.2539
234.4820, 413.9224
235.7020, 533.2686
236.9210, 596.3018
238.1400, 729.3208
239.3590, 731.3252
240.5780, 737.3149
241.7970, 852.2891
243.0150, 912.2476
244.2340, 909.4087
245.4520, 983.5425
246.6700, 1035.789
247.8880, 995.1606
249.1060, 1008.527
250.3230, 982.5176
251.5400, 941.2085
252.7580, 912.0156
253.9750, 875.8052
255.1920, 841.5767
256.4080, 821.3296
257.6250, 1012.064
258.8410, 1174.781
260.0580, 1276.478
261.2740, 1221.157
262.4900, 1036.817
263.7050, 953.4580
264.9210, 1024.081
266.1360, 951.0159
267.3520, 869.6240
268.5670, 897.2810
269.7820, 831.8813
270.9960, 786.7053
272.2110, 776.2068
273.4250, 730.4722
274.6400, 718.4624
275.8540, 633.6807
277.0680, 678.3594
278.2810, 624.4272
279.4950, 574.9619
280.7090, 596.4014
281.9220, 576.4277
283.1350, 466.3196
284.3480, 399.8079
285.5610, 490.5471
286.7730, 456.0371
287.9860, 453.8564
289.1980, 357.6865
290.4100, 323.0898
291.6220, 218.9624
292.8340, 316.4148
294.0460, 250.6472
295.2570, 225.5923
296.4690, 144.7920
297.6800, 147.4082
298.8910, 152.0156
300.1020, 95.72754
301.3120, 124.2529
302.5230, 166.7437
303.7330, 119.6868
304.9440, 178.2522
306.1540, 162.2014
307.3630, 146.3262
308.5730, 183.6987
309.7830, 129.0457
310.9920, 235.7493
312.2010, 217.6646
313.4100, 270.2004
314.6190, 190.1929
315.8280, 275.8879
317.0370, 225.5793
318.2450, 292.2664
319.4530, 278.0537
320.6610, 288.0671
321.8690, 204.7358
323.0770, 247.3967
324.2850, 211.0491
325.4920, 223.6931
326.6990, 104.3284
327.9060, 193.9541
329.1130, 156.5706
330.3200, 22.17725
331.5270, 62.76831
332.7330, 65.34717
333.9390, 56.91357
335.1450, 40.46704
336.3510, 2.993164
337.5570, 1.474609
338.7630, 97.02954
339.9680, 37.52197
341.1740, 59.99902
342.3790, 105.4617
343.5840, 93.91089
344.7890, 126.3469
345.9930, 79.77002
347.1980, 88.17700
348.4020, 83.56738
349.6060, 158.9399
350.8100, 130.2993
352.0140, 247.6465
353.2180, 147.9758
354.4210, 210.2874
355.6250, 217.5806
356.8280, 228.8528
358.0310, 263.1064
359.2340, 208.3435
360.4360, 262.5698
361.6390, 313.7798
362.8410, 155.9607
364.0430, 176.1436
365.2450, 84.30957
366.4470, 209.4624
367.6490, 147.5989
368.8510, 83.71875
370.0520, 133.8171
371.2530, 71.89771
372.4540, 61.95508
373.6550, 148.9849
374.8560, 127.9753
376.0560, 109.9438
377.2570, 59.89429
378.4570, 148.8267
379.6570, 177.7407
380.8570, 192.6384
382.0570, 199.5210
383.2560, 242.3889
384.4560, 198.2422
385.6550, 255.0801
386.8540, 346.9031
388.0530, 310.7112
389.2520, 413.5032
390.4510, 514.2795
391.6490, 510.0391
392.8470, 551.7820
394.0450, 461.5098
395.2430, 578.2209
396.4410, 494.9180
397.6390, 487.6003
398.8360, 456.2686
400.0340, 548.9226
401.2310, 417.5625
402.4280, 318.1890
403.6250, 352.8010
404.8210, 202.3997
406.0180, 292.9841
407.2140, 180.5554
408.4100, 19.11304
409.6060, 123.6506
410.8020, 96.16895
411.9980, 46.67065
413.1930, 22.14844
414.3890, 18.59399
415.5840, 11.79297
416.7790, 40.63037
417.9740, 21.32959
419.1680, 26.08154
420.3630, 14.11108
421.5570, 60.72974
422.7510, 38.35791
423.9450, 54.57959
425.1390, 17.58447
426.3330, 32.63623
427.5270, 43.74341
428.7200, 87.91040
429.9130, 45.15820
431.1060, 12.53784
432.2990, 84.63062
433.4920, 14.01953
434.6840, 37.19043
435.8770, 1.315674
437.0690, 11.20923
438.2610, 6.770996
439.4530, 28.63354
440.6450, 16.98877
441.8360, 58.33032
443.0280, 3.392822
444.2190, 19.26001
445.4100, 8.384277
446.6010, 55.39355
447.7920, 35.73022
448.9820, 108.7026
450.1730, 28.99902
451.3630, 69.28687
452.5530, 11.57568
453.7430, 77.83105
454.9330, 35.08374
456.1230, 1.679443
457.3120, 9.471680
458.5010, 83.70239
459.6910, 98.86426
460.8800, 110.0146
462.0680, 36.15308
463.2570, 3.278320
464.4460, 75.37842
465.6340, 141.4670
466.8220, 157.5444
468.0100, 196.0608
469.1980, 93.66602
470.3860, 208.5908
471.5730, 137.6245
472.7600, 101.6477
473.9480, 208.3762
475.1350, 68.88770
476.3210, 235.4219
477.5080, 113.8325
478.6950, 206.0547
479.8810, 223.7095
481.0670, 215.8691
482.2530, 219.6753
483.4390, 170.6809
484.6250, 164.0901
485.8100, 166.9109
486.9960, 203.8413
488.1810, 138.9805
489.3660, 281.6028
490.5510, 176.2898
491.7360, 101.9326
492.9200, 198.5256
494.1050, 129.4746
495.2890, 153.3286
496.4730, 95.18286
497.6570, 179.0391
498.8400, 202.8721
500.0240, 109.6985
501.2070, 217.5186
502.3910, 210.5239
503.5740, 171.3315
504.7570, 164.1335
505.9400, 192.0964
507.1220, 233.8870
508.3050, 235.3059
509.4870, 289.0854
510.6690, 342.8604
511.8510, 371.0969
513.0330, 427.8623
514.2140, 449.3293
515.3960, 424.6624
516.5770, 573.3613
517.7580, 574.1118
518.9390, 776.1233
520.1200, 762.4619
521.3010, 813.2002
522.4810, 964.9810
523.6610, 934.7144
524.8420, 1017.570
526.0220, 1067.299
527.2010, 1068.025
528.3810, 1169.750
529.5610, 1219.473
530.7400, 1090.194
531.9190, 1222.916
533.0980, 1170.635
534.2770, 1101.353
535.4560, 1056.072
536.6340, 1059.790
537.8120, 945.5073
538.9910, 885.2256
540.1690, 757.9443
541.3460, 709.6641
542.5240, 663.3848
543.7020, 679.1064
544.8790, 581.8296
546.0560, 509.5549
547.2330, 511.2825
548.4100, 443.0122
549.5870, 404.7449
550.7630, 371.5725
551.9400, 314.8865
553.1160, 290.6287
554.2920, 221.8901
555.4680, 173.4497
556.6440, 179.8879
557.8190, 133.8872
558.9950, 280.6631
560.1700, 121.8777
561.3450, 122.8096
562.5200, 178.1426
563.6950, 66.93555
564.8690, 171.1489
566.0440, 51.36938
567.2180, 62.93555
568.3920, 66.58130
569.5660, 79.55640
570.7400, 26.78784
571.9130, 6.733154
573.0870, 0.7729490
574.2600, 3.751953
575.4330, 6.257080
576.6060, 6.078369
577.7790, 11.48340
578.9520, 34.58130
580.1240, 28.16699
581.2960, 43.52783
582.4690, 50.50049
583.6410, 49.51465
584.8120, 10.21411
585.9840, 23.30591
587.1560, 23.70898
588.3270, 5.942871
589.4980, 52.30493
590.6690, 35.72998
591.8400, 98.28662
593.0110, 88.35547
594.1810, 78.27637
595.3510, 93.37964
596.5220, 85.28735
597.6920, 140.5913
598.8610, 61.45459
600.0310, 113.6294
601.2010, 179.8237
602.3700, 146.0366
603.5390, 204.1626
604.7080, 100.0762
605.8770, 128.3472
607.0460, 107.6382
608.2140, 69.94873
609.3830, 130.2798
610.5510, 157.6309
611.7190, 118.0034
612.8870, 116.3965
614.0550, 37.81104
615.2220, 81.25244
616.3900, 139.7178
617.5570, 108.2065
618.7240, 6.280762
619.8910, 7.256836
621.0580, 52.17236
622.2240, 47.41748
623.3910, 46.03076
624.5570, 35.67139
625.7230, 24.33691
626.8890, 9.974121
628.0550, 13.26270
629.2200, 125.4688
630.3860, 11.22607
631.5510, 69.00781
632.7160, 32.18604
633.8810, 44.36230
635.0460, 42.47607
636.2100, 1.337891
637.3750, 0.2246090
638.5390, 11.13574
639.7030, 70.07178
640.8670, 58.03271
642.0310, 48.98096
643.1950, 11.02002
644.3580, 11.04639
645.5210, 48.90137
646.6850, 76.16553
647.8480, 37.74121
649.0100, 6.371582
650.1730, 35.51025
651.3350, 32.32422
652.4980, 29.86230
653.6600, 27.07568
654.8220, 50.31738
655.9840, 43.41162
657.1450, 2.877441
658.3070, 17.80615
659.4680, 2.464844
660.6300, 10.90576
661.7910, 3.558105
662.9510, 10.72900
664.1120, 9.817871
665.2730, 33.67041
666.4330, 51.18750
667.5930, 11.73438
668.7530, 25.30957
669.9130, 57.91602
671.0730, 48.73535
672.2320, 56.91748
673.3920, 89.93457
674.5510, 57.67871
675.7100, 108.4526
676.8690, 132.2788
678.0280, 143.1436
679.1860, 194.0483
680.3450, 189.9907
681.5030, 181.9814
682.6610, 210.0190
683.8190, 115.1006
684.9770, 172.2344
686.1340, 168.4089
687.2920, 205.6230
688.4490, 236.8872
689.6060, 198.1931
690.7630, 211.5439
691.9200, 253.9397
693.0760, 279.3901
694.2330, 243.8923
695.3890, 396.4446
696.5450, 315.0410
697.7010, 335.6992
698.8570, 404.4131
700.0130, 355.1738
701.1680, 446.0024
702.3230, 469.8716
703.4780, 458.7983
704.6330, 405.7769
705.7880, 461.8179
706.9430, 513.9102
708.0970, 529.0684
709.2520, 545.2837
710.4060, 506.5667
711.5600, 633.9062
712.7140, 540.1255
713.8670, 609.5579
715.0210, 683.7896
716.1740, 626.3489
717.3270, 641.9590
718.4800, 610.6128
719.6330, 800.3101
720.7860, 761.0522
721.9380, 791.8308
723.0910, 746.9294
724.2430, 809.4575
725.3950, 816.4219
726.5470, 880.8564
727.6980, 892.8530
728.8500, 935.1914
730.0010, 1017.258
731.1530, 1055.360
732.3040, 1085.493
733.4550, 1073.662
734.6050, 1149.863
735.7560, 1127.097
736.9060, 1118.373
738.0560, 1259.692
739.2060, 1323.042
740.3560, 1256.428
741.5060, 1337.845
742.6560, 1389.293
743.8050, 1483.779
744.9540, 1496.297
746.1030, 1610.846
747.2520, 1708.425
748.4010, 1720.928
749.5500, 1665.683
750.6980, 1762.358
751.8460, 1734.064
752.9950, 1721.801
754.1420, 1956.573
755.2900, 1882.729
756.4380, 1997.205
757.5850, 1925.950
758.7330, 2002.842
759.8800, 2056.336
761.0270, 2000.291
762.1730, 2120.275
763.3200, 2158.287
764.4670, 2210.329
765.6130, 2363.223
766.7590, 2300.078
767.9050, 2223.207
769.0510, 2539.366
770.1960, 2434.554
771.3420, 2554.046
772.4870, 2487.202
773.6320, 2577.473
774.7770, 2566.766
775.9220, 2585.079
777.0670, 2526.437
778.2110, 2582.260
779.3560, 2597.829
780.5000, 2671.484
781.6440, 2683.951
782.7880, 2741.444
783.9320, 2793.799
785.0750, 2820.347
786.2180, 2737.104
787.3620, 2763.706
788.5050, 2769.334
789.6480, 2821.342
790.7900, 2879.022
791.9330, 2843.727
793.0750, 2844.457
794.2170, 2875.266
795.3590, 2965.045
796.5010, 2992.571
797.6430, 3045.156
798.7850, 3032.206
799.9260, 3106.058
801.0670, 2981.963
802.2080, 2940.548
803.3490, 2933.500
804.4900, 2932.652
805.6310, 2981.651
806.7710, 3057.043
807.9110, 3069.088
809.0510, 3045.852
810.1910, 3034.985
811.3310, 3103.097
812.4710, 3121.244
813.6100, 3165.705
814.7490, 3204.824
815.8880, 3244.243
817.0270, 3287.742
818.1660, 3330.140
819.3050, 3365.635
820.4430, 3434.127
821.5820, 3446.426
822.7200, 3530.022
823.8580, 3687.424
824.9950, 3526.270
826.1330, 3713.106
827.2710, 3692.188
828.4080, 3742.965
829.5450, 3717.878
830.6820, 3887.540
831.8190, 3948.141
832.9560, 3960.991
834.0920, 3941.486
835.2280, 4033.777
836.3650, 4016.342
837.5010, 4129.308
838.6360, 4197.405
839.7720, 4252.083
840.9080, 4301.654
842.0430, 4416.671
843.1780, 4497.361
844.3130, 4546.778
845.4480, 4640.275
846.5830, 4796.798
847.7170, 4816.182
848.8520, 5127.320
849.9860, 5279.238
851.1200, 5515.409
852.2540, 5653.068
853.3870, 5845.231
854.5210, 6226.905
855.6540, 6491.912
856.7880, 6837.101
857.9210, 7226.870
859.0540, 7626.037
860.1860, 8067.337
861.3190, 8611.068
862.4510, 9154.794
863.5840, 9837.716
864.7160, 10516.91
865.8480, 11317.75
866.9790, 12102.60
868.1110, 13099.55
869.2420, 14039.35
870.3740, 14955.15
871.5050, 15810.09
872.6360, 16535.52
873.7660, 16920.52
874.8970, 16848.54
876.0280, 16878.51
877.1580, 16174.47
878.2880, 15520.31
879.4180, 14299.27
880.5480, 13063.38
881.6770, 11554.30
882.8070, 10181.36
883.9360, 8765.021
885.0650, 7415.017
886.1940, 6160.210
887.3230, 5138.199
888.4520, 4313.208
889.5800, 3692.392
890.7090, 3186.231
891.8370, 2664.012
892.9650, 2275.042
894.0930, 1985.126
895.2200, 1714.146
896.3480, 1576.826
897.4750, 1300.027
898.6020, 1182.888
899.7290, 1114.659
900.8560, 995.7563
901.9830, 894.2507
903.1090, 719.7566
904.2360, 677.0171
905.3620, 583.9805
906.4880, 472.7295
907.6140, 493.5120
908.7400, 383.4194
909.8650, 400.4373
910.9900, 318.5447
912.1160, 382.6284
913.2410, 224.6135
914.3660, 258.4775
915.4900, 191.2634
916.6150, 153.9761
917.7390, 166.7832
918.8640, 190.9307
919.9880, 190.6697
921.1120, 182.9275
922.2350, 105.4097
923.3590, 133.0852
924.4820, 115.8159
925.6060, 58.47803
926.7290, 78.13110
927.8520, 51.77539
928.9740, 78.51123
930.0970, 17.14014
931.2190, 38.04004
932.3420, 28.65088
933.4640, 41.25195
934.5860, 65.84155
935.7080, 29.42090
936.8290, 23.95654
937.9510, 35.58374
939.0720, 5.112061
940.1930, 34.62573
941.3140, 2.193604
942.4350, 58.67773
943.5560, 1.850830
944.6760, 54.39917
945.7960, 30.00391
946.9170, 19.39355
948.0370, 72.23047
949.1560, 17.91431
950.2760, 21.62915
951.3960, 11.27173
952.5150, 51.04980
953.6340, 46.28174
954.7530, 34.64941
955.8720, 62.50171
956.9910, 18.48071
958.1090, 14.49585
959.2280, 52.54077
960.3460, 19.64502
961.4640, 6.773926
962.5820, 32.94775
963.6990, 66.16479
964.8170, 45.44824
965.9340, 27.78516
967.0510, 0.8332520
968.1690, 40.57788
969.2850, 13.95874
970.4020, 46.47144
971.5190, 46.03345
972.6350, 23.40625
973.7510, 43.82324
974.8670, 37.77856
975.9830, 3.583984
977.0990, 10.90991
978.2150, 33.50391
979.3300, 17.74341
980.4450, 17.96606
981.5600, 23.16187
982.6750, 33.33228
983.7900, 10.47925
984.9050, 10.40356
986.0190, 18.67188
987.1340, 9.280762
988.2480, 102.7251
989.3620, 47.71265
990.4750, 8.322021
991.5890, 74.60254
992.7020, 55.50732
993.8160, 29.39014
994.9290, 94.24609
996.0420, 100.0830
997.1550, 64.91064
998.2670, 12.71704
999.3800, 82.48975
1000.492, 81.27686
1001.604, 69.00830
1002.716, 98.87939
1003.828, 98.56787
1004.940, 75.28223
1006.051, 42.98218
1007.163, 70.60107
1008.274, 69.19775
1009.385, 24.89502
1010.496, 78.48193
1011.606, 103.0020
1012.717, 81.64648
1013.827, 68.13208
1014.937, 88.59570
1016.047, 73.81860
1017.157, 39.66138
1018.267, 82.05176
1019.377, 65.43921
1020.486, 84.79321
1021.595, 83.14014
1022.704, 23.61865
1023.813, 116.8792
1024.922, 142.1174
1026.030, 83.58496
1027.139, 78.78101
1028.247, 86.04468
1029.355, 44.18921
1030.463, 71.39600
1031.571, 116.5769
1032.678, 170.6643
1033.786, 80.84570
1034.893, 133.0740
1036.000, 73.08252
1037.107, 69.05518
1038.214, 97.07520
1039.321, 144.9966
1040.427, 135.9658
1041.533, 106.8428
1042.639, 91.89111
1043.745, 82.73926
1044.851, 84.80200
1045.957, 95.68115
1047.062, 114.5017
1048.168, 132.2900
1049.273, 165.3762
1050.378, 127.1230
1051.482, 79.89282
1052.587, 142.6538
1053.692, 87.26270
1054.796, 173.8464
1055.900, 165.4067
1057.004, 140.1204
1058.108, 177.8191
1059.212, 193.3406
1060.315, 166.9187
1061.418, 133.3647
1062.522, 200.8005
1063.625, 101.2009
1064.728, 177.7368
1065.830, 177.1370
1066.933, 197.4683
1068.035, 183.7817
1069.137, 148.0642
1070.239, 191.5417
1071.341, 183.7786
1072.443, 196.8162
1073.545, 145.0078
1074.646, 218.8071
1075.747, 273.9634
1076.848, 220.5613
1077.949, 233.6606
1079.050, 172.7471
1080.150, 213.7908
1081.251, 211.6040
1082.351, 200.8760
1083.451, 124.8367
1084.551, 190.3340
1085.651, 120.3162
1086.750, 175.4832
1087.850, 123.1848
1088.949, 189.0979
1090.048, 166.6829
1091.147, 130.4585
1092.246, 142.8049
1093.345, 122.3843
1094.443, 134.3591
1095.541, 120.8447
1096.639, 121.1128
1097.737, 133.6174
1098.835, 117.2393
1099.933, 128.5522
1101.030, 170.2317
1102.128, 125.2441
1103.225, 127.9709
1104.322, 111.2581
1105.419, 156.4128
1106.515, 174.8730
1107.612, 93.43604
1108.708, 110.4321
1109.804, 38.86304
1110.900, 173.8997
1111.996, 96.81445
1113.092, 122.5056
1114.187, 139.2151
1115.283, 134.1636
1116.378, 123.9211
1117.473, 118.4197
1118.568, 112.0447
1119.662, 105.6443
1120.757, 106.1643
1121.851, 102.2014
1122.946, 108.5344
1124.040, 113.1196
1125.134, 113.2192
1126.227, 92.20020
1127.321, 91.65601
1128.414, 138.4275
1129.508, 161.5732
1130.601, 139.3599
1131.693, 75.55176
1132.786, 104.7195
1133.879, 44.72803
1134.971, 111.8733
1136.064, 72.04468
1137.156, 70.03125
1138.248, 104.5076
1139.339, 127.5315
1140.431, 52.42554
1141.522, 70.37158
1142.614, 109.4114
1143.705, 49.47583
1144.796, 94.54907
1145.887, 105.8113
1146.977, 55.69336
1148.068, 58.88428
1149.158, 127.9973
1150.248, 75.76416
1151.338, 77.32056
1152.428, 73.06665
1153.518, 35.77686
1154.607, 107.2966
1155.696, 111.1543
1156.785, 23.05347
1157.874, 76.82690
1158.963, 54.46484
1160.052, 97.07837
1161.141, 54.14673
1162.229, 53.60815
1163.317, 70.46777
1164.405, 42.45361
1165.493, 25.10449
1166.581, 71.85864
1167.668, 114.2466
1168.756, 55.54907
1169.843, 87.08545
1170.930, 55.94214
1172.017, 132.6282
1173.103, 25.32739
1174.190, 66.74854
1175.276, 8.206299
1176.363, 60.58936
1177.449, 53.98926
1178.535, 55.49170
1179.620, 1.053467
1180.706, 53.68115
1181.791, 42.19653
1182.877, 37.38525
1183.962, 74.96924
1185.047, 67.23242
1186.131, 76.84717
1187.216, 24.40674
1188.300, 22.02222
1189.385, 58.64282
1190.469, 39.25659
1191.553, 88.77100
1192.637, 61.37183
1193.720, 65.15454
1194.804, 25.06958
1195.887, 51.66528
1196.970, 62.12744
1198.053, 60.57983
1199.136, 63.02271
1200.219, 70.48877
1201.301, 100.9570
1202.383, 71.45850
1203.465, 61.94653
1204.547, 107.4429
1205.629, 56.84448
1206.711, 18.24780
1207.792, 48.63330
1208.874, 56.04712
1209.955, 70.56055
1211.036, 36.93774
1212.117, 8.477051
1213.198, 10.70776
1214.278, 21.37720
1215.359, 10.03833
1216.439, 21.43335
1217.519, 53.15381
1218.599, 47.49731
1219.678, 63.92261
1220.758, 72.43799
1221.837, 50.10986
1222.917, 52.62988
1223.996, 26.23047
1225.075, 32.67407
1226.153, 51.12109
1227.232, 60.59155
1228.310, 39.08960
1229.389, 63.67188
1230.467, 50.15259
1231.545, 19.20972
1232.622, 20.69556
1233.700, 28.26929
1234.777, 27.75757
1235.855, 61.24048
1236.932, 94.71680
1238.009, 50.71118
1239.086, 68.85913
1240.162, 4.868652
1241.239, 3.403320
1242.315, 25.05664
1243.391, 53.55542
1244.467, 59.08081
1245.543, 24.62720
1246.619, 69.24927
1247.694, 81.86035
1248.769, 89.50610
1249.844, 18.03931
1250.919, 59.64526
1251.994, 2.915527
1253.069, 69.52515
1254.144, 70.95947
1255.218, 38.41650
1256.292, 6.934326
1257.366, 44.64233
1258.440, 32.82251
1259.514, 51.32861
1260.587, 37.73120
1261.661, 37.11279
1262.734, 71.54932
1263.807, 60.94800
1264.880, 38.21094
1265.952, 58.54614
1267.025, 50.83936
1268.097, 19.18359
1269.170, 39.52881
1270.242, 39.74536
1271.314, 14.04004
1272.385, 37.54028
1273.457, 1.700195
1274.528, 11.89307
1275.600, 58.39941
1276.671, 9.385986
1277.742, 83.25659
1278.812, 56.61621
1279.883, 64.88965
1280.954, 76.16870
1282.024, 70.31592
1283.094, 72.50830
1284.164, 58.19946
1285.234, 72.45605
1286.303, 15.63892
1287.373, 31.88110
1288.442, 64.02686
1289.511, 19.26270
1290.580, 37.31616
1291.649, 19.48633
1292.718, 6.850342
1293.786, 5.105713
1294.855, 67.29834
1295.923, 34.49414
