##NAMES=Columbite-(Fe)
##RRUFFID=R060001
##IDEAL CHEMISTRY=Fe^2+^Nb^5+^_2_O_6_
##LOCALITY=Gypsy mine, Minas Gerais, Brazil
##OWNER=RRUFF
##SOURCE=Eric Van Valkenburg
##DESCRIPTION=Steel gray fragment with internal red hints
##STATUS=The identification of this mineral has been confirmed by X-ray diffraction and chemical analysis
##URL=rruff.info/R060001
##MEASURED CHEMISTRY=(Fe^2+^_0.52_Mn^2+^_0.48_)_Σ=1_(Nb_1.61_Ta_0.39_)_Σ=2_O_6_
##PIN_ID=L01167
##ORIENTATION=Laser parallel to c* (0 0 1). Fiducial mark perpendicular to laser is parallel to -a [-1 0 0]
124.0610, 0.0000000E+00
125.2950, 2.496094
126.5290, 198.8037
127.7630, 642.7070
128.9970, 1018.525
130.2300, 1211.735
131.4640, 1417.338
132.6970, 1423.874
133.9300, 1489.219
135.1630, 1738.891
136.3950, 2204.836
137.6280, 2002.176
138.8600, 1983.827
140.0920, 1600.587
141.3240, 1264.569
142.5560, 535.2500
143.7880, 424.3848
145.0190, 150.7773
146.2510, 135.6377
147.4820, 60.45020
148.7130, 127.9209
149.9440, 227.0752
151.1750, 404.3496
152.4050, 361.9189
153.6360, 290.1416
154.8660, 127.0820
156.0960, 155.1064
157.3260, 278.7617
158.5560, 188.5498
159.7850, 273.9834
161.0150, 360.0752
162.2440, 492.8525
163.4730, 559.3574
164.7020, 560.6162
165.9310, 486.6514
167.1590, 458.8242
168.3880, 251.0928
169.6160, 314.1641
170.8440, 153.3926
172.0720, 126.1484
173.3000, 54.41504
174.5280, 27.46777
175.7550, 30.78320
176.9820, 81.72363
178.2100, 60.97754
179.4370, 175.6494
180.6630, 27.19922
181.8900, 37.36035
183.1170, 119.9180
184.3430, 214.5293
185.5690, 225.9590
186.7950, 310.7441
188.0210, 405.0605
189.2470, 455.7490
190.4720, 534.2090
191.6970, 676.4521
192.9230, 811.4883
194.1480, 782.3262
195.3730, 1019.976
196.5970, 1097.442
197.8220, 1310.806
199.0460, 1430.272
200.2700, 1658.832
201.4940, 1702.463
202.7180, 1925.142
203.9420, 1558.845
205.1660, 1412.547
206.3890, 1255.233
207.6120, 1315.897
208.8350, 1005.519
210.0580, 908.9932
211.2810, 876.3311
212.5040, 591.6162
213.7260, 699.8174
214.9480, 391.9453
216.1700, 202.0068
217.3920, 182.0117
218.6140, 88.96484
219.8360, 18.51367
221.0570, 27.91211
222.2790, 40.60254
223.5000, 10.94434
224.7210, 65.36816
225.9410, 1.550781
227.1620, 69.05762
228.3820, 4.649414
229.6030, 111.9424
230.8230, 174.2148
232.0430, 182.4160
233.2630, 302.8691
234.4820, 361.5059
235.7020, 473.5146
236.9210, 506.7559
238.1400, 575.8340
239.3590, 628.9180
240.5780, 702.0479
241.7970, 678.1797
243.0150, 689.5635
244.2340, 637.8271
245.4520, 860.4883
246.6700, 754.8926
247.8880, 759.1660
249.1060, 917.3242
250.3230, 820.3711
251.5400, 855.3740
252.7580, 876.3438
253.9750, 880.2871
255.1920, 978.2070
256.4080, 959.6270
257.6250, 1020.950
258.8410, 1062.434
260.0580, 1085.188
261.2740, 1033.107
262.4900, 1077.580
263.7050, 1083.306
264.9210, 1243.556
266.1360, 1171.230
267.3520, 1111.882
268.5670, 1146.510
269.7820, 1143.117
270.9960, 1142.259
272.2110, 1078.275
273.4250, 970.1875
274.6400, 1090.866
275.8540, 1120.290
277.0680, 1077.396
278.2810, 958.1787
279.4950, 755.6689
280.7090, 643.9043
281.9220, 713.8428
283.1350, 708.9277
284.3480, 599.8340
285.5610, 660.5654
286.7730, 589.0557
287.9860, 593.3750
289.1980, 620.5586
290.4100, 754.6387
291.6220, 647.9951
292.8340, 624.1152
294.0460, 815.3564
295.2570, 820.8535
296.4690, 734.5186
297.6800, 867.5527
298.8910, 930.3271
300.1020, 818.5928
301.3120, 891.8203
302.5230, 942.2100
303.7330, 833.2051
304.9440, 690.7705
306.1540, 687.6562
307.3630, 508.8545
308.5730, 584.1768
309.7830, 603.4551
310.9920, 465.7012
312.2010, 615.9131
313.4100, 549.1123
314.6190, 410.6719
315.8280, 541.4629
317.0370, 484.4062
318.2450, 507.9863
319.4530, 539.5166
320.6610, 434.2793
321.8690, 530.6270
323.0770, 450.7646
324.2850, 430.5400
325.4920, 253.5850
326.6990, 344.6260
327.9060, 279.8574
329.1130, 122.2979
330.3200, 78.51074
331.5270, 242.7617
332.7330, 188.3281
333.9390, 74.25488
335.1450, 41.35156
336.3510, 68.58203
337.5570, 103.5840
338.7630, 9.338867
339.9680, 6.214844
341.1740, 31.95312
342.3790, 8.633789
343.5840, 69.44238
344.7890, 24.77246
345.9930, 76.15625
347.1980, 144.6045
348.4020, 9.861328
349.6060, 74.71582
350.8100, 54.35938
352.0140, 73.06348
353.2180, 18.16699
354.4210, 15.02832
355.6250, 121.4932
356.8280, 40.58008
358.0310, 19.61719
359.2340, 30.38379
360.4360, 148.3594
361.6390, 21.77148
362.8410, 178.8926
364.0430, 234.6035
365.2450, 320.9736
366.4470, 282.5752
367.6490, 246.6611
368.8510, 340.7773
370.0520, 344.6709
371.2530, 421.6074
372.4540, 472.8848
373.6550, 633.1836
374.8560, 756.0342
376.0560, 891.2910
377.2570, 944.4092
378.4570, 1066.109
379.6570, 1278.928
380.8570, 1369.065
382.0570, 1559.566
383.2560, 1600.064
384.4560, 1856.938
385.6550, 1916.721
386.8540, 1954.472
388.0530, 2146.181
389.2520, 2191.852
390.4510, 2347.522
391.6490, 2384.185
392.8470, 2457.843
394.0450, 2482.486
395.2430, 2451.755
396.4410, 2450.787
397.6390, 2402.425
398.8360, 2327.061
400.0340, 2407.705
401.2310, 2044.347
402.4280, 1910.984
403.6250, 1956.618
404.8210, 1691.250
406.0180, 1608.892
407.2140, 1575.548
408.4100, 1325.201
409.6060, 1109.860
410.8020, 1199.517
411.9980, 1066.171
413.1930, 793.8242
414.3890, 856.4756
415.5840, 639.0889
416.7790, 729.6729
417.9740, 621.2197
419.1680, 555.7402
420.3630, 586.2256
421.5570, 442.6787
422.7510, 549.0986
423.9450, 484.4893
425.1390, 420.8516
426.3330, 425.1855
427.5270, 386.4951
428.7200, 493.7822
429.9130, 555.0469
431.1060, 509.2891
432.2990, 449.5117
433.4920, 346.7158
434.6840, 523.8994
435.8770, 417.0674
437.0690, 507.2217
438.2610, 463.3633
439.4530, 536.5391
440.6450, 561.7051
441.8360, 581.8555
443.0280, 581.6230
444.2190, 522.1211
445.4100, 514.2422
446.6010, 491.3574
447.7920, 404.4639
448.9820, 426.9219
450.1730, 563.0127
451.3630, 603.1377
452.5530, 463.2100
453.7430, 348.2031
454.9330, 560.2666
456.1230, 466.1982
457.3120, 547.9814
458.5010, 621.5430
459.6910, 463.4150
460.8800, 632.7373
462.0680, 667.7500
463.2570, 574.1191
464.4460, 592.2500
465.6340, 548.6465
466.8220, 549.0498
468.0100, 633.1084
469.1980, 635.7012
470.3860, 708.7002
471.5730, 712.4521
472.7600, 588.2227
473.9480, 751.3633
475.1350, 662.9941
476.3210, 784.4082
477.5080, 830.5293
478.6950, 727.9209
479.8810, 853.4014
481.0670, 753.0527
482.2530, 938.0625
483.4390, 672.2881
484.6250, 745.1494
485.8100, 777.5430
486.9960, 733.0996
488.1810, 799.4844
489.3660, 731.6709
490.5510, 753.5898
491.7360, 713.1748
492.9200, 760.5410
494.1050, 643.2168
495.2890, 594.7539
496.4730, 625.8135
497.6570, 589.4297
498.8400, 670.3955
500.0240, 610.2715
501.2070, 746.5352
502.3910, 763.9756
503.5740, 584.5576
504.7570, 705.6270
505.9400, 721.3916
507.1220, 656.4238
508.3050, 575.6289
509.4870, 613.8574
510.6690, 712.1016
511.8510, 848.3965
513.0330, 781.7109
514.2140, 926.0557
515.3960, 911.4473
516.5770, 942.8691
517.7580, 1054.312
518.9390, 1058.241
520.1200, 1070.251
521.3010, 1141.746
522.4810, 1322.288
523.6610, 1359.814
524.8420, 1461.356
526.0220, 1566.913
527.2010, 1648.486
528.3810, 1688.159
529.5610, 1667.768
530.7400, 1784.523
531.9190, 1901.421
533.0980, 1715.084
534.2770, 1600.046
535.4560, 1648.744
536.6340, 1576.461
537.8120, 1599.196
538.9910, 1482.952
540.1690, 1358.728
541.3460, 1206.980
542.5240, 1194.795
543.7020, 1077.469
544.8790, 1030.483
546.0560, 988.3574
547.2330, 895.1416
548.4100, 960.9424
549.5870, 927.8789
550.7630, 815.6914
551.9400, 745.6709
553.1160, 834.6699
554.2920, 770.6934
555.4680, 781.2061
556.6440, 670.8027
557.8190, 777.3242
558.9950, 741.4365
560.1700, 739.2373
561.3450, 725.3965
562.5200, 622.5791
563.6950, 600.7871
564.8690, 756.0195
566.0440, 554.2773
567.2180, 676.5615
568.3920, 610.8721
569.5660, 626.2080
570.7400, 762.5723
571.9130, 648.9629
573.0870, 767.3818
574.2600, 532.8271
575.4330, 628.3018
576.6060, 376.8066
577.7790, 441.3379
578.9520, 390.8994
580.1240, 411.4893
581.2960, 241.1104
582.4690, 316.7598
583.6410, 171.4395
584.8120, 278.1484
585.9840, 13.88867
587.1560, 65.65918
588.3270, 110.4619
589.4980, 53.70508
590.6690, 133.1357
591.8400, 68.99121
593.0110, 18.88672
594.1810, 44.20508
595.3510, 46.28223
596.5220, 130.3467
597.6920, 85.42969
598.8610, 35.51465
600.0310, 130.5811
601.2010, 76.66699
602.3700, 30.25195
603.5390, 4.795898
604.7080, 136.8154
605.8770, 78.85449
607.0460, 56.88965
608.2140, 12.08789
609.3830, 29.75000
610.5510, 84.14746
611.7190, 53.23047
612.8870, 60.34961
614.0550, 24.51172
615.2220, 125.7168
616.3900, 136.9600
617.5570, 163.2412
618.7240, 89.56641
619.8910, 165.2402
621.0580, 163.3877
622.2240, 259.9189
623.3910, 270.5039
624.5570, 303.1426
625.7230, 281.8447
626.8890, 468.6025
628.0550, 458.4346
629.2200, 536.3291
630.3860, 477.2998
631.5510, 567.3652
632.7160, 605.4854
633.8810, 607.6807
635.0460, 600.9463
636.2100, 629.4697
637.3750, 527.6836
638.5390, 631.1309
639.7030, 672.6670
640.8670, 608.2539
642.0310, 734.8906
643.1950, 658.5928
644.3580, 605.3379
645.5210, 524.1455
646.6850, 586.9941
647.8480, 454.8818
649.0100, 533.8105
650.1730, 285.7793
651.3350, 384.7881
652.4980, 429.8359
653.6600, 193.9238
654.8220, 277.0518
655.9840, 371.2188
657.1450, 271.4277
658.3070, 92.67383
659.4680, 24.96191
660.6300, 116.2891
661.7910, 1.657227
662.9510, 98.06348
664.1120, 134.5107
665.2730, 92.99805
666.4330, 30.52637
667.5930, 36.90625
668.7530, 71.69141
669.9130, 4.669922
671.0730, 41.99316
672.2320, 18.47949
673.3920, 11.54395
674.5510, 72.23828
675.7100, 42.06152
676.8690, 47.92578
678.0280, 42.83105
679.1860, 14.79980
680.3450, 98.19141
681.5030, 92.82715
682.6610, 10.88672
683.8190, 205.0352
684.9770, 79.22461
686.1340, 85.53809
687.2920, 109.2861
688.4490, 150.9717
689.6060, 60.69043
690.7630, 80.70312
691.9200, 14.13867
693.0760, 47.62695
694.2330, 18.17090
695.3890, 66.77930
696.5450, 50.52832
697.7010, 62.20801
698.8570, 57.01465
700.0130, 116.8174
701.1680, 132.7334
702.3230, 91.72754
703.4780, 131.7627
704.6330, 143.8477
705.7880, 198.9932
706.9430, 166.2275
708.0970, 155.5186
709.2520, 229.8770
710.4060, 237.2793
711.5600, 172.7246
712.7140, 323.2119
713.8670, 267.7705
715.0210, 270.3760
716.1740, 459.0303
717.3270, 227.7256
718.4800, 491.4629
719.6330, 431.2422
720.7860, 280.0664
721.9380, 431.9365
723.0910, 559.8564
724.2430, 481.8281
725.3950, 430.8398
726.5470, 574.8975
727.6980, 616.9961
728.8500, 623.7744
730.0010, 598.9531
731.1530, 566.1270
732.3040, 697.3887
733.4550, 780.7578
734.6050, 669.0898
735.7560, 750.5850
736.9060, 701.2598
738.0560, 835.1914
739.2060, 841.8564
740.3560, 772.1094
741.5060, 885.7168
742.6560, 778.0293
743.8050, 974.6309
744.9540, 1029.016
746.1030, 890.4395
747.2520, 960.2588
748.4010, 843.1201
749.5500, 964.0234
750.6980, 1010.968
751.8460, 1024.953
752.9950, 1039.979
754.1420, 1097.589
755.2900, 1182.162
756.4380, 1176.314
757.5850, 1196.512
758.7330, 1176.749
759.8800, 1211.026
761.0270, 1299.345
762.1730, 1346.701
763.3200, 1270.098
764.4670, 1254.535
765.6130, 1242.010
766.7590, 1494.523
767.9050, 1347.075
769.0510, 1565.665
770.1960, 1533.291
771.3420, 1427.955
772.4870, 1422.656
773.6320, 1439.394
774.7770, 1451.297
775.9220, 1516.977
777.0670, 1567.822
778.2110, 1554.703
779.3560, 1618.619
780.5000, 1534.570
781.6440, 1653.556
782.7880, 1637.575
783.9320, 1733.630
785.0750, 1557.719
786.2180, 1616.840
787.3620, 1472.996
788.5050, 1643.187
789.6480, 1817.409
790.7900, 1729.336
791.9330, 1747.954
793.0750, 1785.277
794.2170, 1653.632
795.3590, 1854.020
796.5010, 1947.438
797.6430, 1961.891
798.7850, 1918.374
799.9260, 1877.857
801.0670, 2053.404
802.2080, 2028.981
803.3490, 2043.591
804.4900, 2039.230
805.6310, 2228.820
806.7710, 2283.523
807.9110, 2392.125
809.0510, 2243.635
810.1910, 2376.429
811.3310, 2405.972
812.4710, 2724.824
813.6100, 2857.707
814.7490, 3007.619
815.8880, 3230.431
817.0270, 3311.400
818.1660, 3454.941
819.3050, 3547.969
820.4430, 3849.745
821.5820, 4027.828
822.7200, 4333.302
823.8580, 4453.555
824.9950, 4460.836
826.1330, 4701.682
827.2710, 4864.482
828.4080, 4857.729
829.5450, 4897.637
830.6820, 4925.733
831.8190, 5015.097
832.9560, 5022.115
834.0920, 4960.812
835.2280, 5143.203
836.3650, 5241.393
837.5010, 5207.775
838.6360, 5189.484
839.7720, 5210.967
840.9080, 5312.186
842.0430, 5487.499
843.1780, 5493.303
844.3130, 5547.285
845.4480, 5953.367
846.5830, 5963.000
847.7170, 6098.656
848.8520, 6328.324
849.9860, 6770.716
851.1200, 7108.584
852.2540, 7584.568
853.3870, 8099.613
854.5210, 8576.332
855.6540, 9094.275
856.7880, 9638.918
857.9210, 10511.72
859.0540, 11247.25
860.1860, 12178.30
861.3190, 13292.11
862.4510, 14421.87
863.5840, 15335.71
864.7160, 16666.55
865.8480, 18773.43
866.9790, 20263.31
868.1110, 22506.49
869.2420, 24705.42
870.3740, 26598.61
871.5050, 29018.59
872.6360, 31126.60
873.7660, 33122.71
874.8970, 34510.88
876.0280, 35293.97
877.1580, 35425.18
878.2880, 34956.11
879.4180, 33853.89
880.5480, 32182.06
881.6770, 29880.67
882.8070, 27033.33
883.9360, 24405.74
885.0650, 21194.00
886.1940, 18778.26
887.3230, 16014.51
888.4520, 13674.80
889.5800, 11839.32
890.7090, 9994.389
891.8370, 8471.673
892.9650, 7197.408
894.0930, 6046.927
895.2200, 5394.229
896.3480, 4529.631
897.4750, 3869.944
898.6020, 3525.553
899.7290, 3018.878
900.8560, 2819.207
901.9830, 2377.541
903.1090, 2149.881
904.2360, 1878.224
905.3620, 1793.571
906.4880, 1616.924
907.6140, 1599.279
908.7400, 1337.638
909.8650, 1133.999
910.9900, 1056.365
912.1160, 1005.735
913.2410, 1017.106
914.3660, 795.4795
915.4900, 805.8535
916.6150, 629.2305
917.7390, 469.6074
918.8640, 556.9863
919.9880, 452.3662
921.1120, 380.7471
922.2350, 398.1309
923.3590, 255.5146
924.4820, 362.8984
925.6060, 270.2832
926.7290, 273.6689
927.8520, 284.0547
928.9740, 319.4385
930.0970, 348.8203
931.2190, 297.2021
932.3420, 319.5830
933.4640, 294.2441
934.5860, 262.8916
935.7080, 251.7188
936.8290, 231.0918
937.9510, 211.4648
939.0720, 261.8330
940.1930, 392.1973
941.3140, 180.5645
942.4350, 252.9297
943.5560, 297.2910
944.6760, 199.6582
945.7960, 248.0205
946.9170, 107.3809
948.0370, 168.7363
949.1560, 133.0859
950.2760, 66.57031
951.3960, 162.7246
952.5150, 155.0156
953.6340, 83.31348
954.7530, 156.3760
955.8720, 132.8359
956.9910, 2.942383
958.1090, 48.26172
959.2280, 97.47070
960.3460, 119.2910
961.4640, 99.13574
962.5820, 61.95605
963.6990, 20.95996
964.8170, 22.90820
965.9340, 57.89258
967.0510, 130.9297
968.1690, 36.04492
969.2850, 69.80273
970.4020, 77.35938
971.5190, 132.5781
972.6350, 104.8945
973.7510, 89.70898
974.8670, 0.3037110
975.9830, 32.13086
977.0990, 150.6094
978.2150, 25.19531
979.3300, 57.82422
980.4450, 32.48828
981.5600, 39.78613
982.6750, 70.06543
983.7900, 75.66504
984.9050, 15.53320
986.0190, 13.70801
987.1340, 50.85938
988.2480, 86.99512
989.3620, 61.38770
990.4750, 28.22852
991.5890, 24.31543
992.7020, 7.381836
993.8160, 0.5781250
994.9290, 122.4375
996.0420, 30.44922
997.1550, 145.4424
998.2670, 189.4248
999.3800, 140.0869
1000.492, 136.3564
1001.604, 66.30371
1002.716, 138.2354
1003.828, 69.15527
1004.940, 94.05859
1006.051, 157.9502
1007.163, 86.82910
1008.274, 6.690430
1009.385, 156.5186
1010.496, 24.33496
1011.606, 126.1230
1012.717, 85.89551
1013.827, 126.6562
1014.937, 68.40137
1016.047, 67.14258
1017.157, 83.86816
1018.267, 105.5762
1019.377, 106.5605
1020.486, 154.9482
1021.595, 107.6104
1022.704, 84.25684
1023.813, 55.20605
1024.922, 175.4922
1026.030, 75.08301
1027.139, 90.65430
1028.247, 215.2051
1029.355, 102.7412
1030.463, 240.2598
1031.571, 89.10156
1032.678, 143.1758
1033.786, 177.2998
1034.893, 192.6875
1036.000, 133.2480
1037.107, 170.3906
1038.214, 169.1826
1039.321, 166.0010
1040.427, 216.6836
1041.533, 168.1016
1042.639, 217.8887
1043.745, 305.1982
1044.851, 363.4990
1045.957, 308.7822
1047.062, 309.0479
1048.168, 294.2959
1049.273, 370.5244
1050.378, 343.7354
1051.482, 339.9814
1052.587, 294.2227
1053.692, 462.3799
1054.796, 256.1006
1055.900, 522.2197
1057.004, 437.5146
1058.108, 501.9570
1059.212, 456.3457
1060.315, 434.4053
1061.418, 386.4473
1062.522, 373.6855
1063.625, 420.5811
1064.728, 362.7090
1065.830, 406.9111
1066.933, 438.9570
1068.035, 349.0674
1069.137, 492.9951
1070.239, 513.9043
1071.341, 497.7949
1072.443, 434.6660
1073.545, 520.5176
1074.646, 341.5137
1075.747, 315.7021
1076.848, 552.8350
1077.949, 383.6074
1079.050, 281.4141
1080.150, 507.1465
1081.251, 361.8574
1082.351, 404.5498
1083.451, 455.5254
1084.551, 433.1768
1085.651, 465.9814
1086.750, 467.5205
1087.850, 459.4824
1088.949, 462.2520
1090.048, 465.8955
1091.147, 442.2959
1092.246, 446.0225
1093.345, 434.0703
1094.443, 341.1064
1095.541, 444.5615
1096.639, 234.3564
1097.737, 427.1250
1098.835, 344.5811
1099.933, 456.5615
1101.030, 330.1885
1102.128, 365.5605
1103.225, 386.4756
1104.322, 330.8652
1105.419, 362.9365
1106.515, 301.2549
1107.612, 342.8213
1108.708, 403.2979
1109.804, 344.2891
1110.900, 380.1016
1111.996, 261.8838
1113.092, 287.8320
1114.187, 233.8730
1115.283, 337.5303
1116.378, 164.9492
1117.473, 292.8936
1118.568, 335.7197
1119.662, 283.4883
1120.757, 93.58496
1121.851, 267.4844
1122.946, 156.6582
1124.040, 305.9199
1125.134, 278.6973
1126.227, 375.5693
1127.321, 164.8574
1128.414, 211.5508
1129.508, 221.0459
1130.601, 135.3379
1131.693, 144.6924
1132.786, 194.7490
1133.879, 115.7744
1134.971, 214.0078
1136.064, 244.6572
1137.156, 218.0244
1138.248, 205.0625
1139.339, 173.9805
1140.431, 327.7061
1141.522, 304.0361
1142.614, 243.4404
1143.705, 237.5752
1144.796, 179.8496
1145.887, 195.7744
1146.977, 127.5361
1148.068, 187.9492
1149.158, 187.7715
1150.248, 176.6904
1151.338, 145.5566
1152.428, 185.4521
1153.518, 92.33203
1154.607, 161.0371
1155.696, 155.2529
1156.785, 165.0283
1157.874, 250.4395
1158.963, 127.8213
1160.052, 173.7324
1161.141, 96.21387
1162.229, 166.9297
1163.317, 52.18652
1164.405, 99.72070
1165.493, 192.4199
1166.581, 115.9258
1167.668, 161.4180
1168.756, 26.46875
1169.843, 123.9316
1170.930, 155.3799
1172.017, 77.81543
1173.103, 103.4150
1174.190, 19.82129
1175.276, 202.3164
1176.363, 247.6924
1177.449, 194.4385
1178.535, 306.7891
1179.620, 195.1309
1180.706, 149.4551
1181.791, 78.10645
1182.877, 74.40332
1183.962, 98.68652
1185.047, 5.958008
1186.131, 169.2100
1187.216, 44.84570
1188.300, 26.99609
1189.385, 31.24512
1190.469, 134.9326
1191.553, 190.3311
1192.637, 88.49805
1193.720, 69.65234
1194.804, 64.81934
1195.887, 45.10547
1196.970, 75.05664
1198.053, 55.90820
1199.136, 113.9922
1200.219, 95.38184
1201.301, 225.7480
1202.383, 177.7939
1203.465, 167.8271
1204.547, 54.84863
1205.629, 23.86035
1206.711, 27.85156
1207.792, 144.8281
1208.874, 79.79102
1209.955, 121.7422
1211.036, 147.7305
1212.117, 175.6963
1213.198, 50.61133
1214.278, 147.5342
1215.359, 101.8223
1216.439, 59.27930
1217.519, 69.70801
1218.599, 56.40723
1219.678, 0.5673830
1220.758, 98.26172
1221.837, 61.92090
1222.917, 39.84863
1223.996, 215.6426
1225.075, 199.4580
1226.153, 139.2607
1227.232, 52.15625
1228.310, 63.96191
1229.389, 44.43848
1230.467, 147.3809
1231.545, 126.7119
1232.622, 102.5254
1233.700, 124.3555
1234.777, 183.2168
1235.855, 89.10254
1236.932, 142.9785
1238.009, 106.8525
1239.086, 123.7314
1240.162, 115.6465
1241.239, 77.56934
1242.315, 61.50391
1243.391, 77.97656
1244.467, 97.35352
1245.543, 117.2607
1246.619, 118.1855
1247.694, 128.1074
1248.769, 93.02344
1249.844, 117.9307
1250.919, 86.21777
1251.994, 99.71680
1253.069, 34.59766
1254.144, 6.472656
1255.218, 27.05957
1256.292, 29.41699
1257.366, 1.096680
1258.440, 5.075195
1259.514, 25.77734
1260.587, 16.71973
1261.661, 65.59668
1262.734, 20.35254
1263.807, 25.46680
1264.880, 92.82812
1265.952, 5.635742
1267.025, 52.36328
1268.097, 57.06152
1269.170, 259.7480
1270.242, 4.435547
1271.314, 149.2090
1272.385, 23.68652
1273.457, 0.6552730
1274.528, 57.03809
1275.600, 47.32617
1276.671, 10.72656
1277.742, 29.85449
1278.812, 40.42480
1279.883, 49.20508
1280.954, 42.99805
1282.024, 38.15625
1283.094, 26.68262
1284.164, 18.20117
1285.234, 57.70996
1286.303, 34.20898
1287.373, 151.7002
1288.442, 23.25000
1289.511, 102.7227
1290.580, 55.18652
1291.649, 160.6406
1292.718, 242.9355
1293.786, 48.37402
1294.855, 125.8037
1295.923, 95.23633
1296.991, 34.33887
1298.059, 142.6816
1299.126, 157.0859
