##NAMES=Columbite-(Fe)
##RRUFFID=R050348
##IDEAL CHEMISTRY=Fe^2+^Nb^5+^_2_O_6_
##LOCALITY=Lord Hill mine, Stoneham, Oxford County, Maine, USA
##OWNER=RRUFF
##SOURCE=California Institute of Technology
##DESCRIPTION=Black fragment
##STATUS=The identification of this mineral has been confirmed by X-ray diffraction and chemical analysis
##URL=rruff.info/R050348
##MEASURED CHEMISTRY=(Fe^2+^_0.69_Mn^2+^_0.30_Ti_0.01_)(Nb_0.89_Ta_0.10_Ti_0.01_)_2_O_6_
##PIN_ID=L00509
##ORIENTATION=Laser parallel to -b* (0 -1 0). Fiducial mark perpendicular to laser is parallel to -c [0 0 -1]
221.0220, 0.0000000E+00
222.2400, 33.24951
223.4590, 93.79492
224.6770, 29.66016
225.8950, 1.029785
227.1120, 5.597168
228.3300, 54.55029
229.5480, 128.3188
230.7650, 100.8374
231.9820, 112.4941
233.1990, 43.68066
234.4160, 161.1147
235.6330, 69.75195
236.8490, 131.6455
238.0660, 85.86328
239.2820, 239.4478
240.4980, 160.3027
241.7140, 170.2827
242.9300, 192.2793
244.1460, 187.2217
245.3610, 221.0869
246.5770, 241.3799
247.7920, 173.6846
249.0070, 303.5181
250.2220, 318.2046
251.4370, 357.9810
252.6510, 470.1187
253.8660, 345.8374
255.0800, 449.2412
256.2940, 518.7817
257.5080, 555.1816
258.7220, 460.2026
259.9360, 534.1616
261.1490, 539.7549
262.3630, 542.1504
263.5760, 638.6860
264.7890, 560.6680
266.0020, 655.0444
267.2150, 680.1826
268.4270, 705.9976
269.6400, 660.8877
270.8520, 644.3945
272.0640, 640.1216
273.2760, 668.8867
274.4880, 635.6646
275.7000, 610.6040
276.9120, 572.7427
278.1230, 561.7129
279.3340, 509.9473
280.5450, 526.3262
281.7560, 420.5767
282.9670, 405.4072
284.1780, 394.7358
285.3880, 490.2925
286.5980, 345.8037
287.8090, 359.1235
289.0190, 385.1460
290.2290, 320.7285
291.4380, 313.1909
292.6480, 358.7539
293.8570, 351.9062
295.0670, 300.6821
296.2760, 363.5391
297.4850, 302.1226
298.6930, 367.7363
299.9020, 290.2271
301.1110, 288.2109
302.3190, 257.4927
303.5270, 239.9800
304.7350, 245.5723
305.9430, 228.6250
307.1510, 257.8696
308.3580, 248.5522
309.5660, 256.8467
310.7730, 277.1479
311.9800, 256.8027
313.1870, 238.1562
314.3940, 182.7505
315.6010, 258.5190
316.8070, 254.3477
318.0130, 277.1909
319.2200, 139.9995
320.4260, 136.1143
321.6310, 227.4790
322.8370, 178.1211
324.0430, 262.4502
325.2480, 153.1880
326.4540, 145.8350
327.6590, 120.1719
328.8640, 87.18408
330.0680, 113.1587
331.2730, 101.2104
332.4780, 76.10596
333.6820, 52.21094
334.8860, 46.56982
336.0900, 39.14453
337.2940, 32.77930
338.4980, 45.55957
339.7010, 40.27490
340.9050, 48.04785
342.1080, 10.58398
343.3110, 31.17285
344.5140, 9.127441
345.7170, 11.62842
346.9200, 30.02930
348.1220, 18.63965
349.3240, 99.70020
350.5270, 3.980469
351.7290, 49.40576
352.9310, 16.34863
354.1320, 22.45898
355.3340, 34.47559
356.5350, 2.009277
357.7370, 70.18555
358.9380, 78.42188
360.1390, 1.281738
361.3400, 74.67188
362.5400, 57.91748
363.7410, 72.89307
364.9410, 97.44287
366.1410, 25.76514
367.3410, 17.95215
368.5410, 118.9370
369.7410, 176.3696
370.9400, 93.92871
372.1400, 195.4814
373.3390, 175.6235
374.5380, 173.5942
375.7370, 185.6084
376.9360, 143.6108
378.1350, 117.6216
379.3330, 147.9443
380.5310, 162.9878
381.7300, 170.2656
382.9280, 178.3643
384.1260, 264.0229
385.3230, 205.7437
386.5210, 124.4224
387.7180, 212.0571
388.9160, 180.7227
390.1130, 162.2729
391.3100, 133.7803
392.5060, 147.2456
393.7030, 166.6670
394.9000, 194.0454
396.0960, 142.2900
397.2920, 125.5752
398.4880, 120.8584
399.6840, 146.0420
400.8800, 184.2495
402.0750, 159.3257
403.2710, 104.2432
404.4660, 164.2153
405.6610, 112.7334
406.8560, 50.84619
408.0510, 202.6704
409.2450, 78.45215
410.4400, 72.70557
411.6340, 61.39697
412.8280, 131.0410
414.0220, 76.64600
415.2160, 156.2007
416.4100, 107.7178
417.6030, 93.19434
418.7970, 137.6265
419.9900, 153.0103
421.1830, 140.3374
422.3760, 134.6763
423.5690, 113.8848
424.7610, 153.0337
425.9540, 129.1167
427.1460, 118.1304
428.3380, 62.04688
429.5300, 94.44189
430.7220, 129.2266
431.9140, 101.9526
433.1050, 331.0908
434.2970, 234.5967
435.4880, 261.3765
436.6790, 171.1025
437.8700, 187.5151
439.0610, 155.8628
440.2510, 108.5908
441.4420, 133.9009
442.6320, 163.5781
443.8220, 140.1997
445.0120, 149.5229
446.2020, 175.1895
447.3910, 196.6841
448.5810, 232.8906
449.7700, 138.6743
450.9600, 78.84570
452.1490, 125.0176
453.3370, 105.4316
454.5260, 119.5483
455.7150, 108.6499
456.9030, 163.7329
458.0910, 210.7710
459.2800, 143.8052
460.4670, 121.8101
461.6550, 222.7949
462.8430, 203.4561
464.0300, 149.0723
465.2180, 57.00977
466.4050, 162.8032
467.5920, 103.7104
468.7790, 80.37109
469.9650, 18.98975
471.1520, 66.40771
472.3380, 130.4800
473.5250, 88.83105
474.7110, 87.07520
475.8970, 153.9956
477.0820, 154.4824
478.2680, 101.8501
479.4540, 102.0312
480.6390, 160.0352
481.8240, 116.3784
483.0090, 142.1138
484.1940, 49.99854
485.3780, 128.2104
486.5630, 126.1821
487.7470, 76.33057
488.9320, 4.599121
490.1160, 57.33154
491.3000, 56.78613
492.4830, 69.99268
493.6670, 79.51758
494.8500, 70.71777
496.0340, 54.82129
497.2170, 53.55371
498.4000, 43.72412
499.5820, 9.770996
500.7650, 11.50830
501.9480, 6.709473
503.1300, 48.90771
504.3120, 33.03857
505.4940, 90.30811
506.6760, 8.472168
507.8580, 36.58350
509.0390, 60.91650
510.2210, 121.9463
511.4020, 84.92725
512.5830, 2.315430
513.7640, 4.071777
514.9450, 21.19092
516.1250, 33.63281
517.3060, 28.57227
518.4860, 13.79785
519.6660, 10.84033
520.8460, 21.31201
522.0260, 5.714844
523.2060, 23.20459
524.3850, 78.11816
525.5650, 13.05908
526.7440, 69.03516
527.9230, 45.12256
529.1020, 72.86230
530.2810, 4.936523
531.4590, 70.97314
532.6380, 39.99707
533.8160, 63.74854
534.9940, 8.642090
536.1720, 23.61475
537.3500, 19.34277
538.5270, 25.51611
539.7050, 23.73779
540.8820, 31.95508
542.0590, 0.8198240
543.2360, 19.82666
544.4130, 22.24854
545.5900, 14.26709
546.7660, 15.79199
547.9430, 6.160645
549.1190, 71.17383
550.2950, 13.16113
551.4710, 15.72705
552.6470, 60.25586
553.8220, 22.96338
554.9980, 37.79248
556.1730, 19.92578
557.3480, 52.87842
558.5230, 97.56299
559.6980, 29.07178
560.8730, 22.97852
562.0470, 80.96094
563.2220, 59.09717
564.3960, 75.80566
565.5700, 76.61133
566.7440, 65.61914
567.9170, 14.54150
569.0910, 22.43262
570.2640, 23.54541
571.4380, 59.16211
572.6110, 56.14307
573.7840, 22.00781
574.9570, 81.05957
576.1290, 26.86279
577.3020, 24.22021
578.4740, 1.314453
579.6460, 34.42090
580.8180, 21.46045
581.9900, 39.57715
583.1620, 21.28320
584.3330, 20.13428
585.5040, 4.976074
586.6760, 102.8052
587.8470, 51.65283
589.0180, 68.50537
590.1880, 31.32422
591.3590, 22.85449
592.5290, 0.2026370
593.7000, 18.99463
594.8700, 52.20752
596.0400, 46.44385
597.2090, 7.695313
598.3790, 9.036133
599.5490, 27.24707
600.7180, 34.54736
601.8870, 75.86426
603.0560, 66.19922
604.2250, 58.55176
605.3940, 98.63232
606.5620, 100.9653
607.7300, 111.3735
608.8990, 116.8013
610.0670, 122.7500
611.2350, 136.8379
612.4020, 144.5547
613.5700, 160.0654
614.7370, 196.5977
615.9050, 193.1523
617.0720, 137.7305
618.2390, 234.3340
619.4060, 172.9653
620.5720, 320.6230
621.7390, 171.3096
622.9050, 328.0234
624.0710, 186.7646
625.2370, 273.5132
626.4030, 267.3149
627.5690, 272.1460
628.7340, 343.0098
629.9000, 376.4131
631.0650, 316.3535
632.2300, 301.3345
633.3950, 335.3403
634.5600, 266.3818
635.7240, 365.4512
636.8890, 304.5542
638.0530, 328.6885
639.2170, 337.8530
640.3810, 278.3525
641.5450, 349.1143
642.7080, 361.2017
643.8720, 357.0034
645.0350, 392.3838
646.1980, 418.7588
647.3610, 388.0112
648.5240, 372.4771
649.6870, 346.9653
650.8490, 315.9336
652.0120, 298.0918
653.1740, 291.2178
654.3360, 269.1167
655.4980, 312.7925
656.6600, 393.4966
657.8210, 245.2295
658.9830, 328.9756
660.1440, 252.7158
661.3050, 353.1548
662.4660, 312.8770
663.6270, 257.3623
664.7870, 383.0283
665.9480, 321.1299
667.1080, 285.1611
668.2680, 267.2393
669.4280, 298.3716
670.5880, 345.4814
671.7480, 361.7129
672.9070, 399.9976
674.0670, 307.3232
675.2260, 395.6860
676.3850, 330.0938
677.5440, 313.6265
678.7030, 306.1030
679.8610, 365.5903
681.0200, 300.1680
682.1780, 263.7168
683.3360, 382.3779
684.4940, 452.1860
685.6520, 399.9453
686.8090, 427.1665
687.9670, 386.7930
689.1240, 391.7075
690.2810, 421.6558
691.4380, 517.1289
692.5950, 526.1597
693.7520, 301.2505
694.9080, 596.3872
696.0650, 383.5796
697.2210, 500.8252
698.3770, 441.1177
699.5330, 443.4712
700.6880, 462.8613
701.8440, 505.3076
702.9990, 486.7334
704.1550, 554.2646
705.3100, 572.8350
706.4650, 554.4487
707.6190, 608.0977
708.7740, 506.7861
709.9290, 587.9634
711.0830, 646.7280
712.2370, 580.5273
713.3910, 618.8892
714.5450, 620.7681
715.6980, 729.0889
716.8520, 700.0391
718.0050, 780.0137
719.1580, 736.0342
720.3110, 711.6865
721.4640, 797.7769
722.6170, 825.5186
723.7700, 830.3320
724.9220, 834.4619
726.0740, 924.2666
727.2260, 856.2632
728.3780, 922.5645
729.5300, 933.3076
730.6810, 1016.680
731.8330, 914.0718
732.9840, 1014.238
734.1350, 1000.719
735.2860, 1055.234
736.4370, 1152.785
737.5880, 1104.269
738.7380, 1068.890
739.8880, 1155.547
741.0390, 1224.238
742.1890, 1144.965
743.3380, 1307.728
744.4880, 1262.524
745.6380, 1254.357
746.7870, 1286.226
747.9360, 1303.773
749.0850, 1335.068
750.2340, 1399.048
751.3830, 1433.064
752.5310, 1478.115
753.6800, 1519.199
754.8280, 1472.319
755.9760, 1492.474
757.1240, 1590.664
758.2720, 1511.888
759.4190, 1544.145
760.5670, 1654.437
761.7140, 1770.763
762.8610, 1669.122
764.0080, 1742.517
765.1550, 1665.943
766.3020, 1754.405
767.4480, 1745.899
768.5950, 1801.435
769.7410, 1751.002
770.8870, 1801.603
772.0330, 1726.236
773.1780, 1835.903
774.3240, 1805.601
775.4690, 1837.332
776.6140, 1783.095
777.7590, 1869.890
778.9040, 1784.726
780.0490, 1868.595
781.1940, 1913.502
782.3380, 1870.455
783.4820, 1897.440
784.6260, 1903.483
785.7700, 1939.563
786.9140, 1945.457
788.0580, 1916.830
789.2010, 1952.141
790.3450, 1936.417
791.4880, 1911.077
792.6310, 1968.419
793.7730, 1936.791
794.9160, 1827.191
796.0590, 1931.875
797.2010, 1880.653
798.3430, 2027.674
799.4850, 1965.114
800.6270, 1990.386
801.7690, 1887.729
802.9100, 2037.127
804.0520, 2038.844
805.1930, 2087.104
806.3340, 2134.667
807.4750, 2136.648
808.6160, 2197.476
809.7560, 2151.868
810.8970, 2137.485
812.0370, 2191.082
813.1770, 2289.867
814.3170, 2283.847
815.4570, 2334.370
816.5960, 2348.252
817.7360, 2367.560
818.8750, 2419.494
820.0140, 2399.520
821.1530, 2518.992
822.2920, 2510.227
823.4310, 2455.329
824.5690, 2566.296
825.7070, 2605.696
826.8460, 2722.857
827.9840, 2704.006
829.1220, 2722.609
830.2590, 2773.448
831.3970, 3018.153
832.5340, 3555.302
833.6710, 3320.090
834.8080, 3475.599
835.9450, 3199.511
837.0820, 3210.119
838.2190, 3433.539
839.3550, 3521.924
840.4910, 3632.548
841.6270, 3643.694
842.7630, 3773.891
843.8990, 4036.341
845.0350, 4085.631
846.1700, 4288.096
847.3060, 4428.577
848.4410, 4604.073
849.5760, 4716.582
850.7100, 5046.007
851.8450, 5157.688
852.9800, 5463.241
854.1140, 5671.808
855.2480, 5857.387
856.3820, 6074.979
857.5160, 6417.584
858.6500, 6601.202
859.7830, 6986.833
860.9170, 7442.478
862.0500, 7676.135
863.1830, 8048.816
864.3160, 8290.513
865.4480, 8342.261
866.5810, 8647.983
867.7130, 8984.716
868.8460, 9023.459
869.9780, 9247.211
871.1100, 9009.976
872.2410, 8968.746
873.3730, 8636.524
874.5050, 8323.315
875.6360, 7837.113
876.7670, 7179.920
877.8980, 6591.733
879.0290, 5990.555
880.1590, 5177.384
881.2900, 4637.220
882.4200, 4130.063
883.5500, 3477.914
884.6800, 3218.771
885.8100, 2751.634
886.9400, 2336.502
888.0690, 2091.378
889.1990, 1750.259
890.3280, 1547.144
891.4570, 1471.282
892.5860, 1209.177
893.7140, 1153.109
894.8430, 1016.014
895.9710, 909.9233
897.1000, 749.8359
898.2280, 809.7524
899.3560, 568.8174
900.4830, 631.7412
901.6110, 519.6680
902.7380, 514.5977
903.8660, 388.5308
904.9930, 368.4668
906.1200, 370.4043
907.2460, 343.3442
908.3730, 334.3960
909.5000, 289.0283
910.6260, 290.1885
911.7520, 217.1450
912.8780, 154.1025
914.0040, 180.0601
915.1290, 89.01807
916.2550, 74.97607
917.3800, 111.9355
918.5050, 56.90088
919.6300, 117.8652
920.7550, 5.828125
921.8800, 56.78955
923.0040, 32.75000
924.1290, 3.291504
925.2530, 43.66260
926.3770, 46.38525
927.5010, 73.54150
928.6250, 112.4648
929.7480, 35.38623
930.8720, 4.692871
931.9950, 23.77930
933.1180, 59.88477
934.2410, 32.02637
935.3640, 10.19141
936.4860, 27.36670
937.6090, 26.56494
938.7310, 5.214844
939.8530, 54.00830
940.9750, 73.26953
942.0970, 62.58057
943.2180, 58.70215
944.3400, 66.32080
945.4610, 20.75928
946.5820, 2.223145
947.7030, 36.69678
948.8240, 0.7954100
949.9450, 26.27344
951.0650, 82.25635
952.1860, 7.846191
953.3060, 48.45801
954.4260, 31.88721
955.5460, 6.775879
956.6650, 65.46143
957.7850, 62.19971
958.9040, 26.98926
960.0230, 16.81396
961.1420, 82.33057
962.2610, 5.465332
963.3800, 19.58057
964.4990, 51.31787
965.6170, 16.26709
966.7350, 38.24805
967.8530, 45.27246
968.9710, 12.34473
970.0890, 63.44922
971.2070, 32.38721
972.3240, 53.79102
973.4410, 49.97461
974.5580, 23.26904
975.6750, 21.46094
976.7920, 1.171875
977.9090, 55.85449
979.0250, 21.52393
980.1410, 99.17334
981.2580, 87.81006
982.3740, 151.4341
983.4890, 120.8940
984.6050, 3.223145
985.7200, 54.21338
986.8360, 116.7666
987.9510, 98.30713
989.0660, 209.0645
990.1810, 157.3091
991.2950, 160.6318
992.4100, 112.3438
993.5240, 108.8218
994.6390, 143.2856
995.7530, 128.7363
996.8660, 123.1729
997.9800, 116.5947
999.0940, 76.00244
1000.207, 104.0015
1001.320, 178.7739
1002.433, 145.1377
1003.546, 164.4863
1004.659, 189.8213
1005.772, 160.1411
1006.884, 169.0527
1007.996, 156.7368
1009.108, 162.0122
1010.220, 144.2729
1011.332, 174.5171
1012.444, 147.8062
1013.555, 137.1479
1014.666, 136.3462
1015.777, 159.5361
1016.888, 209.7026
1017.999, 155.1016
1019.110, 197.2368
1020.220, 184.4014
1021.331, 157.5044
1022.441, 195.5908
1023.551, 144.6655
1024.661, 83.84961
1025.770, 245.9717
1026.880, 106.1152
1027.989, 220.1230
1029.098, 213.1147
1030.207, 253.0898
1031.316, 208.1260
1032.425, 98.06738
1033.533, 177.3086
1034.642, 237.2837
1035.750, 313.2153
1036.858, 153.3545
1037.966, 248.2085
1039.073, 241.2480
1040.181, 207.2593
1041.288, 224.1470
1042.396, 221.9136
1043.503, 263.2041
1044.610, 228.1484
1045.716, 197.0054
1046.823, 259.8320
1047.929, 248.5249
1049.036, 256.4360
1050.142, 266.4497
1051.248, 309.6660
1052.353, 304.9155
1053.459, 315.0366
1054.564, 319.7178
1055.670, 314.8862
1056.775, 261.1519
1057.880, 308.6768
1058.985, 275.4526
1060.089, 271.5928
1061.194, 203.1992
1062.298, 243.9390
1063.402, 378.2964
1064.506, 286.4912
1065.610, 345.6094
1066.713, 307.4561
1067.817, 340.9722
1068.920, 338.1318
1070.023, 332.7637
1071.126, 352.4956
1072.229, 410.8574
1073.332, 340.6250
1074.435, 345.0786
1075.537, 268.6934
1076.639, 287.9541
1077.741, 279.6738
1078.843, 284.0605
1079.945, 295.8008
1081.046, 255.9629
1082.148, 296.8877
1083.249, 267.0684
1084.350, 235.5605
1085.451, 249.8867
1086.551, 237.4141
1087.652, 239.4580
1088.752, 297.4741
1089.853, 282.5015
1090.953, 147.2197
1092.053, 247.4238
1093.152, 152.1328
1094.252, 262.0840
1095.351, 264.3813
1096.451, 174.0039
1097.550, 211.4917
1098.649, 207.3940
1099.748, 192.6699
1100.846, 235.5923
1101.945, 277.3252
1103.043, 214.7119
1104.141, 222.2646
1105.239, 187.0073
1106.337, 156.3999
1107.434, 177.4106
1108.532, 235.5195
1109.629, 203.6016
1110.726, 224.7192
1111.823, 221.2583
1112.920, 218.0063
1114.017, 232.7295
1115.113, 235.4453
1116.210, 220.1509
1117.306, 251.9429
1118.402, 347.4810
1119.498, 319.1782
1120.593, 388.9766
1121.689, 308.8774
1122.784, 358.7583
1123.879, 388.6948
1124.974, 326.4878
1126.069, 275.2148
1127.164, 270.7920
1128.259, 265.3574
1129.353, 234.9092
1130.447, 216.7373
1131.541, 148.1235
1132.635, 188.6382
1133.729, 127.1401
1134.822, 175.8179
1135.916, 124.2939
1137.009, 134.9199
1138.102, 133.4600
1139.195, 77.01758
1140.288, 142.5903
1141.380, 93.00342
1142.473, 100.4043
1143.565, 37.98193
1144.657, 126.3574
1145.749, 92.86670
1146.841, 75.31104
1147.932, 92.64893
1149.024, 30.02637
1150.115, 82.42627
1151.206, 65.87402
1152.297, 81.29932
1153.388, 125.5757
1154.479, 104.9058
1155.569, 47.25879
1156.659, 57.25244
1157.750, 49.27783
1158.839, 126.4614
1159.929, 77.66309
1161.019, 95.05859
1162.108, 58.32715
1163.198, 112.6445
1164.287, 21.80322
1165.376, 59.98730
1166.465, 66.20801
1167.553, 25.37256
1168.642, 89.47900
1169.730, 32.57471
1170.818, 33.65674
1171.906, 54.79541
1172.994, 3.037598
1174.082, 11.83203
1175.170, 32.17969
1176.257, 44.17773
1177.344, 47.16455
1178.431, 88.13818
1179.518, 26.10107
1180.605, 14.05078
1181.691, 13.97021
1182.778, 56.90674
1183.864, 57.01172
1184.950, 50.89941
1186.036, 20.80859
1187.122, 61.67139
1188.207, 52.52246
1189.292, 20.36377
1190.378, 90.19189
1191.463, 40.02051
1192.548, 16.83789
1193.632, 5.357422
1194.717, 63.42871
1195.801, 61.20703
1196.886, 71.98145
1197.970, 52.76270
1199.054, 0.1831050
1200.137, 54.58545
1201.221, 33.35205
1202.305, 10.71924
1203.388, 53.02734
1204.471, 57.78076
1205.554, 18.45361
1206.637, 44.30713
1207.719, 40.07568
1208.802, 86.94922
1209.884, 13.27295
1210.966, 80.51367
1212.048, 0.7211910
1213.130, 50.03369
1214.212, 55.77930
1215.293, 124.5410
1216.374, 11.37158
1217.456, 68.13672
1218.536, 0.1074220
1219.617, 24.00830
1220.698, 6.122559
1221.778, 48.64600
1222.859, 100.7432
1223.939, 77.51660
1225.019, 4.280762
1226.099, 41.10205
1227.178, 18.85205
1228.258, 2.387695
1229.337, 7.854980
1230.417, 1.548828
1231.496, 15.00195
1232.574, 29.77344
1233.653, 70.05713
1234.732, 94.83545
1235.810, 4.371582
1236.888, 48.98340
1237.966, 50.77148
1239.044, 45.65771
1240.122, 68.40625
1241.199, 63.31348
1242.277, 63.83545
1243.354, 233.9194
1244.431, 165.7217
1245.508, 181.0049
1246.585, 125.0615
1247.661, 111.8750
1248.738, 62.57910
1249.814, 35.27441
1250.890, 15.06885
1251.966, 15.91699
1253.042, 7.622070
1254.117, 24.40771
1255.193, 37.05127
1256.268, 94.72656
1257.343, 162.4990
1258.418, 108.8940
1259.493, 133.6445
1260.567, 25.65869
1261.642, 77.28467
1262.716, 75.88672
1263.790, 24.46191
1264.864, 91.02734
1265.938, 30.58447
1267.011, 48.13232
1268.085, 40.67139
1269.158, 34.20068
1270.231, 88.89355
1271.304, 73.47461
1272.377, 24.03711
1273.450, 71.42529
1274.522, 33.93604
1275.594, 46.65723
1276.666, 89.03369
1277.738, 56.49658
1278.810, 47.85645
1279.882, 33.30225
1280.953, 36.02539
1282.025, 79.51074
1283.096, 10.95605
1284.167, 44.47998
1285.238, 90.84180
1286.308, 6.812500
1287.379, 100.4448
1288.449, 72.81299
1289.519, 19.20166
1290.589, 46.55469
1291.659, 31.98389
1292.729, 32.32080
1293.798, 57.33154
1294.868, 45.58350
1295.937, 55.88281
1297.006, 102.1450
1298.075, 75.59424
1299.143, 99.74414
1300.212, 51.83545
1301.280, 42.08887
1302.348, 27.37402
1303.416, 103.1997
1304.484, 90.25781
1305.552, 97.37598
1306.620, 76.50098
1307.687, 113.7339
1308.754, 101.7236
1309.821, 55.60938
1310.888, 10.75684
1311.955, 15.36914
1313.021, 65.48828
1314.088, 56.64648
1315.154, 99.55322
1316.220, 93.67676
1317.286, 96.75635
1318.352, 81.65039
1319.417, 129.8281
1320.483, 110.9985
1321.548, 80.85547
1322.613, 70.07373
1323.678, 126.4067
1324.743, 106.5552
1325.807, 100.7070
1326.872, 5.747559
1327.936, 141.4126
1329.000, 87.59814
1330.064, 23.64307
1331.128, 78.94141
1332.191, 87.11377
1333.255, 66.23730
1334.318, 125.8984
1335.381, 64.87012
1336.444, 37.81934
1337.507, 87.87744
1338.569, 53.67627
1339.632, 103.7246
1340.694, 93.30322
1341.756, 128.2656
1342.818, 96.24072
1343.880, 42.24707
1344.941, 128.9722
1346.003, 113.9663
1347.064, 1.468262
1348.125, 33.31738
1349.186, 64.59619
1350.247, 0.5258790
1351.308, 96.47412
1352.368, 146.4209
1353.428, 43.01953
1354.489, 117.8389
1355.549, 82.55420
1356.608, 123.9878
1357.668, 0.3979490
1358.727, 9.936035
1359.787, 58.84814
1360.846, 21.39014
1361.905, 115.4751
1362.964, 59.36377
1364.022, 23.31738
1365.081, 67.06982
1366.139, 20.83057
1367.197, 68.56299
1368.255, 13.37939
1369.313, 11.68164
1370.371, 19.62939
1371.428, 18.08252
1372.486, 7.888184
1373.543, 27.74512
1374.600, 30.49707
1375.657, 62.24219
1376.713, 70.00732
1377.770, 28.59521
1378.826, 13.16309
1379.882, 62.63086
1380.938, 13.02539
1381.994, 63.54297
