##NAMES=Columbite-(Fe)
##RRUFFID=R060001
##IDEAL CHEMISTRY=Fe^2+^Nb^5+^_2_O_6_
##LOCALITY=Gypsy mine, Minas Gerais, Brazil
##OWNER=RRUFF
##SOURCE=Eric Van Valkenburg
##DESCRIPTION=Steel gray fragment with internal red hints
##STATUS=The identification of this mineral has been confirmed by X-ray diffraction and chemical analysis
##URL=rruff.info/R060001
##MEASURED CHEMISTRY=(Fe^2+^_0.52_Mn^2+^_0.48_)_Σ=1_(Nb_1.61_Ta_0.39_)_Σ=2_O_6_
##PIN_ID=L01130
##ORIENTATION=Laser parallel to a* (1 0 0). Fiducial mark perpendicular to laser is parallel to -b [0 -1 0]
120.3580, 0.0000000E+00
121.5920, 74.87695
122.8270, 257.3135
124.0610, 13.49414
125.2950, 9.071289
126.5290, 138.5332
127.7630, 575.6045
128.9970, 798.1348
130.2300, 887.6396
131.4640, 1174.050
132.6970, 1182.564
133.9300, 1010.555
135.1630, 1337.521
136.3950, 1291.061
137.6280, 1488.863
138.8600, 1412.681
140.0920, 1450.305
141.3240, 1311.548
142.5560, 918.2461
143.7880, 647.2510
145.0190, 563.4316
146.2510, 498.6758
147.4820, 559.8828
148.7130, 495.9658
149.9440, 546.8457
151.1750, 573.4648
152.4050, 618.7852
153.6360, 586.8066
154.8660, 382.5029
156.0960, 225.8359
157.3260, 185.7744
158.5560, 272.2676
159.7850, 317.2676
161.0150, 265.7207
162.2440, 367.5840
163.4730, 350.8193
164.7020, 545.3965
165.9310, 362.2852
167.1590, 301.4619
168.3880, 421.9053
169.6160, 298.5947
170.8440, 475.5156
172.0720, 608.6504
173.3000, 607.9863
174.5280, 491.5107
175.7550, 364.2109
176.9820, 490.0781
178.2100, 620.0996
179.4370, 495.2686
180.6630, 495.6514
181.8900, 479.2725
183.1170, 547.2256
184.3430, 699.5322
185.5690, 724.7344
186.7950, 885.8125
188.0210, 878.2822
189.2470, 964.0479
190.4720, 1031.353
191.6970, 1018.101
192.9230, 1318.481
194.1480, 1346.940
195.3730, 1542.389
196.5970, 1646.889
197.8220, 1728.391
199.0460, 1731.830
200.2700, 1903.208
201.4940, 2119.541
202.7180, 1878.847
203.9420, 1768.131
205.1660, 1377.391
206.3890, 1430.634
207.6120, 1248.863
208.8350, 1504.082
210.0580, 1443.295
211.2810, 1247.502
212.5040, 1265.707
213.7260, 1240.910
214.9480, 1243.115
216.1700, 1314.322
217.3920, 1216.531
218.6140, 1226.614
219.8360, 1203.843
221.0570, 1104.187
222.2790, 1130.418
223.5000, 971.6562
224.7210, 893.9014
225.9410, 1050.155
227.1620, 960.0059
228.3820, 1010.793
229.6030, 1012.956
230.8230, 1084.233
232.0430, 1134.516
233.2630, 1226.801
234.4820, 1418.089
235.7020, 1574.377
236.9210, 1689.666
238.1400, 1811.035
239.3590, 1924.533
240.5780, 2005.651
241.7970, 2110.433
243.0150, 2222.609
244.2340, 2266.967
245.4520, 2340.012
246.6700, 2298.178
247.8880, 2227.727
249.1060, 2219.620
250.3230, 1990.955
251.5400, 1992.547
252.7580, 2015.231
253.9750, 2152.709
255.1920, 1963.248
256.4080, 1918.118
257.6250, 2032.968
258.8410, 2194.496
260.0580, 2112.040
261.2740, 1864.160
262.4900, 1846.798
263.7050, 1785.702
264.9210, 1837.327
266.1360, 1914.819
267.3520, 1992.316
268.5670, 1917.752
269.7820, 1941.311
270.9960, 1888.021
272.2110, 1853.203
273.4250, 1730.515
274.6400, 1639.230
275.8540, 1504.834
277.0680, 1408.461
278.2810, 1301.606
279.4950, 1240.171
280.7090, 1186.814
281.9220, 1181.959
283.1350, 1097.344
284.3480, 1029.346
285.5610, 1141.918
286.7730, 1079.145
287.9860, 1134.418
289.1980, 998.7666
290.4100, 871.1846
291.6220, 764.7021
292.8340, 783.2422
294.0460, 674.8350
295.2570, 773.4775
296.4690, 657.1670
297.6800, 759.8975
298.8910, 668.6660
300.1020, 648.4707
301.3120, 674.3066
302.5230, 624.1709
303.7330, 707.0615
304.9440, 698.9902
306.1540, 715.9395
307.3630, 776.9082
308.5730, 793.8926
309.7830, 942.8916
310.9920, 982.9043
312.2010, 1101.934
313.4100, 1192.986
314.6190, 1261.062
315.8280, 1308.141
317.0370, 1290.314
318.2450, 1302.476
319.4530, 1380.650
320.6610, 1268.855
321.8690, 1149.062
323.0770, 1271.276
324.2850, 988.5137
325.4920, 1089.758
326.6990, 865.0186
327.9060, 816.2783
329.1130, 774.5400
330.3200, 647.7969
331.5270, 567.0654
332.7330, 443.3223
333.9390, 495.5703
335.1450, 463.8037
336.3510, 333.0244
337.5570, 434.2305
338.7630, 281.4248
339.9680, 323.6045
341.1740, 246.7676
342.3790, 317.9131
343.5840, 264.0400
344.7890, 358.1514
345.9930, 329.2461
347.1980, 324.3232
348.4020, 229.3838
349.6060, 320.4268
350.8100, 370.4531
352.0140, 204.4629
353.2180, 190.4551
354.4210, 62.43164
355.6250, 33.39160
356.8280, 99.33301
358.0310, 86.74219
359.2340, 149.1387
360.4360, 116.0020
361.6390, 10.84863
362.8410, 28.67383
364.0430, 3.944336
365.2450, 86.73730
366.4470, 1.000977
367.6490, 27.70996
368.8510, 46.40039
370.0520, 7.3242001E-02
371.2530, 51.27832
372.4540, 1.330078
373.6550, 100.0869
374.8560, 97.55762
376.0560, 109.0801
377.2570, 62.65820
378.4570, 31.27930
379.6570, 96.93652
380.8570, 19.35156
382.0570, 57.89941
383.2560, 97.16309
384.4560, 182.0820
385.6550, 200.6016
386.8540, 45.98438
388.0530, 49.67773
389.2520, 8.100586
390.4510, 39.13379
391.6490, 104.5439
392.8470, 103.7656
394.0450, 36.68164
395.2430, 37.78711
396.4410, 102.5674
397.6390, 34.55859
398.8360, 74.93848
400.0340, 75.48633
401.2310, 47.13965
402.4280, 41.84863
403.6250, 67.60742
404.8210, 61.58008
406.0180, 67.71387
407.2140, 45.77832
408.4100, 2.211914
409.6060, 43.76074
410.8020, 54.30859
411.9980, 6.429688
413.1930, 7.583008
414.3890, 53.77148
415.5840, 14.01953
416.7790, 8.250000
417.9740, 128.3574
419.1680, 63.01758
420.3630, 106.6602
421.5570, 171.2930
422.7510, 108.9150
423.9450, 169.5254
425.1390, 88.12207
426.3330, 82.70312
427.5270, 136.2656
428.7200, 84.81543
429.9130, 116.3457
431.1060, 162.8613
432.2990, 180.3613
433.4920, 179.8467
434.6840, 118.3174
435.8770, 264.7705
437.0690, 183.2080
438.2610, 179.6309
439.4530, 291.0361
440.6450, 295.4258
441.8360, 227.7979
443.0280, 244.1533
444.2190, 233.4922
445.4100, 240.8145
446.6010, 255.7246
447.7920, 267.6191
448.9820, 312.8896
450.1730, 274.1426
451.3630, 344.3779
452.5530, 323.5947
453.7430, 385.7949
454.9330, 299.1777
456.1230, 464.8545
457.3120, 557.5332
458.5010, 520.9746
459.6910, 502.4541
460.8800, 531.3555
462.0680, 519.7529
463.2570, 570.5068
464.4460, 577.5664
465.6340, 560.7148
466.8220, 717.4805
468.0100, 695.0996
469.1980, 634.3320
470.3860, 750.2686
471.5730, 651.8945
472.7600, 686.7910
473.9480, 685.2588
475.1350, 699.1152
476.3210, 724.2637
477.5080, 760.5586
478.6950, 951.0811
479.8810, 832.8604
481.0670, 988.6260
482.2530, 974.6270
483.4390, 1006.350
484.6250, 1088.052
485.8100, 1018.736
486.9960, 947.4023
488.1810, 1018.049
489.3660, 983.6768
490.5510, 1066.287
491.7360, 1090.152
492.9200, 1022.454
494.1050, 1165.012
495.2890, 1181.552
496.4730, 1208.075
497.6570, 1154.581
498.8400, 1194.301
500.0240, 1183.542
501.2070, 1187.129
502.3910, 1244.567
503.5740, 1179.991
504.7570, 1245.924
505.9400, 1297.251
507.1220, 1295.217
508.3050, 1344.165
509.4870, 1364.237
510.6690, 1438.325
511.8510, 1520.635
513.0330, 1641.741
514.2140, 1604.425
515.3960, 1662.106
516.5770, 1771.752
517.7580, 1739.464
518.9390, 1793.364
520.1200, 2015.980
521.3010, 2120.360
522.4810, 2138.767
523.6610, 2310.801
524.8420, 2446.406
526.0220, 2398.583
527.2010, 2519.748
528.3810, 2778.907
529.5610, 2677.939
530.7400, 2646.592
531.9190, 2812.650
533.0980, 2625.897
534.2770, 2551.018
535.4560, 2616.183
536.6340, 2542.213
537.8120, 2522.234
538.9910, 2697.334
540.1690, 2545.166
541.3460, 2569.863
542.5240, 2360.693
543.7020, 2311.030
544.8790, 2021.637
546.0560, 2161.615
547.2330, 2040.044
548.4100, 2022.595
549.5870, 2093.531
550.7630, 2036.294
551.9400, 2046.111
553.1160, 2001.712
554.2920, 1849.146
555.4680, 1982.487
556.6440, 1914.039
557.8190, 2076.961
558.9950, 1864.200
560.1700, 1835.310
561.3450, 1847.561
562.5200, 1743.607
563.6950, 1713.732
564.8690, 1744.797
566.0440, 1789.934
567.2180, 1806.708
568.3920, 1791.346
569.5660, 1692.521
570.7400, 1729.214
571.9130, 1671.350
573.0870, 1626.525
574.2600, 1384.712
575.4330, 1323.904
576.6060, 1213.070
577.7790, 965.2793
578.9520, 1005.496
580.1240, 734.7246
581.2960, 629.9609
582.4690, 267.2061
583.6410, 384.4600
584.8120, 315.7256
585.9840, 107.0000
587.1560, 124.2861
588.3270, 61.41797
589.4980, 115.8584
590.6690, 102.1465
591.8400, 61.44629
593.0110, 39.75684
594.1810, 7.080078
595.3510, 24.58594
596.5220, 52.25293
597.6920, 72.93066
598.8610, 142.6289
600.0310, 51.37793
601.2010, 98.71680
602.3700, 51.92480
603.5390, 116.7217
604.7080, 3.445313
605.8770, 28.37695
607.0460, 102.1953
608.2140, 41.04199
609.3830, 94.88965
610.5510, 22.23828
611.7190, 44.61719
612.8870, 48.52637
614.0550, 104.3145
615.2220, 82.81934
616.3900, 11.03125
617.5570, 62.13184
618.7240, 7.688477
619.8910, 81.50586
621.0580, 33.28223
622.2240, 11.06348
623.3910, 116.1709
624.5570, 47.42188
625.7230, 71.69238
626.8890, 128.9814
628.0550, 61.29004
629.2200, 9.618164
630.3860, 70.96484
631.5510, 147.3330
632.7160, 95.71973
633.8810, 79.12695
635.0460, 6.555664
636.2100, 36.00488
637.3750, 5.474609
638.5390, 101.9648
639.7030, 143.4775
640.8670, 175.0117
642.0310, 12.87500
643.1950, 168.9297
644.3580, 254.8877
645.5210, 274.5205
646.6850, 29.09180
647.8480, 125.9951
649.0100, 85.77441
650.1730, 39.95703
651.3350, 185.1475
652.4980, 21.56152
653.6600, 120.6533
654.8220, 189.8379
655.9840, 102.7822
657.1450, 190.7852
658.3070, 166.8467
659.4680, 77.96973
660.6300, 179.1426
661.7910, 223.3623
662.9510, 269.6533
664.1120, 292.6289
665.2730, 127.3496
666.4330, 289.7510
667.5930, 184.2119
668.7530, 158.6992
669.9130, 284.2373
671.0730, 350.8252
672.2320, 207.4502
673.3920, 262.1260
674.5510, 289.8301
675.7100, 198.6367
676.8690, 325.4766
678.0280, 372.3691
679.1860, 306.2881
680.3450, 421.2578
681.5030, 277.3154
682.6610, 383.4043
683.8190, 392.5762
684.9770, 481.8047
686.1340, 454.0947
687.2920, 528.4170
688.4490, 450.7812
689.6060, 454.2080
690.7630, 524.6855
691.9200, 473.2021
693.0760, 494.7822
694.2330, 536.4229
695.3890, 576.1123
696.5450, 537.8906
697.7010, 584.7363
698.8570, 691.6572
700.0130, 735.6094
701.1680, 655.5947
702.3230, 714.6191
703.4780, 696.6875
704.6330, 840.7930
705.7880, 836.9600
706.9430, 779.1680
708.0970, 967.4092
709.2520, 808.6807
710.4060, 815.9902
711.5600, 899.3359
712.7140, 892.7119
713.8670, 948.1182
715.0210, 887.5752
716.1740, 1117.064
717.3270, 999.5840
718.4800, 1108.139
719.6330, 1067.721
720.7860, 1113.352
721.9380, 1085.021
723.0910, 1137.721
724.2430, 1143.476
725.3950, 1328.262
726.5470, 1149.080
727.6980, 1162.717
728.8500, 1348.596
730.0010, 1385.507
731.1530, 1306.450
732.3040, 1386.453
733.4550, 1580.487
734.6050, 1478.357
735.7560, 1576.953
736.9060, 1584.559
738.0560, 1640.417
739.2060, 1706.250
740.3560, 1761.680
741.5060, 1786.627
742.6560, 1907.229
743.8050, 1832.543
744.9540, 1815.783
746.1030, 1885.418
747.2520, 2049.215
748.4010, 2054.411
749.5500, 2129.917
750.6980, 2072.747
751.8460, 2094.319
752.9950, 2072.336
754.1420, 2138.236
755.2900, 2270.341
756.4380, 2279.049
757.5850, 2450.588
758.7330, 2476.365
759.8800, 2543.168
761.0270, 2615.754
762.1730, 2526.635
763.3200, 2658.549
764.4670, 2695.497
765.6130, 2821.476
766.7590, 2700.488
767.9050, 2734.534
769.0510, 2827.611
770.1960, 3011.721
771.3420, 2973.862
772.4870, 2897.037
773.6320, 3073.242
774.7770, 3129.480
775.9220, 3057.749
777.0670, 3044.051
778.2110, 3075.385
779.3560, 3219.751
780.5000, 3136.147
781.6440, 3259.576
782.7880, 3126.035
783.9320, 3342.525
785.0750, 3256.047
786.2180, 3304.599
787.3620, 3491.181
788.5050, 3253.794
789.6480, 3537.438
790.7900, 3400.781
791.9330, 3343.484
793.0750, 3468.218
794.2170, 3321.979
795.3590, 3476.771
796.5010, 3492.592
797.6430, 3453.441
798.7850, 3371.636
799.9260, 3462.013
801.0670, 3445.945
802.2080, 3447.907
803.3490, 3328.895
804.4900, 3379.856
805.6310, 3355.857
806.7710, 3386.966
807.9110, 3442.660
809.0510, 3424.780
810.1910, 3606.925
811.3310, 3643.354
812.4710, 3572.650
813.6100, 3485.869
814.7490, 3674.324
815.8880, 3613.590
817.0270, 3676.969
818.1660, 3537.825
819.3050, 3546.167
820.4430, 3731.146
821.5820, 3879.956
822.7200, 3685.580
823.8580, 3750.997
824.9950, 3840.711
826.1330, 3813.288
827.2710, 3800.004
828.4080, 3909.153
829.5450, 3981.632
830.6820, 3978.406
831.8190, 3994.292
832.9560, 4071.787
834.0920, 3976.687
835.2280, 4131.514
836.3650, 4113.383
837.5010, 4197.018
838.6360, 4145.088
839.7720, 4198.215
840.9080, 4366.021
842.0430, 4341.947
843.1780, 4426.530
844.3130, 4550.250
845.4480, 4622.049
846.5830, 4753.778
847.7170, 4776.689
848.8520, 4814.525
849.9860, 4992.465
851.1200, 5273.691
852.2540, 5298.709
853.3870, 5546.526
854.5210, 5881.021
855.6540, 5832.861
856.7880, 6395.263
857.9210, 6632.098
859.0540, 7058.965
860.1860, 7336.319
861.3190, 7602.501
862.4510, 8292.464
863.5840, 8688.645
864.7160, 9449.572
865.8480, 9880.811
866.9790, 10565.81
868.1110, 11193.67
869.2420, 12289.63
870.3740, 12945.02
871.5050, 13711.20
872.6360, 14525.19
873.7660, 14930.43
874.8970, 15251.49
876.0280, 15086.01
877.1580, 14680.11
878.2880, 14016.23
879.4180, 13190.72
880.5480, 12066.30
881.6770, 10611.88
882.8070, 9338.132
883.9360, 8153.547
885.0650, 7072.768
886.1940, 5961.074
887.3230, 4992.408
888.4520, 4138.650
889.5800, 3674.393
890.7090, 2970.822
891.8370, 2672.197
892.9650, 2297.533
894.0930, 1933.349
895.2200, 1637.626
896.3480, 1622.802
897.4750, 1375.268
898.6020, 1181.877
899.7290, 1320.231
900.8560, 913.5186
901.9830, 792.8086
903.1090, 818.0986
904.2360, 671.3877
905.3620, 682.6777
906.4880, 484.9639
907.6140, 437.2881
908.7400, 439.5723
909.8650, 459.8555
910.9900, 380.1357
912.1160, 481.4268
913.2410, 372.9141
914.3660, 281.1904
915.4900, 300.4639
916.6150, 304.7344
917.7390, 335.0000
918.8640, 157.4131
919.9880, 129.6719
921.1120, 94.15527
922.2350, 161.1748
923.3590, 57.41895
924.4820, 109.6592
925.6060, 154.0225
926.7290, 13.25488
927.8520, 121.4883
928.9740, 144.7168
930.0970, 43.93945
931.2190, 58.15527
932.3420, 6.363281
933.4640, 9.435547
934.5860, 44.24316
935.7080, 76.91797
936.8290, 72.07031
937.9510, 112.3369
939.0720, 127.5254
940.1930, 82.53516
941.3140, 31.58496
942.4350, 71.37305
943.5560, 40.61816
944.6760, 51.60059
945.7960, 0.5722660
946.9170, 123.4697
948.0370, 32.40723
949.1560, 59.72559
950.2760, 38.09375
951.3960, 40.09766
952.5150, 94.32812
953.6340, 25.37402
954.7530, 93.93555
955.8720, 5.685547
956.9910, 13.28906
958.1090, 104.8760
959.2280, 21.51562
960.3460, 81.97266
961.4640, 3.495117
962.5820, 6.956055
963.6990, 2.386719
964.8170, 33.20508
965.9340, 20.16016
967.0510, 90.49121
968.1690, 48.21582
969.2850, 77.99219
970.4020, 30.16260
971.5190, 83.30127
972.6350, 0.4277340
973.7510, 31.47363
974.8670, 6.581055
975.9830, 90.38916
977.0990, 4.437500
978.2150, 93.48145
979.3300, 59.38574
980.4450, 13.27393
981.5600, 10.19629
982.6750, 64.03271
983.7900, 54.85254
984.9050, 41.34375
986.0190, 52.40430
987.1340, 129.1357
988.2480, 28.85352
989.3620, 112.5469
990.4750, 24.77295
991.5890, 0.8588870
992.7020, 123.4565
993.8160, 53.96240
994.9290, 55.55518
996.0420, 81.05273
997.1550, 59.53271
998.2670, 174.9937
999.3800, 59.43750
1000.492, 88.86230
1001.604, 73.73096
1002.716, 133.6060
1003.828, 16.92529
1004.940, 23.21387
1006.051, 153.4736
1007.163, 74.71582
1008.274, 198.9375
1009.385, 19.14111
1010.496, 121.3125
1011.606, 211.4653
1012.717, 67.59912
1013.827, 62.71582
1014.937, 63.80957
1016.047, 106.8804
1017.157, 85.20166
1018.267, 160.9658
1019.377, 107.1729
1020.486, 104.1650
1021.595, 192.1367
1022.704, 65.08740
1023.813, 97.01465
1024.922, 106.9956
1026.030, 117.9014
1027.139, 63.91553
1028.247, 143.8521
1029.355, 46.68652
1030.463, 100.4873
1031.571, 84.25586
1032.678, 123.0020
1033.786, 225.7275
1034.893, 286.5439
1036.000, 197.2417
1037.107, 178.9199
1038.214, 150.7100
1039.321, 207.3472
1040.427, 137.9629
1041.533, 213.5581
1042.639, 187.2734
1043.745, 242.8267
1044.851, 147.5088
1045.957, 108.0200
1047.062, 251.4395
1048.168, 230.9062
1049.273, 296.3521
1050.378, 230.8066
1051.482, 120.3579
1052.587, 202.7417
1053.692, 167.1045
1054.796, 159.4458
1055.900, 382.9482
1057.004, 247.2466
1058.108, 129.7485
1059.212, 272.0034
1060.315, 231.2915
1061.418, 272.7148
1062.522, 347.9043
1063.625, 289.0723
1064.728, 237.2178
1065.830, 215.3423
1066.933, 213.9404
1068.035, 272.5503
1069.137, 326.6094
1070.239, 137.6460
1071.341, 327.9028
1072.443, 228.9517
1073.545, 337.9233
1074.646, 316.9351
1075.747, 297.2637
1076.848, 269.1816
1077.949, 265.4224
1079.050, 241.8833
1080.150, 262.6265
1081.251, 193.4507
1082.351, 220.2378
1083.451, 328.0513
1084.551, 372.7261
1085.651, 231.0986
1086.750, 267.0352
1087.850, 223.1162
1088.949, 311.3809
1090.048, 446.8335
1091.147, 127.4932
1092.246, 311.0259
1093.345, 300.5288
1094.443, 186.8926
1095.541, 284.9678
1096.639, 214.5737
1097.737, 205.0024
1098.835, 301.2012
1099.933, 224.8057
1101.030, 160.1748
1102.128, 122.5054
1103.225, 137.9326
1104.322, 164.5952
1105.419, 186.8169
1106.515, 233.1050
1107.612, 263.7378
1108.708, 179.7510
1109.804, 287.2549
1110.900, 211.6187
1111.996, 110.9014
1113.092, 81.25195
1114.187, 144.4170
1115.283, 162.6523
1116.378, 222.7837
1117.473, 195.8281
1118.568, 169.0903
1119.662, 235.5039
1120.757, 285.0679
1121.851, 192.7695
1122.946, 206.4204
1124.040, 138.7764
1125.134, 88.97705
1126.227, 193.8589
1127.321, 210.7129
1128.414, 116.7812
1129.508, 102.7534
1130.601, 147.8618
1131.693, 245.8364
1132.786, 141.8560
1133.879, 113.6968
1134.971, 124.7510
1136.064, 108.5474
1137.156, 133.9727
1138.248, 168.2705
1139.339, 187.0518
1140.431, 237.0415
1141.522, 248.0771
1142.614, 137.5405
1143.705, 209.4927
1144.796, 182.1143
1145.887, 85.62012
1146.977, 79.11572
1148.068, 111.4438
1149.158, 100.1323
1150.248, 24.04297
1151.338, 103.8472
1152.428, 144.6152
1153.518, 98.46826
1154.607, 151.8501
1155.696, 51.59277
1156.785, 64.44824
1157.874, 33.19189
1158.963, 45.57666
1160.052, 64.95410
1161.141, 65.25391
1162.229, 122.8350
1163.317, 188.4619
1164.405, 230.3955
1165.493, 13.81201
1166.581, 110.0459
1167.668, 82.93848
1168.756, 36.81445
1169.843, 143.4863
1170.930, 156.2710
1172.017, 106.8828
1173.103, 33.52295
1174.190, 125.3511
1175.276, 31.03320
1176.363, 111.6812
1177.449, 12.84131
1178.535, 105.7402
1179.620, 165.3740
1180.706, 57.93506
1181.791, 29.48535
1182.877, 146.7842
1183.962, 125.3140
1185.047, 74.90967
1186.131, 20.42041
1187.216, 73.94873
1188.300, 11.66357
1189.385, 87.01465
1190.469, 32.41650
1191.553, 12.04688
1192.637, 159.4805
1193.720, 66.90381
1194.804, 108.3184
1195.887, 132.9014
1196.970, 13.70215
1198.053, 154.6807
1199.136, 116.0669
1200.219, 107.4438
1201.301, 4.689941
1202.383, 58.04785
1203.465, 105.5718
1204.547, 42.94727
1205.629, 107.3140
1206.711, 54.69385
1207.792, 186.0664
1208.874, 6.488770
1209.955, 226.8457
1211.036, 89.33838
1212.117, 8.864258
1213.198, 48.25293
1214.278, 62.63379
1215.359, 13.02051
1216.439, 2.427246
1217.519, 119.8252
1218.599, 157.0542
1219.678, 138.4741
1220.758, 142.8877
1221.837, 15.26221
1222.917, 150.6714
1223.996, 158.0996
1225.075, 20.88818
1226.153, 84.38721
1227.232, 25.80908
1228.310, 63.50244
1229.389, 86.42822
1230.467, 15.87402
1231.545, 42.33105
1232.622, 8.812500
1233.700, 8.380371
1234.777, 8.988281
1235.855, 2.669922
1236.932, 24.81055
1238.009, 39.50342
1239.086, 95.00537
1240.162, 129.5107
1241.239, 113.0088
1242.315, 138.1484
1243.391, 58.07910
1244.467, 94.56885
1245.543, 112.0928
1246.619, 6.570801
1247.694, 4.060059
1248.769, 14.72998
1249.844, 151.9907
1250.919, 7.444336
1251.994, 129.3369
1253.069, 23.59570
1254.144, 51.16211
1255.218, 10.63965
1256.292, 70.14404
1257.366, 117.6226
1258.440, 27.09473
1259.514, 194.5615
1260.587, 13.02295
1261.661, 77.48389
1262.734, 28.01123
1263.807, 58.45410
1264.880, 44.12988
1265.952, 138.5898
1267.025, 97.04980
1268.097, 189.5034
1269.170, 79.95264
1270.242, 101.4946
1271.314, 80.93945
1272.385, 108.3784
1273.457, 17.18848
1274.528, 70.34131
1275.600, 76.78906
1276.671, 6.668945
1277.742, 68.08789
1278.812, 54.48633
1279.883, 57.85693
1280.954, 120.3232
1282.024, 71.70557
1283.094, 55.36523
1284.164, 41.73877
1285.234, 26.20508
1286.303, 78.62158
1287.373, 28.82861
1288.442, 56.23145
1289.511, 82.57031
1290.580, 179.9604
1291.649, 12.47949
1292.718, 1.887207
1293.786, 47.66748
1294.855, 23.53027
1295.923, 12.82031
