##NAMES=Columbite-(Fe)
##RRUFFID=R050348
##IDEAL CHEMISTRY=Fe^2+^Nb^5+^_2_O_6_
##LOCALITY=Lord Hill mine, Stoneham, Oxford County, Maine, USA
##OWNER=RRUFF
##SOURCE=California Institute of Technology
##DESCRIPTION=Black fragment
##STATUS=The identification of this mineral has been confirmed by X-ray diffraction and chemical analysis
##URL=rruff.info/R050348
##MEASURED CHEMISTRY=(Fe^2+^_0.69_Mn^2+^_0.30_Ti_0.01_)(Nb_0.89_Ta_0.10_Ti_0.01_)_2_O_6_
##PIN_ID=L00509
##ORIENTATION=Laser parallel to -b* (0 -1 0). Fiducial mark perpendicular to laser is parallel to -c [0 0 -1]
221.0220, 0.0000000E+00
222.2400, 19.73193
223.4590, 3.055176
224.6770, 70.21631
225.8950, 42.44043
227.1120, 42.48633
228.3300, 111.7061
229.5480, 115.6187
230.7650, 180.8701
231.9820, 27.25000
233.1990, 141.6099
234.4160, 177.8052
235.6330, 306.6831
236.8490, 378.1021
238.0660, 357.9648
239.2820, 332.2173
240.4980, 399.8965
241.7140, 551.0371
242.9300, 474.6255
244.1460, 528.5840
245.3610, 517.8506
246.5770, 560.3599
247.7920, 563.0288
249.0070, 624.7710
250.2220, 671.5205
251.4370, 581.2642
252.6510, 646.0190
253.8660, 557.0068
255.0800, 639.3667
256.2940, 687.1729
257.5080, 702.3408
258.7220, 587.0791
259.9360, 641.4463
261.1490, 628.5425
262.3630, 613.2036
263.5760, 692.5840
264.7890, 597.7026
266.0020, 673.9048
267.2150, 664.0625
268.4270, 702.1245
269.6400, 621.1729
270.8520, 553.0439
272.0640, 506.6128
273.2760, 541.8760
274.4880, 603.7661
275.7000, 505.2705
276.9120, 618.4214
278.1230, 472.2300
279.3340, 440.7549
280.5450, 391.1934
281.7560, 422.3867
282.9670, 365.9253
284.1780, 311.2505
285.3880, 288.5039
286.5980, 283.8252
287.8090, 193.8921
289.0190, 301.8394
290.2290, 200.5151
291.4380, 211.4546
292.6480, 280.4873
293.8570, 200.5718
295.0670, 120.4785
296.2760, 233.1685
297.4850, 285.8721
298.6930, 169.5820
299.9020, 257.5332
301.1110, 296.4932
302.3190, 235.9092
303.5270, 352.8506
304.7350, 275.5312
305.9430, 401.7617
307.1510, 367.3257
308.3580, 447.6401
309.5660, 330.1899
310.7730, 418.0474
311.9800, 504.0703
313.1870, 398.1021
314.3940, 480.7622
315.6010, 524.9297
316.8070, 452.3804
318.0130, 584.5176
319.2200, 575.4185
320.4260, 542.5781
321.6310, 482.9561
322.8370, 524.7964
324.0430, 517.7314
325.2480, 543.9619
326.4540, 463.3252
327.6590, 485.7964
328.8640, 500.6392
330.0680, 410.6084
331.2730, 383.6362
332.4780, 309.4883
333.6820, 303.7363
334.8860, 318.2612
336.0900, 296.4385
337.2940, 289.5381
338.4980, 248.5269
339.7010, 248.0459
340.9050, 209.1108
342.1080, 175.1440
343.3110, 257.9497
344.5140, 159.6948
345.7170, 137.8159
346.9200, 160.8154
348.1220, 86.65723
349.3240, 136.9795
350.5270, 185.2993
351.7290, 87.35693
352.9310, 155.2778
354.1320, 154.3657
355.3340, 77.34326
356.5350, 58.98584
357.7370, 117.7383
358.9380, 20.26904
360.1390, 44.93457
361.3400, 101.3516
362.5400, 108.7051
363.7410, 50.99219
364.9410, 46.77490
366.1410, 36.12305
367.3410, 135.7534
368.5410, 69.75977
369.7410, 5.996582
370.9400, 6.767578
372.1400, 0.5405270
373.3390, 40.30273
374.5380, 77.94775
375.7370, 36.75488
376.9360, 36.56738
378.1350, 6.937012
379.3330, 131.6504
380.5310, 90.79395
381.7300, 5.310547
382.9280, 50.87744
384.1260, 52.49023
385.3230, 108.8125
386.5210, 79.08936
387.7180, 65.68164
388.9160, 43.53027
390.1130, 6.547852
391.3100, 14.56396
392.5060, 26.52002
393.7030, 74.41602
394.9000, 130.2578
396.0960, 99.00000
397.2920, 2.218262
398.4880, 45.45068
399.6840, 14.93848
400.8800, 46.39844
402.0750, 38.06201
403.2710, 5.458008
404.4660, 105.7837
405.6610, 76.04541
406.8560, 1.241699
408.0510, 12.63965
409.2450, 18.60107
410.4400, 20.64453
411.6340, 35.23047
412.8280, 27.03564
414.0220, 19.77051
415.2160, 99.43408
416.4100, 25.96533
417.6030, 60.55518
418.7970, 46.01318
419.9900, 56.41016
421.1830, 18.74805
422.3760, 60.02295
423.5690, 101.2427
424.7610, 9.592285
425.9540, 296.5024
427.1460, 150.4028
428.3380, 191.5322
429.5300, 65.45850
430.7220, 102.3262
431.9140, 86.14111
433.1050, 59.89209
434.2970, 248.5732
435.4880, 169.2661
436.6790, 183.7646
437.8700, 153.2295
439.0610, 78.54883
440.2510, 72.83105
441.4420, 205.0405
442.6320, 135.1411
443.8220, 75.19531
445.0120, 171.2769
446.2020, 81.60938
447.3910, 91.92480
448.5810, 81.55664
449.7700, 38.65527
450.9600, 56.45605
452.1490, 48.20264
453.3370, 67.31152
454.5260, 192.1489
455.7150, 156.3359
456.9030, 163.5605
458.0910, 84.24023
459.2800, 110.8364
460.4670, 88.48193
461.6550, 91.67334
462.8430, 106.7896
464.0300, 96.68555
465.2180, 27.19922
466.4050, 105.7593
467.5920, 151.4287
468.7790, 163.3022
469.9650, 44.31836
471.1520, 94.57031
472.3380, 76.24170
473.5250, 54.49023
474.7110, 127.2505
475.8970, 26.48633
477.0820, 97.70166
478.2680, 100.3486
479.4540, 134.1274
480.6390, 99.55762
481.8240, 125.2632
483.0090, 116.7031
484.1940, 55.96582
485.3780, 138.3599
486.5630, 71.78418
487.7470, 114.7915
488.9320, 161.6831
490.1160, 123.6709
491.3000, 77.06494
492.4830, 158.9170
493.6670, 116.0562
494.8500, 137.4448
496.0340, 61.35352
497.2170, 132.2495
498.4000, 103.5156
499.5820, 191.4971
500.7650, 148.1714
501.9480, 136.1528
503.1300, 153.8662
504.3120, 122.4048
505.4940, 170.0083
506.6760, 94.88672
507.8580, 187.0439
509.0390, 130.5654
510.2210, 173.2925
511.4020, 215.9458
512.5830, 195.3008
513.7640, 199.6680
514.9450, 297.6538
516.1250, 229.1479
517.3060, 256.1484
518.4860, 256.5039
519.6660, 239.0425
520.8460, 253.4121
522.0260, 279.6655
523.2060, 349.9346
524.3850, 318.3213
525.5650, 349.8218
526.7440, 320.3872
527.9230, 321.6206
529.1020, 451.5625
530.2810, 380.0327
531.4590, 427.8696
532.6380, 330.8008
533.8160, 436.0942
534.9940, 402.8296
536.1720, 335.6206
537.3500, 318.8481
538.5270, 281.8579
539.7050, 299.1543
540.8820, 360.3774
542.0590, 289.8452
543.2360, 334.3247
544.4130, 324.3223
545.5900, 424.0161
546.7660, 439.0098
547.9430, 247.7246
549.1190, 380.1436
550.2950, 267.9780
551.4710, 309.8472
552.6470, 195.8770
553.8220, 236.7607
554.9980, 271.3735
556.1730, 271.7075
557.3480, 211.6118
558.5230, 220.3101
559.6980, 256.8076
560.8730, 222.3555
562.0470, 248.5181
563.2220, 225.7793
564.3960, 217.2959
565.5700, 259.2300
566.7440, 227.7974
567.9170, 192.4009
569.0910, 210.5444
570.2640, 188.2319
571.4380, 173.5073
572.6110, 183.4570
573.7840, 182.3096
574.9570, 128.9194
576.1290, 107.2998
577.3020, 123.5464
578.4740, 156.8599
579.6460, 136.0518
580.8180, 74.90234
581.9900, 76.71875
583.1620, 50.10156
584.3330, 0.7495120
585.5040, 6.687012
586.6760, 19.55273
587.8470, 20.60693
589.0180, 33.04932
590.1880, 17.66406
591.3590, 44.24365
592.5290, 68.47852
593.7000, 53.86133
594.8700, 19.03076
596.0400, 32.67773
597.2090, 8.576660
598.3790, 20.12109
599.5490, 20.14062
600.7180, 50.96094
601.8870, 3.988281
603.0560, 28.80713
604.2250, 46.18848
605.3940, 5.307129
606.5620, 6.508789
607.7300, 65.25293
608.8990, 39.87305
610.0670, 51.45898
611.2350, 46.61328
612.4020, 26.45850
613.5700, 32.63232
614.7370, 9.583496
615.9050, 29.99707
617.0720, 19.32568
618.2390, 19.41455
619.4060, 43.87451
620.5720, 27.32812
621.7390, 25.65967
622.9050, 8.123047
624.0710, 15.25928
625.2370, 16.20166
626.4030, 52.34375
627.5690, 29.67871
628.7340, 94.22021
629.9000, 34.81250
631.0650, 13.42139
632.2300, 46.88916
633.3950, 6.465332
634.5600, 22.19434
635.7240, 38.87354
636.8890, 61.38770
638.0530, 4.101563
639.2170, 57.83594
640.3810, 94.59180
641.5450, 38.36621
642.7080, 94.16699
643.8720, 67.99414
645.0350, 111.8477
646.1980, 125.7256
647.3610, 172.6270
648.5240, 68.57471
649.6870, 109.5469
650.8490, 106.5386
652.0120, 123.5796
653.1740, 177.6499
654.3360, 147.7617
655.4980, 93.90527
656.6600, 175.0840
657.8210, 121.3223
658.9830, 151.6162
660.1440, 103.9810
661.3050, 195.3994
662.4660, 265.8428
663.6270, 176.3423
664.7870, 186.8940
665.9480, 275.4956
667.1080, 254.1401
668.2680, 288.8076
669.4280, 281.8506
670.5880, 180.2959
671.7480, 242.1260
672.9070, 267.0039
674.0670, 255.9268
675.2260, 322.8857
676.3850, 308.8828
677.5440, 286.9321
678.7030, 399.0176
679.8610, 427.1411
681.0200, 307.3096
682.1780, 543.5181
683.3360, 418.7773
684.4940, 444.0703
685.6520, 388.4033
686.8090, 425.7681
687.9670, 433.1738
689.1240, 456.6250
690.2810, 540.1323
691.4380, 457.6885
692.5950, 492.2998
693.7520, 599.9492
694.9080, 463.6294
696.0650, 442.3428
697.2210, 516.0942
698.3770, 691.8901
699.5330, 667.7148
700.6880, 678.5771
701.8440, 687.4678
702.9990, 645.3950
704.1550, 649.3496
705.3100, 628.3462
706.4650, 688.3823
707.6190, 770.4419
708.7740, 773.5278
709.9290, 703.6372
711.0830, 789.7744
712.2370, 805.9375
713.3910, 851.1270
714.5450, 988.3447
715.6980, 954.6714
716.8520, 995.1099
718.0050, 935.1450
719.1580, 997.4609
720.3110, 950.8047
721.4640, 972.1743
722.6170, 973.5684
723.7700, 1010.091
724.9220, 1118.192
726.0740, 1120.122
727.2260, 1201.052
728.3780, 1264.603
729.5300, 1274.605
730.6810, 1282.758
731.8330, 1317.237
732.9840, 1263.176
734.1350, 1286.349
735.2860, 1347.121
736.4370, 1338.833
737.5880, 1471.065
738.7380, 1563.330
739.8880, 1573.120
741.0390, 1570.937
742.1890, 1604.779
743.3380, 1674.647
744.4880, 1661.542
745.6380, 1622.336
746.7870, 1763.294
747.9360, 1928.204
749.0850, 1729.753
750.2340, 1874.507
751.3830, 1787.944
752.5310, 1846.024
753.6800, 1956.132
754.8280, 1941.562
755.9760, 2135.725
757.1240, 2131.303
758.2720, 2262.731
759.4190, 2151.971
760.5670, 2309.234
761.7140, 2233.522
762.8610, 2324.835
764.0080, 2324.887
765.1550, 2347.250
766.3020, 2438.638
767.4480, 2393.051
768.5950, 2426.488
769.7410, 2425.949
770.8870, 2395.435
772.0330, 2452.855
773.1780, 2542.388
774.3240, 2581.944
775.4690, 2622.525
776.6140, 2658.679
777.7590, 2623.758
778.9040, 2676.410
780.0490, 2662.084
781.1940, 2623.449
782.3380, 2733.369
783.4820, 2631.233
784.6260, 2798.066
785.7700, 2628.284
786.9140, 2813.094
788.0580, 2666.926
789.2010, 2761.779
790.3450, 2771.655
791.4880, 2684.885
792.6310, 2715.803
793.7730, 2755.962
794.9160, 2871.145
796.0590, 2735.942
797.2010, 2882.583
798.3430, 2811.744
799.4850, 2866.319
800.6270, 2820.377
801.7690, 2771.074
802.9100, 2888.763
804.0520, 2865.656
805.1930, 2867.784
806.3340, 2908.373
807.4750, 2851.695
808.6160, 2847.191
809.7560, 2970.709
810.8970, 2971.953
812.0370, 2981.173
813.1770, 3058.376
814.3170, 2971.199
815.4570, 2887.051
816.5960, 3022.602
817.7360, 2971.791
818.8750, 3025.101
820.0140, 3035.691
821.1530, 3055.069
822.2920, 2973.401
823.4310, 3115.202
824.5690, 3142.558
825.7070, 3072.312
826.8460, 3185.051
827.9840, 3116.933
829.1220, 3067.248
830.2590, 3114.119
831.3970, 3136.646
832.5340, 3206.124
833.6710, 3137.349
834.8080, 3190.890
835.9450, 3191.362
837.0820, 3245.008
838.2190, 3313.498
839.3550, 3216.499
840.4910, 3290.106
841.6270, 3414.186
842.7630, 3440.707
843.8990, 3561.235
845.0350, 3508.771
846.1700, 3607.311
847.3060, 3636.859
848.4410, 3742.414
849.5760, 3787.261
850.7100, 3866.637
851.8450, 3901.210
852.9800, 4014.788
854.1140, 4098.370
855.2480, 4255.959
856.3820, 4421.554
857.5160, 4597.153
858.6500, 4510.756
859.7830, 4722.364
860.9170, 4776.978
862.0500, 4905.595
863.1830, 5031.541
864.3160, 5137.854
865.4480, 5297.492
866.5810, 5306.138
867.7130, 5528.795
868.8460, 5503.463
869.9780, 5504.143
871.1100, 5248.827
872.2410, 5416.519
873.3730, 5024.214
874.5050, 4916.913
875.6360, 4485.617
876.7670, 4265.322
877.8980, 3778.029
879.0290, 3519.737
880.1590, 3044.448
881.2900, 2662.161
882.4200, 2421.875
883.5500, 2119.599
884.6800, 1929.327
885.8100, 1706.657
886.9400, 1566.805
888.0690, 1306.550
889.1990, 1187.294
890.3280, 958.0391
891.4570, 839.3335
892.5860, 708.1958
893.7140, 662.2822
894.8430, 506.0293
895.9710, 515.7754
897.1000, 482.5195
898.2280, 391.2622
899.3560, 352.0034
900.4830, 368.7432
901.6110, 224.4819
902.7380, 308.2192
903.8660, 132.9575
904.9930, 220.6929
906.1200, 241.4258
907.2460, 186.1567
908.3730, 77.88525
909.5000, 128.6167
910.6260, 105.3496
911.7520, 78.08105
912.8780, 120.8149
914.0040, 40.55078
915.1290, 28.28320
916.2550, 7.989258
917.3800, 16.37500
918.5050, 14.35840
919.6300, 7.109863
920.7550, 1.211914
921.8800, 34.45459
923.0040, 32.11523
924.1290, 100.7720
925.2530, 19.43701
926.3770, 28.89111
927.5010, 51.75195
928.6250, 25.60352
929.7480, 8.984863
930.8720, 97.38574
931.9950, 93.85254
933.1180, 53.38330
934.2410, 5.042480
935.3640, 55.45410
936.4860, 43.14160
937.6090, 6.222656
938.7310, 44.42725
939.8530, 39.88037
940.9750, 37.81982
942.0970, 64.56055
943.2180, 18.64502
944.3400, 34.16260
945.4610, 29.00830
946.5820, 4.113770
947.7030, 26.78320
948.8240, 83.71631
949.9450, 19.70068
951.0650, 27.28223
952.1860, 39.59668
953.3060, 67.20508
954.4260, 30.20752
955.5460, 8.048828
956.6650, 9.950684
957.7850, 1.833008
958.9040, 22.30811
960.0230, 12.06494
961.1420, 27.16113
962.2610, 3.049805
963.3800, 19.22900
964.4990, 4.454590
965.6170, 56.11572
966.7350, 71.76416
967.8530, 15.59766
968.9710, 64.00293
970.0890, 88.59033
971.2070, 4.834961
972.3240, 91.70801
973.4410, 35.23779
974.5580, 64.74951
975.6750, 25.75098
976.7920, 137.7119
977.9090, 144.2568
979.0250, 173.6963
980.1410, 163.1226
981.2580, 104.5356
982.3740, 147.9370
983.4890, 181.3242
984.6050, 77.69873
985.7200, 160.0586
986.8360, 259.4048
987.9510, 152.7422
989.0660, 193.0718
990.1810, 175.3887
991.2950, 196.6919
992.4100, 164.9819
993.5240, 250.2568
994.6390, 259.5171
995.7530, 226.7646
996.8660, 245.9971
997.9800, 171.2153
999.0940, 278.4194
1000.207, 285.6084
1001.320, 267.7847
1002.433, 203.9478
1003.546, 124.1396
1004.659, 242.2778
1005.772, 160.4019
1006.884, 288.5103
1007.996, 277.2603
1009.108, 263.8901
1010.220, 269.7427
1011.332, 257.8501
1012.444, 198.8809
1013.555, 233.9971
1014.666, 131.1509
1015.777, 211.1582
1016.888, 136.1265
1017.999, 233.0776
1019.110, 162.0127
1020.220, 247.0049
1021.331, 210.9058
1022.441, 290.7900
1023.551, 170.7754
1024.661, 209.6260
1025.770, 270.7480
1026.880, 239.1772
1027.989, 268.1187
1029.098, 318.1943
1030.207, 226.0454
1031.316, 336.9609
1032.425, 243.6924
1033.533, 279.4951
1034.642, 151.4194
1035.750, 343.3638
1036.858, 372.9517
1037.966, 248.5967
1039.073, 317.3926
1040.181, 335.3188
1041.288, 377.1475
1042.396, 294.2148
1043.503, 216.9932
1044.610, 220.1475
1045.716, 214.1992
1046.823, 322.1689
1047.929, 292.0024
1049.036, 328.5664
1050.142, 285.7656
1051.248, 297.2129
1052.353, 232.6416
1053.459, 521.2666
1054.564, 397.2280
1055.670, 471.9082
1056.775, 302.8623
1057.880, 398.4429
1058.985, 273.9468
1060.089, 416.8970
1061.194, 378.1221
1062.298, 392.6377
1063.402, 436.6997
1064.506, 369.3892
1065.610, 333.2393
1066.713, 384.7212
1067.817, 336.4238
1068.920, 428.7900
1070.023, 398.4639
1071.126, 316.2822
1072.229, 340.7397
1073.332, 268.9331
1074.435, 356.6416
1075.537, 319.6006
1076.639, 330.5083
1077.741, 337.3877
1078.843, 335.3105
1079.945, 371.5977
1081.046, 354.8652
1082.148, 328.8896
1083.249, 294.3672
1084.350, 226.4229
1085.451, 343.6333
1086.551, 409.5063
1087.652, 297.3062
1088.752, 251.8062
1089.853, 341.9189
1090.953, 249.7544
1092.053, 229.8984
1093.152, 245.2891
1094.252, 310.6885
1095.351, 217.9409
1096.451, 332.9746
1097.550, 128.9468
1098.649, 263.6851
1099.748, 232.6626
1100.846, 254.6982
1101.945, 250.2583
1103.043, 198.9087
1104.141, 261.3506
1105.239, 331.0474
1106.337, 230.1597
1107.434, 229.8320
1108.532, 281.8726
1109.629, 90.99902
1110.726, 174.1230
1111.823, 222.2109
1112.920, 237.5063
1114.017, 121.7373
1115.113, 175.0825
1116.210, 160.8774
1117.306, 143.4243
1118.402, 220.5737
1119.498, 124.8003
1120.593, 201.7759
1121.689, 208.7026
1122.784, 247.2847
1123.879, 217.2271
1124.974, 208.2627
1126.069, 267.5435
1127.164, 289.2842
1128.259, 251.2930
1129.353, 291.6460
1130.447, 192.0352
1131.541, 215.1860
1132.635, 291.5024
1133.729, 185.2119
1134.822, 108.6548
1135.916, 186.8848
1137.009, 155.5547
1138.102, 141.8535
1139.195, 148.9170
1140.288, 133.0420
1141.380, 138.3701
1142.473, 103.7744
1143.565, 139.8638
1144.657, 94.25391
1145.749, 81.41748
1146.841, 112.9180
1147.932, 185.0796
1149.024, 222.4756
1150.115, 227.0181
1151.206, 100.3257
1152.297, 143.0615
1153.388, 117.9575
1154.479, 90.05176
1155.569, 156.7510
1156.659, 49.21143
1157.750, 114.3257
1158.839, 110.4429
1159.929, 138.0674
1161.019, 97.33887
1162.108, 77.70410
1163.198, 126.5410
1164.287, 96.39502
1165.376, 62.84961
1166.465, 54.15430
1167.553, 2.077637
1168.642, 125.7437
1169.730, 76.47705
1170.818, 41.19580
1171.906, 60.08203
1172.994, 11.82617
1174.082, 7.663574
1175.170, 6.473633
1176.257, 12.90771
1177.344, 12.03760
1178.431, 32.52881
1179.518, 92.07959
1180.605, 23.76318
1181.691, 63.58008
1182.778, 82.22070
1183.864, 43.73535
1184.950, 68.23486
1186.036, 79.72363
1187.122, 3.333496
1188.207, 42.21045
1189.292, 41.46582
1190.378, 113.5796
1191.463, 22.04883
1192.548, 12.29297
1193.632, 98.62842
1194.717, 41.05518
1195.801, 40.39941
1196.886, 15.75684
1197.970, 91.11572
1199.054, 56.46387
1200.137, 68.79883
1201.221, 36.13525
1202.305, 73.46680
1203.388, 80.20508
1204.471, 85.62842
1205.554, 89.44580
1206.637, 97.77979
1207.719, 24.10400
1208.802, 8.570801
1209.884, 33.74609
1210.966, 42.05273
1212.048, 51.63916
1213.130, 74.65430
1214.212, 48.03955
1215.293, 56.22656
1216.374, 107.4966
1217.456, 56.75488
1218.536, 20.99805
1219.617, 42.22754
1220.698, 9.448242
1221.778, 26.65918
1222.859, 110.8696
1223.939, 130.0796
1225.019, 133.3022
1226.099, 58.52051
1227.178, 4.253418
1228.258, 75.96191
1229.337, 29.16650
1230.417, 74.36523
1231.496, 131.5635
1232.574, 104.4263
1233.653, 134.7676
1234.732, 86.15479
1235.810, 102.3242
1236.888, 60.48828
1237.966, 27.35889
1239.044, 47.78760
1240.122, 20.82715
1241.199, 93.94678
1242.277, 78.05469
1243.354, 37.21484
1244.431, 175.2954
1245.508, 24.36670
1246.585, 107.4263
1247.661, 135.4756
1248.738, 15.48438
1249.814, 16.46582
1250.890, 49.52930
1251.966, 21.51074
1253.042, 92.47803
1254.117, 91.43359
1255.193, 114.4688
1256.268, 36.40430
1257.343, 95.32617
1258.418, 55.23682
1259.493, 126.1338
1260.567, 70.02832
1261.642, 11.90283
1262.716, 0.1601560
1263.790, 14.96582
1264.864, 101.4893
1265.938, 7.312988
1267.011, 96.14258
1268.085, 131.9385
1269.158, 119.7236
1270.231, 4.498047
1271.304, 131.2559
1272.377, 110.9429
1273.450, 35.67871
1274.522, 86.30029
1275.594, 36.85693
1276.666, 104.5322
1277.738, 122.6836
1278.810, 215.8921
1279.882, 177.5552
1280.953, 115.1318
1282.025, 94.77148
1283.096, 95.39941
1284.167, 81.19727
1285.238, 85.05029
1286.308, 92.96777
1287.379, 105.7280
1288.449, 112.2617
1289.519, 145.8491
1290.589, 212.3042
1291.659, 80.66504
1292.729, 68.44092
1293.798, 172.8535
1294.868, 73.30518
1295.937, 274.8584
1297.006, 97.39404
1298.075, 137.2715
1299.143, 193.5376
1300.212, 72.17822
1301.280, 21.67480
1302.348, 158.5938
1303.416, 146.7520
1304.484, 126.5039
1305.552, 46.69775
1306.620, 157.7397
1307.687, 256.9854
1308.754, 77.62646
1309.821, 42.60254
1310.888, 85.21973
1311.955, 129.6167
1313.021, 214.8091
1314.088, 116.0430
1315.154, 81.32227
1316.220, 156.0376
1317.286, 136.1021
1318.352, 141.1069
1319.417, 197.3452
1320.483, 203.7358
1321.548, 150.4692
1322.613, 83.98291
1323.678, 232.0376
1324.743, 176.8584
1325.807, 184.5537
1326.872, 152.6597
1327.936, 141.6914
1329.000, 178.6636
1330.064, 169.0781
1331.128, 205.9966
1332.191, 206.0957
1333.255, 151.5361
1334.318, 178.5527
1335.381, 178.9141
1336.444, 187.7559
1337.507, 202.7861
1338.569, 223.6787
1339.632, 229.3955
1340.694, 219.8652
1341.756, 238.9307
1342.818, 210.8760
1343.880, 202.8701
1344.941, 169.7432
1346.003, 177.6655
1347.064, 167.1929
1348.125, 181.7690
1349.186, 173.3848
1350.247, 129.1992
1351.308, 142.1719
1352.368, 218.4238
1353.428, 257.6265
1354.489, 265.7725
1355.549, 140.2627
1356.608, 185.0815
1357.668, 163.2798
1358.727, 136.9087
1359.787, 205.4795
1360.846, 99.67773
1361.905, 166.6094
1362.964, 165.9517
1364.022, 196.2002
1365.081, 157.5254
1366.139, 139.1699
1367.197, 189.8906
1368.255, 237.8960
1369.313, 217.6963
1370.371, 98.33008
1371.428, 225.7754
1372.486, 148.9468
1373.543, 168.0488
1374.600, 195.0337
1375.657, 159.2598
1376.713, 174.8652
1377.770, 149.3262
1378.826, 211.7959
1379.882, 165.0874
1380.938, 197.8408
1381.994, 93.03711
