##NAMES=Cordierite
##RRUFFID=R040082
##IDEAL CHEMISTRY=Mg_2_Al_3_(AlSi_5_)O_18_
##LOCALITY=Madagascar
##OWNER=RRUFF
##SOURCE=University of Arizona Mineral Museum
##DESCRIPTION=Dark gray coarsely crystalline massive
##STATUS=The identification of this mineral has been confirmed by X-ray diffraction and chemical analysis
##URL=rruff.info/R040082
##MEASURED CHEMISTRY=(Mg_1.60_Fe^2+^_0.39_Mn_0.01_)_Σ=2_Al_4.00_(Si_4.95_Al_0.05_)_Σ=5_O_18_·1.05H_2_O·Na_0.05_ ; H_2_O estimated by difference and verified by Raman spectroscopy
##PIN_ID=M00024
##ORIENTATION=Laser parallel to -b* (0 -1 0). Fiducial mark perpendicular to laser is parallel to -a [-1 0 0]
86.404, 0.000
87.798, 7.433
89.193, 284.162
90.587, 371.566
91.981, 333.595
93.375, 310.193
94.768, 233.688
96.161, 326.954
97.554, 433.323
98.947, 355.285
100.340, 362.238
101.732, 397.666
103.124, 586.312
104.516, 705.489
105.908, 1177.056
107.300, 1467.329
108.691, 1958.995
110.082, 2574.804
111.473, 3840.548
112.864, 5480.062
114.254, 7921.268
115.644, 10432.128
117.034, 11945.775
118.424, 12965.833
119.813, 13314.563
121.203, 11087.141
122.592, 7944.137
123.981, 5662.632
125.369, 3603.836
126.758, 2544.980
128.146, 1592.159
129.534, 1369.334
130.922, 949.473
132.309, 729.554
133.696, 488.562
135.083, 635.483
136.470, 398.310
137.857, 526.030
139.243, 484.640
140.630, 512.131
142.016, 564.910
143.401, 662.091
144.787, 794.129
146.172, 1037.946
147.557, 1528.784
148.942, 1970.014
150.327, 2739.786
151.711, 3598.398
153.096, 4716.360
154.480, 6475.924
155.863, 6346.811
157.247, 6355.646
158.630, 5503.424
160.013, 4376.227
161.396, 3228.831
162.779, 2338.978
164.161, 1630.612
165.544, 984.049
166.926, 569.691
168.308, 252.054
169.689, 105.016
171.070, 180.662
172.452, 90.046
173.833, 45.199
175.213, 113.142
176.594, 57.889
177.974, 180.453
179.354, 276.843
180.734, 225.064
182.114, 273.126
183.493, 354.029
184.872, 284.779
186.251, 316.379
187.630, 193.830
189.008, 171.134
190.387, 180.292
191.765, 131.305
193.143, 150.173
194.520, 126.900
195.898, 48.485
197.275, 6.068
198.652, 29.939
200.029, 59.654
201.405, 50.581
202.782, 33.716
204.158, 28.997
205.534, 134.560
206.909, 28.974
208.285, 31.759
209.660, 94.635
211.035, 218.802
212.410, 141.019
213.784, 73.447
215.159, 148.750
216.533, 132.921
217.907, 45.681
219.281, 24.328
220.654, 23.595
222.027, 155.486
223.400, 246.088
224.773, 303.556
226.146, 598.852
227.518, 895.959
228.891, 1281.929
230.263, 1882.761
231.634, 2712.417
233.006, 3374.457
234.377, 4303.917
235.748, 5197.574
237.119, 5812.524
238.490, 6337.229
239.860, 5727.339
241.231, 5470.095
242.601, 4780.985
243.970, 4289.080
245.340, 4058.075
246.709, 3823.491
248.079, 3984.851
249.448, 4235.035
250.816, 4968.128
252.185, 5972.257
253.553, 7405.281
254.921, 9235.232
256.289, 11040.546
257.657, 12817.128
259.024, 13522.908
260.391, 12104.845
261.758, 9283.896
263.125, 6745.032
264.492, 4861.229
265.858, 3427.472
267.224, 2759.741
268.590, 2101.022
269.956, 1876.303
271.321, 1686.569
272.687, 1630.814
274.052, 1483.032
275.416, 1676.215
276.781, 1894.360
278.146, 1979.462
279.510, 2412.519
280.874, 2812.521
282.237, 3438.464
283.601, 4299.334
284.964, 5408.117
286.327, 6963.813
287.690, 8500.425
289.053, 10306.957
290.416, 12293.409
291.778, 13422.778
293.140, 14362.065
294.502, 13940.273
295.863, 13412.402
297.225, 11911.448
298.586, 10392.416
299.947, 8896.303
301.308, 7501.112
302.668, 6133.839
304.029, 5177.488
305.389, 4161.058
306.749, 3364.539
308.108, 2712.876
309.468, 2120.073
310.827, 1811.194
312.186, 1510.211
313.545, 1450.928
314.903, 1395.417
316.262, 1250.637
317.620, 1299.752
318.978, 1337.784
320.336, 1370.755
321.693, 1493.669
323.051, 1532.523
324.408, 1456.318
325.765, 1615.050
327.121, 1359.713
328.478, 1142.298
329.834, 955.802
331.190, 869.217
332.546, 664.544
333.902, 576.934
335.257, 441.934
336.612, 417.996
337.967, 371.967
339.322, 376.851
340.677, 388.645
342.031, 436.717
343.385, 506.974
344.739, 615.512
346.093, 688.971
347.446, 848.351
348.799, 865.653
350.153, 903.880
351.505, 723.030
352.858, 670.105
354.210, 691.106
355.563, 663.034
356.915, 750.887
358.267, 940.669
359.618, 1190.380
360.969, 1690.542
362.321, 2103.662
363.672, 2684.114
365.022, 3046.955
366.373, 3083.556
367.723, 2607.696
369.073, 1950.936
370.423, 1354.903
371.773, 1014.139
373.122, 685.370
374.471, 470.668
375.821, 205.705
377.169, 124.823
378.518, 24.940
379.866, 20.885
381.215, 89.516
382.563, 194.530
383.910, 218.170
385.258, 218.258
386.605, 205.813
387.952, 215.346
389.299, 204.729
390.646, 225.196
391.992, 204.844
393.339, 282.632
394.685, 317.587
396.031, 175.746
397.376, 238.138
398.722, 170.842
400.067, 180.879
401.412, 214.243
402.757, 181.938
404.101, 129.966
405.446, 106.311
406.790, 34.936
408.134, 116.187
409.478, 338.113
410.821, 516.902
412.165, 652.646
413.508, 1101.366
414.851, 1509.044
416.193, 2018.682
417.536, 2854.273
418.878, 4017.818
420.220, 5433.313
421.562, 6943.761
422.904, 9081.158
424.245, 11015.503
425.586, 12158.801
426.927, 12604.047
428.268, 10996.241
429.609, 9230.385
430.949, 7306.475
432.289, 5676.518
433.629, 4186.508
434.969, 3329.447
436.309, 2495.338
437.648, 1988.177
438.987, 1698.966
440.326, 1390.706
441.665, 1069.396
443.003, 1008.037
444.342, 899.631
445.680, 949.176
447.018, 972.673
448.355, 997.123
449.693, 1091.526
451.030, 1157.883
452.367, 1440.194
453.704, 1275.460
455.041, 1240.682
456.377, 1060.859
457.713, 835.992
459.049, 713.083
460.385, 601.130
461.721, 637.134
463.056, 474.098
464.391, 512.019
465.726, 610.899
467.061, 572.740
468.395, 617.540
469.730, 912.300
471.064, 776.893
472.398, 1004.708
473.731, 759.355
475.065, 861.967
476.398, 990.543
477.731, 997.087
479.064, 986.597
480.397, 1123.075
481.729, 1040.522
483.062, 993.937
484.394, 1101.321
485.725, 1085.675
487.057, 1103.998
488.389, 1031.291
489.720, 985.555
491.051, 892.791
492.382, 867.998
493.712, 761.050
495.043, 665.702
496.373, 559.761
497.703, 696.711
499.032, 656.310
500.362, 616.956
501.691, 691.701
503.020, 521.742
504.349, 602.086
505.678, 626.899
507.007, 633.037
508.335, 589.268
509.663, 646.517
510.991, 755.771
512.319, 742.031
513.646, 820.156
514.973, 861.427
516.300, 895.645
517.627, 974.109
518.954, 1032.599
520.280, 1174.120
521.607, 1119.715
522.933, 1403.367
524.259, 1410.086
525.584, 1461.852
526.910, 1645.645
528.235, 1878.458
529.560, 2023.292
530.885, 2197.114
532.209, 2601.968
533.534, 3001.207
534.858, 3553.827
536.182, 4157.013
537.506, 4880.920
538.829, 5710.564
540.152, 6679.789
541.476, 7950.844
542.799, 9336.346
544.121, 11816.474
545.444, 14807.643
546.766, 18793.641
548.088, 23845.086
549.410, 29789.252
550.732, 35292.191
552.053, 40678.469
553.375, 43604.938
554.696, 43118.277
556.017, 40801.586
557.337, 36471.059
558.658, 32205.842
559.978, 28481.092
561.298, 26346.359
562.618, 23589.754
563.938, 21325.539
565.257, 19932.939
566.576, 18759.504
567.895, 18307.836
569.214, 18279.953
570.533, 19109.744
571.851, 20291.947
573.170, 22345.168
574.488, 23914.404
575.805, 24672.658
577.123, 24399.930
578.440, 23219.221
579.758, 20766.531
581.075, 17774.859
582.391, 15238.208
583.708, 12414.574
585.024, 10315.959
586.341, 8983.365
587.657, 7655.787
588.972, 6664.232
590.288, 5799.697
591.603, 4893.181
592.918, 4525.688
594.233, 4118.213
595.548, 3652.760
596.863, 3316.328
598.177, 3113.918
599.491, 2930.529
600.805, 2583.163
602.119, 2511.818
603.432, 2454.495
604.746, 2431.193
606.059, 2231.916
607.372, 2232.660
608.685, 2285.429
609.997, 2220.221
611.309, 2340.034
612.621, 2309.873
613.933, 2532.733
615.245, 2718.619
616.557, 2788.529
617.868, 2815.463
619.179, 2790.420
620.490, 2627.401
621.801, 2849.408
623.111, 2562.439
624.421, 2487.496
625.731, 2082.578
627.041, 2115.685
628.351, 1688.816
629.660, 1627.974
630.970, 1614.156
632.279, 1299.364
633.588, 1310.600
634.896, 1017.859
636.205, 1209.145
637.513, 991.457
638.821, 1191.795
640.129, 1102.158
641.437, 1177.549
642.744, 1197.967
644.051, 1343.411
645.358, 1437.947
646.665, 1455.445
647.972, 1541.045
649.278, 1653.596
650.584, 1797.640
651.890, 1977.516
653.196, 2192.286
654.502, 2470.493
655.807, 2744.322
657.113, 3153.722
658.418, 3986.739
659.722, 4674.765
661.027, 5627.043
662.331, 7097.330
663.636, 8735.746
664.940, 10656.600
666.244, 13034.717
667.547, 14888.202
668.851, 16452.762
670.154, 16423.297
671.457, 15080.630
672.760, 13196.361
674.062, 10546.291
675.365, 8366.978
676.667, 6641.707
677.969, 5252.443
679.271, 4180.080
680.572, 3297.948
681.874, 2970.288
683.175, 2644.723
684.476, 2315.844
685.777, 2188.207
687.077, 1897.618
688.378, 1913.104
689.678, 1656.195
690.978, 1490.781
692.278, 1252.157
693.577, 1365.705
694.877, 1209.746
696.176, 1345.725
697.475, 1277.121
698.774, 1579.758
700.072, 1631.293
701.371, 1756.961
702.669, 1902.733
703.967, 2387.604
705.265, 2968.578
706.562, 3240.649
707.860, 3619.824
709.157, 4949.100
710.454, 5779.490
711.751, 5823.010
713.047, 4460.619
714.344, 4132.333
715.640, 3866.135
716.936, 3647.249
718.232, 3812.237
719.527, 3855.314
720.823, 4118.465
722.118, 4256.684
723.413, 4168.949
724.708, 3760.233
726.002, 3587.529
727.297, 2871.832
728.591, 2524.139
729.885, 2314.450
731.179, 1875.768
732.472, 1584.087
733.766, 1425.410
735.059, 1373.737
736.352, 1241.068
737.645, 1164.732
738.937, 1126.738
740.230, 1041.078
741.522, 967.422
742.814, 956.767
744.106, 940.112
745.397, 959.462
746.689, 867.813
747.980, 907.166
749.271, 864.521
750.562, 876.876
751.853, 674.232
753.143, 741.589
754.433, 650.947
755.723, 414.305
757.013, 657.663
758.303, 557.021
759.592, 486.896
760.881, 361.737
762.170, 350.094
763.459, 314.450
764.748, 286.806
766.036, 393.159
767.325, 262.511
768.613, 322.862
769.901, 297.915
771.188, 433.558
772.476, 328.902
773.763, 241.244
775.050, 402.583
776.337, 356.373
777.624, 345.252
778.910, 432.581
780.196, 399.907
781.482, 350.229
782.768, 348.829
784.054, 425.862
785.339, 337.173
786.625, 231.479
787.910, 382.779
789.195, 252.076
790.479, 332.367
791.764, 258.653
793.048, 218.933
794.332, 227.207
795.616, 180.477
796.900, 193.738
798.183, 94.994
799.467, 43.244
800.750, 76.484
802.033, 45.720
803.316, 168.946
804.598, 24.835
805.880, 91.358
807.163, 11.543
808.445, 70.285
809.726, 78.167
811.008, 117.108
812.289, 93.128
813.570, 123.203
814.851, 109.389
816.132, 139.641
817.413, 139.987
818.693, 113.431
819.973, 131.957
821.253, 72.577
822.533, 72.260
823.813, 166.006
825.092, 272.866
826.371, 293.896
827.650, 216.110
828.929, 131.465
830.208, 162.918
831.486, 289.485
832.764, 223.235
834.042, 226.133
835.320, 153.180
836.598, 90.338
837.875, 100.575
839.152, 103.896
840.429, 53.697
841.706, 104.725
842.983, 34.232
844.259, 31.210
845.536, 133.365
846.812, 8.957
848.088, 1.251
849.363, 3.512
850.639, 113.742
851.914, 63.962
853.189, 17.832
854.464, 133.329
855.739, 241.478
857.013, 154.612
858.288, 202.733
859.562, 264.841
860.836, 280.934
862.110, 157.012
863.383, 387.075
864.656, 214.121
865.930, 283.151
867.203, 189.165
868.475, 286.161
869.748, 46.139
871.020, 227.096
872.292, 203.035
873.564, 231.955
874.836, 337.857
876.108, 323.739
877.379, 367.602
878.650, 357.443
879.922, 420.267
881.192, 450.071
882.463, 468.854
883.733, 482.619
885.004, 467.363
886.274, 530.829
887.544, 552.795
888.813, 650.481
890.083, 745.148
891.352, 818.797
892.621, 850.425
893.890, 982.034
895.159, 1218.625
896.427, 1218.197
897.695, 1519.749
898.964, 1484.282
900.232, 1541.797
901.499, 1457.294
902.767, 1423.771
904.034, 1324.229
905.301, 1300.670
906.568, 1223.093
907.835, 1220.497
909.102, 1049.882
910.368, 1157.250
911.634, 977.600
912.900, 925.932
914.166, 992.247
915.432, 920.542
916.697, 923.821
917.962, 1083.082
919.227, 989.326
920.492, 1033.553
921.757, 991.761
923.021, 1035.953
924.285, 981.128
925.550, 1072.284
926.813, 1104.424
928.077, 1071.549
929.341, 1077.654
930.604, 1226.745
931.867, 1047.820
933.130, 1197.884
934.393, 1307.939
935.655, 1254.991
936.918, 1514.035
938.180, 1534.076
939.442, 1616.104
940.703, 1922.114
941.965, 2033.106
943.226, 2248.085
944.488, 2644.046
945.749, 3139.991
947.009, 3750.922
948.270, 4263.839
949.530, 5000.752
950.791, 5559.652
952.051, 5602.469
953.311, 5271.347
954.570, 5096.134
955.830, 4677.990
957.089, 4576.213
958.348, 4498.061
959.607, 4892.637
960.866, 5293.955
962.124, 5878.672
963.383, 7064.839
964.641, 8738.614
965.899, 10470.005
967.156, 13409.383
968.414, 16607.768
969.671, 20064.039
970.928, 21858.887
972.185, 21761.486
973.442, 18842.723
974.699, 15331.911
975.955, 11756.128
977.211, 9108.565
978.468, 7074.615
979.723, 5518.480
980.979, 4320.605
982.234, 3723.701
983.490, 2740.803
984.745, 2606.019
986.000, 2146.016
987.254, 1777.559
988.509, 1829.020
989.763, 1534.844
991.017, 1469.464
992.271, 1394.057
993.525, 1364.603
994.779, 1336.560
996.032, 1228.037
997.285, 1308.750
998.538, 1239.336
999.791, 1539.465
1001.044, 1387.717
1002.296, 1640.609
1003.548, 1536.337
1004.800, 1413.271
1006.052, 1479.183
1007.304, 1659.099
1008.555, 1890.022
1009.807, 2191.954
1011.058, 2263.894
1012.309, 2310.842
1013.559, 2238.799
1014.810, 2203.763
1016.060, 2102.734
1017.310, 2009.713
1018.560, 1682.699
1019.810, 1703.694
1021.060, 1496.470
1022.309, 1280.479
1023.558, 1224.494
1024.807, 974.519
1026.056, 996.551
1027.305, 700.592
1028.553, 876.640
1029.801, 767.697
1031.049, 611.763
1032.297, 574.838
1033.545, 692.920
1034.793, 585.012
1036.040, 555.122
1037.287, 463.242
1038.534, 441.387
1039.781, 510.539
1041.027, 381.705
1042.274, 439.905
1043.520, 471.119
1044.766, 361.355
1046.012, 356.624
1047.257, 314.939
1048.503, 429.296
1049.748, 272.663
1050.993, 356.055
1052.238, 400.457
1053.483, 250.875
1054.727, 265.308
1055.971, 408.750
1057.216, 305.205
1058.459, 304.708
1059.703, 262.227
1060.947, 227.705
1062.190, 335.323
1063.433, 182.893
1064.676, 200.501
1065.919, 171.121
1067.162, 279.758
1068.404, 122.406
1069.646, 152.067
1070.888, 246.769
1072.130, 259.483
1073.372, 183.211
1074.613, 197.953
1075.855, 106.708
1077.096, 253.474
1078.337, 231.122
1079.578, 201.318
1080.818, 329.221
1082.059, 324.106
1083.299, 412.400
1084.539, 307.153
1085.779, 343.848
1087.018, 309.605
1088.258, 356.643
1089.497, 369.551
1090.736, 378.438
1091.975, 457.338
1093.213, 520.248
1094.452, 675.167
1095.690, 764.781
1096.928, 911.606
1098.166, 1060.473
1099.404, 1349.566
1100.642, 1615.538
1101.879, 1984.682
1103.116, 2335.676
1104.353, 3050.299
1105.590, 3426.636
1106.827, 3689.735
1108.063, 3924.518
1109.299, 3854.396
1110.536, 3591.937
1111.771, 3118.229
1113.007, 2866.400
1114.243, 2383.368
1115.478, 1925.420
1116.713, 1552.965
1117.948, 1348.608
1119.183, 935.255
1120.418, 917.747
1121.652, 1187.256
1122.886, 1093.799
1124.120, 879.380
1125.354, 622.021
1126.588, 595.752
1127.821, 442.577
1129.055, 470.480
1130.288, 510.436
1131.521, 383.452
1132.753, 370.562
1133.986, 318.752
1135.218, 517.248
1136.450, 270.975
1137.682, 372.624
1138.914, 311.856
1140.146, 279.640
1141.377, 294.670
1142.609, 271.735
1143.840, 328.582
1145.071, 394.389
1146.301, 469.097
1147.532, 497.021
1148.762, 574.739
1149.992, 614.382
1151.222, 658.028
1152.452, 744.681
1153.682, 622.353
1154.911, 1002.092
1156.140, 820.832
1157.369, 912.738
1158.598, 1033.000
1159.827, 1084.003
1161.055, 978.050
1162.284, 1079.854
1163.512, 1046.802
1164.740, 1115.502
1165.967, 1254.387
1167.195, 1387.763
1168.422, 1588.811
1169.650, 1788.522
1170.877, 2018.236
1172.103, 2217.134
1173.330, 2870.850
1174.557, 3434.567
1175.783, 4269.289
1177.009, 4968.543
1178.235, 5862.261
1179.461, 6714.980
1180.686, 7560.701
1181.912, 8396.420
1183.137, 8563.579
1184.362, 8088.332
1185.587, 7406.723
1186.811, 6734.566
1188.036, 5633.056
1189.260, 4751.984
1190.484, 4077.286
1191.708, 3415.144
1192.932, 2676.547
1194.155, 2220.002
1195.378, 1833.845
1196.602, 1610.180
1197.825, 1265.800
1199.047, 1187.377
1200.270, 926.785
1201.492, 983.061
1202.715, 596.772
1203.937, 542.960
1205.159, 591.466
1206.380, 373.125
1207.602, 260.258
1208.823, 266.389
1210.044, 277.165
1211.265, 249.516
1212.486, 146.310
1213.707, 145.313
1214.927, 210.863
1216.147, 185.600
1217.367, 247.088
1218.587, 164.506
1219.807, 99.410
1221.027, 19.174
1222.246, 31.020
1223.465, 29.740
1224.684, 51.617
1225.903, 9.420
1227.121, 0.152
1228.340, 30.217
1229.558, 37.650
1230.776, 61.162
1231.994, 42.988
1233.212, 58.951
1234.429, 0.519
1235.646, 25.893
1236.864, 39.305
1238.081, 66.284
1239.297, 50.730
1240.514, 84.497
1241.730, 3.465
1242.947, 5.772
1244.163, 50.469
1245.378, 19.814
1246.594, 74.070
1247.810, 35.688
1249.025, 77.591
1250.240, 25.185
1251.455, 0.205
1252.670, 70.584
1253.885, 14.603
1255.099, 152.214
1256.313, 1.076
1257.527, 33.051
1258.741, 92.100
1259.955, 83.880
1261.168, 19.880
1262.382, 23.060
1263.595, 14.107
1264.808, 28.091
1266.021, 78.004
1267.233, 199.907
1268.446, 187.798
1269.658, 195.676
1270.870, 225.042
1272.082, 125.398
1273.294, 233.244
1274.505, 204.303
1275.716, 235.126
1276.928, 116.938
1278.139, 166.734
1279.349, 178.525
1280.560, 55.280
1281.770, 26.995
1282.981, 92.312
1284.191, 84.181
1285.401, 40.784
1286.610, 30.848
1287.820, 25.460
1289.029, 124.734
1290.239, 2.976
1291.448, 36.877
1292.656, 52.204
1293.865, 106.242
1295.073, 134.203
1296.282, 153.334
1297.490, 155.415
1298.698, 155.671
1299.906, 119.538
1301.113, 121.275
1302.320, 83.982
1303.528, 39.658
1304.735, 64.304
1305.942, 60.868
1307.148, 116.101
1308.355, 83.055
1309.561, 209.578
1310.767, 170.071
1311.973, 100.535
1313.179, 185.970
1314.384, 250.370
1315.590, 154.739
1316.795, 106.077
1318.000, 221.382
1319.205, 265.654
1320.410, 151.893
1321.614, 57.098
1322.819, 258.267
1324.023, 252.401
1325.227, 246.500
1326.431, 182.559
1327.634, 4.581
1328.838, 151.554
1330.041, 14.513
1331.244, 130.366
1332.447, 50.210
1333.650, 53.983
1334.852, 61.762
1336.055, 4.526
1337.257, 44.858
1338.459, 93.243
1339.661, 67.354
1340.862, 61.796
1342.064, 0.255
1343.265, 49.671
1344.466, 58.057
1345.667, 27.410
1346.868, 158.728
1348.068, 73.019
1349.269, 92.720
1350.469, 47.478
1351.669, 9.645
1352.869, 9.777
1354.069, 136.875
1355.268, 58.048
1356.468, 129.979
1357.667, 35.986
1358.866, 51.972
1360.065, 138.935
1361.263, 60.117
1362.462, 57.788
1363.660, 97.681
1364.858, 43.563
1366.056, 104.438
1367.254, 132.311
1368.451, 98.186
1369.649, 87.069
1370.846, 199.690
1372.043, 137.513
1373.240, 156.618
1374.436, 228.162
1375.633, 147.086
1376.829, 103.566
1378.025, 160.565
1379.221, 408.737
1380.417, 793.881
1381.613, 1349.402
1382.808, 1264.466
1384.003, 1742.002
1385.199, 1163.239
1386.393, 626.859
1387.588, 453.749
1388.783, 296.786
1389.977, 230.060
1391.171, 187.358
1392.365, 144.288
1393.559, 266.728
1394.753, 117.171
1395.946, 294.581
1397.140, 180.952
1398.333, 275.285
1399.526, 234.582
1400.719, 230.073
1401.911, 237.004
1403.104, 208.187
1404.296, 145.404
1405.488, 174.561
1406.680, 116.332
1407.872, 130.050
1409.063, 152.655
1410.255, 148.224
1411.446, 222.778
1412.637, 184.454
1413.828, 247.500
1415.018, 165.000
1416.209, 252.201
1417.399, 96.635
1418.589, 379.775
1419.779, 284.142
1420.969, 204.704
1422.159, 150.011
1423.348, 401.625
1424.537, 247.196
1425.726, 333.918
1426.915, 241.359
1428.104, 172.268
1429.293, 299.468
1430.481, 239.987
1431.669, 275.528
1432.857, 293.921
1434.045, 283.102
1435.233, 408.893
1436.420, 483.965
1437.608, 498.305
1438.795, 401.424
1439.982, 674.779
1441.169, 480.555
1442.355, 639.592
1443.542, 679.341
1444.728, 815.100
1445.914, 813.199
1447.100, 766.478
1448.286, 858.322
1449.472, 887.541
1450.657, 986.619
1451.842, 877.603
1453.027, 877.623
1454.212, 992.639
1455.397, 958.469
1456.581, 1068.826
1457.766, 1046.384
1458.950, 951.737
1460.134, 973.076
1461.318, 776.477
1462.501, 808.588
1463.685, 813.633
1464.868, 628.645
1466.051, 779.476
1467.234, 567.082
1468.417, 581.810
1469.600, 464.916
1470.782, 422.787
1471.965, 374.613
1473.147, 408.655
1474.329, 382.432
1475.510, 352.210
1476.692, 343.396
1477.873, 324.848
1479.055, 296.704
1480.236, 441.810
1481.416, 406.961
1482.597, 357.112
1483.778, 270.263
1484.958, 283.406
