##NAMES=Cordierite
##RRUFFID=R040081
##IDEAL CHEMISTRY=Mg_2_Al_3_(AlSi_5_)O_18_
##LOCALITY=Laramie Range, Wyoming, USA
##OWNER=RRUFF
##SOURCE=University of Arizona Mineral Museum
##DESCRIPTION=Blue to purple coarsely crystalline
##STATUS=The identification of this mineral has been confirmed by X-ray diffraction and chemical analysis
##URL=rruff.info/R040081
##MEASURED CHEMISTRY=(Mg_1.80_Fe^2+^_0.20_)_Σ=2_Al_4.00_(Si_4.96_Al_0.04_)_Σ=5_O_18_·0.86H_2_O·Na_0.04_ ; H_2_O estimated by difference and verified by Raman spectroscopy
##PIN_ID=M00018
##ORIENTATION=Laser parallel to b* (0 1 0). Fiducial mark perpendicular to laser is parallel to c [0 0 1]
97.554, 0.000
98.947, 126.453
100.340, 1.504
101.732, 4.295
103.124, 22.849
104.516, 56.508
105.908, 83.812
107.300, 187.682
108.691, 166.005
110.082, 152.229
111.473, 202.033
112.864, 314.175
114.254, 546.588
115.644, 822.135
117.034, 979.610
118.424, 1084.870
119.813, 1409.812
121.203, 1889.350
122.592, 2521.414
123.981, 3277.946
125.369, 4066.897
126.758, 4675.219
128.146, 4773.056
129.534, 4351.870
130.922, 3155.394
132.309, 2182.001
133.696, 1448.688
135.083, 1018.457
136.470, 598.326
137.857, 452.332
139.243, 276.488
140.630, 210.779
142.016, 237.189
143.401, 312.708
144.787, 367.334
146.172, 517.071
147.557, 668.909
148.942, 1094.837
150.327, 1543.845
151.711, 2135.923
153.096, 2931.063
154.480, 3544.258
155.863, 4117.500
157.247, 4337.892
158.630, 3953.199
160.013, 3097.808
161.396, 2272.174
162.779, 1592.551
164.161, 1005.337
165.544, 700.162
166.926, 400.021
168.308, 214.910
169.689, 148.831
171.070, 170.832
172.452, 90.008
173.833, 95.341
175.213, 140.942
176.594, 169.011
177.974, 175.278
179.354, 197.683
180.734, 190.101
182.114, 244.470
183.493, 272.349
184.872, 334.067
186.251, 367.338
187.630, 415.628
189.008, 472.981
190.387, 413.398
191.765, 516.931
193.143, 528.574
194.520, 406.217
195.898, 448.824
197.275, 338.395
198.652, 356.936
200.029, 334.472
201.405, 236.973
202.782, 362.438
204.158, 339.869
205.534, 407.268
206.909, 323.633
208.285, 296.968
209.660, 294.271
211.035, 119.542
212.410, 53.782
213.784, 48.988
215.159, 16.162
216.533, 21.339
217.907, 10.410
219.281, 62.513
220.654, 54.757
222.027, 24.454
223.400, 107.471
224.773, 44.519
226.146, 68.597
227.518, 7.293
228.891, 9.153
230.263, 150.983
231.634, 452.782
233.006, 707.551
234.377, 1039.290
235.748, 1486.998
237.119, 1957.676
238.490, 2420.324
239.860, 2455.991
241.231, 2421.085
242.601, 2090.891
243.970, 1897.919
245.340, 1830.470
246.709, 1974.379
248.079, 2209.476
249.448, 2604.281
250.816, 3526.696
252.185, 4972.854
253.553, 7045.601
254.921, 10016.390
256.289, 13162.277
257.657, 16424.529
259.024, 18292.320
260.391, 17955.307
261.758, 14989.050
263.125, 11245.170
264.492, 7871.844
265.858, 5494.778
267.224, 4104.372
268.590, 3045.598
269.956, 2540.516
271.321, 2005.320
272.687, 1703.233
274.052, 1490.034
275.416, 1564.192
276.781, 1420.212
278.146, 1414.652
279.510, 1589.523
280.874, 1572.915
282.237, 1785.403
283.601, 2029.814
284.964, 2365.251
286.327, 3057.342
287.690, 3670.210
289.053, 4599.796
290.416, 5824.276
291.778, 6789.667
293.140, 7767.136
294.502, 8134.467
295.863, 8327.770
297.225, 8356.287
298.586, 8301.016
299.947, 8500.957
301.308, 8595.226
302.668, 9285.492
304.029, 9950.746
305.389, 10152.996
306.749, 9641.233
308.108, 8457.460
309.468, 6705.680
310.827, 4854.887
312.186, 3325.083
313.545, 2399.266
314.903, 1721.437
316.262, 1291.594
317.620, 1339.739
318.978, 1449.870
320.336, 1821.987
321.693, 2428.083
323.051, 3341.144
324.408, 4038.163
325.765, 4698.105
327.121, 4158.007
328.478, 3420.899
329.834, 2551.779
331.190, 1929.646
332.546, 1385.499
333.902, 1097.339
335.257, 847.167
336.612, 803.979
337.967, 632.776
339.322, 584.558
340.677, 543.320
342.031, 570.064
343.385, 598.791
344.739, 508.495
346.093, 580.180
347.446, 582.845
348.799, 641.492
350.153, 694.120
351.505, 749.454
352.858, 865.318
354.210, 909.889
355.563, 1032.439
356.915, 1015.045
358.267, 1037.479
359.618, 971.969
360.969, 927.438
362.321, 897.888
363.672, 716.319
365.022, 647.729
366.373, 530.122
367.723, 509.494
369.073, 406.848
370.423, 360.182
371.773, 250.498
373.122, 289.795
374.471, 293.074
375.821, 180.334
377.169, 298.576
378.518, 115.801
379.866, 160.603
381.215, 80.792
382.563, 66.094
383.910, 75.693
385.258, 21.323
386.605, 88.071
387.952, 6.014
389.299, 85.858
390.646, 45.094
391.992, 22.084
393.339, 71.895
394.685, 39.143
396.031, 55.784
397.376, 0.693
398.722, 20.577
400.067, 56.558
401.412, 26.733
402.757, 36.060
404.101, 87.168
405.446, 156.449
406.790, 73.807
408.134, 78.230
409.478, 5.714
410.821, 6.756
412.165, 79.808
413.508, 10.544
414.851, 27.840
416.193, 50.960
417.536, 10.835
418.878, 31.771
420.220, 4.742
421.562, 13.509
422.904, 30.167
424.245, 32.080
425.586, 29.979
426.927, 11.138
428.268, 58.718
429.609, 22.561
430.949, 63.387
432.289, 119.199
433.629, 9.000
434.969, 11.768
436.309, 11.485
437.648, 8.772
438.987, 15.092
440.326, 69.448
441.665, 13.868
443.003, 15.323
444.342, 77.815
445.680, 62.375
447.018, 56.995
448.355, 53.673
449.693, 39.593
451.030, 54.842
452.367, 77.075
453.704, 58.292
455.041, 90.494
456.377, 94.682
457.713, 42.855
459.049, 20.012
460.385, 10.850
461.721, 124.258
463.056, 147.351
464.391, 152.431
465.726, 314.496
467.061, 309.547
468.395, 425.584
469.730, 572.611
471.064, 541.624
472.398, 725.623
473.731, 750.607
475.065, 879.579
476.398, 956.537
477.731, 1018.482
479.064, 982.413
480.397, 770.330
481.729, 639.234
483.062, 582.125
484.394, 607.003
485.725, 508.869
487.057, 528.722
488.389, 520.563
489.720, 423.392
491.051, 382.208
492.382, 321.013
493.712, 247.823
495.043, 177.622
496.373, 142.412
497.703, 101.196
499.032, 121.994
500.362, 105.797
501.691, 124.609
503.020, 56.431
504.349, 134.283
505.678, 113.145
507.007, 188.029
508.335, 255.933
509.663, 155.845
510.991, 224.761
512.319, 213.689
513.646, 270.627
514.973, 394.579
516.300, 409.534
517.627, 476.495
518.954, 571.764
520.280, 636.454
521.607, 746.436
522.933, 858.430
524.259, 943.446
525.584, 1083.635
526.910, 1136.451
528.235, 1330.465
529.560, 1521.472
530.885, 1602.473
532.209, 1927.479
533.534, 2305.485
534.858, 2544.483
536.182, 3035.476
537.506, 3502.459
538.829, 4305.391
540.152, 5128.358
541.476, 6244.129
542.799, 7573.824
544.121, 9856.583
545.444, 12472.594
546.766, 15821.428
548.088, 20621.197
549.410, 26329.033
550.732, 32243.430
552.053, 38013.258
553.375, 41734.016
554.696, 42562.754
556.017, 40651.391
557.337, 35741.621
558.658, 30647.762
559.978, 25739.377
561.298, 22339.863
562.618, 19281.270
563.938, 17491.953
565.257, 16519.287
566.576, 15820.798
567.895, 16454.035
569.214, 17508.830
570.533, 18974.389
571.851, 21187.539
573.170, 24024.293
574.488, 26465.543
575.805, 28334.520
577.123, 28625.031
578.440, 27666.236
579.758, 25041.160
581.075, 21173.086
582.391, 18308.408
583.708, 14415.753
585.024, 11717.078
586.341, 9780.680
587.657, 7997.293
588.972, 6908.516
590.288, 5695.158
591.603, 4851.004
592.918, 4165.823
594.233, 3748.821
595.548, 3342.520
596.863, 2993.407
598.177, 2691.919
599.491, 2484.315
600.805, 2297.670
602.119, 2230.233
603.432, 2120.897
604.746, 2088.557
606.059, 2005.581
607.372, 1955.843
608.685, 2003.403
609.997, 1978.078
611.309, 2073.854
612.621, 2286.559
613.933, 2434.511
615.245, 2722.384
616.557, 3024.039
617.868, 3261.488
619.179, 3507.719
620.490, 3779.618
621.801, 4035.522
623.111, 3864.429
624.421, 3859.342
625.731, 3267.258
627.041, 3184.666
628.351, 2606.592
629.660, 2355.522
630.970, 2064.458
632.279, 1777.397
633.588, 1636.342
634.896, 1429.549
636.205, 1334.246
637.513, 1175.206
638.821, 1102.171
640.129, 1041.142
641.437, 1045.117
642.744, 1033.514
644.051, 917.084
645.358, 1069.077
646.665, 1131.074
647.972, 1131.077
649.278, 1316.086
650.584, 1398.716
651.890, 1659.737
653.196, 1684.319
654.502, 2136.068
655.807, 2354.105
657.113, 2836.524
658.418, 3605.840
659.722, 4341.675
661.027, 5296.044
662.331, 6797.480
663.636, 8753.263
664.940, 11065.876
666.244, 14162.260
667.547, 17089.318
668.851, 19871.379
670.154, 20808.775
671.457, 20171.197
672.760, 18284.127
674.062, 14993.717
675.365, 12190.463
676.667, 9529.494
677.969, 7589.706
679.271, 5959.731
680.572, 4713.417
681.874, 4060.517
683.175, 3388.281
684.476, 2776.490
685.777, 2377.744
687.077, 2106.162
688.378, 1960.335
689.678, 1724.312
690.978, 1612.418
692.278, 1530.804
693.577, 1497.109
694.877, 1449.217
696.176, 1476.326
697.475, 1461.436
698.774, 1505.548
700.072, 1540.663
701.371, 1603.779
702.669, 1719.900
703.967, 1979.023
705.265, 2383.158
706.562, 2728.294
707.860, 3038.452
709.157, 3522.626
710.454, 3685.802
711.751, 4038.997
713.047, 3828.195
714.344, 3656.403
715.640, 3211.617
716.936, 2797.855
718.232, 2639.110
719.527, 2383.371
720.823, 2140.663
722.118, 2154.007
723.413, 2015.381
724.708, 1800.785
726.002, 1826.202
727.297, 1452.628
728.591, 1402.085
729.885, 1183.550
731.179, 1047.020
732.472, 865.513
733.766, 946.020
735.059, 868.545
736.352, 884.083
737.645, 822.626
738.937, 780.686
740.230, 768.730
741.522, 702.289
742.814, 650.860
744.106, 643.436
745.397, 627.017
746.689, 568.602
747.980, 703.189
749.271, 613.788
750.562, 631.395
751.853, 554.014
753.143, 622.646
754.433, 419.291
755.723, 398.964
757.013, 437.652
758.303, 312.353
759.592, 274.084
760.881, 239.841
762.170, 229.623
763.459, 170.428
764.748, 44.238
766.036, 156.052
767.325, 29.870
768.613, 2.691
769.901, 43.514
771.188, 19.338
772.476, 71.167
773.763, 9.002
775.050, 85.848
776.337, 113.697
777.624, 40.550
778.910, 40.405
780.196, 137.265
781.482, 3.871
782.768, 77.990
784.054, 58.854
785.339, 130.723
786.625, 60.595
787.910, 119.472
789.195, 107.352
790.479, 129.236
791.764, 178.125
793.048, 101.018
794.332, 128.914
795.616, 176.815
796.900, 143.721
798.183, 57.630
799.467, 71.544
800.750, 44.463
802.033, 36.386
803.316, 42.870
804.598, 57.755
805.880, 50.148
807.163, 2.944
808.445, 6.040
809.726, 96.139
811.008, 53.288
812.289, 68.463
813.570, 76.672
814.851, 148.921
816.132, 70.247
817.413, 123.606
818.693, 105.030
819.973, 69.507
821.253, 47.019
822.533, 80.553
823.813, 70.127
825.092, 86.736
826.371, 45.388
827.650, 56.828
828.929, 76.761
830.208, 81.499
831.486, 15.276
832.764, 82.061
834.042, 108.884
835.320, 38.241
836.598, 7.629
837.875, 86.501
839.152, 2.586
840.429, 1.324
841.706, 53.233
842.983, 32.166
844.259, 19.890
845.536, 6.047
846.812, 13.015
848.088, 24.085
849.363, 32.161
850.639, 23.244
851.914, 12.334
853.189, 67.432
854.464, 110.537
855.739, 235.648
857.013, 78.769
858.288, 54.896
859.562, 165.030
860.836, 165.172
862.110, 158.322
863.383, 226.479
864.656, 112.644
865.930, 187.816
867.203, 151.996
868.475, 221.184
869.748, 241.379
871.020, 269.582
872.292, 246.793
873.564, 248.011
874.836, 276.110
876.108, 228.471
877.379, 301.712
878.650, 301.961
879.922, 254.217
881.192, 344.480
882.463, 275.751
883.733, 263.030
885.004, 384.316
886.274, 358.610
887.544, 402.911
888.813, 368.219
890.083, 482.535
891.352, 616.859
892.621, 648.190
893.890, 830.529
895.159, 843.876
896.427, 947.230
897.695, 1259.592
898.964, 1240.961
900.232, 1307.340
901.499, 1270.725
902.767, 1219.119
904.034, 994.521
905.301, 1006.931
906.568, 829.350
907.835, 828.775
909.102, 694.210
910.368, 721.652
911.634, 806.118
912.900, 804.604
914.166, 954.098
915.432, 953.613
916.697, 1085.136
917.962, 1362.667
919.227, 1311.210
920.492, 1353.786
921.757, 1201.265
923.021, 1178.857
924.285, 1053.457
925.550, 957.066
926.813, 847.710
928.077, 807.135
929.341, 772.886
930.604, 784.745
931.867, 793.451
933.130, 860.180
934.393, 935.448
935.655, 851.222
936.918, 1076.018
938.180, 940.825
939.442, 946.640
940.703, 1075.473
941.965, 1072.316
943.226, 1069.174
944.488, 1231.043
945.749, 1237.927
947.009, 1382.819
948.270, 1373.733
949.530, 1447.666
950.791, 1553.607
952.051, 1680.558
953.311, 1781.540
954.570, 2001.530
955.830, 2139.549
957.089, 2435.962
958.348, 2719.026
959.607, 3032.545
960.866, 3516.917
962.124, 4113.037
963.383, 5193.789
964.641, 6273.663
965.899, 8125.048
967.156, 10572.911
968.414, 14063.737
969.671, 18516.223
970.928, 22641.908
972.185, 24899.826
973.442, 23440.092
974.699, 19709.379
975.955, 15446.334
977.211, 11633.285
978.468, 9019.741
979.723, 7148.559
980.979, 5681.229
982.234, 4910.639
983.490, 4041.899
984.745, 3868.365
986.000, 3609.189
987.254, 3331.619
988.509, 3503.398
989.763, 3541.754
991.017, 3636.962
992.271, 3846.264
993.525, 4143.719
994.779, 4539.402
996.032, 5099.983
997.285, 5834.106
998.538, 6313.723
999.791, 7730.357
1001.044, 9035.025
1002.296, 11132.710
1003.548, 13869.414
1004.800, 17977.135
1006.052, 23509.873
1007.304, 30157.629
1008.555, 38011.402
1009.807, 44139.188
1011.058, 46252.996
1012.309, 43228.820
1013.559, 36841.656
1014.810, 29381.506
1016.060, 23290.373
1017.310, 18061.258
1018.560, 14148.161
1019.810, 11389.080
1021.060, 9095.016
1022.309, 7239.973
1023.558, 6155.943
1024.807, 5021.930
1026.056, 4201.933
1027.305, 3640.952
1028.553, 3226.987
1029.801, 2712.039
1031.049, 2375.106
1032.297, 2073.190
1033.545, 2005.289
1034.793, 1709.402
1036.040, 1562.533
1037.287, 1414.679
1038.534, 1352.841
1039.781, 1259.021
1041.027, 1154.218
1042.274, 1112.430
1043.520, 1036.551
1044.766, 975.913
1046.012, 966.183
1047.257, 938.472
1048.503, 979.775
1049.748, 830.100
1050.993, 988.439
1052.238, 808.793
1053.483, 749.162
1054.727, 762.545
1055.971, 860.943
1057.216, 776.355
1058.459, 827.782
1059.703, 771.223
1060.947, 851.216
1062.190, 892.249
1063.433, 993.730
1064.676, 930.075
1065.919, 937.585
1067.162, 1029.109
1068.404, 884.583
1069.646, 990.560
1070.888, 984.132
1072.130, 955.711
1073.372, 723.302
1074.613, 789.036
1075.855, 675.108
1077.096, 608.154
1078.337, 542.795
1079.578, 537.952
1080.818, 459.747
1082.059, 434.703
1083.299, 475.092
1084.539, 420.227
1085.779, 335.048
1087.018, 254.927
1088.258, 371.741
1089.497, 308.494
1090.736, 303.389
1091.975, 292.706
1093.213, 237.733
1094.452, 307.617
1095.690, 325.586
1096.928, 318.049
1098.166, 378.891
1099.404, 421.740
1100.642, 483.560
1101.879, 597.505
1103.116, 662.180
1104.353, 764.196
1105.590, 841.481
1106.827, 889.375
1108.063, 967.771
1109.299, 944.623
1110.536, 1078.102
1111.771, 869.153
1113.007, 860.259
1114.243, 781.819
1115.478, 538.513
1116.713, 498.138
1117.948, 382.329
1119.183, 306.975
1120.418, 317.130
1121.652, 514.512
1122.886, 457.712
1124.120, 519.939
1125.354, 306.193
1126.588, 220.474
1127.821, 119.773
1129.055, 162.399
1130.288, 99.744
1131.521, 116.174
1132.753, 43.770
1133.986, 124.284
1135.218, 153.822
1136.450, 65.293
1137.682, 172.265
1138.914, 84.836
1140.146, 109.619
1141.377, 89.870
1142.609, 79.617
1143.840, 139.602
1145.071, 102.220
1146.301, 105.213
1147.532, 125.958
1148.762, 181.705
1149.992, 196.418
1151.222, 133.154
1152.452, 258.959
1153.682, 122.707
1154.911, 238.451
1156.140, 150.073
1157.369, 168.712
1158.598, 205.335
1159.827, 356.850
1161.055, 319.508
1162.284, 364.020
1163.512, 435.531
1164.740, 447.180
1165.967, 412.716
1167.195, 463.221
1168.422, 492.028
1169.650, 558.528
1170.877, 438.025
1172.103, 507.767
1173.330, 550.336
1174.557, 622.008
1175.783, 819.597
1177.009, 795.316
1178.235, 1052.876
1179.461, 1193.497
1180.686, 1395.967
1181.912, 1675.432
1183.137, 1875.227
1184.362, 1745.790
1185.587, 1748.362
1186.811, 1595.447
1188.036, 1250.419
1189.260, 990.038
1190.484, 931.621
1191.708, 742.624
1192.932, 525.332
1194.155, 474.550
1195.378, 388.960
1196.602, 330.810
1197.825, 193.285
1199.047, 308.674
1200.270, 92.262
1201.492, 337.742
1202.715, 42.113
1203.937, 95.538
1205.159, 80.893
1206.380, 73.240
1207.602, 63.370
1208.823, 47.069
1210.044, 78.288
1211.265, 50.049
1212.486, 38.176
1213.707, 27.394
1214.927, 17.397
1216.147, 88.207
1217.367, 28.929
1218.587, 44.603
1219.807, 48.721
1221.027, 5.890
1222.246, 101.012
1223.465, 35.976
1224.684, 54.029
1225.903, 51.945
1227.121, 14.009
1228.340, 47.047
1229.558, 53.141
1230.776, 32.277
1231.994, 42.447
1233.212, 16.345
1234.429, 35.124
1235.646, 23.109
1236.864, 23.626
1238.081, 14.652
1239.297, 12.050
1240.514, 6.269
1241.730, 23.391
1242.947, 29.980
1244.163, 19.389
1245.378, 60.156
1246.594, 77.688
1247.810, 66.812
1249.025, 69.639
1250.240, 47.925
1251.455, 12.480
1252.670, 79.125
1253.885, 11.233
1255.099, 15.580
1256.313, 63.087
1257.527, 55.194
1258.741, 48.456
1259.955, 37.293
1261.168, 10.927
1262.382, 15.117
1263.595, 63.260
1264.808, 18.388
1266.021, 117.476
1267.233, 46.720
1268.446, 217.775
1269.658, 94.934
1270.870, 281.162
1272.082, 175.171
1273.294, 131.165
1274.505, 40.142
1275.716, 135.094
1276.928, 38.951
1278.139, 53.950
1279.349, 9.833
1280.560, 80.691
1281.770, 98.531
1282.981, 30.351
1284.191, 84.151
1285.401, 48.924
1286.610, 15.324
1287.820, 22.622
1289.029, 9.959
1290.239, 86.663
1291.448, 38.264
1292.656, 62.842
1293.865, 36.602
1295.073, 68.916
1296.282, 66.411
1297.490, 58.882
1298.698, 66.331
1299.906, 67.610
1301.113, 94.161
1302.320, 90.541
1303.528, 94.900
1304.735, 128.522
1305.942, 87.554
1307.148, 142.849
1308.355, 125.125
1309.561, 90.379
1310.767, 117.613
1311.973, 141.826
1313.179, 17.019
1314.384, 150.186
1315.590, 143.333
1316.795, 73.461
1318.000, 109.570
1319.205, 84.851
1320.410, 104.725
1321.614, 76.771
1322.819, 110.798
1324.023, 95.805
1325.227, 149.791
1326.431, 139.755
1327.634, 67.699
1328.838, 107.623
1330.041, 104.525
1331.244, 45.409
1332.447, 52.271
1333.650, 91.136
1334.852, 98.956
1336.055, 2.243
1337.257, 76.530
1338.459, 39.283
1339.661, 166.015
1340.862, 19.729
1342.064, 118.419
1343.265, 149.091
1344.466, 88.748
1345.667, 113.386
1346.868, 138.008
1348.068, 123.613
1349.269, 185.202
1350.469, 143.775
1351.669, 127.333
1352.869, 153.336
1354.069, 113.300
1355.268, 62.812
1356.468, 159.463
1357.667, 205.945
1358.866, 143.471
1360.065, 161.991
1361.263, 149.938
1362.462, 45.730
1363.660, 152.326
1364.858, 114.736
1366.056, 143.006
1367.254, 235.550
1368.451, 188.515
1369.649, 114.943
1370.846, 183.803
1372.043, 136.010
1373.240, 150.535
1374.436, 142.079
1375.633, 194.863
1376.829, 260.934
1378.025, 347.821
1379.221, 520.706
1380.417, 1024.533
1381.613, 1954.229
1382.808, 1878.353
1384.003, 1848.729
1385.199, 1916.750
1386.393, 1143.641
1387.588, 666.573
1388.783, 431.809
1389.977, 358.795
1391.171, 226.109
1392.365, 222.922
1393.559, 239.356
1394.753, 189.422
1395.946, 126.928
1397.140, 152.621
1398.333, 177.281
1399.526, 188.555
1400.719, 202.415
1401.911, 170.369
1403.104, 206.682
1404.296, 238.365
1405.488, 277.026
1406.680, 120.330
1407.872, 134.817
1409.063, 148.407
1410.255, 27.959
1411.446, 118.328
1412.637, 39.888
1413.828, 23.530
1415.018, 175.243
1416.209, 142.106
1417.399, 80.701
1418.589, 143.703
1419.779, 61.429
1420.969, 94.658
1422.159, 131.894
1423.348, 115.030
1424.537, 125.366
1425.726, 139.011
1426.915, 120.503
1428.104, 170.158
1429.293, 133.996
1430.481, 170.874
1431.669, 224.807
1432.857, 147.519
1434.045, 223.234
1435.233, 259.053
1436.420, 222.884
1437.608, 123.682
1438.795, 215.432
1439.982, 233.628
1441.169, 66.475
1442.355, 220.324
1443.542, 248.178
1444.728, 224.834
1445.914, 274.656
1447.100, 234.413
1448.286, 200.226
1449.472, 218.095
1450.657, 279.991
1451.842, 290.867
1453.027, 233.728
1454.212, 343.581
1455.397, 218.502
1456.581, 180.514
1457.766, 298.604
1458.950, 238.698
1460.134, 199.732
1461.318, 252.698
1462.501, 287.709
1463.685, 198.680
1464.868, 188.751
1466.051, 174.383
1467.234, 177.679
1468.417, 148.996
1469.600, 166.112
1470.782, 178.215
1471.965, 88.257
1473.147, 246.334
1474.329, 201.396
1475.510, 22.469
1476.692, 156.616
1477.873, 126.882
1479.055, 107.198
1480.236, 204.535
1481.416, 134.905
1482.597, 154.310
1483.778, 105.775
1484.958, 66.277
1486.138, 200.815
1487.318, 202.389
1488.498, 160.003
1489.678, 196.256
1490.857, 155.341
1492.037, 168.065
1493.216, 133.836
1494.395, 143.652
1495.574, 103.549
1496.752, 61.521
1497.931, 64.205
1499.109, 74.545
1500.287, 16.750
1501.465, 75.036
1502.643, 4.590
1503.820, 106.875
1504.998, 1.440
1506.175, 77.112
1507.352, 42.905
1508.529, 6.167
1509.706, 66.909
