##NAMES=Cordierite
##RRUFFID=R040084
##IDEAL CHEMISTRY=Mg_2_Al_3_(AlSi_5_)O_18_
##LOCALITY=Norway
##OWNER=RRUFF
##SOURCE=University of Arizona Mineral Museum
##DESCRIPTION=Purple coarsely crystalline massive
##STATUS=The identification of this mineral has been confirmed by X-ray diffraction and chemical analysis
##URL=rruff.info/R040084
##MEASURED CHEMISTRY=(Mg_1.88_Fe^2+^_0.11_Ca_0.01_)_Σ=2_(Al_3.95_Fe^3+^_0.05_)_Σ=4_(Si_4.96_Al_0.04_)_Σ=5_O_18_·0.90H_2_O·Na_0.04_ ; H_2_O estimated by difference and verified by Raman spectroscopy
##PIN_ID=L00443
##ORIENTATION=Laser parallel to a* (1 0 0). Fiducial mark perpendicular to laser is parallel to -b [0 -1 0]
89.254, 0.000
90.650, 5.494
92.046, 119.126
93.442, 202.609
94.838, 143.720
96.233, 111.524
97.628, 34.452
99.023, 170.219
100.418, 155.247
101.812, 217.372
103.206, 269.714
104.600, 367.600
105.994, 607.528
107.387, 988.208
108.781, 1725.256
110.174, 4118.345
111.566, 3680.706
112.959, 3824.869
114.351, 3996.612
115.744, 2948.758
117.136, 3062.022
118.527, 3536.303
119.919, 4181.539
121.310, 4947.631
122.701, 5345.032
124.092, 5383.724
125.482, 4922.947
126.873, 4572.623
128.263, 4222.736
129.653, 3843.327
131.042, 3374.425
132.432, 2592.993
133.821, 2043.973
135.210, 1614.318
136.599, 1435.991
137.987, 1189.959
139.376, 1075.200
140.764, 1008.688
142.152, 862.404
143.539, 849.331
144.927, 795.451
146.314, 774.771
147.701, 907.733
149.088, 979.945
150.474, 1104.261
151.861, 1413.671
153.247, 1849.169
154.633, 2036.355
156.018, 2442.487
157.404, 2614.984
158.789, 2559.994
160.174, 2385.326
161.559, 1962.734
162.943, 1473.214
164.327, 1082.774
165.711, 879.628
167.095, 709.171
168.479, 521.220
169.862, 410.868
171.246, 310.133
172.628, 265.652
174.011, 183.016
175.394, 165.241
176.776, 76.357
178.158, 59.389
179.540, 99.352
180.922, 126.259
182.303, 140.521
183.684, 49.945
185.065, 186.738
186.446, 134.521
187.826, 142.293
189.207, 324.055
190.587, 273.803
191.967, 397.536
193.346, 496.256
194.726, 423.965
196.105, 460.664
197.484, 285.353
198.862, 287.032
200.241, 260.703
201.619, 275.366
202.997, 350.227
204.375, 491.230
205.753, 551.895
207.130, 599.240
208.507, 582.993
209.884, 613.907
211.261, 458.229
212.638, 264.542
214.014, 144.846
215.390, 64.041
216.766, 99.423
218.141, 53.305
219.517, 54.043
220.892, 137.789
222.267, 99.543
223.642, 87.305
225.016, 59.080
226.391, 44.866
227.765, 80.333
229.139, 176.516
230.512, 276.682
231.886, 636.830
233.259, 912.959
234.632, 1523.068
236.005, 2355.158
237.377, 2998.214
238.749, 3376.455
240.122, 3727.056
241.493, 3648.920
242.865, 2855.842
244.237, 2596.981
245.608, 1981.977
246.979, 1949.687
248.350, 1746.073
249.720, 1896.841
251.090, 2294.094
252.461, 2886.648
253.830, 3982.492
255.200, 5445.469
256.570, 7309.954
257.939, 9353.694
259.308, 10507.908
260.677, 10692.497
262.045, 9677.400
263.414, 7392.561
264.782, 5017.949
266.150, 3483.532
267.517, 2274.287
268.885, 1532.192
270.252, 1002.232
271.619, 730.392
272.986, 578.657
274.353, 476.018
275.719, 386.463
277.085, 308.986
278.451, 412.578
279.817, 377.231
281.182, 323.185
282.548, 371.113
283.913, 322.033
285.278, 399.934
286.642, 455.378
288.007, 539.223
289.371, 623.174
290.735, 805.136
292.099, 900.118
293.462, 1187.118
294.826, 1218.133
296.189, 1271.161
297.552, 1161.199
298.914, 1193.246
300.277, 1075.300
301.639, 1113.358
303.001, 1048.420
304.363, 1047.485
305.724, 1028.550
307.086, 924.615
308.447, 848.680
309.808, 527.742
311.168, 415.800
312.529, 162.852
313.889, 81.896
315.249, 0.067
316.609, 70.247
317.969, 56.054
319.328, 51.113
320.687, 46.266
322.046, 56.521
323.405, 109.291
324.764, 249.053
326.122, 366.804
327.480, 394.546
328.838, 459.277
330.196, 416.996
331.553, 353.701
332.910, 286.388
334.267, 283.056
335.624, 205.325
336.981, 102.321
338.337, 106.918
339.693, 92.493
341.049, 79.044
342.405, 65.575
343.760, 85.083
345.116, 204.570
346.471, 228.079
347.826, 427.522
349.180, 512.263
350.535, 592.844
351.889, 629.450
353.243, 747.102
354.597, 820.569
355.950, 933.051
357.304, 847.460
358.657, 985.735
360.010, 1351.193
361.362, 1563.425
362.715, 2166.636
364.067, 2747.826
365.419, 3263.996
366.771, 3710.137
368.123, 3496.199
369.474, 2982.192
370.825, 2321.166
372.176, 1734.120
373.527, 1247.054
374.877, 994.969
376.228, 746.863
377.578, 609.738
378.928, 494.593
380.277, 401.428
381.627, 213.340
382.976, 251.208
384.325, 166.350
385.674, 39.827
387.023, 38.000
388.371, 15.299
389.719, 57.756
391.067, 64.132
392.415, 113.755
393.762, 84.779
395.110, 64.601
396.457, 50.202
397.804, 36.852
399.150, 47.139
400.497, 40.290
401.843, 71.085
403.189, 86.954
404.535, 82.948
405.881, 92.858
407.226, 86.299
408.571, 90.724
409.916, 84.221
411.261, 91.853
412.605, 123.624
413.950, 43.540
415.294, 6.589
416.638, 86.283
417.981, 43.150
419.325, 201.001
420.668, 167.849
422.011, 329.689
423.354, 484.521
424.697, 647.342
426.039, 967.151
427.381, 1077.949
428.723, 1354.732
430.065, 1214.501
431.406, 1137.255
432.748, 799.993
434.089, 512.715
435.430, 574.420
436.770, 293.107
438.111, 208.776
439.451, 288.427
440.791, 186.059
442.131, 109.672
443.471, 62.263
444.810, 128.822
446.149, 144.361
447.488, 97.878
448.827, 145.372
450.166, 156.843
451.504, 275.295
452.842, 378.726
454.180, 372.136
455.518, 484.525
456.855, 478.895
458.193, 429.243
459.530, 348.571
460.867, 392.877
462.203, 411.164
463.540, 493.430
464.876, 605.678
466.212, 628.907
467.548, 807.131
468.883, 892.337
470.219, 1006.520
471.554, 1031.681
472.889, 910.820
474.224, 950.939
475.558, 992.038
476.892, 1010.281
478.227, 1018.629
479.561, 1023.725
480.894, 1115.024
482.228, 1138.527
483.561, 1233.513
484.894, 1590.479
486.227, 1726.424
487.559, 1931.369
488.892, 2094.294
490.224, 2047.199
491.556, 1990.085
492.888, 1802.952
494.220, 1287.812
495.551, 1112.654
496.882, 790.483
498.213, 605.295
499.544, 378.102
500.874, 352.909
502.205, 266.696
503.535, 252.498
504.865, 183.281
506.194, 151.936
507.524, 165.796
508.853, 97.546
510.182, 120.275
511.511, 109.003
512.840, 100.730
514.168, 132.441
515.496, 124.142
516.824, 136.848
518.152, 165.549
519.480, 115.241
520.807, 276.920
522.134, 266.592
523.461, 224.270
524.788, 366.929
526.114, 255.601
527.441, 290.268
528.767, 346.915
530.093, 508.544
531.418, 506.196
532.744, 621.839
534.069, 556.479
535.394, 807.105
536.719, 832.715
538.044, 1088.326
539.368, 1359.940
540.693, 1462.559
542.017, 1633.165
543.340, 1995.759
544.664, 2378.352
545.987, 2919.797
547.311, 3881.202
548.634, 4741.590
549.956, 6167.437
551.279, 7572.821
552.601, 9435.030
553.923, 10958.998
555.245, 11694.176
556.567, 11210.201
557.889, 11037.006
559.210, 9783.114
560.531, 8809.598
561.852, 8164.100
563.173, 7497.554
564.493, 7191.213
565.813, 6834.207
567.133, 6527.577
568.453, 6700.633
569.773, 6754.063
571.092, 7386.988
572.412, 8277.896
573.731, 9463.809
575.049, 10832.023
576.368, 11883.871
577.686, 13154.545
579.005, 12656.823
580.323, 12139.094
581.640, 10821.354
582.958, 9173.609
584.275, 7545.853
585.593, 6218.089
586.909, 4930.316
588.226, 4052.537
589.543, 3384.747
590.859, 2746.949
592.175, 2479.143
593.491, 2051.328
594.807, 1763.504
596.122, 1495.671
597.438, 1257.830
598.753, 1129.980
600.068, 1062.122
601.382, 909.013
602.697, 849.971
604.011, 639.974
605.325, 696.031
606.639, 659.697
607.952, 526.843
609.266, 533.145
610.579, 545.220
611.892, 551.287
613.205, 443.618
614.518, 530.669
615.830, 476.898
617.142, 571.156
618.454, 630.183
619.766, 721.574
621.078, 767.836
622.389, 664.715
623.700, 812.124
625.011, 926.102
626.322, 770.559
627.632, 831.528
628.943, 752.488
630.253, 530.442
631.563, 504.770
632.872, 382.707
634.182, 409.968
635.491, 339.342
636.800, 303.320
638.109, 265.423
639.418, 194.530
640.726, 173.372
642.035, 164.331
643.343, 203.293
644.651, 212.816
645.958, 181.797
647.266, 271.145
648.573, 241.226
649.880, 198.625
651.187, 415.953
652.494, 373.967
653.800, 401.924
655.106, 515.364
656.412, 711.720
657.718, 738.277
659.024, 960.387
660.329, 1029.981
661.634, 1402.151
662.939, 1774.182
664.244, 2317.318
665.549, 2953.592
666.853, 3735.551
668.157, 4631.562
669.461, 5418.115
670.765, 6050.800
672.069, 6044.864
673.372, 6011.998
674.675, 4977.896
675.978, 4261.369
677.281, 3404.607
678.583, 2709.277
679.886, 2146.434
681.188, 1738.534
682.490, 1457.525
683.792, 1282.104
685.093, 1063.783
686.394, 1005.617
687.696, 876.248
688.997, 960.307
690.297, 705.437
691.598, 738.045
692.898, 639.932
694.198, 626.288
695.498, 542.641
696.798, 530.988
698.097, 531.001
699.397, 552.812
700.696, 553.374
701.995, 516.387
703.293, 590.855
704.592, 612.492
705.890, 643.998
707.188, 735.812
708.486, 937.518
709.784, 1069.211
711.081, 1200.843
712.378, 1222.786
713.675, 1244.449
714.972, 1226.022
716.269, 937.609
717.565, 1009.207
718.862, 780.927
720.158, 772.571
721.453, 614.340
722.749, 816.036
724.045, 707.757
725.340, 569.504
726.635, 701.276
727.930, 533.074
729.224, 534.909
730.519, 656.758
731.813, 548.610
733.107, 750.452
734.401, 762.286
735.694, 774.105
736.988, 1015.912
738.281, 1067.703
739.574, 959.479
740.867, 941.242
742.160, 1022.989
743.452, 724.722
744.744, 656.440
746.036, 518.144
747.328, 539.834
748.620, 541.509
749.911, 473.169
751.202, 594.814
752.493, 396.445
753.784, 468.062
755.075, 319.663
756.365, 331.251
757.655, 352.824
758.945, 224.389
760.235, 215.938
761.525, 257.475
762.814, 94.998
764.103, 66.507
765.392, 181.998
766.681, 143.475
767.969, 56.938
769.258, 166.382
770.546, 77.812
771.834, 69.227
773.122, 140.623
774.409, 34.005
775.697, 63.370
776.984, 1.717
778.271, 26.040
779.558, 47.656
780.844, 18.598
782.131, 129.832
783.417, 151.052
784.703, 142.258
785.989, 33.447
787.274, 214.619
788.560, 45.777
789.845, 166.917
791.130, 18.042
792.415, 89.149
793.699, 90.239
794.983, 28.688
796.268, 212.344
797.552, 123.361
798.835, 55.638
800.119, 115.309
801.402, 26.237
802.686, 87.148
803.969, 18.043
805.251, 21.082
806.534, 0.244
807.816, 0.565
809.098, 11.351
810.380, 37.886
811.662, 57.169
812.944, 63.491
814.225, 105.865
815.506, 44.696
816.787, 75.240
818.068, 4.233
819.349, 53.734
820.629, 16.709
821.909, 52.865
823.189, 62.491
824.469, 2.175
825.749, 21.885
827.028, 71.632
828.307, 51.441
829.586, 11.303
830.865, 11.195
832.144, 31.118
833.422, 71.083
834.700, 18.890
835.978, 101.155
837.256, 31.278
838.534, 108.558
839.811, 68.380
841.088, 141.814
842.365, 12.108
843.642, 42.431
844.919, 2.799
846.195, 36.809
847.472, 63.600
848.748, 64.063
850.023, 64.584
851.299, 4.840
852.575, 34.245
853.850, 43.636
855.125, 23.010
856.400, 37.631
857.674, 61.690
858.949, 90.996
860.223, 20.289
861.497, 49.566
862.771, 58.829
864.045, 78.079
865.318, 7.316
866.591, 76.537
867.864, 145.744
869.137, 104.939
870.410, 224.123
871.682, 73.294
872.955, 142.450
874.227, 71.595
875.499, 230.726
876.770, 159.846
878.042, 168.952
879.313, 258.045
880.584, 157.126
881.855, 326.194
883.126, 255.248
884.396, 324.290
885.667, 263.319
886.937, 352.335
888.207, 291.339
889.476, 410.330
890.746, 609.308
892.015, 598.273
893.284, 727.228
894.553, 856.169
895.822, 1095.099
897.090, 1354.017
898.359, 1762.923
899.627, 2091.818
900.895, 2310.701
902.163, 2159.572
903.430, 2118.434
904.698, 1717.283
905.965, 1316.123
907.232, 1104.950
908.499, 1023.767
909.765, 872.573
911.032, 781.368
912.298, 790.154
913.564, 698.930
914.830, 887.693
916.095, 776.341
917.361, 954.857
918.626, 1233.592
919.891, 1102.316
921.156, 1190.762
922.420, 1089.466
923.685, 1027.977
924.949, 886.439
926.213, 685.117
927.477, 703.412
928.740, 651.821
930.004, 529.595
931.267, 647.822
932.530, 432.465
933.793, 600.611
935.056, 499.229
936.318, 567.837
937.581, 586.438
938.843, 644.648
940.104, 693.385
941.366, 651.632
942.628, 680.204
943.889, 838.281
945.150, 956.687
946.411, 1205.088
947.672, 1260.758
948.932, 1669.297
950.193, 1867.822
951.453, 2171.772
952.713, 2200.252
953.973, 2118.350
955.232, 1936.700
956.491, 1844.719
957.751, 1790.794
959.010, 1798.170
960.268, 2255.590
961.527, 2713.517
962.785, 2698.510
964.044, 3362.290
965.302, 3730.504
966.559, 4851.221
967.817, 6079.350
969.075, 7637.602
970.332, 10304.692
971.589, 12448.679
972.846, 13956.647
974.102, 13330.688
975.359, 11114.130
976.615, 8661.360
977.871, 6397.360
979.127, 4780.244
980.383, 3564.404
981.638, 2751.091
982.893, 2077.795
984.149, 1763.260
985.404, 1366.229
986.658, 1194.240
987.913, 965.351
989.167, 800.861
990.421, 789.264
991.675, 657.503
992.929, 756.133
994.183, 592.948
995.436, 597.937
996.689, 715.438
997.942, 563.660
999.195, 637.401
1000.448, 741.158
1001.700, 724.931
1002.952, 813.026
1004.204, 1051.317
1005.456, 1259.688
1006.708, 1447.983
1007.959, 1903.651
1009.210, 2462.151
1010.461, 2880.785
1011.712, 3109.162
1012.963, 3217.670
1014.213, 2776.230
1015.464, 2334.883
1016.714, 1813.266
1017.964, 1741.946
1019.214, 1470.753
1020.463, 1039.565
1021.712, 978.387
1022.962, 667.118
1024.210, 585.956
1025.459, 634.707
1026.708, 343.564
1027.956, 362.431
1029.204, 371.305
1030.452, 320.187
1031.700, 229.089
1032.948, 268.004
1034.195, 146.924
1035.442, 195.852
1036.689, 74.786
1037.936, 223.740
1039.183, 152.712
1040.429, 181.690
1041.676, 180.684
1042.922, 159.686
1044.168, 188.694
1045.413, 247.740
1046.659, 216.793
1047.904, 225.854
1049.149, 284.950
1050.394, 214.052
1051.639, 333.163
1052.884, 122.282
1054.128, 191.409
1055.372, 150.547
1056.616, 209.693
1057.860, 192.596
1059.104, 88.006
1060.347, 147.174
1061.590, 136.358
1062.833, 75.571
1064.076, 94.791
1065.319, 34.022
1066.561, 33.260
1067.803, 50.735
1069.046, 121.757
1070.287, 101.015
1071.529, 60.281
1072.771, 89.556
1074.012, 68.836
1075.253, 38.126
1076.494, 67.422
1077.735, 86.726
1078.975, 56.036
1080.216, 75.358
1081.456, 84.688
1082.696, 24.045
1083.936, 143.409
1085.175, 62.780
1086.415, 142.157
1087.654, 141.539
1088.893, 19.071
1090.132, 170.778
1091.371, 10.180
1092.609, 229.627
1093.847, 269.042
1095.085, 68.463
1096.323, 98.416
1097.561, 167.875
1098.799, 188.250
1100.036, 287.946
1101.273, 197.430
1102.510, 357.341
1103.747, 576.839
1104.983, 616.404
1106.220, 856.236
1107.456, 835.766
1108.692, 995.643
1109.928, 1275.413
1111.163, 1134.974
1112.399, 1194.582
1113.634, 1054.190
1114.869, 793.806
1116.104, 803.460
1117.339, 573.123
1118.573, 432.790
1119.808, 392.471
1121.042, 302.176
1122.276, 471.888
1123.509, 361.627
1124.743, 351.391
1125.976, 181.167
1127.210, 200.957
1128.443, 60.776
1129.675, 150.619
1130.908, 10.473
1132.141, 110.543
1133.373, 210.429
1134.605, 120.341
1135.837, 100.450
1137.068, 190.520
1138.300, 150.907
1139.531, 191.225
1140.762, 71.222
1141.993, 36.769
1143.224, 299.775
1144.455, 170.472
1145.685, 332.454
1146.915, 282.855
1148.145, 137.624
1149.375, 322.546
1150.605, 312.708
1151.834, 423.525
1153.063, 341.387
1154.292, 262.083
1155.521, 487.719
1156.750, 508.473
1157.978, 569.673
1159.207, 626.387
1160.435, 797.042
1161.663, 718.178
1162.891, 889.178
1164.118, 663.292
1165.345, 933.478
1166.573, 947.906
1167.800, 898.485
1169.026, 1139.295
1170.253, 1290.693
1171.480, 1401.256
1172.706, 1762.868
1173.932, 2063.405
1175.158, 2524.553
1176.383, 3095.239
1177.609, 3746.032
1178.834, 4619.604
1180.059, 5511.095
1181.284, 6901.636
1182.509, 8261.893
1183.734, 9132.621
1184.958, 10015.828
1186.182, 9338.591
1187.406, 8759.083
1188.630, 7441.043
1189.854, 5821.920
1191.077, 4762.365
1192.301, 3969.715
1193.524, 3049.961
1194.747, 2540.557
1195.969, 1997.249
1197.192, 1947.513
1198.414, 1418.405
1199.636, 1118.915
1200.858, 939.068
1202.080, 810.767
1203.302, 621.012
1204.523, 741.261
1205.744, 631.474
1206.966, 411.733
1208.186, 534.271
1209.407, 209.528
1210.628, 289.465
1211.848, 300.722
1213.068, 320.637
1214.288, 180.667
1215.508, 240.826
1216.727, 250.821
1217.947, 340.904
1219.166, 171.118
1220.385, 250.963
1221.604, 251.139
1222.822, 231.276
1224.041, 241.082
1225.259, 110.874
1226.477, 111.018
1227.695, 119.684
1228.913, 141.022
1230.130, 160.963
1231.348, 200.685
1232.565, 190.462
1233.782, 150.156
1234.999, 219.838
1236.215, 0.637
1237.432, 136.973
1238.648, 94.641
1239.864, 198.360
1241.080, 168.013
1242.296, 2.342
1243.511, 107.299
1244.726, 13.068
1245.942, 56.556
1247.156, 126.172
1248.371, 15.787
1249.586, 195.393
1250.800, 104.995
1252.014, 44.592
1253.228, 154.182
1254.442, 43.767
1255.656, 73.344
1256.869, 232.915
1258.083, 122.479
1259.296, 142.038
1260.509, 201.584
1261.722, 141.096
1262.934, 214.527
1264.147, 259.939
1265.359, 249.540
1266.571, 368.880
1267.783, 278.162
1268.994, 517.945
1270.206, 797.130
1271.417, 656.294
1272.628, 645.422
1273.839, 424.509
1275.050, 293.576
1276.260, 412.644
1277.471, 101.663
1278.681, 161.158
1279.891, 210.113
1281.101, 109.575
1282.310, 128.871
1283.520, 57.727
1284.729, 76.547
1285.938, 155.811
1287.147, 65.461
1288.356, 180.977
1289.564, 37.581
1290.773, 3.889
1291.981, 94.672
1293.189, 46.864
1294.397, 48.462
1295.604, 169.958
1296.812, 38.248
1298.019, 93.473
1299.226, 54.732
1300.433, 57.090
1301.640, 51.075
1302.846, 19.176
1304.053, 72.755
1305.259, 66.852
1306.465, 24.838
1307.671, 32.796
1308.876, 29.275
1310.082, 178.613
1311.287, 33.525
1312.492, 84.292
1313.697, 52.079
1314.902, 19.838
1316.106, 87.562
1317.310, 15.255
1318.515, 92.910
1319.719, 30.534
1320.922, 68.122
1322.126, 55.678
1323.329, 16.804
1324.533, 20.667
1325.736, 88.100
1326.939, 155.505
1328.141, 62.880
1329.344, 9.783
1330.546, 2.494
1331.748, 94.749
1332.950, 11.956
1334.152, 49.049
1335.354, 110.434
1336.555, 72.536
1337.757, 154.432
1338.958, 81.373
1340.159, 61.716
1341.359, 145.140
1342.560, 51.938
1343.760, 88.703
1344.960, 165.438
1346.160, 22.143
1347.360, 138.810
1348.560, 135.531
1349.759, 142.137
1350.959, 128.713
1352.158, 5.257
1353.357, 38.238
1354.555, 198.213
1355.754, 34.635
1356.952, 281.026
1358.151, 167.266
1359.349, 133.473
1360.546, 169.648
1361.744, 146.532
1362.941, 112.645
1364.139, 238.720
1365.336, 114.764
1366.533, 120.774
1367.730, 236.747
1368.926, 232.693
1370.123, 108.618
1371.319, 344.461
1372.515, 90.281
1373.711, 146.078
1374.906, 301.854
1376.102, 177.637
1377.297, 513.453
1378.492, 399.371
1379.687, 747.426
1380.882, 1715.871
1382.077, 3294.335
1383.271, 2947.416
1384.465, 4379.418
1385.659, 2647.350
1386.853, 1525.629
1388.047, 993.605
1389.240, 661.295
1390.434, 1159.521
1391.627, 839.516
1392.820, 719.544
1394.013, 1014.115
1395.205, 282.260
1396.398, 440.373
1397.590, 278.461
1398.782, 296.525
1399.974, 524.324
1401.166, 432.336
1402.357, 279.954
1403.549, 466.987
1404.740, 308.119
1405.931, 379.087
1407.122, 293.889
1408.313, 129.452
1409.503, 255.957
1410.693, 212.637
1411.883, 71.909
1413.073, 298.985
1414.263, 283.982
1415.453, 164.412
1416.642, 455.342
1417.831, 190.546
1419.020, 154.869
1420.209, 238.819
1421.398, 63.106
1422.587, 183.618
1423.775, 57.343
1424.963, 72.491
1426.151, 210.054
1427.339, 222.681
1428.526, 56.887
1429.714, 321.166
1430.901, 64.457
1432.088, 179.359
1433.275, 293.838
1434.462, 106.073
1435.648, 170.592
1436.835, 131.021
1438.021, 87.077
1439.207, 199.766
1440.393, 103.999
1441.579, 238.278
1442.764, 282.444
1443.949, 95.979
1445.135, 400.675
1446.320, 234.630
1447.504, 2.119
1448.689, 392.274
1449.873, 266.750
1451.058, 241.109
1452.242, 875.323
1453.426, 419.415
1454.609, 263.354
1455.793, 557.139
1456.976, 140.748
1458.159, 304.178
1459.342, 407.413
1460.525, 190.449
1461.708, 273.285
1462.890, 375.992
1464.073, 178.945
1465.255, 401.357
1466.437, 233.113
1467.619, 216.432
1468.800, 519.820
1469.982, 273.123
1471.163, 315.010
1472.344, 436.781
1473.525, 188.934
1474.706, 520.861
1475.886, 455.926
1477.066, 60.779
1478.247, 532.271
1479.427, 155.381
1480.607, 288.883
1481.786, 392.393
1482.966, 195.713
1484.145, 182.893
1485.324, 296.049
1486.503, 299.111
1487.682, 292.090
1488.860, 414.996
1490.039, 7.857
1491.217, 370.691
1492.395, 203.523
1493.573, 136.387
1494.751, 299.230
1495.928, 272.053
1497.106, 204.957
1498.283, 258.412
1499.460, 152.881
1500.637, 105.160
1501.814, 177.262
1502.990, 20.371
1504.166, 91.861
1505.342, 263.145
1506.518, 144.990
1507.694, 166.596
1508.870, 97.875
