##NAMES=Cordierite
##RRUFFID=R040081
##IDEAL CHEMISTRY=Mg_2_Al_3_(AlSi_5_)O_18_
##LOCALITY=Laramie Range, Wyoming, USA
##OWNER=RRUFF
##SOURCE=University of Arizona Mineral Museum
##DESCRIPTION=Blue to purple coarsely crystalline
##STATUS=The identification of this mineral has been confirmed by X-ray diffraction and chemical analysis
##URL=rruff.info/R040081
##MEASURED CHEMISTRY=(Mg_1.80_Fe^2+^_0.20_)_Σ=2_Al_4.00_(Si_4.96_Al_0.04_)_Σ=5_O_18_·0.86H_2_O·Na_0.04_ ; H_2_O estimated by difference and verified by Raman spectroscopy
##PIN_ID=M00015
##ORIENTATION=Laser parallel to c* (0 0 1). Fiducial mark perpendicular to laser is parallel to a [1 0 0]
97.554, 0.000
98.947, 83.112
100.340, 8.707
101.732, 130.112
103.124, 106.778
104.516, 264.191
105.908, 497.142
107.300, 515.519
108.691, 810.893
110.082, 978.161
111.473, 1441.445
112.864, 2152.133
114.254, 3233.838
115.644, 4261.092
117.034, 5772.500
118.424, 7284.170
119.813, 9242.728
121.203, 9364.615
122.592, 8301.696
123.981, 7305.992
125.369, 6532.367
126.758, 6570.766
128.146, 5663.404
129.534, 4746.475
130.922, 3330.036
132.309, 2312.068
133.696, 1490.550
135.083, 1255.459
136.470, 676.785
137.857, 686.982
139.243, 392.037
140.630, 457.068
142.016, 327.714
143.401, 334.695
144.787, 423.993
146.172, 544.588
147.557, 615.461
148.942, 810.596
150.327, 1239.946
151.711, 1496.443
153.096, 2100.170
154.480, 2730.182
155.863, 3166.699
157.247, 3438.493
158.630, 3098.095
160.013, 2618.821
161.396, 2096.121
162.779, 1646.639
164.161, 1179.367
165.544, 760.294
166.926, 487.407
168.308, 267.701
169.689, 186.162
171.070, 138.783
172.452, 69.554
173.833, 14.604
175.213, 16.165
176.594, 66.731
177.974, 74.702
179.354, 3.199
180.734, 16.718
182.114, 61.857
183.493, 61.516
184.872, 81.871
186.251, 144.228
187.630, 84.599
189.008, 202.018
190.387, 454.515
191.765, 330.088
193.143, 316.709
194.520, 98.373
195.898, 200.084
197.275, 148.840
198.652, 202.647
200.029, 49.550
201.405, 88.499
202.782, 73.504
204.158, 197.543
205.534, 106.688
206.909, 91.860
208.285, 139.972
209.660, 0.208
211.035, 26.492
212.410, 36.180
213.784, 73.810
215.159, 17.612
216.533, 61.991
217.907, 12.675
219.281, 94.604
220.654, 123.666
222.027, 86.547
223.400, 88.639
224.773, 122.945
226.146, 196.308
227.518, 448.712
228.891, 562.143
230.263, 994.596
231.634, 1700.070
233.006, 2363.557
234.377, 3305.055
235.748, 4479.575
237.119, 5392.113
238.490, 6375.656
239.860, 5609.201
241.231, 4909.748
242.601, 3977.258
243.970, 3562.775
245.340, 3037.312
246.709, 2630.868
248.079, 2795.979
249.448, 2827.279
250.816, 3513.736
252.185, 4500.984
253.553, 6049.148
254.921, 8148.467
256.289, 10715.480
257.657, 13449.605
259.024, 15273.742
260.391, 14029.898
261.758, 10544.062
263.125, 7642.984
264.492, 5189.146
265.858, 3457.426
267.224, 2506.660
268.590, 1644.279
269.956, 1445.221
271.321, 1047.439
272.687, 764.898
274.052, 511.570
275.416, 404.002
276.781, 301.900
278.146, 351.895
279.510, 329.213
280.874, 346.066
282.237, 502.830
283.601, 399.064
284.964, 374.693
286.327, 717.543
287.690, 864.479
289.053, 979.492
290.416, 1409.580
291.778, 1429.734
293.140, 1624.949
294.502, 1536.223
295.863, 1590.547
297.225, 1477.922
298.586, 1310.348
299.947, 1358.680
301.308, 1220.195
302.668, 1105.729
304.029, 1150.303
305.389, 1208.895
306.749, 1115.525
308.108, 922.191
309.468, 644.895
310.827, 435.631
312.186, 300.398
313.545, 268.197
314.903, 242.006
316.262, 182.842
317.620, 361.709
318.978, 541.600
320.336, 515.486
321.693, 524.381
323.051, 955.273
324.408, 1020.125
325.765, 1282.006
327.121, 972.908
328.478, 667.910
329.834, 483.859
331.190, 482.713
332.546, 214.705
333.902, 462.354
335.257, 166.234
336.612, 336.682
337.967, 463.068
339.322, 283.334
340.677, 463.475
342.031, 343.625
343.385, 612.969
344.739, 648.592
346.093, 795.912
347.446, 1008.564
348.799, 1319.447
350.153, 1505.273
351.505, 1663.443
352.858, 1826.115
354.210, 1887.301
355.563, 2063.109
356.915, 2192.314
358.267, 2492.525
359.618, 2878.742
360.969, 3803.969
362.321, 4475.201
363.672, 5691.441
365.022, 6760.688
366.373, 6881.336
367.723, 6302.592
369.073, 4987.857
370.423, 3860.123
371.773, 2732.395
373.122, 2058.650
374.471, 1807.930
375.821, 1215.592
377.169, 1203.236
378.518, 611.527
379.866, 624.518
381.215, 662.814
382.563, 421.775
383.910, 295.703
385.258, 316.920
386.605, 344.221
387.952, 84.520
389.299, 96.816
390.646, 124.113
391.992, 36.406
393.339, 95.699
394.685, 42.012
396.031, 161.264
397.376, 94.465
398.722, 77.775
400.067, 55.986
401.412, 105.770
402.757, 53.416
404.101, 140.404
405.446, 143.266
406.790, 94.174
408.134, 49.115
409.478, 91.924
410.821, 11.057
412.165, 140.080
413.508, 196.797
414.851, 63.629
416.193, 70.383
417.536, 286.117
418.878, 353.795
420.220, 644.471
421.562, 832.385
422.904, 905.818
424.245, 1364.488
425.586, 1461.178
426.927, 1842.881
428.268, 1502.602
429.609, 1255.336
430.949, 1124.078
432.289, 855.828
433.629, 489.586
434.969, 670.352
436.309, 214.119
437.648, 201.891
438.987, 7.686
440.326, 58.471
441.665, 5.258
443.003, 9.127
444.342, 26.824
445.680, 18.625
447.018, 103.414
448.355, 94.203
449.693, 152.994
451.030, 165.781
452.367, 193.434
453.704, 206.721
455.041, 230.301
456.377, 225.164
457.713, 194.021
459.049, 224.883
460.385, 14.264
461.721, 272.566
463.056, 81.393
464.391, 178.211
465.726, 263.027
467.061, 267.840
468.395, 208.643
469.730, 373.447
471.064, 248.254
472.398, 807.055
473.731, 601.852
475.065, 821.643
476.398, 983.426
477.731, 1036.207
479.064, 983.977
480.397, 823.740
481.729, 652.496
483.062, 501.244
484.394, 260.986
485.725, 345.719
487.057, 282.447
488.389, 72.170
489.720, 111.883
491.051, 37.621
492.382, 84.340
493.712, 47.158
495.043, 2.045
496.373, 26.281
497.703, 7.439
499.032, 53.855
500.362, 168.213
501.691, 39.328
503.020, 149.146
504.349, 59.264
505.678, 64.684
507.007, 72.863
508.335, 3.516
509.663, 4.867
510.991, 180.199
512.319, 8.531
513.646, 184.846
514.973, 61.152
516.300, 247.439
517.627, 269.725
518.954, 129.998
520.280, 239.258
521.607, 174.531
522.933, 242.791
524.259, 200.037
525.584, 412.271
526.910, 561.502
528.235, 505.719
529.560, 716.924
530.885, 813.355
532.209, 692.291
533.534, 1098.473
534.858, 1256.635
536.182, 1384.791
537.506, 1697.936
538.829, 1775.074
540.152, 2000.201
541.476, 2452.053
542.799, 2839.400
544.121, 3526.525
545.444, 4261.627
546.766, 5085.713
548.088, 6548.797
549.410, 8248.863
550.732, 10224.922
552.053, 11711.959
553.375, 13086.988
554.696, 13808.758
556.017, 13582.754
557.337, 12963.496
558.658, 12103.453
559.978, 11524.270
561.298, 11798.180
562.618, 11216.086
563.938, 11069.736
565.257, 11040.133
566.576, 10406.504
567.895, 10903.434
569.214, 11819.264
570.533, 13020.174
571.851, 14316.461
573.170, 16768.238
574.488, 18628.998
575.805, 19974.744
577.123, 20105.469
578.440, 19602.178
579.758, 18115.873
581.075, 14939.551
582.391, 12740.211
583.708, 10256.846
585.024, 8159.465
586.341, 7037.066
587.657, 5893.648
588.972, 5195.215
590.288, 4139.758
591.603, 3357.914
592.918, 2997.416
594.233, 2709.900
595.548, 2588.363
596.863, 2087.691
598.177, 1834.369
599.491, 1718.301
600.805, 1549.203
602.119, 1250.361
603.432, 1451.574
604.746, 1417.926
606.059, 1076.896
607.372, 925.514
608.685, 1307.883
609.997, 932.889
611.309, 1102.088
612.621, 910.908
613.933, 1238.885
615.245, 1076.582
616.557, 1225.434
617.868, 1312.641
619.179, 1481.449
620.490, 1217.826
621.801, 1704.629
623.111, 1350.393
624.421, 1569.855
625.731, 1115.016
627.041, 1434.672
628.351, 1171.844
629.660, 847.295
630.970, 1218.338
632.279, 905.590
633.588, 813.719
634.896, 635.574
636.205, 834.285
637.513, 529.514
638.821, 629.176
640.129, 768.377
641.437, 762.691
642.744, 766.998
644.051, 576.355
645.358, 617.820
646.665, 727.305
647.972, 579.344
649.278, 735.971
650.584, 595.281
651.890, 1162.240
653.196, 884.709
654.502, 1060.203
655.807, 960.438
657.113, 1220.273
658.418, 1648.053
659.722, 1730.588
661.027, 2154.490
662.331, 2543.574
663.636, 3681.436
664.940, 3979.719
666.244, 5539.492
667.547, 6269.570
668.851, 7500.732
670.154, 7758.842
671.457, 7157.281
672.760, 6621.193
674.062, 5328.270
675.365, 4397.242
676.667, 3580.613
677.969, 2874.217
679.271, 2211.486
680.572, 1688.316
681.874, 1730.807
683.175, 1730.949
684.476, 1411.684
685.777, 1268.643
687.077, 1173.188
688.378, 1352.832
689.678, 1027.586
690.978, 1023.082
692.278, 408.795
693.577, 972.434
694.877, 617.598
696.176, 850.951
697.475, 656.930
698.774, 864.811
700.072, 787.768
701.371, 733.197
702.669, 472.035
703.967, 1017.859
705.265, 1255.904
706.562, 1233.320
707.860, 958.012
709.157, 1503.016
710.454, 1266.957
711.751, 1786.723
713.047, 1426.791
714.344, 1656.668
715.640, 923.191
716.936, 1000.102
718.232, 1417.432
719.527, 1037.238
720.823, 1018.039
722.118, 870.078
723.413, 818.459
724.708, 711.236
726.002, 925.977
727.297, 849.842
728.591, 659.049
729.885, 828.896
731.179, 687.090
732.472, 490.174
733.766, 433.260
735.059, 426.801
736.352, 440.303
737.645, 489.770
738.937, 468.680
740.230, 493.104
741.522, 449.125
742.814, 476.445
744.106, 450.979
745.397, 373.303
746.689, 164.516
747.980, 423.688
749.271, 317.820
750.562, 483.918
751.853, 32.018
753.143, 196.967
754.433, 192.918
755.723, 33.174
757.013, 319.662
758.303, 73.529
759.592, 105.182
760.881, 159.852
762.170, 238.482
763.459, 293.070
764.748, 175.375
766.036, 370.025
767.325, 26.389
768.613, 49.295
769.901, 187.932
771.188, 21.123
772.476, 293.262
773.763, 25.359
775.050, 242.426
776.337, 133.455
777.624, 138.443
778.910, 203.389
780.196, 270.299
781.482, 17.193
782.768, 4.037
784.054, 181.834
785.339, 274.592
786.625, 28.314
787.910, 240.998
789.195, 63.645
790.479, 361.246
791.764, 198.816
793.048, 88.361
794.332, 192.863
795.616, 159.354
796.900, 226.799
798.183, 64.209
799.467, 103.572
800.750, 74.895
802.033, 99.828
803.316, 312.336
804.598, 376.527
805.880, 278.350
807.163, 98.195
808.445, 13.010
809.726, 49.207
811.008, 147.504
812.289, 44.801
813.570, 24.877
814.851, 96.510
816.132, 69.850
817.413, 145.295
818.693, 158.127
819.973, 23.457
821.253, 28.096
822.533, 19.793
823.813, 43.551
825.092, 6.627
826.371, 177.754
827.650, 6.154
828.929, 54.902
830.208, 190.912
831.486, 65.115
832.764, 199.771
834.042, 57.625
835.320, 131.475
836.598, 206.281
837.875, 57.082
839.152, 13.838
840.429, 406.555
841.706, 55.244
842.983, 44.113
844.259, 312.461
845.536, 21.002
846.812, 262.496
848.088, 6.045
849.363, 314.363
850.639, 156.736
851.914, 172.072
853.189, 145.369
854.464, 262.627
855.739, 156.572
857.013, 39.961
858.288, 90.160
859.562, 5.242
860.836, 158.279
862.110, 13.723
863.383, 390.223
864.656, 118.141
865.930, 276.018
867.203, 319.859
868.475, 156.672
869.748, 59.449
871.020, 197.184
872.292, 74.883
873.564, 315.543
874.836, 260.170
876.108, 28.234
877.379, 474.305
878.650, 326.812
879.922, 334.287
881.192, 162.826
882.463, 276.236
883.733, 184.611
885.004, 201.953
886.274, 192.500
887.544, 430.770
888.813, 438.402
890.083, 315.223
891.352, 530.404
892.621, 439.555
893.890, 270.674
895.159, 343.762
896.427, 252.820
897.695, 293.520
898.964, 419.146
900.232, 455.768
901.499, 525.705
902.767, 715.611
904.034, 765.971
905.301, 755.520
906.568, 875.828
907.835, 874.090
909.102, 721.918
910.368, 881.645
911.634, 1235.906
912.900, 1258.680
914.166, 1790.857
915.432, 1792.213
916.697, 2179.543
917.962, 2984.328
919.227, 2808.652
920.492, 2806.238
921.757, 2487.908
923.021, 2303.439
924.285, 1881.828
925.550, 1589.125
926.813, 1421.574
928.077, 1170.852
929.341, 1193.418
930.604, 1156.176
931.867, 911.715
933.130, 1015.055
934.393, 1272.008
935.655, 840.098
936.918, 1331.137
938.180, 1061.852
939.442, 1115.816
940.703, 1396.172
941.965, 1543.953
943.226, 1727.758
944.488, 1608.527
945.749, 2213.008
947.009, 2341.488
948.270, 2764.055
949.530, 3321.379
950.791, 3529.297
952.051, 3386.945
953.311, 2857.875
954.570, 3150.273
955.830, 2749.148
957.089, 2606.184
958.348, 2492.887
959.607, 2594.809
960.866, 2941.113
962.124, 3286.738
963.383, 4193.867
964.641, 5106.797
965.899, 6810.266
967.156, 8886.125
968.414, 12243.484
969.671, 16108.113
970.928, 19343.203
972.185, 20583.484
973.442, 18591.461
974.699, 15298.215
975.955, 11549.234
977.211, 8468.102
978.468, 6745.082
979.723, 4824.027
980.979, 3626.445
982.234, 3636.660
983.490, 2015.055
984.745, 2007.176
986.000, 1794.598
987.254, 1119.230
988.509, 1335.566
989.763, 1059.898
991.017, 1095.371
992.271, 852.266
993.525, 982.629
994.779, 1096.211
996.032, 993.652
997.285, 981.824
998.538, 445.031
999.791, 1142.719
1001.044, 578.172
1002.296, 908.965
1003.548, 1023.914
1004.800, 966.730
1006.052, 1172.023
1007.304, 1409.855
1008.555, 1905.652
1009.807, 1849.176
1011.058, 2152.281
1012.309, 1991.078
1013.559, 1895.500
1014.810, 1538.934
1016.060, 1635.531
1017.310, 1624.773
1018.560, 1128.176
1019.810, 1303.891
1021.060, 1293.207
1022.309, 832.078
1023.558, 821.422
1024.807, 525.754
1026.056, 820.852
1027.305, 481.574
1028.553, 770.875
1029.801, 765.250
1031.049, 229.605
1032.297, 464.309
1033.545, 815.457
1034.793, 390.211
1036.040, 199.062
1037.287, 364.855
1038.534, 424.145
1039.781, 810.414
1041.027, 723.457
1042.274, 392.906
1043.520, 684.117
1044.766, 424.145
1046.012, 386.320
1047.257, 194.230
1048.503, 652.285
1049.748, 201.387
1050.993, 619.473
1052.238, 631.539
1053.483, 203.578
1054.727, 89.590
1055.971, 520.594
1057.216, 327.570
1058.459, 495.520
1059.703, 433.465
1060.947, 534.992
1062.190, 578.914
1063.433, 234.812
1064.676, 265.957
1065.919, 81.809
1067.162, 567.164
1068.404, 103.387
1069.646, 121.613
1070.888, 441.359
1072.130, 144.438
1073.372, 132.551
1074.613, 370.715
1075.855, 144.098
1077.096, 7.402
1078.337, 547.664
1079.578, 18.688
1080.818, 134.590
1082.059, 113.121
1083.299, 207.059
1084.539, 64.977
1085.779, 218.219
1087.018, 146.262
1088.258, 38.172
1089.497, 192.348
1090.736, 145.781
1091.975, 96.594
1093.213, 81.531
1094.452, 235.180
1095.690, 121.328
1096.928, 279.102
1098.166, 162.887
1099.404, 430.113
1100.642, 191.297
1101.879, 715.457
1103.116, 445.051
1104.353, 971.094
1105.590, 793.449
1106.827, 1244.199
1108.063, 1203.191
1109.299, 1726.258
1110.536, 1329.004
1111.771, 1323.965
1113.007, 1321.699
1114.243, 1431.980
1115.478, 827.629
1116.713, 739.324
1117.948, 619.137
1119.183, 359.453
1120.418, 636.719
1121.652, 546.945
1122.886, 318.137
1124.120, 555.285
1125.354, 202.406
1126.588, 509.473
1127.821, 79.516
1129.055, 462.414
1130.288, 328.293
1131.521, 219.117
1132.753, 113.383
1133.986, 151.789
1135.218, 582.668
1136.450, 123.852
1137.682, 627.832
1138.914, 72.555
1140.146, 72.895
1141.377, 406.129
1142.609, 319.379
1143.840, 515.234
1145.071, 710.176
1146.301, 552.871
1147.532, 631.578
1148.762, 579.352
1149.992, 515.520
1151.222, 793.887
1152.452, 1074.691
1153.682, 709.883
1154.911, 1222.988
1156.140, 1021.098
1157.369, 1283.598
1158.598, 1304.441
1159.827, 1704.570
1161.055, 1439.227
1162.284, 1595.512
1163.512, 1628.758
1164.740, 1990.184
1165.967, 2124.844
1167.195, 2636.652
1168.422, 2596.301
1169.650, 3114.328
1170.877, 3385.461
1172.103, 3915.145
1173.330, 4780.355
1174.557, 5832.922
1175.783, 6815.195
1177.009, 7683.477
1178.235, 9533.145
1179.461, 11279.422
1180.686, 13275.031
1181.912, 15728.789
1183.137, 16828.539
1184.362, 16781.480
1185.587, 16114.090
1186.811, 14263.262
1188.036, 11791.059
1189.260, 9822.723
1190.484, 8234.949
1191.708, 6821.633
1192.932, 5310.164
1194.155, 4415.289
1195.378, 3609.531
1196.602, 3255.832
1197.825, 2538.383
1199.047, 2335.262
1200.270, 1681.801
1201.492, 2076.391
1202.715, 1072.641
1203.937, 1420.629
1205.159, 1096.527
1206.380, 1123.289
1207.602, 482.117
1208.823, 747.785
1210.044, 722.402
1211.265, 569.656
1212.486, 645.102
1213.707, 507.727
1214.927, 549.352
1216.147, 302.910
1217.367, 413.820
1218.587, 574.863
1219.807, 321.027
1221.027, 303.031
1222.246, 99.500
1223.465, 495.973
1224.684, 497.773
1225.903, 309.699
1227.121, 145.312
1228.340, 467.270
1229.558, 471.523
1230.776, 120.512
1231.994, 209.629
1233.212, 477.352
1234.429, 343.633
1235.646, 154.270
1236.864, 353.250
1238.081, 253.906
1239.297, 228.102
1240.514, 250.176
1241.730, 129.621
1242.947, 280.344
1244.163, 195.668
1245.378, 548.363
1246.594, 547.613
1247.810, 2.125
1249.025, 433.078
1250.240, 322.906
1251.455, 104.609
1252.670, 398.168
1253.885, 329.566
1255.099, 137.812
1256.313, 56.098
1257.527, 22.344
1258.741, 353.559
1259.955, 217.164
1261.168, 356.633
1262.382, 573.961
1263.595, 541.957
1264.808, 764.004
1266.021, 954.867
1267.233, 1212.668
1268.446, 1650.332
1269.658, 1471.113
1270.870, 1822.535
1272.082, 1559.090
1273.294, 1294.273
1274.505, 1027.945
1275.716, 858.898
1276.928, 670.258
1278.139, 538.926
1279.349, 390.176
1280.560, 208.590
1281.770, 86.984
1282.981, 95.160
1284.191, 144.965
1285.401, 43.426
1286.610, 78.309
1287.820, 72.973
1289.029, 260.820
1290.239, 203.652
1291.448, 39.059
1292.656, 180.172
1293.865, 91.465
1295.073, 3.301
1296.282, 334.176
1297.490, 89.250
1298.698, 312.578
1299.906, 160.789
1301.113, 158.895
1302.320, 113.848
1303.528, 189.703
1304.735, 28.398
1305.942, 209.996
1307.148, 262.473
1308.355, 25.270
1309.561, 457.781
1310.767, 226.723
1311.973, 73.449
1313.179, 14.941
1314.384, 527.539
1315.590, 136.902
1316.795, 357.148
1318.000, 61.301
1319.205, 371.332
1320.410, 121.266
1321.614, 262.887
1322.819, 324.875
1324.023, 208.773
1325.227, 560.992
1326.431, 280.758
1327.634, 79.211
1328.838, 116.402
1330.041, 281.824
1331.244, 374.367
1332.447, 137.473
1333.650, 470.988
1334.852, 322.156
1336.055, 244.219
1337.257, 460.715
1338.459, 306.004
1339.661, 669.387
1340.862, 472.805
1342.064, 333.617
1343.265, 300.980
1344.466, 607.621
1345.667, 510.793
1346.868, 760.762
1348.068, 663.824
1349.269, 670.906
1350.469, 878.410
1351.669, 663.191
1352.869, 770.793
1354.069, 880.406
1355.268, 277.059
1356.468, 905.785
1357.667, 1036.590
1358.866, 653.586
1360.065, 892.738
1361.263, 583.207
1362.462, 752.914
1363.660, 975.324
1364.858, 756.230
1366.056, 692.574
1367.254, 1067.551
1368.451, 973.035
1369.649, 864.242
1370.846, 865.332
1372.043, 742.371
1373.240, 780.156
1374.436, 1151.676
1375.633, 1198.227
1376.829, 1143.875
1378.025, 1371.266
1379.221, 2583.000
1380.417, 4654.859
1381.613, 8674.625
1382.808, 12016.488
1384.003, 11156.148
1385.199, 7550.348
1386.393, 3964.664
1387.588, 2524.445
1388.783, 1655.035
1389.977, 1171.570
1391.171, 998.492
1392.365, 693.355
1393.559, 587.980
1394.753, 750.523
1395.946, 557.480
1397.140, 675.449
1398.333, 798.859
1399.526, 522.523
1400.719, 678.113
1401.911, 683.977
1403.104, 509.469
1404.296, 378.293
1405.488, 713.863
1406.680, 104.219
1407.872, 914.336
1409.063, 584.176
1410.255, 276.406
1411.446, 601.527
1412.637, 153.863
1413.828, 285.406
1415.018, 502.238
1416.209, 505.027
1417.399, 209.105
1418.589, 600.945
1419.779, 148.527
1420.969, 468.742
1422.159, 50.051
1423.348, 487.488
1424.537, 527.707
1425.726, 466.828
1426.915, 516.426
1428.104, 312.238
1429.293, 196.121
1430.481, 336.035
1431.669, 381.793
1432.857, 410.215
1434.045, 4.727
1435.233, 246.324
1436.420, 0.000
##END=



