##NAMES=Cordierite
##RRUFFID=R040081
##IDEAL CHEMISTRY=Mg_2_Al_3_(AlSi_5_)O_18_
##LOCALITY=Laramie Range, Wyoming, USA
##OWNER=RRUFF
##SOURCE=University of Arizona Mineral Museum
##DESCRIPTION=Blue to purple coarsely crystalline
##STATUS=The identification of this mineral has been confirmed by X-ray diffraction and chemical analysis
##URL=rruff.info/R040081
##MEASURED CHEMISTRY=(Mg_1.80_Fe^2+^_0.20_)_Σ=2_Al_4.00_(Si_4.96_Al_0.04_)_Σ=5_O_18_·0.86H_2_O·Na_0.04_ ; H_2_O estimated by difference and verified by Raman spectroscopy
##PIN_ID=M00018
##ORIENTATION=Laser parallel to b* (0 1 0). Fiducial mark perpendicular to laser is parallel to c [0 0 1]
71.048, 0.000
72.445, 3.542
73.842, 15.351
75.239, 23.287
76.635, 109.950
78.031, 276.038
79.427, 725.839
80.823, 1409.854
82.218, 2497.608
83.614, 3512.820
85.009, 4479.973
86.404, 5626.092
87.798, 6562.605
89.193, 7135.243
90.587, 7270.162
91.981, 6792.634
93.375, 6067.893
94.768, 5112.298
96.161, 4453.309
97.554, 3792.451
98.947, 3407.311
100.340, 3123.528
101.732, 3084.790
103.124, 3196.819
104.516, 3429.377
105.908, 3868.246
107.300, 4015.277
108.691, 4292.470
110.082, 4352.701
111.473, 4745.562
112.864, 5264.930
114.254, 6351.811
115.644, 7627.146
117.034, 8818.858
118.424, 9980.828
119.813, 11591.945
121.203, 12079.114
122.592, 11344.258
123.981, 9984.299
125.369, 8549.178
126.758, 7491.837
128.146, 6413.229
129.534, 5562.304
130.922, 4252.023
132.309, 3215.348
133.696, 2319.242
135.083, 1982.674
136.470, 1535.612
137.857, 1401.030
139.243, 1333.901
140.630, 1161.199
142.016, 1125.903
143.401, 1273.374
144.787, 1471.141
146.172, 1780.348
147.557, 2106.447
148.942, 2508.530
150.327, 3169.410
151.711, 3859.643
153.096, 4724.814
154.480, 5338.534
155.863, 6015.799
157.247, 6226.672
158.630, 5749.237
160.013, 4903.376
161.396, 4825.785
162.779, 3210.180
164.161, 2303.489
165.544, 1847.736
166.926, 1257.946
168.308, 926.134
169.689, 713.315
171.070, 615.503
172.452, 521.706
173.833, 373.934
175.213, 394.190
176.594, 267.482
177.974, 398.812
179.354, 445.184
180.734, 441.600
182.114, 476.061
183.493, 568.568
184.872, 719.121
186.251, 913.722
187.630, 967.371
189.008, 1107.066
190.387, 1300.808
191.765, 1338.592
193.143, 1319.415
194.520, 1150.275
195.898, 1010.169
197.275, 787.096
198.652, 687.056
200.029, 657.489
201.405, 744.062
202.782, 776.104
204.158, 1151.172
205.534, 1440.263
206.909, 1445.375
208.285, 1368.506
209.660, 1099.655
211.035, 543.840
212.410, 322.058
213.784, 71.293
215.159, 59.458
216.533, 156.200
217.907, 290.934
219.281, 267.658
220.654, 286.377
222.027, 262.092
223.400, 223.802
224.773, 196.509
226.146, 78.220
227.518, 98.759
228.891, 258.059
230.263, 702.267
231.634, 1266.478
233.006, 2024.916
234.377, 3040.675
235.748, 4276.882
237.119, 5346.167
238.490, 6361.063
239.860, 6302.486
241.231, 5899.576
242.601, 5205.207
243.970, 4665.402
245.340, 4468.239
246.709, 4332.936
248.079, 5046.271
249.448, 6143.286
250.816, 7983.955
252.185, 10564.725
253.553, 14133.769
254.921, 18251.029
256.289, 21777.648
257.657, 23792.611
259.024, 23957.875
260.391, 21596.436
261.758, 17143.246
263.125, 12694.304
264.492, 8963.584
265.858, 6332.078
267.224, 4694.765
268.590, 3448.631
269.956, 2745.669
271.321, 2225.863
272.687, 1961.205
274.052, 1935.679
275.416, 2185.271
276.781, 2423.973
278.146, 2823.777
279.510, 3370.677
280.874, 3617.666
282.237, 3595.736
283.601, 3388.881
284.964, 3383.098
286.327, 4077.378
287.690, 4763.721
289.053, 5925.119
290.416, 7497.571
291.778, 8762.069
293.140, 10096.611
294.502, 10521.195
295.863, 10577.820
297.225, 9720.479
298.586, 9094.169
299.947, 8111.889
301.308, 7514.635
302.668, 7221.406
304.029, 7029.200
305.389, 6802.014
306.749, 6087.846
308.108, 5418.684
309.468, 4543.456
310.827, 3180.134
312.186, 2238.736
313.545, 1681.309
314.903, 1355.893
316.262, 1053.481
317.620, 1081.067
318.978, 1175.641
320.336, 1479.201
321.693, 2029.746
323.051, 2740.271
324.408, 3695.773
325.765, 4776.251
327.121, 5356.707
328.478, 5540.139
329.834, 5015.548
331.190, 4017.932
332.546, 2628.293
333.902, 1773.630
335.257, 1136.945
336.612, 822.235
337.967, 525.501
339.322, 363.744
340.677, 251.961
342.031, 203.154
343.385, 265.322
344.739, 228.464
346.093, 324.582
347.446, 549.684
348.799, 562.516
350.153, 773.246
351.505, 732.397
352.858, 727.423
354.210, 767.448
355.563, 687.381
356.915, 809.287
358.267, 863.165
359.618, 974.017
360.969, 1347.840
362.321, 1604.635
363.672, 1965.403
365.022, 2296.143
366.373, 2477.854
367.723, 2280.538
369.073, 1837.193
370.423, 1459.820
371.773, 948.419
373.122, 735.989
374.471, 611.531
375.821, 411.043
377.169, 399.527
378.518, 221.375
379.866, 202.568
381.215, 71.433
382.563, 27.125
383.910, 75.322
385.258, 60.945
386.605, 118.711
387.952, 171.219
389.299, 259.892
390.646, 282.136
391.992, 295.617
393.339, 306.356
394.685, 280.420
396.031, 262.842
397.376, 320.618
398.722, 269.762
400.067, 334.079
401.412, 371.601
402.757, 275.365
404.101, 279.327
405.446, 350.495
406.790, 281.914
408.134, 250.551
409.478, 169.395
410.821, 56.406
412.165, 10.463
413.508, 163.268
414.851, 224.040
416.193, 330.796
417.536, 495.542
418.878, 1052.273
420.220, 1387.989
421.562, 2414.689
422.904, 3387.372
424.245, 4168.035
425.586, 5355.677
426.927, 6195.298
428.268, 6089.897
429.609, 5472.472
430.949, 4505.024
432.289, 3518.551
433.629, 2521.052
434.969, 2002.526
436.309, 1404.974
437.648, 1127.394
438.987, 939.786
440.326, 731.149
441.665, 598.483
443.003, 587.787
444.342, 613.062
445.680, 650.306
447.018, 857.520
448.355, 927.702
449.693, 1220.854
451.030, 1551.974
452.367, 2095.062
453.704, 2215.119
455.041, 2355.143
456.377, 2150.134
457.713, 1887.094
459.049, 1469.021
460.385, 1272.914
461.721, 1334.774
463.056, 1222.602
464.391, 1318.396
465.726, 1587.156
467.061, 1780.884
468.395, 1853.577
469.730, 2036.236
471.064, 1867.863
472.398, 1859.457
473.731, 1720.019
475.065, 1637.547
476.398, 1789.043
477.731, 1905.507
479.064, 1968.938
480.397, 2152.338
481.729, 2539.705
483.062, 3015.040
484.394, 3610.343
485.725, 4042.614
487.057, 4638.854
488.389, 4829.065
489.720, 4508.267
491.051, 3851.462
492.382, 3256.627
493.712, 2461.805
495.043, 1894.952
496.373, 1409.078
497.703, 1076.203
499.032, 817.303
500.362, 609.386
501.691, 531.488
503.020, 411.597
504.349, 376.719
505.678, 291.853
507.007, 200.000
508.335, 214.154
509.663, 218.307
510.991, 257.475
512.319, 273.188
513.646, 266.825
514.973, 336.007
516.300, 339.191
517.627, 388.397
518.954, 394.614
520.280, 547.833
521.607, 557.085
522.933, 719.353
524.259, 825.640
525.584, 899.935
526.910, 1101.234
528.235, 1156.554
529.560, 1401.880
530.885, 1515.208
532.209, 1833.562
533.534, 2191.904
534.858, 2586.234
536.182, 2952.553
537.506, 3607.844
538.829, 4959.111
540.152, 5054.364
541.476, 6128.067
542.799, 7284.540
544.121, 9198.292
545.444, 11582.962
546.766, 14782.275
548.088, 18826.523
549.410, 24163.113
550.732, 29878.115
552.053, 35888.102
553.375, 39862.234
554.696, 41687.840
556.017, 40775.402
557.337, 36995.219
558.658, 32794.086
559.978, 28585.814
561.298, 25682.078
562.618, 22738.285
563.938, 20825.156
565.257, 19335.479
566.576, 17757.037
567.895, 17472.488
569.214, 17712.996
570.533, 18569.410
571.851, 20112.721
573.170, 22666.406
574.488, 24677.268
575.805, 26495.318
577.123, 26902.375
578.440, 26160.430
579.758, 24008.490
581.075, 20554.549
582.391, 17630.607
583.708, 14134.667
585.024, 11625.730
586.341, 9833.793
587.657, 8014.859
588.972, 6555.925
590.288, 5469.992
591.603, 4614.062
592.918, 3975.133
594.233, 3470.205
595.548, 3188.279
596.863, 2662.355
598.177, 2392.433
599.491, 2201.512
600.805, 1953.594
602.119, 1778.676
603.432, 1538.762
604.746, 1615.850
606.059, 1473.538
607.372, 1616.031
608.685, 1451.125
609.997, 1373.222
611.309, 1457.320
612.621, 1390.422
613.933, 1643.526
615.245, 1802.635
616.557, 1995.744
617.868, 2218.856
619.179, 2381.973
620.490, 2489.091
621.801, 2725.213
623.111, 2585.338
624.421, 2721.467
625.731, 2273.599
627.041, 2292.733
628.351, 1843.872
629.660, 1505.015
630.970, 1511.161
632.279, 1090.311
633.588, 955.465
634.896, 683.622
636.205, 729.785
637.513, 638.950
638.821, 526.120
640.129, 570.294
641.437, 572.474
642.744, 522.656
644.051, 435.109
645.358, 696.534
646.665, 678.494
647.972, 743.915
649.278, 915.361
650.584, 1014.288
651.890, 1276.537
653.196, 1402.551
654.502, 1746.051
655.807, 1877.089
657.113, 2422.640
658.418, 3126.328
659.722, 3694.666
661.027, 4605.428
662.331, 5955.111
663.636, 7678.217
664.940, 9758.414
666.244, 12466.107
667.547, 15216.889
668.851, 18074.457
670.154, 19099.057
671.457, 18806.711
672.760, 17298.580
674.062, 14233.322
675.365, 11731.639
676.667, 9241.583
677.969, 7170.893
679.271, 5801.896
680.572, 4415.309
681.874, 3846.238
683.175, 3208.951
684.476, 2740.027
685.777, 2386.006
687.077, 2197.522
688.378, 2060.047
689.678, 1915.023
690.978, 1731.860
692.278, 1382.251
693.577, 1531.644
694.877, 1356.033
696.176, 1411.334
697.475, 1433.567
698.774, 1410.511
700.072, 1444.784
701.371, 1695.993
702.669, 1735.223
703.967, 2022.508
705.265, 2467.860
706.562, 2838.304
707.860, 3155.846
709.157, 3751.488
710.454, 3997.238
711.751, 4496.088
713.047, 4254.031
714.344, 4029.086
715.640, 3629.240
716.936, 3350.508
718.232, 3370.902
719.527, 3143.396
720.823, 3222.992
722.118, 3338.710
723.413, 3305.530
724.708, 3264.445
726.002, 3208.436
727.297, 2758.469
728.591, 2666.530
729.885, 2495.591
731.179, 2307.642
732.472, 2333.685
733.766, 2382.715
735.059, 2635.736
736.352, 2757.745
737.645, 2991.745
738.937, 2879.732
740.230, 2751.711
741.522, 2589.678
742.814, 2565.633
744.106, 2592.578
745.397, 2614.511
746.689, 2740.434
747.980, 3074.346
749.271, 3263.244
750.562, 3624.132
751.853, 3369.008
753.143, 3256.872
754.433, 2814.726
755.723, 2394.568
757.013, 2074.396
758.303, 1643.215
759.592, 1412.020
760.881, 1089.813
762.170, 970.595
763.459, 810.364
764.748, 510.121
766.036, 549.866
767.325, 420.599
768.613, 357.318
769.901, 361.024
771.188, 211.718
772.476, 319.400
773.763, 144.069
775.050, 249.725
776.337, 147.369
777.624, 161.999
778.910, 159.617
780.196, 234.221
781.482, 198.812
782.768, 157.391
784.054, 190.955
785.339, 159.509
786.625, 138.047
787.910, 108.574
789.195, 107.088
790.479, 93.662
791.764, 109.769
793.048, 88.549
794.332, 133.010
795.616, 139.457
796.900, 99.894
798.183, 32.315
799.467, 37.720
800.750, 59.891
802.033, 66.561
803.316, 40.706
804.598, 137.043
805.880, 71.107
807.163, 9.757
808.445, 80.654
809.726, 7.376
811.008, 16.620
812.289, 161.654
813.570, 107.805
814.851, 130.040
816.132, 128.375
817.413, 134.808
818.693, 152.031
819.973, 107.981
821.253, 171.705
822.533, 111.545
823.813, 94.474
825.092, 111.483
826.371, 82.036
827.650, 159.752
828.929, 121.039
830.208, 83.422
831.486, 200.879
832.764, 132.473
834.042, 155.168
835.320, 99.976
836.598, 96.866
837.875, 150.838
839.152, 101.921
840.429, 79.086
841.706, 175.323
842.983, 39.681
844.259, 22.090
845.536, 31.538
846.812, 46.970
848.088, 45.463
849.363, 53.941
850.639, 0.407
851.914, 27.152
853.189, 60.247
854.464, 85.634
855.739, 143.009
857.013, 148.374
858.288, 93.728
859.562, 169.069
860.836, 187.399
862.110, 101.717
863.383, 204.021
864.656, 190.314
865.930, 263.595
867.203, 254.860
868.475, 266.111
869.748, 220.350
871.020, 347.572
872.292, 347.779
873.564, 448.971
874.836, 447.146
876.108, 893.307
877.379, 1242.447
878.650, 997.573
879.922, 760.680
881.192, 636.771
882.463, 745.842
883.733, 807.896
885.004, 866.934
886.274, 964.953
887.544, 1210.956
888.813, 1303.941
890.083, 1706.909
891.352, 2117.861
892.621, 2454.797
893.890, 3056.715
895.159, 3665.618
896.427, 4311.502
897.695, 5241.375
898.964, 5633.229
900.232, 5906.066
901.499, 5705.891
902.767, 5042.699
904.034, 3963.490
905.301, 3351.270
906.568, 2852.031
907.835, 2336.777
909.102, 1943.509
910.368, 1773.227
911.634, 1681.930
912.900, 1499.618
914.166, 1566.293
915.432, 1416.953
916.697, 1437.599
917.962, 1669.232
919.227, 1510.851
920.492, 1545.457
921.757, 1739.049
923.021, 1508.627
924.285, 1336.197
925.550, 1308.754
926.813, 1328.299
928.077, 1223.833
929.341, 1277.364
930.604, 1293.883
931.867, 1229.412
933.130, 1446.929
934.393, 1383.435
935.655, 1469.953
936.918, 1545.459
938.180, 1533.973
939.442, 1632.508
940.703, 1895.045
941.965, 2022.588
943.226, 2147.120
944.488, 2443.646
945.749, 2961.160
947.009, 3286.677
948.270, 3912.200
949.530, 4448.738
950.791, 4930.021
952.051, 4849.331
953.311, 4587.122
954.570, 4557.450
955.830, 4257.787
957.089, 4398.660
958.348, 4403.209
959.607, 5026.016
960.866, 5549.334
962.124, 6697.112
963.383, 7964.386
964.641, 9261.521
965.899, 11258.024
967.156, 13993.113
968.414, 17619.279
969.671, 24289.021
970.928, 26914.648
972.185, 29756.033
973.442, 28595.396
974.699, 25120.521
975.955, 20558.715
977.211, 16010.832
978.468, 12641.793
979.723, 9755.877
980.979, 7836.389
982.234, 6570.268
983.490, 5126.782
984.745, 4596.603
986.000, 4021.014
987.254, 3459.905
988.509, 3295.015
989.763, 3199.769
991.017, 3253.623
992.271, 3357.955
993.525, 3312.315
994.779, 3746.228
996.032, 4010.314
997.285, 4677.855
998.538, 4679.400
999.791, 5296.991
1001.044, 5795.674
1002.296, 6870.428
1003.548, 8308.538
1004.800, 10213.366
1006.052, 13277.315
1007.304, 16839.293
1008.555, 21275.287
1009.807, 24859.297
1011.058, 26426.322
1012.309, 25002.359
1013.559, 21944.414
1014.810, 18053.482
1016.060, 14871.556
1017.310, 11906.646
1018.560, 9457.745
1019.810, 7806.857
1021.060, 6494.982
1022.309, 5102.121
1023.558, 4489.273
1024.807, 3576.438
1026.056, 2997.617
1027.305, 2584.807
1028.553, 2342.011
1029.801, 2010.227
1031.049, 1797.566
1032.297, 1593.699
1033.545, 1472.955
1034.793, 1287.230
1036.040, 1222.529
1037.287, 1102.855
1038.534, 1046.197
1039.781, 1018.550
1041.027, 870.949
1042.274, 896.362
1043.520, 911.797
1044.766, 799.245
1046.012, 857.707
1047.257, 787.185
1048.503, 889.677
1049.748, 723.182
1050.993, 815.699
1052.238, 749.231
1053.483, 728.778
1054.727, 634.338
1055.971, 665.273
1057.216, 688.510
1058.459, 715.127
1059.703, 666.757
1060.947, 683.401
1062.190, 748.062
1063.433, 720.735
1064.676, 800.434
1065.919, 643.146
1067.162, 822.882
1068.404, 635.631
1069.646, 719.395
1070.888, 766.183
1072.130, 613.984
1073.372, 750.413
1074.613, 600.270
1075.855, 490.298
1077.096, 419.260
1078.337, 463.212
1079.578, 371.213
1080.818, 376.132
1082.059, 316.164
1083.299, 455.088
1084.539, 353.417
1085.779, 387.392
1087.018, 357.498
1088.258, 302.950
1089.497, 420.778
1090.736, 352.444
1091.975, 449.451
1093.213, 482.193
1094.452, 551.406
1095.690, 486.918
1096.928, 653.963
1098.166, 697.667
1099.404, 816.208
1100.642, 1010.706
1101.879, 1234.272
1103.116, 1561.539
1104.353, 1824.215
1105.590, 2075.600
1106.827, 2541.043
1108.063, 2717.183
1109.299, 2906.902
1110.536, 2977.498
1111.771, 2884.624
1113.007, 2658.956
1114.243, 2306.386
1115.478, 1911.953
1116.713, 1612.608
1117.948, 1326.146
1119.183, 945.733
1120.418, 888.377
1121.652, 918.066
1122.886, 738.816
1124.120, 656.611
1125.354, 707.448
1126.588, 452.329
1127.821, 380.247
1129.055, 355.222
1130.288, 413.244
1131.521, 382.303
1132.753, 237.430
1133.986, 282.606
1135.218, 437.941
1136.450, 169.330
1137.682, 350.218
1138.914, 344.146
1140.146, 313.030
1141.377, 355.988
1142.609, 230.767
1143.840, 421.410
1145.071, 433.534
1146.301, 400.442
1147.532, 588.280
1148.762, 560.238
1149.992, 529.052
1151.222, 585.956
1152.452, 666.772
1153.682, 605.926
1154.911, 780.582
1156.140, 789.552
1157.369, 915.516
1158.598, 911.167
1159.827, 1035.221
1161.055, 1020.290
1162.284, 1053.046
1163.512, 1141.624
1164.740, 1196.256
1165.967, 1249.100
1167.195, 1368.640
1168.422, 1373.422
1169.650, 1439.434
1170.877, 1535.320
1172.103, 1774.257
1173.330, 2129.033
1174.557, 2573.715
1175.783, 2984.472
1177.009, 3399.172
1178.235, 4199.711
1179.461, 4824.707
1180.686, 5881.331
1181.912, 6613.510
1183.137, 7271.414
1184.362, 7549.333
1185.587, 7298.219
1186.811, 6731.853
1188.036, 5852.963
1189.260, 4883.705
1190.484, 4163.930
1191.708, 3453.673
1192.932, 2798.501
1194.155, 2248.609
1195.378, 1890.098
1196.602, 1626.622
1197.825, 1279.211
1199.047, 1039.919
1200.270, 867.482
1201.492, 863.980
1202.715, 596.837
1203.937, 610.642
1205.159, 371.062
1206.380, 407.444
1207.602, 153.030
1208.823, 205.809
1210.044, 170.167
1211.265, 77.925
1212.486, 104.346
1213.707, 136.073
1214.927, 153.562
1216.147, 148.046
1217.367, 152.620
1218.587, 58.981
1219.807, 15.688
1221.027, 32.747
1222.246, 2.050
1223.465, 18.326
1224.684, 40.454
1225.903, 19.721
1227.121, 85.110
1228.340, 23.020
1229.558, 95.099
1230.776, 87.852
1231.994, 52.142
1233.212, 65.942
1234.429, 118.082
1235.646, 43.265
1236.864, 55.482
1238.081, 79.233
1239.297, 6.059
1240.514, 27.639
1241.730, 32.672
1242.947, 56.002
1244.163, 81.357
1245.378, 61.746
1246.594, 4.838
1247.810, 75.940
1249.025, 51.937
1250.240, 138.570
1251.455, 69.180
1252.670, 38.119
1253.885, 78.658
1255.099, 9.521
1256.313, 25.612
1257.527, 27.314
1258.741, 112.720
1259.955, 77.272
1261.168, 14.312
1262.382, 59.622
1263.595, 161.537
1264.808, 189.430
1266.021, 299.301
1267.233, 474.151
1268.446, 654.980
1269.658, 530.787
1270.870, 796.560
1272.082, 704.270
1273.294, 453.953
1274.505, 385.558
1275.716, 291.121
1276.928, 218.653
1278.139, 184.160
1279.349, 172.639
1280.560, 93.089
1281.770, 90.346
1282.981, 5.856
1284.191, 30.176
1285.401, 23.558
1286.610, 103.359
1287.820, 57.769
1289.029, 96.160
1290.239, 8.843
1291.448, 13.802
1292.656, 113.278
1293.865, 47.567
1295.073, 66.376
1296.282, 144.850
1297.490, 72.845
1298.698, 38.505
1299.906, 112.128
1301.113, 52.718
1302.320, 17.270
1303.528, 24.780
1304.735, 46.249
1305.942, 45.681
1307.148, 89.076
1308.355, 137.438
1309.561, 118.209
1310.767, 118.065
1311.973, 89.328
1313.179, 81.556
1314.384, 51.200
1315.590, 64.276
1316.795, 58.029
1318.000, 80.119
1319.205, 102.176
1320.410, 83.201
1321.614, 95.824
1322.819, 157.157
1324.023, 52.092
1325.227, 110.995
1326.431, 16.872
1327.634, 3.715
1328.838, 12.479
1330.041, 59.285
1331.244, 102.023
1332.447, 79.262
1333.650, 74.397
1334.852, 16.033
1336.055, 72.641
1337.257, 61.228
1338.459, 44.796
1339.661, 123.344
1340.862, 112.880
1342.064, 95.402
1343.265, 70.915
1344.466, 97.420
1345.667, 110.920
1346.868, 54.420
1348.068, 23.922
1349.269, 11.427
1350.469, 148.938
1351.669, 79.474
1352.869, 57.045
1354.069, 191.664
1355.268, 5.355
1356.468, 111.144
1357.667, 6.126
1358.866, 96.163
1360.065, 99.155
1361.263, 11.475
1362.462, 131.164
1363.660, 153.754
1364.858, 101.162
1366.056, 147.769
1367.254, 201.662
1368.451, 187.707
1369.649, 212.067
1370.846, 260.252
1372.043, 338.018
1373.240, 338.473
1374.436, 385.072
1375.633, 419.697
1376.829, 451.642
1378.025, 847.246
1379.221, 2793.973
1380.417, 2487.200
1381.613, 5122.889
1382.808, 7777.043
1384.003, 7701.359
1385.199, 5015.634
1386.393, 2646.864
1387.588, 1695.054
1388.783, 889.200
1389.977, 727.308
1391.171, 459.239
1392.365, 384.022
1393.559, 416.581
1394.753, 362.782
1395.946, 439.965
1397.140, 384.760
1398.333, 489.123
1399.526, 316.987
1400.719, 374.053
1401.911, 299.417
1403.104, 576.000
1404.296, 543.773
1405.488, 673.385
1406.680, 118.668
1407.872, 99.238
1409.063, 176.668
1410.255, 73.569
1411.446, 189.380
1412.637, 52.966
1413.828, 107.357
1415.018, 85.861
1416.209, 22.984
1417.399, 21.371
1418.589, 1.673
1419.779, 51.274
1420.969, 46.506
1422.159, 6.083
1423.348, 124.938
1424.537, 74.626
1425.726, 107.782
1426.915, 155.451
1428.104, 130.452
1429.293, 121.054
1430.481, 169.744
1431.669, 87.136
1432.857, 33.730
1434.045, 8.479
1435.233, 47.369
1436.420, 118.164
1437.608, 105.045
1438.795, 61.075
1439.982, 141.238
1441.169, 101.403
1442.355, 112.488
1443.542, 110.381
1444.728, 74.070
1445.914, 123.550
1447.100, 95.938
1448.286, 171.613
1449.472, 75.634
1450.657, 232.913
1451.842, 178.162
1453.027, 106.332
1454.212, 338.386
1455.397, 400.346
1456.581, 224.193
1457.766, 143.138
1458.950, 9.328
1460.134, 170.766
1461.318, 134.182
1462.501, 49.620
1463.685, 246.231
1464.868, 3.106
1466.051, 221.219
1467.234, 178.514
1468.417, 98.912
1469.600, 217.420
