##NAMES=Cordierite
##RRUFFID=R040082
##IDEAL CHEMISTRY=Mg_2_Al_3_(AlSi_5_)O_18_
##LOCALITY=Madagascar
##OWNER=RRUFF
##SOURCE=University of Arizona Mineral Museum
##DESCRIPTION=Dark gray coarsely crystalline massive
##STATUS=The identification of this mineral has been confirmed by X-ray diffraction and chemical analysis
##URL=rruff.info/R040082
##MEASURED CHEMISTRY=(Mg_1.60_Fe^2+^_0.39_Mn_0.01_)_Σ=2_Al_4.00_(Si_4.95_Al_0.05_)_Σ=5_O_18_·1.05H_2_O·Na_0.05_ ; H_2_O estimated by difference and verified by Raman spectroscopy
##PIN_ID=M00022
##ORIENTATION=Laser parallel to a* (1 0 0). Fiducial mark perpendicular to laser is parallel to b [0 1 0]
101.732, 0.000
103.124, 3.206
104.516, 66.230
105.908, 32.153
107.300, 12.151
108.691, 165.706
110.082, 185.998
111.473, 295.368
112.864, 467.143
114.254, 753.223
115.644, 1142.967
117.034, 1309.976
118.424, 1533.994
119.813, 1910.988
121.203, 2173.143
122.592, 2738.050
123.981, 3272.833
125.369, 3921.570
126.758, 4248.312
128.146, 3821.091
129.534, 3049.928
130.922, 2189.838
132.309, 1518.832
133.696, 1074.983
135.083, 813.210
136.470, 592.531
137.857, 609.361
139.243, 516.779
140.630, 428.492
142.016, 375.557
143.401, 486.929
144.787, 586.567
146.172, 694.439
147.557, 903.519
148.942, 1244.252
150.327, 1553.223
151.711, 2146.813
153.096, 2786.543
154.480, 3432.400
155.863, 3905.375
157.247, 4006.455
158.630, 3275.631
160.013, 2285.898
161.396, 1454.245
162.779, 982.664
164.161, 476.267
165.544, 364.800
166.926, 130.398
168.308, 112.060
169.689, 63.176
171.070, 17.739
172.452, 7.376
173.833, 137.691
175.213, 91.331
176.594, 61.928
177.974, 73.434
179.354, 23.704
180.734, 65.881
182.114, 13.969
183.493, 155.974
184.872, 179.900
186.251, 253.736
187.630, 275.513
189.008, 235.242
190.387, 340.935
191.765, 282.597
193.143, 451.233
194.520, 409.847
195.898, 467.441
197.275, 538.016
198.652, 677.575
200.029, 653.120
201.405, 702.651
202.782, 661.167
204.158, 728.666
205.534, 886.146
206.909, 657.610
208.285, 739.059
209.660, 560.496
211.035, 395.919
212.410, 345.332
213.784, 128.733
215.159, 194.125
216.533, 164.508
217.907, 119.882
219.281, 39.216
220.654, 26.973
222.027, 4.718
223.400, 11.969
224.773, 10.714
226.146, 63.626
227.518, 79.979
228.891, 116.326
230.263, 363.666
231.634, 439.998
233.006, 675.323
234.377, 993.745
235.748, 1206.055
237.119, 1476.900
238.490, 1828.327
239.860, 1689.683
241.231, 1864.087
242.601, 1715.435
243.970, 1740.740
245.340, 1921.938
246.709, 1884.512
248.079, 2357.754
249.448, 2736.957
250.816, 3675.268
252.185, 4984.357
253.553, 6817.716
254.921, 9049.693
256.289, 11909.678
257.657, 15006.660
259.024, 17181.637
260.391, 16239.616
261.758, 12891.595
263.125, 9368.573
264.492, 6651.552
265.858, 5017.531
267.224, 3853.750
268.590, 2945.982
269.956, 2514.173
271.321, 2132.573
272.687, 1910.139
274.052, 1666.836
275.416, 1702.641
276.781, 1475.534
278.146, 1391.500
279.510, 1592.526
280.874, 1609.605
282.237, 1819.731
283.601, 2167.969
284.964, 2369.095
286.327, 3025.643
287.690, 3484.527
289.053, 4040.765
290.416, 4949.016
291.778, 5614.284
293.140, 6216.564
294.502, 6569.861
295.863, 6823.171
297.225, 6919.492
298.586, 6932.827
299.947, 7201.174
301.308, 7154.471
302.668, 7666.658
304.029, 8251.742
305.389, 8438.846
306.749, 7856.970
308.108, 6803.106
309.468, 5151.258
310.827, 3499.424
312.186, 2241.603
313.545, 1599.791
314.903, 964.992
316.262, 674.203
317.620, 687.424
318.978, 753.654
320.336, 1054.893
321.693, 1403.139
323.051, 2147.395
324.408, 2679.656
325.765, 3354.925
327.121, 3160.200
328.478, 2581.475
329.834, 2003.755
331.190, 1600.042
332.546, 1124.335
333.902, 1112.344
335.257, 990.162
336.612, 841.463
337.967, 717.849
339.322, 626.432
340.677, 596.285
342.031, 447.682
343.385, 409.333
344.739, 250.233
346.093, 294.572
347.446, 268.868
348.799, 261.353
350.153, 268.834
351.505, 264.783
352.858, 272.182
354.210, 276.438
355.563, 274.030
356.915, 306.950
358.267, 278.207
359.618, 268.213
360.969, 282.720
362.321, 187.979
363.672, 121.237
365.022, 46.499
366.373, 55.760
367.723, 130.022
369.073, 48.287
370.423, 17.445
371.773, 126.190
373.122, 64.975
374.471, 67.781
375.821, 141.611
377.169, 23.516
378.518, 135.357
379.866, 121.271
381.215, 113.223
382.563, 178.208
383.910, 145.244
385.258, 112.322
386.605, 10.565
387.952, 116.972
389.299, 41.121
390.646, 76.285
391.992, 24.473
393.339, 10.329
394.685, 35.130
396.031, 128.933
397.376, 26.739
398.722, 123.547
400.067, 8.657
401.412, 23.051
402.757, 240.677
404.101, 148.254
405.446, 142.746
406.790, 216.130
408.134, 173.474
409.478, 260.763
410.821, 309.016
412.165, 298.271
413.508, 334.536
414.851, 436.801
416.193, 343.075
417.536, 483.360
418.878, 521.658
420.220, 496.966
421.562, 445.286
422.904, 588.619
424.245, 614.964
425.586, 634.320
426.927, 726.688
428.268, 674.070
429.609, 701.463
430.949, 735.871
432.289, 918.293
433.629, 556.726
434.969, 709.168
436.309, 510.619
437.648, 539.081
438.987, 440.552
440.326, 398.359
441.665, 518.520
443.003, 381.015
444.342, 324.519
445.680, 372.031
447.018, 340.552
448.355, 380.080
449.693, 392.616
451.030, 475.160
452.367, 530.713
453.704, 513.272
455.041, 627.840
456.377, 654.417
457.713, 721.001
459.049, 704.594
460.385, 841.194
461.721, 978.803
463.056, 970.419
464.391, 1070.045
465.726, 1164.681
467.061, 1174.326
468.395, 1247.980
469.730, 1348.644
471.064, 1284.317
472.398, 1480.000
473.731, 1454.692
475.065, 1506.395
476.398, 1482.105
477.731, 1373.827
479.064, 1149.558
480.397, 1066.297
481.729, 904.049
483.062, 807.808
484.394, 815.577
485.725, 707.356
487.057, 742.146
488.389, 579.946
489.720, 495.758
491.051, 340.586
492.382, 302.424
493.712, 200.302
495.043, 119.206
496.373, 18.131
497.703, 12.916
499.032, 55.104
500.362, 89.839
501.691, 5.752
503.020, 99.634
504.349, 68.516
505.678, 38.354
507.007, 1.864
508.335, 80.888
509.663, 16.399
510.991, 113.729
512.319, 0.897
513.646, 115.528
514.973, 50.985
516.300, 160.519
517.627, 204.090
518.954, 130.687
520.280, 375.321
521.607, 353.000
522.933, 438.716
524.259, 515.477
525.584, 606.194
526.910, 841.032
528.235, 1021.899
529.560, 1196.742
530.885, 1287.790
532.209, 1453.233
533.534, 1812.555
534.858, 2130.725
536.182, 2562.288
537.506, 3222.639
538.829, 3842.651
540.152, 4727.579
541.476, 5909.044
542.799, 7184.463
544.121, 9324.988
545.444, 11735.611
546.766, 15274.624
548.088, 19776.059
549.410, 24662.166
550.732, 30042.238
552.053, 35297.391
553.375, 38086.586
554.696, 37292.664
556.017, 34638.863
557.337, 29287.787
558.658, 24055.025
559.978, 19596.354
561.298, 16813.266
562.618, 14538.550
563.938, 13067.852
565.257, 12544.172
566.576, 12242.509
567.895, 12963.865
569.214, 14093.237
570.533, 15408.629
571.851, 17377.045
573.170, 20189.475
574.488, 22146.918
575.805, 23581.385
577.123, 23923.871
578.440, 22746.373
579.758, 20372.895
581.075, 16839.434
582.391, 14219.994
583.708, 11104.567
585.024, 8934.161
586.341, 7435.773
587.657, 6060.404
588.972, 5016.051
590.288, 4154.717
591.603, 3368.400
592.918, 2929.102
594.233, 2751.819
595.548, 2233.554
596.863, 2011.308
598.177, 1884.078
599.491, 1730.866
600.805, 1629.672
602.119, 1574.265
603.432, 1515.337
604.746, 1532.193
606.059, 1489.069
607.372, 1515.960
608.685, 1623.867
609.997, 1758.793
611.309, 1896.735
612.621, 2105.694
613.933, 2433.670
615.245, 2591.664
616.557, 2810.674
617.868, 2965.699
619.179, 2931.741
620.490, 2802.801
621.801, 2762.877
623.111, 2367.969
624.421, 2227.077
625.731, 1750.202
627.041, 1724.344
628.351, 1153.502
629.660, 1182.676
630.970, 982.864
632.279, 773.070
633.588, 711.292
634.896, 449.530
636.205, 522.784
637.513, 430.053
638.821, 450.338
640.129, 355.638
641.437, 381.955
642.744, 392.286
644.051, 373.672
645.358, 492.034
646.665, 539.412
647.972, 583.065
649.278, 658.474
650.584, 756.726
651.890, 1009.475
653.196, 1086.469
654.502, 1415.389
655.807, 1613.423
657.113, 2144.230
658.418, 2808.688
659.722, 3425.480
661.027, 4281.699
662.331, 5605.053
663.636, 7276.890
664.940, 9141.784
666.244, 11634.457
667.547, 13799.197
668.851, 15627.001
670.154, 16136.140
671.457, 15308.061
672.760, 13637.154
674.062, 10987.224
675.365, 8839.161
676.667, 7100.000
677.969, 5832.729
679.271, 4602.844
680.572, 3821.170
681.874, 3448.931
683.175, 2919.876
684.476, 2569.748
685.777, 2371.139
687.077, 2139.673
688.378, 2199.178
689.678, 1994.195
690.978, 2023.946
692.278, 1870.727
693.577, 2079.553
694.877, 1931.386
696.176, 2191.265
697.475, 2143.184
698.774, 2326.142
700.072, 2387.155
701.371, 2637.217
702.669, 2655.317
703.967, 2955.424
705.265, 3470.570
706.562, 3608.734
707.860, 3822.928
709.157, 4350.136
710.454, 4195.352
711.751, 4451.567
713.047, 4259.784
714.344, 4011.002
715.640, 3458.221
716.936, 3048.449
718.232, 2921.680
719.527, 2716.910
720.823, 2601.141
722.118, 2393.371
723.413, 2398.600
724.708, 2098.827
726.002, 2135.056
727.297, 1778.281
728.591, 1690.507
729.885, 1599.731
731.179, 1512.955
732.472, 1458.597
733.766, 1442.396
735.059, 1372.615
736.352, 1350.833
737.645, 1337.048
738.937, 1261.261
740.230, 1102.473
741.522, 1143.683
742.814, 1072.890
744.106, 1082.096
745.397, 936.298
746.689, 941.498
747.980, 956.696
749.271, 930.893
750.562, 955.084
751.853, 869.273
753.143, 873.461
754.433, 647.645
755.723, 600.825
757.013, 614.003
758.303, 446.177
759.592, 501.348
760.881, 442.515
762.170, 459.679
763.459, 315.840
764.748, 250.996
766.036, 276.149
767.325, 189.299
768.613, 197.445
769.901, 168.587
771.188, 162.725
772.476, 137.859
773.763, 102.989
775.050, 254.115
776.337, 179.237
777.624, 246.355
778.910, 290.469
780.196, 255.579
781.482, 206.685
782.768, 159.786
784.054, 229.883
785.339, 274.977
786.625, 240.065
787.910, 335.148
789.195, 202.229
790.479, 220.304
791.764, 166.375
793.048, 107.440
794.332, 230.502
795.616, 188.559
796.900, 207.610
798.183, 19.657
799.467, 126.697
800.750, 79.732
802.033, 4.236
803.316, 82.772
804.598, 92.223
805.880, 12.714
807.163, 7.360
808.445, 37.458
809.726, 106.595
811.008, 2.805
812.289, 154.036
813.570, 51.350
814.851, 93.708
816.132, 195.115
817.413, 193.631
818.693, 50.262
819.973, 192.938
821.253, 94.722
822.533, 95.574
823.813, 133.497
825.092, 49.511
826.371, 211.567
827.650, 83.758
828.929, 18.011
830.208, 80.294
831.486, 94.638
832.764, 69.052
834.042, 104.521
835.320, 79.846
836.598, 67.089
837.875, 50.325
839.152, 27.028
840.429, 13.764
841.706, 2.477
842.983, 21.300
844.259, 118.895
845.536, 70.084
846.812, 81.271
848.088, 39.451
849.363, 151.627
850.639, 130.798
851.914, 113.964
853.189, 199.125
854.464, 197.281
855.739, 232.431
857.013, 143.575
858.288, 212.716
859.562, 294.850
860.836, 375.978
862.110, 204.100
863.383, 345.216
864.656, 207.327
865.930, 378.433
867.203, 354.533
868.475, 294.626
869.748, 273.715
871.020, 350.798
872.292, 314.875
873.564, 411.947
874.836, 381.015
876.108, 367.077
877.379, 450.135
878.650, 398.186
879.922, 535.232
881.192, 535.274
882.463, 515.312
883.733, 545.345
885.004, 430.371
886.274, 530.395
887.544, 656.412
888.813, 572.427
890.083, 740.436
891.352, 799.441
892.621, 823.443
893.890, 907.438
895.159, 1017.432
896.427, 1125.421
897.695, 1466.407
898.964, 1537.387
900.232, 1655.365
901.499, 1706.338
902.767, 1764.308
904.034, 1487.275
905.301, 1398.237
906.568, 1381.200
907.835, 1250.158
909.102, 1222.116
910.368, 1165.071
911.634, 1186.022
912.900, 1232.984
914.166, 1240.549
915.432, 1331.910
916.697, 1369.870
917.962, 1494.844
919.227, 1665.815
920.492, 1537.795
921.757, 1597.773
923.021, 1530.751
924.285, 1379.731
925.550, 1337.718
926.813, 1394.717
928.077, 1229.740
929.341, 1313.780
930.604, 1272.819
931.867, 1229.867
933.130, 1186.914
934.393, 1309.963
935.655, 1205.012
936.918, 1382.072
938.180, 1228.133
939.442, 1394.190
940.703, 1484.276
941.965, 1463.770
943.226, 1584.181
944.488, 1529.556
945.749, 1690.648
947.009, 1727.749
948.270, 1758.852
949.530, 1994.966
950.791, 1941.043
952.051, 2165.170
953.311, 2036.314
954.570, 2312.199
955.830, 2594.347
957.089, 2885.680
958.348, 3183.543
959.607, 3589.177
960.866, 4071.923
962.124, 4763.341
963.383, 5853.281
964.641, 6859.717
965.899, 8633.604
967.156, 10879.826
968.414, 13854.679
969.671, 17326.629
970.928, 19600.582
972.185, 20103.586
973.442, 17940.758
974.699, 14547.879
975.955, 11258.630
977.211, 8436.665
978.468, 6726.545
979.723, 5372.462
980.979, 4552.531
982.234, 4149.715
983.490, 3456.027
984.745, 3532.972
986.000, 3305.720
987.254, 3184.047
988.509, 3416.216
989.763, 3200.476
991.017, 3632.230
992.271, 3811.860
993.525, 4102.558
994.779, 4563.803
996.032, 4929.354
997.285, 5617.918
998.538, 6102.492
999.791, 7379.097
1001.044, 8566.719
1002.296, 10561.353
1003.548, 13002.001
1004.800, 16599.658
1006.052, 21565.326
1007.304, 27480.012
1008.555, 34292.711
1009.807, 39423.434
1011.058, 40426.156
1012.309, 36904.895
1013.559, 30568.650
1014.810, 23589.412
1016.060, 18187.188
1017.310, 14056.979
1018.560, 11335.779
1019.810, 8559.595
1021.060, 6830.427
1022.309, 5343.268
1023.558, 4499.125
1024.807, 3714.990
1026.056, 3277.874
1027.305, 2777.771
1028.553, 2619.682
1029.801, 2194.611
1031.049, 1863.552
1032.297, 1738.504
1033.545, 1549.469
1034.793, 1354.446
1036.040, 1243.452
1037.287, 1272.482
1038.534, 1139.524
1039.781, 1248.579
1041.027, 992.646
1042.274, 1045.723
1043.520, 989.815
1044.766, 881.924
1046.012, 835.044
1047.257, 754.174
1048.503, 951.316
1049.748, 807.469
1050.993, 824.632
1052.238, 850.805
1053.483, 697.052
1054.727, 663.245
1055.971, 791.917
1057.216, 740.131
1058.459, 753.804
1059.703, 786.037
1060.947, 711.466
1062.190, 709.376
1063.433, 639.766
1064.676, 734.268
1065.919, 638.630
1067.162, 723.672
1068.404, 659.204
1069.646, 682.982
1070.888, 739.326
1072.130, 655.056
1073.372, 716.791
1074.613, 787.681
1075.855, 730.984
1077.096, 680.901
1078.337, 820.437
1079.578, 655.141
1080.818, 689.782
1082.059, 543.476
1083.299, 708.938
1084.539, 528.576
1085.779, 558.139
1087.018, 496.594
1088.258, 494.188
1089.497, 485.970
1090.736, 602.735
1091.975, 484.356
1093.213, 551.848
1094.452, 621.313
1095.690, 538.735
1096.928, 599.666
1098.166, 605.590
1099.404, 815.300
1100.642, 660.979
1101.879, 793.542
1103.116, 817.587
1104.353, 1100.552
1105.590, 1144.525
1106.827, 1364.544
1108.063, 1267.736
1109.299, 1296.429
1110.536, 1204.663
1111.771, 1049.047
1113.007, 945.255
1114.243, 870.324
1115.478, 764.679
1116.713, 681.771
1117.948, 505.090
1119.183, 458.934
1120.418, 463.410
1121.652, 788.748
1122.886, 1002.012
1124.120, 946.197
1125.354, 502.498
1126.588, 465.706
1127.821, 279.067
1129.055, 171.711
1130.288, 239.403
1131.521, 320.066
1132.753, 199.727
1133.986, 199.568
1135.218, 162.305
1136.450, 108.704
1137.682, 118.172
1138.914, 80.632
1140.146, 75.774
1141.377, 113.237
1142.609, 77.817
1143.840, 123.593
1145.071, 161.063
1146.301, 136.396
1147.532, 133.972
1148.762, 98.787
1149.992, 101.364
1151.222, 29.759
1152.452, 84.282
1153.682, 34.904
1154.911, 116.635
1156.140, 100.358
1157.369, 146.576
1158.598, 211.887
1159.827, 313.664
1161.055, 276.144
1162.284, 305.510
1163.512, 363.000
1164.740, 376.784
1165.967, 372.451
1167.195, 402.723
1168.422, 342.206
1169.650, 305.681
1170.877, 303.438
1172.103, 373.604
1173.330, 404.185
1174.557, 558.027
1175.783, 606.559
1177.009, 746.723
1178.235, 840.758
1179.461, 1062.117
1180.686, 1296.587
1181.912, 1543.392
1183.137, 1611.206
1184.362, 1615.637
1185.587, 1512.945
1186.811, 1323.270
1188.036, 962.539
1189.260, 785.128
1190.484, 684.126
1191.708, 500.342
1192.932, 427.527
1194.155, 472.636
1195.378, 274.703
1196.602, 296.674
1197.825, 157.627
1199.047, 246.525
1200.270, 31.509
1201.492, 190.428
1202.715, 11.719
1203.937, 97.255
1205.159, 9.871
1206.380, 85.929
1207.602, 14.749
1208.823, 50.484
1210.044, 24.760
1211.265, 10.368
1212.486, 48.047
1213.707, 64.289
1214.927, 15.324
1216.147, 42.081
1217.367, 68.490
1218.587, 1.972
1219.807, 22.455
1221.027, 23.888
1222.246, 45.436
1223.465, 102.028
1224.684, 63.137
1225.903, 9.599
1227.121, 31.145
1228.340, 18.299
1229.558, 10.505
1230.776, 37.662
1231.994, 42.190
1233.212, 87.909
1234.429, 57.991
1235.646, 99.947
1236.864, 16.964
1238.081, 59.992
1239.297, 4.068
1240.514, 102.840
1241.730, 17.278
1242.947, 14.547
1244.163, 39.646
1245.378, 55.100
1246.594, 34.198
1247.810, 47.583
1249.025, 12.977
1250.240, 22.508
1251.455, 36.002
1252.670, 35.550
1253.885, 12.870
1255.099, 60.732
1256.313, 84.385
1257.527, 69.634
1258.741, 20.149
1259.955, 46.643
1261.168, 2.481
1262.382, 45.632
1263.595, 15.284
1264.808, 6.235
1266.021, 24.754
1267.233, 43.860
1268.446, 58.797
1269.658, 85.897
1270.870, 69.568
1272.082, 97.411
1273.294, 76.227
1274.505, 6.013
1275.716, 37.287
1276.928, 7.469
1278.139, 48.140
1279.349, 34.775
1280.560, 47.369
1281.770, 1.070
1282.981, 17.425
1284.191, 111.864
1285.401, 29.269
1286.610, 15.370
1287.820, 89.938
1289.029, 14.215
1290.239, 118.452
1291.448, 90.657
1292.656, 27.171
1293.865, 14.953
1295.073, 90.037
1296.282, 133.088
1297.490, 101.112
1298.698, 77.085
1299.906, 64.033
1301.113, 18.947
1302.320, 33.292
1303.528, 146.660
1304.735, 57.465
1305.942, 103.233
1307.148, 128.969
1308.355, 97.671
1309.561, 56.339
1310.767, 109.972
1311.973, 87.570
1313.179, 27.136
1314.384, 92.663
1315.590, 57.157
1316.795, 186.619
1318.000, 25.049
1319.205, 50.441
1320.410, 77.800
1321.614, 14.125
1322.819, 175.409
1324.023, 102.664
1325.227, 80.885
1326.431, 51.071
1327.634, 14.774
1328.838, 8.668
1330.041, 101.394
1331.244, 94.423
1332.447, 104.421
1333.650, 61.388
1334.852, 41.324
1336.055, 34.227
1337.257, 112.095
1338.459, 126.934
1339.661, 133.984
1340.862, 153.768
1342.064, 154.521
1343.265, 172.247
1344.466, 139.945
1345.667, 151.554
1346.868, 188.199
1348.068, 129.349
1349.269, 150.322
1350.469, 188.440
1351.669, 153.982
1352.869, 229.314
1354.069, 193.152
1355.268, 73.495
1356.468, 306.712
1357.667, 263.389
1358.866, 161.041
1360.065, 347.190
1361.263, 149.077
1362.462, 158.387
1363.660, 164.298
1364.858, 131.196
1366.056, 187.916
1367.254, 173.214
1368.451, 300.890
1369.649, 132.924
1370.846, 220.780
1372.043, 80.693
1373.240, 211.552
1374.436, 248.640
1375.633, 228.555
1376.829, 265.557
1378.025, 153.688
1379.221, 343.724
1380.417, 320.074
1381.613, 545.977
1382.808, 727.700
1384.003, 634.948
1385.199, 389.805
1386.393, 331.802
1387.588, 328.208
1388.783, 233.250
1389.977, 271.363
1391.171, 222.642
1392.365, 141.734
1393.559, 209.445
1394.753, 123.281
1395.946, 136.909
1397.140, 160.056
1398.333, 247.229
1399.526, 104.814
1400.719, 171.990
1401.911, 147.206
1403.104, 192.536
1404.296, 162.310
1405.488, 148.807
1406.680, 142.935
1407.872, 74.576
1409.063, 243.767
1410.255, 29.267
1411.446, 151.451
1412.637, 183.847
1413.828, 109.311
1415.018, 140.010
1416.209, 91.126
1417.399, 104.657
1418.589, 109.960
1419.779, 98.085
1420.969, 132.599
1422.159, 103.342
1423.348, 117.750
1424.537, 121.956
1425.726, 75.459
1426.915, 188.977
1428.104, 261.949
1429.293, 55.250
1430.481, 108.630
1431.669, 171.713
1432.857, 260.030
1434.045, 105.248
1435.233, 218.474
1436.420, 210.393
1437.608, 101.501
1438.795, 158.619
1439.982, 139.569
1441.169, 257.996
1442.355, 145.973
1443.542, 205.925
1444.728, 136.691
1445.914, 261.646
1447.100, 209.617
1448.286, 273.157
1449.472, 221.069
1450.657, 255.959
1451.842, 277.824
1453.027, 311.668
1454.212, 313.281
1455.397, 308.089
1456.581, 305.209
1457.766, 280.355
1458.950, 260.539
1460.134, 263.695
1461.318, 250.513
1462.501, 135.849
1463.685, 251.911
1464.868, 274.016
1466.051, 289.139
1467.234, 128.898
1468.417, 36.019
1469.600, 192.105
1470.782, 288.175
1471.965, 2.252
1473.147, 253.365
1474.329, 253.563
1475.510, 44.959
1476.692, 98.437
1477.873, 156.954
1479.055, 98.481
1480.236, 226.033
1481.416, 10.383
1482.597, 244.242
1483.778, 126.907
1484.958, 93.616
1486.138, 253.383
1487.318, 349.206
1488.498, 62.093
1489.678, 136.052
1490.857, 13.933
1492.037, 17.146
1493.216, 76.301
1494.395, 60.537
1495.574, 129.881
1496.752, 69.330
1497.931, 87.905
1499.109, 11.394
1500.287, 37.430
1501.465, 50.387
1502.643, 11.757
1503.820, 63.921
1504.998, 106.257
1506.175, 27.784
1507.352, 37.884
1508.529, 93.551
1509.706, 187.429
