##NAMES=Cordierite
##RRUFFID=R040081
##IDEAL CHEMISTRY=Mg_2_Al_3_(AlSi_5_)O_18_
##LOCALITY=Laramie Range, Wyoming, USA
##OWNER=RRUFF
##SOURCE=University of Arizona Mineral Museum
##DESCRIPTION=Blue to purple coarsely crystalline
##STATUS=The identification of this mineral has been confirmed by X-ray diffraction and chemical analysis
##URL=rruff.info/R040081
##MEASURED CHEMISTRY=(Mg_1.80_Fe^2+^_0.20_)_Σ=2_Al_4.00_(Si_4.96_Al_0.04_)_Σ=5_O_18_·0.86H_2_O·Na_0.04_ ; H_2_O estimated by difference and verified by Raman spectroscopy
##PIN_ID=M00044
##ORIENTATION=Laser parallel to -a* (-1 0 0). Fiducial mark perpendicular to laser is parallel to b [0 1 0]
72.445, 0.000
73.842, 18.353
75.239, 99.143
76.635, 411.030
78.031, 516.404
79.427, 906.459
80.823, 1478.906
82.218, 2252.842
83.614, 2701.099
85.009, 3105.871
86.404, 3357.227
87.798, 3421.887
89.193, 3528.068
90.587, 3615.455
91.981, 3268.464
93.375, 3103.313
94.768, 2800.015
96.161, 2507.766
97.554, 2389.912
98.947, 2252.909
100.340, 1909.305
101.732, 1816.714
103.124, 1868.814
104.516, 2013.328
105.908, 2019.043
107.300, 2022.901
108.691, 1983.305
110.082, 2013.840
111.473, 2310.119
112.864, 2521.448
114.254, 3026.691
115.644, 4366.836
117.034, 5788.812
118.424, 5754.549
119.813, 5209.977
121.203, 4684.040
122.592, 4072.689
123.981, 3803.889
125.369, 3631.596
126.758, 3604.783
128.146, 3500.417
129.534, 3202.473
130.922, 2409.927
132.309, 2035.754
133.696, 1535.935
135.083, 1455.445
136.470, 1115.268
137.857, 1286.545
139.243, 1226.930
140.630, 1306.594
142.016, 1338.760
143.401, 1727.989
144.787, 1957.433
146.172, 2327.768
147.557, 2802.116
148.942, 3401.473
150.327, 4207.725
151.711, 4813.746
153.096, 5598.506
154.480, 5906.381
155.863, 6353.160
157.247, 6426.051
158.630, 5522.070
160.013, 4617.205
161.396, 3420.380
162.779, 2539.508
164.161, 1847.591
165.544, 1334.654
166.926, 1118.719
168.308, 850.799
169.689, 661.904
171.070, 785.046
172.452, 778.230
173.833, 733.461
175.213, 759.740
176.594, 718.070
177.974, 864.451
179.354, 949.882
180.734, 937.363
182.114, 1011.893
183.493, 1296.470
184.872, 1258.093
186.251, 1591.759
187.630, 1536.470
189.008, 1857.219
190.387, 1943.007
191.765, 1857.828
193.143, 1891.672
194.520, 1438.531
195.898, 1190.399
197.275, 789.278
198.652, 535.163
200.029, 251.053
201.405, 92.946
202.782, 1.842
204.158, 58.738
205.534, 115.645
206.909, 19.614
208.285, 11.659
209.660, 40.799
211.035, 134.001
212.410, 145.740
213.784, 253.461
215.159, 228.189
216.533, 246.938
217.907, 205.708
219.281, 295.502
220.654, 360.323
222.027, 307.172
223.400, 327.364
224.773, 328.566
226.146, 182.019
227.518, 26.686
228.891, 190.968
230.263, 496.154
231.634, 905.502
233.006, 1504.008
234.377, 2139.107
235.748, 3108.035
237.119, 3953.162
238.490, 4737.072
239.860, 4567.131
241.231, 4145.834
242.601, 3686.546
243.970, 3436.806
245.340, 3623.560
246.709, 3997.172
248.079, 4514.306
249.448, 6384.502
250.816, 7449.666
252.185, 10000.307
253.553, 13352.363
254.921, 17047.805
256.289, 19603.576
257.657, 20572.648
259.024, 19630.992
260.391, 17238.572
261.758, 13350.373
263.125, 9783.366
264.492, 7124.537
265.858, 4993.867
267.224, 3991.346
268.590, 2846.955
269.956, 2543.686
271.321, 2437.529
272.687, 2351.473
274.052, 2507.498
275.416, 2965.589
276.781, 3396.726
278.146, 4199.904
279.510, 5045.119
280.874, 5633.365
282.237, 5969.641
283.601, 5594.941
284.964, 5897.261
286.327, 6872.600
287.690, 8039.951
289.053, 9832.316
290.416, 12209.688
291.778, 14040.070
293.140, 15570.454
294.502, 15709.839
295.863, 15059.224
297.225, 13594.607
298.586, 11950.988
299.947, 10562.361
301.308, 9338.727
302.668, 8574.083
304.029, 8180.426
305.389, 7568.754
306.749, 6843.035
308.108, 5974.189
309.468, 4797.192
310.827, 3701.038
312.186, 2922.668
313.545, 2384.095
314.903, 2012.454
316.262, 1894.797
317.620, 2054.115
318.978, 2325.404
320.336, 2894.660
321.693, 3716.881
323.051, 5086.067
324.408, 6195.218
325.765, 7690.331
327.121, 8053.409
328.478, 8563.450
329.834, 7558.455
331.190, 5880.423
332.546, 3676.354
333.902, 2467.247
335.257, 1610.444
336.612, 1160.261
337.967, 1183.035
339.322, 797.194
340.677, 495.414
342.031, 332.883
343.385, 327.183
344.739, 286.072
346.093, 321.568
347.446, 303.806
348.799, 325.325
350.153, 454.737
351.505, 419.150
352.858, 406.952
354.210, 548.270
355.563, 699.812
356.915, 631.011
358.267, 794.166
359.618, 859.276
360.969, 908.343
362.321, 897.366
363.672, 881.345
365.022, 1119.279
366.373, 934.105
367.723, 984.952
369.073, 572.753
370.423, 544.510
371.773, 247.214
373.122, 149.877
374.471, 160.411
375.821, 56.521
377.169, 35.991
378.518, 94.796
379.866, 77.369
381.215, 69.689
382.563, 189.399
383.910, 183.787
385.258, 193.295
386.605, 244.285
387.952, 262.446
389.299, 247.067
390.646, 222.612
391.992, 135.893
393.339, 36.460
394.685, 94.316
396.031, 77.460
397.376, 201.806
398.722, 167.386
400.067, 154.241
401.412, 120.224
402.757, 75.325
404.101, 66.329
405.446, 23.237
406.790, 30.271
408.134, 36.211
409.478, 63.620
410.821, 77.965
412.165, 259.244
413.508, 455.495
414.851, 595.713
416.193, 880.897
417.536, 1340.046
418.878, 1905.155
420.220, 2846.227
421.562, 3718.257
422.904, 5264.245
424.245, 6958.191
425.586, 8454.092
426.927, 9617.950
428.268, 9035.763
429.609, 7816.526
430.949, 6297.244
432.289, 4782.912
433.629, 3351.534
434.969, 2677.106
436.309, 1962.629
437.648, 1683.102
438.987, 1269.523
440.326, 1048.896
441.665, 874.218
443.003, 942.488
444.342, 887.707
445.680, 972.876
447.018, 1066.991
448.355, 1247.057
449.693, 1589.070
451.030, 1930.030
452.367, 2475.939
453.704, 2695.797
455.041, 2940.602
456.377, 2666.354
457.713, 1946.055
459.049, 1431.703
460.385, 1025.297
461.721, 878.839
463.056, 572.329
464.391, 517.767
465.726, 527.150
467.061, 366.482
468.395, 440.762
469.730, 533.992
471.064, 442.174
472.398, 484.304
473.731, 464.385
475.065, 595.418
476.398, 691.403
477.731, 644.342
479.064, 639.237
480.397, 612.087
481.729, 673.887
483.062, 547.644
484.394, 611.353
485.725, 569.014
487.057, 633.643
488.389, 642.227
489.720, 490.765
491.051, 497.273
492.382, 411.736
493.712, 321.173
495.043, 247.564
496.373, 203.911
497.703, 74.250
499.032, 132.525
500.362, 55.770
501.691, 115.984
503.020, 0.825
504.349, 135.306
505.678, 108.421
507.007, 45.511
508.335, 104.558
509.663, 103.573
510.991, 199.558
512.319, 173.523
513.646, 281.463
514.973, 252.395
516.300, 412.317
517.627, 387.234
518.954, 404.145
520.280, 534.053
521.607, 649.971
522.933, 771.896
524.259, 898.802
525.584, 970.686
526.910, 1152.525
528.235, 1262.322
529.560, 1530.074
530.885, 1629.798
532.209, 1933.611
533.534, 2398.979
534.858, 2647.762
536.182, 3088.451
537.506, 3711.288
538.829, 4374.277
540.152, 5104.535
541.476, 6591.384
542.799, 7971.992
544.121, 10195.341
545.444, 12911.392
546.766, 16545.588
548.088, 21438.988
549.410, 27165.469
550.732, 33122.387
552.053, 39221.621
553.375, 42786.988
554.696, 43606.609
556.017, 41865.191
557.337, 36855.895
558.658, 31136.664
559.978, 26162.186
561.298, 22507.771
562.618, 19226.109
563.938, 17109.957
565.257, 15736.446
566.576, 14761.437
567.895, 14848.349
569.214, 15356.457
570.533, 16451.102
571.851, 17856.301
573.170, 20074.484
574.488, 21598.650
575.805, 23061.797
577.123, 22952.924
578.440, 22245.035
579.758, 20023.129
581.075, 16935.203
582.391, 14472.262
583.708, 11517.303
585.024, 9339.329
586.341, 7802.336
587.657, 6542.327
588.972, 5597.301
590.288, 4581.260
591.603, 3922.201
592.918, 3400.125
594.233, 3107.035
595.548, 2723.928
596.863, 2441.806
598.177, 2242.668
599.491, 2121.516
600.805, 1953.346
602.119, 1738.163
603.432, 1629.964
604.746, 1696.751
606.059, 1525.524
607.372, 1482.283
608.685, 1543.027
609.997, 1487.757
611.309, 1623.473
612.621, 1651.175
613.933, 1934.863
615.245, 2011.539
616.557, 2320.201
617.868, 2467.851
619.179, 2758.487
620.490, 3124.110
621.801, 3112.132
623.111, 3161.320
624.421, 3133.907
625.731, 2704.482
627.041, 2616.588
628.351, 2067.604
629.660, 1886.145
630.970, 1630.674
632.279, 1314.405
633.588, 1124.912
634.896, 931.817
636.205, 919.202
637.513, 828.805
638.821, 849.557
640.129, 891.603
641.437, 953.045
642.744, 911.747
644.051, 940.020
645.358, 1092.932
646.665, 1236.844
647.972, 1290.838
649.278, 1349.633
650.584, 1531.306
651.890, 1744.999
653.196, 1960.144
654.502, 2207.715
655.807, 2439.635
657.113, 2928.658
658.418, 3591.041
659.722, 4341.447
661.027, 5239.371
662.331, 6486.184
663.636, 8433.173
664.940, 10469.363
666.244, 13325.296
667.547, 16000.709
668.851, 18685.336
670.154, 19574.484
671.457, 18968.246
672.760, 17060.832
674.062, 14058.981
675.365, 11122.580
676.667, 8859.291
677.969, 7220.564
679.271, 5309.451
680.572, 4283.740
681.874, 3576.462
683.175, 2951.533
684.476, 2365.588
685.777, 2201.628
687.077, 1820.090
688.378, 1896.633
689.678, 1581.663
690.978, 1543.652
692.278, 1252.795
693.577, 1542.982
694.877, 1372.350
696.176, 1510.414
697.475, 1449.524
698.774, 1610.782
700.072, 1699.008
701.371, 1967.303
702.669, 2251.338
703.967, 2347.115
705.265, 2941.648
706.562, 3319.263
707.860, 3640.951
709.157, 4354.695
710.454, 4562.465
711.751, 4882.277
713.047, 4680.131
714.344, 4388.055
715.640, 4005.041
716.936, 3784.086
718.232, 4316.184
719.527, 4376.320
720.823, 4011.495
722.118, 4290.695
723.413, 4251.924
724.708, 4139.163
726.002, 3891.408
727.297, 3259.657
728.591, 2961.891
729.885, 2528.110
731.179, 2136.314
732.472, 1925.503
733.766, 1725.677
735.059, 1734.836
736.352, 1700.979
737.645, 1775.109
738.937, 1727.223
740.230, 1798.323
741.522, 1918.408
742.814, 2208.479
744.106, 2573.535
745.397, 2846.576
746.689, 3389.602
747.980, 4085.614
749.271, 4545.611
750.562, 4965.595
751.853, 4902.562
753.143, 4672.518
754.433, 4166.456
755.723, 3544.383
757.013, 3030.293
758.303, 2375.190
759.592, 2012.072
760.881, 1569.940
762.170, 1264.795
763.459, 1052.636
764.748, 791.462
766.036, 811.275
767.325, 520.074
768.613, 526.859
769.901, 515.633
771.188, 467.931
772.476, 424.636
773.763, 371.657
775.050, 310.586
776.337, 238.293
777.624, 222.985
778.910, 149.666
780.196, 204.333
781.482, 14.987
782.768, 24.626
784.054, 218.244
785.339, 175.853
786.625, 77.448
787.910, 169.029
789.195, 33.599
790.479, 1.848
791.764, 100.683
793.048, 63.199
794.332, 13.701
795.616, 146.186
796.900, 69.657
798.183, 33.884
799.467, 26.533
800.750, 25.935
802.033, 44.681
803.316, 38.657
804.598, 55.021
805.880, 59.248
807.163, 3.496
808.445, 164.266
809.726, 42.142
811.008, 130.044
812.289, 201.028
813.570, 158.121
814.851, 164.311
816.132, 172.577
817.413, 153.947
818.693, 153.750
819.973, 138.567
821.253, 130.585
822.533, 118.294
823.813, 102.083
825.092, 120.942
826.371, 122.889
827.650, 127.342
828.929, 119.046
830.208, 137.255
831.486, 178.561
832.764, 172.982
834.042, 68.518
835.320, 60.112
836.598, 219.240
837.875, 296.584
839.152, 235.917
840.429, 26.758
841.706, 92.468
842.983, 21.248
844.259, 217.941
845.536, 87.123
846.812, 78.295
848.088, 38.455
849.363, 151.604
850.639, 144.745
851.914, 93.877
853.189, 129.998
854.464, 143.110
855.739, 270.214
857.013, 240.308
858.288, 328.391
859.562, 423.464
860.836, 462.525
862.110, 453.577
863.383, 615.617
864.656, 440.646
865.930, 384.665
867.203, 365.670
868.475, 408.665
869.748, 382.647
871.020, 422.618
872.292, 370.575
873.564, 483.521
874.836, 414.453
876.108, 567.372
877.379, 759.279
878.650, 592.174
879.922, 592.055
881.192, 665.923
882.463, 673.778
883.733, 796.622
885.004, 771.452
886.274, 902.271
887.544, 1136.075
888.813, 1075.870
890.083, 1350.652
891.352, 1629.422
892.621, 1854.180
893.890, 2212.926
895.159, 2629.663
896.427, 2892.387
897.695, 3051.029
898.964, 3094.841
900.232, 3097.493
901.499, 2808.174
902.767, 2520.843
904.034, 2061.502
905.301, 2008.150
906.568, 1795.795
907.835, 1592.430
909.102, 1469.056
910.368, 1387.672
911.634, 1510.277
912.900, 1370.914
914.166, 1596.567
915.432, 1615.226
916.697, 1542.885
917.962, 1880.537
919.227, 1856.180
920.492, 1814.816
921.757, 1641.455
923.021, 1572.111
924.285, 1421.783
925.550, 1258.454
926.813, 1207.146
928.077, 1215.849
929.341, 1237.557
930.604, 1097.283
931.867, 1098.019
933.130, 1092.761
934.393, 1100.965
935.655, 1062.272
936.918, 1264.059
938.180, 1195.845
939.442, 1257.927
940.703, 1233.257
941.965, 1300.651
943.226, 1261.554
944.488, 1264.221
945.749, 1492.731
947.009, 1536.951
948.270, 1588.757
949.530, 1693.310
950.791, 1854.277
952.051, 1887.590
953.311, 1899.891
954.570, 2086.094
955.830, 2301.494
957.089, 2446.002
958.348, 2793.479
959.607, 3079.154
960.866, 3562.761
962.124, 4046.034
963.383, 5075.769
964.641, 6177.032
965.899, 7994.002
967.156, 10581.569
968.414, 14242.621
969.671, 18809.830
970.928, 22754.051
972.185, 25351.219
973.442, 24523.902
974.699, 21740.350
975.955, 17913.824
977.211, 14224.127
978.468, 11235.317
979.723, 8831.243
980.979, 6977.707
982.234, 5854.050
983.490, 4543.822
984.745, 4266.973
986.000, 3774.709
987.254, 3388.006
988.509, 3387.945
989.763, 3136.895
991.017, 3236.853
992.271, 3269.386
993.525, 3560.832
994.779, 3900.787
996.032, 4426.790
997.285, 4981.646
998.538, 5246.480
999.791, 6171.168
1001.044, 6732.219
1002.296, 7913.275
1003.548, 9179.240
1004.800, 11260.321
1006.052, 14228.412
1007.304, 17930.510
1008.555, 22540.619
1009.807, 25852.732
1011.058, 27056.863
1012.309, 25583.994
1013.559, 21793.145
1014.810, 17545.295
1016.060, 14170.459
1017.310, 11264.630
1018.560, 8794.812
1019.810, 7286.998
1021.060, 5955.195
1022.309, 4816.400
1023.558, 4167.615
1024.807, 3326.836
1026.056, 2933.068
1027.305, 2528.309
1028.553, 2318.558
1029.801, 1977.815
1031.049, 1659.082
1032.297, 1543.357
1033.545, 1489.643
1034.793, 1182.938
1036.040, 1124.241
1037.287, 1228.563
1038.534, 1097.899
1039.781, 1118.244
1041.027, 904.602
1042.274, 877.968
1043.520, 923.347
1044.766, 917.735
1046.012, 836.136
1047.257, 739.548
1048.503, 1046.972
1049.748, 881.406
1050.993, 821.855
1052.238, 817.315
1053.483, 633.784
1054.727, 600.265
1055.971, 576.300
1057.216, 668.512
1058.459, 602.375
1059.703, 635.903
1060.947, 747.739
1062.190, 826.029
1063.433, 717.739
1064.676, 724.469
1065.919, 714.013
1067.162, 738.032
1068.404, 715.891
1069.646, 691.818
1070.888, 789.988
1072.130, 713.298
1073.372, 620.497
1074.613, 784.799
1075.855, 512.270
1077.096, 500.622
1078.337, 596.483
1079.578, 511.009
1080.818, 477.541
1082.059, 575.420
1083.299, 679.568
1084.539, 409.902
1085.779, 494.640
1087.018, 434.839
1088.258, 406.173
1089.497, 400.318
1090.736, 396.205
1091.975, 394.686
1093.213, 354.638
1094.452, 485.625
1095.690, 446.611
1096.928, 612.366
1098.166, 606.599
1099.404, 739.547
1100.642, 791.854
1101.879, 1073.261
1103.116, 1140.365
1104.353, 1453.800
1105.590, 1613.006
1106.827, 2023.409
1108.063, 1978.373
1109.299, 2227.303
1110.536, 2103.164
1111.771, 2014.445
1113.007, 1813.509
1114.243, 1538.274
1115.478, 1241.513
1116.713, 937.637
1117.948, 828.377
1119.183, 840.167
1120.418, 678.688
1121.652, 998.960
1122.886, 1039.271
1124.120, 932.619
1125.354, 453.998
1126.588, 381.413
1127.821, 225.864
1129.055, 328.354
1130.288, 243.877
1131.521, 200.439
1132.753, 106.053
1133.986, 129.715
1135.218, 312.397
1136.450, 72.387
1137.682, 232.322
1138.914, 99.396
1140.146, 128.979
1141.377, 10.627
1142.609, 48.751
1143.840, 60.823
1145.071, 155.161
1146.301, 121.650
1147.532, 184.152
1148.762, 187.856
1149.992, 158.782
1151.222, 138.390
1152.452, 232.072
1153.682, 124.122
1154.911, 291.790
1156.140, 218.855
1157.369, 271.631
1158.598, 249.600
1159.827, 354.233
1161.055, 249.859
1162.284, 425.475
1163.512, 518.331
1164.740, 609.928
1165.967, 484.517
1167.195, 521.094
1168.422, 588.662
1169.650, 529.220
1170.877, 639.768
1172.103, 761.305
1173.330, 866.831
1174.557, 980.347
1175.783, 1223.851
1177.009, 1275.428
1178.235, 1683.908
1179.461, 1832.728
1180.686, 2031.186
1181.912, 2577.633
1183.137, 2823.412
1184.362, 2576.693
1185.587, 2521.281
1186.811, 2371.994
1188.036, 1825.948
1189.260, 1444.855
1190.484, 1243.582
1191.708, 968.586
1192.932, 729.315
1194.155, 536.565
1195.378, 468.371
1196.602, 466.889
1197.825, 168.861
1199.047, 310.447
1200.270, 221.093
1201.492, 232.774
1202.715, 24.651
1203.937, 212.342
1205.159, 7.334
1206.380, 132.604
1207.602, 22.021
1208.823, 141.403
1210.044, 99.189
1211.265, 47.948
1212.486, 28.039
1213.707, 9.376
1214.927, 54.406
1216.147, 41.275
1217.367, 32.364
1218.587, 81.384
1219.807, 78.670
1221.027, 15.231
1222.246, 96.616
1223.465, 46.075
1224.684, 37.367
1225.903, 78.944
1227.121, 46.374
1228.340, 35.192
1229.558, 22.756
1230.776, 104.595
1231.994, 62.483
1233.212, 5.419
1234.429, 118.396
1235.646, 43.551
1236.864, 107.477
1238.081, 9.373
1239.297, 97.248
1240.514, 13.935
1241.730, 45.175
1242.947, 176.510
1244.163, 63.832
1245.378, 106.782
1246.594, 31.379
1247.810, 20.959
1249.025, 77.517
1250.240, 15.944
1251.455, 60.565
1252.670, 31.055
1253.885, 6.478
1255.099, 69.042
1256.313, 66.664
1257.527, 70.662
1258.741, 12.961
1259.955, 77.777
1261.168, 118.427
1262.382, 1.394
1263.595, 157.753
1264.808, 59.874
1266.021, 183.969
1267.233, 319.040
1268.446, 428.088
1269.658, 468.990
1270.870, 389.109
1272.082, 502.083
1273.294, 372.031
1274.505, 347.952
1275.716, 293.846
1276.928, 178.709
1278.139, 232.524
1279.349, 228.307
1280.560, 200.053
1281.770, 110.763
1282.981, 123.431
1284.191, 90.054
1285.401, 33.639
1286.610, 32.387
1287.820, 86.875
1289.029, 39.326
1290.239, 146.735
1291.448, 42.063
1292.656, 13.341
1293.865, 232.548
1295.073, 131.719
1296.282, 37.841
1297.490, 243.922
1298.698, 97.971
1299.906, 229.984
1301.113, 90.967
1302.320, 158.915
1303.528, 110.832
1304.735, 434.717
1305.942, 333.572
1307.148, 318.397
1308.355, 130.193
1309.561, 345.959
1310.767, 203.692
1311.973, 354.396
1313.179, 311.068
1314.384, 476.711
1315.590, 229.321
1316.795, 434.902
1318.000, 290.451
1319.205, 388.968
1320.410, 402.454
1321.614, 171.907
1322.819, 339.328
1324.023, 108.718
1325.227, 254.074
1326.431, 228.397
1327.634, 109.691
1328.838, 18.948
1330.041, 36.899
1331.244, 116.355
1332.447, 71.513
1333.650, 75.644
1334.852, 103.747
1336.055, 62.475
1337.257, 96.415
1338.459, 46.901
1339.661, 79.898
1340.862, 136.872
1342.064, 23.821
1343.265, 113.743
1344.466, 95.591
1345.667, 86.519
1346.868, 105.377
1348.068, 52.961
1349.269, 20.781
1350.469, 162.235
1351.669, 123.021
1352.869, 85.495
1354.069, 137.515
1355.268, 59.883
1356.468, 218.702
1357.667, 146.516
1358.866, 14.826
1360.065, 165.807
1361.263, 17.511
1362.462, 123.795
1363.660, 187.979
1364.858, 5.142
1366.056, 161.170
1367.254, 157.461
1368.451, 99.692
1369.649, 185.082
1370.846, 112.832
1372.043, 182.230
1373.240, 77.626
1374.436, 234.222
1375.633, 337.163
1376.829, 472.397
1378.025, 549.622
1379.221, 852.177
1380.417, 1529.490
1381.613, 3233.752
1382.808, 4712.104
1384.003, 4528.252
1385.199, 2989.300
1386.393, 1605.412
1387.588, 1088.846
1388.783, 1030.204
1389.977, 455.083
1391.171, 311.911
1392.365, 327.688
1393.559, 367.412
1394.753, 226.083
1395.946, 279.700
1397.140, 162.904
1398.333, 274.630
1399.526, 123.714
1400.719, 227.521
1401.911, 233.604
1403.104, 255.473
1404.296, 183.101
1405.488, 296.683
1406.680, 186.155
1407.872, 175.504
1409.063, 210.414
1410.255, 170.917
1411.446, 228.715
1412.637, 217.149
1413.828, 222.147
1415.018, 232.781
1416.209, 230.360
1417.399, 257.746
1418.589, 326.683
1419.779, 186.542
1420.969, 197.070
1422.159, 67.857
1423.348, 126.516
1424.537, 212.817
1425.726, 178.374
1426.915, 235.962
1428.104, 101.457
1429.293, 4.696
1430.481, 179.626
1431.669, 297.354
1432.857, 307.605
1434.045, 340.489
1435.233, 445.592
1436.420, 431.961
1437.608, 480.657
1438.795, 564.267
1439.982, 634.980
1441.169, 828.021
1442.355, 830.028
1443.542, 885.579
1444.728, 854.106
1445.914, 900.683
1447.100, 807.229
1448.286, 973.926
1449.472, 956.804
1450.657, 1164.628
1451.842, 1100.361
1453.027, 1102.001
1454.212, 1277.550
1455.397, 1091.053
1456.581, 1158.542
1457.766, 1239.033
1458.950, 1080.479
1460.134, 1075.864
1461.318, 1026.175
1462.501, 1029.406
1463.685, 1026.555
1464.868, 781.631
1466.051, 1036.719
1467.234, 671.864
1468.417, 632.059
1469.600, 650.359
1470.782, 675.038
