##NAMES=Cordierite
##RRUFFID=R040084
##IDEAL CHEMISTRY=Mg_2_Al_3_(AlSi_5_)O_18_
##LOCALITY=Norway
##OWNER=RRUFF
##SOURCE=University of Arizona Mineral Museum
##DESCRIPTION=Purple coarsely crystalline massive
##STATUS=The identification of this mineral has been confirmed by X-ray diffraction and chemical analysis
##URL=rruff.info/R040084
##MEASURED CHEMISTRY=(Mg_1.88_Fe^2+^_0.11_Ca_0.01_)_Σ=2_(Al_3.95_Fe^3+^_0.05_)_Σ=4_(Si_4.96_Al_0.04_)_Σ=5_O_18_·0.90H_2_O·Na_0.04_ ; H_2_O estimated by difference and verified by Raman spectroscopy
##PIN_ID=L00196
##ORIENTATION=Laser parallel to -c* (0 0 -1). Fiducial mark perpendicular to laser is parallel to a [1 0 0]
100.885, 0.000
102.283, 6.924
103.680, 109.469
105.077, 78.399
106.473, 177.676
107.870, 341.001
109.266, 494.342
110.662, 605.322
112.057, 922.771
113.453, 1215.131
114.848, 1721.220
116.243, 2090.237
117.638, 2901.870
119.032, 3935.745
120.426, 5573.422
121.820, 7153.748
123.214, 7485.043
124.608, 6996.933
126.001, 5409.362
127.394, 3882.278
128.787, 3265.637
130.179, 2399.395
131.571, 2143.551
132.963, 1609.789
134.355, 1216.958
135.747, 1034.146
137.138, 851.377
138.529, 795.946
139.920, 610.938
141.311, 613.204
142.701, 457.734
144.091, 595.747
145.481, 592.517
146.870, 579.474
148.260, 536.595
149.649, 533.866
151.038, 851.273
152.426, 918.805
153.815, 1366.448
155.203, 1464.195
156.591, 1722.036
157.979, 2459.961
159.366, 2347.963
160.753, 2456.087
162.140, 1915.225
163.527, 1612.457
164.913, 1317.835
166.300, 725.552
167.686, 633.129
169.071, 250.778
170.457, 278.492
171.842, 16.290
173.227, 214.605
174.612, 6.411
175.996, 106.861
177.381, 46.767
178.765, 86.268
180.149, 64.362
181.532, 15.071
182.915, 34.655
184.299, 45.626
185.681, 14.235
187.064, 135.807
188.446, 125.779
189.828, 225.700
191.210, 345.579
192.592, 575.425
193.973, 835.242
195.355, 715.039
196.736, 1064.817
198.116, 804.576
199.497, 694.315
200.877, 374.036
202.257, 453.740
203.637, 423.435
205.016, 323.110
206.395, 322.772
207.774, 202.412
209.153, 342.033
210.532, 201.632
211.910, 251.207
213.288, 340.762
214.666, 300.296
216.043, 379.809
217.421, 319.309
218.798, 340.018
220.175, 270.451
221.551, 9.366
222.928, 138.521
224.304, 106.783
225.680, 67.146
227.055, 167.855
228.431, 148.481
229.806, 20.922
231.181, 0.344
232.556, 459.739
233.930, 479.097
235.304, 958.413
236.678, 1397.686
238.052, 2046.917
239.426, 2976.107
240.799, 2955.256
242.172, 3126.879
243.545, 2498.729
244.917, 2056.836
246.290, 1499.078
247.662, 1168.146
249.034, 1189.465
250.405, 922.154
251.777, 1139.758
253.148, 1047.208
254.519, 1381.671
255.889, 2018.291
257.260, 2535.009
258.630, 3843.348
260.000, 4950.335
261.370, 6417.199
262.739, 6614.025
264.108, 5980.812
265.477, 4817.563
266.846, 3443.479
268.215, 2709.503
269.583, 1956.458
270.951, 1553.831
272.319, 1241.523
273.686, 969.466
275.054, 867.610
276.421, 525.919
277.788, 734.360
279.154, 342.909
280.521, 681.550
281.887, 670.266
283.253, 739.046
284.619, 1157.878
285.984, 1276.745
287.349, 1915.994
288.714, 2554.898
290.079, 3313.816
291.444, 4663.061
292.808, 5901.996
294.172, 7260.939
295.536, 7659.885
296.899, 7828.834
298.263, 7017.774
299.626, 5826.701
300.989, 4815.744
302.351, 3754.886
303.714, 3094.084
305.076, 2173.258
306.438, 1811.910
307.799, 1611.133
309.161, 1020.027
310.522, 949.148
311.883, 617.728
313.244, 596.291
314.604, 405.330
315.965, 363.864
317.325, 302.593
318.684, 321.095
320.044, 383.580
321.403, 448.257
322.762, 626.705
324.121, 725.820
325.480, 934.229
326.838, 1142.612
328.196, 881.408
329.554, 729.500
330.912, 308.950
332.270, 287.485
333.627, 306.073
334.984, 54.713
336.341, 173.603
337.697, 62.459
339.053, 211.242
340.409, 66.268
341.765, 35.946
343.121, 59.802
344.476, 4.124
345.831, 103.890
347.186, 166.344
348.541, 135.254
349.895, 523.069
351.250, 492.137
352.604, 820.112
353.957, 666.868
355.311, 725.050
356.664, 673.943
358.017, 715.682
359.370, 793.094
360.722, 671.754
362.075, 909.263
363.427, 966.579
364.779, 1234.088
366.130, 1421.341
367.482, 1508.562
368.833, 1685.752
370.184, 1332.909
371.535, 1000.036
372.885, 787.129
374.235, 584.193
375.585, 461.225
376.935, 296.993
378.285, 295.193
379.634, 142.130
380.983, 69.034
382.332, 205.890
383.680, 97.290
385.029, 149.146
386.377, 184.190
387.725, 37.857
389.073, 78.256
390.420, 199.578
391.767, 50.028
393.114, 103.693
394.461, 62.423
395.808, 1.414
397.154, 85.300
398.500, 0.741
399.846, 163.266
401.191, 112.634
402.537, 71.498
403.882, 115.698
405.227, 9.991
406.571, 74.389
407.916, 231.062
409.260, 63.575
410.604, 81.634
411.948, 196.754
413.291, 91.782
414.635, 306.692
415.978, 261.537
417.321, 686.282
418.663, 600.963
420.006, 1015.579
421.348, 1470.168
422.690, 1644.734
424.031, 2859.281
425.373, 3493.807
426.714, 4728.311
428.055, 5882.793
429.396, 6167.260
430.736, 6261.711
432.077, 5146.141
433.417, 4180.547
434.757, 3164.930
436.096, 2049.285
437.436, 1703.613
438.775, 977.914
440.114, 972.185
441.452, 746.428
442.791, 500.642
444.129, 524.824
445.467, 378.977
446.805, 393.099
448.142, 207.188
449.480, 421.244
450.817, 375.268
452.154, 219.260
453.490, 543.218
454.827, 317.146
456.163, 611.042
457.499, 584.906
458.835, 298.742
460.170, 382.546
461.505, 266.316
462.840, 240.058
464.175, 203.764
465.510, 187.435
466.844, 311.069
468.178, 154.676
469.512, 228.246
470.846, 171.782
472.179, 365.284
473.512, 358.755
474.845, 182.193
476.178, 435.598
477.511, 248.970
478.843, 332.353
480.175, 465.702
481.507, 249.023
482.839, 462.320
484.170, 135.585
485.501, 428.865
486.832, 322.114
488.163, 175.331
489.493, 488.519
490.823, 51.674
492.153, 184.789
493.483, 167.872
494.813, 150.924
496.142, 93.064
497.471, 93.905
498.800, 78.281
500.129, 91.187
501.457, 53.501
502.785, 90.698
504.113, 127.154
505.441, 131.823
506.769, 55.800
508.096, 46.736
509.423, 159.143
510.750, 148.271
512.077, 194.190
513.403, 113.357
514.729, 128.985
516.055, 31.335
517.381, 36.333
518.706, 315.929
520.032, 38.229
521.357, 250.490
522.681, 322.726
524.006, 234.938
525.330, 427.121
526.655, 329.318
527.978, 501.489
529.302, 583.685
530.626, 555.853
531.949, 687.994
533.272, 680.205
534.595, 1202.386
535.917, 1014.541
537.239, 1376.672
538.562, 1578.775
539.883, 1750.398
541.205, 2390.831
542.527, 2612.652
543.848, 2993.893
545.169, 3655.456
546.489, 4351.178
547.810, 5850.568
549.130, 7043.181
550.450, 9058.500
551.770, 11688.806
553.090, 14010.406
554.409, 17041.023
555.728, 17928.988
557.047, 18331.705
558.366, 17509.789
559.685, 15177.582
561.003, 14188.926
562.321, 12102.427
563.639, 11253.156
564.956, 10470.496
566.274, 9663.795
567.591, 8445.583
568.908, 7399.527
570.225, 7140.355
571.541, 6801.976
572.857, 6772.929
574.173, 7394.854
575.489, 7496.676
576.805, 8418.567
578.120, 8470.438
579.435, 8552.294
580.750, 8414.127
582.065, 7205.941
583.380, 6427.754
584.694, 5239.545
586.008, 4261.316
587.322, 3693.068
588.635, 2834.800
589.949, 2666.512
591.262, 2088.204
592.575, 1859.876
593.887, 1621.527
595.200, 1193.157
596.512, 1364.766
597.824, 1226.354
599.136, 1148.160
600.447, 839.707
601.759, 671.232
603.070, 842.946
604.381, 654.430
605.692, 625.893
607.002, 596.974
608.312, 348.394
609.622, 710.235
610.932, 431.298
612.242, 623.233
613.551, 584.777
614.860, 436.092
616.169, 678.317
617.478, 469.589
618.786, 661.238
620.094, 502.996
621.402, 653.965
622.710, 945.263
624.018, 495.967
625.325, 947.626
626.632, 708.544
627.939, 769.354
629.246, 800.565
630.552, 511.624
631.859, 672.876
633.165, 533.835
634.471, 464.831
635.776, 565.556
637.082, 463.338
638.387, 418.444
639.692, 410.760
640.996, 431.646
642.301, 404.260
643.605, 421.617
644.909, 396.205
646.213, 507.754
647.516, 558.529
648.820, 768.762
650.123, 879.629
651.426, 1410.701
652.729, 1101.775
654.031, 691.541
655.333, 992.035
656.636, 671.643
657.937, 1191.338
659.239, 1111.703
660.540, 1351.617
661.842, 1692.674
663.142, 2022.695
664.443, 2767.492
665.744, 3048.652
667.044, 4118.631
668.344, 5348.312
669.644, 5973.830
670.944, 7135.570
672.243, 7374.875
673.542, 6829.191
674.841, 6265.693
676.140, 4871.781
677.438, 4271.105
678.737, 3362.543
680.035, 2704.004
681.333, 2495.148
682.630, 1855.150
683.928, 1825.699
685.225, 1718.561
686.522, 1619.336
687.819, 1660.559
689.115, 1513.377
690.412, 1693.488
691.708, 1524.674
693.004, 1475.678
694.300, 1526.209
695.595, 1486.818
696.890, 1637.494
698.185, 1538.500
699.480, 1839.734
700.775, 1970.176
702.069, 1681.191
703.363, 2452.053
704.657, 2253.039
705.951, 2501.131
707.244, 2871.324
708.538, 2453.711
709.831, 3093.889
711.124, 2934.434
712.416, 2886.955
713.709, 3026.910
715.001, 2843.689
716.293, 2534.611
717.585, 2164.852
718.876, 2131.211
720.167, 2351.424
721.459, 2205.842
722.749, 2566.672
724.040, 2576.777
725.331, 2328.311
726.621, 2548.225
727.911, 1998.871
729.201, 1879.463
730.490, 1769.285
731.780, 1490.730
733.069, 1340.816
734.358, 991.055
735.646, 1041.109
736.935, 1090.773
738.223, 724.352
739.511, 943.949
740.799, 693.514
742.087, 763.328
743.374, 782.824
744.661, 452.693
745.948, 892.506
747.235, 341.904
748.522, 621.270
749.808, 600.605
751.094, 459.904
752.380, 689.170
753.666, 258.404
754.951, 477.865
756.236, 527.029
757.521, 266.162
758.806, 615.262
760.091, 324.326
761.375, 433.357
762.659, 472.357
763.943, 211.326
765.227, 510.258
766.511, 179.156
767.794, 268.020
769.077, 466.846
770.360, 95.639
771.643, 434.391
772.925, 223.109
774.207, 161.793
775.489, 370.439
776.771, 199.055
778.053, 377.633
779.334, 196.182
780.615, 224.693
781.896, 523.168
783.177, 161.615
784.457, 320.027
785.738, 268.402
787.018, 216.746
788.298, 555.057
789.577, 116.668
790.857, 501.488
792.136, 79.609
793.415, 17.695
794.694, 485.729
795.972, 156.268
797.251, 251.596
798.529, 379.426
799.807, 27.225
801.084, 384.977
802.362, 112.699
803.639, 170.389
804.916, 98.043
806.193, 75.660
807.470, 463.238
808.746, 140.789
810.022, 328.305
811.298, 405.793
812.574, 63.256
813.850, 270.680
815.125, 118.078
816.400, 285.480
817.675, 362.854
818.950, 149.779
820.224, 307.461
821.499, 154.670
822.773, 48.111
824.047, 189.029
825.320, 113.826
826.594, 46.793
827.867, 210.166
829.140, 212.891
830.413, 243.889
831.685, 20.639
832.958, 27.344
834.230, 44.010
835.502, 119.365
836.774, 227.154
838.045, 166.357
839.316, 159.986
840.588, 46.309
841.858, 327.412
843.129, 298.645
844.400, 34.670
845.670, 70.656
846.940, 176.607
848.210, 137.477
849.479, 128.318
850.749, 44.076
852.018, 150.201
853.287, 175.395
854.556, 30.959
855.824, 76.484
857.093, 41.977
858.361, 102.570
859.629, 242.783
860.896, 171.893
862.164, 243.295
863.431, 148.453
864.698, 176.422
865.965, 308.568
867.232, 86.471
868.498, 58.404
869.764, 213.244
871.030, 81.945
872.296, 222.779
873.562, 52.521
874.827, 72.107
876.092, 236.705
877.357, 168.729
878.622, 565.711
879.886, 90.125
881.151, 94.508
882.415, 448.859
883.679, 6.816
884.942, 187.469
886.206, 141.727
887.469, 175.955
888.732, 370.156
889.995, 55.668
891.258, 388.449
892.520, 262.541
893.782, 186.611
895.044, 520.654
896.306, 154.676
897.568, 158.668
898.829, 422.637
900.090, 246.584
901.351, 540.510
902.612, 294.412
903.872, 428.291
905.133, 622.150
906.393, 175.750
907.653, 629.570
908.912, 353.371
910.172, 396.939
911.431, 770.699
912.690, 464.439
913.949, 788.162
915.208, 1091.863
916.466, 785.105
917.724, 1218.771
918.982, 1141.840
920.240, 1045.258
921.498, 1348.869
922.755, 801.531
924.012, 1125.107
925.269, 778.270
926.526, 781.154
927.782, 784.684
929.039, 387.693
930.295, 781.188
931.551, 874.154
932.806, 437.221
934.062, 940.668
935.317, 573.434
936.572, 886.848
937.827, 1000.029
939.082, 492.980
940.336, 1406.346
941.590, 999.740
942.844, 1253.082
944.098, 1575.406
945.352, 1187.100
946.605, 2160.400
947.859, 2231.256
949.112, 2814.248
950.364, 3287.508
951.617, 3069.490
952.869, 3092.729
954.121, 2805.094
955.373, 2227.699
956.625, 2389.988
957.877, 1782.180
959.128, 1785.375
960.379, 2227.818
961.630, 1581.002
962.881, 2374.172
964.131, 2376.266
965.381, 2849.221
966.631, 3771.527
967.881, 4424.527
969.131, 6377.648
970.380, 8088.869
971.630, 8581.938
972.879, 9654.357
974.128, 7811.969
975.376, 6234.516
976.625, 5378.008
977.873, 3425.709
979.121, 3088.316
980.369, 2596.004
981.616, 1588.746
982.864, 1670.477
984.111, 1052.309
985.358, 884.207
986.605, 1319.889
987.851, 462.561
989.097, 1052.895
990.344, 567.559
991.589, 509.498
992.835, 819.816
994.081, 322.811
995.326, 624.834
996.571, 527.285
997.816, 419.947
999.061, 812.514
1000.305, 274.986
1001.550, 407.148
1002.794, 709.488
1004.037, 172.248
1005.281, 944.457
1006.525, 536.863
1007.768, 699.127
1009.011, 834.412
1010.254, 867.633
1011.496, 1168.705
1012.739, 1102.006
1013.981, 1054.914
1015.223, 1535.918
1016.465, 829.701
1017.706, 1356.441
1018.948, 1039.184
1020.189, 692.582
1021.430, 1029.902
1022.671, 743.391
1023.911, 552.668
1025.152, 895.586
1026.392, 279.205
1027.632, 741.396
1028.872, 395.252
1030.111, 348.346
1031.350, 711.467
1032.590, 505.402
1033.829, 417.684
1035.067, 901.303
1036.306, 54.752
1037.544, 558.348
1038.782, 432.371
1040.020, 312.445
1041.258, 716.473
1042.495, 350.545
1043.733, 624.334
1044.970, 418.406
1046.207, 352.090
1047.443, 595.795
1048.680, 469.891
1049.916, 473.992
1051.152, 538.094
1052.388, 312.223
1053.624, 906.352
1054.859, 420.484
1056.094, 325.754
1057.329, 669.951
1058.564, 224.154
1059.799, 478.596
1061.033, 692.811
1062.268, 398.129
1063.502, 662.352
1064.735, 646.570
1065.969, 381.521
1067.202, 855.758
1068.436, 169.998
1069.669, 694.912
1070.902, 569.164
1072.134, 373.871
1073.367, 779.162
1074.599, 103.416
1075.831, 388.922
1077.062, 653.182
1078.294, 187.443
1079.525, 392.947
1080.757, 387.211
1081.988, 211.471
1083.218, 705.781
1084.449, 280.094
1085.679, 494.557
1086.909, 529.566
1088.139, 93.881
1089.369, 399.643
1090.599, 513.996
1091.828, 279.090
1093.057, 623.855
1094.286, 418.207
1095.515, 493.984
1096.744, 878.383
1097.972, 322.779
1099.200, 1068.572
1100.428, 612.963
1101.656, 777.549
1102.883, 1774.324
1104.111, 958.709
1105.338, 1895.588
1106.565, 2009.975
1107.791, 1594.359
1109.018, 2171.178
1110.244, 1975.551
1111.470, 2019.918
1112.696, 1905.664
1113.922, 1080.027
1115.147, 1445.525
1116.373, 999.887
1117.598, 344.240
1118.823, 1130.676
1120.047, 375.074
1121.272, 469.465
1122.496, 714.418
1123.720, 68.818
1124.944, 403.254
1126.168, 477.705
1127.391, 7.854
1128.615, 588.477
1129.838, 73.643
1131.061, 329.395
1132.283, 514.650
1133.506, 110.637
1134.728, 627.713
1135.950, 462.697
1137.172, 102.803
1138.394, 518.879
1139.615, 224.691
1140.837, 299.229
1142.058, 845.816
1143.279, 70.324
1144.499, 615.232
1145.720, 392.691
1146.940, 327.193
1148.160, 861.346
1149.380, 74.416
1150.600, 740.793
1151.819, 638.057
1153.038, 332.965
1154.257, 1068.162
1155.476, 699.131
1156.695, 613.568
1157.913, 1162.400
1159.132, 678.365
1160.350, 733.357
1161.568, 1115.990
1162.785, 210.430
1164.003, 1134.900
1165.220, 786.459
1166.437, 570.826
1167.654, 1472.803
1168.871, 779.020
1170.087, 1353.533
1171.304, 1367.598
1172.520, 1123.402
1173.736, 2157.637
1174.951, 2057.592
1176.167, 1911.809
1177.382, 3436.227
1178.597, 3338.318
1179.812, 4172.434
1181.027, 4898.900
1182.241, 4695.602
1183.455, 5389.615
1184.669, 4588.273
1185.883, 3872.215
1187.097, 4406.137
1188.311, 2850.168
1189.524, 2844.008
1190.737, 2618.479
1191.950, 1644.285
1193.162, 1918.002
1194.375, 1283.828
1195.587, 1088.850
1196.799, 1152.441
1198.011, 752.006
1199.223, 985.510
1200.434, 1109.197
1201.646, 137.918
1202.857, 971.279
1204.068, 715.402
1205.279, 411.443
1206.489, 1024.664
1207.699, 209.664
1208.909, 512.785
1210.119, 735.857
1211.329, 312.844
1212.539, 815.814
1213.748, 758.736
1214.957, 334.656
1216.166, 1127.475
1217.375, 390.656
1218.583, 253.400
1219.792, 826.086
1221.000, 209.738
1222.208, 612.865
1223.415, 645.389
1224.623, 218.932
1225.830, 771.346
1227.037, 633.713
1228.244, 547.928
1229.451, 760.191
1230.658, 504.172
1231.864, 376.742
1233.070, 878.846
1234.276, 200.896
1235.482, 952.879
1236.687, 374.809
1237.893, 456.678
1239.098, 728.514
1240.303, 220.316
1241.508, 782.076
1242.712, 673.809
1243.917, 235.502
1245.121, 867.148
1246.325, 528.752
1247.529, 90.500
1248.732, 952.025
1249.936, 83.516
1251.139, 706.047
1252.342, 597.451
1253.545, 98.818
1254.747, 990.145
1255.950, 731.428
1257.152, 273.215
1258.354, 744.410
1259.556, 335.547
1260.758, 717.504
1261.959, 918.521
1263.160, 169.338
1264.361, 881.418
1265.562, 832.025
1266.763, 492.531
1267.963, 1292.924
1269.164, 823.125
1270.364, 643.740
1271.563, 1023.760
1272.763, 213.232
1273.963, 472.893
1275.162, 332.449
1276.361, 451.941
1277.560, 581.314
1278.759, 48.088
1279.957, 517.238
1281.155, 766.225
1282.354, 17.160
1283.551, 322.475
1284.749, 691.125
1285.947, 410.348
1287.144, 768.301
1288.341, 63.736
1289.538, 114.385
1290.735, 762.691
1291.931, 49.473
1293.128, 31.752
1294.324, 235.445
1295.520, 97.043
1296.716, 551.254
1297.911, 478.545
1299.107, 314.258
1300.302, 693.340
1301.497, 119.727
1302.692, 297.070
1303.886, 524.539
1305.081, 178.920
1306.275, 657.455
1307.469, 644.160
1308.663, 319.623
1309.856, 686.402
1311.050, 7.648
1312.243, 248.186
1313.436, 613.932
1314.629, 40.408
1315.822, 295.129
1317.014, 870.801
1318.206, 133.855
1319.398, 691.324
1320.590, 606.414
1321.782, 168.600
1322.974, 1006.203
1324.165, 190.916
1325.356, 165.529
1326.547, 850.037
1327.738, 115.541
1328.928, 1258.736
1330.119, 1192.932
1331.309, 42.955
1332.499, 841.020
1333.688, 494.920
1334.878, 228.734
1336.067, 1142.457
1337.256, 216.107
1338.445, 319.670
1339.634, 993.139
1340.823, 26.525
1342.011, 909.807
1343.199, 593.006
1344.388, 123.881
1345.575, 1207.766
1346.763, 450.670
1347.950, 153.500
1349.138, 976.016
1350.325, 248.691
1351.512, 700.191
1352.698, 992.727
1353.885, 85.197
1355.071, 926.881
1356.257, 759.553
1357.443, 131.830
1358.629, 1273.379
1359.814, 540.908
1361.000, 632.564
1362.185, 1393.588
1363.370, 385.605
1364.554, 496.336
1365.739, 1268.277
1366.923, 370.189
1368.107, 780.828
1369.291, 622.838
1370.475, 65.658
1371.659, 905.748
1372.842, 248.441
1374.025, 519.568
1375.208, 1290.045
1376.391, 861.182
1377.574, 2650.547
1378.756, 4041.191
1379.939, 3941.027
1381.121, 3727.965
1382.303, 2063.785
1383.484, 1269.525
1384.666, 1896.406
1385.847, 640.912
1387.028, 915.172
1388.209, 1439.354
1389.390, 576.012
1390.570, 1211.092
1391.751, 1056.309
1392.931, 360.418
1394.111, 1656.645
1395.291, 702.182
1396.470, 748.230
1397.649, 1522.102
1398.829, 495.715
1400.008, 1050.281
1401.187, 1070.809
1402.365, 407.830
1403.544, 1331.654
1404.722, 1198.117
1405.900, 276.594
1407.078, 1599.277
1408.255, 640.623
1409.433, 698.137
1410.610, 1467.230
1411.787, 382.137
1412.964, 1022.645
1414.141, 1131.664
1415.317, 468.070
1416.494, 900.047
1417.670, 819.277
1418.846, 565.609
1420.022, 1285.348
1421.197, 496.355
1422.373, 521.918
1423.548, 1335.469
1424.723, 154.594
1425.898, 814.875
1427.072, 1139.789
1428.247, 275.539
1429.421, 1071.945
1430.595, 1009.344
1431.769, 269.254
1432.942, 1203.531
1434.116, 570.980
1435.289, 525.031
1436.462, 1050.418
1437.635, 91.980
1438.808, 1140.039
1439.981, 1442.660
1441.153, 149.613
1442.325, 1235.285
1443.497, 1101.633
1444.669, 96.836
1445.840, 1261.441
1447.012, 814.543
1448.183, 99.996
1449.354, 1696.066
1450.525, 261.988
1451.696, 897.586
1452.866, 1522.801
1454.036, 427.656
1455.206, 871.758
1456.376, 1485.809
1457.546, 147.004
1458.716, 1520.102
1459.885, 971.477
1461.054, 453.660
1462.223, 1693.371
1463.392, 622.238
1464.560, 464.484
1465.729, 1837.105
1466.897, 558.645
1468.065, 1032.102
1469.233, 1475.840
1470.400, 419.852
1471.568, 1494.090
1472.735, 1246.043
1473.902, 570.816
1475.069, 1404.617
1476.236, 958.430
1477.402, 283.777
1478.569, 1939.109
1479.735, 571.258
1480.901, 684.453
1482.066, 1459.602
1483.232, 172.156
1484.397, 985.484
1485.562, 1181.125
1486.727, 326.738
1487.892, 1562.387
1489.057, 667.094
1490.221, 833.109
1491.386, 1469.473
1492.550, 126.367
1493.714, 653.629
1494.877, 1661.242
1496.041, 0.832
1497.204, 1037.516
1498.367, 1446.266
1499.530, 84.613
