##NAMES=Cordierite
##RRUFFID=R040081
##IDEAL CHEMISTRY=Mg_2_Al_3_(AlSi_5_)O_18_
##LOCALITY=Laramie Range, Wyoming, USA
##OWNER=RRUFF
##SOURCE=University of Arizona Mineral Museum
##DESCRIPTION=Blue to purple coarsely crystalline
##STATUS=The identification of this mineral has been confirmed by X-ray diffraction and chemical analysis
##URL=rruff.info/R040081
##MEASURED CHEMISTRY=(Mg_1.80_Fe^2+^_0.20_)_Σ=2_Al_4.00_(Si_4.96_Al_0.04_)_Σ=5_O_18_·0.86H_2_O·Na_0.04_ ; H_2_O estimated by difference and verified by Raman spectroscopy
##PIN_ID=M00044
##ORIENTATION=Laser parallel to -a* (-1 0 0). Fiducial mark perpendicular to laser is parallel to b [0 1 0]
78.031, 0.000
79.427, 14.549
80.823, 119.609
82.218, 172.802
83.614, 525.247
85.009, 562.897
86.404, 787.576
87.798, 952.822
89.193, 1222.253
90.587, 1381.679
91.981, 1326.705
93.375, 1323.475
94.768, 1204.535
96.161, 1206.001
97.554, 1118.974
98.947, 1239.577
100.340, 1204.180
101.732, 1360.238
103.124, 1526.265
104.516, 1929.830
105.908, 2627.561
107.300, 2954.128
108.691, 3819.252
110.082, 4676.676
111.473, 6495.517
112.864, 8841.004
114.254, 11454.006
115.644, 14829.330
117.034, 18105.863
118.424, 20629.777
119.813, 21981.256
121.203, 19306.229
122.592, 15048.525
123.981, 11477.980
125.369, 8461.473
126.758, 6580.895
128.146, 4869.154
129.534, 3930.178
130.922, 2897.891
132.309, 2266.234
133.696, 1780.159
135.083, 1711.615
136.470, 1359.560
137.857, 1517.952
139.243, 1501.760
140.630, 1373.946
142.016, 1170.485
143.401, 1211.346
144.787, 1421.919
146.172, 1504.619
147.557, 1708.698
148.942, 2166.986
150.327, 2661.084
151.711, 3545.094
153.096, 4565.332
154.480, 5362.252
155.863, 6175.184
157.247, 6506.482
158.630, 5804.301
160.013, 4962.434
161.396, 3907.813
162.779, 2941.037
164.161, 1917.873
165.544, 1251.323
166.926, 702.452
168.308, 439.310
169.689, 265.934
171.070, 246.356
172.452, 225.603
173.833, 210.691
175.213, 274.643
176.594, 189.471
177.974, 317.187
179.354, 529.800
180.734, 385.319
182.114, 384.750
183.493, 501.101
184.872, 462.372
186.251, 388.570
187.630, 404.763
189.008, 292.760
190.387, 334.754
191.765, 280.686
193.143, 272.554
194.520, 165.360
195.898, 168.103
197.275, 92.777
198.652, 83.001
200.029, 186.928
201.405, 79.403
202.782, 56.812
204.158, 61.155
205.534, 193.428
206.909, 20.631
208.285, 63.764
209.660, 37.824
211.035, 263.187
212.410, 217.271
213.784, 254.427
215.159, 230.657
216.533, 164.963
217.907, 177.342
219.281, 114.797
220.654, 92.327
222.027, 92.066
223.400, 197.385
224.773, 342.626
226.146, 599.385
227.518, 864.029
228.891, 1297.966
230.263, 1680.803
231.634, 2438.072
233.006, 3150.379
234.377, 4032.757
235.748, 4846.916
237.119, 5367.037
238.490, 5861.379
239.860, 5544.203
241.231, 5074.938
242.601, 4515.500
243.970, 4085.877
245.340, 3700.332
246.709, 3480.735
248.079, 3447.138
249.448, 3444.632
250.816, 3901.975
252.185, 4651.032
253.553, 5769.705
254.921, 7257.910
256.289, 8810.581
257.657, 10512.663
259.024, 11127.113
260.391, 10389.889
261.758, 7948.954
263.125, 5923.279
264.492, 4277.841
265.858, 3117.611
267.224, 2519.572
268.590, 1818.703
269.956, 1693.988
271.321, 1508.411
272.687, 1423.961
274.052, 1357.623
275.416, 1643.389
276.781, 1768.245
278.146, 2041.174
279.510, 2629.166
280.874, 3157.211
282.237, 4082.308
283.601, 5118.443
284.964, 6551.619
286.327, 8670.821
287.690, 10650.045
289.053, 12979.286
290.416, 15616.536
291.778, 17373.801
293.140, 18355.059
294.502, 18103.316
295.863, 17659.576
297.225, 15411.826
298.586, 13082.068
299.947, 11107.294
301.308, 9109.508
302.668, 7619.701
304.029, 6210.876
305.389, 5051.030
306.749, 4099.159
308.108, 3450.264
309.468, 2914.274
310.827, 2424.143
312.186, 2120.895
313.545, 2106.559
314.903, 2042.180
316.262, 1979.774
317.620, 2123.340
318.978, 2271.874
320.336, 2531.367
321.693, 2706.808
323.051, 3017.187
324.408, 3102.491
325.765, 3124.718
327.121, 2444.864
328.478, 1819.934
329.834, 1366.928
331.190, 1185.848
332.546, 802.694
333.902, 928.467
335.257, 699.169
336.612, 588.799
337.967, 572.359
339.322, 509.848
340.677, 648.268
342.031, 799.617
343.385, 859.898
344.739, 1073.110
346.093, 1297.252
347.446, 1524.327
348.799, 1522.333
350.153, 1598.271
351.505, 1482.141
352.858, 1379.944
354.210, 1372.681
355.563, 1262.351
356.915, 1341.955
358.267, 1475.494
359.618, 1589.966
360.969, 1932.375
362.321, 2246.719
363.672, 2762.999
365.022, 2951.215
366.373, 2949.368
367.723, 2604.458
369.073, 2029.487
370.423, 1471.454
371.773, 913.359
373.122, 604.204
374.471, 491.139
375.821, 200.339
377.169, 191.340
378.518, 24.062
379.866, 113.724
381.215, 161.889
382.563, 233.629
383.910, 226.080
385.258, 302.266
386.605, 247.642
387.952, 368.195
389.299, 249.957
390.646, 344.896
391.992, 358.068
393.339, 418.603
394.685, 401.585
396.031, 411.509
397.376, 386.115
398.722, 391.444
400.067, 305.417
401.412, 285.905
402.757, 255.885
404.101, 192.295
405.446, 159.076
406.790, 28.954
408.134, 111.886
409.478, 280.747
410.821, 522.580
412.165, 768.393
413.508, 1271.184
414.851, 1742.949
416.193, 2445.685
417.536, 3347.389
418.878, 4790.059
420.220, 6430.694
421.562, 8059.293
422.904, 10602.854
424.245, 12942.373
425.586, 14436.854
426.927, 14900.290
428.268, 13343.685
429.609, 11215.036
430.949, 8821.345
432.289, 7156.605
433.629, 5229.821
434.969, 4103.993
436.309, 3051.117
437.648, 2512.194
438.987, 2019.223
440.326, 1539.207
441.665, 1392.141
443.003, 1228.028
444.342, 1165.867
445.680, 1228.658
447.018, 1237.401
448.355, 1192.096
449.693, 1446.743
451.030, 1563.341
452.367, 1699.892
453.704, 1740.394
455.041, 1756.849
456.377, 1490.254
457.713, 1335.612
459.049, 982.923
460.385, 913.186
461.721, 826.402
463.056, 666.570
464.391, 714.692
465.726, 850.767
467.061, 750.795
468.395, 836.776
469.730, 1023.711
471.064, 1001.601
472.398, 1229.445
473.731, 1260.245
475.065, 1405.002
476.398, 1441.715
477.731, 1493.385
479.064, 1504.011
480.397, 1375.595
481.729, 1557.137
483.062, 1417.636
484.394, 1544.093
485.725, 1339.509
487.057, 1266.884
488.389, 1263.219
489.720, 1126.513
491.051, 1074.769
492.382, 1056.985
493.712, 1032.163
495.043, 935.303
496.373, 836.405
497.703, 821.470
499.032, 844.498
500.362, 784.492
501.691, 816.887
503.020, 804.733
504.349, 891.284
505.678, 773.148
507.007, 892.009
508.335, 816.853
509.663, 883.702
510.991, 902.562
512.319, 967.437
513.646, 1019.338
514.973, 1030.269
516.300, 1328.208
517.627, 1563.193
518.954, 1270.183
520.280, 1544.205
521.607, 1571.267
522.933, 1675.385
524.259, 1776.544
525.584, 1887.752
526.910, 2027.974
528.235, 2115.228
529.560, 2371.639
530.885, 2681.552
532.209, 3001.207
533.534, 3582.574
534.858, 4153.972
536.182, 4907.148
537.506, 5643.130
538.829, 6380.663
540.152, 7424.640
541.476, 8706.660
542.799, 10114.182
544.121, 12507.175
545.444, 15308.284
546.766, 19102.736
548.088, 23959.539
549.410, 30026.680
550.732, 35576.773
552.053, 41563.941
553.375, 44813.270
554.696, 45168.582
556.017, 43652.234
557.337, 39962.441
558.658, 36327.289
559.978, 32779.539
561.298, 30490.037
562.618, 27757.438
563.938, 25241.867
565.257, 22961.441
566.576, 20634.828
567.895, 19665.307
569.214, 19047.092
570.533, 19297.832
571.851, 19679.598
573.170, 21267.381
574.488, 22429.176
575.805, 22939.988
577.123, 22809.824
578.440, 21926.668
579.758, 19906.539
581.075, 17126.426
582.391, 14938.329
583.708, 12389.252
585.024, 10479.192
586.341, 9274.154
587.657, 7924.133
588.972, 6948.129
590.288, 6117.146
591.603, 5104.183
592.918, 4701.239
594.233, 4366.314
595.548, 3847.411
596.863, 3450.527
598.177, 3243.664
599.491, 3064.822
600.805, 2734.000
602.119, 2600.199
603.432, 2565.418
604.746, 2479.658
606.059, 2320.922
607.372, 2207.206
608.685, 2187.402
609.997, 2185.842
611.309, 2234.191
612.621, 2241.564
613.933, 2408.959
615.245, 2483.376
616.557, 2511.815
617.868, 2617.279
619.179, 2462.766
620.490, 2445.275
621.801, 2500.810
623.111, 2158.367
624.421, 2100.947
625.731, 1819.552
627.041, 1854.182
628.351, 1469.834
629.660, 1395.513
630.970, 1479.214
632.279, 1284.941
633.588, 1134.692
634.896, 971.469
636.205, 1038.271
637.513, 916.098
638.821, 1085.950
640.129, 1039.828
641.437, 1143.732
642.744, 987.661
644.051, 1204.616
645.358, 1135.597
646.665, 1267.604
647.972, 1305.637
649.278, 1435.696
650.584, 1596.782
651.890, 1817.895
653.196, 1951.057
654.502, 2405.223
655.807, 2511.490
657.113, 3020.914
658.418, 3795.817
659.722, 4370.210
661.027, 5390.636
662.331, 6635.285
663.636, 8234.646
664.940, 10201.282
666.244, 12309.230
667.547, 14175.781
668.851, 15700.007
670.154, 15729.542
671.457, 14438.569
672.760, 12745.066
674.062, 10279.719
675.365, 8201.146
676.667, 6419.668
677.969, 5168.141
679.271, 4133.328
680.572, 3289.957
681.874, 2947.238
683.175, 2708.140
684.476, 2433.465
685.777, 2334.213
687.077, 2107.913
688.378, 2044.043
689.678, 1972.072
690.978, 1729.207
692.278, 1378.432
693.577, 1543.633
694.877, 1329.795
696.176, 1292.764
697.475, 1268.607
698.774, 1511.939
700.072, 1606.228
701.371, 1762.050
702.669, 1915.653
703.967, 2378.023
705.265, 2851.731
706.562, 3243.205
707.860, 3564.285
709.157, 4261.359
710.454, 4475.771
711.751, 4804.421
713.047, 4519.150
714.344, 4450.043
715.640, 4308.102
716.936, 4100.304
718.232, 4499.645
719.527, 4537.114
720.823, 4876.695
722.118, 5005.382
723.413, 5062.119
724.708, 4948.895
726.002, 4771.680
727.297, 4263.467
728.591, 4017.260
729.885, 3784.052
731.179, 2504.847
732.472, 2219.646
733.766, 2069.445
735.059, 1492.247
736.352, 1691.050
737.645, 1522.854
738.937, 1686.660
740.230, 1261.467
741.522, 833.273
742.814, 815.081
744.106, 787.889
745.397, 708.696
746.689, 544.504
747.980, 606.311
749.271, 455.116
750.562, 668.922
751.853, 365.726
753.143, 456.528
754.433, 423.330
755.723, 362.129
757.013, 477.927
758.303, 342.721
759.592, 473.514
760.881, 434.303
762.170, 462.090
763.459, 451.873
764.748, 399.653
766.036, 517.430
767.325, 412.201
768.613, 457.971
769.901, 539.734
771.188, 432.493
772.476, 555.248
773.763, 475.997
775.050, 562.742
776.337, 571.479
777.624, 558.213
778.910, 577.939
780.196, 588.660
781.482, 492.375
782.768, 490.083
784.054, 628.784
785.339, 518.478
786.625, 449.164
787.910, 589.843
789.195, 501.515
790.479, 429.178
791.764, 369.833
793.048, 371.479
794.332, 409.118
795.616, 356.747
796.900, 280.368
798.183, 303.979
799.467, 231.581
800.750, 212.174
802.033, 132.756
803.316, 200.328
804.598, 47.890
805.880, 178.442
807.163, 39.983
808.445, 81.514
809.726, 34.032
811.008, 10.538
812.289, 3.972
813.570, 33.494
814.851, 34.945
816.132, 10.055
817.413, 83.198
818.693, 37.852
819.973, 120.553
821.253, 128.345
822.533, 153.235
823.813, 188.236
825.092, 194.368
826.371, 120.634
827.650, 248.997
828.929, 100.525
830.208, 196.140
831.486, 225.894
832.764, 283.802
834.042, 225.896
835.320, 251.146
836.598, 116.564
837.875, 186.083
839.152, 239.737
840.429, 142.557
841.706, 180.491
842.983, 98.559
844.259, 67.718
845.536, 211.952
846.812, 83.339
848.088, 129.810
849.363, 109.389
850.639, 10.066
851.914, 47.790
853.189, 124.583
854.464, 19.483
855.739, 61.408
857.013, 71.467
858.288, 5.420
859.562, 11.266
860.836, 115.070
862.110, 25.145
863.383, 114.579
864.656, 98.282
865.930, 151.961
867.203, 148.616
868.475, 179.249
869.748, 160.856
871.020, 184.440
872.292, 326.999
873.564, 267.530
874.836, 330.035
876.108, 297.515
877.379, 415.967
878.650, 461.392
879.922, 559.788
881.192, 407.159
882.463, 532.503
883.733, 474.819
885.004, 494.108
886.274, 472.371
887.544, 561.607
888.813, 448.817
890.083, 596.000
891.352, 617.940
892.621, 605.395
893.890, 728.392
895.159, 676.470
896.427, 667.521
897.695, 821.548
898.964, 829.548
900.232, 887.522
901.499, 923.471
902.767, 1000.768
904.034, 1094.290
905.301, 1188.070
906.568, 1170.010
907.835, 1277.831
909.102, 1262.628
910.368, 1423.398
911.634, 1557.146
912.900, 1807.867
914.166, 1990.562
915.432, 2240.235
916.697, 2409.883
917.962, 2880.506
919.227, 2927.105
920.492, 3031.680
921.757, 2894.230
923.021, 2807.757
924.285, 2475.260
925.550, 2195.738
926.813, 1973.195
928.077, 1844.627
929.341, 1760.045
930.604, 1853.422
931.867, 1792.783
933.130, 1846.123
934.393, 1995.440
935.655, 1787.734
936.918, 2114.005
938.180, 2099.254
939.442, 2325.483
940.703, 2609.690
941.965, 2833.875
943.226, 3138.064
944.488, 3558.232
945.749, 4376.377
947.009, 5154.509
948.270, 6219.617
949.530, 7154.728
950.791, 8125.818
952.051, 8081.885
953.311, 7656.936
954.570, 6971.971
955.830, 6399.990
957.089, 5983.002
958.348, 5797.010
959.607, 5951.979
960.866, 6389.957
962.124, 6768.865
963.383, 7897.629
964.641, 9111.927
965.899, 10951.761
967.156, 13815.568
968.414, 17113.156
969.671, 20569.047
970.928, 22407.668
972.185, 22275.986
973.442, 19413.709
974.699, 15847.761
975.955, 12422.518
977.211, 9561.793
978.468, 7537.602
979.723, 6073.264
980.979, 4782.162
982.234, 4178.979
983.490, 3271.864
984.745, 2971.055
986.000, 2548.832
987.254, 2142.978
988.509, 2144.521
989.763, 1894.658
991.017, 1806.390
992.271, 1683.181
993.525, 1498.566
994.779, 1499.080
996.032, 1407.523
997.285, 1466.888
998.538, 1286.304
999.791, 1414.785
1001.044, 1280.534
1002.296, 1433.507
1003.548, 1508.103
1004.800, 1532.874
1006.052, 1813.240
1007.304, 1951.971
1008.555, 2240.074
1009.807, 2575.005
1011.058, 2726.309
1012.309, 2780.172
1013.559, 2860.212
1014.810, 2873.095
1016.060, 2878.918
1017.310, 2823.846
1018.560, 2521.784
1019.810, 2239.732
1021.060, 2062.691
1022.309, 1798.657
1023.558, 1607.634
1024.807, 1305.618
1026.056, 1236.622
1027.305, 1108.636
1028.553, 1140.658
1029.801, 1140.694
1031.049, 1013.742
1032.297, 932.808
1033.545, 920.895
1034.793, 785.995
1036.040, 763.123
1037.287, 826.264
1038.534, 797.439
1039.781, 812.641
1041.027, 660.861
1042.274, 706.096
1043.520, 679.348
1044.766, 529.611
1046.012, 572.910
1047.257, 514.222
1048.503, 589.546
1049.748, 535.887
1050.993, 563.250
1052.238, 540.646
1053.483, 439.055
1054.727, 458.484
1055.971, 471.928
1057.216, 546.385
1058.459, 409.867
1059.703, 483.368
1060.947, 488.891
1062.190, 523.427
1063.433, 379.978
1064.676, 430.092
1065.919, 400.157
1067.162, 438.774
1068.404, 341.413
1069.646, 374.068
1070.888, 417.743
1072.130, 395.444
1073.372, 424.171
1074.613, 463.918
1075.855, 358.692
1077.096, 327.484
1078.337, 459.290
1079.578, 302.127
1080.818, 393.977
1082.059, 412.847
1083.299, 437.744
1084.539, 425.654
1085.779, 448.580
1087.018, 437.521
1088.258, 603.828
1089.497, 564.797
1090.736, 681.779
1091.975, 719.958
1093.213, 788.968
1094.452, 949.992
1095.690, 1093.261
1096.928, 1207.407
1098.166, 1538.507
1099.404, 1871.608
1100.642, 2150.702
1101.879, 2750.498
1103.116, 3273.944
1104.353, 3954.922
1105.590, 4409.907
1106.827, 5127.957
1108.063, 5198.406
1109.299, 5245.217
1110.536, 4961.777
1111.771, 4570.035
1113.007, 4144.428
1114.243, 3948.341
1115.478, 2917.781
1116.713, 2434.107
1117.948, 1946.575
1119.183, 1655.925
1120.418, 1373.306
1121.652, 1406.741
1122.886, 1353.231
1124.120, 1188.785
1125.354, 1015.414
1126.588, 914.114
1127.821, 831.871
1129.055, 871.716
1130.288, 750.830
1131.521, 766.209
1132.753, 667.961
1133.986, 668.976
1135.218, 871.633
1136.450, 703.701
1137.682, 743.790
1138.914, 627.349
1140.146, 695.279
1141.377, 704.625
1142.609, 799.979
1143.840, 864.010
1145.071, 914.911
1146.301, 968.156
1147.532, 980.321
1148.762, 1022.526
1149.992, 1066.914
1151.222, 1131.295
1152.452, 1213.675
1153.682, 1265.859
1154.911, 1403.479
1156.140, 1487.060
1157.369, 1582.144
1158.598, 1728.562
1159.827, 1901.924
1161.055, 1787.331
1162.284, 1917.678
1163.512, 1981.470
1164.740, 1957.043
1165.967, 1984.221
1167.195, 2185.644
1168.422, 2467.709
1169.650, 2717.077
1170.877, 3043.631
1172.103, 3515.250
1173.330, 4233.707
1174.557, 5103.494
1175.783, 6002.045
1177.009, 6945.553
1178.235, 8609.191
1179.461, 10080.435
1180.686, 11638.368
1181.912, 12983.045
1183.137, 13553.199
1184.362, 12984.404
1185.587, 12097.357
1186.811, 10849.640
1188.036, 9520.029
1189.260, 8266.311
1190.484, 7024.879
1191.708, 5840.873
1192.932, 4874.004
1194.155, 3930.863
1195.378, 3442.460
1196.602, 2860.129
1197.825, 2428.223
1199.047, 2065.561
1200.270, 1796.287
1201.492, 1620.897
1202.715, 1296.642
1203.937, 1199.385
1205.159, 1101.979
1206.380, 822.859
1207.602, 736.146
1208.823, 701.017
1210.044, 653.123
1211.265, 536.457
1212.486, 483.420
1213.707, 523.616
1214.927, 461.124
1216.147, 367.395
1217.367, 417.241
1218.587, 349.684
1219.807, 262.840
1221.027, 253.979
1222.246, 146.475
1223.465, 218.535
1224.684, 230.186
1225.903, 166.319
1227.121, 79.945
1228.340, 121.520
1229.558, 58.669
1230.776, 139.063
1231.994, 58.559
1233.212, 134.225
1234.429, 20.575
1235.646, 43.605
1236.864, 78.793
1238.081, 137.044
1239.297, 96.089
1240.514, 50.203
1241.730, 42.681
1242.947, 3.578
1244.163, 112.492
1245.378, 4.548
1246.594, 124.556
1247.810, 24.062
1249.025, 40.086
1250.240, 27.060
1251.455, 69.816
1252.670, 85.734
1253.885, 35.642
1255.099, 17.716
1256.313, 121.493
1257.527, 27.628
1258.741, 29.804
1259.955, 75.003
1261.168, 6.770
1262.382, 40.502
1263.595, 13.438
1264.808, 308.324
1266.021, 541.071
1267.233, 569.011
1268.446, 628.669
1269.658, 453.657
1270.870, 336.641
1272.082, 242.247
1273.294, 177.273
1274.505, 84.146
1275.716, 27.887
1276.928, 39.419
1278.139, 42.913
1279.349, 44.414
1280.560, 52.200
1281.770, 6.076
1282.981, 22.742
1284.191, 11.496
1285.401, 8.710
1286.610, 36.116
1287.820, 50.013
1289.029, 74.956
1290.239, 79.005
1291.448, 17.928
1292.656, 49.821
1293.865, 56.657
1295.073, 27.561
1296.282, 37.450
1297.490, 1.137
1298.698, 23.771
1299.906, 21.392
1301.113, 35.896
1302.320, 6.411
1303.528, 92.785
1304.735, 11.884
1305.942, 4.379
1307.148, 128.600
1308.355, 33.787
1309.561, 4.940
1310.767, 14.055
1311.973, 84.131
1313.179, 32.171
1314.384, 144.172
1315.590, 103.137
1316.795, 91.061
1318.000, 3.055
1319.205, 57.779
1320.410, 115.574
1321.614, 17.330
1322.819, 100.037
1324.023, 4.702
1325.227, 5.688
1326.431, 17.867
1327.634, 23.627
1328.838, 34.820
1330.041, 50.780
1331.244, 23.456
1332.447, 7.809
1333.650, 37.020
1334.852, 28.186
1336.055, 60.302
1337.257, 49.627
1338.459, 79.374
1339.661, 137.332
1340.862, 30.248
1342.064, 1.117
1343.265, 34.063
1344.466, 110.698
1345.667, 11.419
1346.868, 108.092
1348.068, 108.724
1349.269, 3.684
1350.469, 30.856
1351.669, 21.350
1352.869, 90.983
1354.069, 66.914
1355.268, 13.149
1356.468, 32.164
1357.667, 64.527
1358.866, 24.947
1360.065, 53.154
1361.263, 39.306
1362.462, 4.420
1363.660, 9.943
1364.858, 32.762
1366.056, 4.751
1367.254, 79.768
1368.451, 132.670
1369.649, 4.591
1370.846, 136.087
1372.043, 53.712
1373.240, 13.540
1374.436, 188.999
1375.633, 163.404
1376.829, 123.494
1378.025, 256.366
1379.221, 426.695
1380.417, 780.582
1381.613, 1202.148
1382.808, 1241.823
1384.003, 1201.670
1385.199, 1290.689
1386.393, 781.173
1387.588, 491.814
1388.783, 282.763
1389.977, 289.608
1391.171, 133.495
1392.365, 291.499
1393.559, 213.407
1394.753, 162.492
1395.946, 200.531
1397.140, 195.524
1398.333, 237.471
1399.526, 166.119
1400.719, 283.965
1401.911, 298.247
1403.104, 233.936
1404.296, 256.680
1405.488, 299.297
1406.680, 167.918
1407.872, 179.314
1409.063, 212.683
1410.255, 164.140
1411.446, 268.017
1412.637, 149.369
1413.828, 145.296
1415.018, 237.562
1416.209, 278.989
1417.399, 221.165
1418.589, 288.993
1419.779, 231.917
1420.969, 270.879
1422.159, 230.430
1423.348, 157.729
1424.537, 187.391
1425.726, 229.771
1426.915, 287.625
1428.104, 254.072
1429.293, 280.287
1430.481, 223.031
1431.669, 263.160
1432.857, 219.280
1434.045, 226.288
1435.233, 279.157
1436.420, 242.253
1437.608, 189.974
1438.795, 132.561
1439.982, 247.799
1441.169, 228.714
1442.355, 167.638
1443.542, 334.184
1444.728, 151.708
1445.914, 246.438
1447.100, 200.712
1448.286, 245.115
1449.472, 270.864
1450.657, 382.957
1451.842, 217.932
1453.027, 210.818
1454.212, 277.557
1455.397, 170.223
1456.581, 298.044
1457.766, 336.458
1458.950, 228.839
1460.134, 268.521
1461.318, 255.675
1462.501, 253.535
1463.685, 266.312
1464.868, 225.992
1466.051, 214.634
1467.234, 141.102
1468.417, 183.293
1469.600, 195.111
1470.782, 239.780
1471.965, 205.257
1473.147, 258.141
