##NAMES=Cordierite
##RRUFFID=R040081
##IDEAL CHEMISTRY=Mg_2_Al_3_(AlSi_5_)O_18_
##LOCALITY=Laramie Range, Wyoming, USA
##OWNER=RRUFF
##SOURCE=University of Arizona Mineral Museum
##DESCRIPTION=Blue to purple coarsely crystalline
##STATUS=The identification of this mineral has been confirmed by X-ray diffraction and chemical analysis
##URL=rruff.info/R040081
##MEASURED CHEMISTRY=(Mg_1.80_Fe^2+^_0.20_)_Σ=2_Al_4.00_(Si_4.96_Al_0.04_)_Σ=5_O_18_·0.86H_2_O·Na_0.04_ ; H_2_O estimated by difference and verified by Raman spectroscopy
##PIN_ID=M00015
##ORIENTATION=Laser parallel to c* (0 0 1). Fiducial mark perpendicular to laser is parallel to a [1 0 0]
98.947, 0.000
100.340, 5.353
101.732, 134.332
103.124, 42.287
104.516, 82.496
105.908, 193.370
107.300, 98.058
108.691, 432.659
110.082, 480.846
111.473, 695.642
112.864, 1165.298
114.254, 1610.256
115.644, 2063.062
117.034, 2846.335
118.424, 3531.805
119.813, 3528.814
121.203, 4083.391
122.592, 3154.094
123.981, 2510.184
125.369, 1592.520
126.758, 1124.982
128.146, 796.588
129.534, 738.226
130.922, 400.699
132.309, 411.943
133.696, 321.901
135.083, 405.527
136.470, 233.818
137.857, 326.462
139.243, 176.069
140.630, 348.266
142.016, 337.985
143.401, 405.170
144.787, 456.774
146.172, 624.761
147.557, 857.102
148.942, 1014.767
150.327, 1328.738
151.711, 1851.995
153.096, 2515.533
154.480, 2960.347
155.863, 3737.418
157.247, 3945.157
158.630, 3402.619
160.013, 2680.314
161.396, 2100.236
162.779, 1578.371
164.161, 1112.707
165.544, 783.235
166.926, 450.941
168.308, 226.819
169.689, 88.914
171.070, 259.341
172.452, 207.269
173.833, 160.015
175.213, 244.326
176.594, 24.096
177.974, 179.517
179.354, 222.146
180.734, 83.791
182.114, 253.412
183.493, 291.860
184.872, 398.300
186.251, 557.644
187.630, 602.952
189.008, 809.237
190.387, 1036.516
191.765, 1186.794
193.143, 1052.082
194.520, 738.384
195.898, 511.706
197.275, 269.052
198.652, 486.426
200.029, 327.838
201.405, 329.296
202.782, 112.792
204.158, 273.395
205.534, 343.181
206.909, 152.157
208.285, 146.232
209.660, 146.336
211.035, 19.476
212.410, 87.782
213.784, 60.875
215.159, 79.514
216.533, 56.885
217.907, 37.368
219.281, 83.961
220.654, 92.592
222.027, 143.256
223.400, 79.953
224.773, 168.690
226.146, 81.443
227.518, 233.207
228.891, 489.982
230.263, 766.769
231.634, 1226.564
233.006, 1737.370
234.377, 2543.186
235.748, 3411.009
237.119, 4147.844
238.490, 4170.197
239.860, 4459.102
241.231, 3779.889
242.601, 3024.161
243.970, 2409.421
245.340, 2250.049
246.709, 1747.034
248.079, 1821.402
249.448, 1502.018
250.816, 1819.307
252.185, 1982.457
253.553, 2411.352
254.921, 3165.420
256.289, 3954.381
257.657, 5035.346
259.024, 5641.312
260.391, 5156.285
261.758, 4071.254
263.125, 3108.227
264.492, 2258.287
265.858, 1652.752
267.224, 1333.422
268.590, 1038.539
269.956, 1187.027
271.321, 1090.830
272.687, 1050.904
274.052, 1004.219
275.416, 1254.746
276.781, 1275.463
278.146, 1398.354
279.510, 1913.402
280.874, 2107.592
282.237, 2923.914
283.601, 3295.357
284.964, 4570.914
286.327, 6167.570
287.690, 7945.328
289.053, 10011.172
290.416, 12807.102
291.778, 14996.105
293.140, 16737.186
294.502, 16272.336
295.863, 15226.547
297.225, 12978.816
298.586, 10469.148
299.947, 8775.592
301.308, 7050.023
302.668, 5663.994
304.029, 4731.518
305.389, 3859.082
306.749, 3120.684
308.108, 2711.533
309.468, 2079.209
310.827, 1984.043
312.186, 1728.781
313.545, 1940.938
314.903, 1650.729
316.262, 1540.869
317.620, 1542.713
318.978, 1598.678
320.336, 1783.262
321.693, 2119.148
323.051, 2517.098
324.408, 2438.023
325.765, 2448.965
327.121, 1608.920
328.478, 1123.891
329.834, 758.875
331.190, 613.301
332.546, 548.541
333.902, 486.459
335.257, 351.066
336.612, 385.590
337.967, 343.174
339.322, 338.615
340.677, 264.535
342.031, 285.633
343.385, 292.516
344.739, 318.674
346.093, 341.715
347.446, 371.598
348.799, 654.973
350.153, 561.012
351.505, 756.049
352.858, 675.090
354.210, 772.129
355.563, 637.174
356.915, 773.213
358.267, 783.256
359.618, 838.297
360.969, 969.338
362.321, 1151.381
363.672, 1220.420
365.022, 1544.461
366.373, 1328.502
367.723, 1403.543
369.073, 938.580
370.423, 647.615
371.773, 563.648
373.122, 373.678
374.471, 484.705
375.821, 102.725
377.169, 294.115
378.518, 85.816
379.866, 105.170
381.215, 116.150
382.563, 26.125
383.910, 183.906
385.258, 62.992
386.605, 8.898
387.952, 213.217
389.299, 6.602
390.646, 137.588
391.992, 177.822
393.339, 117.113
394.685, 118.441
396.031, 106.893
397.376, 88.217
398.722, 128.654
400.067, 12.861
401.412, 102.629
402.757, 164.814
404.101, 2.254
405.446, 54.621
406.790, 22.961
408.134, 244.227
409.478, 311.393
410.821, 421.477
412.165, 427.498
413.508, 914.471
414.851, 975.406
416.193, 1196.334
417.536, 1897.254
418.878, 2789.172
420.220, 3970.084
421.562, 4977.992
422.904, 7366.895
424.245, 9660.793
425.586, 11747.688
426.927, 13361.598
428.268, 12430.520
429.609, 10176.457
430.949, 8102.404
432.289, 6134.355
433.629, 4331.312
434.969, 3322.271
436.309, 2414.238
437.648, 1903.203
438.987, 1537.170
440.326, 938.137
441.665, 878.105
443.003, 761.068
444.342, 581.033
445.680, 625.000
447.018, 570.961
448.355, 272.920
449.693, 297.871
451.030, 317.824
452.367, 534.771
453.704, 131.711
455.041, 372.648
456.377, 182.578
457.713, 120.506
459.049, 85.438
460.385, 15.812
461.721, 106.295
463.056, 31.217
464.391, 66.129
465.726, 188.031
467.061, 19.926
468.395, 97.195
469.730, 222.600
471.064, 190.607
472.398, 237.051
473.731, 130.301
475.065, 73.250
476.398, 42.789
477.731, 143.316
479.064, 53.834
480.397, 32.340
481.729, 157.826
483.062, 122.695
484.394, 5.688
485.725, 157.037
487.057, 94.412
488.389, 141.779
489.720, 125.775
491.051, 44.561
492.382, 21.938
493.712, 30.373
495.043, 65.219
496.373, 0.125
497.703, 0.566
499.032, 48.725
500.362, 70.998
501.691, 80.314
503.020, 5.371
504.349, 64.904
505.678, 153.172
507.007, 12.465
508.335, 54.729
509.663, 116.977
510.991, 313.213
512.319, 283.438
513.646, 276.668
514.973, 157.896
516.300, 213.957
517.627, 255.182
518.954, 228.594
520.280, 508.812
521.607, 439.080
522.933, 715.367
524.259, 512.650
525.584, 574.947
526.910, 865.230
528.235, 1016.525
529.560, 1152.809
530.885, 1427.631
532.209, 1440.365
533.534, 1951.674
534.858, 2106.965
536.182, 2462.275
537.506, 3043.576
538.829, 3431.113
540.152, 4062.420
541.476, 5065.713
542.799, 5700.002
544.121, 7629.369
545.444, 9647.850
546.766, 11938.859
548.088, 15876.137
549.410, 20086.994
550.732, 24605.854
552.053, 29009.109
553.375, 31379.096
554.696, 31917.924
556.017, 30006.424
557.337, 26414.994
558.658, 22413.984
559.978, 19028.811
561.298, 16626.285
562.618, 14192.422
563.938, 12617.656
565.257, 11530.762
566.576, 9971.750
567.895, 9884.834
569.214, 9918.906
570.533, 10183.961
571.851, 10272.008
573.170, 11225.037
574.488, 11713.051
575.805, 12362.059
577.123, 12294.047
578.440, 11618.023
579.758, 10626.990
581.075, 8835.945
582.391, 7603.887
583.708, 6219.814
585.024, 5071.730
586.341, 4343.627
587.657, 3950.512
588.972, 3277.381
590.288, 2884.236
591.603, 2244.074
592.918, 2109.898
594.233, 1849.705
595.548, 1866.496
596.863, 1392.270
598.177, 1404.025
599.491, 1678.766
600.805, 1580.877
602.119, 1041.582
603.432, 1127.164
604.746, 1132.074
606.059, 980.811
607.372, 887.570
608.685, 1217.744
609.997, 836.852
611.309, 1124.436
612.621, 857.688
613.933, 1037.584
615.245, 1051.256
616.557, 1253.055
617.868, 1401.545
619.179, 1209.072
620.490, 1271.525
621.801, 1664.377
623.111, 1309.039
624.421, 1574.764
625.731, 1015.697
627.041, 1386.475
628.351, 822.893
629.660, 722.377
630.970, 1118.740
632.279, 603.768
633.588, 832.043
634.896, 477.904
636.205, 727.688
637.513, 409.934
638.821, 435.377
640.129, 712.812
641.437, 769.908
642.744, 808.010
644.051, 783.180
645.358, 807.713
646.665, 815.730
647.972, 728.359
649.278, 821.160
650.584, 906.570
651.890, 1323.854
653.196, 1362.164
654.502, 1654.965
655.807, 1617.385
657.113, 2085.805
658.418, 2786.943
659.722, 2913.787
661.027, 3370.729
662.331, 4081.135
663.636, 5697.689
664.940, 6670.947
666.244, 9101.680
667.547, 10264.389
668.851, 12049.838
670.154, 12246.686
671.457, 11462.633
672.760, 10608.855
674.062, 8472.461
675.365, 6736.727
676.667, 5397.166
677.969, 4345.443
679.271, 3175.018
680.572, 2717.586
681.874, 2619.072
683.175, 2311.988
684.476, 1765.336
685.777, 1747.266
687.077, 1326.322
688.378, 1655.832
689.678, 1433.574
690.978, 1425.820
692.278, 770.521
693.577, 1493.939
694.877, 1080.918
696.176, 1464.945
697.475, 1169.561
698.774, 1544.898
700.072, 1655.246
701.371, 1608.053
702.669, 1445.490
703.967, 2247.105
705.265, 2675.072
706.562, 2866.422
707.860, 2802.281
709.157, 3786.816
710.454, 3673.043
711.751, 4221.455
713.047, 3769.102
714.344, 3763.076
715.640, 3267.590
716.936, 3271.021
718.232, 3699.408
719.527, 3782.543
720.823, 3905.928
722.118, 4358.459
723.413, 4437.432
724.708, 4121.305
726.002, 4093.609
727.297, 3221.412
728.591, 2948.186
729.885, 2514.926
731.179, 2040.021
732.472, 1561.887
733.766, 1339.219
735.059, 1221.359
736.352, 1040.754
737.645, 1001.523
738.937, 1102.027
740.230, 757.496
741.522, 1084.932
742.814, 764.662
744.106, 750.363
745.397, 531.699
746.689, 526.996
747.980, 500.262
749.271, 569.492
750.562, 571.688
751.853, 385.850
753.143, 496.977
754.433, 393.068
755.723, 223.127
757.013, 487.146
758.303, 105.131
759.592, 262.074
760.881, 300.977
762.170, 291.848
763.459, 189.682
764.748, 202.477
766.036, 352.230
767.325, 160.951
768.613, 243.629
769.901, 293.268
771.188, 14.131
772.476, 399.406
773.763, 59.094
775.050, 348.322
776.337, 114.707
777.624, 274.049
778.910, 255.355
780.196, 201.623
781.482, 184.857
782.768, 78.090
784.054, 267.277
785.339, 323.490
786.625, 67.666
787.910, 336.844
789.195, 116.984
790.479, 209.086
791.764, 310.150
793.048, 116.180
794.332, 281.170
795.616, 109.125
796.900, 229.082
798.183, 96.994
799.467, 243.820
800.750, 87.406
802.033, 33.738
803.316, 305.854
804.598, 273.592
805.880, 308.768
807.163, 136.092
808.445, 46.404
809.726, 25.322
811.008, 138.895
812.289, 172.930
813.570, 7.096
814.851, 121.062
816.132, 14.000
817.413, 117.113
818.693, 281.652
819.973, 51.389
821.253, 371.078
822.533, 183.734
823.813, 44.652
825.092, 0.877
826.371, 19.352
827.650, 106.225
828.929, 201.117
830.208, 153.418
831.486, 198.318
832.764, 92.215
834.042, 2.801
835.320, 76.229
836.598, 248.645
837.875, 59.467
839.152, 22.330
840.429, 196.094
841.706, 80.174
842.983, 100.520
844.259, 432.072
845.536, 101.365
846.812, 77.086
848.088, 75.504
849.363, 161.816
850.639, 253.107
851.914, 19.635
853.189, 63.562
854.464, 4.705
855.739, 42.893
857.013, 17.883
858.288, 155.898
859.562, 295.877
860.836, 175.812
862.110, 28.711
863.383, 331.564
864.656, 72.617
865.930, 231.109
867.203, 151.797
868.475, 262.441
869.748, 36.049
871.020, 285.607
872.292, 338.131
873.564, 271.617
874.836, 228.064
876.108, 115.473
877.379, 504.838
878.650, 259.168
879.922, 487.459
881.192, 375.715
882.463, 386.938
883.733, 277.127
885.004, 324.277
886.274, 205.395
887.544, 242.658
888.813, 173.510
890.083, 315.506
891.352, 444.467
892.621, 530.395
893.890, 382.291
895.159, 292.152
896.427, 290.977
897.695, 677.764
898.964, 417.521
900.232, 591.242
901.499, 377.932
902.767, 481.586
904.034, 399.209
905.301, 458.799
906.568, 628.355
907.835, 660.877
909.102, 578.980
910.368, 550.439
911.634, 823.973
912.900, 829.135
914.166, 1185.424
915.432, 869.641
916.697, 975.395
917.962, 1491.172
919.227, 1310.422
920.492, 1340.961
921.757, 1078.812
923.021, 1104.836
924.285, 1230.691
925.550, 1007.805
926.813, 925.785
928.077, 748.324
929.341, 735.449
930.604, 830.211
931.867, 608.863
933.130, 751.906
934.393, 1032.199
935.655, 659.195
936.918, 1163.117
938.180, 839.047
939.442, 832.879
940.703, 1177.664
941.965, 1157.051
943.226, 1180.398
944.488, 1308.496
945.749, 1813.613
947.009, 1982.574
948.270, 2151.203
949.530, 2577.312
950.791, 2695.344
952.051, 2522.441
953.311, 2041.035
954.570, 2334.961
955.830, 2097.254
957.089, 1843.082
958.348, 1762.328
959.607, 2010.832
960.866, 1933.887
962.124, 2081.234
963.383, 2715.680
964.641, 3168.727
965.899, 4128.066
967.156, 5104.375
968.414, 6907.945
969.671, 9213.438
970.928, 10650.340
972.185, 11728.230
973.442, 10580.422
974.699, 9013.824
975.955, 6964.793
977.211, 4941.961
978.468, 4194.449
979.723, 3337.934
980.979, 2423.898
982.234, 2595.988
983.490, 1301.133
984.745, 1533.715
986.000, 1470.625
987.254, 814.551
988.509, 1152.660
989.763, 959.676
991.017, 924.184
992.271, 718.020
993.525, 763.250
994.779, 951.840
996.032, 826.113
997.285, 832.504
998.538, 414.102
999.791, 972.238
1001.044, 432.988
1002.296, 784.836
1003.548, 803.426
1004.800, 816.902
1006.052, 991.582
1007.304, 891.137
1008.555, 1178.445
1009.807, 1256.590
1011.058, 1403.980
1012.309, 1623.926
1013.559, 1543.031
1014.810, 1091.016
1016.060, 1333.402
1017.310, 1199.527
1018.560, 908.305
1019.810, 1137.523
1021.060, 1067.859
1022.309, 893.203
1023.558, 1145.754
1024.807, 675.000
1026.056, 768.047
1027.305, 747.602
1028.553, 925.207
1029.801, 583.344
1031.049, 345.926
1032.297, 444.484
1033.545, 313.746
1034.793, 523.141
1036.040, 480.492
1037.287, 396.336
1038.534, 648.305
1039.781, 936.965
1041.027, 821.582
1042.274, 656.625
1043.520, 730.031
1044.766, 669.414
1046.012, 579.441
1047.257, 572.441
1048.503, 824.746
1049.748, 542.027
1050.993, 825.277
1052.238, 886.496
1053.483, 437.789
1054.727, 496.961
1055.971, 953.098
1057.216, 440.207
1058.459, 633.289
1059.703, 353.562
1060.947, 407.109
1062.190, 567.297
1063.433, 371.160
1064.676, 532.121
1065.919, 341.672
1067.162, 718.727
1068.404, 383.219
1069.646, 376.164
1070.888, 441.188
1072.130, 381.262
1073.372, 449.195
1074.613, 627.324
1075.855, 360.895
1077.096, 214.637
1078.337, 612.234
1079.578, 520.383
1080.818, 473.777
1082.059, 178.363
1083.299, 426.637
1084.539, 293.895
1085.779, 254.094
1087.018, 303.926
1088.258, 301.223
1089.497, 414.258
1090.736, 207.457
1091.975, 301.996
1093.213, 218.188
1094.452, 251.172
1095.690, 209.137
1096.928, 482.016
1098.166, 607.379
1099.404, 959.949
1100.642, 648.547
1101.879, 1099.223
1103.116, 904.336
1104.353, 1469.594
1105.590, 1543.434
1106.827, 2329.938
1108.063, 2100.418
1109.299, 2372.605
1110.536, 2342.207
1111.771, 2095.043
1113.007, 2049.820
1114.243, 1831.262
1115.478, 1453.941
1116.713, 1252.965
1117.948, 1058.750
1119.183, 930.473
1120.418, 630.934
1121.652, 851.629
1122.886, 703.789
1124.120, 734.832
1125.354, 306.633
1126.588, 404.383
1127.821, 140.668
1129.055, 252.777
1130.288, 171.086
1131.521, 199.090
1132.753, 66.195
1133.986, 49.977
1135.218, 508.016
1136.450, 213.367
1137.682, 542.863
1138.914, 47.586
1140.146, 43.219
1141.377, 96.789
1142.609, 170.137
1143.840, 112.645
1145.071, 441.023
1146.301, 216.305
1147.532, 181.996
1148.762, 33.719
1149.992, 86.242
1151.222, 203.660
1152.452, 498.059
1153.682, 24.441
1154.911, 461.383
1156.140, 196.074
1157.369, 396.148
1158.598, 490.297
1159.827, 535.285
1161.055, 281.090
1162.284, 402.898
1163.512, 573.539
1164.740, 563.871
1165.967, 713.820
1167.195, 789.832
1168.422, 792.707
1169.650, 895.129
1170.877, 641.383
1172.103, 862.066
1173.330, 700.766
1174.557, 1328.312
1175.783, 1489.375
1177.009, 1333.355
1178.235, 1976.465
1179.461, 2133.406
1180.686, 2433.590
1181.912, 3229.234
1183.137, 3263.543
1184.362, 3418.258
1185.587, 3161.547
1186.811, 3103.070
1188.036, 2874.922
1189.260, 2422.797
1190.484, 2225.234
1191.708, 1855.148
1192.932, 1367.320
1194.155, 1257.789
1195.378, 1030.684
1196.602, 936.352
1197.825, 727.309
1199.047, 870.539
1200.270, 576.457
1201.492, 879.020
1202.715, 780.758
1203.937, 657.488
1205.159, 651.195
1206.380, 556.594
1207.602, 484.527
1208.823, 326.691
1210.044, 397.871
1211.265, 370.066
1212.486, 462.074
1213.707, 334.949
1214.927, 465.340
1216.147, 349.934
1217.367, 326.078
1218.587, 307.441
1219.807, 334.703
1221.027, 284.414
1222.246, 47.445
1223.465, 370.352
1224.684, 672.652
1225.903, 257.266
1227.121, 191.602
1228.340, 376.844
1229.558, 443.336
1230.776, 199.223
1231.994, 204.645
1233.212, 522.766
1234.429, 401.953
1235.646, 76.934
1236.864, 646.934
1238.081, 317.230
1239.297, 389.609
1240.514, 605.500
1241.730, 246.383
1242.947, 192.938
1244.163, 126.914
1245.378, 485.754
1246.594, 477.434
1247.810, 28.035
1249.025, 579.320
1250.240, 300.527
1251.455, 61.590
1252.670, 236.477
1253.885, 94.219
1255.099, 291.801
1256.313, 24.215
1257.527, 53.949
1258.741, 358.543
1259.955, 7.465
1261.168, 167.039
1262.382, 277.633
1263.595, 326.070
1264.808, 347.359
1266.021, 376.504
1267.233, 327.488
1268.446, 441.348
1269.658, 216.059
1270.870, 504.633
1272.082, 264.703
1273.294, 93.992
1274.505, 298.715
1275.716, 317.109
1276.928, 41.445
1278.139, 440.363
1279.349, 50.355
1280.560, 155.418
1281.770, 102.668
1282.981, 92.418
1284.191, 63.945
1285.401, 127.113
1286.610, 7.699
1287.820, 38.676
1289.029, 22.578
1290.239, 290.047
1291.448, 7.168
1292.656, 192.480
1293.865, 121.043
1295.073, 54.789
1296.282, 97.941
1297.490, 101.031
1298.698, 8.621
1299.906, 56.336
1301.113, 27.574
1302.320, 48.770
1303.528, 122.906
1304.735, 222.148
1305.942, 158.684
1307.148, 328.387
1308.355, 88.074
1309.561, 433.344
1310.767, 42.570
1311.973, 164.602
1313.179, 233.496
1314.384, 622.293
1315.590, 207.965
1316.795, 305.520
1318.000, 67.957
1319.205, 322.160
1320.410, 430.359
1321.614, 26.555
1322.819, 401.484
1324.023, 221.672
1325.227, 597.234
1326.431, 132.434
1327.634, 143.246
1328.838, 120.680
1330.041, 521.988
1331.244, 454.543
1332.447, 273.723
1333.650, 431.848
1334.852, 434.348
1336.055, 305.746
1337.257, 470.176
1338.459, 385.938
1339.661, 509.441
1340.862, 546.094
1342.064, 463.988
1343.265, 370.930
1344.466, 425.555
1345.667, 492.074
1346.868, 845.770
1348.068, 391.828
1349.269, 388.379
1350.469, 802.465
1351.669, 562.223
1352.869, 702.051
1354.069, 824.406
1355.268, 423.016
1356.468, 898.477
1357.667, 901.570
1358.866, 533.379
1360.065, 850.148
1361.263, 506.707
1362.462, 852.992
1363.660, 921.109
1364.858, 514.895
1366.056, 733.309
1367.254, 833.680
1368.451, 833.852
1369.649, 729.621
1370.846, 867.062
1372.043, 595.449
1373.240, 556.871
1374.436, 800.523
1375.633, 697.945
1376.829, 690.488
1378.025, 694.582
1379.221, 1202.691
1380.417, 2240.266
1381.613, 2967.996
1382.808, 4177.461
1384.003, 3764.781
1385.199, 2548.074
1386.393, 1377.766
1387.588, 1205.809
1388.783, 711.324
1389.977, 645.141
1391.171, 580.203
1392.365, 570.539
1393.559, 747.070
1394.753, 550.961
1395.946, 570.715
1397.140, 415.516
1398.333, 471.668
1399.526, 511.125
1400.719, 694.070
1401.911, 441.512
1403.104, 462.547
1404.296, 165.270
1405.488, 739.613
1406.680, 5.473
1407.872, 364.262
1409.063, 788.930
1410.255, 53.844
1411.446, 659.262
1412.637, 352.312
1413.828, 513.473
1415.018, 664.750
1416.209, 489.184
1417.399, 327.848
1418.589, 624.043
1419.779, 175.824
1420.969, 458.297
1422.159, 54.902
1423.348, 535.020
1424.537, 571.969
1425.726, 376.539
1426.915, 445.090
1428.104, 347.719
1429.293, 162.523
1430.481, 57.273
1431.669, 505.520
1432.857, 318.004
1434.045, 1.859
1435.233, 0.000
##END=



