##NAMES=Cordierite
##RRUFFID=R040084
##IDEAL CHEMISTRY=Mg_2_Al_3_(AlSi_5_)O_18_
##LOCALITY=Norway
##OWNER=RRUFF
##SOURCE=University of Arizona Mineral Museum
##DESCRIPTION=Purple coarsely crystalline massive
##STATUS=The identification of this mineral has been confirmed by X-ray diffraction and chemical analysis
##URL=rruff.info/R040084
##MEASURED CHEMISTRY=(Mg_1.88_Fe^2+^_0.11_Ca_0.01_)_Σ=2_(Al_3.95_Fe^3+^_0.05_)_Σ=4_(Si_4.96_Al_0.04_)_Σ=5_O_18_·0.90H_2_O·Na_0.04_ ; H_2_O estimated by difference and verified by Raman spectroscopy
##PIN_ID=L00196
##ORIENTATION=Laser parallel to -c* (0 0 -1). Fiducial mark perpendicular to laser is parallel to a [1 0 0]
98.090, 0.000
99.488, 30.864
100.885, 35.988
102.283, 14.248
103.680, 59.576
105.077, 149.653
106.473, 391.571
107.870, 542.538
109.266, 770.466
110.662, 823.850
112.057, 1311.785
113.453, 1713.863
114.848, 2219.481
116.243, 2827.942
117.638, 3908.642
119.032, 5221.154
120.426, 7395.176
121.820, 9870.469
123.214, 10906.994
124.608, 10485.259
126.001, 9035.347
127.394, 8047.946
128.787, 8461.990
130.179, 7916.426
131.571, 6871.562
132.963, 5086.586
134.355, 3661.523
135.747, 2596.401
137.138, 1991.275
138.529, 1626.213
139.920, 1391.236
141.311, 1366.328
142.701, 981.478
144.091, 966.677
145.481, 971.930
146.870, 898.661
148.260, 905.115
149.649, 891.752
151.038, 1202.933
152.426, 1337.940
153.815, 1960.407
155.203, 2479.537
156.591, 3052.018
157.979, 3972.438
159.366, 4150.281
160.753, 4096.296
162.140, 3338.883
163.527, 2725.897
164.913, 1909.593
166.300, 1493.407
167.686, 1037.328
169.071, 521.343
170.457, 425.441
171.842, 209.612
173.227, 383.995
174.612, 208.881
175.996, 104.205
177.381, 120.004
178.765, 56.109
180.149, 57.860
181.532, 38.461
182.915, 64.498
184.299, 100.474
185.681, 76.423
187.064, 162.361
188.446, 18.301
189.828, 164.254
191.210, 70.256
192.592, 186.401
193.973, 262.581
195.355, 1.222
196.736, 284.993
198.116, 1.223
199.497, 57.467
200.877, 76.272
202.257, 39.999
203.637, 86.286
205.016, 67.418
206.395, 8.888
207.774, 123.791
209.153, 97.130
210.532, 56.115
211.910, 110.001
213.288, 56.110
214.666, 127.784
216.043, 1.679
217.421, 105.580
218.798, 40.531
220.175, 23.301
221.551, 7.093
222.928, 89.253
224.304, 64.259
225.680, 82.265
227.055, 101.209
228.431, 195.323
229.806, 291.845
231.181, 558.348
232.556, 874.808
233.930, 1291.205
235.304, 2217.546
236.678, 3223.805
238.052, 4579.984
239.426, 6486.084
240.799, 7052.100
242.172, 7218.064
243.545, 5703.994
244.917, 4749.872
246.290, 3750.150
247.662, 3121.198
249.034, 2921.730
250.405, 2539.507
251.777, 2892.097
253.148, 3254.990
254.519, 4300.267
255.889, 5609.689
257.260, 7490.818
258.630, 11014.643
260.000, 14612.836
261.370, 18397.645
262.739, 17472.355
264.108, 13314.666
265.477, 8977.965
266.846, 5491.885
268.215, 3616.121
269.583, 2310.925
270.951, 1696.035
272.319, 1141.395
273.686, 876.959
275.054, 632.695
276.421, 348.577
277.788, 514.582
279.154, 150.691
280.521, 397.062
281.887, 265.444
283.253, 271.774
284.619, 526.350
285.984, 312.780
287.349, 490.435
288.714, 556.938
290.079, 623.466
291.444, 960.109
292.808, 1106.659
294.172, 1503.206
295.536, 1489.750
296.899, 1686.286
298.263, 1642.815
299.626, 1439.337
300.989, 1365.972
302.351, 1192.479
303.714, 1278.997
305.076, 1165.490
306.438, 1281.975
307.799, 1318.450
309.161, 1044.916
310.522, 891.374
311.883, 477.812
313.244, 354.232
314.604, 50.592
315.965, 166.909
317.325, 133.171
318.684, 110.655
320.044, 75.359
321.403, 71.285
322.762, 397.131
324.121, 582.952
325.480, 908.758
326.838, 1204.519
328.196, 1220.216
329.554, 1185.910
330.912, 851.947
332.270, 487.631
333.627, 453.309
334.984, 278.981
336.341, 395.087
337.697, 262.666
339.053, 431.595
340.409, 278.753
341.765, 287.313
343.121, 383.320
344.476, 180.925
345.831, 547.604
347.186, 655.479
348.541, 822.637
349.895, 1251.378
351.250, 1187.825
352.604, 1763.493
353.957, 1630.831
355.311, 2017.273
356.664, 2093.656
358.017, 2229.352
359.370, 2424.568
360.722, 2560.422
362.075, 3215.443
363.427, 3690.791
364.779, 5032.578
366.130, 6355.936
367.482, 7731.228
368.833, 8483.327
370.184, 7058.457
371.535, 5807.793
372.885, 4192.941
374.235, 3085.163
375.585, 2374.771
376.935, 1549.863
378.285, 1338.514
379.634, 972.965
380.983, 762.665
382.332, 607.690
383.680, 431.195
385.029, 495.358
386.377, 210.330
387.725, 311.907
389.073, 186.842
390.420, 13.478
391.767, 341.398
393.114, 23.743
394.461, 101.074
395.808, 74.128
397.154, 39.385
398.500, 75.314
399.846, 120.007
401.191, 94.606
402.537, 50.799
403.882, 136.251
405.227, 21.771
406.571, 97.329
407.916, 107.056
409.260, 38.600
410.604, 74.320
411.948, 59.841
413.291, 26.073
414.635, 17.944
415.978, 48.143
417.321, 275.684
418.663, 0.567
420.006, 143.124
421.348, 336.760
422.690, 210.369
424.031, 603.963
425.373, 687.545
426.714, 1171.127
428.055, 1544.702
429.396, 1578.270
430.736, 1801.827
432.077, 1425.371
433.417, 1168.901
434.757, 892.417
436.096, 625.914
437.436, 469.395
438.775, 272.856
440.114, 366.300
441.452, 139.725
442.791, 23.128
444.129, 216.492
445.467, 80.164
446.805, 213.087
448.142, 56.317
449.480, 199.517
450.817, 192.694
452.154, 165.850
453.490, 398.981
454.827, 382.095
456.163, 399.117
457.499, 638.259
458.835, 291.311
460.170, 374.340
461.505, 167.348
462.840, 350.335
464.175, 193.299
465.510, 206.241
466.844, 209.160
468.178, 282.056
469.512, 264.930
470.846, 367.780
472.179, 580.609
473.512, 753.414
474.845, 686.196
476.178, 928.288
477.511, 961.027
478.843, 1213.758
480.175, 1286.620
481.507, 1099.135
482.839, 1211.551
484.170, 754.198
485.501, 986.834
486.832, 599.447
488.163, 362.041
489.493, 474.619
490.823, 117.178
492.153, 299.716
493.483, 212.233
494.813, 204.733
496.142, 97.216
497.471, 9.675
498.800, 17.901
500.129, 24.471
501.457, 13.148
502.785, 109.219
504.113, 158.436
505.441, 43.832
506.769, 163.931
508.096, 18.181
509.423, 19.738
510.750, 52.290
512.077, 164.296
513.403, 6.331
514.729, 48.330
516.055, 50.320
517.381, 142.283
518.706, 151.414
520.032, 96.228
521.357, 258.210
522.681, 270.180
524.006, 422.137
525.330, 484.131
526.655, 276.149
527.978, 518.158
529.302, 490.160
530.626, 502.144
531.949, 624.145
533.272, 686.210
534.595, 864.346
535.917, 890.477
537.239, 1312.646
538.562, 1314.842
539.883, 1627.037
541.205, 2009.239
542.527, 2261.423
543.848, 2633.595
545.169, 2955.751
546.489, 3607.889
547.810, 4490.023
549.130, 5637.178
550.450, 7010.248
551.770, 8802.358
553.090, 10889.757
554.409, 13301.710
555.728, 14365.880
557.047, 15582.225
558.366, 14873.775
559.685, 13795.030
561.003, 13336.873
562.321, 12422.435
563.639, 12242.602
564.956, 12019.932
566.274, 12092.482
567.591, 11464.271
568.908, 11110.461
570.225, 11754.387
571.541, 12105.275
572.857, 13692.187
574.173, 15451.683
575.489, 17417.178
576.805, 20449.008
578.120, 21587.469
579.435, 22629.184
580.750, 21830.967
582.065, 19572.729
583.380, 16594.471
584.694, 13746.202
586.008, 11187.912
587.322, 8909.604
588.635, 7321.277
589.949, 6272.944
591.262, 4954.580
592.575, 4566.302
593.887, 3817.900
595.200, 3109.480
596.512, 2881.199
597.824, 2462.741
599.136, 2534.684
600.447, 1946.011
601.759, 1815.384
603.070, 1737.532
604.381, 1560.789
605.692, 1512.658
607.002, 1343.039
608.312, 1154.672
609.622, 1366.293
610.932, 1467.545
612.242, 1619.904
613.551, 1011.611
614.860, 1103.217
616.169, 1205.398
617.478, 1006.656
618.786, 1258.475
620.094, 1150.328
621.402, 1321.527
622.710, 1613.080
624.018, 1224.240
625.325, 1695.535
626.632, 1397.023
627.939, 1548.125
629.246, 1439.588
630.552, 1150.652
631.859, 1161.924
633.165, 963.475
634.471, 964.482
635.776, 818.805
637.082, 569.771
638.387, 801.756
639.692, 432.832
640.996, 523.785
642.301, 525.998
643.605, 347.332
644.909, 518.404
646.213, 380.219
647.516, 421.811
648.820, 602.998
650.123, 304.021
651.426, 795.619
652.729, 557.244
654.031, 648.045
655.333, 937.643
656.636, 685.576
657.937, 1194.748
659.239, 1090.754
660.540, 1531.617
661.842, 1791.330
663.142, 2151.088
664.443, 2850.037
665.744, 3399.971
667.044, 4417.457
668.344, 5628.438
669.644, 6680.859
670.944, 7990.129
672.243, 8184.520
673.542, 7694.934
674.841, 6889.729
676.140, 5529.744
677.438, 4615.400
678.737, 3466.846
680.035, 2769.451
681.333, 2419.135
682.630, 1747.744
683.928, 1800.887
685.225, 1311.102
686.522, 1321.627
687.819, 1244.705
689.115, 1214.920
690.412, 1321.037
691.708, 1074.082
693.004, 1065.492
694.300, 929.582
695.595, 743.887
696.890, 794.754
698.185, 645.523
699.480, 736.227
700.775, 786.727
702.069, 537.404
703.363, 967.814
704.657, 798.336
705.951, 970.656
707.244, 1201.164
708.538, 801.488
709.831, 1371.650
711.124, 1372.133
712.416, 1598.842
713.709, 1634.107
715.001, 1646.311
716.293, 1511.320
717.585, 1161.750
718.876, 1261.686
720.167, 1211.334
721.459, 900.971
722.749, 1151.311
724.040, 990.922
725.331, 811.297
726.621, 1000.908
727.911, 711.248
729.201, 641.344
730.490, 710.896
731.780, 560.666
733.069, 440.211
734.358, 579.709
735.646, 439.322
736.935, 598.758
738.223, 428.590
739.511, 567.959
740.799, 357.299
742.087, 566.604
743.374, 435.877
744.661, 275.115
745.948, 484.322
747.235, 253.496
748.522, 402.637
749.808, 431.744
751.094, 240.818
752.380, 489.861
753.666, 178.871
754.951, 447.844
756.236, 316.785
757.521, 115.703
758.806, 424.584
760.091, 173.469
761.375, 242.316
762.659, 221.135
763.943, 219.918
765.227, 328.666
766.511, 47.385
767.794, 186.062
769.077, 204.701
770.360, 63.307
771.643, 281.873
772.925, 140.406
774.207, 98.900
775.489, 307.355
776.771, 185.779
778.053, 534.168
779.334, 242.527
780.615, 190.850
781.896, 299.139
783.177, 187.418
784.457, 355.662
785.738, 223.875
787.018, 152.053
788.298, 340.195
789.577, 11.693
790.857, 386.355
792.136, 44.371
793.415, 252.352
794.694, 300.299
795.972, 28.213
797.251, 176.082
798.529, 233.918
799.807, 51.721
801.084, 99.480
802.362, 107.203
803.639, 224.893
804.916, 82.547
806.193, 70.164
807.470, 157.740
808.746, 85.283
810.022, 152.797
811.298, 119.709
812.574, 92.326
813.850, 124.967
815.125, 137.775
816.400, 209.408
817.675, 106.561
818.950, 33.732
820.224, 230.871
821.499, 17.992
822.773, 154.926
824.047, 112.020
825.320, 41.064
826.594, 45.781
827.867, 37.406
829.140, 120.666
830.413, 55.619
831.685, 22.506
832.958, 0.990
834.230, 114.541
835.502, 98.199
836.774, 11.965
838.045, 314.215
839.316, 180.363
840.588, 13.520
841.858, 287.461
843.129, 223.102
844.400, 15.910
845.670, 150.275
846.940, 34.768
848.210, 39.326
849.479, 36.049
850.749, 51.387
852.018, 58.092
853.287, 98.932
854.556, 47.197
855.824, 102.400
857.093, 67.572
858.361, 17.289
859.629, 57.799
860.896, 92.854
862.164, 127.879
863.431, 42.873
864.698, 92.164
865.965, 70.012
867.232, 22.490
868.498, 67.742
869.764, 36.936
871.030, 151.580
872.296, 336.199
873.562, 280.793
874.827, 55.363
876.092, 259.902
877.357, 34.418
878.622, 458.904
879.886, 33.365
881.151, 87.797
882.415, 512.201
883.679, 156.582
884.942, 200.939
886.206, 265.273
887.469, 169.584
888.732, 243.945
889.995, 98.143
891.258, 292.383
892.520, 256.605
893.782, 280.805
895.044, 384.982
896.306, 289.141
897.568, 333.264
898.829, 417.381
900.090, 501.375
901.351, 375.455
902.612, 479.512
903.872, 573.395
905.133, 627.418
906.393, 461.000
907.653, 774.984
908.912, 648.951
910.172, 832.219
911.431, 1146.148
912.690, 1029.619
913.949, 1303.363
915.208, 2016.996
916.466, 2090.611
917.724, 2464.455
918.982, 2967.256
920.240, 2950.680
921.498, 2864.166
922.755, 2277.043
924.012, 2170.811
925.269, 1613.986
926.526, 1466.975
927.782, 1380.701
929.039, 1014.025
930.295, 947.725
931.551, 1321.262
932.806, 734.570
934.062, 1183.811
935.317, 947.080
936.572, 1020.715
937.827, 1194.109
939.082, 797.195
940.336, 1421.090
941.590, 1191.350
942.844, 1504.934
944.098, 1728.520
945.352, 1681.980
946.605, 2545.533
947.859, 2867.797
949.112, 3480.904
950.364, 3874.244
951.617, 4076.820
952.869, 3679.586
954.121, 3532.371
955.373, 2915.686
956.625, 2938.396
957.877, 2621.047
959.128, 2654.062
960.379, 3076.760
961.630, 3369.740
962.881, 4123.211
964.131, 4678.396
965.381, 5981.240
966.631, 7943.584
967.881, 10766.770
969.131, 15089.514
970.380, 19431.947
971.630, 22035.203
972.879, 23287.219
974.128, 19298.514
975.376, 14761.258
976.625, 11489.723
977.873, 7892.184
979.121, 5970.902
980.369, 4784.410
981.616, 3322.018
982.864, 2874.279
984.111, 2245.354
985.358, 1729.320
986.605, 1724.457
987.851, 1134.914
989.097, 1298.279
990.344, 911.299
991.589, 711.750
992.835, 975.045
994.081, 632.412
995.326, 702.924
996.571, 685.047
997.816, 554.471
999.061, 853.691
1000.305, 566.320
1001.550, 579.033
1002.794, 991.844
1004.037, 554.836
1005.281, 1217.629
1006.525, 1190.664
1007.768, 1443.566
1009.011, 1724.773
1010.254, 1997.781
1011.496, 2050.955
1012.739, 2044.295
1013.981, 1677.289
1015.223, 1794.115
1016.465, 1402.387
1017.706, 1593.697
1018.948, 1292.320
1020.189, 1045.500
1021.430, 989.176
1022.671, 703.176
1023.911, 437.180
1025.152, 740.514
1026.392, 304.559
1027.632, 367.844
1028.872, 491.971
1030.111, 315.352
1031.350, 348.975
1032.590, 233.271
1033.829, 267.355
1035.067, 230.535
1036.306, 36.047
1037.544, 140.316
1038.782, 254.742
1040.020, 118.746
1041.258, 283.188
1042.495, 307.688
1043.733, 292.193
1044.970, 286.707
1046.207, 231.252
1047.443, 145.803
1048.680, 400.361
1049.916, 144.932
1051.152, 219.508
1052.388, 54.154
1053.624, 338.809
1054.859, 143.469
1056.094, 198.191
1057.329, 372.920
1058.564, 357.654
1059.799, 102.438
1061.033, 477.227
1062.268, 242.033
1063.502, 276.846
1064.735, 591.664
1065.969, 146.508
1067.202, 531.354
1068.436, 56.207
1069.669, 271.746
1070.902, 346.654
1072.134, 91.570
1073.367, 427.738
1074.599, 52.668
1075.831, 27.752
1077.062, 352.701
1078.294, 97.654
1079.525, 44.244
1080.757, 149.209
1081.988, 195.826
1083.218, 309.369
1084.449, 34.379
1085.679, 99.574
1086.909, 295.648
1088.139, 29.324
1089.369, 197.373
1090.599, 462.418
1091.828, 62.539
1093.057, 284.479
1094.286, 379.523
1095.515, 134.939
1096.744, 770.068
1097.972, 205.121
1099.200, 842.217
1100.428, 697.279
1101.656, 622.344
1102.883, 1477.336
1104.111, 912.406
1105.338, 1658.977
1106.565, 1964.379
1107.791, 1639.463
1109.018, 2155.877
1110.244, 2070.963
1111.470, 1676.096
1112.696, 1782.133
1113.922, 1077.303
1115.147, 1152.521
1116.373, 1077.746
1117.598, 252.971
1118.823, 838.199
1120.047, 563.441
1121.272, 138.688
1122.496, 633.984
1123.720, 209.285
1124.944, 234.607
1126.168, 759.930
1127.391, 65.268
1128.615, 610.646
1129.838, 366.049
1131.061, 361.451
1132.283, 846.861
1133.506, 22.312
1134.728, 779.061
1135.950, 534.859
1137.172, 250.344
1138.394, 777.846
1139.615, 634.867
1140.837, 510.432
1142.058, 1060.344
1143.279, 496.182
1144.499, 783.912
1145.720, 918.115
1146.940, 893.812
1148.160, 1161.748
1149.380, 1201.553
1150.600, 1477.795
1151.819, 1385.414
1153.038, 892.193
1154.257, 1577.879
1155.476, 1604.045
1156.695, 1459.984
1157.913, 2037.047
1159.132, 2005.420
1160.350, 1631.014
1161.568, 2297.832
1162.785, 1724.352
1164.003, 2579.959
1165.220, 2508.242
1166.437, 2564.420
1167.654, 3401.010
1168.871, 3458.471
1170.087, 4164.012
1171.304, 4982.992
1172.520, 5301.512
1173.736, 6976.992
1174.951, 8169.094
1176.167, 8915.820
1177.382, 12131.230
1178.597, 13931.262
1179.812, 15926.623
1181.027, 18613.467
1182.241, 19168.826
1183.455, 19484.105
1184.669, 17331.375
1185.883, 14277.533
1187.097, 12532.721
1188.311, 9620.070
1189.524, 7685.588
1190.737, 6990.684
1191.950, 5131.670
1193.162, 4446.701
1194.375, 3832.779
1195.587, 2799.385
1196.799, 2714.311
1198.011, 2254.350
1199.223, 1979.268
1200.434, 2304.094
1201.646, 1142.225
1202.857, 1616.973
1204.068, 1431.984
1205.279, 836.395
1206.489, 1261.029
1207.699, 787.613
1208.909, 803.004
1210.119, 1047.521
1211.329, 556.062
1212.539, 820.502
1213.748, 924.906
1214.957, 308.744
1216.166, 1003.059
1217.375, 847.344
1218.583, 172.781
1219.792, 946.967
1221.000, 441.604
1222.208, 516.934
1223.415, 1070.996
1224.623, 95.785
1225.830, 709.750
1227.037, 883.674
1228.244, 461.961
1229.451, 865.797
1230.658, 470.232
1231.864, 264.859
1233.070, 998.559
1234.276, 121.932
1235.482, 675.541
1236.687, 599.109
1237.893, 71.650
1239.098, 795.109
1240.303, 448.547
1241.508, 521.961
1242.712, 925.344
1243.917, 78.664
1245.121, 691.945
1246.325, 815.205
1247.529, 81.559
1248.732, 1041.600
1249.936, 204.736
1251.139, 488.186
1252.342, 871.266
1253.545, 254.324
1254.747, 827.357
1255.950, 1110.361
1257.152, 373.340
1258.354, 946.289
1259.556, 609.203
1260.758, 642.928
1261.959, 1535.771
1263.160, 828.463
1264.361, 1413.928
1265.562, 1986.502
1266.763, 1458.961
1267.963, 2412.201
1269.164, 2144.576
1270.364, 1346.850
1271.563, 1798.965
1272.763, 770.984
1273.963, 632.959
1275.162, 714.766
1276.361, 656.520
1277.560, 669.531
1278.759, 331.043
1279.957, 562.525
1281.155, 1104.709
1282.354, 165.885
1283.551, 277.287
1284.749, 818.404
1285.947, 280.795
1287.144, 600.992
1288.341, 171.549
1289.538, 27.973
1290.735, 883.797
1291.931, 154.033
1293.128, 115.889
1294.324, 525.234
1295.520, 195.053
1296.716, 395.354
1297.911, 655.012
1299.107, 375.461
1300.302, 595.434
1301.497, 324.701
1302.692, 103.893
1303.886, 744.342
1305.081, 66.607
1306.275, 452.172
1307.469, 823.207
1308.663, 248.160
1309.856, 540.965
1311.050, 439.365
1312.243, 227.693
1313.436, 785.941
1314.629, 74.123
1315.822, 92.217
1317.014, 1070.615
1318.206, 151.455
1319.398, 376.324
1320.590, 894.020
1321.782, 438.373
1322.974, 1099.006
1324.165, 326.506
1325.356, 206.320
1326.547, 1080.686
1327.738, 207.609
1328.928, 464.447
1330.119, 1131.186
1331.309, 82.156
1332.499, 594.363
1333.688, 771.227
1334.878, 17.580
1336.067, 1183.832
1337.256, 430.287
1338.445, 296.359
1339.634, 1102.352
1340.823, 131.725
1342.011, 674.047
1343.199, 1040.258
1344.388, 104.123
1345.575, 1061.334
1346.763, 616.715
1347.950, 47.967
1349.138, 1227.246
1350.325, 212.391
1351.512, 487.461
1352.698, 1252.471
1353.885, 47.418
1355.071, 882.291
1356.257, 1227.898
1357.443, 47.328
1358.629, 1396.707
1359.814, 682.844
1361.000, 397.422
1362.185, 1480.717
1363.370, 566.648
1364.554, 390.963
1365.739, 1565.398
1366.923, 499.818
1368.107, 722.598
1369.291, 886.973
1370.475, 218.645
1371.659, 1025.416
1372.842, 530.357
1374.025, 474.363
1375.208, 2527.518
1376.391, 2574.086
1377.574, 5886.627
1378.756, 10840.922
1379.939, 10510.775
1381.121, 8145.711
1382.303, 4895.184
1383.484, 2304.885
1384.666, 2742.512
1385.847, 1401.881
1387.028, 1019.795
1388.209, 2088.848
1389.390, 696.758
1390.570, 1235.062
1391.751, 1854.225
1392.931, 623.305
1394.111, 1812.301
1395.291, 1201.215
1396.470, 710.047
1397.649, 2058.811
1398.829, 947.506
1400.008, 906.141
1401.187, 1733.221
1402.365, 521.334
1403.544, 1265.520
1404.722, 1794.658
1405.900, 129.867
1407.078, 1657.281
1408.255, 974.695
1409.433, 488.955
1410.610, 1814.793
1411.787, 632.621
1412.964, 753.938
1414.141, 1775.895
1415.317, 711.070
1416.494, 756.332
1417.670, 1448.332
1418.846, 309.418
1420.022, 1300.945
1421.197, 1041.461
1422.373, 337.703
1423.548, 1580.137
1424.723, 445.582
1425.898, 495.312
1427.072, 1551.168
1428.247, 254.227
1429.421, 968.781
1430.595, 1277.957
1431.769, 147.547
1432.942, 1150.312
1434.116, 901.688
1435.289, 177.781
1436.462, 1406.613
1437.635, 337.184
1438.808, 642.152
1439.981, 1767.508
1441.153, 78.816
1442.325, 1137.898
1443.497, 1345.883
1444.669, 125.387
1445.840, 1276.164
1447.012, 1249.223
1448.183, 33.746
1449.354, 1855.977
1450.525, 245.543
1451.696, 514.922
1452.866, 1954.062
1454.036, 472.949
1455.206, 701.582
1456.376, 1809.844
1457.546, 286.965
1458.716, 1464.391
1459.885, 1231.359
1461.054, 407.867
1462.223, 1821.938
1463.392, 1127.824
1464.560, 296.738
1465.729, 2290.445
1466.897, 565.914
1468.065, 961.871
1469.233, 1847.891
1470.400, 450.328
1471.568, 1406.305
1472.735, 1750.617
1473.902, 216.285
1475.069, 1570.406
1476.236, 1517.871
1477.402, 241.008
1478.569, 2245.266
1479.735, 661.703
1480.901, 540.211
1482.066, 1933.258
1483.232, 176.746
1484.397, 1195.469
1485.562, 2015.641
1486.727, 581.969
1487.892, 1760.844
1489.057, 1139.715
1490.221, 386.883
1491.386, 1795.902
