##NAMES=Cordierite
##RRUFFID=R040081
##IDEAL CHEMISTRY=Mg_2_Al_3_(AlSi_5_)O_18_
##LOCALITY=Laramie Range, Wyoming, USA
##OWNER=RRUFF
##SOURCE=University of Arizona Mineral Museum
##DESCRIPTION=Blue to purple coarsely crystalline
##STATUS=The identification of this mineral has been confirmed by X-ray diffraction and chemical analysis
##URL=rruff.info/R040081
##MEASURED CHEMISTRY=(Mg_1.80_Fe^2+^_0.20_)_Σ=2_Al_4.00_(Si_4.96_Al_0.04_)_Σ=5_O_18_·0.86H_2_O·Na_0.04_ ; H_2_O estimated by difference and verified by Raman spectroscopy
##PIN_ID=M00044
##ORIENTATION=Laser parallel to -a* (-1 0 0). Fiducial mark perpendicular to laser is parallel to b [0 1 0]
79.427, 0.000
80.823, 6.625
82.218, 166.599
83.614, 248.540
85.009, 313.957
86.404, 485.627
87.798, 599.123
89.193, 780.987
90.587, 798.901
91.981, 890.187
93.375, 768.526
94.768, 679.940
96.161, 558.657
97.554, 543.173
98.947, 450.152
100.340, 308.108
101.732, 476.635
103.124, 900.412
104.516, 733.346
105.908, 1056.706
107.300, 712.826
108.691, 685.376
110.082, 681.223
111.473, 753.243
112.864, 1150.330
114.254, 2015.000
115.644, 4669.426
117.034, 8106.270
118.424, 7715.664
119.813, 5534.561
121.203, 3648.960
122.592, 3404.855
123.981, 3998.215
125.369, 5053.021
126.758, 6073.256
128.146, 6244.901
129.534, 5583.937
130.922, 4107.352
132.309, 2848.131
133.696, 1819.256
135.083, 1354.702
136.470, 790.448
137.857, 667.472
139.243, 457.755
140.630, 437.280
142.016, 347.030
143.401, 366.992
144.787, 472.148
146.172, 698.490
147.557, 848.544
148.942, 1313.295
150.327, 1814.312
151.711, 2598.366
153.096, 3535.801
154.480, 4419.875
155.863, 5173.238
157.247, 5555.740
158.630, 5288.437
160.013, 4282.420
161.396, 3084.835
162.779, 2121.816
164.161, 1359.810
165.544, 761.924
166.926, 453.180
168.308, 271.565
169.689, 224.125
171.070, 189.966
172.452, 164.931
173.833, 132.646
175.213, 144.084
176.594, 110.570
177.974, 171.039
179.354, 223.623
180.734, 227.383
182.114, 221.305
183.493, 287.325
184.872, 286.461
186.251, 388.656
187.630, 350.865
189.008, 393.076
190.387, 445.290
191.765, 717.508
193.143, 652.730
194.520, 452.954
195.898, 676.181
197.275, 493.411
198.652, 277.640
200.029, 305.864
201.405, 267.084
202.782, 196.299
204.158, 296.510
205.534, 390.716
206.909, 327.915
208.285, 258.107
209.660, 227.294
211.035, 64.473
212.410, 27.644
213.784, 74.194
215.159, 135.042
216.533, 72.900
217.907, 89.770
219.281, 51.651
220.654, 192.545
222.027, 179.452
223.400, 37.374
224.773, 190.309
226.146, 53.260
227.518, 16.226
228.891, 14.209
230.263, 108.763
231.634, 459.681
233.006, 711.541
234.377, 1279.330
235.748, 1787.894
237.119, 2429.515
238.490, 3020.160
239.860, 3056.619
241.231, 2895.471
242.601, 2661.020
243.970, 2457.923
245.340, 2324.670
246.709, 2360.343
248.079, 2743.898
249.448, 3285.056
250.816, 4408.104
252.185, 6123.802
253.553, 8544.892
254.921, 11873.840
256.289, 15676.438
257.657, 20258.107
259.024, 23100.031
260.391, 22585.094
261.758, 18551.664
263.125, 13873.476
264.492, 9706.473
265.858, 6808.288
267.224, 5162.000
268.590, 3769.117
269.956, 3108.266
271.321, 2417.688
272.687, 2212.472
274.052, 1837.181
275.416, 1809.316
276.781, 1729.482
278.146, 1763.439
279.510, 1788.342
280.874, 1978.181
282.237, 2182.605
283.601, 2372.489
284.964, 2770.746
286.327, 3563.655
287.690, 4317.748
289.053, 5396.999
290.416, 6913.877
291.778, 8025.740
293.140, 9367.193
294.502, 9751.084
295.863, 10211.986
297.225, 9971.898
298.586, 9880.819
299.947, 10059.741
301.308, 10405.670
302.668, 11132.603
304.029, 12067.536
305.389, 12489.470
306.749, 12115.401
308.108, 10601.330
309.468, 8359.259
310.827, 6073.182
312.186, 4130.052
313.545, 2948.884
314.903, 2116.647
316.262, 1572.355
317.620, 1604.999
318.978, 1674.632
320.336, 2159.260
321.693, 2883.883
323.051, 3994.499
324.408, 4947.105
325.765, 5921.704
327.121, 5372.288
328.478, 4193.859
329.834, 3132.416
331.190, 2321.959
332.546, 1624.486
333.902, 1401.997
335.257, 1075.490
336.612, 835.964
337.967, 753.421
339.322, 624.858
340.677, 683.275
342.031, 571.671
343.385, 602.090
344.739, 673.443
346.093, 577.773
347.446, 674.081
348.799, 746.365
350.153, 862.626
351.505, 895.863
352.858, 949.077
354.210, 1158.266
355.563, 1203.433
356.915, 1165.576
358.267, 1220.694
359.618, 1101.791
360.969, 1061.862
362.321, 946.910
363.672, 842.935
365.022, 725.935
366.373, 646.912
367.723, 567.864
369.073, 458.793
370.423, 428.699
371.773, 267.580
373.122, 295.437
374.471, 294.270
375.821, 64.079
377.169, 197.524
378.518, 131.255
379.866, 100.667
381.215, 95.623
382.563, 64.464
383.910, 93.138
385.258, 50.207
386.605, 103.260
387.952, 20.877
389.299, 51.534
390.646, 15.136
391.992, 21.180
393.339, 88.646
394.685, 3.089
396.031, 86.498
397.376, 119.118
398.722, 49.194
400.067, 75.539
401.412, 110.336
402.757, 5.241
404.101, 123.217
405.446, 141.315
406.790, 88.579
408.134, 19.906
409.478, 16.734
410.821, 62.645
412.165, 99.087
413.508, 53.617
414.851, 33.789
416.193, 12.830
417.536, 113.496
418.878, 14.265
420.220, 30.086
421.562, 139.970
422.904, 64.974
424.245, 14.939
425.586, 2.189
426.927, 47.630
428.268, 8.582
429.609, 12.852
430.949, 59.180
432.289, 45.782
433.629, 14.914
434.969, 18.374
436.309, 33.605
437.648, 19.840
438.987, 18.465
440.326, 29.277
441.665, 91.092
443.003, 20.014
444.342, 24.996
445.680, 16.040
447.018, 53.856
448.355, 28.285
449.693, 1.500
451.030, 29.226
452.367, 199.906
453.704, 77.561
455.041, 241.188
456.377, 213.788
457.713, 150.363
459.049, 245.911
460.385, 251.433
461.721, 290.954
463.056, 291.452
464.391, 314.939
465.726, 405.399
467.061, 482.834
468.395, 590.242
469.730, 745.638
471.064, 684.008
472.398, 1042.352
473.731, 1033.670
475.065, 1041.962
476.398, 1315.228
477.731, 1281.469
479.064, 1107.685
480.397, 984.876
481.729, 897.047
483.062, 761.193
484.394, 719.315
485.725, 699.411
487.057, 708.483
488.389, 679.529
489.720, 597.551
491.051, 567.243
492.382, 399.522
493.712, 409.479
495.043, 308.413
496.373, 157.322
497.703, 182.220
499.032, 143.101
500.362, 184.979
501.691, 252.889
503.020, 130.808
504.349, 291.752
505.678, 220.715
507.007, 273.712
508.335, 225.709
509.663, 312.721
510.991, 458.745
512.319, 411.774
513.646, 520.817
514.973, 534.858
516.300, 574.896
517.627, 682.941
518.954, 643.984
520.280, 846.005
521.607, 1003.045
522.933, 1016.079
524.259, 1110.092
525.584, 1348.096
526.910, 1490.079
528.235, 1664.041
529.560, 1869.979
530.885, 2130.896
532.209, 2365.791
533.534, 2750.664
534.858, 3250.516
536.182, 3718.345
537.506, 4374.159
538.829, 5199.966
540.152, 6246.757
541.476, 7711.536
542.799, 9366.296
544.121, 12062.061
545.444, 15210.806
546.766, 19540.549
548.088, 24873.480
549.410, 31743.211
550.732, 38946.059
552.053, 46399.828
553.375, 50795.496
554.696, 52151.191
556.017, 50135.824
557.337, 44561.809
558.658, 38157.172
559.978, 32298.729
561.298, 28188.002
562.618, 24328.775
563.938, 22119.080
565.257, 20986.182
566.576, 20065.508
567.895, 20632.205
569.214, 22219.775
570.533, 23962.535
571.851, 26495.947
573.170, 30189.148
574.488, 33223.332
575.805, 35419.988
577.123, 35933.254
578.440, 34801.699
579.758, 31458.102
581.075, 26637.562
582.391, 22547.678
583.708, 18056.709
585.024, 14718.685
586.341, 12153.968
587.657, 10101.459
588.972, 8435.651
590.288, 6996.899
591.603, 5986.953
592.918, 5397.722
594.233, 4805.631
595.548, 4242.178
596.863, 3902.746
598.177, 3477.577
599.491, 3193.117
600.805, 3006.533
602.119, 2779.005
603.432, 2729.044
604.746, 2663.734
606.059, 2513.794
607.372, 2464.689
608.685, 2637.445
609.997, 2552.590
611.309, 2929.762
612.621, 2892.978
613.933, 3097.144
615.245, 3467.308
616.557, 3794.469
617.868, 4243.627
619.179, 4736.061
620.490, 4841.668
621.801, 5328.840
623.111, 5265.990
624.421, 5220.137
625.731, 4607.281
627.041, 4412.276
628.351, 3739.416
629.660, 3285.556
630.970, 2992.691
632.279, 2386.825
633.588, 2189.958
634.896, 1860.089
636.205, 1833.219
637.513, 1531.347
638.821, 1558.283
640.129, 1526.410
641.437, 1533.535
642.744, 1563.180
644.051, 1561.993
645.358, 1648.907
646.665, 1622.029
647.972, 1704.152
649.278, 1786.274
650.584, 1965.281
651.890, 2328.305
653.196, 2400.428
654.502, 2864.319
655.807, 3068.568
657.113, 3509.035
658.418, 4410.215
659.722, 5221.492
661.027, 6504.989
662.331, 8111.717
663.636, 10518.900
664.940, 13383.185
666.244, 17034.928
667.547, 20612.736
668.851, 24069.305
670.154, 25697.387
671.457, 24815.170
672.760, 22450.500
674.062, 18719.121
675.365, 15085.604
676.667, 11713.684
677.969, 9218.240
679.271, 7295.373
680.572, 5752.730
681.874, 4809.201
683.175, 3936.495
684.476, 3328.547
685.777, 2930.594
687.077, 2474.637
688.378, 2297.676
689.678, 2134.710
690.978, 1941.738
692.278, 1648.765
693.577, 1790.787
694.877, 1693.805
696.176, 1907.819
697.475, 1761.829
698.774, 1753.837
700.072, 1879.839
701.371, 2003.840
702.669, 2143.838
703.967, 2464.832
705.265, 2908.828
706.562, 3337.821
707.860, 3693.826
709.157, 4335.834
710.454, 4515.839
711.751, 4873.852
713.047, 4642.861
714.344, 4441.910
715.640, 3708.961
716.936, 3126.040
718.232, 3009.158
719.527, 2786.290
720.823, 2609.464
722.118, 2679.686
723.413, 2422.942
724.708, 2201.217
726.002, 2110.500
727.297, 1661.812
728.591, 1549.163
729.885, 1398.542
731.179, 1168.926
732.472, 1019.326
733.766, 899.771
735.059, 968.234
736.352, 937.721
737.645, 853.259
738.937, 940.827
740.230, 851.408
741.522, 818.007
742.814, 830.610
744.106, 751.231
745.397, 774.873
746.689, 767.547
747.980, 839.249
749.271, 813.964
750.562, 885.691
751.853, 760.428
753.143, 751.188
754.433, 656.960
755.723, 485.757
757.013, 602.598
758.303, 353.460
759.592, 288.334
760.881, 303.231
762.170, 176.137
763.459, 106.067
764.748, 82.018
766.036, 113.979
767.325, 3.057
768.613, 74.903
769.901, 27.867
771.188, 80.834
772.476, 23.802
773.763, 81.226
775.050, 0.298
776.337, 44.377
777.624, 59.519
778.910, 57.419
780.196, 106.321
781.482, 41.770
782.768, 13.113
784.054, 45.999
785.339, 39.889
786.625, 64.783
787.910, 157.682
789.195, 84.586
790.479, 118.496
791.764, 122.410
793.048, 7.670
794.332, 203.243
795.616, 69.162
796.900, 143.086
798.183, 20.014
799.467, 38.948
800.750, 88.889
802.033, 60.834
803.316, 90.786
804.598, 25.256
805.880, 58.688
807.163, 19.638
808.445, 42.405
809.726, 14.471
811.008, 69.543
812.289, 208.650
813.570, 114.866
814.851, 183.082
816.132, 154.507
817.413, 209.949
818.693, 84.502
819.973, 140.096
821.253, 125.759
822.533, 106.483
823.813, 131.261
825.092, 79.103
826.371, 71.980
827.650, 109.892
828.929, 75.854
830.208, 8.150
831.486, 158.840
832.764, 54.904
834.042, 3.993
835.320, 45.078
836.598, 3.181
837.875, 23.724
839.152, 33.636
840.429, 167.558
841.706, 36.489
842.983, 31.431
844.259, 290.380
845.536, 98.339
846.812, 184.308
848.088, 150.285
849.363, 197.272
850.639, 236.270
851.914, 250.277
853.189, 209.294
854.464, 469.321
855.739, 483.359
857.013, 459.407
858.288, 523.467
859.562, 541.536
860.836, 564.617
862.110, 523.709
863.383, 583.811
864.656, 510.923
865.930, 390.048
867.203, 454.183
868.475, 487.328
869.748, 349.485
871.020, 446.653
872.292, 469.833
873.564, 382.023
874.836, 460.225
876.108, 347.437
877.379, 522.659
878.650, 487.894
879.922, 464.139
881.192, 384.395
882.463, 507.660
883.733, 472.938
885.004, 495.227
886.274, 433.525
887.544, 649.834
888.813, 485.154
890.083, 686.485
891.352, 779.826
892.621, 785.179
893.890, 944.540
895.159, 1074.912
896.427, 1078.296
897.695, 1348.690
898.964, 1388.096
900.232, 1311.511
901.499, 1380.938
902.767, 1261.373
904.034, 1065.821
905.301, 966.279
906.568, 988.749
907.835, 1012.229
909.102, 868.729
910.368, 977.239
911.634, 1103.775
912.900, 955.339
914.166, 1218.934
915.432, 1247.573
916.697, 1274.252
917.962, 1602.982
919.227, 1659.725
920.492, 1547.875
921.757, 1569.655
923.021, 1409.475
924.285, 1315.328
925.550, 1205.230
926.813, 1139.896
928.077, 1039.412
929.341, 1080.373
930.604, 1079.371
931.867, 987.386
933.130, 1041.419
934.393, 1218.635
935.655, 976.734
936.918, 1197.887
938.180, 1159.053
939.442, 1234.250
940.703, 1257.487
941.965, 1426.736
943.226, 1339.006
944.488, 1456.287
945.749, 1588.772
947.009, 1582.082
948.270, 1695.406
949.530, 1762.757
950.791, 1953.133
952.051, 2063.524
953.311, 2128.943
954.570, 2396.375
955.830, 2538.822
957.089, 2808.497
958.348, 3237.973
959.607, 3633.465
960.866, 4047.203
962.124, 4961.618
963.383, 5921.826
964.641, 7478.341
965.899, 9728.796
967.156, 12581.002
968.414, 17060.035
969.671, 22620.627
970.928, 27948.139
972.185, 30704.201
973.442, 29104.207
974.699, 24826.477
975.955, 19558.242
977.211, 14922.324
978.468, 11739.874
979.723, 8848.148
980.979, 7116.576
982.234, 6188.421
983.490, 5037.805
984.745, 4717.632
986.000, 4432.246
987.254, 4156.769
988.509, 4385.908
989.763, 4230.879
991.017, 4459.887
992.271, 4634.899
993.525, 5125.936
994.779, 5618.999
996.032, 6206.092
997.285, 7199.208
998.538, 7936.344
999.791, 9906.503
1001.044, 11564.682
1002.296, 14064.883
1003.548, 17387.107
1004.800, 21924.354
1006.052, 28565.617
1007.304, 36469.906
1008.555, 46036.207
1009.807, 53541.543
1011.058, 55099.898
1012.309, 53370.266
1013.559, 45467.668
1014.810, 36575.074
1016.060, 29183.508
1017.310, 22862.959
1018.560, 17789.436
1019.810, 14438.934
1021.060, 11669.447
1022.309, 9459.983
1023.558, 7936.537
1024.807, 6393.111
1026.056, 5460.705
1027.305, 4573.320
1028.553, 4071.955
1029.801, 3487.609
1031.049, 3051.281
1032.297, 2798.973
1033.545, 2431.283
1034.793, 2046.416
1036.040, 2016.165
1037.287, 1746.936
1038.534, 1682.723
1039.781, 1629.530
1041.027, 1340.356
1042.274, 1356.203
1043.520, 1366.068
1044.766, 1104.955
1046.012, 1142.863
1047.257, 1094.793
1048.503, 1120.743
1049.748, 1062.725
1050.993, 1111.729
1052.238, 1086.752
1053.483, 1130.798
1054.727, 1056.084
1055.971, 1122.948
1057.216, 942.052
1058.459, 972.091
1059.703, 1023.240
1060.947, 1113.542
1062.190, 1036.353
1063.433, 1086.176
1064.676, 1075.011
1065.919, 1163.791
1067.162, 1309.465
1068.404, 1156.739
1069.646, 1269.700
1070.888, 1258.113
1072.130, 1186.436
1073.372, 1130.276
1074.613, 1051.403
1075.855, 904.758
1077.096, 815.028
1078.337, 880.717
1079.578, 730.684
1080.818, 755.738
1082.059, 623.518
1083.299, 686.784
1084.539, 606.289
1085.779, 550.536
1087.018, 551.208
1088.258, 492.079
1089.497, 388.814
1090.736, 464.431
1091.975, 466.170
1093.213, 301.773
1094.452, 430.514
1095.690, 416.451
1096.928, 399.556
1098.166, 367.606
1099.404, 425.396
1100.642, 528.391
1101.879, 586.473
1103.116, 685.125
1104.353, 833.111
1105.590, 914.778
1106.827, 1126.905
1108.063, 1127.429
1109.299, 1289.361
1110.536, 1277.729
1111.771, 1001.457
1113.007, 1005.417
1114.243, 988.239
1115.478, 588.102
1116.713, 527.163
1117.948, 486.119
1119.183, 343.138
1120.418, 306.185
1121.652, 467.273
1122.886, 528.401
1124.120, 502.563
1125.354, 199.765
1126.588, 336.990
1127.821, 181.241
1129.055, 128.523
1130.288, 218.830
1131.521, 191.141
1132.753, 132.496
1133.986, 153.869
1135.218, 234.246
1136.450, 28.362
1137.682, 227.027
1138.914, 2.419
1140.146, 59.993
1141.377, 99.826
1142.609, 40.148
1143.840, 69.983
1145.071, 179.378
1146.301, 132.771
1147.532, 163.375
1148.762, 76.767
1149.992, 82.262
1151.222, 85.161
1152.452, 154.550
1153.682, 131.935
1154.911, 237.318
1156.140, 244.701
1157.369, 214.219
1158.598, 180.597
1159.827, 417.971
1161.055, 392.341
1162.284, 545.708
1163.512, 524.073
1164.740, 587.434
1165.967, 476.791
1167.195, 632.144
1168.422, 558.492
1169.650, 558.837
1170.877, 548.177
1172.103, 663.513
1173.330, 671.842
1174.557, 837.167
1175.783, 1012.486
1177.009, 1185.302
1178.235, 1403.311
1179.461, 1646.413
1180.686, 1881.711
1181.912, 2116.001
1183.137, 2413.287
1184.362, 2254.564
1185.587, 2160.834
1186.811, 1901.099
1188.036, 1570.417
1189.260, 1418.869
1190.484, 1025.386
1191.708, 731.037
1192.932, 564.731
1194.155, 400.982
1195.378, 386.364
1196.602, 362.642
1197.825, 208.910
1199.047, 257.144
1200.270, 148.435
1201.492, 179.765
1202.715, 35.027
1203.937, 211.710
1205.159, 30.606
1206.380, 30.509
1207.602, 48.310
1208.823, 55.244
1210.044, 70.220
1211.265, 117.055
1212.486, 99.149
1213.707, 144.216
1214.927, 57.201
1216.147, 50.066
1217.367, 28.272
1218.587, 84.580
1219.807, 75.960
1221.027, 127.401
1222.246, 82.069
1223.465, 47.669
1224.684, 16.738
1225.903, 7.169
1227.121, 6.445
1228.340, 4.451
1229.558, 59.271
1230.776, 62.128
1231.994, 121.020
1233.212, 45.026
1234.429, 49.955
1235.646, 78.984
1236.864, 68.946
1238.081, 1.859
1239.297, 78.730
1240.514, 49.589
1241.730, 26.404
1242.947, 18.205
1244.163, 16.010
1245.378, 27.248
1246.594, 28.486
1247.810, 30.794
1249.025, 116.896
1250.240, 33.573
1251.455, 99.235
1252.670, 26.883
1253.885, 14.513
1255.099, 48.115
1256.313, 47.312
1257.527, 136.222
1258.741, 54.740
1259.955, 67.761
1261.168, 101.695
1262.382, 68.127
1263.595, 158.644
1264.808, 150.040
1266.021, 183.418
1267.233, 255.776
1268.446, 285.118
1269.658, 298.440
1270.870, 394.741
1272.082, 378.023
1273.294, 363.285
1274.505, 286.527
1275.716, 284.748
1276.928, 163.948
1278.139, 269.124
1279.349, 136.271
1280.560, 203.387
1281.770, 132.453
1282.981, 154.060
1284.191, 189.059
1285.401, 77.012
1286.610, 46.943
1287.820, 24.848
1289.029, 4.279
1290.239, 145.558
1291.448, 183.347
1292.656, 74.085
1293.865, 211.797
1295.073, 100.477
1296.282, 45.131
1297.490, 153.762
1298.698, 226.372
1299.906, 218.960
1301.113, 292.526
1302.320, 22.071
1303.528, 189.591
1304.735, 195.088
1305.942, 163.565
1307.148, 320.021
1308.355, 287.457
1309.561, 330.871
1310.767, 259.264
1311.973, 402.635
1313.179, 337.984
1314.384, 438.312
1315.590, 341.617
1316.795, 408.902
1318.000, 336.165
1319.205, 376.406
1320.410, 388.625
1321.614, 309.823
1322.819, 280.999
1324.023, 323.154
1325.227, 349.290
1326.431, 284.406
1327.634, 179.506
1328.838, 213.587
1330.041, 187.653
1331.244, 233.703
1332.447, 118.741
1333.650, 84.764
1334.852, 74.772
1336.055, 58.768
1337.257, 54.749
1338.459, 27.718
1339.661, 92.670
1340.862, 11.387
1342.064, 26.535
1343.265, 122.444
1344.466, 25.350
1345.667, 95.244
1346.868, 109.138
1348.068, 50.029
1349.269, 14.923
1350.469, 156.902
1351.669, 113.795
1352.869, 171.563
1354.069, 245.854
1355.268, 76.164
1356.468, 113.502
1357.667, 85.024
1358.866, 21.385
1360.065, 148.449
1361.263, 14.092
1362.462, 18.869
1363.660, 147.993
1364.858, 99.078
1366.056, 4.714
1367.254, 151.017
1368.451, 64.738
1369.649, 74.260
1370.846, 109.670
1372.043, 173.537
1373.240, 125.406
1374.436, 165.529
1375.633, 152.357
1376.829, 267.480
1378.025, 355.850
1379.221, 685.199
1380.417, 1254.930
1381.613, 2509.538
1382.808, 3985.953
1384.003, 3776.631
1385.199, 2449.492
1386.393, 1305.078
1387.588, 839.803
1388.783, 481.486
1389.977, 528.129
1391.171, 269.731
1392.365, 264.291
1393.559, 298.810
1394.753, 57.285
1395.946, 329.724
1397.140, 151.888
1398.333, 212.453
1399.526, 184.526
1400.719, 205.462
1401.911, 242.496
1403.104, 171.931
1404.296, 160.011
1405.488, 237.459
1406.680, 2.562
1407.872, 159.371
1409.063, 176.262
1410.255, 85.107
1411.446, 203.908
1412.637, 118.663
1413.828, 64.372
1415.018, 211.035
1416.209, 104.650
1417.399, 83.218
1418.589, 171.736
1419.779, 138.205
1420.969, 196.190
1422.159, 113.397
1423.348, 167.147
1424.537, 142.766
1425.726, 117.870
1426.915, 153.579
1428.104, 201.306
1429.293, 213.286
1430.481, 66.863
1431.669, 166.270
1432.857, 228.960
1434.045, 194.788
1435.233, 337.561
1436.420, 402.459
1437.608, 336.804
1438.795, 421.859
1439.982, 527.267
1441.169, 555.774
1442.355, 680.263
1443.542, 664.827
1444.728, 613.390
1445.914, 678.020
1447.100, 678.550
1448.286, 774.412
1449.472, 746.032
1450.657, 829.602
1451.842, 849.121
1453.027, 747.619
1454.212, 934.178
1455.397, 795.714
1456.581, 873.243
1457.766, 1001.465
1458.950, 797.946
1460.134, 989.403
1461.318, 718.835
1462.501, 769.249
1463.685, 765.646
1464.868, 576.062
1466.051, 733.662
1467.234, 548.472
1468.417, 601.454
1469.600, 499.565
1470.782, 472.853
1471.965, 305.541
1473.147, 332.560
1474.329, 512.379
1475.510, 347.443
1476.692, 359.609
1477.873, 370.877
1479.055, 303.271
1480.236, 416.810
1481.416, 409.517
1482.597, 383.424
1483.778, 340.567
1484.958, 397.979
