##NAMES=Cordierite
##RRUFFID=R040082
##IDEAL CHEMISTRY=Mg_2_Al_3_(AlSi_5_)O_18_
##LOCALITY=Madagascar
##OWNER=RRUFF
##SOURCE=University of Arizona Mineral Museum
##DESCRIPTION=Dark gray coarsely crystalline massive
##STATUS=The identification of this mineral has been confirmed by X-ray diffraction and chemical analysis
##URL=rruff.info/R040082
##MEASURED CHEMISTRY=(Mg_1.60_Fe^2+^_0.39_Mn_0.01_)_Σ=2_Al_4.00_(Si_4.95_Al_0.05_)_Σ=5_O_18_·1.05H_2_O·Na_0.05_ ; H_2_O estimated by difference and verified by Raman spectroscopy
##PIN_ID=M00024
##ORIENTATION=Laser parallel to -b* (0 -1 0). Fiducial mark perpendicular to laser is parallel to -a [-1 0 0]
100.340, 0.000
101.732, 5.194
103.124, 19.931
104.516, 150.488
105.908, 389.827
107.300, 688.121
108.691, 1111.744
110.082, 1587.450
111.473, 2259.062
112.864, 3570.960
114.254, 6233.957
115.644, 9247.622
117.034, 9151.864
118.424, 8072.631
119.813, 7755.967
121.203, 6764.996
122.592, 5676.479
123.981, 4734.596
125.369, 3965.959
126.758, 3228.556
128.146, 2146.023
129.534, 1555.731
130.922, 648.760
132.309, 327.093
133.696, 96.809
135.083, 39.782
136.470, 65.154
137.857, 119.604
139.243, 110.576
140.630, 301.736
142.016, 368.257
143.401, 546.180
144.787, 911.929
146.172, 1183.220
147.557, 1571.052
148.942, 2054.537
150.327, 2650.881
151.711, 3190.676
153.096, 3952.248
154.480, 4482.844
155.863, 4803.568
157.247, 4795.377
158.630, 4304.982
160.013, 3374.288
161.396, 2464.404
162.779, 1771.565
164.161, 1360.614
165.544, 995.074
166.926, 660.851
168.308, 882.506
169.689, 484.228
171.070, 453.210
172.452, 678.996
173.833, 425.532
175.213, 502.654
176.594, 796.735
177.974, 766.897
179.354, 730.510
180.734, 802.723
182.114, 882.340
183.493, 1057.518
184.872, 1001.716
186.251, 1107.933
187.630, 985.152
189.008, 1177.357
190.387, 1219.549
191.765, 996.717
193.143, 945.809
194.520, 575.794
195.898, 464.664
197.275, 338.408
198.652, 490.021
200.029, 416.425
201.405, 595.534
202.782, 640.397
204.158, 905.066
205.534, 932.559
206.909, 698.873
208.285, 523.006
209.660, 280.952
211.035, 13.707
212.410, 23.747
213.784, 155.044
215.159, 181.365
216.533, 216.552
217.907, 145.009
219.281, 136.884
220.654, 96.152
222.027, 76.518
223.400, 46.760
224.773, 100.497
226.146, 265.188
227.518, 453.398
228.891, 575.112
230.263, 1079.846
231.634, 1494.024
233.006, 1875.240
234.377, 2556.750
235.748, 3203.256
237.119, 3625.285
238.490, 3985.564
239.860, 3970.768
241.231, 4018.267
242.601, 4002.273
243.970, 4371.191
245.340, 4874.877
246.709, 5662.482
248.079, 7104.082
249.448, 8750.976
250.816, 12201.808
252.185, 13797.014
253.553, 16328.615
254.921, 18576.672
256.289, 19919.883
257.657, 20889.719
259.024, 20117.066
260.391, 17276.918
261.758, 13416.931
263.125, 10067.818
264.492, 7436.574
265.858, 5511.431
267.224, 4307.973
268.590, 3271.693
269.956, 2822.252
271.321, 2485.574
272.687, 2404.627
274.052, 2407.376
275.416, 2742.746
276.781, 2991.945
278.146, 3561.366
279.510, 4204.078
280.874, 4533.370
282.237, 4839.336
283.601, 4807.551
284.964, 4966.027
286.327, 5812.112
287.690, 6381.957
289.053, 7416.558
290.416, 8744.921
291.778, 9434.044
293.140, 10104.928
294.502, 10021.542
295.863, 9975.851
297.225, 9408.698
298.586, 9062.968
299.947, 8583.212
301.308, 8616.175
302.668, 8277.221
304.029, 8041.814
305.389, 7616.168
306.749, 6766.514
308.108, 5830.212
309.468, 4536.707
310.827, 3409.001
312.186, 2580.068
313.545, 2050.855
314.903, 1766.383
316.262, 1527.687
317.620, 1719.806
318.978, 1879.709
320.336, 2377.244
321.693, 3070.178
323.051, 4006.374
324.408, 4785.946
325.765, 5896.998
327.121, 6046.744
328.478, 6217.306
329.834, 5527.589
331.190, 4371.379
332.546, 4137.002
333.902, 4308.578
335.257, 1734.812
336.612, 1159.291
337.967, 987.100
339.322, 785.443
340.677, 712.186
342.031, 656.151
343.385, 795.186
344.739, 733.060
346.093, 658.310
347.446, 713.329
348.799, 686.012
350.153, 803.742
351.505, 762.343
352.858, 743.888
354.210, 631.402
355.563, 709.270
356.915, 528.891
358.267, 729.803
359.618, 688.803
360.969, 965.576
362.321, 981.531
363.672, 1160.747
365.022, 1162.104
366.373, 1257.529
367.723, 1052.946
369.073, 904.360
370.423, 702.676
371.773, 390.081
373.122, 454.090
374.471, 443.954
375.821, 223.400
377.169, 272.509
378.518, 36.874
379.866, 46.925
381.215, 13.629
382.563, 82.783
383.910, 138.521
385.258, 122.188
386.605, 120.711
387.952, 4.481
389.299, 90.431
390.646, 41.695
391.992, 84.330
393.339, 49.024
394.685, 173.816
396.031, 7.779
397.376, 173.862
398.722, 154.118
400.067, 270.559
401.412, 258.217
402.757, 164.101
404.101, 229.211
405.446, 327.605
406.790, 167.343
408.134, 178.333
409.478, 68.575
410.821, 14.037
412.165, 93.285
413.508, 230.368
414.851, 338.164
416.193, 642.721
417.536, 863.021
418.878, 1328.143
420.220, 1930.165
421.562, 2417.113
422.904, 3416.009
424.245, 3986.857
425.586, 4442.660
426.927, 4625.416
428.268, 3891.052
429.609, 3225.568
430.949, 2543.964
432.289, 2037.238
433.629, 1470.393
434.969, 1278.430
436.309, 920.349
437.648, 810.151
438.987, 671.839
440.326, 521.406
441.665, 542.852
443.003, 695.175
444.342, 716.386
445.680, 795.488
447.018, 1129.486
448.355, 1177.383
449.693, 1611.178
451.030, 1941.873
452.367, 2290.470
453.704, 2198.968
455.041, 2284.369
456.377, 2091.676
457.713, 1747.887
459.049, 1414.014
460.385, 1240.086
461.721, 1299.087
463.056, 1258.029
464.391, 1368.896
465.726, 1594.684
467.061, 1671.393
468.395, 1823.020
469.730, 1815.575
471.064, 1726.049
472.398, 1942.441
473.731, 1619.754
475.065, 1723.002
476.398, 1667.173
477.731, 1692.292
479.064, 1800.337
480.397, 2013.307
481.729, 2269.202
483.062, 2461.029
484.394, 2820.789
485.725, 3147.484
487.057, 3407.142
488.389, 3302.739
489.720, 2951.276
491.051, 2701.795
492.382, 2126.266
493.712, 1681.752
495.043, 1240.208
496.373, 963.651
497.703, 703.462
499.032, 660.588
500.362, 524.902
501.691, 401.934
503.020, 308.720
504.349, 380.099
505.678, 331.229
507.007, 270.063
508.335, 271.094
509.663, 267.986
510.991, 437.342
512.319, 241.533
513.646, 452.627
514.973, 272.264
516.300, 481.217
517.627, 531.425
518.954, 480.482
520.280, 749.355
521.607, 697.416
522.933, 849.535
524.259, 853.412
525.584, 966.293
526.910, 1090.496
528.235, 1218.047
529.560, 1426.890
530.885, 1629.443
532.209, 1956.536
533.534, 2332.177
534.858, 2787.818
536.182, 3137.625
537.506, 3883.162
538.829, 4603.366
540.152, 5642.457
541.476, 6965.033
542.799, 8428.789
544.121, 10933.485
545.444, 13919.599
546.766, 17682.971
548.088, 22858.324
549.410, 28726.818
550.732, 34384.449
552.053, 39445.496
553.375, 41478.809
554.696, 40344.383
556.017, 37248.438
557.337, 32706.156
558.658, 27693.193
559.978, 23532.994
561.298, 20987.660
562.618, 18387.324
563.938, 16835.990
565.257, 15911.580
566.576, 15256.331
567.895, 15681.500
569.214, 16857.670
570.533, 18428.348
571.851, 20041.010
573.170, 22824.854
574.488, 24398.307
575.805, 25559.051
577.123, 25509.732
578.440, 23658.754
579.758, 21203.771
581.075, 17705.781
582.391, 15063.786
583.708, 12069.784
585.024, 9777.776
586.341, 8493.766
587.657, 7041.750
588.972, 5873.729
590.288, 4962.705
591.603, 4178.679
592.918, 3771.648
594.233, 3304.617
595.548, 3029.584
596.863, 2744.358
598.177, 2528.581
599.491, 2424.199
600.805, 2181.936
602.119, 1914.335
603.432, 2095.851
604.746, 2090.725
606.059, 1866.695
607.372, 1856.669
608.685, 1960.646
609.997, 2099.625
611.309, 2282.607
612.621, 2324.595
613.933, 2701.588
615.245, 2947.585
616.557, 3213.055
617.868, 3346.064
619.179, 3340.316
620.490, 3393.337
621.801, 3579.079
623.111, 3321.111
624.421, 3336.343
625.731, 2733.389
627.041, 2693.487
628.351, 1965.554
629.660, 1718.623
630.970, 1557.701
632.279, 1176.671
633.588, 941.765
634.896, 713.546
636.205, 827.659
637.513, 741.780
638.821, 888.007
640.129, 921.146
641.437, 1177.445
642.744, 1018.606
644.051, 1175.033
645.358, 1357.215
646.665, 1354.407
647.972, 1432.853
649.278, 1436.393
650.584, 1619.006
651.890, 1897.645
653.196, 2068.053
654.502, 2330.426
655.807, 2397.525
657.113, 2859.770
658.418, 3675.851
659.722, 4118.760
661.027, 5235.492
662.331, 6661.079
663.636, 8485.293
664.940, 10605.830
666.244, 13261.438
667.547, 15308.514
668.851, 16884.688
670.154, 16946.785
671.457, 15566.111
672.760, 13645.932
674.062, 11043.964
675.365, 8733.260
676.667, 6773.539
677.969, 5348.401
679.271, 4086.602
680.572, 3230.359
681.874, 2764.173
683.175, 2305.707
684.476, 1892.243
685.777, 1595.785
687.077, 1318.334
688.378, 1419.895
689.678, 1068.475
690.978, 958.070
692.278, 599.686
693.577, 903.322
694.877, 715.982
696.176, 937.680
697.475, 770.411
698.774, 976.188
700.072, 1126.025
701.371, 1382.936
702.669, 1632.376
703.967, 1773.963
705.265, 2230.045
706.562, 2484.182
707.860, 2848.365
709.157, 3346.605
710.454, 3362.892
711.751, 3748.257
713.047, 3414.656
714.344, 3324.134
715.640, 2865.685
716.936, 2599.338
718.232, 2747.090
719.527, 2630.915
720.823, 2652.833
722.118, 2810.866
723.413, 2612.973
724.708, 2476.154
726.002, 2369.383
727.297, 1967.645
728.591, 2127.926
729.885, 1874.222
731.179, 1756.530
732.472, 1834.846
733.766, 2010.162
735.059, 2162.482
736.352, 2131.803
737.645, 2239.125
738.937, 2204.447
740.230, 2041.771
741.522, 2180.097
742.814, 2322.423
744.106, 2528.750
745.397, 2794.078
746.689, 2871.408
747.980, 3181.739
749.271, 3359.071
750.562, 3251.403
751.853, 3007.907
753.143, 2697.071
754.433, 2300.410
755.723, 2057.676
757.013, 1790.108
758.303, 1504.463
759.592, 1035.819
760.881, 794.178
762.170, 683.537
763.459, 542.897
764.748, 389.260
766.036, 431.622
767.325, 120.984
768.613, 240.350
769.901, 135.713
771.188, 31.922
772.476, 147.427
773.763, 25.224
775.050, 77.110
776.337, 11.554
777.624, 87.771
778.910, 6.099
780.196, 91.423
781.482, 36.253
782.768, 41.051
784.054, 84.355
785.339, 91.662
786.625, 48.032
787.910, 107.247
789.195, 95.474
790.479, 150.753
791.764, 71.980
793.048, 23.209
794.332, 142.438
795.616, 13.665
796.900, 53.889
798.183, 80.888
799.467, 55.287
800.750, 109.461
802.033, 143.364
803.316, 13.728
804.598, 255.188
805.880, 43.248
807.163, 106.342
808.445, 168.502
809.726, 242.763
811.008, 228.163
812.289, 226.695
813.570, 103.358
814.851, 201.086
816.132, 176.928
817.413, 220.875
818.693, 33.947
819.973, 68.048
821.253, 41.195
822.533, 161.375
823.813, 75.653
825.092, 176.981
826.371, 100.417
827.650, 152.915
828.929, 92.511
830.208, 5.168
831.486, 132.848
832.764, 21.611
834.042, 65.404
835.320, 49.247
836.598, 58.868
837.875, 46.988
839.152, 51.106
840.429, 249.229
841.706, 175.361
842.983, 145.493
844.259, 421.666
845.536, 274.842
846.812, 407.017
848.088, 445.194
849.363, 493.377
850.639, 597.561
851.914, 673.475
853.189, 690.927
854.464, 839.109
855.739, 988.292
857.013, 986.474
858.288, 1068.652
859.562, 1197.832
860.836, 1280.010
862.110, 1280.187
863.383, 1268.361
864.656, 1194.044
865.930, 962.705
867.203, 986.873
868.475, 938.039
869.748, 891.202
871.020, 960.293
872.292, 910.521
873.564, 950.813
874.836, 997.823
876.108, 1021.970
877.379, 1092.110
878.650, 1149.247
879.922, 1239.379
881.192, 1254.504
882.463, 1321.626
883.733, 1235.742
885.004, 1367.854
886.274, 1430.960
887.544, 1680.062
888.813, 1966.160
890.083, 2291.253
891.352, 2637.342
892.621, 2991.425
893.890, 3423.503
895.159, 3751.578
896.427, 4181.648
897.695, 5355.715
898.964, 5711.777
900.232, 5264.834
901.499, 5178.889
902.767, 4825.939
904.034, 4289.986
905.301, 3570.029
906.568, 3310.069
907.835, 2954.105
909.102, 2564.140
910.368, 2363.174
911.634, 2360.209
912.900, 2138.264
914.166, 2192.345
915.432, 1978.437
916.697, 2021.557
917.962, 2140.675
919.227, 2027.792
920.492, 2024.922
921.757, 1913.050
923.021, 1889.206
924.285, 1901.914
925.550, 1833.089
926.813, 1760.057
928.077, 1751.350
929.341, 1608.821
930.604, 1715.113
931.867, 1700.278
933.130, 1735.638
934.393, 1901.955
935.655, 1732.313
936.918, 1963.691
938.180, 1868.070
939.442, 1895.566
940.703, 2077.944
941.965, 2162.646
943.226, 2191.025
944.488, 2332.404
945.749, 2767.690
947.009, 2870.072
948.270, 3144.305
949.530, 3434.949
950.791, 3632.287
952.051, 3960.203
953.311, 4062.591
954.570, 4296.738
955.830, 4331.802
957.089, 4545.809
958.348, 4936.801
959.607, 5578.039
960.866, 6282.322
962.124, 7326.901
963.383, 8737.350
964.641, 10431.855
965.899, 12734.073
967.156, 15644.126
968.414, 19280.674
969.671, 23396.436
970.928, 26197.668
972.185, 26262.895
973.442, 23678.682
974.699, 20060.131
975.955, 15971.883
977.211, 12492.342
978.468, 10112.605
979.723, 7761.580
980.979, 6466.350
982.234, 5628.161
983.490, 4666.420
984.745, 4280.363
986.000, 4065.773
987.254, 3751.146
988.509, 3888.525
989.763, 3643.216
991.017, 3826.562
992.271, 3940.920
993.525, 4343.730
994.779, 4781.631
996.032, 5293.664
997.285, 6109.460
998.538, 6680.498
999.791, 8130.338
1001.044, 9397.183
1002.296, 11181.047
1003.548, 12739.929
1004.800, 15118.830
1006.052, 19052.746
1007.304, 23865.686
1008.555, 28891.639
1009.807, 32013.609
1011.058, 32169.598
1012.309, 29483.604
1013.559, 23965.633
1014.810, 19040.676
1016.060, 14991.740
1017.310, 11824.823
1018.560, 9236.926
1019.810, 7577.045
1021.060, 6310.184
1022.309, 5194.342
1023.558, 4316.519
1024.807, 3635.715
1026.056, 3247.931
1027.305, 2781.164
1028.553, 2473.418
1029.801, 2139.689
1031.049, 1799.980
1032.297, 1568.290
1033.545, 1594.618
1034.793, 1217.965
1036.040, 1162.329
1037.287, 1193.712
1038.534, 971.111
1039.781, 972.528
1041.027, 726.964
1042.274, 843.418
1043.520, 739.890
1044.766, 578.379
1046.012, 618.891
1047.257, 600.433
1048.503, 647.999
1049.748, 630.453
1050.993, 610.221
1052.238, 605.881
1053.483, 397.559
1054.727, 370.262
1055.971, 516.984
1057.216, 352.726
1058.459, 477.505
1059.703, 446.759
1060.947, 427.406
1062.190, 509.043
1063.433, 372.121
1064.676, 409.886
1065.919, 332.814
1067.162, 398.894
1068.404, 400.110
1069.646, 346.111
1070.888, 450.170
1072.130, 420.248
1073.372, 423.928
1074.613, 472.062
1075.855, 421.796
1077.096, 463.358
1078.337, 799.672
1079.578, 658.651
1080.818, 841.730
1082.059, 732.551
1083.299, 843.774
1084.539, 693.188
1085.779, 647.686
1087.018, 597.107
1088.258, 466.457
1089.497, 419.833
1090.736, 418.225
1091.975, 393.660
1093.213, 512.110
1094.452, 531.577
1095.690, 431.059
1096.928, 576.556
1098.166, 619.068
1099.404, 756.407
1100.642, 903.164
1101.879, 1162.746
1103.116, 1510.341
1104.353, 1825.988
1105.590, 1999.654
1106.827, 2404.404
1108.063, 2362.183
1109.299, 2421.007
1110.536, 2215.893
1111.771, 1902.859
1113.007, 1677.903
1114.243, 1391.022
1115.478, 1135.188
1116.713, 863.422
1117.948, 668.720
1119.183, 487.092
1120.418, 643.490
1121.652, 945.922
1122.886, 1115.381
1124.120, 769.898
1125.354, 404.452
1126.588, 407.067
1127.821, 223.726
1129.055, 358.438
1130.288, 321.191
1131.521, 235.961
1132.753, 139.780
1133.986, 21.620
1135.218, 371.492
1136.450, 34.608
1137.682, 126.305
1138.914, 31.775
1140.146, 59.880
1141.377, 2.976
1142.609, 198.058
1143.840, 14.971
1145.071, 89.942
1146.301, 13.124
1147.532, 41.172
1148.762, 28.794
1149.992, 62.780
1151.222, 31.786
1152.452, 152.812
1153.682, 78.855
1154.911, 237.920
1156.140, 374.003
1157.369, 270.106
1158.598, 461.229
1159.827, 542.369
1161.055, 472.529
1162.284, 504.709
1163.512, 692.908
1164.740, 785.127
1165.967, 826.832
1167.195, 852.618
1168.422, 917.893
1169.650, 1047.184
1170.877, 1125.493
1172.103, 1360.946
1173.330, 1432.121
1174.557, 1874.387
1175.783, 2236.625
1177.009, 2525.857
1178.235, 3059.061
1179.461, 3768.247
1180.686, 4233.357
1181.912, 4669.393
1183.137, 4909.340
1184.362, 4631.285
1185.587, 4195.219
1186.811, 3739.158
1188.036, 2984.108
1189.260, 2539.064
1190.484, 2185.030
1191.708, 1763.002
1192.932, 1292.626
1194.155, 1010.516
1195.378, 829.778
1196.602, 760.910
1197.825, 437.955
1199.047, 506.772
1200.270, 346.792
1201.492, 501.455
1202.715, 88.487
1203.937, 223.678
1205.159, 111.154
1206.380, 1.516
1207.602, 7.560
1208.823, 71.458
1210.044, 91.297
1211.265, 35.688
1212.486, 99.378
1213.707, 17.494
1214.927, 133.939
1216.147, 34.680
1217.367, 190.201
1218.587, 93.859
1219.807, 54.438
1221.027, 79.741
1222.246, 100.232
1223.465, 80.339
1224.684, 27.414
1225.903, 148.380
1227.121, 212.582
1228.340, 18.148
1229.558, 10.873
1230.776, 43.591
1231.994, 23.690
1233.212, 54.027
1234.429, 77.742
1235.646, 239.464
1236.864, 188.192
1238.081, 285.917
1239.297, 317.586
1240.514, 219.139
1241.730, 191.679
1242.947, 99.192
1244.163, 110.643
1245.378, 251.072
1246.594, 258.406
1247.810, 267.080
1249.025, 323.600
1250.240, 228.582
1251.455, 240.509
1252.670, 202.358
1253.885, 185.172
1255.099, 194.945
1256.313, 176.759
1257.527, 201.368
1258.741, 225.008
1259.955, 179.590
1261.168, 309.112
1262.382, 324.576
1263.595, 306.977
1264.808, 251.314
1266.021, 423.600
1267.233, 425.836
1268.446, 596.025
1269.658, 507.166
1270.870, 610.260
1272.082, 595.490
1273.294, 573.492
1274.505, 587.458
1275.716, 673.389
1276.928, 604.208
1278.139, 582.138
1279.349, 511.961
1280.560, 404.771
1281.770, 331.616
1282.981, 232.990
1284.191, 282.562
1285.401, 240.406
1286.610, 329.148
1287.820, 259.876
1289.029, 104.885
1290.239, 288.901
1291.448, 228.927
1292.656, 372.958
1293.865, 439.994
1295.073, 472.006
1296.282, 546.182
1297.490, 506.132
1298.698, 593.184
1299.906, 440.238
1301.113, 392.296
1302.320, 423.357
1303.528, 415.424
1304.735, 346.495
1305.942, 437.578
1307.148, 518.673
1308.355, 502.777
1309.561, 751.893
1310.767, 690.997
1311.973, 782.079
1313.179, 678.078
1314.384, 820.072
1315.590, 780.063
1316.795, 810.948
1318.000, 851.176
1319.205, 838.394
1320.410, 879.281
1321.614, 863.280
1322.819, 877.796
1324.023, 656.472
1325.227, 759.534
1326.431, 512.227
1327.634, 352.166
1328.838, 320.808
1330.041, 319.067
1331.244, 327.153
1332.447, 323.082
1333.650, 293.560
1334.852, 284.237
1336.055, 210.207
1337.257, 67.150
1338.459, 2.927
1339.661, 36.980
1340.862, 139.873
1342.064, 83.247
1343.265, 63.622
1344.466, 187.484
1345.667, 28.344
1346.868, 207.203
1348.068, 145.063
1349.269, 23.071
1350.469, 213.802
1351.669, 142.688
1352.869, 176.585
1354.069, 32.501
1355.268, 23.616
1356.468, 18.576
1357.667, 11.541
1358.866, 13.720
1360.065, 118.433
1361.263, 75.030
1362.462, 72.508
1363.660, 112.857
1364.858, 21.070
1366.056, 181.136
1367.254, 220.045
1368.451, 191.789
1369.649, 162.359
1370.846, 324.747
1372.043, 324.063
1373.240, 298.717
1374.436, 420.571
1375.633, 337.831
1376.829, 210.021
1378.025, 378.380
1379.221, 475.016
1380.417, 503.706
1381.613, 258.875
1382.808, 352.541
1384.003, 291.094
1385.199, 248.470
1386.393, 398.072
1387.588, 175.699
1388.783, 326.573
1389.977, 314.418
1391.171, 350.272
1392.365, 252.921
1393.559, 219.561
1394.753, 326.038
1395.946, 348.735
1397.140, 258.518
1398.333, 328.706
1399.526, 110.113
1400.719, 144.229
1401.911, 286.522
1403.104, 198.825
1404.296, 139.703
1405.488, 163.534
1406.680, 140.531
1407.872, 147.629
1409.063, 145.581
1410.255, 91.326
1411.446, 147.643
1412.637, 43.659
1413.828, 88.528
1415.018, 8.215
1416.209, 156.854
1417.399, 76.095
1418.589, 208.085
1419.779, 21.129
1420.969, 110.637
1422.159, 202.140
1423.348, 109.282
1424.537, 0.000
##END=



