##NAMES=Corundum
##RRUFFID=R060020
##IDEAL CHEMISTRY=Al_2_O_3_
##LOCALITY=Yogo Gulch, Montana, USA
##OWNER=RRUFF
##SOURCE=American Museum of Natural History
##DESCRIPTION=Water rounded light blue fragment
##STATUS=The identification of this mineral has been confirmed by X-ray diffraction and chemical analysis
##URL=rruff.info/R060020
##MEASURED CHEMISTRY=(Al_1.99_Fe^3+^_0.01_)_Î£=2_O_3_ ; Fe^3+^ by charge balance
##PIN_ID=L01262
##ORIENTATION=Laser parallel to -a* (-1 0 0). Fiducial mark perpendicular to laser is parallel to c [0 0 1]
114.4400, 0.0000000E+00
115.6710, 89.77588
116.9030, 114.5767
118.1340, 157.0283
119.3650, 113.9062
120.5960, 28.58740
121.8270, 75.10693
123.0580, 8.701172
124.2880, 5.040039
125.5190, 114.2334
126.7490, 90.81299
127.9790, 39.72803
129.2090, 114.9370
130.4390, 38.40723
131.6680, 22.10889
132.8980, 40.00977
134.1270, 37.07568
135.3560, 45.58740
136.5850, 22.64551
137.8140, 75.14697
139.0430, 71.79590
140.2710, 101.5552
141.5000, 147.4253
142.7280, 146.4351
143.9560, 138.4878
145.1840, 173.6724
146.4120, 82.94580
147.6390, 94.28711
148.8670, 67.67676
150.0940, 86.09473
151.3210, 100.5190
152.5490, 135.9404
153.7750, 161.3896
155.0020, 15.85547
156.2290, 55.35986
157.4550, 53.16797
158.6810, 54.97314
159.9080, 90.82959
161.1340, 95.76221
162.3590, 112.0684
163.5850, 129.0146
164.8110, 121.3135
166.0360, 132.1919
167.2610, 108.9805
168.4860, 118.2617
169.7110, 115.5034
170.9360, 71.74902
172.1610, 154.0664
173.3850, 46.52295
174.6100, 77.00537
175.8340, 117.4316
177.0580, 129.8657
178.2820, 129.7441
179.5050, 88.48730
180.7290, 103.8306
181.9520, 46.78271
183.1760, 27.99805
184.3990, 138.8267
185.6220, 86.48340
186.8450, 150.1045
188.0670, 60.58984
189.2900, 230.0283
190.5120, 110.5708
191.7340, 145.7510
192.9560, 249.6616
194.1780, 198.7285
195.4000, 238.9424
196.6220, 183.4995
197.8430, 200.8647
199.0640, 185.0454
200.2860, 177.1035
201.5070, 265.0029
202.7270, 210.8022
203.9480, 192.1562
205.1690, 293.9302
206.3890, 168.0957
207.6090, 192.1528
208.8290, 183.1792
210.0490, 26.93994
211.2690, 277.4780
212.4890, 191.3442
213.7080, 329.1689
214.9280, 142.0928
216.1470, 257.0151
217.3660, 136.8672
218.5850, 158.3389
219.8030, 169.1709
221.0220, 231.9321
222.2400, 219.7666
223.4590, 150.9985
224.6770, 89.62158
225.8950, 185.1665
227.1120, 112.0156
228.3300, 165.7393
229.5480, 111.2085
230.7650, 143.9287
231.9820, 208.3799
233.1990, 122.3794
234.4160, 138.5825
235.6330, 170.8901
236.8490, 198.7476
238.0660, 163.5352
239.2820, 104.3809
240.4980, 104.0483
241.7140, 104.6011
242.9300, 121.0166
244.1460, 134.3408
245.3610, 110.6475
246.5770, 91.94775
247.7920, 140.2148
249.0070, 195.4512
250.2220, 78.65674
251.4370, 260.8301
252.6510, 137.9697
253.8660, 113.0776
255.0800, 148.3374
256.2940, 207.5771
257.5080, 118.5894
258.7220, 177.5693
259.9360, 208.5176
261.1490, 181.6577
262.3630, 219.8188
263.5760, 167.9756
264.7890, 112.1289
266.0020, 223.2358
267.2150, 57.35156
268.4270, 103.4692
269.6400, 77.19971
270.8520, 112.3164
272.0640, 121.4316
273.2760, 44.54102
274.4880, 135.6436
275.7000, 168.7383
276.9120, 159.8232
278.1230, 87.89746
279.3340, 90.95898
280.5450, 12.99316
281.7560, 0.9316410
282.9670, 58.96191
284.1780, 14.00977
285.3880, 77.96094
286.5980, 114.8936
287.8090, 71.80664
289.0190, 90.85547
290.2290, 68.65137
291.4380, 32.40820
292.6480, 42.22656
293.8570, 15.98242
295.0670, 10.77637
296.2760, 2.443359
297.4850, 32.25879
298.6930, 71.93945
299.9020, 23.79297
301.1110, 33.24414
302.3190, 63.95410
303.5270, 20.74805
304.7350, 1.394531
305.9430, 49.03906
307.1510, 114.5361
308.3580, 68.41699
309.5660, 3.629883
310.7730, 12.80566
311.9800, 103.2061
313.1870, 30.48535
314.3940, 62.72461
315.6010, 51.75879
316.8070, 38.51270
318.0130, 96.59570
319.2200, 10.64453
320.4260, 65.16797
321.6310, 201.7012
322.8370, 46.49414
324.0430, 45.09180
325.2480, 50.38867
326.4540, 106.5625
327.6590, 40.32129
328.8640, 31.99414
330.0680, 12.92871
331.2730, 173.5703
332.4780, 67.02246
333.6820, 35.74414
334.8860, 72.86621
336.0900, 38.72266
337.2940, 31.09961
338.4980, 55.71484
339.7010, 50.72168
340.9050, 30.51074
342.1080, 42.98438
343.3110, 49.49902
344.5140, 31.11328
345.7170, 4.794922
346.9200, 40.84375
348.1220, 94.65723
349.3240, 126.9980
350.5270, 17.34668
351.7290, 93.54590
352.9310, 12.02148
354.1320, 12.57812
355.3340, 77.15723
356.5350, 80.13184
357.7370, 79.17090
358.9380, 94.97754
360.1390, 80.84375
361.3400, 92.40723
362.5400, 67.24707
363.7410, 86.95215
364.9410, 104.6699
366.1410, 174.0195
367.3410, 269.2529
368.5410, 359.6865
369.7410, 503.3105
370.9400, 614.7939
372.1400, 926.4590
373.3390, 1114.864
374.5380, 1446.065
375.7370, 2313.078
376.9360, 3036.730
378.1350, 3405.490
379.3330, 3002.652
380.5310, 2212.402
381.7300, 1578.200
382.9280, 1111.928
384.1260, 854.9961
385.3230, 564.6221
386.5210, 501.2236
387.7180, 399.0195
388.9160, 332.0039
390.1130, 283.2637
391.3100, 347.5205
392.5060, 207.8691
393.7030, 332.0879
394.9000, 303.1162
396.0960, 206.7129
397.2920, 285.2217
398.4880, 339.7451
399.6840, 429.8018
400.8800, 394.8311
402.0750, 405.8779
403.2710, 518.2617
404.4660, 557.5029
405.6610, 492.1602
406.8560, 777.9639
408.0510, 1127.673
409.2450, 1697.306
410.4400, 2217.146
411.6340, 2784.613
412.8280, 3545.219
414.0220, 5133.946
415.2160, 5573.438
416.4100, 5612.309
417.6030, 6433.635
418.7970, 4780.621
419.9900, 3553.461
421.1830, 2593.304
422.3760, 1650.784
423.5690, 1156.151
424.7610, 1079.002
425.9540, 875.6309
427.1460, 960.5576
428.3380, 1089.587
429.5300, 967.2920
430.7220, 945.3750
431.9140, 613.9551
433.1050, 639.2783
434.2970, 509.4854
435.4880, 413.5039
436.6790, 367.5176
437.8700, 434.1299
439.0610, 268.9512
440.2510, 346.4092
441.4420, 327.9668
442.6320, 235.3242
443.8220, 87.97461
445.0120, 260.4219
446.2020, 235.2549
447.3910, 265.6973
448.5810, 259.7373
449.7700, 314.7559
450.9600, 192.5293
452.1490, 169.9590
453.3370, 47.66504
454.5260, 50.03125
455.7150, 73.73047
456.9030, 76.90820
458.0910, 119.7393
459.2800, 180.8066
460.4670, 94.96875
461.6550, 96.86328
462.8430, 56.55762
464.0300, 117.9863
465.2180, 130.1904
466.4050, 52.39746
467.5920, 10.50977
468.7790, 47.37109
469.9650, 66.62988
471.1520, 109.4414
472.3380, 40.13477
473.5250, 103.0186
474.7110, 141.9902
475.8970, 70.69824
477.0820, 207.6631
478.2680, 264.4980
479.4540, 180.3369
480.6390, 255.4697
481.8240, 202.1133
483.0090, 252.1875
484.1940, 310.4248
485.3780, 289.0967
486.5630, 302.7373
487.7470, 310.5830
488.9320, 219.3848
490.1160, 244.8135
491.3000, 185.6787
492.4830, 10.34570
493.6670, 34.45312
494.8500, 198.8457
496.0340, 44.21973
497.2170, 126.6152
498.4000, 51.72266
499.5820, 26.77539
500.7650, 30.24512
501.9480, 1.711914
503.1300, 108.5410
504.3120, 38.35352
505.4940, 55.99316
506.6760, 43.64844
507.8580, 0.6904300
509.0390, 24.58008
510.2210, 75.24023
511.4020, 21.22949
512.5830, 46.15234
513.7640, 3.013672
514.9450, 40.80762
516.1250, 80.53711
517.3060, 31.79688
518.4860, 181.8516
519.6660, 147.3799
520.8460, 282.2578
522.0260, 132.9443
523.2060, 113.6631
524.3850, 122.7334
525.5650, 264.6904
526.7440, 122.5059
527.9230, 121.2246
529.1020, 315.9365
530.2810, 26.20898
531.4590, 187.2656
532.6380, 162.6738
533.8160, 158.9414
534.9940, 183.5244
536.1720, 181.1045
537.3500, 79.85156
538.5270, 94.46777
539.7050, 75.15723
540.8820, 189.7432
542.0590, 189.2021
543.2360, 175.8730
544.4130, 95.95703
545.5900, 123.2559
546.7660, 256.5381
547.9430, 213.6416
549.1190, 229.0840
550.2950, 220.8213
551.4710, 182.6914
552.6470, 189.5488
553.8220, 198.2578
554.9980, 136.6064
556.1730, 89.48340
557.3480, 98.03906
558.5230, 93.95898
559.6980, 97.06543
560.8730, 129.2432
562.0470, 138.8662
563.2220, 173.8809
564.3960, 195.4756
565.5700, 209.7852
566.7440, 224.3740
567.9170, 201.8740
569.0910, 170.6602
570.2640, 311.9346
571.4380, 260.3887
572.6110, 334.9492
573.7840, 442.9180
574.9570, 429.3428
576.1290, 485.4053
577.3020, 515.2861
578.4740, 421.2490
579.6460, 468.1963
580.8180, 401.3760
581.9900, 264.7383
583.1620, 343.5205
584.3330, 215.2100
585.5040, 260.5713
586.6760, 191.3652
587.8470, 230.2695
589.0180, 251.3945
590.1880, 338.1426
591.3590, 212.0615
592.5290, 236.7500
593.7000, 207.4766
594.8700, 350.0195
596.0400, 223.1963
597.2090, 206.2656
598.3790, 307.8486
599.5490, 226.3721
600.7180, 415.9199
601.8870, 284.9883
603.0560, 223.9854
604.2250, 176.7363
605.3940, 255.7021
606.5620, 292.6406
607.7300, 383.6670
608.8990, 384.3945
610.0670, 205.2715
611.2350, 356.7090
612.4020, 362.2559
613.5700, 272.4404
614.7370, 407.8145
615.9050, 350.2793
617.0720, 242.3750
618.2390, 296.9688
619.4060, 248.6777
620.5720, 281.3008
621.7390, 284.6514
622.9050, 401.9434
624.0710, 497.3730
625.2370, 623.9707
626.4030, 595.4375
627.5690, 664.9678
628.7340, 719.5879
629.9000, 543.7549
631.0650, 777.9160
632.2300, 727.7119
633.3950, 660.6748
634.5600, 827.1992
635.7240, 941.8213
636.8890, 1073.795
638.0530, 1293.845
639.2170, 1633.688
640.3810, 1749.357
641.5450, 2168.429
642.7080, 2214.809
643.8720, 2387.615
645.0350, 2296.465
646.1980, 1827.910
647.3610, 1929.410
648.5240, 1645.409
649.6870, 1299.525
650.8490, 1146.979
652.0120, 848.9404
653.1740, 891.5645
654.3360, 744.2529
655.4980, 638.0820
656.6600, 531.2109
657.8210, 466.4482
658.9830, 604.8486
660.1440, 383.9785
661.3050, 417.5254
662.4660, 395.3389
663.6270, 297.0000
664.7870, 309.6201
665.9480, 330.7539
667.1080, 339.2158
668.2680, 326.5967
669.4280, 179.7148
670.5880, 215.5381
671.7480, 117.9590
672.9070, 376.1895
674.0670, 243.3301
675.2260, 272.4941
676.3850, 218.5684
677.5440, 188.1318
678.7030, 201.6768
679.8610, 211.0566
681.0200, 226.8281
682.1780, 2.482422
683.3360, 69.03906
684.4940, 220.2451
685.6520, 34.94141
686.8090, 237.5303
687.9670, 66.56836
689.1240, 157.8691
690.2810, 51.04785
691.4380, 45.13867
692.5950, 10.99219
693.7520, 12.81641
694.9080, 187.2705
696.0650, 56.77051
697.2210, 133.7227
698.3770, 89.20801
699.5330, 9.144531
700.6880, 127.7471
701.8440, 64.88965
702.9990, 34.61816
704.1550, 66.81152
705.3100, 17.43164
706.4650, 18.32617
707.6190, 24.31250
708.7740, 49.06641
709.9290, 68.85059
711.0830, 34.75977
712.2370, 15.56641
713.3910, 55.51660
714.5450, 2.891602
715.6980, 151.0449
716.8520, 146.7100
718.0050, 107.0967
719.1580, 72.95605
720.3110, 30.56543
721.4640, 15.02246
722.6170, 75.04883
723.7700, 210.4023
724.9220, 6.311523
726.0740, 190.5439
727.2260, 149.5273
728.3780, 215.6895
729.5300, 186.6680
730.6810, 125.2598
731.8330, 313.6250
732.9840, 217.5215
734.1350, 289.1797
735.2860, 319.6270
736.4370, 420.6758
737.5880, 460.3984
738.7380, 496.5508
739.8880, 548.5977
741.0390, 566.5859
742.1890, 627.9316
743.3380, 691.2637
744.4880, 763.5547
745.6380, 919.6445
746.7870, 1021.957
747.9360, 1088.939
749.0850, 1094.260
750.2340, 1150.119
751.3830, 1125.207
752.5310, 1153.395
753.6800, 1060.973
754.8280, 951.6934
755.9760, 904.6934
757.1240, 808.1113
758.2720, 688.2598
759.4190, 699.7891
760.5670, 622.2871
761.7140, 597.2090
762.8610, 540.1113
764.0080, 520.3457
765.1550, 485.3066
766.3020, 471.7148
767.4480, 445.4062
768.5950, 472.5977
769.7410, 496.2324
770.8870, 525.0781
772.0330, 377.7344
773.1780, 508.9688
774.3240, 387.2695
775.4690, 309.1992
776.6140, 558.9375
777.7590, 523.6660
778.9040, 582.9883
780.0490, 510.5996
781.1940, 530.4531
782.3380, 410.4023
783.4820, 524.0820
784.6260, 464.3301
785.7700, 505.7559
786.9140, 678.4082
788.0580, 460.4434
789.2010, 633.7832
790.3450, 356.3809
791.4880, 703.9941
792.6310, 579.9785
793.7730, 456.6445
794.9160, 423.9688
796.0590, 551.9941
797.2010, 487.1973
798.3430, 504.7461
799.4850, 567.2168
800.6270, 564.2246
801.7690, 678.7988
802.9100, 646.6543
804.0520, 793.5645
805.1930, 700.3789
806.3340, 571.4141
807.4750, 809.9707
808.6160, 595.4727
809.7560, 847.4082
810.8970, 535.4629
812.0370, 567.1309
813.1770, 561.3496
814.3170, 676.7012
815.4570, 746.9512
816.5960, 751.5703
817.7360, 749.0781
818.8750, 576.2539
820.0140, 627.1387
821.1530, 476.2246
822.2920, 365.1348
823.4310, 611.4648
824.5690, 330.3887
825.7070, 509.9336
826.8460, 633.3906
827.9840, 461.7070
829.1220, 499.6387
830.2590, 642.1895
831.3970, 712.9785
832.5340, 419.3945
833.6710, 297.0566
834.8080, 383.2246
835.9450, 601.3457
837.0820, 460.2383
838.2190, 471.1777
839.3550, 306.2891
840.4910, 379.2715
841.6270, 269.0430
842.7630, 431.7988
843.8990, 272.4199
845.0350, 498.7363
846.1700, 341.8223
847.3060, 275.1758
848.4410, 256.5527
849.5760, 401.9668
850.7100, 196.5859
851.8450, 333.7715
852.9800, 240.3242
854.1140, 286.6641
855.2480, 258.9258
856.3820, 300.0273
857.5160, 102.1172
858.6500, 288.6387
859.7830, 299.0293
860.9170, 430.9727
862.0500, 257.4062
863.1830, 335.2871
864.3160, 292.3281
865.4480, 401.2344
866.5810, 345.6191
867.7130, 403.1953
868.8460, 226.7285
869.9780, 406.9883
871.1100, 310.5293
872.2410, 130.5020
873.3730, 53.25195
874.5050, 354.2793
875.6360, 259.1953
876.7670, 389.7793
877.8980, 226.2520
879.0290, 165.1777
880.1590, 236.2168
881.2900, 308.4258
882.4200, 96.33203
883.5500, 75.48633
884.6800, 203.2969
885.8100, 124.7969
886.9400, 198.5859
888.0690, 23.94336
889.1990, 188.9902
890.3280, 79.19141
891.4570, 124.8906
892.5860, 60.98242
893.7140, 58.63477
894.8430, 219.7012
895.9710, 213.0156
897.1000, 209.9883
898.2280, 257.4297
899.3560, 47.61523
900.4830, 191.9453
901.6110, 190.7207
902.7380, 20.38281
903.8660, 100.2148
904.9930, 215.1309
906.1200, 8.074219
907.2460, 175.3711
908.3730, 19.83594
909.5000, 117.3594
910.6260, 72.70898
911.7520, 10.26172
912.8780, 87.29492
914.0040, 167.4531
915.1290, 11.06836
916.2550, 246.5215
917.3800, 207.1875
918.5050, 253.2148
919.6300, 338.3027
920.7550, 15.09570
921.8800, 20.57422
923.0040, 98.42578
924.1290, 6.978516
925.2530, 167.9551
926.3770, 145.2344
927.5010, 39.45508
928.6250, 97.07812
929.7480, 136.8926
930.8720, 201.8379
931.9950, 109.0176
933.1180, 4.001953
934.2410, 227.2324
935.3640, 57.14258
936.4860, 45.34961
937.6090, 210.7871
938.7310, 199.4375
939.8530, 1.500000
940.9750, 128.4043
942.0970, 76.20703
943.2180, 12.15625
944.3400, 126.8301
945.4610, 98.08594
946.5820, 38.47656
947.7030, 156.2285
948.8240, 290.5156
949.9450, 26.67773
951.0650, 171.5371
952.1860, 435.3223
953.3060, 66.80273
954.4260, 250.4453
955.5460, 308.7031
956.6650, 265.4375
957.7850, 133.5117
958.9040, 241.2012
960.0230, 116.4746
961.1420, 233.7168
962.2610, 14.39453
963.3800, 162.0508
964.4990, 72.46875
965.6170, 13.10938
966.7350, 181.1445
967.8530, 177.5293
968.9710, 159.6230
970.0890, 103.5527
971.2070, 345.3164
972.3240, 203.8613
973.4410, 368.7715
974.5580, 190.1484
975.6750, 299.2520
976.7920, 119.8867
977.9090, 378.5996
979.0250, 353.1309
980.1410, 257.1543
981.2580, 354.8438
982.3740, 125.1973
983.4890, 75.25977
984.6050, 196.2344
985.7200, 352.4375
986.8360, 35.44531
987.9510, 33.20703
989.0660, 262.3164
990.1810, 227.4824
991.2950, 107.5156
992.4100, 392.9141
993.5240, 106.8145
994.6390, 108.6855
995.7530, 264.6895
996.8660, 69.26562
997.9800, 212.5566
999.0940, 294.2285
1000.207, 390.7422
1001.320, 232.7754
1002.433, 210.8789
1003.546, 144.8066
1004.659, 420.6504
1005.772, 43.36719
1006.884, 178.8086
1007.996, 382.2227
1009.108, 179.6973
1010.220, 253.2637
1011.332, 23.89453
1012.444, 140.8516
1013.555, 95.77930
1014.666, 39.03516
1015.777, 92.94922
1016.888, 253.5898
1017.999, 316.0664
1019.110, 133.7031
1020.220, 285.0000
1021.331, 405.9141
1022.441, 184.7285
1023.551, 372.5762
1024.661, 231.0508
1025.770, 357.8594
1026.880, 204.7285
1027.989, 326.6367
1029.098, 249.9688
1030.207, 314.9414
1031.316, 82.88477
1032.425, 89.15039
1033.533, 173.4941
1034.642, 30.34375
1035.750, 26.29883
1036.858, 178.0352
1037.966, 167.0488
1039.073, 200.7129
1040.181, 268.8496
1041.288, 120.7598
1042.396, 143.7598
1043.503, 115.6562
1044.610, 309.6816
1045.716, 36.92383
1046.823, 197.2949
1047.929, 101.6191
1049.036, 293.1074
1050.142, 16.87109
1051.248, 294.0020
1052.353, 445.0391
1053.459, 175.2773
1054.564, 213.2676
1055.670, 76.73633
1056.775, 413.3516
1057.880, 42.81641
1058.985, 279.0840
1060.089, 185.8184
1061.194, 309.7129
1062.298, 151.1191
1063.402, 137.7715
1064.506, 102.1758
1065.610, 343.7852
1066.713, 282.3906
1067.817, 409.0703
1068.920, 21.09961
1070.023, 185.8047
1071.126, 125.5586
1072.229, 249.7480
1073.332, 267.0137
1074.435, 34.82617
1075.537, 55.96484
1076.639, 190.5879
1077.741, 347.5859
1078.843, 295.9004
1079.945, 191.6680
1081.046, 285.6523
1082.148, 298.4297
1083.249, 397.3574
1084.350, 353.6250
1085.451, 171.1992
1086.551, 511.6641
1087.652, 191.5312
1088.752, 275.6504
1089.853, 306.1914
1090.953, 41.16016
1092.053, 192.4570
1093.152, 360.1289
1094.252, 183.3047
1095.351, 231.6875
1096.451, 6.500000
1097.550, 194.6152
1098.649, 69.52148
1099.748, 129.6562
1100.846, 95.24414
1101.945, 171.2832
1103.043, 307.2754
1104.141, 94.40820
1105.239, 239.7285
1106.337, 198.7910
1107.434, 83.07617
1108.532, 70.45898
1109.629, 199.6348
1110.726, 310.8066
1111.823, 145.6699
1112.920, 328.4043
1114.017, 98.95508
1115.113, 141.0742
1116.210, 292.3164
1117.306, 265.3398
1118.402, 199.7578
1119.498, 147.5547
1120.593, 369.1562
1121.689, 298.2695
1122.784, 422.2617
1123.879, 300.2227
1124.974, 565.1562
1126.069, 536.5938
1127.164, 201.0977
1128.259, 423.9922
1129.353, 246.4961
1130.447, 97.90625
1131.541, 230.2227
1132.635, 37.42578
1133.729, 301.2773
1134.822, 150.1992
1135.916, 333.5352
1137.009, 251.7578
1138.102, 359.7031
1139.195, 272.5508
1140.288, 64.57031
1141.380, 168.7578
1142.473, 29.45312
1143.565, 29.67188
1144.657, 176.0508
1145.749, 167.5273
1146.841, 261.8359
1147.932, 123.5586
1149.024, 425.8984
1150.115, 208.8672
1151.206, 195.4531
1152.297, 343.9414
1153.388, 192.9766
1154.479, 332.5508
1155.569, 62.17188
1156.659, 250.8906
1157.750, 157.5938
1158.839, 130.0742
1159.929, 174.2305
1161.019, 239.1562
1162.108, 228.1406
1163.198, 181.4414
1164.287, 175.9375
1165.376, 183.0352
1166.465, 137.8359
1167.553, 240.8359
1168.642, 237.4062
1169.730, 324.9961
1170.818, 322.7734
1171.906, 292.3477
1172.994, 339.5938
1174.082, 150.1250
1175.170, 15.80859
1176.257, 252.5547
1177.344, 259.9727
1178.431, 59.96484
1179.518, 159.5000
1180.605, 241.4023
1181.691, 97.32031
1182.778, 397.4219
1183.864, 173.4648
1184.950, 157.1328
1186.036, 195.4492
1187.122, 273.0430
1188.207, 204.6250
1189.292, 155.7500
1190.378, 246.2578
1191.463, 88.33594
1192.548, 54.82812
1193.632, 236.0195
1194.717, 80.10547
1195.801, 162.5430
1196.886, 285.6133
1197.970, 9.015625
1199.054, 212.3906
1200.137, 260.5586
1201.221, 58.34766
1202.305, 26.75781
1203.388, 244.3203
1204.471, 253.8672
1205.554, 345.9414
1206.637, 244.4492
1207.719, 396.3906
1208.802, 334.9570
1209.884, 274.2305
1210.966, 142.9922
1212.048, 311.7344
1213.130, 235.3789
1214.212, 285.0586
1215.293, 581.8359
1216.374, 341.1016
1217.456, 494.0469
1218.536, 157.9023
1219.617, 236.3594
1220.698, 230.9922
1221.778, 242.8789
1222.859, 251.9922
1223.939, 235.0547
1225.019, 278.6094
1226.099, 220.6914
1227.178, 224.8984
1228.258, 253.8164
1229.337, 110.8867
1230.417, 338.0117
1231.496, 183.3438
1232.574, 238.4023
1233.653, 148.9102
1234.732, 28.42578
1235.810, 181.4023
1236.888, 173.4727
1237.966, 243.3906
1239.044, 337.2227
1240.122, 104.9258
1241.199, 378.4844
1242.277, 58.73047
1243.354, 475.6172
1244.431, 282.2422
1245.508, 472.0508
1246.585, 349.7734
1247.661, 160.1797
1248.738, 214.4062
1249.814, 242.2617
1250.890, 333.8164
1251.966, 310.0898
1253.042, 184.9961
1254.117, 203.6953
1255.193, 281.7930
1256.268, 265.0938
1257.343, 310.1875
1258.418, 193.0156
1259.493, 103.5195
1260.567, 190.0664
1261.642, 55.80469
1262.716, 450.4336
1263.790, 388.1445
1264.864, 511.0117
1265.938, 523.8164
1267.011, 167.4570
1268.085, 310.8398
1269.158, 453.4688
1270.231, 516.8633
1271.304, 151.8047
1272.377, 357.5664
1273.450, 248.8359
1274.522, 250.1250
1275.594, 480.2305
1276.666, 45.30859
1277.738, 171.7227
1278.810, 35.65625
1279.882, 214.4531
1280.953, 372.3984
1282.025, 81.23828
1283.096, 459.0273
1284.167, 3.238281
1285.238, 198.0859
1286.308, 312.0234
1287.379, 209.7109
1288.449, 152.2148
1289.519, 118.8867
1290.589, 158.4805
1291.659, 311.1562
