##NAMES=Corundum
##RRUFFID=R060020
##IDEAL CHEMISTRY=Al_2_O_3_
##LOCALITY=Yogo Gulch, Montana, USA
##OWNER=RRUFF
##SOURCE=American Museum of Natural History
##DESCRIPTION=Water rounded light blue fragment
##STATUS=The identification of this mineral has been confirmed by X-ray diffraction and chemical analysis
##URL=rruff.info/R060020
##MEASURED CHEMISTRY=(Al_1.99_Fe^3+^_0.01_)_Î£=2_O_3_ ; Fe^3+^ by charge balance
##PIN_ID=L01955
##ORIENTATION=Laser parallel to c* (0 0 1). Fiducial mark perpendicular to laser is parallel to b [0 1 0]
179.5050, 203.9238
180.7290, 279.7393
181.9520, 77.51172
183.1760, 77.25195
184.3990, 105.9658
185.6220, 270.6582
186.8450, 148.3379
188.0670, 358.0078
189.2900, 334.6699
190.5120, 647.3262
191.7340, 863.9795
192.9560, 890.9512
194.1780, 1126.279
195.4000, 934.9268
196.6220, 773.5732
197.8430, 588.3564
199.0640, 449.9238
200.2860, 394.2695
201.5070, 470.8936
202.7270, 432.3037
203.9480, 457.7656
205.1690, 282.1396
206.3890, 162.1318
207.6090, 11.99512
208.8290, 11.24609
210.0490, 78.58301
211.2690, 47.73340
212.4890, 56.10059
213.7080, 118.2637
214.9280, 11.94043
216.1470, 193.0684
217.3660, 81.69434
218.5850, 29.95898
219.8030, 38.29883
221.0220, 31.22168
222.2400, 70.77930
223.4590, 48.06250
224.6770, 45.52441
225.8950, 123.2188
227.1120, 3.709961
228.3300, 28.32617
229.5480, 105.4238
230.7650, 185.9980
231.9820, 120.5557
233.1990, 21.09961
234.4160, 162.6152
235.6330, 80.10742
236.8490, 17.57422
238.0660, 34.01562
239.2820, 64.43262
240.4980, 55.58496
241.7140, 102.1904
242.9300, 104.5332
244.1460, 56.84863
245.3610, 97.13867
246.5770, 17.59570
247.7920, 81.22559
249.0070, 83.51953
250.2220, 48.06934
251.4370, 102.9912
252.6510, 39.52051
253.8660, 33.30957
255.0800, 54.42969
256.2940, 117.7988
257.5080, 122.3838
258.7220, 161.1621
259.9360, 334.1064
261.1490, 477.1982
262.3630, 290.4180
263.5760, 183.7549
264.7890, 221.1934
266.0020, 58.72363
267.2150, 228.3330
268.4270, 192.0156
269.6400, 245.7617
270.8520, 242.5684
272.0640, 261.4248
273.2760, 387.3340
274.4880, 412.2852
275.7000, 513.2725
276.9120, 694.2910
278.1230, 841.3359
279.3340, 922.4043
280.5450, 1028.495
281.7560, 1025.604
282.9670, 871.7275
284.1780, 736.8633
285.3880, 505.0039
286.5980, 338.1494
287.8090, 440.2979
289.0190, 308.4453
290.2290, 42.59180
291.4380, 219.7363
292.6480, 201.8779
293.8570, 67.98438
295.0670, 136.1270
296.2760, 104.2295
297.4850, 38.67480
298.6930, 197.3955
299.9020, 24.45898
301.1110, 93.49121
302.3190, 21.51855
303.5270, 111.5234
304.7350, 37.51172
305.9430, 21.52344
307.1510, 49.39160
308.3580, 85.28125
309.5660, 32.14258
310.7730, 0.9765630
311.9800, 3.216797
313.1870, 52.76562
314.3940, 5.137695
315.6010, 154.6416
316.8070, 136.9424
318.0130, 5.199219
319.2200, 57.72559
320.4260, 176.4844
321.6310, 15.50684
322.8370, 149.9551
324.0430, 83.73047
325.2480, 23.50684
326.4540, 101.7246
327.6590, 82.79785
328.8640, 48.25098
330.0680, 61.30762
331.2730, 51.36621
332.4780, 34.60156
333.6820, 7.655273
334.8860, 18.40723
336.0900, 93.21289
337.2940, 26.62207
338.4980, 94.02637
339.7010, 28.29590
340.9050, 206.6084
342.1080, 77.12695
343.3110, 158.3105
344.5140, 32.41602
345.7170, 60.20410
346.9200, 23.07129
348.1220, 71.30762
349.3240, 115.5205
350.5270, 132.0781
351.7290, 121.2900
352.9310, 108.5176
354.1320, 161.3994
355.3340, 108.6504
356.5350, 156.4258
357.7370, 268.2021
358.9380, 307.8047
360.1390, 465.3301
361.3400, 408.8291
362.5400, 509.2686
363.7410, 374.6523
364.9410, 284.3418
366.1410, 508.0430
367.3410, 378.1309
368.5410, 281.1152
369.7410, 586.0254
370.9400, 592.9053
372.1400, 763.6904
373.3390, 860.5215
374.5380, 1034.328
375.7370, 1297.112
376.9360, 1521.874
378.1350, 1485.612
379.3330, 1535.328
380.5310, 1491.021
381.7300, 1370.691
382.9280, 1272.339
384.1260, 1315.964
385.3230, 1136.566
386.5210, 1481.146
387.7180, 1423.703
388.9160, 1412.236
390.1130, 1702.747
391.3100, 1902.862
392.5060, 1984.341
393.7030, 1972.812
394.9000, 2053.268
396.0960, 1945.709
397.2920, 1918.975
398.4880, 1862.486
399.6840, 1720.867
400.8800, 1565.224
402.0750, 1371.031
403.2710, 1435.532
404.4660, 1355.360
405.6610, 1407.858
406.8560, 1296.417
408.0510, 1475.271
409.2450, 1885.757
410.4400, 2283.922
411.6340, 2330.516
412.8280, 2931.841
414.0220, 3599.605
415.2160, 4338.830
416.4100, 4738.463
417.6030, 4263.951
418.7970, 3605.618
419.9900, 2662.887
421.1830, 2173.402
422.3760, 1496.245
423.5690, 1262.618
424.7610, 1132.279
425.9540, 799.6035
427.1460, 970.1855
428.3380, 887.1934
429.5300, 889.3076
430.7220, 770.2451
431.9140, 703.1455
433.1050, 555.0127
434.2970, 538.8418
435.4880, 406.6357
436.6790, 401.3945
437.8700, 404.0332
439.0610, 307.7178
440.2510, 378.4893
441.4420, 340.5439
442.6320, 314.1240
443.8220, 345.4561
445.0120, 363.0146
446.2020, 577.8975
447.3910, 413.4863
448.5810, 583.4434
449.7700, 547.0439
450.9600, 426.1436
452.1490, 365.2471
453.3370, 340.5527
454.5260, 307.2168
455.7150, 273.2402
456.9030, 232.5117
458.0910, 143.8115
459.2800, 291.5508
460.4670, 161.3057
461.6550, 306.8672
462.8430, 231.1270
464.0300, 152.3789
465.2180, 86.41895
466.4050, 93.08887
467.5920, 347.5488
468.7790, 141.3926
469.9650, 178.5527
471.1520, 189.1846
472.3380, 152.4355
473.5250, 352.8340
474.7110, 30.81543
475.8970, 202.0811
477.0820, 86.87793
478.2680, 152.1572
479.4540, 266.4160
480.6390, 125.8906
481.8240, 341.8926
483.0090, 244.9209
484.1940, 195.6602
485.3780, 223.4570
486.5630, 152.0410
487.7470, 253.2080
488.9320, 286.7656
490.1160, 346.3193
491.3000, 208.6182
492.4830, 98.35352
493.6670, 333.1113
494.8500, 181.7822
496.0340, 277.3584
497.2170, 128.1162
498.4000, 256.6094
499.5820, 278.2646
500.7650, 327.0234
501.9480, 578.7559
503.1300, 407.4600
504.3120, 646.1387
505.4940, 779.7891
506.6760, 739.4141
507.8580, 1108.017
509.0390, 1001.596
510.2210, 1288.149
511.4020, 1202.679
512.5830, 1478.183
513.7640, 1459.662
514.9450, 1401.116
516.1250, 1306.545
517.3060, 1498.949
518.4860, 1389.328
519.6660, 1388.685
520.8460, 1258.015
522.0260, 1014.320
523.2060, 942.6006
524.3850, 852.1748
525.5650, 833.0859
526.7440, 764.2910
527.9230, 711.4717
529.1020, 671.6270
530.2810, 662.7568
531.4590, 526.8613
532.6380, 309.9404
533.8160, 357.9980
534.9940, 347.0293
536.1720, 436.0352
537.3500, 402.0469
538.5270, 258.9727
539.7050, 349.9082
540.8820, 328.1172
542.0590, 274.0020
543.2360, 8.019531
544.4130, 187.1172
545.5900, 103.5586
546.7660, 176.7480
547.9430, 155.8887
549.1190, 79.24414
550.2950, 161.9609
551.4710, 232.5684
552.6470, 132.8750
553.8220, 200.5547
554.9980, 99.28711
556.1730, 236.1074
557.3480, 12.61523
558.5230, 205.6484
559.6980, 162.4727
560.8730, 254.8184
562.0470, 212.5898
563.2220, 128.2754
564.3960, 43.23438
565.5700, 162.7246
566.7440, 42.00781
567.9170, 166.8848
569.0910, 395.4863
570.2640, 262.8164
571.4380, 619.9355
572.6110, 597.0234
573.7840, 738.0820
574.9570, 648.1113
576.1290, 596.1113
577.3020, 710.0820
578.4740, 550.0254
579.6460, 421.9609
580.8180, 269.0371
581.9900, 294.1758
583.1620, 65.50195
584.3330, 110.7500
585.5040, 31.05664
586.6760, 67.82031
587.8470, 47.25977
589.0180, 167.5762
590.1880, 206.6699
591.3590, 116.9883
592.5290, 107.9551
593.7000, 27.60938
594.8700, 229.2773
596.0400, 75.96875
597.2090, 272.4199
598.3790, 70.49414
599.5490, 81.10742
600.7180, 74.45703
601.8870, 71.30859
603.0560, 217.7168
604.2250, 230.8027
605.3940, 245.6367
606.5620, 425.8770
607.7300, 219.3809
608.8990, 320.8320
610.0670, 275.7031
611.2350, 406.7715
612.4020, 373.8555
613.5700, 518.2852
614.7370, 446.6602
615.9050, 594.0117
617.0720, 658.0879
618.2390, 694.6230
619.4060, 728.4824
620.5720, 826.5977
621.7390, 907.6660
622.9050, 1029.062
624.0710, 1114.457
625.2370, 1239.764
626.4030, 1353.895
627.5690, 1693.361
628.7340, 1634.838
629.9000, 1985.475
631.0650, 2230.951
632.2300, 2342.561
633.3950, 2614.502
634.5600, 2912.918
635.7240, 2949.174
636.8890, 3054.549
638.0530, 2985.533
639.2170, 2887.123
640.3810, 2667.764
641.5450, 2796.068
642.7080, 2762.352
643.8720, 2334.711
645.0350, 2182.945
646.1980, 1931.156
647.3610, 1890.777
648.5240, 1640.938
649.6870, 1431.078
650.8490, 1350.197
652.0120, 1361.562
653.1740, 1044.633
654.3360, 955.6797
655.4980, 742.6992
656.6600, 769.6914
657.8210, 650.6582
658.9830, 621.7969
660.1440, 618.7168
661.3050, 570.6113
662.4660, 638.4805
663.6270, 593.3262
664.7870, 497.1484
665.9480, 399.9492
667.1080, 414.7227
668.2680, 416.2422
669.4280, 455.2012
670.5880, 507.9062
671.7480, 617.5859
672.9070, 628.2383
674.0670, 532.8672
675.2260, 499.4668
676.3850, 817.0430
677.5440, 613.5898
678.7030, 562.1113
679.8610, 251.6934
681.0200, 358.1602
682.1780, 295.5996
683.3360, 247.5352
684.4940, 169.7246
685.6520, 223.5293
686.8090, 228.8945
687.9670, 171.4629
689.1240, 78.45508
690.2810, 98.63672
691.4380, 60.08398
692.5950, 66.42578
693.7520, 67.58008
694.9080, 101.2441
696.0650, 255.9316
697.2210, 89.66406
698.3770, 39.02539
699.5330, 15.96484
700.6880, 182.5801
701.8440, 34.03516
702.9990, 27.34961
704.1550, 49.05859
705.3100, 83.71484
706.4650, 170.6406
707.6190, 228.9961
708.7740, 287.3125
709.9290, 341.6895
711.0830, 506.7402
712.2370, 523.7637
713.3910, 616.9316
714.5450, 584.8945
715.6980, 564.8242
716.8520, 512.0312
718.0050, 376.9531
719.1580, 292.2246
720.3110, 269.9043
721.4640, 221.4277
722.6170, 232.1641
723.7700, 209.2227
724.9220, 251.4297
726.0740, 237.4453
727.2260, 172.7988
728.3780, 218.6895
729.5300, 160.5859
730.6810, 236.9492
731.8330, 304.0039
732.9840, 291.4922
734.1350, 270.4727
735.2860, 287.4473
736.4370, 401.8965
737.5880, 433.0742
738.7380, 556.1562
739.8880, 695.2793
741.0390, 1020.357
742.1890, 1022.123
743.3380, 1218.953
744.4880, 1402.691
745.6380, 1478.777
746.7870, 1734.613
747.9360, 1783.781
749.0850, 1685.729
750.2340, 1799.834
751.3830, 1657.154
752.5310, 1593.773
753.6800, 1483.385
754.8280, 1329.227
755.9760, 1200.691
757.1240, 1067.766
758.2720, 1054.777
759.4190, 839.0332
760.5670, 768.0273
761.7140, 672.0781
762.8610, 525.3594
764.0080, 554.8652
765.1550, 445.3750
766.3020, 400.7461
767.4480, 318.5098
768.5950, 388.0176
769.7410, 312.3613
770.8870, 455.1719
772.0330, 408.9355
773.1780, 544.1816
774.3240, 368.9512
775.4690, 434.8574
776.6140, 297.0215
777.7590, 286.9512
778.9040, 368.4258
780.0490, 383.7090
781.1940, 338.6094
782.3380, 379.3477
783.4820, 406.2109
784.6260, 259.3047
785.7700, 560.2090
786.9140, 378.2266
788.0580, 457.1543
789.2010, 297.8770
790.3450, 420.0918
791.4880, 533.5938
792.6310, 398.5586
793.7730, 430.9160
794.9160, 385.3613
796.0590, 318.0977
797.2010, 462.4277
798.3430, 725.8477
799.4850, 827.2520
800.6270, 919.8711
801.7690, 614.3887
802.9100, 599.9492
804.0520, 468.2773
805.1930, 634.7676
806.3340, 528.3711
807.4750, 844.8516
808.6160, 615.6328
809.7560, 624.6699
810.8970, 365.6406
812.0370, 557.3145
813.1770, 524.1758
814.3170, 470.8066
815.4570, 710.3008
816.5960, 346.3066
817.7360, 407.4199
818.8750, 652.4297
820.0140, 499.8105
821.1530, 588.8379
822.2920, 615.9121
823.4310, 299.0078
824.5690, 405.3652
825.7070, 511.8945
826.8460, 302.6543
827.9840, 340.9883
829.1220, 491.3027
830.2590, 420.7520
831.3970, 461.5039
832.5340, 237.0547
833.6710, 443.3242
834.8080, 259.2910
835.9450, 370.7188
837.0820, 366.3418
838.2190, 175.9297
839.3550, 82.07812
840.4910, 223.0391
841.6270, 423.7188
842.7630, 345.2637
843.8990, 207.0664
845.0350, 199.6445
846.1700, 213.6562
847.3060, 372.8535
848.4410, 391.0098
849.5760, 276.8750
850.7100, 441.4453
851.8450, 348.8281
852.9800, 264.1641
854.1140, 286.4492
855.2480, 214.6895
856.3820, 411.7109
857.5160, 277.5938
858.6500, 219.2266
859.7830, 238.4980
860.9170, 110.0469
862.0500, 129.6816
863.1830, 103.1250
864.3160, 137.0137
865.4480, 109.7812
866.5810, 167.8652
867.7130, 224.7070
868.8460, 220.4297
869.9780, 109.6914
871.1100, 188.8516
872.2410, 264.2324
873.3730, 119.6016
874.5050, 147.2070
875.6360, 248.8789
876.7670, 4.228516
877.8980, 106.3594
879.0290, 105.5059
880.1590, 54.88281
881.2900, 107.5859
882.4200, 41.40625
883.5500, 72.55273
884.6800, 94.56055
885.8100, 72.73242
886.9400, 253.3691
888.0690, 192.7715
889.1990, 187.1289
890.3280, 124.8477
891.4570, 16.13477
892.5860, 55.11914
893.7140, 63.60352
894.8430, 140.8457
895.9710, 59.10742
897.1000, 38.97070
898.2280, 45.78711
899.3560, 151.7852
900.4830, 26.62891
901.6110, 44.31445
902.7380, 62.42383
903.8660, 114.8984
904.9930, 144.3164
906.1200, 262.9043
907.2460, 27.00391
908.3730, 140.2773
909.5000, 13.36523
910.6260, 1.494141
911.7520, 132.5645
912.8780, 49.04688
914.0040, 37.93555
915.1290, 73.08594
916.2550, 154.9863
917.3800, 184.5059
918.5050, 147.2930
919.6300, 82.85547
920.7550, 117.4062
921.8800, 80.23828
923.0040, 91.69141
924.1290, 130.6289
925.2530, 10.16797
926.3770, 161.9883
927.5010, 279.9844
928.6250, 175.4277
929.7480, 144.2148
930.8720, 63.53906
931.9950, 149.7109
933.1180, 117.6973
934.2410, 110.8613
935.3640, 47.92383
936.4860, 61.94141
937.6090, 40.61914
938.7310, 84.78906
939.8530, 35.25586
940.9750, 6.335938
942.0970, 15.78125
943.2180, 172.1973
944.3400, 99.85352
945.4610, 104.8086
946.5820, 164.3418
947.7030, 108.8145
948.8240, 152.2422
949.9450, 173.9922
951.0650, 40.13281
952.1860, 171.2949
953.3060, 255.5977
954.4260, 126.7285
955.5460, 154.2656
956.6650, 53.27930
957.7850, 384.2324
958.9040, 259.8457
960.0230, 148.6895
961.1420, 228.4766
962.2610, 98.94141
963.3800, 158.5137
964.4990, 18.15625
965.6170, 53.22656
966.7350, 100.4531
967.8530, 47.51562
968.9710, 213.9922
970.0890, 135.1270
971.2070, 184.7441
972.3240, 312.4668
973.4410, 181.1895
974.5580, 140.8730
975.6750, 62.75391
976.7920, 125.9551
977.9090, 142.4512
979.0250, 243.9551
980.1410, 187.6719
981.2580, 176.1074
982.3740, 175.9648
983.4890, 235.3789
984.6050, 294.7148
985.7200, 464.6641
986.8360, 553.4922
987.9510, 787.2969
989.0660, 658.9355
990.1810, 393.3301
991.2950, 495.5684
992.4100, 344.6680
993.5240, 177.4922
994.6390, 76.46875
995.7530, 381.9277
996.8660, 284.9199
997.9800, 255.1973
999.0940, 240.9590
1000.207, 95.39258
1001.320, 217.3887
1002.433, 189.0801
1003.546, 262.6465
1004.659, 139.6094
1005.772, 395.2109
1006.884, 125.7031
1007.996, 296.1367
1009.108, 268.0234
1010.220, 95.59570
1011.332, 53.22852
1012.444, 70.28516
1013.555, 232.0723
1014.666, 47.46680
1015.777, 98.81445
1016.888, 339.4238
1017.999, 62.34766
1019.110, 249.7324
1020.220, 124.9355
1021.331, 37.29688
1022.441, 166.3164
1023.551, 305.5527
1024.661, 221.0176
1025.770, 146.7812
1026.880, 11.23633
1027.989, 13.44531
1029.098, 42.51172
1030.207, 7.777344
1031.316, 51.80664
1032.425, 187.6094
1033.533, 170.9824
1034.642, 303.0059
1035.750, 249.6426
1036.858, 111.9785
1037.966, 148.0098
1039.073, 50.67773
1040.181, 199.6660
1041.288, 131.8398
1042.396, 164.3086
1043.503, 142.8770
1044.610, 140.4395
1045.716, 229.0703
1046.823, 47.96289
1047.929, 340.1875
1049.036, 118.7676
1050.142, 173.2383
1051.248, 31.25000
1052.353, 159.2969
1053.459, 236.1641
1054.564, 115.3066
1055.670, 142.3105
1056.775, 251.7441
1057.880, 267.2480
1058.985, 250.7656
1060.089, 194.1465
1061.194, 402.7148
1062.298, 217.1543
1063.402, 398.9844
1064.506, 289.4902
1065.610, 127.3867
1066.713, 339.0078
1067.817, 493.8906
1068.920, 502.1191
1070.023, 466.9824
1071.126, 439.1777
1072.229, 164.4629
1073.332, 242.8652
1074.435, 211.9316
1075.537, 428.7676
1076.639, 426.3457
1077.741, 242.4961
1078.843, 469.5488
1079.945, 595.7168
1081.046, 629.7148
1082.148, 280.0488
1083.249, 422.9512
1084.350, 367.1523
1085.451, 303.5273
1086.551, 515.4004
1087.652, 220.6504
1088.752, 427.3906
1089.853, 432.9844
1090.953, 531.1973
1092.053, 431.2598
1093.152, 392.0859
1094.252, 551.4961
1095.351, 601.3281
1096.451, 477.4805
1097.550, 582.3711
1098.649, 275.9141
1099.748, 322.8398
1100.846, 323.1875
1101.945, 323.5234
1103.043, 273.4766
1104.141, 237.5859
1105.239, 93.66797
1106.337, 236.3867
1107.434, 82.21875
1108.532, 329.0312
1109.629, 241.7617
1110.726, 114.7617
1111.823, 42.83203
1112.920, 109.7617
1114.017, 99.32422
1115.113, 131.2656
1116.210, 214.6992
1117.306, 275.3164
1118.402, 292.0703
1119.498, 230.5352
1120.593, 278.9492
1121.689, 252.9297
1122.784, 142.8086
1123.879, 121.8789
1124.974, 117.3594
1126.069, 409.6953
1127.164, 29.85156
1128.259, 201.3555
1129.353, 753.5195
1130.447, 238.7422
1131.541, 277.5586
1132.635, 186.4570
1133.729, 302.7812
1134.822, 313.6758
1135.916, 419.0000
1137.009, 245.5430
1138.102, 408.6445
1139.195, 188.8984
1140.288, 421.7734
1141.380, 258.7148
1142.473, 339.1289
1143.565, 265.5078
1144.657, 309.5703
1145.749, 396.9375
1146.841, 415.2188
1147.932, 218.0898
1149.024, 122.2812
1150.115, 259.5391
1151.206, 29.30469
1152.297, 308.7109
1153.388, 266.3008
1154.479, 422.1133
1155.569, 218.6445
1156.659, 217.1992
1157.750, 14.71875
1158.839, 134.3242
1159.929, 295.3164
1161.019, 238.1992
1162.108, 237.6758
1163.198, 350.6211
1164.287, 133.1211
1165.376, 315.4961
1166.465, 175.3945
1167.553, 252.0195
1168.642, 124.0195
1169.730, 226.1406
1170.818, 253.7773
1171.906, 458.9883
1172.994, 316.2266
1174.082, 6.792969
1175.170, 240.2734
1176.257, 140.0430
1177.344, 428.1250
1178.431, 34.32812
1179.518, 292.4648
1180.605, 146.9297
1181.691, 154.5586
1182.778, 87.91406
1183.864, 171.6133
1184.950, 128.5234
1186.036, 381.6250
1187.122, 245.0273
1188.207, 253.9062
1189.292, 110.5703
1190.378, 289.6094
1191.463, 378.3672
1192.548, 264.0742
1193.632, 126.5547
1194.717, 480.1992
1195.801, 92.65625
1196.886, 503.3750
1197.970, 269.3711
1199.054, 376.7773
1200.137, 201.2148
1201.221, 326.5195
1202.305, 2.160156
1203.388, 23.41406
1204.471, 276.2578
1205.554, 225.0703
1206.637, 302.8477
1207.719, 174.0586
1208.802, 266.2773
1209.884, 465.0508
1210.966, 23.99609
1212.048, 253.6562
1213.130, 48.85156
1214.212, 294.3984
1215.293, 472.8984
1216.374, 135.2422
1217.456, 268.6445
1218.536, 195.5312
1219.617, 445.4688
1220.698, 432.8320
1221.778, 245.0547
1222.859, 225.2812
1223.939, 240.7383
1225.019, 37.81250
1226.099, 364.8359
1227.178, 8.179688
1228.258, 339.7344
1229.337, 185.3945
1230.417, 369.2656
1231.496, 423.2656
1232.574, 357.6641
1233.653, 354.9766
1234.732, 235.3164
1235.810, 176.9961
1236.888, 334.2266
1237.966, 247.7695
1239.044, 318.2305
1240.122, 257.3477
1241.199, 327.8828
1242.277, 292.0000
1243.354, 353.6055
1244.431, 247.9414
1245.508, 176.7031
1246.585, 177.1367
1247.661, 227.4375
1248.738, 163.0039
1249.814, 222.6367
1250.890, 315.6914
1251.966, 87.55469
1253.042, 266.4023
1254.117, 155.3906
1255.193, 36.78516
1256.268, 122.2617
1257.343, 98.05469
1258.418, 22.81250
1259.493, 71.74219
1260.567, 142.8906
1261.642, 203.2109
1262.716, 211.5000
1263.790, 273.5391
1264.864, 233.7500
1265.938, 284.3281
1267.011, 331.6562
1268.085, 86.80859
1269.158, 96.45703
1270.231, 291.6172
1271.304, 82.87500
1272.377, 267.2070
1273.450, 75.23828
1274.522, 106.2578
1275.594, 121.3594
1276.666, 76.83984
1277.738, 221.3398
1278.810, 9.890625
1279.882, 221.9375
1280.953, 54.94531
1282.025, 23.78906
1283.096, 76.08984
1284.167, 285.6719
1285.238, 21.15234
1286.308, 426.7930
1287.379, 265.0547
1288.449, 445.9336
1289.519, 267.3711
1290.589, 119.9648
1291.659, 405.1016
1292.729, 471.5742
1293.798, 584.4492
1294.868, 479.1914
1295.937, 370.9883
1297.006, 454.3789
1298.075, 360.3516
1299.143, 370.6094
1300.212, 604.8789
1301.280, 284.5781
1302.348, 456.0156
1303.416, 306.3203
1304.484, 415.3555
1305.552, 567.9297
1306.620, 306.3242
1307.687, 248.6992
1308.754, 618.7695
1309.821, 123.1875
1310.888, 510.5898
1311.955, 304.6797
1313.021, 318.0820
1314.088, 137.2578
1315.154, 321.3047
1316.220, 304.8672
1317.286, 558.4297
1318.352, 240.3477
1319.417, 238.9570
1320.483, 496.7812
1321.548, 302.2109
1322.613, 109.0195
1323.678, 405.7031
1324.743, 376.2734
1325.807, 226.8906
1326.872, 413.1289
1327.936, 338.6758
1329.000, 399.5547
1330.064, 342.9258
1331.128, 357.2969
1332.191, 518.2578
1333.255, 391.3125
1334.318, 638.5820
1335.381, 258.6836
1336.444, 156.2031
1337.507, 432.0742
1338.569, 283.5273
1339.632, 465.2266
1340.694, 144.9453
1341.756, 487.7695
1342.818, 518.5859
1343.880, 485.6094
1344.941, 622.6953
1346.003, 399.3047
1347.064, 182.5703
1348.125, 312.2930
1349.186, 475.2891
