##NAMES=Corundum
##RRUFFID=R040096
##IDEAL CHEMISTRY=Al_2_O_3_
##LOCALITY=Sri Lanka
##OWNER=RRUFF
##SOURCE=University of Arizona Mineral Museum
##DESCRIPTION=Pale purple hexagonal prism
##STATUS=The identification of this mineral has been confirmed by X-ray diffraction and chemical analysis
##URL=rruff.info/R040096
##MEASURED CHEMISTRY=Al_2.00_O_3_
##PIN_ID=L01198
##ORIENTATION=Laser parallel to a* (1 0 0). Fiducial mark perpendicular to laser is parallel to c [0 0 1]
113.2080, 0.0000000E+00
114.4400, 44.11865
115.6710, 0.8203130
116.9030, 22.83887
118.1340, 109.6528
119.3650, 63.33350
120.5960, 76.79102
121.8270, 4.688965
123.0580, 141.8750
124.2880, 113.2646
125.5190, 72.97656
126.7490, 79.53564
127.9790, 73.01221
129.2090, 108.4429
130.4390, 47.85303
131.6680, 62.25879
132.8980, 116.6582
134.1270, 175.0557
135.3560, 63.47412
136.5850, 209.0835
137.8140, 179.9951
139.0430, 77.05273
140.2710, 141.2124
141.5000, 101.4517
142.7280, 110.7593
143.9560, 101.0962
145.1840, 162.4717
146.4120, 96.88916
147.6390, 117.4468
148.8670, 166.9678
150.0940, 148.4570
151.3210, 207.9385
152.5490, 169.4272
153.7750, 92.93652
155.0020, 55.47119
156.2290, 89.17822
157.4550, 63.00049
158.6810, 37.09961
159.9080, 99.81836
161.1340, 124.9600
162.3590, 203.8955
163.5850, 94.63721
164.8110, 164.4697
166.0360, 156.5762
167.2610, 133.6313
168.4860, 172.8369
169.7110, 179.0840
170.9360, 127.3677
172.1610, 139.1509
173.3850, 85.88916
174.6100, 110.6704
175.8340, 76.57764
177.0580, 200.6743
178.2820, 108.7285
179.5050, 132.6367
180.7290, 29.23682
181.9520, 112.8662
183.1760, 67.12207
184.3990, 232.2715
185.6220, 161.4155
186.8450, 106.4858
188.0670, 112.8965
189.2900, 101.7393
190.5120, 156.0459
191.7340, 151.2104
192.9560, 107.2783
194.1780, 183.2070
195.4000, 131.2183
196.6220, 129.2759
197.8430, 179.4434
199.0640, 116.3232
200.2860, 233.4556
201.5070, 291.3413
202.7270, 126.9458
203.9480, 162.8076
205.1690, 98.84131
206.3890, 145.1509
207.6090, 223.3315
208.8290, 45.97705
210.0490, 121.6797
211.2690, 88.04150
212.4890, 154.1948
213.7080, 23.35449
214.9280, 94.12158
216.1470, 15.61816
217.3660, 236.5112
218.5850, 165.8677
219.8030, 170.0718
221.0220, 172.5469
222.2400, 66.79053
223.4590, 232.4146
224.6770, 56.75439
225.8950, 183.5107
227.1120, 47.20801
228.3300, 159.2881
229.5480, 110.4502
230.7650, 160.1001
231.9820, 127.9805
233.1990, 126.5225
234.4160, 81.58936
235.6330, 98.43848
236.8490, 64.76562
238.0660, 99.97217
239.2820, 98.00244
240.4980, 39.04150
241.7140, 135.0649
242.9300, 36.07373
244.1460, 44.06836
245.3610, 102.0464
246.5770, 129.0146
247.7920, 71.97266
249.0070, 127.9136
250.2220, 62.85742
251.4370, 8.174316
252.6510, 14.79834
253.8660, 167.7534
255.0800, 140.6924
256.2940, 98.59912
257.5080, 260.5127
258.7220, 267.4111
259.9360, 221.2188
261.1490, 61.85791
262.3630, 136.3281
263.5760, 88.00293
264.7890, 25.68701
266.0020, 141.3730
267.2150, 71.05713
268.4270, 1.739258
269.6400, 80.41406
270.8520, 8.2030997E-02
272.0640, 131.7397
273.2760, 119.3853
274.4880, 161.0205
275.7000, 102.6440
276.9120, 125.2554
278.1230, 42.85400
279.3340, 22.56006
280.5450, 34.00586
281.7560, 18.55859
282.9670, 48.95410
284.1780, 5.495117
285.3880, 56.94922
286.5980, 1.381836
287.8090, 11.79736
289.0190, 59.19580
290.2290, 10.42188
291.4380, 12.93848
292.6480, 4.280762
293.8570, 12.39551
295.0670, 7.906250
296.2760, 28.18994
297.4850, 72.45703
298.6930, 63.06104
299.9020, 75.94141
301.1110, 78.16064
302.3190, 14.36426
303.5270, 67.55225
304.7350, 24.74023
305.9430, 35.92773
307.1510, 54.76514
308.3580, 9.333496
309.5660, 5.601563
310.7730, 138.6543
311.9800, 75.02246
313.1870, 140.9990
314.3940, 40.97510
315.6010, 195.1768
316.8070, 142.4727
318.0130, 86.69678
319.2200, 40.25439
320.4260, 0.8701170
321.6310, 49.67627
322.8370, 21.98584
324.0430, 67.72070
325.2480, 35.36182
326.4540, 82.46777
327.6590, 156.6592
328.8640, 123.7178
330.0680, 159.7432
331.2730, 56.03418
332.4780, 169.5742
333.6820, 120.6157
334.8860, 139.9414
336.0900, 30.98438
337.2940, 188.8364
338.4980, 112.9292
339.7010, 83.05029
340.9050, 239.3657
342.1080, 213.5210
343.3110, 112.7075
344.5140, 7.833984
345.7170, 153.4971
346.9200, 52.59912
348.1220, 100.2402
349.3240, 59.69629
350.5270, 83.79541
351.7290, 156.7285
352.9310, 194.4414
354.1320, 217.0405
355.3340, 270.5654
356.5350, 181.2871
357.7370, 11.82715
358.9380, 120.6704
360.1390, 175.0732
361.3400, 134.3862
362.5400, 234.0635
363.7410, 251.9956
364.9410, 268.7393
366.1410, 230.3364
367.3410, 459.2427
368.5410, 487.8584
369.7410, 692.8286
370.9400, 872.4951
372.1400, 1174.562
373.3390, 1750.913
374.5380, 2631.959
375.7370, 3615.144
376.9360, 4289.756
378.1350, 3931.441
379.3330, 2992.773
380.5310, 2001.168
381.7300, 1483.024
382.9280, 921.1616
384.1260, 604.5068
385.3230, 510.1401
386.5210, 304.3184
387.7180, 301.6372
388.9160, 354.3472
390.1130, 338.4614
391.3100, 358.3975
392.5060, 384.0293
393.7030, 302.6416
394.9000, 398.3633
396.0960, 373.3149
397.2920, 316.4658
398.4880, 426.3032
399.6840, 443.5527
400.8800, 535.4014
402.0750, 720.6279
403.2710, 831.7217
404.4660, 1128.672
405.6610, 1818.242
406.8560, 2593.470
408.0510, 3828.533
409.2450, 4292.966
410.4400, 5227.471
411.6340, 7323.160
412.8280, 10872.14
414.0220, 14694.50
415.2160, 17539.34
416.4100, 16597.80
417.6030, 13350.39
418.7970, 9517.734
419.9900, 6168.969
421.1830, 3831.202
422.3760, 2382.234
423.5690, 1608.735
424.7610, 1477.836
425.9540, 1369.789
427.1460, 1623.104
428.3380, 1642.445
429.5300, 1557.629
430.7220, 1227.703
431.9140, 940.8223
433.1050, 795.1221
434.2970, 529.3115
435.4880, 414.3438
436.6790, 436.2900
437.8700, 370.4072
439.0610, 337.5234
440.2510, 284.8857
441.4420, 235.3623
442.6320, 276.9756
443.8220, 281.8164
445.0120, 345.6807
446.2020, 403.6211
447.3910, 285.6250
448.5810, 216.2207
449.7700, 183.5732
450.9600, 235.1914
452.1490, 177.0527
453.3370, 242.6475
454.5260, 155.7236
455.7150, 213.9824
456.9030, 233.6514
458.0910, 162.9180
459.2800, 136.8369
460.4670, 150.0410
461.6550, 188.3789
462.8430, 98.05273
464.0300, 54.42578
465.2180, 106.2109
466.4050, 18.42676
467.5920, 98.97559
468.7790, 134.1777
469.9650, 117.1924
471.1520, 142.7295
472.3380, 84.82324
473.5250, 142.4824
474.7110, 20.23438
475.8970, 131.8965
477.0820, 59.54883
478.2680, 122.9707
479.4540, 162.7471
480.6390, 99.91309
481.8240, 88.99609
483.0090, 37.77441
484.1940, 67.81348
485.3780, 54.85352
486.5630, 56.61523
487.7470, 160.8496
488.9320, 50.69824
490.1160, 153.0820
491.3000, 189.6240
492.4830, 58.04297
493.6670, 64.29590
494.8500, 111.8926
496.0340, 113.4883
497.2170, 146.0449
498.4000, 87.56152
499.5820, 126.0566
500.7650, 5.772461
501.9480, 140.9600
503.1300, 92.31445
504.3120, 60.47168
505.4940, 44.25488
506.6760, 33.94629
507.8580, 64.10254
509.0390, 204.2178
510.2210, 50.29395
511.4020, 168.3252
512.5830, 28.31543
513.7640, 124.2588
514.9450, 94.16309
516.1250, 161.0254
517.3060, 122.8447
518.4860, 20.62207
519.6660, 9.353516
520.8460, 61.04004
522.0260, 52.68359
523.2060, 146.2812
524.3850, 102.8389
525.5650, 48.48535
526.7440, 49.04004
527.9230, 78.63867
529.1020, 76.79492
530.2810, 128.3438
531.4590, 79.66211
532.6380, 117.4883
533.8160, 46.06445
534.9940, 58.99219
536.1720, 117.2109
537.3500, 73.57812
538.5270, 194.2451
539.7050, 36.17871
540.8820, 17.26660
542.0590, 94.72168
543.2360, 15.09766
544.4130, 30.43359
545.5900, 58.71680
546.7660, 100.1641
547.9430, 5.548828
549.1190, 10.76074
550.2950, 77.27539
551.4710, 136.5723
552.6470, 56.11523
553.8220, 137.6953
554.9980, 130.8730
556.1730, 0.6435550
557.3480, 144.8760
558.5230, 108.3438
559.6980, 159.5957
560.8730, 167.7090
562.0470, 174.9111
563.2220, 143.1260
564.3960, 90.43457
565.5700, 112.5205
566.7440, 125.1523
567.9170, 197.8242
569.0910, 132.5283
570.2640, 104.1689
571.4380, 284.6660
572.6110, 306.5166
573.7840, 431.1035
574.9570, 499.7705
576.1290, 359.1094
577.3020, 297.8594
578.4740, 266.2568
579.6460, 249.7520
580.8180, 211.3721
581.9900, 220.4707
583.1620, 170.0459
584.3330, 120.9932
585.5040, 109.5664
586.6760, 33.44043
587.8470, 49.74609
589.0180, 100.5781
590.1880, 162.4014
591.3590, 154.6514
592.5290, 127.9385
593.7000, 152.5840
594.8700, 62.23438
596.0400, 145.4102
597.2090, 144.5889
598.3790, 135.6797
599.5490, 69.19336
600.7180, 231.1768
601.8870, 136.1592
603.0560, 273.3682
604.2250, 209.0479
605.3940, 201.4941
606.5620, 265.1084
607.7300, 284.8809
608.8990, 51.35938
610.0670, 132.9219
611.2350, 64.35938
612.4020, 135.8398
613.5700, 255.0225
614.7370, 129.3887
615.9050, 235.1729
617.0720, 196.3809
618.2390, 260.2334
619.4060, 295.2959
620.5720, 354.4785
621.7390, 283.4092
622.9050, 353.6318
624.0710, 452.4570
625.2370, 306.2139
626.4030, 386.7412
627.5690, 473.7061
628.7340, 583.6514
629.9000, 703.0830
631.0650, 693.7227
632.2300, 950.2344
633.3950, 1116.164
634.5600, 1692.469
635.7240, 2112.195
636.8890, 2660.600
638.0530, 3268.527
639.2170, 3938.752
640.3810, 5030.955
641.5450, 5686.289
642.7080, 6164.029
643.8720, 6069.767
645.0350, 5395.400
646.1980, 4528.433
647.3610, 3820.760
648.5240, 2814.021
649.6870, 2204.620
650.8490, 1698.570
652.0120, 1487.914
653.1740, 1103.067
654.3360, 965.6250
655.4980, 798.9160
656.6600, 718.7383
657.8210, 668.9590
658.9830, 567.4893
660.1440, 542.4561
661.3050, 400.4326
662.4660, 348.7773
663.6270, 469.1553
664.7870, 293.7529
665.9480, 384.7256
667.1080, 254.4873
668.2680, 270.5156
669.4280, 106.9141
670.5880, 293.3555
671.7480, 161.6914
672.9070, 210.8457
674.0670, 115.8682
675.2260, 274.6289
676.3850, 228.0586
677.5440, 146.2158
678.7030, 158.0420
679.8610, 169.9102
681.0200, 155.9121
682.1780, 163.9170
683.3360, 161.4287
684.4940, 162.7998
685.6520, 111.8857
686.8090, 116.2119
687.9670, 144.6191
689.1240, 60.02441
690.2810, 100.7559
691.4380, 53.25391
692.5950, 21.41016
693.7520, 95.09766
694.9080, 59.10449
696.0650, 67.42285
697.2210, 12.15137
698.3770, 30.55078
699.5330, 51.23242
700.6880, 24.93848
701.8440, 17.90234
702.9990, 57.45801
704.1550, 22.47266
705.3100, 110.9912
706.4650, 17.78027
707.6190, 98.52148
708.7740, 78.35742
709.9290, 100.1953
711.0830, 17.48926
712.2370, 57.99609
713.3910, 28.73535
714.5450, 96.86914
715.6980, 25.13086
716.8520, 60.35156
718.0050, 27.63281
719.1580, 128.5098
720.3110, 194.2168
721.4640, 211.6699
722.6170, 112.0303
723.7700, 188.4980
724.9220, 103.7021
726.0740, 226.3662
727.2260, 86.94531
728.3780, 68.58984
729.5300, 1.564453
730.6810, 12.86426
731.8330, 40.08691
732.9840, 72.64453
734.1350, 103.7783
735.2860, 157.5410
736.4370, 171.9609
737.5880, 238.8740
738.7380, 334.1699
739.8880, 341.2998
741.0390, 296.0986
742.1890, 379.7754
743.3380, 646.2529
744.4880, 510.8076
745.6380, 736.1455
746.7870, 811.7510
747.9360, 922.6357
749.0850, 762.0371
750.2340, 761.4639
751.3830, 541.3652
752.5310, 541.1953
753.6800, 456.8271
754.8280, 429.5498
755.9760, 487.9229
757.1240, 385.0869
758.2720, 462.0068
759.4190, 311.1934
760.5670, 218.2578
761.7140, 249.4326
762.8610, 283.3691
764.0080, 312.3975
765.1550, 196.9795
766.3020, 54.63867
767.4480, 54.58203
768.5950, 95.23535
769.7410, 149.7197
770.8870, 116.3525
772.0330, 287.9990
773.1780, 225.1729
774.3240, 55.06152
775.4690, 190.6582
776.6140, 49.19629
777.7590, 79.56738
778.9040, 132.5742
780.0490, 180.3965
781.1940, 118.4629
782.3380, 98.03613
783.4820, 162.4170
784.6260, 118.2275
785.7700, 152.2617
786.9140, 197.5713
788.0580, 185.8027
789.2010, 200.3750
790.3450, 380.9502
791.4880, 78.95898
792.6310, 99.03418
793.7730, 264.8994
794.9160, 117.8838
796.0590, 161.8838
797.2010, 22.20410
798.3430, 79.67188
799.4850, 212.3213
800.6270, 51.13965
801.7690, 11.87891
802.9100, 262.9316
804.0520, 169.2275
805.1930, 252.4727
806.3340, 289.6660
807.4750, 173.7891
808.6160, 137.0938
809.7560, 203.2793
810.8970, 148.8125
812.0370, 208.7988
813.1770, 332.2461
814.3170, 389.4902
815.4570, 288.9258
816.5960, 181.4805
817.7360, 237.7227
818.8750, 220.7812
820.0140, 263.3047
821.1530, 158.0664
822.2920, 239.8281
823.4310, 208.7422
824.5690, 294.5762
825.7070, 294.1309
826.8460, 282.6562
827.9840, 265.2676
829.1220, 231.6152
830.2590, 291.0742
831.3970, 241.2734
832.5340, 247.7812
833.6710, 240.4570
834.8080, 230.1895
835.9450, 198.0566
837.0820, 183.8281
838.2190, 113.0312
839.3550, 141.7949
840.4910, 224.8926
841.6270, 89.59375
842.7630, 155.6270
843.8990, 196.9609
845.0350, 179.8242
846.1700, 144.2598
847.3060, 200.4785
848.4410, 144.2949
849.5760, 72.45508
850.7100, 201.1895
851.8450, 220.0078
852.9800, 366.0469
854.1140, 389.9688
855.2480, 141.5469
856.3820, 127.6055
857.5160, 182.6680
858.6500, 9.447266
859.7830, 215.7090
860.9170, 155.6445
862.0500, 105.5527
863.1830, 141.7031
864.3160, 160.1895
865.4480, 126.9375
866.5810, 75.15625
867.7130, 37.41992
868.8460, 60.08789
869.9780, 152.0527
871.1100, 54.39258
872.2410, 147.7441
873.3730, 0.8417970
874.5050, 56.45312
875.6360, 243.2578
876.7670, 3.304688
877.8980, 124.9707
879.0290, 93.41797
880.1590, 17.01172
881.2900, 154.0449
882.4200, 98.27734
883.5500, 261.6641
884.6800, 4.255859
885.8100, 115.9395
886.9400, 58.82227
888.0690, 180.4492
889.1990, 87.00781
890.3280, 157.1152
891.4570, 6.089844
892.5860, 47.87891
893.7140, 11.57812
894.8430, 69.28516
895.9710, 51.37305
897.1000, 42.81250
898.2280, 84.83008
899.3560, 37.92188
900.4830, 140.7910
901.6110, 106.9277
902.7380, 22.49609
903.8660, 75.74609
904.9930, 100.3789
906.1200, 49.38867
907.2460, 34.70898
908.3730, 28.63281
909.5000, 24.96680
910.6260, 21.18164
911.7520, 1.074219
912.8780, 22.05469
914.0040, 101.3477
915.1290, 130.1758
916.2550, 294.7383
917.3800, 157.8262
918.5050, 187.8262
919.6300, 72.16211
920.7550, 8.541016
921.8800, 181.0020
923.0040, 182.9883
924.1290, 26.69922
925.2530, 69.44141
926.3770, 190.3008
927.5010, 158.2539
928.6250, 191.5020
929.7480, 147.1211
930.8720, 126.0898
931.9950, 33.71094
933.1180, 33.84766
934.2410, 21.99219
935.3640, 41.71094
936.4860, 47.70703
937.6090, 36.60352
938.7310, 174.0996
939.8530, 107.5117
940.9750, 119.7812
942.0970, 207.4727
943.2180, 99.78516
944.3400, 218.7168
945.4610, 167.3242
946.5820, 186.4258
947.7030, 218.4766
948.8240, 205.4258
949.9450, 28.60156
951.0650, 268.3535
952.1860, 405.0703
953.3060, 117.4043
954.4260, 237.6855
955.5460, 161.6758
956.6650, 146.7148
957.7850, 43.68555
958.9040, 50.24609
960.0230, 131.0957
961.1420, 36.71680
962.2610, 42.10156
963.3800, 17.94336
964.4990, 194.9648
965.6170, 326.2793
966.7350, 168.1758
967.8530, 169.0430
968.9710, 4.654297
970.0890, 35.96875
971.2070, 303.0312
972.3240, 149.8340
973.4410, 224.0918
974.5580, 332.9414
975.6750, 216.1777
976.7920, 216.7148
977.9090, 399.2988
979.0250, 188.2461
980.1410, 278.5312
981.2580, 97.26953
982.3740, 82.19922
983.4890, 274.8203
984.6050, 90.68945
985.7200, 8.662109
986.8360, 182.4863
987.9510, 268.3262
989.0660, 301.2324
990.1810, 271.6465
991.2950, 81.70508
992.4100, 124.5078
993.5240, 180.1523
994.6390, 292.5000
995.7530, 197.7734
996.8660, 246.6719
997.9800, 251.2305
999.0940, 153.8184
1000.207, 116.5645
1001.320, 365.5977
1002.433, 313.7363
1003.546, 296.4297
1004.659, 203.5820
1005.772, 237.0645
1006.884, 230.7227
1007.996, 308.7832
1009.108, 256.4277
1010.220, 326.7910
1011.332, 320.0234
1012.444, 290.5312
1013.555, 245.3516
1014.666, 347.6367
1015.777, 288.7598
1016.888, 249.9512
1017.999, 308.7539
1019.110, 268.6230
1020.220, 327.2051
1021.331, 422.1270
1022.441, 371.0332
1023.551, 222.7051
1024.661, 280.5547
1025.770, 219.9219
1026.880, 65.09180
1027.989, 207.3789
1029.098, 359.7227
1030.207, 165.3691
1031.316, 291.8691
1032.425, 293.5352
1033.533, 356.5996
1034.642, 315.9590
1035.750, 219.2383
1036.858, 193.4902
1037.966, 124.9863
1039.073, 71.20508
1040.181, 184.7383
1041.288, 258.0840
1042.396, 99.14062
1043.503, 270.3047
1044.610, 168.8027
1045.716, 329.4180
1046.823, 57.62695
1047.929, 173.7734
1049.036, 266.3770
1050.142, 63.15430
1051.248, 285.0742
1052.353, 251.3477
1053.459, 31.48438
1054.564, 111.4785
1055.670, 314.0078
1056.775, 207.7754
1057.880, 237.5645
1058.985, 178.6270
1060.089, 125.0840
1061.194, 292.5293
1062.298, 318.9824
1063.402, 413.0176
1064.506, 215.4375
1065.610, 99.56055
1066.713, 268.6523
1067.817, 275.3047
1068.920, 289.7559
1070.023, 314.3633
1071.126, 178.5449
1072.229, 115.3555
1073.332, 218.3262
1074.435, 136.2734
1075.537, 40.13867
1076.639, 368.3418
1077.741, 256.7012
1078.843, 304.5020
1079.945, 120.4453
1081.046, 249.9902
1082.148, 233.8750
1083.249, 160.9141
1084.350, 332.1934
1085.451, 225.3359
1086.551, 202.7344
1087.652, 297.9824
1088.752, 163.0293
1089.853, 10.50977
1090.953, 281.3672
1092.053, 59.47852
1093.152, 324.5254
1094.252, 112.1523
1095.351, 206.7051
1096.451, 119.9082
1097.550, 92.94336
1098.649, 366.3945
1099.748, 370.8926
1100.846, 251.8652
1101.945, 144.5078
1103.043, 226.9863
1104.141, 258.8184
1105.239, 61.17969
1106.337, 170.9316
1107.434, 153.8848
1108.532, 169.1074
1109.629, 206.4746
1110.726, 147.8047
1111.823, 45.31250
1112.920, 123.4961
1114.017, 114.7773
1115.113, 114.9688
1116.210, 204.8984
1117.306, 128.9473
1118.402, 245.9297
1119.498, 165.4551
1120.593, 132.7637
1121.689, 57.16602
1122.784, 111.1309
1123.879, 208.6387
1124.974, 188.5234
1126.069, 319.2109
1127.164, 259.2656
1128.259, 50.07617
1129.353, 148.9863
1130.447, 143.2305
1131.541, 55.04102
1132.635, 156.2227
1133.729, 318.5039
1134.822, 192.5820
1135.916, 158.4844
1137.009, 145.1602
1138.102, 73.58008
1139.195, 205.1504
1140.288, 113.4277
1141.380, 349.0078
1142.473, 92.13281
1143.565, 160.5000
1144.657, 36.30469
1145.749, 105.5605
1146.841, 227.4668
1147.932, 115.6895
1149.024, 128.7188
1150.115, 41.73242
1151.206, 244.4102
1152.297, 326.7207
1153.388, 195.8027
1154.479, 140.0332
1155.569, 148.7656
1156.659, 275.3711
1157.750, 164.5039
1158.839, 204.1211
1159.929, 112.2012
1161.019, 21.29492
1162.108, 90.94141
1163.198, 12.39648
1164.287, 313.3984
1165.376, 108.1855
1166.465, 277.6387
1167.553, 200.2227
1168.642, 175.8164
1169.730, 257.5020
1170.818, 110.7402
1171.906, 129.2031
1172.994, 278.7949
1174.082, 290.0156
1175.170, 254.3652
1176.257, 205.8867
1177.344, 369.1270
1178.431, 306.9082
1179.518, 267.5293
1180.605, 133.4688
1181.691, 180.9258
1182.778, 347.7910
1183.864, 239.1758
1184.950, 495.5547
1186.036, 194.4746
1187.122, 112.0039
1188.207, 228.9336
1189.292, 128.8340
1190.378, 134.7910
1191.463, 325.3887
1192.548, 100.2344
1193.632, 136.1992
1194.717, 246.0312
1195.801, 205.8047
1196.886, 381.5430
1197.970, 168.2070
1199.054, 380.2148
1200.137, 269.3008
1201.221, 106.1562
1202.305, 75.05078
1203.388, 15.62109
1204.471, 187.9961
1205.554, 341.2461
1206.637, 227.9609
1207.719, 118.7070
1208.802, 476.3828
1209.884, 150.4258
1210.966, 257.8281
1212.048, 382.9062
1213.130, 457.3555
1214.212, 312.0703
1215.293, 162.6445
1216.374, 96.27344
1217.456, 233.9102
1218.536, 431.5547
1219.617, 287.6562
1220.698, 310.8359
1221.778, 238.0977
1222.859, 313.3750
1223.939, 300.1445
1225.019, 63.91016
1226.099, 104.3398
1227.178, 61.61719
1228.258, 73.41016
1229.337, 364.5469
1230.417, 239.0078
1231.496, 298.5078
1232.574, 422.7344
1233.653, 347.0469
1234.732, 287.0820
1235.810, 247.2734
1236.888, 289.2852
1237.966, 88.92188
1239.044, 274.4648
1240.122, 393.3320
1241.199, 411.8320
1242.277, 320.7969
1243.354, 333.6172
1244.431, 320.1250
1245.508, 315.7227
1246.585, 322.9570
1247.661, 350.3477
1248.738, 260.2539
1249.814, 138.3711
1250.890, 367.3203
1251.966, 182.9375
1253.042, 321.9062
1254.117, 24.14844
1255.193, 101.0703
1256.268, 189.0117
1257.343, 41.05078
1258.418, 303.7617
1259.493, 221.1875
1260.567, 208.3203
1261.642, 299.7656
1262.716, 251.8828
1263.790, 244.4023
1264.864, 249.0273
1265.938, 191.1133
1267.011, 303.6914
1268.085, 144.4375
1269.158, 311.4609
1270.231, 166.4414
1271.304, 326.0078
1272.377, 241.8984
1273.450, 326.4180
1274.522, 152.1367
1275.594, 80.51953
1276.666, 256.1406
1277.738, 270.8867
1278.810, 274.5078
1279.882, 298.2617
1280.953, 296.2773
1282.025, 137.4922
1283.096, 321.7109
1284.167, 271.0938
1285.238, 101.4727
1286.308, 135.2617
1287.379, 52.15234
1288.449, 336.4922
1289.519, 31.99219
1290.589, 334.4922
1291.659, 305.1914
1292.729, 66.89844
1293.798, 189.5195
1294.868, 17.27734
