##NAMES=Corundum
##RRUFFID=R040096
##IDEAL CHEMISTRY=Al_2_O_3_
##LOCALITY=Sri Lanka
##OWNER=RRUFF
##SOURCE=University of Arizona Mineral Museum
##DESCRIPTION=Pale purple hexagonal prism
##STATUS=The identification of this mineral has been confirmed by X-ray diffraction and chemical analysis
##URL=rruff.info/R040096
##MEASURED CHEMISTRY=Al_2.00_O_3_
##PIN_ID=L01813
##ORIENTATION=Laser parallel to -c* (0 0 -1). Fiducial mark perpendicular to laser is parallel to a [1 0 0]
113.2080, 0.0000000E+00
114.4400, 104.9307
115.6710, 8.656250
116.9030, 87.61133
118.1340, 36.55469
119.3650, 15.10840
120.5960, 146.1562
121.8270, 147.0029
123.0580, 202.1680
124.2880, 233.8008
125.5190, 260.8242
126.7490, 243.7197
127.9790, 281.5098
129.2090, 302.9473
130.4390, 310.9375
131.6680, 332.6768
132.8980, 335.4492
134.1270, 328.8271
135.3560, 321.5684
136.5850, 261.6465
137.8140, 279.2412
139.0430, 394.8242
140.2710, 287.8711
141.5000, 327.1768
142.7280, 348.7158
143.9560, 243.4697
145.1840, 305.4180
146.4120, 348.5439
147.6390, 213.8350
148.8670, 387.2793
150.0940, 377.8633
151.3210, 423.5791
152.5490, 358.4092
153.7750, 224.3438
155.0020, 335.3760
156.2290, 255.5000
157.4550, 183.7080
158.6810, 422.0547
159.9080, 300.6133
161.1340, 138.6396
162.3590, 364.8418
163.5850, 398.0586
164.8110, 394.3135
166.0360, 416.6006
167.2610, 365.9082
168.4860, 521.2441
169.7110, 381.6113
170.9360, 373.0127
172.1610, 271.4473
173.3850, 421.9160
174.6100, 350.4170
175.8340, 401.9512
177.0580, 328.5156
178.2820, 431.1113
179.5050, 385.7354
180.7290, 389.3887
181.9520, 342.0713
183.1760, 471.7852
184.3990, 404.5273
185.6220, 266.2979
186.8450, 446.0898
188.0670, 363.8779
189.2900, 497.6533
190.5120, 559.3984
191.7340, 441.1436
192.9560, 524.8936
194.1780, 457.6504
195.4000, 391.4180
196.6220, 435.1992
197.8430, 586.9932
199.0640, 554.8027
200.2860, 674.6270
201.5070, 529.4707
202.7270, 394.3145
203.9480, 386.1641
205.1690, 323.0146
206.3890, 358.0186
207.6090, 171.1914
208.8290, 177.5332
210.0490, 224.0205
211.2690, 277.6611
212.4890, 241.3242
213.7080, 290.0146
214.9280, 288.4043
216.1470, 276.7715
217.3660, 270.4229
218.5850, 255.7666
219.8030, 260.2100
221.0220, 262.2520
222.2400, 270.1943
223.4590, 260.2793
224.6770, 264.4688
225.8950, 222.6992
227.1120, 230.9502
228.3300, 174.2188
229.5480, 346.5029
230.7650, 316.8213
231.9820, 182.1758
233.1990, 208.5439
234.4160, 404.9189
235.6330, 364.3125
236.8490, 170.7158
238.0660, 428.1260
239.2820, 222.5420
240.4980, 286.9629
241.7140, 254.3926
242.9300, 199.8330
244.1460, 260.2822
245.3610, 252.7373
246.5770, 244.7031
247.7920, 182.7285
249.0070, 250.2900
250.2220, 294.8555
251.4370, 328.5361
252.6510, 108.0605
253.8660, 321.6660
255.0800, 363.2744
256.2940, 357.8887
257.5080, 666.5068
258.7220, 557.1270
259.9360, 318.2715
261.1490, 197.1426
262.3630, 303.7070
263.5760, 190.2832
264.7890, 78.86035
266.0020, 170.1699
267.2150, 164.9980
268.4270, 215.8926
269.6400, 322.8623
270.8520, 121.8857
272.0640, 202.9639
273.2760, 130.0859
274.4880, 246.2529
275.7000, 229.4580
276.9120, 83.70020
278.1230, 46.97852
279.3340, 81.28906
280.5450, 133.6289
281.7560, 265.9971
282.9670, 12.39062
284.1780, 72.80957
285.3880, 165.2510
286.5980, 116.7148
287.8090, 182.1973
289.0190, 94.70117
290.2290, 42.22266
291.4380, 45.24023
292.6480, 76.30859
293.8570, 58.87305
295.0670, 84.54883
296.2760, 162.0303
297.4850, 46.62109
298.6930, 7.774414
299.9020, 86.15625
301.1110, 99.21191
302.3190, 93.17285
303.5270, 45.32812
304.7350, 43.71973
305.9430, 82.89258
307.1510, 80.51172
308.3580, 85.13672
309.5660, 152.7666
310.7730, 91.40332
311.9800, 95.23340
313.1870, 49.90332
314.3940, 23.05371
315.6010, 7.967773
316.8070, 24.02441
318.0130, 81.82617
319.2200, 75.51855
320.4260, 63.21582
321.6310, 148.9658
322.8370, 61.70801
324.0430, 114.4375
325.2480, 162.2383
326.4540, 43.65137
327.6590, 86.03125
328.8640, 68.27734
330.0680, 113.3174
331.2730, 143.2461
332.4780, 249.1963
333.6820, 237.5273
334.8860, 310.5938
336.0900, 107.3799
337.2940, 247.7344
338.4980, 63.80273
339.7010, 152.9854
340.9050, 218.2373
342.1080, 292.0303
343.3110, 121.8242
344.5140, 191.3838
345.7170, 218.2754
346.9200, 118.8936
348.1220, 278.9248
349.3240, 170.7266
350.5270, 51.86230
351.7290, 177.6416
352.9310, 196.3701
354.1320, 225.0635
355.3340, 74.64746
356.5350, 160.6426
357.7370, 32.58008
358.9380, 127.2646
360.1390, 229.9482
361.3400, 251.6250
362.5400, 262.2998
363.7410, 254.9727
364.9410, 373.6426
366.1410, 477.3125
367.3410, 692.2793
368.5410, 1024.973
369.7410, 1179.100
370.9400, 1379.969
372.1400, 1559.268
373.3390, 1640.863
374.5380, 1769.518
375.7370, 1784.455
376.9360, 1728.475
378.1350, 1574.270
379.3330, 1593.869
380.5310, 1606.498
381.7300, 1046.443
382.9280, 885.3926
384.1260, 370.0059
385.3230, 468.9668
386.5210, 400.2207
387.7180, 219.8652
388.9160, 344.6719
390.1130, 278.2832
391.3100, 318.9668
392.5060, 365.5645
393.7030, 352.6504
394.9000, 193.9473
396.0960, 379.2344
397.2920, 316.8086
398.4880, 301.8809
399.6840, 421.4375
400.8800, 339.3066
402.0750, 726.8477
403.2710, 753.3809
404.4660, 1265.494
405.6610, 1900.016
406.8560, 3357.541
408.0510, 4415.062
409.2450, 5224.580
410.4400, 6004.516
411.6340, 7098.029
412.8280, 7383.545
414.0220, 7912.811
415.2160, 7830.895
416.4100, 7332.414
417.6030, 7050.152
418.7970, 6033.680
419.9900, 4859.490
421.1830, 3408.426
422.3760, 2168.934
423.5690, 1650.434
424.7610, 1321.928
425.9540, 1367.412
427.1460, 1478.891
428.3380, 1418.359
429.5300, 1236.818
430.7220, 1032.268
431.9140, 830.7090
433.1050, 786.1387
434.2970, 573.5625
435.4880, 498.7539
436.6790, 436.1738
437.8700, 373.4785
439.0610, 341.7812
440.2510, 414.1523
441.4420, 389.5723
442.6320, 551.1113
443.8220, 356.3633
445.0120, 580.6289
446.2020, 554.6523
447.3910, 424.8086
448.5810, 393.8672
449.7700, 273.2832
450.9600, 305.5469
452.1490, 178.7969
453.3370, 260.0332
454.5260, 68.69336
455.7150, 117.3047
456.9030, 76.81836
458.0910, 42.40039
459.2800, 59.36914
460.4670, 19.58008
461.6550, 136.2793
462.8430, 180.3535
464.0300, 113.9668
465.2180, 118.4258
466.4050, 203.9883
467.5920, 116.0000
468.7790, 151.7676
469.9650, 9.654297
471.1520, 16.52539
472.3380, 17.57031
473.5250, 95.24414
474.7110, 104.0352
475.8970, 66.18359
477.0820, 45.76562
478.2680, 148.4512
479.4540, 18.58789
480.6390, 83.47656
481.8240, 57.08398
483.0090, 42.03711
484.1940, 280.6016
485.3780, 195.4902
486.5630, 79.51172
487.7470, 183.6426
488.9320, 43.86133
490.1160, 104.5820
491.3000, 204.4941
492.4830, 75.90039
493.6670, 184.1211
494.8500, 225.4922
496.0340, 380.9922
497.2170, 14.32812
498.4000, 91.63477
499.5820, 106.2500
500.7650, 227.8145
501.9480, 238.7168
503.1300, 227.7617
504.3120, 222.5898
505.4940, 191.7891
506.6760, 178.7598
507.8580, 172.8965
509.0390, 101.2852
510.2210, 167.4297
511.4020, 62.53906
512.5830, 61.89844
513.7640, 259.1797
514.9450, 107.6699
516.1250, 302.7031
517.3060, 112.0449
518.4860, 92.19727
519.6660, 145.1680
520.8460, 65.88086
522.0260, 300.5859
523.2060, 23.55273
524.3850, 106.5469
525.5650, 378.3418
526.7440, 102.3066
527.9230, 28.51172
529.1020, 177.1875
530.2810, 137.5684
531.4590, 349.5859
532.6380, 177.2266
533.8160, 306.8477
534.9940, 148.5898
536.1720, 306.1699
537.3500, 36.73242
538.5270, 238.9395
539.7050, 78.45898
540.8820, 287.9531
542.0590, 125.0430
543.2360, 378.6035
544.4130, 319.0312
545.5900, 63.75977
546.7660, 262.4082
547.9430, 220.7227
549.1190, 233.5840
550.2950, 286.3574
551.4710, 107.6660
552.6470, 216.9570
553.8220, 23.79492
554.9980, 163.6250
556.1730, 70.81836
557.3480, 434.1133
558.5230, 161.0137
559.6980, 297.7500
560.8730, 149.6816
562.0470, 119.1895
563.2220, 241.6191
564.3960, 528.2129
565.5700, 443.7676
566.7440, 554.2500
567.9170, 595.2168
569.0910, 769.5469
570.2640, 990.5898
571.4380, 838.7031
572.6110, 998.0293
573.7840, 871.4512
574.9570, 1182.844
576.1290, 1004.662
577.3020, 1003.590
578.4740, 607.0195
579.6460, 555.7891
580.8180, 484.5469
581.9900, 214.2793
583.1620, 156.2012
584.3330, 179.8887
585.5040, 355.5645
586.6760, 128.2383
587.8470, 197.0684
589.0180, 290.7090
590.1880, 199.3320
591.3590, 275.3379
592.5290, 259.4980
593.7000, 239.0430
594.8700, 131.5684
596.0400, 33.12500
597.2090, 161.3047
598.3790, 93.53516
599.5490, 294.3164
600.7180, 162.4199
601.8870, 51.59961
603.0560, 299.9121
604.2250, 102.2012
605.3940, 136.4082
606.5620, 37.39648
607.7300, 301.7656
608.8990, 21.83594
610.0670, 101.2656
611.2350, 235.7070
612.4020, 216.2578
613.5700, 349.0156
614.7370, 82.11719
615.9050, 361.6758
617.0720, 56.06641
618.2390, 88.72852
619.4060, 104.6660
620.5720, 159.0352
621.7390, 311.6699
622.9050, 135.1680
624.0710, 234.5781
625.2370, 143.4199
626.4030, 108.2441
627.5690, 32.27930
628.7340, 244.4609
629.9000, 227.8379
631.0650, 105.3047
632.2300, 232.9727
633.3950, 29.25781
634.5600, 222.9102
635.7240, 188.5020
636.8890, 423.3672
638.0530, 256.0059
639.2170, 147.2227
640.3810, 155.5059
641.5450, 209.0176
642.7080, 390.5039
643.8720, 384.3418
645.0350, 292.8105
646.1980, 426.3477
647.3610, 374.7402
648.5240, 270.1172
649.6870, 224.1641
650.8490, 257.5449
652.0120, 12.62695
653.1740, 178.1426
654.3360, 125.4141
655.4980, 252.2402
656.6600, 153.6660
657.8210, 193.5215
658.9830, 289.2598
660.1440, 338.1953
661.3050, 88.41406
662.4660, 248.4551
663.6270, 157.7227
664.7870, 267.1621
665.9480, 181.1309
667.1080, 125.1055
668.2680, 247.3711
669.4280, 58.21484
670.5880, 82.38281
671.7480, 297.3926
672.9070, 257.4062
674.0670, 1.466797
675.2260, 331.9512
676.3850, 233.1816
677.5440, 67.67969
678.7030, 237.9629
679.8610, 396.4160
681.0200, 81.96484
682.1780, 203.3477
683.3360, 315.8418
684.4940, 154.4805
685.6520, 168.5566
686.8090, 14.93359
687.9670, 108.6523
689.1240, 124.9902
690.2810, 298.3320
691.4380, 229.2539
692.5950, 10.79688
693.7520, 178.6523
694.9080, 6.300781
696.0650, 64.58594
697.2210, 49.09180
698.3770, 56.39648
699.5330, 32.13281
700.6880, 128.2461
701.8440, 142.6914
702.9990, 98.14648
704.1550, 102.6973
705.3100, 115.0137
706.4650, 307.0312
707.6190, 142.2969
708.7740, 206.0879
709.9290, 183.7520
711.0830, 129.3047
712.2370, 101.1016
713.3910, 103.0664
714.5450, 272.7012
715.6980, 211.4512
716.8520, 86.02734
718.0050, 399.9746
719.1580, 283.4863
720.3110, 302.9648
721.4640, 189.2676
722.6170, 349.9199
723.7700, 479.7910
724.9220, 393.7910
726.0740, 200.0312
727.2260, 308.1836
728.3780, 486.4551
729.5300, 489.5566
730.6810, 644.7656
731.8330, 359.6152
732.9840, 596.0352
734.1350, 824.9668
735.2860, 810.4531
736.4370, 1109.750
737.5880, 1124.521
738.7380, 1440.039
739.8880, 1566.928
741.0390, 1583.344
742.1890, 1928.406
743.3380, 1995.750
744.4880, 2315.920
745.6380, 2588.225
746.7870, 2544.166
747.9360, 2455.512
749.0850, 2359.221
750.2340, 2220.408
751.3830, 2089.539
752.5310, 1941.893
753.6800, 1736.441
754.8280, 1439.117
755.9760, 1253.947
757.1240, 1130.809
758.2720, 963.4121
759.4190, 991.6992
760.5670, 733.1191
761.7140, 636.5820
762.8610, 502.8613
764.0080, 703.8984
765.1550, 468.2754
766.3020, 712.9941
767.4480, 508.5391
768.5950, 549.9023
769.7410, 296.1465
770.8870, 319.2090
772.0330, 249.5762
773.1780, 294.7090
774.3240, 187.6738
775.4690, 290.8223
776.6140, 315.5508
777.7590, 443.7168
778.9040, 291.0625
780.0490, 275.3750
781.1940, 187.2207
782.3380, 255.8574
783.4820, 241.6387
784.6260, 383.9570
785.7700, 324.6836
786.9140, 287.3750
788.0580, 252.5547
789.2010, 309.2988
790.3450, 284.2793
791.4880, 30.42969
792.6310, 50.85938
793.7730, 211.4551
794.9160, 501.9512
796.0590, 333.4590
797.2010, 317.9316
798.3430, 245.3652
799.4850, 570.2539
800.6270, 322.3887
801.7690, 191.3066
802.9100, 421.7793
804.0520, 182.9453
805.1930, 473.7207
806.3340, 321.9863
807.4750, 93.51758
808.6160, 309.6758
809.7560, 189.2129
810.8970, 190.7773
812.0370, 372.7910
813.1770, 134.8379
814.3170, 133.8477
815.4570, 108.7441
816.5960, 178.8652
817.7360, 379.0723
818.8750, 228.4238
820.0140, 298.2539
821.1530, 12.68555
822.2920, 219.4453
823.4310, 40.91016
824.5690, 189.6406
825.7070, 285.9238
826.8460, 486.1895
827.9840, 296.6953
829.1220, 229.7266
830.2590, 248.3438
831.3970, 143.6367
832.5340, 169.4102
833.6710, 153.7656
834.8080, 131.8770
835.9450, 29.80664
837.0820, 83.68359
838.2190, 65.33203
839.3550, 156.4395
840.4910, 127.0371
841.6270, 174.9688
842.7630, 240.3262
843.8990, 4.429688
845.0350, 362.2988
846.1700, 64.74023
847.3060, 84.50781
848.4410, 27.25977
849.5760, 209.5957
850.7100, 323.2598
851.8450, 38.77148
852.9800, 303.8691
854.1140, 183.9453
855.2480, 291.6211
856.3820, 406.2578
857.5160, 62.86133
858.6500, 152.2129
859.7830, 115.9453
860.9170, 128.4297
862.0500, 199.8750
863.1830, 339.5762
864.3160, 286.6152
865.4480, 360.9570
866.5810, 334.3164
867.7130, 121.5391
868.8460, 217.7754
869.9780, 222.9766
871.1100, 91.14062
872.2410, 150.2852
873.3730, 200.3926
874.5050, 12.53125
875.6360, 14.48828
876.7670, 228.4629
877.8980, 251.4062
879.0290, 310.0449
880.1590, 112.2656
881.2900, 302.3867
882.4200, 251.2070
883.5500, 91.99805
884.6800, 176.7617
885.8100, 223.9434
886.9400, 61.96680
888.0690, 62.36328
889.1990, 178.6484
890.3280, 182.1621
891.4570, 114.1289
892.5860, 48.76172
893.7140, 72.98438
894.8430, 20.24609
895.9710, 75.43164
897.1000, 7.578125
898.2280, 94.84766
899.3560, 63.58008
900.4830, 177.9336
901.6110, 56.92188
902.7380, 16.23828
903.8660, 40.42578
904.9930, 182.3770
906.1200, 96.22266
907.2460, 251.0293
908.3730, 105.7676
909.5000, 60.50000
910.6260, 286.8926
911.7520, 15.44727
912.8780, 123.8418
914.0040, 142.6562
915.1290, 195.2188
916.2550, 76.65234
917.3800, 117.6836
918.5050, 74.71094
919.6300, 176.1348
920.7550, 17.60547
921.8800, 263.5938
923.0040, 179.7559
924.1290, 307.7969
925.2530, 150.8906
926.3770, 114.9531
927.5010, 222.9453
928.6250, 301.0195
929.7480, 215.7344
930.8720, 244.6680
931.9950, 43.56836
933.1180, 45.42578
934.2410, 33.16602
935.3640, 105.9453
936.4860, 5.316406
937.6090, 250.0254
938.7310, 29.87305
939.8530, 57.09961
940.9750, 313.6738
942.0970, 324.2148
943.2180, 198.9668
944.3400, 185.4668
945.4610, 169.6523
946.5820, 258.7422
947.7030, 338.2441
948.8240, 470.1230
949.9450, 133.1719
951.0650, 230.1328
952.1860, 201.3945
953.3060, 15.91016
954.4260, 249.4961
955.5460, 122.9844
956.6650, 197.5195
957.7850, 449.4609
958.9040, 456.5469
960.0230, 237.2891
961.1420, 107.9570
962.2610, 73.47656
963.3800, 153.4180
964.4990, 258.7031
965.6170, 282.2930
966.7350, 201.4180
967.8530, 22.66406
968.9710, 161.8203
970.0890, 229.8477
971.2070, 234.6289
972.3240, 328.4492
973.4410, 205.6758
974.5580, 52.73828
975.6750, 206.0742
976.7920, 107.3594
977.9090, 526.8438
979.0250, 228.7773
980.1410, 148.6562
981.2580, 413.2500
982.3740, 214.9531
983.4890, 349.6211
984.6050, 189.5312
985.7200, 238.7031
986.8360, 280.6953
987.9510, 360.8086
989.0660, 350.4766
990.1810, 292.5234
991.2950, 351.5391
992.4100, 349.6328
993.5240, 219.0742
994.6390, 378.6523
995.7530, 332.6484
996.8660, 159.1992
997.9800, 110.9609
999.0940, 363.8398
1000.207, 381.6836
1001.320, 454.0430
1002.433, 411.6836
1003.546, 491.5586
1004.659, 524.0352
1005.772, 464.8750
1006.884, 325.2812
1007.996, 533.3008
1009.108, 477.4062
1010.220, 325.7773
1011.332, 398.0039
1012.444, 623.3906
1013.555, 244.9336
1014.666, 196.1836
1015.777, 439.7773
1016.888, 398.7617
1017.999, 260.8203
1019.110, 152.1094
1020.220, 165.6523
1021.331, 260.7070
1022.441, 135.8047
1023.551, 281.9727
1024.661, 196.7539
1025.770, 251.0391
1026.880, 136.3398
1027.989, 269.6133
1029.098, 400.5938
1030.207, 571.6445
1031.316, 200.4922
1032.425, 285.6055
1033.533, 283.2578
1034.642, 378.3906
1035.750, 156.0273
1036.858, 176.3594
1037.966, 222.8984
1039.073, 335.1133
1040.181, 369.6992
1041.288, 381.9844
1042.396, 411.1758
1043.503, 402.8984
1044.610, 348.1602
1045.716, 378.2305
1046.823, 227.6484
1047.929, 203.9844
1049.036, 226.1758
1050.142, 403.9258
1051.248, 377.2656
1052.353, 315.9609
1053.459, 365.4453
1054.564, 331.9961
1055.670, 298.4727
1056.775, 356.6641
1057.880, 286.4805
1058.985, 335.5195
1060.089, 355.3555
1061.194, 346.8203
1062.298, 270.0625
1063.402, 328.0898
1064.506, 315.2148
1065.610, 281.6914
1066.713, 217.9180
1067.817, 237.0898
1068.920, 440.5273
1070.023, 451.4805
1071.126, 180.3438
1072.229, 409.4648
1073.332, 358.4062
1074.435, 228.4297
1075.537, 263.7930
1076.639, 376.4414
1077.741, 210.0078
1078.843, 277.5625
1079.945, 200.3789
1081.046, 205.2461
1082.148, 154.8789
1083.249, 144.5469
1084.350, 132.4258
1085.451, 161.0547
1086.551, 92.21094
1087.652, 149.7969
1088.752, 88.82812
1089.853, 210.1445
1090.953, 303.8008
1092.053, 212.3906
1093.152, 46.79688
1094.252, 80.69922
1095.351, 196.2617
1096.451, 95.76953
1097.550, 454.6641
1098.649, 246.0273
1099.748, 203.0508
1100.846, 6.695313
1101.945, 209.4844
1103.043, 157.6328
1104.141, 203.4844
1105.239, 80.07812
1106.337, 85.03516
1107.434, 98.12891
1108.532, 98.15625
1109.629, 208.4961
1110.726, 321.9375
1111.823, 86.75000
1112.920, 169.1875
1114.017, 156.2227
1115.113, 88.89453
1116.210, 220.8750
1117.306, 324.4023
1118.402, 358.8477
1119.498, 286.8828
1120.593, 548.6836
1121.689, 246.9102
1122.784, 376.8594
1123.879, 447.6289
1124.974, 275.4023
1126.069, 141.6719
1127.164, 49.41406
1128.259, 258.8242
1129.353, 12.43359
1130.447, 214.3047
1131.541, 375.1484
1132.635, 102.4648
1133.729, 105.6758
1134.822, 139.3867
1135.916, 286.0586
1137.009, 5.117188
1138.102, 162.5625
1139.195, 57.86719
1140.288, 395.1445
1141.380, 277.9570
1142.473, 15.25000
1143.565, 363.5117
1144.657, 219.5898
1145.749, 111.2891
1146.841, 192.2031
1147.932, 58.35547
1149.024, 114.8125
1150.115, 136.7461
1151.206, 25.41016
1152.297, 234.1484
1153.388, 126.6094
1154.479, 148.5508
1155.569, 273.6875
1156.659, 249.4570
1157.750, 84.57812
1158.839, 143.3047
1159.929, 240.0430
1161.019, 45.75391
1162.108, 221.3633
1163.198, 37.42969
1164.287, 110.8945
1165.376, 103.2109
1166.465, 98.42969
1167.553, 105.8438
1168.642, 91.98438
1169.730, 73.71875
1170.818, 132.7617
1171.906, 113.0273
1172.994, 250.1836
1174.082, 135.2891
1175.170, 325.8789
1176.257, 25.44141
1177.344, 223.7695
1178.431, 194.3086
1179.518, 35.81250
1180.605, 320.5742
1181.691, 150.0312
1182.778, 287.6953
1183.864, 210.6445
1184.950, 393.3555
1186.036, 316.0312
1187.122, 219.3477
1188.207, 163.6367
1189.292, 214.8906
1190.378, 18.85938
1191.463, 172.3438
1192.548, 39.64453
1193.632, 468.7773
1194.717, 335.8789
1195.801, 209.2344
1196.886, 24.81250
1197.970, 385.9531
1199.054, 319.9258
1200.137, 140.9570
1201.221, 404.8750
1202.305, 244.6484
1203.388, 68.50781
1204.471, 380.3398
1205.554, 177.1367
1206.637, 287.3398
1207.719, 302.2539
1208.802, 245.8867
1209.884, 322.8516
1210.966, 474.3828
1212.048, 76.32812
1213.130, 39.64453
1214.212, 354.3008
1215.293, 27.59766
1216.374, 140.5664
1217.456, 345.4062
1218.536, 297.5586
1219.617, 418.7070
1220.698, 257.1836
1221.778, 425.4688
1222.859, 277.6602
1223.939, 155.1250
1225.019, 326.7539
1226.099, 547.1250
1227.178, 237.5703
1228.258, 608.7148
1229.337, 268.8281
1230.417, 315.8633
1231.496, 177.8867
1232.574, 247.8867
1233.653, 79.73438
1234.732, 176.6328
1235.810, 315.9844
1236.888, 355.8125
1237.966, 207.1797
1239.044, 275.9922
1240.122, 166.8555
1241.199, 265.6172
1242.277, 346.8047
1243.354, 246.3047
1244.431, 285.1758
1245.508, 248.2695
1246.585, 266.8672
1247.661, 89.43359
1248.738, 222.9609
1249.814, 379.4492
1250.890, 165.1484
1251.966, 226.0859
1253.042, 74.53125
1254.117, 22.76953
1255.193, 82.92578
1256.268, 21.80859
1257.343, 85.26953
1258.418, 48.59766
1259.493, 43.57812
1260.567, 125.4414
1261.642, 81.46484
1262.716, 103.1641
1263.790, 215.4648
1264.864, 225.0820
1265.938, 130.6055
1267.011, 33.50000
1268.085, 57.62109
1269.158, 56.76172
1270.231, 163.5312
1271.304, 334.0781
1272.377, 307.7617
1273.450, 82.93750
1274.522, 146.9336
1275.594, 328.7070
1276.666, 50.58984
1277.738, 209.8125
1278.810, 88.16406
1279.882, 0.8828130
1280.953, 276.4375
1282.025, 54.44922
1283.096, 205.1562
1284.167, 267.6758
1285.238, 304.3555
1286.308, 94.67578
1287.379, 197.0273
1288.449, 101.5234
1289.519, 102.2891
1290.589, 119.2031
1291.659, 202.7109
1292.729, 157.1367
1293.798, 186.1953
1294.868, 4.179688
