##NAMES=Corundum
##RRUFFID=R040096
##IDEAL CHEMISTRY=Al_2_O_3_
##LOCALITY=Sri Lanka
##OWNER=RRUFF
##SOURCE=University of Arizona Mineral Museum
##DESCRIPTION=Pale purple hexagonal prism
##STATUS=The identification of this mineral has been confirmed by X-ray diffraction and chemical analysis
##URL=rruff.info/R040096
##MEASURED CHEMISTRY=Al_2.00_O_3_
##PIN_ID=L01813
##ORIENTATION=Laser parallel to -c* (0 0 -1). Fiducial mark perpendicular to laser is parallel to a [1 0 0]
113.2080, 0.0000000E+00
114.4400, 126.3340
115.6710, 163.2510
116.9030, 4.833008
118.1340, 100.1582
119.3650, 2.211914
120.5960, 84.88770
121.8270, 202.8730
123.0580, 129.9336
124.2880, 34.89258
125.5190, 57.62109
126.7490, 176.0186
127.9790, 157.9961
129.2090, 344.4805
130.4390, 111.4111
131.6680, 180.7363
132.8980, 79.41016
134.1270, 379.4043
135.3560, 112.7031
136.5850, 226.2832
137.8140, 366.1299
139.0430, 321.2148
140.2710, 275.5098
141.5000, 398.9932
142.7280, 271.6445
143.9560, 301.4521
145.1840, 190.4043
146.4120, 302.4863
147.6390, 254.6885
148.8670, 222.0010
150.0940, 260.9062
151.3210, 231.9736
152.5490, 270.5322
153.7750, 256.2979
155.0020, 271.1240
156.2290, 323.2227
157.4550, 304.3887
158.6810, 271.5859
159.9080, 175.9795
161.1340, 201.5391
162.3590, 222.1094
163.5850, 327.6855
164.8110, 202.2695
166.0360, 312.8828
167.2610, 350.5283
168.4860, 243.1904
169.7110, 254.8711
170.9360, 363.5713
172.1610, 409.2949
173.3850, 239.0547
174.6100, 314.8701
175.8340, 313.7031
177.0580, 347.5537
178.2820, 242.4248
179.5050, 316.3135
180.7290, 262.2227
181.9520, 207.1475
183.1760, 367.0898
184.3990, 316.0479
185.6220, 473.0205
186.8450, 359.0020
188.0670, 305.9736
189.2900, 498.9209
190.5120, 417.8613
191.7340, 308.9326
192.9560, 446.8027
194.1780, 590.6982
195.4000, 565.6006
196.6220, 422.5107
197.8430, 556.4824
199.0640, 610.5010
200.2860, 721.3232
201.5070, 503.1592
202.7270, 419.0059
203.9480, 267.8662
205.1690, 321.0176
206.3890, 93.64258
207.6090, 241.3848
208.8290, 174.1436
210.0490, 104.9688
211.2690, 204.7568
212.4890, 305.5586
213.7080, 445.3750
214.9280, 101.2061
216.1470, 139.0664
217.3660, 240.9873
218.5850, 126.3115
219.8030, 201.3291
221.0220, 355.3838
222.2400, 168.4707
223.4590, 335.5645
224.6770, 194.7148
225.8950, 294.8887
227.1120, 352.0986
228.3300, 215.3418
229.5480, 298.7217
230.7650, 167.9795
231.9820, 180.9336
233.1990, 118.2383
234.4160, 158.0654
235.6330, 120.3730
236.8490, 267.7109
238.0660, 206.0459
239.2820, 152.3838
240.4980, 77.78418
241.7140, 165.1865
242.9300, 157.5879
244.1460, 268.9951
245.3610, 96.42578
246.5770, 123.8584
247.7920, 154.2852
249.0070, 262.7061
250.2220, 147.1260
251.4370, 218.5781
252.6510, 168.9941
253.8660, 280.4287
255.0800, 315.8574
256.2940, 365.2793
257.5080, 375.5889
258.7220, 324.3447
259.9360, 330.0244
261.1490, 181.8115
262.3630, 106.4531
263.5760, 47.46582
264.7890, 239.2676
266.0020, 277.1191
267.2150, 109.0381
268.4270, 24.99512
269.6400, 223.0127
270.8520, 35.94141
272.0640, 42.13379
273.2760, 203.2412
274.4880, 68.37598
275.7000, 11.53711
276.9120, 485.7227
278.1230, 342.9316
279.3340, 163.1602
280.5450, 42.59180
281.7560, 54.77441
282.9670, 8.069336
284.1780, 35.79199
285.3880, 20.49512
286.5980, 21.31445
287.8090, 94.10449
289.0190, 63.42578
290.2290, 97.75586
291.4380, 165.0957
292.6480, 76.44336
293.8570, 153.7988
295.0670, 8.837891
296.2760, 191.5293
297.4850, 37.90332
298.6930, 139.7178
299.9020, 26.63574
301.1110, 105.9932
302.3190, 38.35547
303.5270, 48.72070
304.7350, 132.0889
305.9430, 1.539063
307.1510, 17.83203
308.3580, 103.2070
309.5660, 121.5840
310.7730, 52.96582
311.9800, 25.37012
313.1870, 9.755859
314.3940, 45.14355
315.6010, 198.8643
316.8070, 103.1836
318.0130, 81.87012
319.2200, 137.7871
320.4260, 53.90234
321.6310, 23.35547
322.8370, 153.3418
324.0430, 122.3838
325.2480, 83.88184
326.4540, 160.4805
327.6590, 124.9414
328.8640, 116.5479
330.0680, 113.9297
331.2730, 119.3311
332.4780, 59.70801
333.6820, 69.35254
334.8860, 69.79199
336.0900, 60.32520
337.2940, 88.31445
338.4980, 72.70996
339.7010, 72.55078
340.9050, 65.49512
342.1080, 190.4707
343.3110, 98.83008
344.5140, 21.50098
345.7170, 208.1514
346.9200, 122.9307
348.1220, 3.814453
349.3240, 111.4785
350.5270, 111.8613
351.7290, 51.09375
352.9310, 17.28906
354.1320, 57.47949
355.3340, 90.11230
356.5350, 59.65430
357.7370, 181.7842
358.9380, 128.9863
360.1390, 81.18359
361.3400, 140.5117
362.5400, 207.0703
363.7410, 119.3906
364.9410, 227.9141
366.1410, 198.5820
367.3410, 371.8643
368.5410, 323.5713
369.7410, 620.7393
370.9400, 433.3779
372.1400, 575.0195
373.3390, 671.6719
374.5380, 686.8145
375.7370, 766.9414
376.9360, 655.4668
378.1350, 406.5762
379.3330, 543.6699
380.5310, 628.7539
381.7300, 340.8926
382.9280, 282.9570
384.1260, 266.2871
385.3230, 305.5176
386.5210, 159.9590
387.7180, 86.67383
388.9160, 207.6934
390.1130, 105.7012
391.3100, 279.4590
392.5060, 196.4473
393.7030, 305.6660
394.9000, 268.6328
396.0960, 165.6094
397.2920, 197.9414
398.4880, 252.9648
399.6840, 319.4395
400.8800, 318.4980
402.0750, 496.5859
403.2710, 746.5352
404.4660, 1038.906
405.6610, 1948.938
406.8560, 3303.010
408.0510, 4491.074
409.2450, 4858.008
410.4400, 5750.008
411.6340, 5551.928
412.8280, 6295.174
414.0220, 6432.043
415.2160, 5719.832
416.4100, 5044.680
417.6030, 4366.023
418.7970, 3819.357
419.9900, 2596.184
421.1830, 1998.131
422.3760, 1394.932
423.5690, 912.7168
424.7610, 696.0664
425.9540, 765.7676
427.1460, 622.3926
428.3380, 765.0020
429.5300, 598.7422
430.7220, 560.4668
431.9140, 574.1777
433.1050, 342.8750
434.2970, 321.5586
435.4880, 328.2266
436.6790, 343.8789
437.8700, 344.5156
439.0610, 284.9609
440.2510, 547.5684
441.4420, 455.1582
442.6320, 397.5410
443.8220, 621.3516
445.0120, 600.9688
446.2020, 473.8457
447.3910, 487.4023
448.5810, 522.3633
449.7700, 259.8066
450.9600, 160.0117
452.1490, 170.9219
453.3370, 414.1523
454.5260, 133.3496
455.7150, 179.0742
456.9030, 147.8223
458.0910, 62.03516
459.2800, 4.371094
460.4670, 72.57422
461.6550, 18.07617
462.8430, 87.41211
464.0300, 62.78125
465.2180, 72.16797
466.4050, 38.67969
467.5920, 120.9062
468.7790, 97.74414
469.9650, 44.93359
471.1520, 96.52344
472.3380, 159.3867
473.5250, 146.7480
474.7110, 154.2559
475.8970, 47.27734
477.0820, 96.12109
478.2680, 40.69922
479.4540, 12.73828
480.6390, 147.4434
481.8240, 34.29297
483.0090, 19.42578
484.1940, 16.97266
485.3780, 152.3359
486.5630, 75.50977
487.7470, 80.45898
488.9320, 49.30469
490.1160, 24.89453
491.3000, 263.2910
492.4830, 142.1621
493.6670, 209.8828
494.8500, 73.67188
496.0340, 18.78125
497.2170, 66.93359
498.4000, 88.75977
499.5820, 24.51758
500.7650, 219.7930
501.9480, 203.4473
503.1300, 149.2754
504.3120, 93.52148
505.4940, 148.2734
506.6760, 75.88281
507.8580, 63.68164
509.0390, 155.0430
510.2210, 52.12109
511.4020, 239.1738
512.5830, 65.23633
513.7640, 63.41211
514.9450, 60.06055
516.1250, 6.818359
517.3060, 11.71094
518.4860, 85.09375
519.6660, 188.5488
520.8460, 184.5957
522.0260, 292.9316
523.2060, 170.0605
524.3850, 222.8418
525.5650, 121.3105
526.7440, 143.9902
527.9230, 91.75586
529.1020, 28.54102
530.2810, 257.6250
531.4590, 224.2617
532.6380, 18.58789
533.8160, 266.3340
534.9940, 133.3359
536.1720, 250.5215
537.3500, 187.7266
538.5270, 100.9082
539.7050, 172.8867
540.8820, 62.83984
542.0590, 160.7500
543.2360, 150.3770
544.4130, 182.0137
545.5900, 79.51367
546.7660, 159.0801
547.9430, 147.8496
549.1190, 7.240234
550.2950, 179.1387
551.4710, 188.2246
552.6470, 171.9180
553.8220, 297.4355
554.9980, 251.9492
556.1730, 328.4473
557.3480, 298.3828
558.5230, 253.9395
559.6980, 248.6602
560.8730, 283.0879
562.0470, 179.5840
563.2220, 370.5918
564.3960, 423.5352
565.5700, 430.0801
566.7440, 621.1992
567.9170, 1027.459
569.0910, 997.8164
570.2640, 1076.652
571.4380, 1128.461
572.6110, 1191.240
573.7840, 1195.996
574.9570, 1361.014
576.1290, 1091.768
577.3020, 1044.580
578.4740, 789.2363
579.6460, 436.8789
580.8180, 398.4941
581.9900, 300.0820
583.1620, 145.8145
584.3330, 164.3789
585.5040, 206.9121
586.6760, 141.4199
587.8470, 214.9023
589.0180, 114.3555
590.1880, 229.7793
591.3590, 49.17578
592.5290, 115.5410
593.7000, 41.87109
594.8700, 44.16797
596.0400, 149.4219
597.2090, 139.6660
598.3790, 36.87500
599.5490, 367.7227
600.7180, 32.94336
601.8870, 179.7637
603.0560, 16.33984
604.2250, 252.6816
605.3940, 180.3691
606.5620, 270.0742
607.7300, 107.4062
608.8990, 43.25195
610.0670, 161.9629
611.2350, 113.7949
612.4020, 24.48633
613.5700, 128.3691
614.7370, 89.20117
615.9050, 95.02148
617.0720, 94.19336
618.2390, 47.05469
619.4060, 45.29883
620.5720, 125.8672
621.7390, 102.5293
622.9050, 272.7441
624.0710, 22.82031
625.2370, 4.171875
626.4030, 94.38477
627.5690, 118.5898
628.7340, 161.7949
629.9000, 168.5469
631.0650, 173.5098
632.2300, 134.8301
633.3950, 165.1680
634.5600, 141.5703
635.7240, 133.5566
636.8890, 145.5234
638.0530, 114.4316
639.2170, 133.4023
640.3810, 308.7617
641.5450, 133.0176
642.7080, 83.75391
643.8720, 252.2812
645.0350, 94.36719
646.1980, 68.54297
647.3610, 112.3066
648.5240, 155.0664
649.6870, 282.9590
650.8490, 389.6035
652.0120, 211.1445
653.1740, 179.3516
654.3360, 61.06055
655.4980, 181.1191
656.6600, 73.94922
657.8210, 101.7637
658.9830, 78.69336
660.1440, 118.4355
661.3050, 150.4297
662.4660, 142.4434
663.6270, 309.4746
664.7870, 51.11133
665.9480, 8.425781
667.1080, 207.7930
668.2680, 197.9102
669.4280, 111.7070
670.5880, 222.3145
671.7480, 93.58789
672.9070, 136.9980
674.0670, 112.3574
675.2260, 62.44727
676.3850, 52.74023
677.5440, 52.70508
678.7030, 95.41016
679.8610, 96.75000
681.0200, 100.6738
682.1780, 163.6270
683.3360, 155.6055
684.4940, 182.6074
685.6520, 160.7461
686.8090, 89.73047
687.9670, 207.7520
689.1240, 62.39648
690.2810, 74.19336
691.4380, 108.1504
692.5950, 2.201172
693.7520, 66.20898
694.9080, 138.1992
696.0650, 207.2500
697.2210, 16.04297
698.3770, 70.50000
699.5330, 48.66602
700.6880, 197.8984
701.8440, 223.1973
702.9990, 275.1758
704.1550, 54.39648
705.3100, 180.2793
706.4650, 143.2793
707.6190, 114.0684
708.7740, 259.4902
709.9290, 277.9102
711.0830, 237.0410
712.2370, 245.5645
713.3910, 169.0684
714.5450, 226.6016
715.6980, 205.8086
716.8520, 380.8867
718.0050, 238.6484
719.1580, 444.9707
720.3110, 509.0391
721.4640, 198.4297
722.6170, 481.8906
723.7700, 404.2266
724.9220, 501.5391
726.0740, 486.8516
727.2260, 565.5254
728.3780, 701.7051
729.5300, 742.8320
730.6810, 877.1172
731.8330, 936.5703
732.9840, 942.5762
734.1350, 1392.883
735.2860, 1183.336
736.4370, 1586.377
737.5880, 1831.734
738.7380, 2032.848
739.8880, 2437.625
741.0390, 2809.881
742.1890, 3194.115
743.3380, 3289.301
744.4880, 3859.389
745.6380, 3953.344
746.7870, 4084.625
747.9360, 3644.967
749.0850, 3634.324
750.2340, 3676.568
751.3830, 3216.975
752.5310, 2942.715
753.6800, 2613.117
754.8280, 2289.148
755.9760, 1985.889
757.1240, 1720.305
758.2720, 1421.262
759.4190, 1167.307
760.5670, 1038.943
761.7140, 1043.701
762.8610, 955.5723
764.0080, 749.1270
765.1550, 824.5020
766.3020, 558.7930
767.4480, 519.0117
768.5950, 640.7148
769.7410, 562.3652
770.8870, 532.8438
772.0330, 298.7695
773.1780, 380.6641
774.3240, 237.6484
775.4690, 430.5879
776.6140, 296.4141
777.7590, 498.2793
778.9040, 435.6113
780.0490, 445.2852
781.1940, 337.6074
782.3380, 201.3730
783.4820, 226.5137
784.6260, 267.2480
785.7700, 223.9570
786.9140, 319.2930
788.0580, 226.3496
789.2010, 133.4199
790.3450, 94.19336
791.4880, 207.6855
792.6310, 112.6504
793.7730, 336.6855
794.9160, 163.8262
796.0590, 260.0566
797.2010, 376.6289
798.3430, 213.8125
799.4850, 201.4121
800.6270, 174.6602
801.7690, 277.2637
802.9100, 397.0488
804.0520, 384.3125
805.1930, 455.2559
806.3340, 363.5371
807.4750, 244.8691
808.6160, 79.67773
809.7560, 95.99609
810.8970, 384.5117
812.0370, 304.9277
813.1770, 381.7832
814.3170, 222.2402
815.4570, 201.6074
816.5960, 226.1152
817.7360, 207.1152
818.8750, 50.36719
820.0140, 265.0352
821.1530, 530.9180
822.2920, 139.5840
823.4310, 248.1309
824.5690, 219.3262
825.7070, 63.35156
826.8460, 40.22461
827.9840, 137.2520
829.1220, 281.9043
830.2590, 216.8262
831.3970, 95.02539
832.5340, 173.0371
833.6710, 20.74805
834.8080, 368.5176
835.9450, 116.8320
837.0820, 91.33789
838.2190, 310.5098
839.3550, 136.6641
840.4910, 259.8164
841.6270, 180.5527
842.7630, 94.40625
843.8990, 137.5605
845.0350, 216.6602
846.1700, 208.7441
847.3060, 282.6582
848.4410, 168.5391
849.5760, 13.62305
850.7100, 149.8750
851.8450, 219.5742
852.9800, 242.1465
854.1140, 20.19531
855.2480, 168.4004
856.3820, 219.9609
857.5160, 134.9707
858.6500, 488.7852
859.7830, 72.23047
860.9170, 111.7617
862.0500, 37.12109
863.1830, 255.4414
864.3160, 24.72266
865.4480, 141.6309
866.5810, 156.9648
867.7130, 175.4258
868.8460, 192.5820
869.9780, 18.14258
871.1100, 183.5449
872.2410, 263.7812
873.3730, 66.55664
874.5050, 81.82031
875.6360, 181.2793
876.7670, 43.46289
877.8980, 211.9688
879.0290, 41.97461
880.1590, 16.72070
881.2900, 80.83984
882.4200, 121.7109
883.5500, 34.60352
884.6800, 33.48242
885.8100, 130.6973
886.9400, 208.9746
888.0690, 9.105469
889.1990, 397.2559
890.3280, 112.5410
891.4570, 260.7852
892.5860, 134.0000
893.7140, 66.35938
894.8430, 147.4805
895.9710, 95.42578
897.1000, 290.5117
898.2280, 324.1113
899.3560, 136.2832
900.4830, 1.607422
901.6110, 28.46680
902.7380, 58.30273
903.8660, 179.0586
904.9930, 192.6953
906.1200, 185.2930
907.2460, 99.84961
908.3730, 73.36719
909.5000, 34.84766
910.6260, 10.92969
911.7520, 38.50977
912.8780, 43.96875
914.0040, 10.87109
915.1290, 72.82227
916.2550, 101.0137
917.3800, 119.1973
918.5050, 133.0195
919.6300, 193.9082
920.7550, 223.9316
921.8800, 150.7676
923.0040, 10.50000
924.1290, 3.585938
925.2530, 12.79102
926.3770, 27.23242
927.5010, 74.90039
928.6250, 167.9434
929.7480, 28.65625
930.8720, 26.03125
931.9950, 151.1934
933.1180, 34.78320
934.2410, 196.0488
935.3640, 277.2207
936.4860, 5.802734
937.6090, 292.2109
938.7310, 180.6035
939.8530, 284.9570
940.9750, 290.2734
942.0970, 152.5527
943.2180, 138.6387
944.3400, 116.0410
945.4610, 105.3730
946.5820, 94.85742
947.7030, 169.5586
948.8240, 245.8809
949.9450, 293.4883
951.0650, 258.6094
952.1860, 130.9648
953.3060, 64.54688
954.4260, 330.2852
955.5460, 187.0391
956.6650, 471.8320
957.7850, 13.26953
958.9040, 310.8867
960.0230, 164.3477
961.1420, 153.1172
962.2610, 72.26562
963.3800, 107.9688
964.4990, 70.10156
965.6170, 229.1328
966.7350, 22.14453
967.8530, 152.2305
968.9710, 96.89062
970.0890, 89.33984
971.2070, 275.0938
972.3240, 228.7070
973.4410, 333.8789
974.5580, 378.6133
975.6750, 189.5156
976.7920, 329.3945
977.9090, 129.7422
979.0250, 103.6211
980.1410, 217.6758
981.2580, 408.5273
982.3740, 268.2734
983.4890, 265.2930
984.6050, 438.8633
985.7200, 350.8242
986.8360, 430.5586
987.9510, 356.3516
989.0660, 331.0078
990.1810, 303.5078
991.2950, 279.1172
992.4100, 274.7500
993.5240, 297.4766
994.6390, 213.4102
995.7530, 318.8398
996.8660, 244.2812
997.9800, 343.1406
999.0940, 99.23828
1000.207, 226.3086
1001.320, 187.4727
1002.433, 418.9102
1003.546, 213.3789
1004.659, 99.71484
1005.772, 199.2891
1006.884, 61.65625
1007.996, 175.1797
1009.108, 118.2148
1010.220, 157.6367
1011.332, 96.21484
1012.444, 190.8711
1013.555, 272.6680
1014.666, 150.1797
1015.777, 199.0117
1016.888, 185.3750
1017.999, 169.9062
1019.110, 182.5820
1020.220, 175.0195
1021.331, 55.92188
1022.441, 40.72266
1023.551, 483.6211
1024.661, 326.5938
1025.770, 448.2070
1026.880, 194.9766
1027.989, 298.7500
1029.098, 230.8281
1030.207, 403.1836
1031.316, 61.85547
1032.425, 155.4922
1033.533, 111.5391
1034.642, 194.8672
1035.750, 215.3672
1036.858, 207.9883
1037.966, 227.1562
1039.073, 239.8203
1040.181, 379.1367
1041.288, 328.5430
1042.396, 403.1172
1043.503, 410.1367
1044.610, 299.3594
1045.716, 185.1289
1046.823, 89.83203
1047.929, 29.92188
1049.036, 249.5586
1050.142, 223.5781
1051.248, 231.0547
1052.353, 410.1055
1053.459, 300.4531
1054.564, 98.95703
1055.670, 167.4297
1056.775, 141.3516
1057.880, 148.0117
1058.985, 110.0430
1060.089, 68.78516
1061.194, 297.9023
1062.298, 302.2422
1063.402, 179.0469
1064.506, 77.32031
1065.610, 313.5781
1066.713, 342.3164
1067.817, 233.7070
1068.920, 93.61719
1070.023, 261.1367
1071.126, 292.6953
1072.229, 229.8867
1073.332, 271.3789
1074.435, 282.8359
1075.537, 239.8125
1076.639, 216.1094
1077.741, 340.4648
1078.843, 153.1602
1079.945, 79.77734
1081.046, 161.6758
1082.148, 24.85938
1083.249, 113.0547
1084.350, 72.21094
1085.451, 330.1758
1086.551, 26.33984
1087.652, 279.9219
1088.752, 257.6562
1089.853, 184.1367
1090.953, 343.1484
1092.053, 356.0742
1093.152, 268.5898
1094.252, 223.3906
1095.351, 88.49219
1096.451, 227.7148
1097.550, 200.7383
1098.649, 194.3945
1099.748, 298.3828
1100.846, 173.3672
1101.945, 311.3750
1103.043, 314.6914
1104.141, 299.1875
1105.239, 49.22656
1106.337, 300.7422
1107.434, 82.22656
1108.532, 294.0195
1109.629, 41.65234
1110.726, 188.5195
1111.823, 216.2539
1112.920, 262.7031
1114.017, 90.23438
1115.113, 151.5117
1116.210, 290.3477
1117.306, 134.5234
1118.402, 339.0898
1119.498, 356.3945
1120.593, 324.3984
1121.689, 86.52344
1122.784, 552.4805
1123.879, 152.6250
1124.974, 21.06641
1126.069, 343.3633
1127.164, 184.2734
1128.259, 100.7422
1129.353, 210.1250
1130.447, 126.6797
1131.541, 283.4297
1132.635, 253.7734
1133.729, 199.2969
1134.822, 200.4727
1135.916, 150.5234
1137.009, 150.0977
1138.102, 404.5820
1139.195, 33.23047
1140.288, 168.6836
1141.380, 352.1016
1142.473, 52.41797
1143.565, 127.0898
1144.657, 58.80078
1145.749, 184.0859
1146.841, 169.0977
1147.932, 74.75781
1149.024, 258.6445
1150.115, 161.7656
1151.206, 31.85547
1152.297, 240.6836
1153.388, 407.2695
1154.479, 336.2500
1155.569, 102.8984
1156.659, 90.85156
1157.750, 157.7617
1158.839, 77.71484
1159.929, 55.07031
1161.019, 423.4570
1162.108, 351.2773
1163.198, 546.3633
1164.287, 478.5430
1165.376, 452.7930
1166.465, 277.4492
1167.553, 307.0469
1168.642, 274.5781
1169.730, 162.7734
1170.818, 231.7500
1171.906, 119.6367
1172.994, 46.11328
1174.082, 137.3203
1175.170, 100.2539
1176.257, 187.3242
1177.344, 197.7812
1178.431, 30.01953
1179.518, 265.4258
1180.605, 158.0703
1181.691, 341.2617
1182.778, 169.2148
1183.864, 176.2227
1184.950, 162.2734
1186.036, 89.77734
1187.122, 470.5234
1188.207, 114.8984
1189.292, 361.4922
1190.378, 159.8984
1191.463, 300.1016
1192.548, 3.074219
1193.632, 391.6953
1194.717, 193.6094
1195.801, 340.9414
1196.886, 557.5977
1197.970, 315.2227
1199.054, 249.8086
1200.137, 342.7930
1201.221, 342.3281
1202.305, 398.7930
1203.388, 418.2266
1204.471, 396.4258
1205.554, 333.0703
1206.637, 354.3984
1207.719, 345.0352
1208.802, 348.2891
1209.884, 346.2695
1210.966, 518.9531
1212.048, 371.8477
1213.130, 326.1250
1214.212, 417.7344
1215.293, 237.1289
1216.374, 116.1445
1217.456, 199.2617
1218.536, 88.61328
1219.617, 149.5039
1220.698, 72.00391
1221.778, 349.7031
1222.859, 389.3672
1223.939, 3.210938
1225.019, 720.3945
1226.099, 463.2734
1227.178, 373.6992
1228.258, 697.9688
1229.337, 276.1758
1230.417, 161.5469
1231.496, 380.5820
1232.574, 242.8750
1233.653, 116.2969
1234.732, 196.5000
1235.810, 522.8359
1236.888, 369.9570
1237.966, 191.3438
1239.044, 282.3750
1240.122, 97.50781
1241.199, 560.2031
1242.277, 270.6484
1243.354, 274.5117
1244.431, 556.0547
1245.508, 176.4297
1246.585, 7.359375
1247.661, 237.2656
1248.738, 291.8984
1249.814, 143.9609
1250.890, 436.6992
1251.966, 141.5078
1253.042, 90.30859
1254.117, 249.7695
1255.193, 134.2695
1256.268, 35.04688
1257.343, 217.7422
1258.418, 230.1328
1259.493, 265.8828
1260.567, 355.1836
1261.642, 168.1445
1262.716, 319.1133
1263.790, 218.5898
1264.864, 203.6797
1265.938, 199.4258
1267.011, 309.8711
1268.085, 18.43750
1269.158, 56.16016
1270.231, 34.08594
1271.304, 60.03516
1272.377, 126.7852
1273.450, 405.5391
1274.522, 196.1016
1275.594, 297.9883
1276.666, 183.9219
1277.738, 426.2578
1278.810, 54.33594
1279.882, 61.94141
1280.953, 517.1758
1282.025, 274.2188
1283.096, 156.2109
1284.167, 186.3281
1285.238, 355.7070
1286.308, 429.7461
1287.379, 142.0273
1288.449, 501.3555
1289.519, 23.42578
1290.589, 330.0820
1291.659, 92.85547
1292.729, 424.4531
1293.798, 19.58594
1294.868, 283.9453
