##NAMES=Corundum
##RRUFFID=R040096
##IDEAL CHEMISTRY=Al_2_O_3_
##LOCALITY=Sri Lanka
##OWNER=RRUFF
##SOURCE=University of Arizona Mineral Museum
##DESCRIPTION=Pale purple hexagonal prism
##STATUS=The identification of this mineral has been confirmed by X-ray diffraction and chemical analysis
##URL=rruff.info/R040096
##MEASURED CHEMISTRY=Al_2.00_O_3_
##PIN_ID=L01198
##ORIENTATION=Laser parallel to a* (1 0 0). Fiducial mark perpendicular to laser is parallel to c [0 0 1]
113.2080, 0.0000000E+00
114.4400, 136.8281
115.6710, 135.2290
116.9030, 75.10938
118.1340, 85.14258
119.3650, 49.50977
120.5960, 28.47363
121.8270, 33.33008
123.0580, 15.66602
124.2880, 61.04834
125.5190, 46.25000
126.7490, 32.41699
127.9790, 116.8799
129.2090, 97.61670
130.4390, 71.68896
131.6680, 35.96338
132.8980, 79.41846
134.1270, 37.02979
135.3560, 27.78516
136.5850, 77.28711
137.8140, 12.92969
139.0430, 64.01904
140.2710, 95.11865
141.5000, 91.36084
142.7280, 45.74463
143.9560, 84.25635
145.1840, 57.87842
146.4120, 164.7417
147.6390, 94.48340
148.8670, 77.28809
150.0940, 111.1445
151.3210, 59.04785
152.5490, 129.9888
153.7750, 179.9629
155.0020, 4.974609
156.2290, 112.0361
157.4550, 111.1240
158.6810, 32.55322
159.9080, 9.967773
161.1340, 85.53760
162.3590, 149.1235
163.5850, 118.7632
164.8110, 53.48926
166.0360, 71.20996
167.2610, 88.91455
168.4860, 170.7583
169.7110, 57.67529
170.9360, 109.7324
172.1610, 130.8115
173.3850, 78.87256
174.6100, 57.89648
175.8340, 136.9746
177.0580, 192.8970
178.2820, 14.77246
179.5050, 12.40088
180.7290, 60.37988
181.9520, 65.11572
183.1760, 53.80811
184.3990, 101.2583
185.6220, 107.1670
186.8450, 119.7344
188.0670, 144.4922
189.2900, 89.99756
190.5120, 85.48145
191.7340, 113.3071
192.9560, 142.7471
194.1780, 141.1841
195.4000, 181.5918
196.6220, 88.98096
197.8430, 172.7036
199.0640, 138.5596
200.2860, 254.8794
201.5070, 213.7432
202.7270, 200.5464
203.9480, 214.8530
205.1690, 86.37305
206.3890, 186.4434
207.6090, 98.16602
208.8290, 131.2417
210.0490, 211.8613
211.2690, 150.1875
212.4890, 134.5244
213.7080, 83.08203
214.9280, 222.6240
216.1470, 108.6050
217.3660, 211.0869
218.5850, 107.6899
219.8030, 142.9609
221.0220, 148.5610
222.2400, 120.0347
223.4590, 166.4902
224.6770, 157.0073
225.8950, 113.7510
227.1120, 153.5029
228.3300, 111.6646
229.5480, 59.36914
230.7650, 259.1489
231.9820, 135.5229
233.1990, 269.5898
234.4160, 118.8262
235.6330, 173.9888
236.8490, 113.6299
238.0660, 34.26611
239.2820, 217.0449
240.4980, 71.78613
241.7140, 261.5635
242.9300, 217.1968
244.1460, 222.8120
245.3610, 164.4111
246.5770, 127.9980
247.7920, 139.5732
249.0070, 163.1387
250.2220, 62.69043
251.4370, 130.2754
252.6510, 158.7783
253.8660, 47.44873
255.0800, 156.9180
256.2940, 120.3716
257.5080, 329.8013
258.7220, 210.2090
259.9360, 133.7397
261.1490, 116.4058
262.3630, 38.15283
263.5760, 98.95508
264.7890, 148.7974
266.0020, 135.6694
267.2150, 106.5649
268.4270, 107.6606
269.6400, 25.40088
270.8520, 97.33447
272.0640, 125.2612
273.2760, 205.1938
274.4880, 75.13184
275.7000, 105.0728
276.9120, 155.0156
278.1230, 6.958984
279.3340, 20.89990
280.5450, 35.83789
281.7560, 81.77002
282.9670, 87.77783
284.1780, 14.30469
285.3880, 122.1963
286.5980, 115.0811
287.8090, 133.2251
289.0190, 10.82959
290.2290, 68.68945
291.4380, 42.54053
292.6480, 81.62451
293.8570, 44.82471
295.0670, 137.9492
296.2760, 28.71289
297.4850, 95.46289
298.6930, 141.2021
299.9020, 68.93066
301.1110, 2.354492
302.3190, 83.34570
303.5270, 6.962891
304.7350, 92.79590
305.9430, 16.45410
307.1510, 112.0996
308.3580, 47.73145
309.5660, 72.34863
310.7730, 1.200195
311.9800, 21.66113
313.1870, 50.05859
314.3940, 12.74219
315.6010, 80.33105
316.8070, 11.95898
318.0130, 34.09277
319.2200, 34.10059
320.4260, 97.55762
321.6310, 25.09570
322.8370, 86.61230
324.0430, 86.36133
325.2480, 84.22754
326.4540, 62.97754
327.6590, 51.90820
328.8640, 20.12598
330.0680, 26.26660
331.2730, 135.5791
332.4780, 3.101563
333.6820, 35.65527
334.8860, 127.1514
336.0900, 60.05273
337.2940, 214.6885
338.4980, 85.83008
339.7010, 51.82910
340.9050, 46.84277
342.1080, 170.7861
343.3110, 234.0928
344.5140, 139.3145
345.7170, 88.82324
346.9200, 0.4716800
348.1220, 101.7949
349.3240, 85.20996
350.5270, 162.9541
351.7290, 85.23047
352.9310, 149.2549
354.1320, 65.81543
355.3340, 59.88867
356.5350, 202.5059
357.7370, 165.0986
358.9380, 180.5205
360.1390, 175.1211
361.3400, 174.0557
362.5400, 180.9121
363.7410, 153.8438
364.9410, 161.8799
366.1410, 203.7480
367.3410, 157.0820
368.5410, 214.0889
369.7410, 266.3711
370.9400, 285.5674
372.1400, 315.8164
373.3390, 412.6016
374.5380, 486.3467
375.7370, 623.1836
376.9360, 747.2803
378.1350, 739.2324
379.3330, 652.4297
380.5310, 565.8945
381.7300, 385.3887
382.9280, 352.0469
384.1260, 196.4219
385.3230, 250.2920
386.5210, 247.4551
387.7180, 186.7891
388.9160, 256.2100
390.1130, 266.3457
391.3100, 159.8359
392.5060, 321.5322
393.7030, 226.3613
394.9000, 206.1904
396.0960, 254.4688
397.2920, 342.1055
398.4880, 294.1514
399.6840, 235.1445
400.8800, 485.5146
402.0750, 398.3066
403.2710, 639.1006
404.4660, 767.1123
405.6610, 1186.120
406.8560, 1769.314
408.0510, 2378.507
409.2450, 2846.961
410.4400, 3453.555
411.6340, 5254.395
412.8280, 7906.209
414.0220, 10443.09
415.2160, 12406.57
416.4100, 12009.61
417.6030, 10352.65
418.7970, 7736.027
419.9900, 5382.055
421.1830, 3207.115
422.3760, 2051.784
423.5690, 1310.294
424.7610, 1025.594
425.9540, 1025.054
427.1460, 1043.498
428.3380, 989.6162
429.5300, 917.0088
430.7220, 836.3760
431.9140, 700.7148
433.1050, 621.6885
434.2970, 417.8711
435.4880, 473.9082
436.6790, 279.2969
437.8700, 277.9512
439.0610, 402.1172
440.2510, 372.9580
441.4420, 526.0430
442.6320, 483.1191
443.8220, 505.1787
445.0120, 713.6406
446.2020, 751.3936
447.3910, 683.3584
448.5810, 797.5088
449.7700, 728.6611
450.9600, 523.1006
452.1490, 330.1631
453.3370, 180.3301
454.5260, 107.9648
455.7150, 202.1816
456.9030, 84.48535
458.0910, 109.3193
459.2800, 212.5967
460.4670, 88.58203
461.6550, 115.4453
462.8430, 345.3076
464.0300, 221.0410
465.2180, 222.1846
466.4050, 162.4297
467.5920, 67.95215
468.7790, 155.2637
469.9650, 108.8359
471.1520, 97.55957
472.3380, 110.7812
473.5250, 13.06934
474.7110, 233.6592
475.8970, 197.3906
477.0820, 101.4219
478.2680, 75.39062
479.4540, 29.02344
480.6390, 24.83008
481.8240, 11.30859
483.0090, 69.26758
484.1940, 104.0781
485.3780, 177.4180
486.5630, 193.0117
487.7470, 120.5322
488.9320, 68.76465
490.1160, 77.96387
491.3000, 111.2764
492.4830, 30.86133
493.6670, 137.1914
494.8500, 191.5928
496.0340, 56.99512
497.2170, 168.8389
498.4000, 33.87402
499.5820, 34.36133
500.7650, 67.37598
501.9480, 24.62598
503.1300, 171.3096
504.3120, 38.76562
505.4940, 62.49512
506.6760, 132.1631
507.8580, 14.91211
509.0390, 45.17676
510.2210, 116.7646
511.4020, 41.87891
512.5830, 122.4648
513.7640, 209.3506
514.9450, 136.9238
516.1250, 141.7344
517.3060, 114.0303
518.4860, 47.21973
519.6660, 77.04199
520.8460, 23.02637
522.0260, 183.4775
523.2060, 0.8896480
524.3850, 119.0176
525.5650, 194.6963
526.7440, 78.18359
527.9230, 242.8242
529.1020, 197.5576
530.2810, 172.6221
531.4590, 238.3350
532.6380, 148.5654
533.8160, 95.35156
534.9940, 58.54883
536.1720, 54.32031
537.3500, 182.0850
538.5270, 91.96777
539.7050, 217.7305
540.8820, 237.6357
542.0590, 142.9346
543.2360, 299.6611
544.4130, 272.0557
545.5900, 215.8994
546.7660, 212.3906
547.9430, 135.7285
549.1190, 163.9883
550.2950, 104.3506
551.4710, 65.29004
552.6470, 240.4912
553.8220, 242.0439
554.9980, 174.6025
556.1730, 94.42090
557.3480, 206.9824
558.5230, 206.4814
559.6980, 125.6533
560.8730, 207.7295
562.0470, 193.6309
563.2220, 206.5420
564.3960, 252.9688
565.5700, 351.3535
566.7440, 536.8760
567.9170, 472.6377
569.0910, 601.3047
570.2640, 681.6719
571.4380, 993.1572
572.6110, 1201.602
573.7840, 1633.930
574.9570, 1718.868
576.1290, 1580.532
577.3020, 1386.915
578.4740, 938.4033
579.6460, 732.9355
580.8180, 643.8945
581.9900, 483.2988
583.1620, 369.5996
584.3330, 288.5244
585.5040, 229.9180
586.6760, 121.2812
587.8470, 259.0312
589.0180, 259.1104
590.1880, 173.7705
591.3590, 189.3857
592.5290, 208.9502
593.7000, 199.4668
594.8700, 174.7627
596.0400, 144.5469
597.2090, 115.7656
598.3790, 114.4355
599.5490, 132.1611
600.7180, 124.2656
601.8870, 164.8340
603.0560, 155.3809
604.2250, 240.4492
605.3940, 299.3701
606.5620, 327.2471
607.7300, 250.8252
608.8990, 288.9541
610.0670, 195.3975
611.2350, 137.6055
612.4020, 252.7129
613.5700, 165.8408
614.7370, 180.9512
615.9050, 365.5010
617.0720, 243.8564
618.2390, 324.7842
619.4060, 350.5518
620.5720, 404.5176
621.7390, 117.9150
622.9050, 299.0479
624.0710, 346.4697
625.2370, 164.1836
626.4030, 482.1465
627.5690, 327.1270
628.7340, 344.7529
629.9000, 272.1152
631.0650, 302.8457
632.2300, 193.3027
633.3950, 81.41113
634.5600, 215.9170
635.7240, 269.6006
636.8890, 308.6875
638.0530, 247.1777
639.2170, 238.2578
640.3810, 452.2139
641.5450, 361.1299
642.7080, 393.2998
643.8720, 325.5703
645.0350, 228.2676
646.1980, 376.9824
647.3610, 269.3633
648.5240, 235.4707
649.6870, 317.5430
650.8490, 211.4014
652.0120, 326.8027
653.1740, 246.4189
654.3360, 73.86719
655.4980, 246.5107
656.6600, 121.5244
657.8210, 137.1270
658.9830, 214.5479
660.1440, 341.0469
661.3050, 111.0605
662.4660, 43.72559
663.6270, 100.1318
664.7870, 9.293945
665.9480, 40.21777
667.1080, 186.9004
668.2680, 155.6035
669.4280, 54.11035
670.5880, 1.653320
671.7480, 248.1924
672.9070, 62.76172
674.0670, 237.1396
675.2260, 137.1914
676.3850, 37.75781
677.5440, 42.44531
678.7030, 59.83984
679.8610, 29.55078
681.0200, 151.3594
682.1780, 40.97070
683.3360, 109.3086
684.4940, 18.45605
685.6520, 67.62988
686.8090, 94.63867
687.9670, 32.34863
689.1240, 50.57812
690.2810, 158.8213
691.4380, 84.30566
692.5950, 17.70508
693.7520, 14.51660
694.9080, 156.7842
696.0650, 105.6885
697.2210, 9.848633
698.3770, 69.15137
699.5330, 40.75391
700.6880, 69.41992
701.8440, 56.50293
702.9990, 161.5547
704.1550, 44.57422
705.3100, 117.9727
706.4650, 51.13086
707.6190, 62.47070
708.7740, 124.2441
709.9290, 85.61719
711.0830, 85.15625
712.2370, 102.7539
713.3910, 185.3623
714.5450, 241.0283
715.6980, 58.67773
716.8520, 267.7402
718.0050, 249.5449
719.1580, 136.1816
720.3110, 257.7578
721.4640, 272.1035
722.6170, 111.8672
723.7700, 227.4482
724.9220, 224.0430
726.0740, 357.6816
727.2260, 269.5107
728.3780, 404.3350
729.5300, 520.2803
730.6810, 736.8408
731.8330, 681.0928
732.9840, 751.1982
734.1350, 785.2031
735.2860, 926.1611
736.4370, 1101.841
737.5880, 1049.172
738.7380, 1525.986
739.8880, 1892.385
741.0390, 1986.958
742.1890, 2172.689
743.3380, 2481.557
744.4880, 2896.715
745.6380, 3238.322
746.7870, 3580.922
747.9360, 3748.854
749.0850, 3778.987
750.2340, 3507.622
751.3830, 3343.793
752.5310, 2905.900
753.6800, 2596.969
754.8280, 2202.604
755.9760, 2046.240
757.1240, 1711.846
758.2720, 1481.646
759.4190, 1250.617
760.5670, 1110.689
761.7140, 1046.371
762.8610, 634.5820
764.0080, 709.2246
765.1550, 659.6934
766.3020, 773.0000
767.4480, 401.7188
768.5950, 593.4668
769.7410, 429.4102
770.8870, 504.9805
772.0330, 529.1270
773.1780, 584.0156
774.3240, 375.5195
775.4690, 503.2656
776.6140, 331.1777
777.7590, 348.8652
778.9040, 388.4375
780.0490, 257.5391
781.1940, 442.0918
782.3380, 504.5117
783.4820, 480.7207
784.6260, 293.9805
785.7700, 382.2656
786.9140, 256.8105
788.0580, 129.3926
789.2010, 390.5879
790.3450, 168.9609
791.4880, 284.3477
792.6310, 469.5723
793.7730, 294.4316
794.9160, 351.4980
796.0590, 314.6289
797.2010, 313.2930
798.3430, 353.8125
799.4850, 354.4844
800.6270, 397.4844
801.7690, 381.8965
802.9100, 363.9707
804.0520, 309.2031
805.1930, 321.1309
806.3340, 309.0430
807.4750, 261.4473
808.6160, 311.2305
809.7560, 200.7480
810.8970, 179.7383
812.0370, 207.6602
813.1770, 305.6719
814.3170, 442.0078
815.4570, 354.6055
816.5960, 520.6680
817.7360, 370.5430
818.8750, 309.6035
820.0140, 253.9355
821.1530, 280.4043
822.2920, 202.2949
823.4310, 223.9199
824.5690, 370.1816
825.7070, 191.7637
826.8460, 190.4395
827.9840, 368.2441
829.1220, 310.2031
830.2590, 197.6816
831.3970, 140.9902
832.5340, 409.6855
833.6710, 286.0938
834.8080, 296.2988
835.9450, 400.9121
837.0820, 255.5938
838.2190, 127.1465
839.3550, 131.7383
840.4910, 207.0996
841.6270, 320.9551
842.7630, 170.2930
843.8990, 350.8672
845.0350, 232.5410
846.1700, 117.2812
847.3060, 215.5488
848.4410, 230.2109
849.5760, 212.0137
850.7100, 145.3496
851.8450, 212.0781
852.9800, 298.5703
854.1140, 345.8789
855.2480, 424.4141
856.3820, 395.4355
857.5160, 175.1934
858.6500, 300.9336
859.7830, 293.3262
860.9170, 216.9668
862.0500, 321.3652
863.1830, 160.9062
864.3160, 147.7988
865.4480, 19.53516
866.5810, 112.2637
867.7130, 191.9746
868.8460, 202.4883
869.9780, 188.1895
871.1100, 156.1250
872.2410, 179.4277
873.3730, 247.6602
874.5050, 135.8770
875.6360, 213.6328
876.7670, 198.6094
877.8980, 138.0586
879.0290, 176.8223
880.1590, 152.3516
881.2900, 58.08984
882.4200, 209.6094
883.5500, 155.3828
884.6800, 27.88672
885.8100, 47.53125
886.9400, 20.88867
888.0690, 174.3535
889.1990, 188.2480
890.3280, 195.6758
891.4570, 88.68945
892.5860, 179.2363
893.7140, 99.75781
894.8430, 65.23633
895.9710, 9.093750
897.1000, 71.43359
898.2280, 2.601563
899.3560, 166.9375
900.4830, 124.9043
901.6110, 142.2715
902.7380, 36.96680
903.8660, 192.3906
904.9930, 16.89648
906.1200, 178.5078
907.2460, 115.1074
908.3730, 57.38281
909.5000, 0.3710940
910.6260, 154.6992
911.7520, 38.24023
912.8780, 68.65234
914.0040, 116.3945
915.1290, 99.46875
916.2550, 50.52930
917.3800, 1.689453
918.5050, 109.6660
919.6300, 80.52539
920.7550, 102.7012
921.8800, 3.841797
923.0040, 52.32617
924.1290, 21.08789
925.2530, 79.11328
926.3770, 1.732422
927.5010, 65.60742
928.6250, 70.56250
929.7480, 119.4668
930.8720, 103.5352
931.9950, 37.16797
933.1180, 20.28711
934.2410, 190.5723
935.3640, 94.00195
936.4860, 164.2188
937.6090, 86.90430
938.7310, 67.78125
939.8530, 79.61133
940.9750, 113.3203
942.0970, 60.95508
943.2180, 160.6934
944.3400, 172.7480
945.4610, 96.28906
946.5820, 31.70312
947.7030, 132.4609
948.8240, 172.9941
949.9450, 103.6035
951.0650, 233.6191
952.1860, 219.0996
953.3060, 55.20117
954.4260, 338.5273
955.5460, 119.7109
956.6650, 124.2227
957.7850, 6.681641
958.9040, 342.0703
960.0230, 19.16602
961.1420, 184.1074
962.2610, 96.80273
963.3800, 101.2246
964.4990, 104.0957
965.6170, 117.1934
966.7350, 173.2676
967.8530, 37.53320
968.9710, 27.87891
970.0890, 26.61133
971.2070, 5.779297
972.3240, 51.64258
973.4410, 251.4102
974.5580, 155.5684
975.6750, 21.25977
976.7920, 75.38867
977.9090, 183.9414
979.0250, 154.6348
980.1410, 184.3340
981.2580, 240.0703
982.3740, 128.4062
983.4890, 334.7715
984.6050, 272.1797
985.7200, 216.8848
986.8360, 313.4453
987.9510, 309.9141
989.0660, 221.9102
990.1810, 114.4746
991.2950, 6.798828
992.4100, 145.9434
993.5240, 51.70898
994.6390, 91.72070
995.7530, 373.9688
996.8660, 218.9766
997.9800, 268.4004
999.0940, 391.0703
1000.207, 359.6523
1001.320, 344.9629
1002.433, 414.6133
1003.546, 313.8828
1004.659, 241.3730
1005.772, 421.3086
1006.884, 420.2285
1007.996, 363.8809
1009.108, 217.2129
1010.220, 374.7793
1011.332, 269.0117
1012.444, 164.0312
1013.555, 202.8203
1014.666, 377.2168
1015.777, 176.8594
1016.888, 99.71484
1017.999, 331.3340
1019.110, 143.0371
1020.220, 403.7754
1021.331, 332.0547
1022.441, 211.3633
1023.551, 63.24219
1024.661, 148.4551
1025.770, 239.3066
1026.880, 226.5293
1027.989, 219.0684
1029.098, 153.5195
1030.207, 166.1543
1031.316, 251.6855
1032.425, 191.1699
1033.533, 261.1562
1034.642, 408.0684
1035.750, 288.9062
1036.858, 95.81836
1037.966, 248.8555
1039.073, 61.52344
1040.181, 193.5059
1041.288, 256.3828
1042.396, 305.6719
1043.503, 200.5117
1044.610, 415.9219
1045.716, 97.54688
1046.823, 256.7832
1047.929, 197.2383
1049.036, 73.53516
1050.142, 204.2266
1051.248, 59.10156
1052.353, 171.1562
1053.459, 178.1328
1054.564, 29.75781
1055.670, 278.5684
1056.775, 304.5703
1057.880, 242.9590
1058.985, 338.7305
1060.089, 442.6562
1061.194, 308.5898
1062.298, 236.7227
1063.402, 343.2012
1064.506, 153.6387
1065.610, 256.2910
1066.713, 20.94141
1067.817, 184.9941
1068.920, 258.2051
1070.023, 357.3125
1071.126, 275.9492
1072.229, 220.7480
1073.332, 4.134766
1074.435, 230.1504
1075.537, 465.0938
1076.639, 335.7910
1077.741, 89.57227
1078.843, 81.04883
1079.945, 246.3594
1081.046, 382.8320
1082.148, 188.5137
1083.249, 276.4434
1084.350, 184.1309
1085.451, 237.8242
1086.551, 342.5332
1087.652, 305.2070
1088.752, 233.9746
1089.853, 150.8789
1090.953, 170.5156
1092.053, 130.8086
1093.152, 214.5898
1094.252, 167.2539
1095.351, 76.57227
1096.451, 276.6504
1097.550, 91.37109
1098.649, 261.3379
1099.748, 218.4707
1100.846, 280.6660
1101.945, 238.2285
1103.043, 245.0547
1104.141, 130.3047
1105.239, 5.423828
1106.337, 138.4355
1107.434, 68.30078
1108.532, 250.1094
1109.629, 66.36328
1110.726, 140.9238
1111.823, 241.8340
1112.920, 97.86914
1114.017, 273.0527
1115.113, 22.33203
1116.210, 215.3066
1117.306, 59.75977
1118.402, 142.1426
1119.498, 232.3809
1120.593, 141.8926
1121.689, 251.4941
1122.784, 50.53125
1123.879, 115.3672
1124.974, 312.5234
1126.069, 226.5273
1127.164, 53.08789
1128.259, 217.8242
1129.353, 176.9902
1130.447, 325.2207
1131.541, 198.2949
1132.635, 337.5547
1133.729, 77.05078
1134.822, 160.1699
1135.916, 73.08398
1137.009, 153.4629
1138.102, 162.7910
1139.195, 37.57422
1140.288, 223.2773
1141.380, 225.7559
1142.473, 272.2754
1143.565, 243.4434
1144.657, 79.69531
1145.749, 32.35547
1146.841, 44.69141
1147.932, 38.00586
1149.024, 20.45312
1150.115, 64.68750
1151.206, 323.0332
1152.297, 411.2559
1153.388, 276.3438
1154.479, 374.1426
1155.569, 279.3633
1156.659, 238.6855
1157.750, 221.0723
1158.839, 48.03320
1159.929, 253.8398
1161.019, 173.0137
1162.108, 154.3672
1163.198, 103.0859
1164.287, 413.1230
1165.376, 111.4727
1166.465, 128.9219
1167.553, 5.101563
1168.642, 111.2148
1169.730, 438.9219
1170.818, 280.1172
1171.906, 261.1953
1172.994, 326.2422
1174.082, 68.75391
1175.170, 120.5156
1176.257, 476.6289
1177.344, 38.44922
1178.431, 65.84766
1179.518, 254.1523
1180.605, 200.5273
1181.691, 383.6367
1182.778, 264.2539
1183.864, 342.9141
1184.950, 82.48828
1186.036, 389.6445
1187.122, 142.0391
1188.207, 240.4961
1189.292, 186.9688
1190.378, 269.8359
1191.463, 99.20312
1192.548, 46.92969
1193.632, 223.3164
1194.717, 15.46875
1195.801, 13.51562
1196.886, 236.7500
1197.970, 102.1484
1199.054, 22.88281
1200.137, 235.0430
1201.221, 15.88281
1202.305, 173.8555
1203.388, 25.98828
1204.471, 126.0625
1205.554, 70.98047
1206.637, 211.6758
1207.719, 184.8477
1208.802, 159.9766
1209.884, 113.8867
1210.966, 157.0664
1212.048, 128.8242
1213.130, 219.2656
1214.212, 148.2539
1215.293, 112.1055
1216.374, 163.3750
1217.456, 196.7031
1218.536, 175.2500
1219.617, 126.9258
1220.698, 52.25000
1221.778, 211.2773
1222.859, 229.2852
1223.939, 162.6836
1225.019, 268.1094
1226.099, 177.6055
1227.178, 246.3359
1228.258, 179.9414
1229.337, 176.9219
1230.417, 244.2383
1231.496, 173.4102
1232.574, 281.9922
1233.653, 378.5352
1234.732, 194.6836
1235.810, 159.1133
1236.888, 78.16406
1237.966, 175.4609
1239.044, 351.1875
1240.122, 356.3008
1241.199, 222.7656
1242.277, 473.2656
1243.354, 457.6055
1244.431, 288.7109
1245.508, 309.6758
1246.585, 113.2070
1247.661, 293.0508
1248.738, 404.3242
1249.814, 39.68359
1250.890, 424.8750
1251.966, 194.2539
1253.042, 112.8906
1254.117, 155.5781
1255.193, 78.30469
1256.268, 245.7188
1257.343, 130.3516
1258.418, 372.0430
1259.493, 386.2070
1260.567, 279.7227
1261.642, 440.5117
1262.716, 352.0117
1263.790, 485.5078
1264.864, 419.2227
1265.938, 464.8164
1267.011, 53.70703
1268.085, 271.6602
1269.158, 211.2422
1270.231, 98.84766
1271.304, 225.9180
1272.377, 185.0352
1273.450, 49.12500
1274.522, 131.6562
1275.594, 344.0742
1276.666, 113.8242
1277.738, 72.41016
1278.810, 333.2734
1279.882, 102.3047
1280.953, 346.5586
1282.025, 76.38281
1283.096, 71.91016
1284.167, 400.5039
1285.238, 289.7031
1286.308, 347.1211
1287.379, 10.50781
1288.449, 185.5781
1289.519, 251.3555
1290.589, 19.91016
1291.659, 33.29688
1292.729, 249.0039
1293.798, 223.9922
1294.868, 88.60938
