##NAMES=Corundum
##RRUFFID=R060020
##IDEAL CHEMISTRY=Al_2_O_3_
##LOCALITY=Yogo Gulch, Montana, USA
##OWNER=RRUFF
##SOURCE=American Museum of Natural History
##DESCRIPTION=Water rounded light blue fragment
##STATUS=The identification of this mineral has been confirmed by X-ray diffraction and chemical analysis
##URL=rruff.info/R060020
##MEASURED CHEMISTRY=(Al_1.99_Fe^3+^_0.01_)_Î£=2_O_3_ ; Fe^3+^ by charge balance
##PIN_ID=L01262
##ORIENTATION=Laser parallel to -a* (-1 0 0). Fiducial mark perpendicular to laser is parallel to c [0 0 1]
114.4400, 0.0000000E+00
115.6710, 77.87646
116.9030, 170.6401
118.1340, 139.8306
119.3650, 164.5518
120.5960, 5.537598
121.8270, 165.3931
123.0580, 13.04883
124.2880, 49.31641
125.5190, 110.1030
126.7490, 118.3452
127.9790, 55.41504
129.2090, 15.33936
130.4390, 94.58496
131.6680, 124.1235
132.8980, 9.920410
134.1270, 53.94092
135.3560, 145.1543
136.5850, 138.5347
137.8140, 7.062500
139.0430, 16.97412
140.2710, 4.264160
141.5000, 142.6333
142.7280, 84.70850
143.9560, 116.9805
145.1840, 62.42090
146.4120, 56.99707
147.6390, 101.6797
148.8670, 72.44727
150.0940, 105.2847
151.3210, 164.1626
152.5490, 130.0845
153.7750, 162.0352
155.0020, 140.0098
156.2290, 112.0010
157.4550, 100.0054
158.6810, 13.03613
159.9080, 139.0874
161.1340, 79.16064
162.3590, 3.250977
163.5850, 4.644043
164.8110, 234.4902
166.0360, 171.6401
167.2610, 193.1963
168.4860, 78.92383
169.7110, 171.0967
170.9360, 119.6509
172.1610, 194.3315
173.3850, 212.9761
174.6100, 205.5396
175.8340, 220.9048
177.0580, 260.3867
178.2820, 204.6738
179.5050, 221.8730
180.7290, 238.9897
181.9520, 215.0264
183.1760, 242.9863
184.3990, 197.8716
185.6220, 335.6865
186.8450, 355.4331
188.0670, 408.1191
189.2900, 261.7632
190.5120, 291.3672
191.7340, 342.9277
192.9560, 357.4531
194.1780, 340.9492
195.4000, 462.4150
196.6220, 390.8535
197.8430, 549.2666
199.0640, 457.6553
200.2860, 567.0195
201.5070, 645.3613
202.7270, 645.7021
203.9480, 556.9863
205.1690, 615.2520
206.3890, 523.7764
207.6090, 362.9961
208.8290, 335.1895
210.0490, 381.8438
211.2690, 483.3340
212.4890, 366.8330
213.7080, 425.9521
214.9280, 403.7148
216.1470, 380.1152
217.3660, 470.0225
218.5850, 460.2725
219.8030, 393.4844
221.0220, 546.9531
222.2400, 358.1865
223.4590, 396.3848
224.6770, 428.4844
225.8950, 409.5176
227.1120, 429.5762
228.3300, 384.2871
229.5480, 292.2168
230.7650, 335.6689
231.9820, 373.6729
233.1990, 349.6377
234.4160, 244.9180
235.6330, 471.4590
236.8490, 288.6689
238.0660, 331.8408
239.2820, 478.1621
240.4980, 422.2949
241.7140, 425.4238
242.9300, 546.5469
244.1460, 496.6621
245.3610, 333.7637
246.5770, 454.8477
247.7920, 537.9131
249.0070, 369.9580
250.2220, 463.9902
251.4370, 354.0078
252.6510, 388.0088
253.8660, 404.9902
255.0800, 417.9580
256.2940, 392.9150
257.5080, 418.8633
258.7220, 405.8545
259.9360, 374.7109
261.1490, 393.9570
262.3630, 406.9082
263.5760, 398.5059
264.7890, 431.0557
266.0020, 285.6396
267.2150, 290.8496
268.4270, 324.4805
269.6400, 414.1299
270.8520, 316.7949
272.0640, 309.4717
273.2760, 280.1582
274.4880, 185.8477
275.7000, 258.5439
276.9120, 281.2451
278.1230, 325.9512
279.3340, 267.6572
280.5450, 294.3652
281.7560, 312.0732
282.9670, 158.7793
284.1780, 182.4834
285.3880, 244.1826
286.5980, 164.8359
287.8090, 241.5293
289.0190, 9.218750
290.2290, 87.89941
291.4380, 127.5742
292.6480, 148.2412
293.8570, 191.9023
295.0670, 186.8193
296.2760, 120.6357
297.4850, 93.27344
298.6930, 37.90234
299.9020, 69.52051
301.1110, 160.1299
302.3190, 186.7295
303.5270, 183.6875
304.7350, 58.90039
305.9430, 167.4717
307.1510, 82.03223
308.3580, 114.5820
309.5660, 101.0791
310.7730, 84.79492
311.9800, 29.12988
313.1870, 100.1172
314.3940, 70.96875
315.6010, 108.3584
316.8070, 122.0283
318.0130, 98.46973
319.2200, 46.70020
320.4260, 44.23047
321.6310, 115.1123
322.8370, 34.58789
324.0430, 49.65625
325.2480, 159.2041
326.4540, 25.61621
327.6590, 52.58301
328.8640, 57.67578
330.0680, 22.88184
331.2730, 95.07422
332.4780, 29.81543
333.6820, 96.52832
334.8860, 38.34570
336.0900, 84.33105
337.2940, 0.8388670
338.4980, 2.549805
339.7010, 48.18652
340.9050, 13.85352
342.1080, 16.74414
343.3110, 15.39648
344.5140, 25.43652
345.7170, 67.25293
346.9200, 121.1182
348.1220, 54.03027
349.3240, 94.87500
350.5270, 85.96875
351.7290, 137.6982
352.9310, 200.5908
354.1320, 188.5303
355.3340, 86.50488
356.5350, 160.1621
357.7370, 171.5117
358.9380, 164.8613
360.1390, 217.6953
361.3400, 144.1553
362.5400, 254.6094
363.7410, 362.5332
364.9410, 356.6143
366.1410, 326.7637
367.3410, 401.7725
368.5410, 333.5977
369.7410, 360.5771
370.9400, 578.3936
372.1400, 616.0166
373.3390, 445.6357
374.5380, 789.9121
375.7370, 681.3584
376.9360, 763.4990
378.1350, 607.5938
379.3330, 782.8047
380.5310, 711.8057
381.7300, 585.0713
382.9280, 511.6396
384.1260, 689.1299
385.3230, 638.5068
386.5210, 645.6123
387.7180, 422.8164
388.9160, 420.8857
390.1130, 420.0322
391.3100, 441.0391
392.5060, 560.4277
393.7030, 675.8379
394.9000, 593.7012
396.0960, 436.3506
397.2920, 602.6143
398.4880, 482.4434
399.6840, 574.6318
400.8800, 716.8887
402.0750, 532.5264
403.2710, 574.9844
404.4660, 720.7617
405.6610, 869.2783
406.8560, 1141.624
408.0510, 1618.383
409.2450, 2261.709
410.4400, 3000.859
411.6340, 3656.690
412.8280, 4829.457
414.0220, 6534.559
415.2160, 8448.492
416.4100, 8982.201
417.6030, 7645.914
418.7970, 6414.782
419.9900, 5674.896
421.1830, 4446.750
422.3760, 3169.523
423.5690, 2255.485
424.7610, 1431.187
425.9540, 1056.876
427.1460, 875.5693
428.3380, 851.2793
429.5300, 729.0098
430.7220, 831.7500
431.9140, 560.5156
433.1050, 621.8174
434.2970, 465.4492
435.4880, 528.2656
436.6790, 348.0684
437.8700, 160.8564
439.0610, 183.6270
440.2510, 232.3584
441.4420, 385.9561
442.6320, 367.3027
443.8220, 425.7646
445.0120, 423.4639
446.2020, 594.1436
447.3910, 618.8057
448.5810, 620.1299
449.7700, 439.7588
450.9600, 433.1289
452.1490, 334.6094
453.3370, 236.0986
454.5260, 355.9199
455.7150, 121.9639
456.9030, 152.2715
458.0910, 314.4297
459.2800, 210.1621
460.4670, 244.4775
461.6550, 49.04785
462.8430, 213.0918
464.0300, 178.9912
465.2180, 191.9785
466.4050, 85.99023
467.5920, 92.02344
468.7790, 196.2480
469.9650, 99.91992
471.1520, 218.6777
472.3380, 121.5742
473.5250, 76.76855
474.7110, 40.48730
475.8970, 92.92578
477.0820, 189.4922
478.2680, 254.6875
479.4540, 91.14551
480.6390, 192.6426
481.8240, 54.01172
483.0090, 178.4883
484.1940, 210.6348
485.3780, 350.7803
486.5630, 220.2490
487.7470, 336.3916
488.9320, 200.6836
490.1160, 185.1748
491.3000, 198.3574
492.4830, 135.6855
493.6670, 245.9473
494.8500, 176.5078
496.0340, 162.9824
497.2170, 151.5400
498.4000, 3.306641
499.5820, 55.39844
500.7650, 51.87207
501.9480, 54.74805
503.1300, 31.35840
504.3120, 16.82422
505.4940, 19.85742
506.6760, 77.42383
507.8580, 57.67676
509.0390, 81.89941
510.2210, 109.5234
511.4020, 59.26074
512.5830, 82.39941
513.7640, 121.5078
514.9450, 113.8203
516.1250, 189.6455
517.3060, 145.6758
518.4860, 215.6807
519.6660, 223.6611
520.8460, 193.6182
522.0260, 254.5488
523.2060, 175.6934
524.3850, 101.6650
525.5650, 117.9609
526.7440, 143.5547
527.9230, 206.9199
529.1020, 181.4336
530.2810, 212.4180
531.4590, 192.1572
532.6380, 223.4082
533.8160, 130.7510
534.9940, 123.8154
536.1720, 270.9316
537.3500, 27.60742
538.5270, 153.5557
539.7050, 271.6104
540.8820, 167.7471
542.0590, 150.5312
543.2360, 57.86914
544.4130, 98.53223
545.5900, 281.3574
546.7660, 82.05957
547.9430, 120.5938
549.1190, 346.8418
550.2950, 128.7900
551.4710, 169.4590
552.6470, 250.4756
553.8220, 25.31543
554.9980, 183.7451
556.1730, 222.5254
557.3480, 370.9873
558.5230, 286.3096
559.6980, 253.8271
560.8730, 193.0566
562.0470, 253.7061
563.2220, 270.5869
564.3960, 240.7256
565.5700, 327.7656
566.7440, 343.0244
567.9170, 441.8105
569.0910, 447.3379
570.2640, 563.3984
571.4380, 606.9795
572.6110, 827.3027
573.7840, 1077.468
574.9570, 1270.610
576.1290, 1113.598
577.3020, 1081.699
578.4740, 1005.905
579.6460, 841.4209
580.8180, 761.3613
581.9900, 690.2607
583.1620, 611.3330
584.3330, 600.3604
585.5040, 532.1738
586.6760, 539.6406
587.8470, 380.0674
589.0180, 474.4150
590.1880, 371.0889
591.3590, 387.2363
592.5290, 497.3496
593.7000, 354.4482
594.8700, 253.4873
596.0400, 551.4873
597.2090, 537.9688
598.3790, 439.5400
599.5490, 274.4336
600.7180, 397.1631
601.8870, 291.9775
603.0560, 358.9492
604.2250, 473.5674
605.3940, 386.0039
606.5620, 434.5205
607.7300, 486.5830
608.8990, 448.6641
610.0670, 508.1436
611.2350, 458.1816
612.4020, 391.7090
613.5700, 372.0029
614.7370, 393.8828
615.9050, 535.6309
617.0720, 519.5664
618.2390, 512.9258
619.4060, 350.4053
620.5720, 440.1650
621.7390, 630.7041
622.9050, 546.4434
624.0710, 644.7002
625.2370, 727.0537
626.4030, 826.3926
627.5690, 978.7100
628.7340, 877.9961
629.9000, 751.1855
631.0650, 620.2744
632.2300, 747.3809
633.3950, 556.1904
634.5600, 633.3145
635.7240, 490.2217
636.8890, 584.0352
638.0530, 519.7598
639.2170, 343.7510
640.3810, 403.9961
641.5450, 671.1846
642.7080, 635.8369
643.8720, 445.8135
645.0350, 660.7441
646.1980, 572.1025
647.3610, 598.2100
648.5240, 679.1982
649.6870, 731.2480
650.8490, 646.3740
652.0120, 734.2510
653.1740, 643.1846
654.3360, 768.2412
655.4980, 738.2285
656.6600, 761.4932
657.8210, 516.5332
658.9830, 673.8262
660.1440, 504.1123
661.3050, 442.2344
662.4660, 372.5322
663.6270, 408.5430
664.7870, 325.5312
665.9480, 248.9570
667.1080, 297.7607
668.2680, 257.7832
669.4280, 264.3926
670.5880, 308.6045
671.7480, 305.4248
672.9070, 278.3359
674.0670, 339.8154
675.2260, 321.2217
676.3850, 234.1660
677.5440, 296.3057
678.7030, 316.8359
679.8610, 292.7461
681.0200, 132.2451
682.1780, 233.6172
683.3360, 388.5479
684.4940, 104.5986
685.6520, 129.2734
686.8090, 163.1465
687.9670, 29.87402
689.1240, 67.62305
690.2810, 113.4893
691.4380, 26.53125
692.5950, 72.68945
693.7520, 21.73340
694.9080, 73.74805
696.0650, 18.31543
697.2210, 16.23926
698.3770, 67.24219
699.5330, 171.5059
700.6880, 75.94434
701.8440, 46.57422
702.9990, 109.7871
704.1550, 32.56348
705.3100, 61.10059
706.4650, 34.41992
707.6190, 85.03125
708.7740, 93.79980
709.9290, 54.60938
711.0830, 114.5654
712.2370, 64.65527
713.3910, 16.85645
714.5450, 174.1416
715.6980, 108.4033
716.8520, 83.89160
718.0050, 170.3213
719.1580, 16.69727
720.3110, 147.0029
721.4640, 73.25488
722.6170, 85.44824
723.7700, 122.5781
724.9220, 302.6523
726.0740, 332.6738
727.2260, 447.9082
728.3780, 362.5723
729.5300, 587.4375
730.6810, 543.2676
731.8330, 475.0488
732.9840, 714.6895
734.1350, 686.8555
735.2860, 794.4902
736.4370, 776.2070
737.5880, 928.7461
738.7380, 1282.791
739.8880, 1313.236
741.0390, 1640.572
742.1890, 1676.822
743.3380, 1911.475
744.4880, 2359.146
745.6380, 2641.439
746.7870, 2868.303
747.9360, 3161.461
749.0850, 3257.885
750.2340, 3046.918
751.3830, 3295.967
752.5310, 2935.664
753.6800, 2785.469
754.8280, 2491.873
755.9760, 2279.730
757.1240, 2221.699
758.2720, 1755.604
759.4190, 1727.479
760.5670, 1485.133
761.7140, 1370.758
762.8610, 1353.844
764.0080, 1360.898
765.1550, 1154.816
766.3020, 1096.256
767.4480, 1261.979
768.5950, 1206.604
769.7410, 934.7617
770.8870, 1275.473
772.0330, 1050.143
773.1780, 1047.525
774.3240, 1053.969
775.4690, 1053.609
776.6140, 1042.545
777.7590, 1051.752
778.9040, 1010.318
780.0490, 1018.166
781.1940, 992.3633
782.3380, 1037.781
783.4820, 1084.049
784.6260, 1161.814
785.7700, 1076.945
786.9140, 1084.801
788.0580, 1076.189
789.2010, 1045.957
790.3450, 979.3926
791.4880, 1165.695
792.6310, 1147.496
793.7730, 1062.820
794.9160, 1214.084
796.0590, 1205.502
797.2010, 1170.623
798.3430, 1085.186
799.4850, 1260.252
800.6270, 1386.143
801.7690, 1038.279
802.9100, 1327.908
804.0520, 1360.135
805.1930, 1230.520
806.3340, 1381.479
807.4750, 1210.969
808.6160, 1262.656
809.7560, 1356.965
810.8970, 1226.723
812.0370, 1151.953
813.1770, 1396.609
814.3170, 1291.033
815.4570, 1261.559
816.5960, 1392.479
817.7360, 1294.781
818.8750, 1052.123
820.0140, 1279.354
821.1530, 1111.607
822.2920, 1137.355
823.4310, 1031.721
824.5690, 921.7852
825.7070, 933.8672
826.8460, 859.7832
827.9840, 1044.076
829.1220, 914.8516
830.2590, 1079.572
831.3970, 857.9297
832.5340, 862.2129
833.6710, 705.5293
834.8080, 734.3965
835.9450, 990.5332
837.0820, 729.7656
838.2190, 787.3262
839.3550, 986.4082
840.4910, 649.8828
841.6270, 716.7480
842.7630, 705.8887
843.8990, 689.8672
845.0350, 603.8457
846.1700, 544.1934
847.3060, 768.5215
848.4410, 666.5527
849.5760, 514.2129
850.7100, 715.3691
851.8450, 624.5547
852.9800, 709.8594
854.1140, 562.9199
855.2480, 621.5039
856.3820, 612.5391
857.5160, 703.1816
858.6500, 659.8418
859.7830, 822.5820
860.9170, 808.1074
862.0500, 801.6094
863.1830, 859.1406
864.3160, 738.1875
865.4480, 767.4004
866.5810, 710.8789
867.7130, 650.3457
868.8460, 505.7324
869.9780, 576.0840
871.1100, 653.3789
872.2410, 427.6172
873.3730, 562.8652
874.5050, 587.9941
875.6360, 466.6504
876.7670, 380.0469
877.8980, 494.5410
879.0290, 373.1348
880.1590, 358.1504
881.2900, 197.3496
882.4200, 289.7480
883.5500, 207.9766
884.6800, 370.5605
885.8100, 497.8262
886.9400, 198.6191
888.0690, 265.4375
889.1990, 242.6836
890.3280, 88.62109
891.4570, 206.8125
892.5860, 168.4844
893.7140, 369.1016
894.8430, 167.2070
895.9710, 206.4668
897.1000, 203.8027
898.2280, 319.8906
899.3560, 74.98242
900.4830, 97.81641
901.6110, 199.7754
902.7380, 119.3418
903.8660, 130.9590
904.9930, 230.3809
906.1200, 85.12305
907.2460, 83.42188
908.3730, 138.7969
909.5000, 110.9102
910.6260, 290.5273
911.7520, 85.52344
912.8780, 186.6523
914.0040, 263.7539
915.1290, 191.5215
916.2550, 99.23438
917.3800, 34.86328
918.5050, 57.42188
919.6300, 165.9316
920.7550, 65.53320
921.8800, 117.8809
923.0040, 216.2246
924.1290, 112.4395
925.2530, 178.6465
926.3770, 196.9707
927.5010, 66.41211
928.6250, 166.3848
929.7480, 168.2715
930.8720, 117.9082
931.9950, 175.5000
933.1180, 55.78320
934.2410, 45.59766
935.3640, 95.43945
936.4860, 82.20508
937.6090, 33.00195
938.7310, 48.83008
939.8530, 118.7520
940.9750, 166.0059
942.0970, 29.61133
943.2180, 251.3965
944.3400, 4.375000
945.4610, 2.091797
946.5820, 106.8105
947.7030, 156.3750
948.8240, 127.9453
949.9450, 206.2930
951.0650, 95.89648
952.1860, 6.207031
953.3060, 224.2168
954.4260, 367.4688
955.5460, 260.6445
956.6650, 82.87109
957.7850, 181.8984
958.9040, 271.7461
960.0230, 25.42578
961.1420, 164.1426
962.2610, 117.7559
963.3800, 136.4941
964.4990, 2.117188
965.6170, 41.65430
966.7350, 244.5508
967.8530, 291.2520
968.9710, 170.4590
970.0890, 38.00391
971.2070, 63.17188
972.3240, 340.3203
973.4410, 138.1699
974.5580, 1.044922
975.6750, 347.6191
976.7920, 111.5469
977.9090, 202.7949
979.0250, 142.4434
980.1410, 143.0605
981.2580, 239.6445
982.3740, 349.3867
983.4890, 214.4180
984.6050, 319.3359
985.7200, 326.5566
986.8360, 248.7559
987.9510, 260.1543
989.0660, 215.5957
990.1810, 245.0371
991.2950, 149.1230
992.4100, 277.6309
993.5240, 267.7031
994.6390, 346.7070
995.7530, 176.6504
996.8660, 151.4219
997.9800, 265.4805
999.0940, 363.9238
1000.207, 165.2559
1001.320, 495.8691
1002.433, 419.3125
1003.546, 580.7988
1004.659, 531.4492
1005.772, 406.3477
1006.884, 373.5254
1007.996, 387.9492
1009.108, 248.7598
1010.220, 296.0117
1011.332, 258.3379
1012.444, 220.6387
1013.555, 105.3906
1014.666, 285.3574
1015.777, 222.2988
1016.888, 247.0996
1017.999, 455.4766
1019.110, 207.0996
1020.220, 65.93555
1021.331, 282.6973
1022.441, 163.7266
1023.551, 221.3750
1024.661, 386.0234
1025.770, 250.8262
1026.880, 247.8965
1027.989, 116.6406
1029.098, 301.6562
1030.207, 27.73047
1031.316, 310.3438
1032.425, 293.8164
1033.533, 15.57812
1034.642, 290.5645
1035.750, 133.6074
1036.858, 178.8613
1037.966, 59.49609
1039.073, 279.3789
1040.181, 128.3984
1041.288, 331.5645
1042.396, 470.7324
1043.503, 237.6602
1044.610, 131.3027
1045.716, 81.59570
1046.823, 311.4141
1047.929, 415.4023
1049.036, 133.3906
1050.142, 783.1367
1051.248, 491.4102
1052.353, 368.6035
1053.459, 330.2754
1054.564, 440.5938
1055.670, 358.3398
1056.775, 402.0625
1057.880, 361.9805
1058.985, 328.3418
1060.089, 45.63672
1061.194, 455.9160
1062.298, 144.1660
1063.402, 358.3418
1064.506, 246.5215
1065.610, 237.2051
1066.713, 602.1328
1067.817, 374.1309
1068.920, 252.4609
1070.023, 139.9590
1071.126, 372.4883
1072.229, 235.6230
1073.332, 297.9648
1074.435, 198.6875
1075.537, 141.1035
1076.639, 258.7461
1077.741, 359.0586
1078.843, 167.4277
1079.945, 302.6133
1081.046, 441.3809
1082.148, 234.7852
1083.249, 370.7324
1084.350, 279.4609
1085.451, 360.0645
1086.551, 261.8340
1087.652, 266.5664
1088.752, 239.4473
1089.853, 271.3301
1090.953, 299.6797
1092.053, 289.4688
1093.152, 348.3555
1094.252, 306.1016
1095.351, 260.3125
1096.451, 377.3652
1097.550, 58.46484
1098.649, 97.66406
1099.748, 204.2441
1100.846, 72.49414
1101.945, 219.0293
1103.043, 60.45898
1104.141, 48.68750
1105.239, 107.8828
1106.337, 108.5605
1107.434, 129.9238
1108.532, 54.69727
1109.629, 199.4004
1110.726, 93.62695
1111.823, 486.7305
1112.920, 355.7891
1114.017, 284.3379
1115.113, 210.1387
1116.210, 228.3145
1117.306, 145.2578
1118.402, 149.0664
1119.498, 86.86914
1120.593, 179.5664
1121.689, 168.2246
1122.784, 119.1699
1123.879, 241.0508
1124.974, 331.4824
1126.069, 396.3203
1127.164, 422.4316
1128.259, 119.2207
1129.353, 274.3438
1130.447, 166.6270
1131.541, 178.6230
1132.635, 367.0469
1133.729, 120.9727
1134.822, 393.8770
1135.916, 280.6875
1137.009, 205.6387
1138.102, 94.32227
1139.195, 51.00000
1140.288, 182.5449
1141.380, 299.9922
1142.473, 190.9648
1143.565, 17.78711
1144.657, 49.42969
1145.749, 206.5156
1146.841, 36.31055
1147.932, 146.4688
1149.024, 150.0098
1150.115, 239.0664
1151.206, 255.4551
1152.297, 240.1172
1153.388, 227.6328
1154.479, 279.9434
1155.569, 110.1406
1156.659, 176.9082
1157.750, 60.02539
1158.839, 84.17773
1159.929, 40.19141
1161.019, 289.5156
1162.108, 141.5508
1163.198, 37.65820
1164.287, 223.9160
1165.376, 99.46484
1166.465, 61.51953
1167.553, 63.34570
1168.642, 208.7070
1169.730, 232.9258
1170.818, 280.5625
1171.906, 230.9258
1172.994, 277.5742
1174.082, 295.8535
1175.170, 297.5840
1176.257, 161.3164
1177.344, 148.4336
1178.431, 187.2305
1179.518, 103.3789
1180.605, 294.5156
1181.691, 48.19531
1182.778, 163.2773
1183.864, 99.62500
1184.950, 69.74219
1186.036, 6.599609
1187.122, 96.68750
1188.207, 35.23047
1189.292, 106.0762
1190.378, 137.5820
1191.463, 232.9844
1192.548, 86.71094
1193.632, 329.3867
1194.717, 263.8926
1195.801, 185.8613
1196.886, 231.7266
1197.970, 67.17578
1199.054, 8.500000
1200.137, 92.29297
1201.221, 331.5918
1202.305, 9.230469
1203.388, 109.3789
1204.471, 52.17578
1205.554, 29.49609
1206.637, 126.4766
1207.719, 263.0625
1208.802, 324.8047
1209.884, 49.41406
1210.966, 239.2773
1212.048, 27.06250
1213.130, 51.82812
1214.212, 118.5625
1215.293, 12.25391
1216.374, 189.7891
1217.456, 88.70703
1218.536, 173.1836
1219.617, 219.8516
1220.698, 5.414063
1221.778, 405.5898
1222.859, 415.2500
1223.939, 282.5508
1225.019, 352.6211
1226.099, 156.0195
1227.178, 165.6055
1228.258, 51.44922
1229.337, 96.96484
1230.417, 209.5234
1231.496, 244.4414
1232.574, 124.8984
1233.653, 182.6719
1234.732, 214.3320
1235.810, 122.0430
1236.888, 244.8672
1237.966, 374.9648
1239.044, 456.8711
1240.122, 230.9688
1241.199, 483.6992
1242.277, 515.9648
1243.354, 390.4805
1244.431, 530.3320
1245.508, 444.1953
1246.585, 335.1406
1247.661, 633.8711
1248.738, 550.0430
1249.814, 302.5039
1250.890, 524.0859
1251.966, 241.7891
1253.042, 335.1602
1254.117, 317.5742
1255.193, 482.6484
1256.268, 503.5273
1257.343, 330.1016
1258.418, 210.4922
1259.493, 273.0117
1260.567, 186.3750
1261.642, 348.9375
1262.716, 518.1758
1263.790, 193.8633
1264.864, 485.6172
1265.938, 398.2812
1267.011, 654.9297
1268.085, 179.1992
1269.158, 583.0820
1270.231, 319.1680
1271.304, 228.4570
1272.377, 475.1250
1273.450, 445.1172
1274.522, 229.2930
1275.594, 483.1719
1276.666, 300.3477
1277.738, 583.7422
1278.810, 481.7266
1279.882, 460.5742
1280.953, 662.0273
1282.025, 628.4570
1283.096, 403.7305
1284.167, 476.0938
1285.238, 547.6914
1286.308, 261.9766
1287.379, 475.1953
1288.449, 363.5195
1289.519, 459.8945
1290.589, 244.1406
1291.659, 515.3633
