##NAMES=Corundum
##RRUFFID=R040096
##IDEAL CHEMISTRY=Al_2_O_3_
##LOCALITY=Sri Lanka
##OWNER=RRUFF
##SOURCE=University of Arizona Mineral Museum
##DESCRIPTION=Pale purple hexagonal prism
##STATUS=The identification of this mineral has been confirmed by X-ray diffraction and chemical analysis
##URL=rruff.info/R040096
##MEASURED CHEMISTRY=Al_2.00_O_3_
##PIN_ID=L01813
##ORIENTATION=Laser parallel to -c* (0 0 -1). Fiducial mark perpendicular to laser is parallel to a [1 0 0]
113.2080, 0.0000000E+00
114.4400, 266.4287
115.6710, 205.5791
116.9030, 88.14160
118.1340, 0.7861330
119.3650, 60.04395
120.5960, 36.12598
121.8270, 139.5322
123.0580, 183.0137
124.2880, 10.61816
125.5190, 24.50195
126.7490, 15.27344
127.9790, 87.61621
129.2090, 120.4561
130.4390, 117.7295
131.6680, 162.3818
132.8980, 271.3643
134.1270, 203.6367
135.3560, 236.1797
136.5850, 247.0039
137.8140, 387.0791
139.0430, 371.3896
140.2710, 308.9258
141.5000, 163.6514
142.7280, 165.5400
143.9560, 208.5762
145.1840, 317.7520
146.4120, 100.0488
147.6390, 265.4482
148.8670, 173.9395
150.0940, 362.5088
151.3210, 460.1445
152.5490, 334.8379
153.7750, 317.5811
155.0020, 313.3691
156.2290, 150.2998
157.4550, 34.54980
158.6810, 215.0811
159.9080, 119.5918
161.1340, 364.1162
162.3590, 274.6934
163.5850, 324.4805
164.8110, 183.3770
166.0360, 361.3281
167.2610, 255.2490
168.4860, 398.1318
169.7110, 423.9854
170.9360, 392.8057
172.1610, 284.5977
173.3850, 239.4434
174.6100, 179.4316
175.8340, 306.4053
177.0580, 340.3525
178.2820, 347.2686
179.5050, 260.1543
180.7290, 342.0107
181.9520, 265.8369
183.1760, 319.6367
184.3990, 339.4160
185.6220, 321.8828
186.8450, 359.8994
188.0670, 318.5938
189.2900, 372.2607
190.5120, 349.9062
191.7340, 500.5352
192.9560, 414.1436
194.1780, 515.7422
195.4000, 369.3291
196.6220, 513.9062
197.8430, 562.8555
199.0640, 514.3711
200.2860, 481.9609
201.5070, 530.7139
202.7270, 396.8545
203.9480, 315.0840
205.1690, 225.3135
206.3890, 156.5449
207.6090, 135.6074
208.8290, 130.0850
210.0490, 133.5801
211.2690, 168.8223
212.4890, 192.7002
213.7080, 193.6943
214.9280, 212.7764
216.1470, 118.2061
217.3660, 207.9951
218.5850, 169.1123
219.8030, 284.6338
221.0220, 271.4336
222.2400, 276.5889
223.4590, 260.1709
224.6770, 253.3779
225.8950, 199.5166
227.1120, 154.6582
228.3300, 153.8057
229.5480, 214.0117
230.7650, 121.1875
231.9820, 142.3291
233.1990, 199.3779
234.4160, 180.0303
235.6330, 172.9688
236.8490, 166.5117
238.0660, 150.5742
239.2820, 37.97786
240.4980, 145.0283
241.7140, 204.3189
242.9300, 218.4160
244.1460, 51.96036
245.3610, 118.6529
246.5770, 91.90914
247.7920, 61.33577
249.0070, 160.8426
250.2220, 20.64965
251.4370, 118.0937
252.6510, 120.6790
253.8660, 166.6779
255.0800, 118.6668
256.2940, 99.69294
257.5080, 174.7608
258.7220, 197.7571
259.9360, 138.9238
261.1490, 187.6857
262.3630, 44.21033
263.5760, 69.42612
264.7890, 167.4237
266.0020, 113.3190
267.2150, 163.7999
268.4270, 174.4503
269.6400, 4.079704
270.8520, 148.5218
272.0640, 156.8184
273.2760, 25.32338
274.4880, 158.9787
275.7000, 46.75550
276.9120, 22.29591
278.1230, 63.88577
279.3340, 36.62310
280.5450, 117.9144
281.7560, 94.62784
282.9670, 61.99783
284.1780, 70.14344
285.3880, -37.25491
286.5980, 69.70723
287.8090, 30.24129
289.0190, 102.1992
290.2290, 12.87305
291.4380, 151.5625
292.6480, 92.87988
293.8570, 209.1973
295.0670, 110.5107
296.2760, 139.8232
297.4850, 133.1309
298.6930, 64.43555
299.9020, 77.73828
301.1110, 109.0361
302.3190, 16.66113
303.5270, 109.6299
304.7350, 160.9131
305.9430, 83.18750
307.1510, 242.4580
308.3580, 23.27344
309.5660, 195.9775
310.7730, 8.778320
311.9800, 62.68066
313.1870, 119.0986
314.3940, 111.3398
315.6010, 137.0498
316.8070, 29.27832
318.0130, 85.16309
319.2200, 21.84766
320.4260, 23.01758
321.6310, 138.6553
322.8370, 83.07715
324.0430, 42.18164
325.2480, 57.71875
326.4540, 78.08398
327.6590, 137.5283
328.8640, 108.8857
330.0680, 177.5791
331.2730, 71.91699
332.4780, 96.53125
333.6820, 80.98438
334.8860, 165.9961
336.0900, 124.0781
337.2940, 137.4395
338.4980, 137.6572
339.7010, 143.0410
340.9050, 172.5391
342.1080, 143.3418
343.3110, 153.7285
344.5140, 90.77734
345.7170, 132.7871
346.9200, 97.59961
348.1220, 201.9795
349.3240, 124.1992
350.5270, 145.9766
351.7290, 81.49316
352.9310, 19.68164
354.1320, 41.47461
355.3340, 0.1718750
356.5350, 80.39648
357.7370, 115.5332
358.9380, 112.5254
360.1390, 197.4248
361.3400, 93.00977
362.5400, 164.7695
363.7410, 74.67090
364.9410, 70.53516
366.1410, 233.1426
367.3410, 295.1396
368.5410, 268.0801
369.7410, 616.7959
370.9400, 567.5586
372.1400, 519.4238
373.3390, 694.2900
374.5380, 867.6895
375.7370, 600.6172
376.9360, 636.2305
378.1350, 584.9414
379.3330, 534.5293
380.5310, 492.1211
381.7300, 390.8350
382.9280, 355.1113
384.1260, 273.7266
385.3230, 209.2578
386.5210, 258.1719
387.7180, 226.5840
388.9160, 147.9141
390.1130, 76.50586
391.3100, 198.0859
392.5060, 105.6914
393.7030, 233.9658
394.9000, 257.1396
396.0960, 114.2998
397.2920, 406.4453
398.4880, 212.5752
399.6840, 337.9131
400.8800, 335.3193
402.0750, 605.4004
403.2710, 639.4688
404.4660, 1099.751
405.6610, 2037.794
406.8560, 3682.922
408.0510, 4958.047
409.2450, 5254.228
410.4400, 6096.893
411.6340, 6023.529
412.8280, 6525.900
414.0220, 6340.143
415.2160, 6135.621
416.4100, 5961.607
417.6030, 5150.635
418.7970, 4491.707
419.9900, 3309.229
421.1830, 2315.307
422.3760, 1482.200
423.5690, 1194.072
424.7610, 792.9248
425.9540, 772.7939
427.1460, 763.6084
428.3380, 767.4033
429.5300, 714.1836
430.7220, 729.6973
431.9140, 607.3145
433.1050, 462.2812
434.2970, 134.8398
435.4880, 403.5410
436.6790, 207.2246
437.8700, 349.8906
439.0610, 340.5361
440.2510, 472.1611
441.4420, 606.7646
442.6320, 511.3457
443.8220, 607.3057
445.0120, 725.9336
446.2020, 511.2168
447.3910, 494.7891
448.5810, 570.2617
449.7700, 512.4541
450.9600, 449.5381
452.1490, 335.2520
453.3370, 238.1270
454.5260, 117.8926
455.7150, 8.561523
456.9030, 32.25000
458.0910, 37.44824
459.2800, 45.06445
460.4670, 13.72949
461.6550, 39.54199
462.8430, 258.4072
464.0300, 35.02148
465.2180, 93.87988
466.4050, 174.9404
467.5920, 65.51855
468.7790, 104.6436
469.9650, 83.90820
471.1520, 135.9756
472.3380, 11.87207
473.5250, 103.3799
474.7110, 35.77441
475.8970, 72.68457
477.0820, 198.2148
478.2680, 157.7363
479.4540, 88.56543
480.6390, 121.2725
481.8240, 79.92578
483.0090, 51.15723
484.1940, 148.4424
485.3780, 137.0410
486.5630, 148.9766
487.7470, 153.7939
488.9320, 192.4404
490.1160, 42.74219
491.3000, 79.83984
492.4830, 204.7529
493.6670, 88.13574
494.8500, 70.88770
496.0340, 1.419922
497.2170, 174.9629
498.4000, 41.59961
499.5820, 57.65625
500.7650, 166.8271
501.9480, 15.43945
503.1300, 1.022461
504.3120, 123.6230
505.4940, 54.48730
506.6760, 94.01465
507.8580, 153.5479
509.0390, 58.18555
510.2210, 69.10449
511.4020, 36.73730
512.5830, 106.1660
513.7640, 78.98047
514.9450, 75.76953
516.1250, 188.9316
517.3060, 56.03516
518.4860, 127.7402
519.6660, 93.97266
520.8460, 117.5723
522.0260, 164.6992
523.2060, 46.58789
524.3850, 247.7910
525.5650, 107.5039
526.7440, 124.7500
527.9230, 45.64062
529.1020, 162.7617
530.2810, 179.1934
531.4590, 113.9727
532.6380, 113.8594
533.8160, 104.2090
534.9940, 13.58008
536.1720, 369.3789
537.3500, 260.9648
538.5270, 219.0977
539.7050, 219.6758
540.8820, 150.8477
542.0590, 130.9961
543.2360, 245.1504
544.4130, 263.8730
545.5900, 151.8887
546.7660, 280.5723
547.9430, 183.4258
549.1190, 181.6270
550.2950, 165.7949
551.4710, 132.4297
552.6470, 4.343750
553.8220, 109.5156
554.9980, 151.6270
556.1730, 92.17383
557.3480, 205.9395
558.5230, 207.0137
559.6980, 193.3262
560.8730, 81.70703
562.0470, 183.9121
563.2220, 296.3164
564.3960, 354.9062
565.5700, 506.4688
566.7440, 614.2363
567.9170, 901.9238
569.0910, 1033.863
570.2640, 1009.387
571.4380, 1471.891
572.6110, 1376.291
573.7840, 1506.965
574.9570, 1508.746
576.1290, 1331.354
577.3020, 1145.545
578.4740, 808.4961
579.6460, 536.0547
580.8180, 598.2930
581.9900, 323.5020
583.1620, 304.6758
584.3330, 139.9062
585.5040, 6.980469
586.6760, 160.0840
587.8470, 218.1270
589.0180, 250.1387
590.1880, 60.12109
591.3590, 10.06445
592.5290, 45.97070
593.7000, 120.8516
594.8700, 102.6992
596.0400, 184.2910
597.2090, 156.0742
598.3790, 170.5977
599.5490, 171.8066
600.7180, 34.45703
601.8870, 70.40625
603.0560, 15.58398
604.2250, 28.12891
605.3940, 42.15625
606.5620, 9.593750
607.7300, 55.30469
608.8990, 171.9863
610.0670, 152.1738
611.2350, 202.2402
612.4020, 256.5117
613.5700, 84.14453
614.7370, 86.24023
615.9050, 64.13477
617.0720, 198.9082
618.2390, 57.20117
619.4060, 217.3770
620.5720, 272.2285
621.7390, 22.18164
622.9050, 102.9219
624.0710, 83.50391
625.2370, 304.4551
626.4030, 155.3262
627.5690, 166.2109
628.7340, 213.0840
629.9000, 44.03711
631.0650, 93.36523
632.2300, 130.8125
633.3950, 77.66211
634.5600, 194.7129
635.7240, 237.0918
636.8890, 137.8164
638.0530, 51.61133
639.2170, 276.8223
640.3810, 279.0703
641.5450, 126.7441
642.7080, 144.7227
643.8720, 82.25000
645.0350, 46.11328
646.1980, 69.91602
647.3610, 51.09570
648.5240, 76.58984
649.6870, 301.4453
650.8490, 178.4121
652.0120, 225.1660
653.1740, 373.0078
654.3360, 290.3477
655.4980, 145.2812
656.6600, 153.6348
657.8210, 268.8828
658.9830, 111.6582
660.1440, 22.90430
661.3050, 68.16992
662.4660, 176.4277
663.6270, 93.92578
664.7870, 206.2148
665.9480, 71.89258
667.1080, 113.9238
668.2680, 88.79688
669.4280, 281.4980
670.5880, 158.7109
671.7480, 58.77344
672.9070, 267.2305
674.0670, 12.21484
675.2260, 85.42773
676.3850, 169.0762
677.5440, 12.39648
678.7030, 159.3984
679.8610, 255.9883
681.0200, 297.3242
682.1780, 242.6484
683.3360, 100.0840
684.4940, 26.48242
685.6520, 96.87695
686.8090, 50.91992
687.9670, 1.830078
689.1240, 202.1719
690.2810, 84.54492
691.4380, 249.3945
692.5950, 180.0664
693.7520, 111.2578
694.9080, 75.55273
696.0650, 265.4824
697.2210, 111.9883
698.3770, 52.54102
699.5330, 149.0039
700.6880, 123.6172
701.8440, 69.88281
702.9990, 300.0625
704.1550, 301.3535
705.3100, 202.2480
706.4650, 216.7969
707.6190, 149.3086
708.7740, 15.78320
709.9290, 239.6543
711.0830, 301.5605
712.2370, 190.0117
713.3910, 64.97070
714.5450, 174.0703
715.6980, 54.86523
716.8520, 105.3184
718.0050, 191.4375
719.1580, 302.5195
720.3110, 272.8379
721.4640, 347.7031
722.6170, 241.5273
723.7700, 375.0723
724.9220, 400.7051
726.0740, 665.7168
727.2260, 638.6855
728.3780, 646.0156
729.5300, 700.3555
730.6810, 973.0605
731.8330, 983.6973
732.9840, 1139.752
734.1350, 1213.477
735.2860, 1652.053
736.4370, 1650.264
737.5880, 2031.320
738.7380, 2338.545
739.8880, 2618.166
741.0390, 2983.811
742.1890, 3685.967
743.3380, 3724.152
744.4880, 4156.438
745.6380, 4321.281
746.7870, 4520.826
747.9360, 4452.867
749.0850, 4090.381
750.2340, 3906.770
751.3830, 3736.619
752.5310, 3163.371
753.6800, 2813.660
754.8280, 2540.752
755.9760, 2147.361
757.1240, 1794.963
758.2720, 1696.070
759.4190, 1515.205
760.5670, 1081.650
761.7140, 1051.537
762.8610, 965.3438
764.0080, 940.8203
765.1550, 864.7773
766.3020, 632.6836
767.4480, 568.4023
768.5950, 789.1680
769.7410, 448.0488
770.8870, 743.1621
772.0330, 518.1543
773.1780, 377.2480
774.3240, 495.4922
775.4690, 572.9004
776.6140, 611.3555
777.7590, 621.8926
778.9040, 594.2012
780.0490, 501.9121
781.1940, 499.6094
782.3380, 473.5312
783.4820, 446.7168
784.6260, 426.5254
785.7700, 436.7129
786.9140, 338.5527
788.0580, 342.5625
789.2010, 171.2559
790.3450, 137.4062
791.4880, 227.2363
792.6310, 339.6816
793.7730, 371.8594
794.9160, 202.3633
796.0590, 140.0938
797.2010, 224.0000
798.3430, 321.2500
799.4850, 173.7070
800.6270, 368.8613
801.7690, 257.6621
802.9100, 404.9727
804.0520, 198.8984
805.1930, 190.8965
806.3340, 324.3184
807.4750, 189.6328
808.6160, 151.5293
809.7560, 286.8672
810.8970, 146.0566
812.0370, 159.2207
813.1770, 322.5293
814.3170, 138.1016
815.4570, 204.0586
816.5960, 294.1953
817.7360, 54.12500
818.8750, 268.0156
820.0140, 372.2031
821.1530, 465.7812
822.2920, 244.5215
823.4310, 134.8496
824.5690, 135.0273
825.7070, 258.1055
826.8460, 225.6484
827.9840, 330.4766
829.1220, 172.9570
830.2590, 329.1055
831.3970, 279.8145
832.5340, 181.8945
833.6710, 144.6562
834.8080, 105.9258
835.9450, 99.15625
837.0820, 180.8438
838.2190, 118.0312
839.3550, 168.6973
840.4910, 135.0938
841.6270, 222.2227
842.7630, 459.3906
843.8990, 494.8359
845.0350, 434.2305
846.1700, 191.0254
847.3060, 174.0898
848.4410, 274.8789
849.5760, 129.4766
850.7100, 101.3262
851.8450, 174.8906
852.9800, 198.6426
854.1140, 373.5586
855.2480, 363.4629
856.3820, 290.7598
857.5160, 265.5879
858.6500, 91.55469
859.7830, 361.8301
860.9170, 97.15039
862.0500, 4.435547
863.1830, 241.9805
864.3160, 166.1738
865.4480, 216.5547
866.5810, 21.61719
867.7130, 114.6855
868.8460, 79.78125
869.9780, 131.7598
871.1100, 239.6973
872.2410, 365.5938
873.3730, 102.4531
874.5050, 306.2656
875.6360, 58.05664
876.7670, 81.80078
877.8980, 112.6230
879.0290, 134.7402
880.1590, 29.63867
881.2900, 165.9102
882.4200, 65.94922
883.5500, 285.4844
884.6800, 143.8887
885.8100, 55.60352
886.9400, 45.27734
888.0690, 22.74219
889.1990, 95.99609
890.3280, 112.0488
891.4570, 114.4863
892.5860, 204.9395
893.7140, 234.3145
894.8430, 241.3320
895.9710, 165.2539
897.1000, 144.0938
898.2280, 135.0059
899.3560, 124.6777
900.4830, 152.3555
901.6110, 166.0176
902.7380, 247.6328
903.8660, 302.2910
904.9930, 70.14648
906.1200, 4.357422
907.2460, 248.0820
908.3730, 64.09180
909.5000, 101.5762
910.6260, 90.15625
911.7520, 86.00977
912.8780, 152.1328
914.0040, 23.21094
915.1290, 199.2402
916.2550, 81.23047
917.3800, 164.1738
918.5050, 84.29297
919.6300, 231.5742
920.7550, 79.20117
921.8800, 177.9824
923.0040, 449.0684
924.1290, 132.2090
925.2530, 57.17773
926.3770, 20.13086
927.5010, 150.9922
928.6250, 108.7070
929.7480, 28.10547
930.8720, 308.5117
931.9950, 107.0977
933.1180, 157.9883
934.2410, 205.2129
935.3640, 79.07617
936.4860, 70.54883
937.6090, 326.9082
938.7310, 10.99414
939.8530, 338.0234
940.9750, 114.5859
942.0970, 388.5781
943.2180, 316.0527
944.3400, 71.32812
945.4610, 7.873047
946.5820, 27.27539
947.7030, 74.67578
948.8240, 85.76172
949.9450, 287.7383
951.0650, 156.0020
952.1860, 490.5566
953.3060, 283.0645
954.4260, 193.4258
955.5460, 186.2773
956.6650, 60.72461
957.7850, 221.6113
958.9040, 1.253906
960.0230, 122.0918
961.1420, 241.8086
962.2610, 393.7461
963.3800, 320.2871
964.4990, 318.7754
965.6170, 145.1250
966.7350, 174.2363
967.8530, 182.2480
968.9710, 207.6348
970.0890, 185.4727
971.2070, 195.3477
972.3240, 141.8398
973.4410, 201.8672
974.5580, 205.0488
975.6750, 19.04297
976.7920, 264.4219
977.9090, 472.8301
979.0250, 254.9570
980.1410, 83.83203
981.2580, 204.0234
982.3740, 364.1016
983.4890, 244.9375
984.6050, 148.1406
985.7200, 213.8301
986.8360, 307.7871
987.9510, 364.8066
989.0660, 117.1855
990.1810, 83.51953
991.2950, 185.1621
992.4100, 142.5938
993.5240, 458.4883
994.6390, 379.9941
995.7530, 352.3633
996.8660, 200.2031
997.9800, 544.7109
999.0940, 219.9180
1000.207, 46.72656
1001.320, 330.2734
1002.433, 257.7480
1003.546, 366.0078
1004.659, 377.6973
1005.772, 365.2695
1006.884, 382.9980
1007.996, 324.7480
1009.108, 314.2324
1010.220, 333.3789
1011.332, 246.3438
1012.444, 84.26367
1013.555, 384.8926
1014.666, 341.0957
1015.777, 121.9648
1016.888, 346.9473
1017.999, 304.0547
1019.110, 232.7168
1020.220, 252.3926
1021.331, 184.9102
1022.441, 119.4668
1023.551, 165.4824
1024.661, 37.96875
1025.770, 154.6641
1026.880, 163.4102
1027.989, 229.1348
1029.098, 323.8477
1030.207, 296.2070
1031.316, 174.4414
1032.425, 292.6758
1033.533, 102.7539
1034.642, 279.3477
1035.750, 384.8398
1036.858, 239.1660
1037.966, 183.0137
1039.073, 366.1875
1040.181, 363.4336
1041.288, 155.4492
1042.396, 167.9453
1043.503, 307.6094
1044.610, 343.4648
1045.716, 368.7324
1046.823, 264.6699
1047.929, 399.5059
1049.036, 382.0391
1050.142, 392.4609
1051.248, 192.7090
1052.353, 144.0605
1053.459, 52.22266
1054.564, 257.9395
1055.670, 10.71680
1056.775, 338.7480
1057.880, 377.5195
1058.985, 175.3770
1060.089, 402.5469
1061.194, 173.9805
1062.298, 346.5879
1063.402, 114.0312
1064.506, 404.5234
1065.610, 330.9102
1066.713, 319.3691
1067.817, 186.0195
1068.920, 165.8516
1070.023, 129.0117
1071.126, 1.031250
1072.229, 127.4102
1073.332, 249.8242
1074.435, 355.0508
1075.537, 256.3320
1076.639, 256.4766
1077.741, 389.2773
1078.843, 446.6523
1079.945, 179.9141
1081.046, 151.3398
1082.148, 261.7148
1083.249, 227.5742
1084.350, 280.3789
1085.451, 335.5625
1086.551, 251.1836
1087.652, 150.1758
1088.752, 337.0195
1089.853, 59.68359
1090.953, 282.9844
1092.053, 179.6016
1093.152, 83.73047
1094.252, 227.8008
1095.351, 156.4766
1096.451, 105.8398
1097.550, 102.6211
1098.649, 216.7891
1099.748, 14.91797
1100.846, 328.0625
1101.945, 346.2852
1103.043, 169.8242
1104.141, 235.0273
1105.239, 33.96875
1106.337, 38.23438
1107.434, 39.99219
1108.532, 23.30078
1109.629, 79.60547
1110.726, 138.4180
1111.823, 188.8633
1112.920, 288.4961
1114.017, 286.4023
1115.113, 147.5820
1116.210, 145.2422
1117.306, 248.8672
1118.402, 322.8555
1119.498, 333.2461
1120.593, 464.4258
1121.689, 277.4062
1122.784, 153.3047
1123.879, 168.7227
1124.974, 112.5859
1126.069, 159.4297
1127.164, 226.2344
1128.259, 190.2656
1129.353, 79.69141
1130.447, 73.49609
1131.541, 209.7695
1132.635, 54.86719
1133.729, 168.1914
1134.822, 174.7148
1135.916, 116.1133
1137.009, 246.6016
1138.102, 108.4688
1139.195, 185.0508
1140.288, 56.83984
1141.380, 126.4766
1142.473, 184.7734
1143.565, 103.9102
1144.657, 150.5117
1145.749, 120.9570
1146.841, 273.7383
1147.932, 38.33984
1149.024, 23.39453
1150.115, 342.9414
1151.206, 60.36719
1152.297, 56.20703
1153.388, 22.91797
1154.479, 72.84766
1155.569, 206.1562
1156.659, 148.3359
1157.750, 217.1328
1158.839, 397.9219
1159.929, 357.5664
1161.019, 373.7852
1162.108, 372.4336
1163.198, 225.4531
1164.287, 306.9961
1165.376, 140.2227
1166.465, 170.4375
1167.553, 42.98047
1168.642, 198.5312
1169.730, 124.2656
1170.818, 72.18359
1171.906, 85.02344
1172.994, 58.68750
1174.082, 245.9492
1175.170, 45.40625
1176.257, 185.9180
1177.344, 132.8242
1178.431, 110.2383
1179.518, 118.9922
1180.605, 398.4023
1181.691, 137.2539
1182.778, 24.15625
1183.864, 208.3320
1184.950, 9.472656
1186.036, 94.99609
1187.122, 75.28125
1188.207, 91.70703
1189.292, 0.6914060
1190.378, 102.6055
1191.463, 5.210938
1192.548, 151.8242
1193.632, 102.6133
1194.717, 107.2305
1195.801, 180.5664
1196.886, 206.4570
1197.970, 3.871094
1199.054, 264.1562
1200.137, 181.4102
1201.221, 163.1641
1202.305, 380.9531
1203.388, 16.05469
1204.471, 165.3477
1205.554, 77.71094
1206.637, 103.0352
1207.719, 200.3203
1208.802, 447.5664
1209.884, 280.0664
1210.966, 320.0234
1212.048, 46.42969
1213.130, 125.5586
1214.212, 239.4414
1215.293, 387.4844
1216.374, 156.4922
1217.456, 211.4648
1218.536, 1.414063
1219.617, 140.2969
1220.698, 140.3945
1221.778, 300.1953
1222.859, 66.72266
1223.939, 192.8047
1225.019, 352.4531
1226.099, 190.7734
1227.178, 384.8320
1228.258, 344.1641
1229.337, 30.61719
1230.417, 10.32031
1231.496, 63.12109
1232.574, 196.5195
1233.653, 299.5938
1234.732, 298.9023
1235.810, 350.5625
1236.888, 130.1719
1237.966, 257.5508
1239.044, 387.3047
1240.122, 165.7773
1241.199, 221.4492
1242.277, 236.4023
1243.354, 360.4141
1244.431, 373.3906
1245.508, 130.6836
1246.585, 273.0781
1247.661, 244.9336
1248.738, 205.8242
1249.814, 248.6758
1250.890, 128.8984
1251.966, 105.9570
1253.042, 77.27344
1254.117, 158.9844
1255.193, 50.34375
1256.268, 395.5547
1257.343, 229.0391
1258.418, 293.2148
1259.493, 42.96484
1260.567, 92.04297
1261.642, 193.2109
1262.716, 118.6836
1263.790, 287.5859
1264.864, 85.61719
1265.938, 294.2148
1267.011, 195.2969
1268.085, 257.5000
1269.158, 122.1523
1270.231, 404.9609
1271.304, 53.99219
1272.377, 330.2852
1273.450, 94.52734
1274.522, 14.96484
1275.594, 49.70703
1276.666, 198.2109
1277.738, 95.67188
1278.810, 227.4375
1279.882, 168.8008
1280.953, 190.0273
1282.025, 180.8164
1283.096, 158.7852
1284.167, 106.2773
1285.238, 241.0938
1286.308, 202.1016
1287.379, 211.8125
1288.449, 349.5195
1289.519, 138.8320
1290.589, 209.9297
1291.659, 390.9883
1292.729, 93.38281
1293.798, 25.43750
1294.868, 155.9961
