##NAMES=Corundum
##RRUFFID=R060020
##IDEAL CHEMISTRY=Al_2_O_3_
##LOCALITY=Yogo Gulch, Montana, USA
##OWNER=RRUFF
##SOURCE=American Museum of Natural History
##DESCRIPTION=Water rounded light blue fragment
##STATUS=The identification of this mineral has been confirmed by X-ray diffraction and chemical analysis
##URL=rruff.info/R060020
##MEASURED CHEMISTRY=(Al_1.99_Fe^3+^_0.01_)_Î£=2_O_3_ ; Fe^3+^ by charge balance
##PIN_ID=L01955
##ORIENTATION=Laser parallel to c* (0 0 1). Fiducial mark perpendicular to laser is parallel to b [0 1 0]
179.5050, 148.4775
180.7290, 222.4570
181.9520, 283.4131
183.1760, 177.3535
184.3990, 281.5908
185.6220, 149.3232
186.8450, 224.0557
188.0670, 217.7930
189.2900, 232.5352
190.5120, 432.2852
191.7340, 330.0410
192.9560, 735.8027
194.1780, 938.5703
195.4000, 1086.343
196.6220, 994.1162
197.8430, 768.9893
199.0640, 480.2246
200.2860, 459.3330
201.5070, 463.1572
202.7270, 461.3223
203.9480, 467.1338
205.1690, 355.0049
206.3890, 124.9648
207.6090, 198.0439
208.8290, 37.55176
210.0490, 70.16602
211.2690, 1.123047
212.4890, 96.45898
213.7080, 77.83594
214.9280, 97.89551
216.1470, 44.88672
217.3660, 2.691406
218.5850, 82.78125
219.8030, 40.44727
221.0220, 87.63379
222.2400, 55.18359
223.4590, 44.63086
224.6770, 22.60156
225.8950, 55.93066
227.1120, 108.3623
228.3300, 4.262695
229.5480, 120.2197
230.7650, 85.93262
231.9820, 128.6094
233.1990, 24.53516
234.4160, 16.77148
235.6330, 133.8135
236.8490, 61.65137
238.0660, 164.7939
239.2820, 136.2080
240.4980, 56.59473
241.7140, 4.055664
242.9300, 37.76367
244.1460, 51.50000
245.3610, 106.2773
246.5770, 6.138672
247.7920, 111.5420
249.0070, 106.1357
250.2220, 4.295898
251.4370, 21.97559
252.6510, 7.315430
253.8660, 34.21289
255.0800, 8.041016
256.2940, 44.88184
257.5080, 53.39844
258.7220, 49.85840
259.9360, 253.4736
261.1490, 483.2227
262.3630, 164.0869
263.5760, 33.05371
264.7890, 81.89355
266.0020, 8.211914
267.2150, 53.61914
268.4270, 166.5908
269.6400, 71.84863
270.8520, 138.1475
272.0640, 198.4834
273.2760, 174.8496
274.4880, 164.2422
275.7000, 141.6543
276.9120, 217.0801
278.1230, 149.5234
279.3340, 317.9756
280.5450, 307.4326
281.7560, 335.8828
282.9670, 184.3252
284.1780, 217.7568
285.3880, 113.1738
286.5980, 245.5742
287.8090, 224.9580
289.0190, 235.9424
290.2290, 227.5869
291.4380, 224.9893
292.6480, 151.2900
293.8570, 37.57129
295.0670, 27.82812
296.2760, 63.06152
297.4850, 37.27148
298.6930, 44.45508
299.9020, 50.63281
301.1110, 25.76172
302.3190, 20.85938
303.5270, 193.9072
304.7350, 67.07324
305.9430, 154.1182
307.1510, 4.249023
308.3580, 8.551758
309.5660, 11.52930
310.7730, 6.773438
311.9800, 55.35840
313.1870, 29.75195
314.3940, 20.63477
315.6010, 155.5312
316.8070, 70.24023
318.0130, 95.06543
319.2200, 140.0527
320.4260, 200.3857
321.6310, 145.8984
322.8370, 13.67871
324.0430, 43.56934
325.2480, 248.6279
326.4540, 43.21484
327.6590, 63.02832
328.8640, 35.61426
330.0680, 223.5215
331.2730, 6.421875
332.4780, 40.57129
333.6820, 48.99219
334.8860, 32.05566
336.0900, 25.58301
337.2940, 14.83789
338.4980, 66.44043
339.7010, 2.784180
340.9050, 17.08008
342.1080, 59.33789
343.3110, 38.44727
344.5140, 115.7061
345.7170, 9.824219
346.9200, 2.109375
348.1220, 77.10156
349.3240, 193.7256
350.5270, 111.4902
351.7290, 54.19922
352.9310, 337.8389
354.1320, 38.43945
355.3340, 109.9971
356.5350, 122.4131
357.7370, 292.7959
358.9380, 248.4268
360.1390, 391.6816
361.3400, 217.8770
362.5400, 153.8848
363.7410, 235.9307
364.9410, 439.9053
366.1410, 203.8262
367.3410, 490.6982
368.5410, 467.7588
369.7410, 557.5049
370.9400, 574.7471
372.1400, 708.2734
373.3390, 953.8672
374.5380, 1032.441
375.7370, 1291.992
376.9360, 1256.520
378.1350, 1377.832
379.3330, 1376.733
380.5310, 1474.189
381.7300, 1458.772
382.9280, 1474.183
384.1260, 1599.570
385.3230, 1545.936
386.5210, 1669.982
387.7180, 1804.567
388.9160, 1886.455
390.1130, 1961.416
391.3100, 2110.291
392.5060, 2359.536
393.7030, 2424.769
394.9000, 2440.973
396.0960, 2506.123
397.2920, 2292.880
398.4880, 2194.036
399.6840, 2048.167
400.8800, 1839.064
402.0750, 1629.145
403.2710, 1563.199
404.4660, 1507.227
405.6610, 1375.233
406.8560, 1542.212
408.0510, 1542.162
409.2450, 1866.581
410.4400, 1884.447
411.6340, 2164.594
412.8280, 2633.837
414.0220, 3116.388
415.2160, 3776.957
416.4100, 3637.620
417.6030, 3466.077
418.7970, 3001.721
419.9900, 2326.735
421.1830, 1672.363
422.3760, 1325.736
423.5690, 923.5234
424.7610, 802.3047
425.9540, 715.3623
427.1460, 742.0195
428.3380, 549.6455
429.5300, 578.3047
430.7220, 663.8857
431.9140, 594.4092
433.1050, 301.8975
434.2970, 425.3506
435.4880, 401.7695
436.6790, 276.1533
437.8700, 419.4385
439.0610, 307.4443
440.2510, 389.7236
441.4420, 273.8457
442.6320, 262.7949
443.8220, 289.0762
445.0120, 361.2402
446.2020, 529.0771
447.3910, 459.0625
448.5810, 556.0938
449.7700, 380.3770
450.9600, 327.7100
452.1490, 194.9248
453.3370, 114.0879
454.5260, 326.5107
455.7150, 171.7686
456.9030, 157.9834
458.0910, 21.07520
459.2800, 51.09570
460.4670, 131.1270
461.6550, 30.09277
462.8430, 162.1504
464.0300, 191.0762
465.2180, 147.6250
466.4050, 208.0391
467.5920, 164.0547
468.7790, 33.94922
469.9650, 128.2441
471.1520, 84.77930
472.3380, 113.3867
473.5250, 17.70117
474.7110, 160.9688
475.8970, 217.0195
477.0820, 108.7480
478.2680, 218.1836
479.4540, 235.9551
480.6390, 145.1016
481.8240, 211.0781
483.0090, 262.4219
484.1940, 192.4746
485.3780, 232.0508
486.5630, 334.6055
487.7470, 302.9102
488.9320, 211.6797
490.1160, 314.3262
491.3000, 342.2070
492.4830, 306.0723
493.6670, 437.4199
494.8500, 324.3750
496.0340, 361.1699
497.2170, 295.4727
498.4000, 301.0371
499.5820, 492.8906
500.7650, 385.5957
501.9480, 563.2871
503.1300, 738.9609
504.3120, 825.6113
505.4940, 824.9863
506.6760, 1040.594
507.8580, 1158.180
509.0390, 1374.678
510.2210, 1483.223
511.4020, 1567.756
512.5830, 1733.268
513.7640, 1802.770
514.9450, 1702.275
516.1250, 1716.762
517.3060, 1659.738
518.4860, 1625.674
519.6660, 1480.100
520.8460, 1340.506
522.0260, 1140.898
523.2060, 1095.268
524.3850, 1068.633
525.5650, 1055.977
526.7440, 965.3008
527.9230, 757.6035
529.1020, 792.8906
530.2810, 599.1660
531.4590, 636.4336
532.6380, 661.7031
533.8160, 641.9590
534.9940, 447.1934
536.1720, 563.4102
537.3500, 458.6074
538.5270, 400.7930
539.7050, 413.1758
540.8820, 325.5215
542.0590, 357.7070
543.2360, 264.2051
544.4130, 262.0742
545.5900, 245.3926
546.7660, 275.3730
547.9430, 200.8379
549.1190, 284.5410
550.2950, 252.9551
551.4710, 182.2812
552.6470, 94.17383
553.8220, 87.07422
554.9980, 11.83984
556.1730, 4.759766
557.3480, 5.998047
558.5230, 42.10156
559.6980, 5.875000
560.8730, 152.3379
562.0470, 21.00195
563.2220, 16.83008
564.3960, 2.812500
565.5700, 194.9551
566.7440, 121.3359
567.9170, 365.7969
569.0910, 248.4023
570.2640, 193.5703
571.4380, 204.1660
572.6110, 264.7402
573.7840, 396.2930
574.9570, 520.8223
576.1290, 389.3359
577.3020, 456.9570
578.4740, 358.6094
579.6460, 466.0566
580.8180, 452.5781
581.9900, 199.6230
583.1620, 20.65625
584.3330, 180.8047
585.5040, 35.04297
586.6760, 66.23633
587.8470, 7.945313
589.0180, 105.9551
590.1880, 148.1035
591.3590, 253.8047
592.5290, 157.2188
593.7000, 181.8398
594.8700, 34.62500
596.0400, 24.85547
597.2090, 211.7285
598.3790, 217.0059
599.5490, 140.2090
600.7180, 68.06445
601.8870, 119.5332
603.0560, 99.98242
604.2250, 192.8613
605.3940, 248.8379
606.5620, 265.6133
607.7300, 505.6602
608.8990, 380.5508
610.0670, 450.4395
611.2350, 721.1973
612.4020, 615.7676
613.5700, 729.5039
614.7370, 614.2891
615.9050, 660.2344
617.0720, 856.4238
618.2390, 938.1797
619.4060, 1092.371
620.5720, 1374.566
621.7390, 1470.641
622.9050, 1618.537
624.0710, 1802.900
625.2370, 1836.109
626.4030, 2016.283
627.5690, 2148.840
628.7340, 2241.014
629.9000, 2516.234
631.0650, 3000.641
632.2300, 3370.420
633.3950, 3524.660
634.5600, 3725.885
635.7240, 3827.115
636.8890, 3882.891
638.0530, 3915.131
639.2170, 3800.326
640.3810, 3715.516
641.5450, 3418.686
642.7080, 3328.840
643.8720, 3000.977
645.0350, 2762.094
646.1980, 2506.195
647.3610, 2260.285
648.5240, 2029.354
649.6870, 1687.408
650.8490, 1599.850
652.0120, 1257.877
653.1740, 1341.893
654.3360, 1053.885
655.4980, 1189.857
656.6600, 884.8398
657.8210, 809.7754
658.9830, 812.0176
660.1440, 760.9238
661.3050, 675.8164
662.4660, 608.6934
663.6270, 485.5488
664.7870, 492.3867
665.9480, 494.2051
667.1080, 320.0078
668.2680, 486.7910
669.4280, 246.5566
670.5880, 361.3027
671.7480, 476.2109
672.9070, 382.9219
674.0670, 453.6367
675.2260, 440.7500
676.3850, 262.4551
677.5440, 348.2910
678.7030, 176.9707
679.8610, 182.6211
681.0200, 216.2480
682.1780, 139.8574
683.3360, 81.44531
684.4940, 141.0117
685.6520, 18.23047
686.8090, 132.2734
687.9670, 71.18750
689.1240, 57.35742
690.2810, 158.0391
691.4380, 19.41602
692.5950, 49.00391
693.7520, 47.08984
694.9080, 6.998047
696.0650, 182.5430
697.2210, 53.28125
698.3770, 7.257813
699.5330, 148.1074
700.6880, 34.56836
701.8440, 24.42578
702.9990, 169.2773
704.1550, 114.8398
705.3100, 71.29492
706.4650, 46.59570
707.6190, 9.566406
708.7740, 107.1758
709.9290, 325.1699
711.0830, 320.7070
712.2370, 329.2422
713.3910, 303.9082
714.5450, 401.3965
715.6980, 208.8652
716.8520, 197.3047
718.0050, 273.7207
719.1580, 219.7988
720.3110, 90.16797
721.4640, 89.25195
722.6170, 50.76172
723.7700, 30.33594
724.9220, 148.4473
726.0740, 21.96484
727.2260, 56.86523
728.3780, 25.16797
729.5300, 140.0488
730.6810, 206.3594
731.8330, 95.22266
732.9840, 2.150391
734.1350, 244.1387
735.2860, 260.0410
736.4370, 135.8555
737.5880, 341.3574
738.7380, 471.4336
739.8880, 437.5508
741.0390, 904.4531
742.1890, 833.1309
743.3380, 745.0527
744.4880, 1066.695
745.6380, 1182.559
746.7870, 1173.365
747.9360, 1553.125
749.0850, 1469.918
750.2340, 1296.053
751.3830, 1350.688
752.5310, 1228.637
753.6800, 1119.279
754.8280, 1208.172
755.9760, 817.4336
757.1240, 900.7832
758.2720, 701.9844
759.4190, 855.5684
760.5670, 472.3652
761.7140, 644.0586
762.8610, 250.4199
764.0080, 453.9492
765.1550, 170.4219
766.3020, 501.9629
767.4480, 335.7754
768.5950, 228.7109
769.7410, 146.6953
770.8870, 418.9727
772.0330, 278.9258
773.1780, 420.9023
774.3240, 309.3945
775.4690, 134.4629
776.6140, 354.1777
777.7590, 400.5859
778.9040, 282.3750
780.0490, 344.8672
781.1940, 510.2832
782.3380, 282.5059
783.4820, 572.8379
784.6260, 537.0254
785.7700, 444.4707
786.9140, 458.9180
788.0580, 187.2188
789.2010, 344.4082
790.3450, 280.9355
791.4880, 436.6133
792.6310, 302.9863
793.7730, 277.2949
794.9160, 455.4766
796.0590, 207.7500
797.2010, 558.4551
798.3430, 291.7656
799.4850, 421.2402
800.6270, 444.9863
801.7690, 377.8398
802.9100, 485.9863
804.0520, 631.1504
805.1930, 506.0312
806.3340, 641.0762
807.4750, 343.6270
808.6160, 246.8672
809.7560, 463.0176
810.8970, 482.8184
812.0370, 201.1230
813.1770, 345.5332
814.3170, 264.6426
815.4570, 297.4883
816.5960, 335.2207
817.7360, 445.6562
818.8750, 389.9121
820.0140, 434.6641
821.1530, 491.6660
822.2920, 250.4980
823.4310, 547.2910
824.5690, 198.8672
825.7070, 574.5273
826.8460, 302.6484
827.9840, 402.5664
829.1220, 165.0137
830.2590, 446.0801
831.3970, 164.4531
832.5340, 348.3516
833.6710, 435.0020
834.8080, 132.6543
835.9450, 689.5117
837.0820, 356.9707
838.2190, 454.3105
839.3550, 153.9043
840.4910, 236.9062
841.6270, 149.9785
842.7630, 347.6602
843.8990, 190.9258
845.0350, 358.2559
846.1700, 155.7031
847.3060, 356.7852
848.4410, 386.7070
849.5760, 234.5957
850.7100, 407.0352
851.8450, 409.8418
852.9800, 364.4766
854.1140, 457.0352
855.2480, 108.7344
856.3820, 446.3164
857.5160, 86.68750
858.6500, 332.7715
859.7830, 126.7969
860.9170, 184.9082
862.0500, 303.9746
863.1830, 130.5117
864.3160, 140.1484
865.4480, 351.6074
866.5810, 226.5098
867.7130, 310.6465
868.8460, 112.2754
869.9780, 312.3164
871.1100, 115.5996
872.2410, 74.95312
873.3730, 144.4375
874.5050, 176.8828
875.6360, 92.04492
876.7670, 193.7520
877.8980, 224.8809
879.0290, 254.1914
880.1590, 88.42188
881.2900, 31.91016
882.4200, 39.88086
883.5500, 45.78320
884.6800, 33.31250
885.8100, 18.82031
886.9400, 59.00977
888.0690, 32.44141
889.1990, 49.24805
890.3280, 6.404297
891.4570, 153.9668
892.5860, 127.3711
893.7140, 156.4414
894.8430, 321.0625
895.9710, 11.62891
897.1000, 20.69141
898.2280, 92.41602
899.3560, 46.67773
900.4830, 53.57227
901.6110, 28.03516
902.7380, 156.1875
903.8660, 15.24023
904.9930, 0.5878910
906.1200, 311.1191
907.2460, 132.2676
908.3730, 33.90625
909.5000, 227.4395
910.6260, 81.74219
911.7520, 157.5469
912.8780, 11.16406
914.0040, 124.5527
915.1290, 187.9082
916.2550, 198.1895
917.3800, 236.3809
918.5050, 202.3379
919.6300, 6.798828
920.7550, 160.4297
921.8800, 151.4121
923.0040, 14.45508
924.1290, 197.2051
925.2530, 108.2168
926.3770, 421.1484
927.5010, 129.0977
928.6250, 136.3672
929.7480, 159.2363
930.8720, 129.4531
931.9950, 9.634766
933.1180, 104.2246
934.2410, 57.36719
935.3640, 222.6934
936.4860, 189.2617
937.6090, 110.6562
938.7310, 98.14062
939.8530, 157.5742
940.9750, 109.4473
942.0970, 219.1641
943.2180, 59.86719
944.3400, 72.48828
945.4610, 62.76758
946.5820, 39.60742
947.7030, 25.13477
948.8240, 49.54688
949.9450, 64.48633
951.0650, 166.0371
952.1860, 79.37891
953.3060, 221.2695
954.4260, 23.58594
955.5460, 126.7754
956.6650, 216.9102
957.7850, 86.77734
958.9040, 249.1387
960.0230, 156.6953
961.1420, 100.9434
962.2610, 162.0996
963.3800, 125.4512
964.4990, 202.0098
965.6170, 146.7832
966.7350, 207.5996
967.8530, 177.4180
968.9710, 193.1074
970.0890, 100.1348
971.2070, 230.4863
972.3240, 90.09375
973.4410, 130.6953
974.5580, 292.5469
975.6750, 403.1582
976.7920, 254.7969
977.9090, 362.5273
979.0250, 260.3145
980.1410, 407.9590
981.2580, 293.1953
982.3740, 428.2656
983.4890, 321.7188
984.6050, 181.1953
985.7200, 469.6211
986.8360, 630.6562
987.9510, 667.5566
989.0660, 505.6602
990.1810, 367.9434
991.2950, 236.7891
992.4100, 294.2383
993.5240, 260.6602
994.6390, 209.0781
995.7530, 353.4492
996.8660, 411.5293
997.9800, 437.4941
999.0940, 494.8516
1000.207, 487.5098
1001.320, 475.9336
1002.433, 460.3438
1003.546, 332.0195
1004.659, 298.3477
1005.772, 271.2461
1006.884, 123.0703
1007.996, 227.6914
1009.108, 46.83789
1010.220, 11.86133
1011.332, 272.7871
1012.444, 219.5273
1013.555, 228.8320
1014.666, 156.0254
1015.777, 30.98047
1016.888, 273.4395
1017.999, 111.6719
1019.110, 258.9336
1020.220, 256.6133
1021.331, 150.4551
1022.441, 145.4570
1023.551, 95.81641
1024.661, 87.12500
1025.770, 277.1250
1026.880, 107.5195
1027.989, 204.0332
1029.098, 208.1270
1030.207, 316.3730
1031.316, 147.2852
1032.425, 239.6562
1033.533, 322.0703
1034.642, 468.8691
1035.750, 390.5625
1036.858, 242.9355
1037.966, 256.3340
1039.073, 145.6934
1040.181, 154.5430
1041.288, 219.6367
1042.396, 403.8906
1043.503, 323.4355
1044.610, 280.6055
1045.716, 294.6270
1046.823, 176.7578
1047.929, 251.3555
1049.036, 258.7441
1050.142, 269.0625
1051.248, 345.6348
1052.353, 184.4414
1053.459, 130.0547
1054.564, 274.3945
1055.670, 227.1309
1056.775, 275.7305
1057.880, 98.81055
1058.985, 364.8555
1060.089, 220.8281
1061.194, 132.8418
1062.298, 210.9863
1063.402, 122.8535
1064.506, 106.2402
1065.610, 180.3164
1066.713, 100.3848
1067.817, 283.4023
1068.920, 214.6016
1070.023, 245.3438
1071.126, 212.1367
1072.229, 211.3242
1073.332, 368.5781
1074.435, 140.4727
1075.537, 102.9023
1076.639, 364.9922
1077.741, 626.2578
1078.843, 688.8242
1079.945, 25.93359
1081.046, 265.1445
1082.148, 155.8047
1083.249, 29.44141
1084.350, 464.4531
1085.451, 135.1328
1086.551, 291.0664
1087.652, 306.8789
1088.752, 511.1094
1089.853, 309.4375
1090.953, 232.3711
1092.053, 561.8125
1093.152, 665.9609
1094.252, 417.1055
1095.351, 632.3164
1096.451, 218.2812
1097.550, 349.9414
1098.649, 159.7578
1099.748, 279.3672
1100.846, 319.8086
1101.945, 361.5898
1103.043, 133.4805
1104.141, 409.4688
1105.239, 60.41016
1106.337, 108.4141
1107.434, 237.0469
1108.532, 7.429688
1109.629, 104.7031
1110.726, 17.65234
1111.823, 234.6211
1112.920, 205.3828
1114.017, 109.7031
1115.113, 247.0352
1116.210, 192.3750
1117.306, 229.8750
1118.402, 315.1172
1119.498, 29.31641
1120.593, 272.8203
1121.689, 32.09375
1122.784, 477.1133
1123.879, 206.7031
1124.974, 353.2305
1126.069, 499.0000
1127.164, 290.7383
1128.259, 199.8633
1129.353, 454.5078
1130.447, 266.5703
1131.541, 181.6289
1132.635, 391.5391
1133.729, 359.2148
1134.822, 466.5039
1135.916, 347.8594
1137.009, 445.0391
1138.102, 136.3125
1139.195, 546.9688
1140.288, 209.1523
1141.380, 377.9453
1142.473, 533.5039
1143.565, 429.5391
1144.657, 224.4336
1145.749, 337.7188
1146.841, 368.3242
1147.932, 237.0234
1149.024, 286.0352
1150.115, 253.1523
1151.206, 293.7969
1152.297, 371.5156
1153.388, 241.8438
1154.479, 394.9141
1155.569, 281.5039
1156.659, 266.9609
1157.750, 195.3008
1158.839, 182.0820
1159.929, 173.2422
1161.019, 66.73047
1162.108, 153.8008
1163.198, 103.4258
1164.287, 274.6836
1165.376, 178.0898
1166.465, 211.4727
1167.553, 386.8086
1168.642, 104.8320
1169.730, 322.8789
1170.818, 428.4297
1171.906, 699.6836
1172.994, 291.4531
1174.082, 45.60547
1175.170, 291.6953
1176.257, 351.6367
1177.344, 140.5664
1178.431, 157.1836
1179.518, 258.8398
1180.605, 274.4844
1181.691, 240.1797
1182.778, 138.9609
1183.864, 200.1445
1184.950, 184.7344
1186.036, 308.2031
1187.122, 466.5938
1188.207, 249.0078
1189.292, 155.6211
1190.378, 519.0859
1191.463, 161.1133
1192.548, 124.7266
1193.632, 366.6562
1194.717, 419.1328
1195.801, 223.4961
1196.886, 300.1406
1197.970, 253.1133
1199.054, 124.3906
1200.137, 188.2539
1201.221, 324.9766
1202.305, 206.5195
1203.388, 29.01562
1204.471, 265.3906
1205.554, 343.4922
1206.637, 206.4336
1207.719, 360.3438
1208.802, 120.0586
1209.884, 98.74219
1210.966, 245.5859
1212.048, 157.0273
1213.130, 272.9688
1214.212, 295.3398
1215.293, 490.8359
1216.374, 263.6992
1217.456, 446.0469
1218.536, 162.6211
1219.617, 367.9609
1220.698, 456.2617
1221.778, 296.2109
1222.859, 415.7266
1223.939, 298.6250
1225.019, 351.7773
1226.099, 257.8945
1227.178, 112.5820
1228.258, 247.6055
1229.337, 376.9609
1230.417, 621.7812
1231.496, 270.6914
1232.574, 140.5586
1233.653, 235.6445
1234.732, 335.5977
1235.810, 479.6992
1236.888, 505.5625
1237.966, 152.9219
1239.044, 165.3594
1240.122, 97.07422
1241.199, 407.4023
1242.277, 279.8672
1243.354, 670.6016
1244.431, 122.3281
1245.508, 451.4805
1246.585, 157.3594
1247.661, 368.4883
1248.738, 261.7930
1249.814, 363.3555
1250.890, 396.4180
1251.966, 300.5273
1253.042, 533.6719
1254.117, 170.6992
1255.193, 68.76562
1256.268, 254.7852
1257.343, 270.8594
1258.418, 136.8828
1259.493, 264.7773
1260.567, 22.78516
1261.642, 49.45312
1262.716, 88.52734
1263.790, 170.8555
1264.864, 147.0352
1265.938, 151.0078
1267.011, 91.99219
1268.085, 80.37500
1269.158, 54.92188
1270.231, 7.910156
1271.304, 94.28906
1272.377, 16.36328
1273.450, 209.4375
1274.522, 199.8398
1275.594, 194.4766
1276.666, 75.45312
1277.738, 64.17578
1278.810, 104.1836
1279.882, 435.7266
1280.953, 85.06641
1282.025, 112.3242
1283.096, 119.6016
1284.167, 201.3320
1285.238, 184.8164
1286.308, 89.27734
1287.379, 378.9453
1288.449, 506.9883
1289.519, 272.6055
1290.589, 233.0781
1291.659, 149.5586
1292.729, 322.8047
1293.798, 716.0859
1294.868, 689.4375
1295.937, 572.9922
1297.006, 590.4258
1298.075, 432.1133
1299.143, 644.0234
1300.212, 186.4492
1301.280, 686.3320
1302.348, 390.0312
1303.416, 571.8594
1304.484, 348.5664
1305.552, 551.2930
1306.620, 302.0977
1307.687, 453.9375
1308.754, 556.1680
1309.821, 340.4258
1310.888, 358.5000
1311.955, 359.1172
1313.021, 191.9531
1314.088, 434.6836
1315.154, 313.8945
1316.220, 350.2695
1317.286, 377.1523
1318.352, 383.6133
1319.417, 525.8711
1320.483, 434.2812
1321.548, 342.5000
1322.613, 436.6523
1323.678, 471.7539
1324.743, 424.2734
1325.807, 533.0859
1326.872, 420.6680
1327.936, 298.6875
1329.000, 542.9375
1330.064, 410.7383
1331.128, 505.0117
1332.191, 231.3906
1333.255, 379.8516
1334.318, 622.6133
1335.381, 312.8359
1336.444, 361.6367
1337.507, 517.4375
1338.569, 511.1172
1339.632, 610.4023
1340.694, 641.0391
1341.756, 688.2148
1342.818, 676.6289
1343.880, 583.6562
1344.941, 577.9570
1346.003, 300.6211
1347.064, 536.6523
1348.125, 427.5312
1349.186, 607.0430
