##NAMES=Covellite
##RRUFFID=R060143
##IDEAL CHEMISTRY=Cu^1+^S
##LOCALITY=Butte, Montana, USA
##OWNER=RRUFF
##SOURCE=Marcus Origlieri
##DESCRIPTION=Irridescent blue to purple hexagonal plates
##STATUS=The identification of this mineral has been confirmed by X-ray diffraction and chemical analysis
##URL=rruff.info/R060143
##MEASURED CHEMISTRY=Cu_1.00_S_1.00_
##PIN_ID=L00879
##ORIENTATION=Laser parallel to c* (0 0 1). Fiducial mark perpendicular to laser is parallel to b [0 1 0]
164.8110, 0.0000000E+00
166.0360, 262.4307
167.2610, 71.91016
168.4860, 4.015625
169.7110, 351.0410
170.9360, 549.9658
172.1610, 530.2041
173.3850, 163.3457
174.6100, 264.9971
175.8340, 194.8867
177.0580, 200.4492
178.2820, 346.2490
179.5050, 283.5498
180.7290, 529.7793
181.9520, 146.6094
183.1760, 347.0879
184.3990, 467.5889
185.6220, 694.1221
186.8450, 672.9014
188.0670, 894.9717
189.2900, 841.0801
190.5120, 860.6689
191.7340, 1150.186
192.9560, 1376.908
194.1780, 1317.417
195.4000, 1440.152
196.6220, 1518.809
197.8430, 1533.719
199.0640, 1522.554
200.2860, 1803.730
201.5070, 2132.407
202.7270, 1790.360
203.9480, 1330.776
205.1690, 918.9248
206.3890, 379.2754
207.6090, 159.8242
208.8290, 233.5674
210.0490, 160.4932
211.2690, 231.5918
212.4890, 279.8564
213.7080, 208.4941
214.9280, 259.8311
216.1470, 99.51562
217.3660, 43.30859
218.5850, 31.80371
219.8030, 12.17188
221.0220, 39.74805
222.2400, 108.4346
223.4590, 125.7051
224.6770, 146.9346
225.8950, 93.48145
227.1120, 9.934570
228.3300, 31.29102
229.5480, 95.45020
230.7650, 58.29102
231.9820, 210.7666
233.1990, 18.28027
234.4160, 56.57031
235.6330, 55.68750
236.8490, 82.05273
238.0660, 7.412109
239.2820, 213.4072
240.4980, 221.4150
241.7140, 182.6309
242.9300, 186.0225
244.1460, 356.5684
245.3610, 390.2617
246.5770, 350.0781
247.7920, 376.0029
249.0070, 363.0312
250.2220, 754.1523
251.4370, 857.3516
252.6510, 775.6133
253.8660, 1136.920
255.0800, 1201.265
256.2940, 1534.637
257.5080, 2607.037
258.7220, 2441.915
259.9360, 2479.456
261.1490, 2683.273
262.3630, 2007.680
263.5760, 1999.092
264.7890, 2084.440
266.0020, 1925.688
267.2150, 1741.916
268.4270, 1574.974
269.6400, 1511.954
270.8520, 1463.942
272.0640, 1339.801
273.2760, 1304.729
274.4880, 1226.133
275.7000, 1193.498
276.9120, 1078.992
278.1230, 1022.082
279.3340, 909.2578
280.5450, 980.5156
281.7560, 959.8555
282.9670, 1098.279
284.1780, 1002.786
285.3880, 1050.377
286.5980, 1052.053
287.8090, 1092.812
289.0190, 1282.656
290.2290, 1094.586
291.4380, 1447.602
292.6480, 1035.703
293.8570, 1279.893
295.0670, 1316.169
296.2760, 1332.532
297.4850, 1374.984
298.6930, 1272.524
299.9020, 1225.153
301.1110, 1156.870
302.3190, 1155.436
303.5270, 1163.711
304.7350, 1190.555
305.9430, 1213.627
307.1510, 1242.790
308.3580, 1221.041
309.5660, 1183.379
310.7730, 1128.645
311.9800, 963.5312
313.1870, 950.8193
314.3940, 962.4199
315.6010, 867.0547
316.8070, 959.4258
318.0130, 883.6172
319.2200, 1013.101
320.4260, 1151.793
321.6310, 1214.988
322.8370, 1289.003
324.0430, 1546.326
325.2480, 1667.252
326.4540, 1931.221
327.6590, 2160.954
328.8640, 2102.391
330.0680, 2335.877
331.2730, 2381.223
332.4780, 2371.353
333.6820, 2510.308
334.8860, 2781.144
336.0900, 3092.854
337.2940, 3041.276
338.4980, 3337.424
339.7010, 3271.509
340.9050, 3306.146
342.1080, 3025.626
343.3110, 2586.094
344.5140, 2419.290
345.7170, 2216.422
346.9200, 2068.563
348.1220, 1923.759
349.3240, 1810.025
350.5270, 1663.364
351.7290, 1700.813
352.9310, 1661.574
354.1320, 1531.375
355.3340, 1346.575
356.5350, 1253.673
357.7370, 979.2891
358.9380, 973.5000
360.1390, 878.2529
361.3400, 824.5869
362.5400, 844.7988
363.7410, 728.7939
364.9410, 705.5068
366.1410, 559.2979
367.3410, 542.7002
368.5410, 445.3975
369.7410, 228.2559
370.9400, 446.7930
372.1400, 395.8916
373.3390, 671.9668
374.5380, 879.1162
375.7370, 797.0908
376.9360, 454.8311
378.1350, 272.6484
379.3330, 365.6699
380.5310, 273.1650
381.7300, 199.0117
382.9280, 78.91016
384.1260, 26.53906
385.3230, 181.2949
386.5210, 104.9961
387.7180, 72.81836
388.9160, 171.1133
390.1130, 92.21680
391.3100, 227.8711
392.5060, 154.3281
393.7030, 25.86133
394.9000, 119.4551
396.0960, 144.1016
397.2920, 330.8223
398.4880, 370.5957
399.6840, 511.4199
400.8800, 784.2969
402.0750, 1075.227
403.2710, 1276.209
404.4660, 1723.244
405.6610, 2529.350
406.8560, 3580.506
408.0510, 5027.748
409.2450, 6669.055
410.4400, 9455.480
411.6340, 12141.96
412.8280, 11179.50
414.0220, 7662.111
415.2160, 4278.781
416.4100, 2879.562
417.6030, 1869.404
418.7970, 1327.303
419.9900, 982.2715
421.1830, 761.2891
422.3760, 655.3867
423.5690, 423.5410
424.7610, 459.7539
425.9540, 465.0254
427.1460, 402.0332
428.3380, 471.7617
429.5300, 451.2441
430.7220, 427.7793
431.9140, 545.3965
433.1050, 629.0645
434.2970, 527.8027
435.4880, 615.6152
436.6790, 592.4863
437.8700, 548.4453
439.0610, 526.4688
440.2510, 425.5566
441.4420, 521.6953
442.6320, 517.8828
443.8220, 708.1211
445.0120, 843.4062
446.2020, 886.7402
447.3910, 1191.123
448.5810, 1286.557
449.7700, 1610.041
450.9600, 1709.574
452.1490, 2230.158
453.3370, 2605.789
454.5260, 3198.447
455.7150, 3605.127
456.9030, 4250.840
458.0910, 4905.609
459.2800, 5463.406
460.4670, 6434.236
461.6550, 7248.102
462.8430, 8660.002
464.0300, 10691.94
465.2180, 13358.91
466.4050, 17057.91
467.5920, 21835.96
468.7790, 28537.05
469.9650, 35605.18
471.1520, 41848.36
472.3380, 43450.59
473.5250, 40483.68
474.7110, 33862.98
475.8970, 26484.32
477.0820, 20108.71
478.2680, 15304.16
479.4540, 11777.63
480.6390, 9221.146
481.8240, 7186.703
483.0090, 5931.770
484.1940, 4830.418
485.3780, 4006.119
486.5630, 3560.865
487.7470, 2824.701
488.9320, 2651.145
490.1160, 2147.057
491.3000, 1939.504
492.4830, 1769.693
493.6670, 1705.945
494.8500, 1513.373
496.0340, 1300.766
497.2170, 1111.021
498.4000, 973.9863
499.5820, 817.7656
500.7650, 779.2148
501.9480, 699.3359
503.1300, 864.2676
504.3120, 692.8750
505.4940, 709.5449
506.6760, 838.2930
507.8580, 660.1055
509.0390, 648.9922
510.2210, 577.9316
511.4020, 627.9199
512.5830, 665.9805
513.7640, 706.5820
514.9450, 782.4160
516.1250, 780.7148
517.3060, 753.0586
518.4860, 617.4512
519.6660, 658.9512
520.8460, 628.5098
522.0260, 511.1328
523.2060, 668.8027
524.3850, 657.5137
525.5650, 595.8867
526.7440, 579.6855
527.9230, 610.8867
529.1020, 581.6309
530.2810, 573.3379
531.4590, 602.5020
532.6380, 574.4902
533.8160, 514.5176
534.9940, 598.5820
536.1720, 694.3203
537.3500, 775.4492
538.5270, 451.5742
539.7050, 701.7715
540.8820, 453.0039
542.0590, 652.2656
543.2360, 566.7617
544.4130, 689.0898
545.5900, 825.4512
546.7660, 593.7676
547.9430, 650.1895
549.1190, 746.9648
550.2950, 798.2578
551.4710, 804.7227
552.6470, 792.4727
553.8220, 725.2676
554.9980, 706.8223
556.1730, 603.4434
557.3480, 606.6836
558.5230, 656.8906
559.6980, 618.5859
560.8730, 722.0840
562.0470, 645.8301
563.2220, 621.1797
564.3960, 657.9727
565.5700, 612.8281
566.7440, 558.7148
567.9170, 707.7070
569.0910, 568.9121
570.2640, 452.1953
571.4380, 687.1172
572.6110, 556.6445
573.7840, 536.6035
574.9570, 537.3652
576.1290, 632.9668
577.3020, 502.9336
578.4740, 464.4258
579.6460, 257.6191
580.8180, 218.4102
581.9900, 216.4863
583.1620, 279.5898
584.3330, 53.72266
585.5040, 237.8672
586.6760, 392.0273
587.8470, 65.25195
589.0180, 320.4375
590.1880, 298.6836
591.3590, 273.9004
592.5290, 278.3535
593.7000, 223.5938
594.8700, 238.0117
596.0400, 227.9961
597.2090, 339.7324
598.3790, 270.0469
599.5490, 308.3398
600.7180, 406.6953
601.8870, 304.6660
603.0560, 291.0449
604.2250, 282.7148
605.3940, 117.0527
606.5620, 313.4004
607.7300, 232.7461
608.8990, 209.1055
610.0670, 104.4727
611.2350, 204.5254
612.4020, 19.90625
613.5700, 44.70898
614.7370, 91.67578
615.9050, 9.070313
617.0720, 90.47070
618.2390, 1.160156
619.4060, 4.421875
620.5720, 161.0762
621.7390, 33.49023
622.9050, 26.08984
624.0710, 176.3281
625.2370, 101.5762
626.4030, 131.9961
627.5690, 0.2480470
628.7340, 28.39062
629.9000, 22.45703
631.0650, 123.9316
632.2300, 46.01172
633.3950, 8.101563
634.5600, 13.74023
635.7240, 68.38086
636.8890, 112.0469
638.0530, 159.5684
639.2170, 74.89648
640.3810, 212.6445
641.5450, 152.9902
642.7080, 153.3574
643.8720, 29.67188
645.0350, 115.8633
646.1980, 63.23828
647.3610, 78.27734
648.5240, 180.8281
649.6870, 112.5371
650.8490, 135.8164
652.0120, 119.0879
653.1740, 137.3633
654.3360, 135.6172
655.4980, 121.1738
656.6600, 97.77148
657.8210, 74.32812
658.9830, 114.5469
660.1440, 58.86328
661.3050, 262.0625
662.4660, 113.2480
663.6270, 245.4219
664.7870, 28.41602
665.9480, 178.7188
667.1080, 90.16211
668.2680, 206.8984
669.4280, 57.95312
670.5880, 134.9922
671.7480, 211.0176
672.9070, 18.02930
674.0670, 75.97461
675.2260, 19.03711
676.3850, 101.8691
677.5440, 71.24023
678.7030, 152.5918
679.8610, 187.4082
681.0200, 87.20898
682.1780, 16.99219
683.3360, 180.7559
684.4940, 139.5039
685.6520, 45.76172
686.8090, 57.91602
687.9670, 97.42188
689.1240, 24.33203
690.2810, 217.3047
691.4380, 63.08398
692.5950, 22.45508
693.7520, 54.19336
694.9080, 122.0898
696.0650, 189.6426
697.2210, 23.48828
698.3770, 124.5938
699.5330, 30.32031
700.6880, 107.7129
701.8440, 57.27344
702.9990, 187.6699
704.1550, 18.59375
705.3100, 19.48828
706.4650, 46.34961
707.6190, 64.81250
708.7740, 33.05078
709.9290, 60.65234
711.0830, 66.66602
712.2370, 82.93750
713.3910, 20.48047
714.5450, 32.95703
715.6980, 10.50586
716.8520, 93.07031
718.0050, 7.744141
719.1580, 0.4667970
720.3110, 96.76367
721.4640, 107.7656
722.6170, 83.96289
723.7700, 135.1250
724.9220, 85.26562
726.0740, 75.38281
727.2260, 217.4766
728.3780, 42.78711
729.5300, 111.0586
730.6810, 40.07031
731.8330, 102.0508
732.9840, 21.00391
734.1350, 168.9160
735.2860, 75.80078
736.4370, 9.337891
737.5880, 262.4648
738.7380, 86.25391
739.8880, 49.00586
741.0390, 174.7246
742.1890, 197.4746
743.3380, 281.1445
744.4880, 209.7910
745.6380, 10.41406
746.7870, 144.9844
747.9360, 200.5332
749.0850, 17.05469
750.2340, 118.5293
751.3830, 138.9785
752.5310, 110.5664
753.6800, 161.6328
754.8280, 156.0117
755.9760, 58.36133
757.1240, 88.64453
758.2720, 84.93359
759.4190, 110.1992
760.5670, 178.4375
761.7140, 292.1895
762.8610, 63.38086
764.0080, 172.5371
765.1550, 26.67188
766.3020, 36.72656
767.4480, 225.1934
768.5950, 89.21484
769.7410, 68.72266
770.8870, 63.49023
772.0330, 225.2246
773.1780, 195.7930
774.3240, 87.42773
775.4690, 75.76953
776.6140, 170.9414
777.7590, 69.62695
778.9040, 94.28320
780.0490, 90.91797
781.1940, 146.5273
782.3380, 53.11328
783.4820, 88.66602
784.6260, 135.1973
785.7700, 184.7012
786.9140, 68.18555
788.0580, 246.6406
789.2010, 130.0742
790.3450, 94.48242
791.4880, 122.8711
792.6310, 102.2344
793.7730, 260.5762
794.9160, 511.8926
796.0590, 251.1895
797.2010, 19.46484
798.3430, 164.6973
799.4850, 378.9043
800.6270, 297.0938
801.7690, 373.2598
802.9100, 330.7910
804.0520, 339.9121
805.1930, 415.6504
806.3340, 261.7305
807.4750, 319.7891
808.6160, 354.8262
809.7560, 487.8418
810.8970, 384.8398
812.0370, 433.8105
813.1770, 396.1230
814.3170, 267.0566
815.4570, 385.0098
816.5960, 411.9062
817.7360, 390.7832
818.8750, 232.6406
820.0140, 375.2793
821.1530, 413.0977
822.2920, 303.9004
823.4310, 521.7559
824.5690, 493.5215
825.7070, 576.9473
826.8460, 456.8672
827.9840, 316.5859
829.1220, 371.2812
830.2590, 348.5664
831.3970, 282.4004
832.5340, 302.9199
833.6710, 192.9629
834.8080, 157.0508
835.9450, 147.5176
837.0820, 446.4785
838.2190, 228.0586
839.3550, 359.0430
840.4910, 332.5977
841.6270, 242.1016
842.7630, 292.5820
843.8990, 337.9668
845.0350, 385.1484
846.1700, 475.2617
847.3060, 200.7441
848.4410, 195.6289
849.5760, 212.0938
850.7100, 213.7656
851.8450, 94.60156
852.9800, 214.0840
854.1140, 25.04688
855.2480, 47.32031
856.3820, 200.0020
857.5160, 66.59375
858.6500, 79.22070
859.7830, 16.11719
860.9170, 139.4473
862.0500, 50.77148
863.1830, 16.03711
864.3160, 44.65039
865.4480, 15.75781
866.5810, 118.8848
867.7130, 94.94141
868.8460, 138.2188
869.9780, 232.3203
871.1100, 73.58594
872.2410, 45.66211
873.3730, 102.8867
874.5050, 1.140625
875.6360, 75.33789
876.7670, 23.52344
877.8980, 5.234375
879.0290, 35.00586
880.1590, 14.24414
881.2900, 8.482422
882.4200, 155.7227
883.5500, 115.3066
884.6800, 112.1895
885.8100, 69.74219
886.9400, 161.9746
888.0690, 117.2031
889.1990, 66.56250
890.3280, 103.6543
891.4570, 76.87305
892.5860, 76.12695
893.7140, 201.1738
894.8430, 167.1504
895.9710, 112.3691
897.1000, 223.5918
898.2280, 225.8164
899.3560, 72.22070
900.4830, 296.4805
901.6110, 286.4102
902.7380, 422.8105
903.8660, 484.0820
904.9930, 381.1602
906.1200, 405.9160
907.2460, 551.6777
908.3730, 605.9902
909.5000, 421.3145
910.6260, 536.5547
911.7520, 721.7109
912.8780, 590.0566
914.0040, 876.9883
915.1290, 669.3242
916.2550, 592.6406
917.3800, 784.0137
918.5050, 695.5098
919.6300, 897.8262
920.7550, 961.2168
921.8800, 1132.621
923.0040, 1089.605
924.1290, 1147.023
925.2530, 1251.449
926.3770, 1063.873
927.5010, 1122.314
928.6250, 1063.779
929.7480, 1009.254
930.8720, 895.7363
931.9950, 878.2285
933.1180, 577.6230
934.2410, 728.1367
935.3640, 555.6582
936.4860, 643.1895
937.6090, 637.7324
938.7310, 654.2949
939.8530, 629.8691
940.9750, 395.4746
942.0970, 554.0996
943.2180, 428.7363
944.3400, 345.3848
945.4610, 423.0449
946.5820, 271.7168
947.7030, 346.4238
948.8240, 365.1621
949.9450, 402.9141
951.0650, 387.6973
952.1860, 392.4961
953.3060, 280.3086
954.4260, 354.1348
955.5460, 334.9766
956.6650, 532.8340
957.7850, 576.7090
958.9040, 325.6191
960.0230, 555.5469
961.1420, 383.4902
962.2610, 496.5391
963.3800, 350.6270
964.4990, 401.7324
965.6170, 678.8535
966.7350, 566.0117
967.8530, 502.1836
968.9710, 458.4297
970.0890, 440.6992
971.2070, 427.9844
972.3240, 523.3027
973.4410, 350.6367
974.5580, 414.0117
975.6750, 490.4023
976.7920, 404.8145
977.9090, 476.6172
979.0250, 409.1387
980.1410, 586.1992
981.2580, 282.7363
982.3740, 478.2969
983.4890, 426.9004
984.6050, 312.5215
985.7200, 524.1777
986.8360, 477.8730
987.9510, 576.5938
989.0660, 605.3711
990.1810, 628.1816
991.2950, 459.0234
992.4100, 489.3145
993.5240, 470.4883
994.6390, 377.8418
995.7530, 448.7539
996.8660, 534.6836
997.9800, 420.6328
999.0940, 507.3633
1000.207, 507.1191
1001.320, 448.1328
1002.433, 468.1719
1003.546, 562.2363
1004.659, 321.3398
1005.772, 348.4609
1006.884, 439.6035
1007.996, 298.7832
1009.108, 306.9707
1010.220, 377.1914
1011.332, 184.4805
1012.444, 171.7344
1013.555, 284.5898
1014.666, 352.9375
1015.777, 341.3047
1016.888, 385.7656
1017.999, 463.1250
1019.110, 331.5645
1020.220, 336.0352
1021.331, 205.5254
1022.441, 126.0996
1023.551, 391.9668
1024.661, 309.5195
1025.770, 412.0938
1026.880, 343.6914
1027.989, 386.3125
1029.098, 348.9551
1030.207, 345.6270
1031.316, 365.3105
1032.425, 344.7285
1033.533, 400.9102
1034.642, 344.6680
1035.750, 359.0078
1036.858, 361.2734
1037.966, 303.1094
1039.073, 353.9785
1040.181, 347.8887
1041.288, 318.3320
1042.396, 429.6230
1043.503, 303.6230
1044.610, 320.6406
1045.716, 326.7344
1046.823, 172.8418
1047.929, 322.9570
1049.036, 318.0938
1050.142, 220.3711
1051.248, 489.5469
1052.353, 429.7480
1053.459, 427.9688
1054.564, 460.8555
1055.670, 376.1172
1056.775, 450.3984
1057.880, 529.7012
1058.985, 406.0234
1060.089, 441.3672
1061.194, 341.4414
1062.298, 382.8223
1063.402, 591.2207
1064.506, 415.6406
1065.610, 615.3984
1066.713, 485.8691
1067.817, 318.3555
1068.920, 531.8594
1070.023, 584.6582
1071.126, 539.2012
1072.229, 539.7656
1073.332, 492.3477
1074.435, 458.3926
1075.537, 562.4629
1076.639, 377.1211
1077.741, 343.7949
1078.843, 313.4883
1079.945, 531.1973
1081.046, 296.6816
1082.148, 385.4277
1083.249, 465.1953
1084.350, 424.9805
1085.451, 432.0410
1086.551, 409.0547
1087.652, 354.1934
1088.752, 407.0488
1089.853, 317.7617
1090.953, 586.6504
1092.053, 488.7539
1093.152, 602.2324
1094.252, 355.1738
1095.351, 337.6699
1096.451, 502.6445
1097.550, 309.6348
1098.649, 560.6406
1099.748, 434.6680
1100.846, 297.7109
1101.945, 440.1172
1103.043, 479.2246
1104.141, 327.3438
1105.239, 511.5059
1106.337, 458.6816
1107.434, 367.8750
1108.532, 308.0801
1109.629, 335.2324
1110.726, 573.5371
1111.823, 430.8848
1112.920, 456.1484
1114.017, 530.5469
1115.113, 409.8398
1116.210, 569.1465
1117.306, 575.4668
1118.402, 502.7988
1119.498, 555.1465
1120.593, 576.2793
1121.689, 531.6523
1122.784, 493.0371
1123.879, 506.4727
1124.974, 400.8574
1126.069, 444.3086
1127.164, 464.7734
1128.259, 296.2480
1129.353, 460.7344
1130.447, 427.2324
1131.541, 107.7520
1132.635, 55.09180
1133.729, 200.6328
1134.822, 177.9219
1135.916, 216.3809
1137.009, 245.2578
1138.102, 295.5410
1139.195, 208.1387
1140.288, 153.8027
1141.380, 44.42188
1142.473, 159.6211
1143.565, 100.2598
1144.657, 29.09375
1145.749, 123.5605
1146.841, 140.2246
1147.932, 65.89648
1149.024, 163.5762
1150.115, 158.2676
1151.206, 337.9648
1152.297, 75.67773
1153.388, 5.306641
1154.479, 218.4180
1155.569, 25.15820
1156.659, 244.9082
1157.750, 158.6660
1158.839, 75.51172
1159.929, 58.28320
1161.019, 65.58398
1162.108, 60.37305
1163.198, 37.82422
1164.287, 137.0273
1165.376, 177.7227
1166.465, 238.4805
1167.553, 74.24609
1168.642, 130.0176
1169.730, 91.61523
1170.818, 46.65430
1171.906, 20.55469
1172.994, 14.76367
1174.082, 113.0312
1175.170, 152.8320
1176.257, 0.3652340
1177.344, 0.4453130
1178.431, 242.2598
1179.518, 66.08008
1180.605, 6.095703
1181.691, 104.7305
1182.778, 12.56250
1183.864, 84.39648
1184.950, 21.76172
1186.036, 159.0762
1187.122, 59.91797
1188.207, 47.76367
1189.292, 73.61328
1190.378, 44.46680
1191.463, 78.67578
1192.548, 120.1543
1193.632, 230.9824
1194.717, 42.81836
1195.801, 10.34375
1196.886, 43.49414
1197.970, 183.3340
1199.054, 52.17773
1200.137, 7.976563
1201.221, 50.86914
1202.305, 20.19336
1203.388, 37.04297
1204.471, 40.10547
1205.554, 49.73047
1206.637, 114.3105
1207.719, 23.16797
1208.802, 122.0098
1209.884, 25.85352
1210.966, 51.30273
1212.048, 135.5195
1213.130, 42.34180
1214.212, 98.16602
1215.293, 3.009766
1216.374, 1.189453
1217.456, 3.277344
1218.536, 131.4512
1219.617, 31.73438
1220.698, 34.06445
1221.778, 19.13477
1222.859, 25.34570
1223.939, 7.427734
1225.019, 5.798828
1226.099, 205.9688
1227.178, 19.73438
1228.258, 268.5000
1229.337, 19.30469
1230.417, 174.0703
1231.496, 18.16797
1232.574, 130.3848
1233.653, 34.13281
1234.732, 25.69336
1235.810, 108.4395
1236.888, 210.1836
1237.966, 146.9258
1239.044, 148.6641
1240.122, 50.40430
1241.199, 4.861328
1242.277, 145.8633
1243.354, 4.417969
1244.431, 127.2891
1245.508, 87.10547
1246.585, 105.9121
1247.661, 26.61328
1248.738, 103.3105
1249.814, 4.005859
1250.890, 106.6895
1251.966, 108.3711
1253.042, 106.0488
1254.117, 72.25781
1255.193, 82.65039
1256.268, 103.6016
1257.343, 110.2676
1258.418, 117.9336
1259.493, 88.84180
1260.567, 103.2500
1261.642, 7.902344
1262.716, 37.55273
1263.790, 7.755859
1264.864, 10.08398
1265.938, 76.56445
1267.011, 327.2129
1268.085, 219.8555
1269.158, 35.51172
1270.231, 122.1445
1271.304, 146.2285
1272.377, 215.3066
1273.450, 138.8340
1274.522, 109.8320
1275.594, 213.3535
1276.666, 87.86719
1277.738, 77.37891
1278.810, 93.88477
1279.882, 108.3867
1280.953, 47.88477
1282.025, 30.47461
1283.096, 130.8984
1284.167, 213.3770
1285.238, 67.85156
1286.308, 148.3242
1287.379, 43.79102
1288.449, 136.2480
1289.519, 12.65234
1290.589, 225.7773
1291.659, 259.2285
1292.729, 222.6641
1293.798, 53.91797
1294.868, 214.3262
1295.937, 237.7266
1297.006, 273.1211
1298.075, 19.48828
1299.143, 26.12891
1300.212, 112.1953
1301.280, 129.0332
1302.348, 132.0352
1303.416, 229.3398
1304.484, 108.6406
1305.552, 160.9180
1306.620, 273.1973
1307.687, 145.4785
1308.754, 150.7559
1309.821, 353.9082
1310.888, 298.1719
1311.955, 259.4336
1313.021, 95.68359
1314.088, 140.2910
1315.154, 199.5391
1316.220, 328.7793
1317.286, 285.0859
1318.352, 141.2461
1319.417, 211.4707
1320.483, 248.9746
1321.548, 172.1855
1322.613, 224.3906
1323.678, 196.5898
1324.743, 275.4590
1325.807, 278.6484
1326.872, 260.8340
1327.936, 161.0098
1329.000, 81.90820
1330.064, 29.06055
1331.128, 340.2051
1332.191, 180.3438
1333.255, 270.5859
1334.318, 32.28516
1335.381, 57.82227
1336.444, 88.92773
1337.507, 203.0254
1338.569, 287.1211
