##NAMES=Covellite
##RRUFFID=R060129
##IDEAL CHEMISTRY=Cu^1+^S
##LOCALITY=Butte, Montana, USA
##OWNER=RRUFF
##SOURCE=University of Arizona Mineral Museum
##DESCRIPTION=Iridescent blue metallic hexagonal plates
##STATUS=The identification of this mineral has been confirmed by X-ray diffraction and chemical analysis
##URL=rruff.info/R060129
##MEASURED CHEMISTRY=Cu_1.00_S_1.00_
##PIN_ID=L00520
##ORIENTATION=Laser parallel to -a* (-1 0 0). Fiducial mark perpendicular to laser is parallel to c [0 0 1]
126.7490, 0.0000000E+00
127.9790, 104.7793
129.2090, 378.5811
130.4390, 531.6343
131.6680, 730.4438
132.8980, 781.1592
134.1270, 874.8430
135.3560, 1315.349
136.5850, 1633.950
137.8140, 1957.749
139.0430, 1955.605
140.2710, 1570.593
141.5000, 1022.465
142.7280, 673.2612
143.9560, 612.4727
145.1840, 478.6826
146.4120, 392.6187
147.6390, 328.6877
148.8670, 202.0925
150.0940, 353.6118
151.3210, 554.0530
152.5490, 429.3276
153.7750, 220.8274
155.0020, 285.6958
156.2290, 78.18457
157.4550, 17.06128
158.6810, 107.9656
159.9080, 82.46436
161.1340, 52.50195
162.3590, 119.9712
163.5850, 240.9980
164.8110, 319.6318
166.0360, 204.7717
167.2610, 90.92798
168.4860, 199.4434
169.7110, 301.6423
170.9360, 294.4019
172.1610, 184.2502
173.3850, 164.9312
174.6100, 123.8687
175.8340, 172.7007
177.0580, 166.3779
178.2820, 242.0171
179.5050, 247.2190
180.7290, 266.0740
181.9520, 264.4722
183.1760, 251.2737
184.3990, 368.9072
185.6220, 462.2134
186.8450, 451.4729
188.0670, 487.6897
189.2900, 403.8525
190.5120, 566.9609
191.7340, 568.0161
192.9560, 589.0198
194.1780, 682.9758
195.4000, 680.8870
196.6220, 711.7563
197.8430, 643.5874
199.0640, 762.3816
200.2860, 911.1860
201.5070, 974.1423
202.7270, 933.2480
203.9480, 583.4875
205.1690, 236.0601
206.3890, 65.01074
207.6090, 25.15649
208.8290, 30.14233
210.0490, 14.70996
211.2690, 85.19531
212.4890, 134.5500
213.7080, 121.3293
214.9280, 17.06836
216.1470, 37.13208
217.3660, 91.97827
218.5850, 65.50317
219.8030, 0.7124020
221.0220, 17.19971
222.2400, 18.80957
223.4590, 16.24292
224.6770, 12.51611
225.8950, 22.24487
227.1120, 6.518066
228.3300, 48.84766
229.5480, 42.60669
230.7650, 16.16284
231.9820, 35.80322
233.1990, 41.98975
234.4160, 9.613770
235.6330, 5.359619
236.8490, 29.30640
238.0660, 75.37939
239.2820, 112.5896
240.4980, 147.4263
241.7140, 215.7935
242.9300, 245.2493
244.1460, 328.5278
245.3610, 474.7886
246.5770, 566.0261
247.7920, 752.4077
249.0070, 905.4702
250.2220, 1086.377
251.4370, 1327.078
252.6510, 1562.103
253.8660, 1852.922
255.0800, 2108.708
256.2940, 2422.484
257.5080, 3218.259
258.7220, 3099.618
259.9360, 3182.727
261.1490, 3112.621
262.3630, 2789.421
263.5760, 2690.229
264.7890, 2450.043
266.0020, 2311.865
267.2150, 1962.694
268.4270, 1693.531
269.6400, 1344.375
270.8520, 1089.228
272.0640, 940.0879
273.2760, 820.4272
274.4880, 709.1143
275.7000, 646.8538
276.9120, 500.5237
278.1230, 407.0425
279.3340, 266.3789
280.5450, 202.5295
281.7560, 136.7979
282.9670, 76.98706
284.1780, 56.33496
285.3880, 114.4868
286.5980, 97.45044
287.8090, 50.20435
289.0190, 3.736816
290.2290, 10.51099
291.4380, 10.93628
292.6480, 34.37158
293.8570, 27.59717
295.0670, 46.41455
296.2760, 42.48657
297.4850, 21.49463
298.6930, 18.58618
299.9020, 81.04102
301.1110, 8.688965
302.3190, 2.904297
303.5270, 12.73169
304.7350, 19.26001
305.9430, 25.18091
307.1510, 16.78979
308.3580, 25.52075
309.5660, 36.75684
310.7730, 58.20190
311.9800, 5.720703
313.1870, 2.598633
314.3940, 33.40601
315.6010, 32.58765
316.8070, 5.690430
318.0130, 22.08179
319.2200, 13.74756
320.4260, 23.06641
321.6310, 28.10034
322.8370, 6.028809
324.0430, 36.26221
325.2480, 83.44092
326.4540, 23.35962
327.6590, 53.79053
328.8640, 27.87793
330.0680, 13.32373
331.2730, 78.76440
332.4780, 85.20117
333.6820, 68.63452
334.8860, 74.06421
336.0900, 40.49072
337.2940, 38.91406
338.4980, 28.33423
339.7010, 69.75073
340.9050, 10.83447
342.1080, 59.42432
343.3110, 29.97339
344.5140, 3.369385
345.7170, 72.76245
346.9200, 35.15405
348.1220, 9.542236
349.3240, 5.073975
350.5270, 30.07397
351.7290, 37.28076
352.9310, 27.96387
354.1320, 0.1665040
355.3340, 13.67847
356.5350, 36.71680
357.7370, 58.37329
358.9380, 52.89502
360.1390, 75.17383
361.3400, 37.88135
362.5400, 93.50684
363.7410, 95.55859
364.9410, 15.05298
366.1410, 8.520996
367.3410, 43.93750
368.5410, 15.53271
369.7410, 39.87061
370.9400, 41.04834
372.1400, 37.40601
373.3390, 44.66675
374.5380, 39.65601
375.7370, 59.56299
376.9360, 58.41309
378.1350, 109.5769
379.3330, 117.0518
380.5310, 126.3901
381.7300, 169.3264
382.9280, 178.6912
384.1260, 196.2500
385.3230, 125.9641
386.5210, 128.9829
387.7180, 97.10889
388.9160, 135.2502
390.1130, 145.1912
391.3100, 140.1450
392.5060, 197.7229
393.7030, 128.8967
394.9000, 133.0752
396.0960, 93.25806
397.2920, 143.4529
398.4880, 191.6611
399.6840, 164.8853
400.8800, 157.1145
402.0750, 164.3508
403.2710, 158.5959
404.4660, 173.8459
405.6610, 187.1028
406.8560, 186.3647
408.0510, 180.8098
409.2450, 204.9136
410.4400, 169.2004
411.6340, 143.5107
412.8280, 170.8271
414.0220, 162.1597
415.2160, 135.5178
416.4100, 124.8818
417.6030, 202.2361
418.7970, 155.5706
419.9900, 147.8943
421.1830, 229.1987
422.3760, 177.5010
423.5690, 186.7886
424.7610, 119.0630
425.9540, 308.1160
427.1460, 252.9043
428.3380, 275.5918
429.5300, 317.5098
430.7220, 339.3450
431.9140, 416.9753
433.1050, 473.1182
434.2970, 445.5300
435.4880, 517.9502
436.6790, 641.5103
437.8700, 770.0422
439.0610, 784.6541
440.2510, 869.8306
441.4420, 1027.290
442.6320, 1163.557
443.8220, 1416.734
445.0120, 1601.187
446.2020, 1856.464
447.3910, 2198.445
448.5810, 2493.331
449.7700, 3020.115
450.9600, 3470.859
452.1490, 4052.756
453.3370, 4545.596
454.5260, 5264.527
455.7150, 6190.101
456.9030, 7125.815
458.0910, 8043.664
459.2800, 9464.513
460.4670, 11111.26
461.6550, 13742.08
462.8430, 17066.87
464.0300, 21774.72
465.2180, 27541.59
466.4050, 34443.39
467.5920, 42179.33
468.7790, 50636.47
469.9650, 58334.66
471.1520, 60583.69
472.3380, 57615.64
473.5250, 48842.52
474.7110, 38554.70
475.8970, 29704.89
477.0820, 22755.04
478.2680, 17795.21
479.4540, 13944.25
480.6390, 10938.30
481.8240, 8894.306
483.0090, 7243.497
484.1940, 5956.196
485.3780, 4990.098
486.5630, 4295.171
487.7470, 3742.117
488.9320, 3214.523
490.1160, 2860.617
491.3000, 2563.612
492.4830, 2250.492
493.6670, 2171.590
494.8500, 1916.397
496.0340, 1725.624
497.2170, 1644.074
498.4000, 1492.883
499.5820, 1305.111
500.7650, 1174.448
501.9480, 1079.403
503.1300, 994.9263
504.3120, 938.7207
505.4940, 909.2759
506.6760, 860.8005
507.8580, 833.2781
509.0390, 852.4536
510.2210, 802.9915
511.4020, 772.3359
512.5830, 753.0210
513.7640, 803.0771
514.9450, 797.5571
516.1250, 729.2737
517.3060, 710.7256
518.4860, 638.9534
519.6660, 679.9087
520.8460, 687.5251
522.0260, 694.1812
523.2060, 636.9236
524.3850, 621.6777
525.5650, 608.5684
526.7440, 607.5662
527.9230, 608.1641
529.1020, 599.9092
530.2810, 654.5444
531.4590, 656.2439
532.6380, 666.5081
533.8160, 572.5046
534.9940, 653.1543
536.1720, 663.9648
537.3500, 608.7593
538.5270, 672.1108
539.7050, 646.7249
540.8820, 581.9358
542.0590, 617.7190
543.2360, 528.8389
544.4130, 560.4561
545.5900, 525.2163
546.7660, 526.2825
547.9430, 575.0872
549.1190, 425.9199
550.2950, 498.8374
551.4710, 425.6619
552.6470, 490.8762
553.8220, 463.8345
554.9980, 401.2080
556.1730, 363.7810
557.3480, 365.8289
558.5230, 342.4512
559.6980, 381.1211
560.8730, 360.9658
562.0470, 368.8379
563.2220, 412.6074
564.3960, 347.2896
565.5700, 386.0430
566.7440, 303.7556
567.9170, 361.6436
569.0910, 327.3359
570.2640, 310.1006
571.4380, 265.8245
572.6110, 351.2327
573.7840, 270.9424
574.9570, 279.3264
576.1290, 312.1655
577.3020, 667.9187
578.4740, 547.3833
579.6460, 498.4685
580.8180, 572.9980
581.9900, 197.7004
583.1620, 286.4077
584.3330, 236.1187
585.5040, 213.8494
586.6760, 213.5798
587.8470, 244.3110
589.0180, 283.0442
590.1880, 294.7793
591.3590, 295.5173
592.5290, 266.2532
593.7000, 289.9912
594.8700, 314.7266
596.0400, 304.4592
597.2090, 352.1904
598.3790, 301.9197
599.5490, 319.6465
600.7180, 325.3699
601.8870, 303.0913
603.0560, 287.8101
604.2250, 273.5259
605.3940, 268.2388
606.5620, 208.9512
607.7300, 194.6616
608.8990, 226.3684
610.0670, 196.0708
611.2350, 211.7732
612.4020, 208.4709
613.5700, 171.1650
614.7370, 146.8552
615.9050, 205.5408
617.0720, 150.2209
618.2390, 104.8965
619.4060, 176.5667
620.5720, 148.2319
621.7390, 92.89282
622.9050, 69.54932
624.0710, 41.20020
625.2370, 53.84790
626.4030, 26.50000
627.5690, 121.1475
628.7340, 0.2099610
629.9000, 39.42505
631.0650, 112.1558
632.2300, 88.78027
633.3950, 37.40039
634.5600, 11.98535
635.7240, 12.61670
636.8890, 40.78784
638.0530, 47.78052
639.2170, 76.34473
640.3810, 38.90234
641.5450, 20.45312
642.7080, 27.99609
643.8720, 10.53174
645.0350, 14.11255
646.1980, 23.71216
647.3610, 4.202148
648.5240, 39.70361
649.6870, 61.19897
650.8490, 50.68604
652.0120, 5.165527
653.1740, 4.364990
654.3360, 11.29028
655.4980, 5.536133
656.6600, 9.824951
657.8210, 5.414063
658.9830, 1.8798999E-02
660.1440, 42.28564
661.3050, 36.65869
662.4660, 19.32007
663.6270, 18.69116
664.7870, 2.966309
665.9480, 66.36060
667.1080, 39.24341
668.2680, 26.05615
669.4280, 38.84375
670.5880, 40.82910
671.7480, 33.94580
672.9070, 25.75464
674.0670, 54.40698
675.2260, 20.64087
676.3850, 24.78101
677.5440, 15.09009
678.7030, 18.98706
679.8610, 26.50757
681.0200, 35.61328
682.1780, 8.644287
683.3360, 0.3393550
684.4940, 41.65747
685.6520, 12.03149
686.8090, 40.26050
687.9670, 38.88647
689.1240, 16.16724
690.2810, 40.74829
691.4380, 52.34863
692.5950, 22.50464
693.7520, 22.65601
694.9080, 57.15625
696.0650, 18.60278
697.2210, 7.661377
698.3770, 62.16846
699.5330, 11.67285
700.6880, 32.99268
701.8440, 41.73682
702.9990, 9.751221
704.1550, 8.882080
705.3100, 75.92236
706.4650, 35.47412
707.6190, 88.83740
708.7740, 66.36353
709.9290, 76.04150
711.0830, 19.54297
712.2370, 79.04541
713.3910, 20.51611
714.5450, 49.31738
715.6980, 69.75635
716.8520, 145.1826
718.0050, 114.5967
719.1580, 105.9985
720.3110, 133.3882
721.4640, 97.76587
722.6170, 169.1313
723.7700, 164.4846
724.9220, 142.8252
726.0740, 235.1536
727.2260, 234.4697
728.3780, 181.7734
729.5300, 243.0649
730.6810, 281.3433
731.8330, 203.6096
732.9840, 285.8635
734.1350, 267.1045
735.2860, 266.3335
736.4370, 278.5498
737.5880, 262.7537
738.7380, 221.9451
739.8880, 302.1240
741.0390, 321.2979
742.1890, 284.4517
743.3380, 278.5933
744.4880, 293.3967
745.6380, 256.6096
746.7870, 259.7139
747.9360, 268.8057
749.0850, 273.8848
750.2340, 268.6226
751.3830, 259.0061
752.5310, 252.0483
753.6800, 206.0776
754.8280, 187.0947
755.9760, 257.0999
757.1240, 199.0925
758.2720, 215.0728
759.4190, 179.0405
760.5670, 188.9963
761.7140, 240.9397
762.8610, 197.8708
764.0080, 230.7898
765.1550, 159.6699
766.3020, 218.5645
767.4480, 170.2847
768.5950, 48.15527
769.7410, 182.0127
770.8870, 195.8577
772.0330, 122.6909
773.1780, 122.8467
774.3240, 91.54980
775.4690, 87.92871
776.6140, 139.7144
777.7590, 115.4888
778.9040, 71.24438
780.0490, 124.9087
781.1940, 138.5906
782.3380, 51.18530
783.4820, 133.7805
784.6260, 48.40210
785.7700, 125.9277
786.9140, 101.5881
788.0580, 68.25854
789.2010, 118.9177
790.3450, 76.39258
791.4880, 67.49414
792.6310, 56.17139
793.7730, 28.60767
794.9160, 74.30396
796.0590, 84.22998
797.2010, 7.423828
798.3430, 102.9485
799.4850, 22.43701
800.6270, 47.83667
801.7690, 84.22095
802.9100, 65.08423
804.0520, 31.59229
805.1930, 42.11377
806.3340, 5.479736
807.4750, 11.94312
808.6160, 57.33179
809.7560, 49.03418
810.8970, 55.71167
812.0370, 19.36548
813.1770, 61.86938
814.3170, 66.11108
815.4570, 92.78735
816.5960, 42.80713
817.7360, 13.97827
818.8750, 66.18262
820.0140, 60.04150
821.1530, 121.3953
822.2920, 13.40234
823.4310, 43.52075
824.5690, 34.40039
825.7070, 27.67236
826.8460, 23.65210
827.9840, 28.71582
829.1220, 29.38208
830.2590, 17.29639
831.3970, 8.213379
832.5340, 2.066406
833.6710, 32.79541
834.8080, 18.85229
835.9450, 24.77222
837.0820, 14.19092
838.2190, 11.88110
839.3550, 34.86157
840.4910, 12.77051
841.6270, 11.76099
842.7630, 9.279297
843.8990, 35.86206
845.0350, 28.17871
846.1700, 5.857422
847.3060, 22.14038
848.4410, 0.5517580
849.5760, 30.45044
850.7100, 11.22363
851.8450, 51.64209
852.9800, 83.59009
854.1140, 47.59375
855.2480, 15.59448
856.3820, 72.59155
857.5160, 55.58545
858.6500, 33.57666
859.7830, 22.56470
860.9170, 31.55005
862.0500, 30.53271
863.1830, 40.33569
864.3160, 37.49023
865.4480, 55.46533
866.5810, 45.49390
867.7130, 28.40845
868.8460, 49.37695
869.9780, 19.34326
871.1100, 22.30786
872.2410, 23.03564
873.3730, 19.23218
874.5050, 11.19214
875.6360, 29.15063
876.7670, 0.1081540
877.8980, 65.06396
879.0290, 97.01904
880.1590, 25.02686
881.2900, 7.080078
882.4200, 54.86523
883.5500, 105.8096
884.6800, 76.75366
885.8100, 119.6970
886.9400, 82.64038
888.0690, 110.5835
889.1990, 90.52661
890.3280, 124.4697
891.4570, 122.4128
892.5860, 166.3564
893.7140, 119.3000
894.8430, 129.2444
895.9710, 241.1890
897.1000, 226.1343
898.2280, 165.0803
899.3560, 268.0273
900.4830, 280.9751
901.6110, 248.9238
902.7380, 362.8743
903.8660, 305.8264
904.9930, 331.6782
906.1200, 460.6331
907.2460, 474.6079
908.3730, 542.1963
909.5000, 632.5117
910.6260, 639.4775
911.7520, 715.4614
912.8780, 753.4475
914.0040, 838.4360
915.1290, 875.7485
916.2550, 932.8604
917.3800, 969.4214
918.5050, 1026.369
919.6300, 1095.374
920.7550, 1122.880
921.8800, 1269.332
923.0040, 1269.346
924.1290, 1402.364
925.2530, 1563.385
926.3770, 1602.410
927.5010, 1526.441
928.6250, 1433.476
929.7480, 1334.312
930.8720, 1241.366
931.9950, 1150.758
933.1180, 1065.464
934.2410, 975.6458
935.3640, 893.4250
936.4860, 816.4888
937.6090, 766.6013
938.7310, 714.2585
939.8530, 694.7017
940.9750, 638.8108
942.0970, 624.1145
943.2180, 587.4736
944.3400, 543.9858
945.4610, 506.1616
946.5820, 464.3582
947.7030, 432.4778
948.8240, 392.6855
949.9450, 384.8997
951.0650, 413.1272
952.1860, 285.9673
953.3060, 334.1499
954.4260, 274.4175
955.5460, 359.7075
956.6650, 307.0081
957.7850, 240.9319
958.9040, 283.9971
960.0230, 239.6611
961.1420, 232.9998
962.2610, 248.3555
963.3800, 271.6426
964.4990, 364.1121
965.6170, 360.5137
966.7350, 378.2393
967.8530, 409.6814
968.9710, 384.1409
970.0890, 315.4944
971.2070, 391.5151
972.3240, 475.0151
973.4410, 323.9060
974.5580, 386.5593
975.6750, 329.5615
976.7920, 353.6504
977.9090, 368.2246
979.0250, 298.9824
980.1410, 338.5740
981.2580, 292.0095
982.3740, 276.6187
983.4890, 315.2200
984.6050, 315.8521
985.7200, 311.1475
986.8360, 291.8010
987.9510, 243.4646
989.0660, 210.1370
990.1810, 265.8286
991.2950, 315.5291
992.4100, 258.2393
993.5240, 326.9585
994.6390, 322.6895
995.7530, 340.4292
996.8660, 347.1543
997.9800, 372.9365
999.0940, 348.7036
1000.207, 330.4802
1001.320, 368.2659
1002.433, 351.0623
1003.546, 336.8750
1004.659, 355.7034
1005.772, 275.5554
1006.884, 259.4351
1007.996, 252.3245
1009.108, 273.2310
1010.220, 310.1467
1011.332, 201.0649
1012.444, 321.9998
1013.555, 276.9443
1014.666, 309.2241
1015.777, 230.0913
1016.888, 266.0645
1017.999, 271.0479
1019.110, 269.0405
1020.220, 260.0430
1021.331, 292.0552
1022.441, 263.0776
1023.551, 254.1094
1024.661, 241.1509
1025.770, 201.2026
1026.880, 228.2639
1027.989, 253.3357
1029.098, 263.4175
1030.207, 230.5090
1031.316, 239.6106
1032.425, 266.7219
1033.533, 245.8433
1034.642, 268.9746
1035.750, 189.1157
1036.858, 242.2671
1037.966, 231.4341
1039.073, 271.6191
1040.181, 218.8140
1041.288, 223.0186
1042.396, 303.2334
1043.503, 218.4778
1044.610, 291.7798
1045.716, 269.1379
1046.823, 292.3948
1047.929, 314.9465
1049.036, 216.2327
1050.142, 287.5286
1051.248, 243.8350
1052.353, 266.1509
1053.459, 273.5500
1054.564, 293.8213
1055.670, 279.1709
1056.775, 283.5308
1057.880, 298.9001
1058.985, 282.2788
1060.089, 338.6675
1061.194, 276.5664
1062.298, 294.9763
1063.402, 368.3989
1064.506, 335.8311
1065.610, 338.3726
1066.713, 309.8279
1067.817, 268.2922
1068.920, 299.7681
1070.023, 350.2529
1071.126, 246.3689
1072.229, 345.1536
1073.332, 328.0486
1074.435, 295.5713
1075.537, 250.1069
1076.639, 317.1516
1077.741, 387.7075
1078.843, 231.5706
1079.945, 279.1438
1081.046, 209.7346
1082.148, 255.3342
1083.249, 275.9424
1084.350, 211.9016
1085.451, 271.5415
1086.551, 295.1899
1087.652, 305.0837
1088.752, 259.7488
1089.853, 256.5874
1090.953, 270.8823
1092.053, 284.5918
1093.152, 305.3206
1094.252, 254.0571
1095.351, 217.8013
1096.451, 334.3477
1097.550, 227.1067
1098.649, 303.8728
1099.748, 190.7529
1100.846, 234.5376
1101.945, 163.3291
1103.043, 209.1331
1104.141, 167.9509
1105.239, 245.7756
1106.337, 386.7700
1107.434, 299.6907
1108.532, 285.5227
1109.629, 208.3904
1110.726, 237.2649
1111.823, 192.1541
1112.920, 163.0493
1114.017, 200.9521
1115.113, 232.8608
1116.210, 274.3213
1117.306, 299.2427
1118.402, 330.1716
1119.498, 312.2002
1120.593, 347.1411
1121.689, 324.4856
1122.784, 391.4380
1123.879, 367.5105
1124.974, 328.4741
1126.069, 291.9136
1127.164, 220.8877
1128.259, 228.8672
1129.353, 190.8518
1130.447, 151.8418
1131.541, 173.8367
1132.635, 79.85205
1133.729, 143.0120
1134.822, 90.66797
1135.916, 76.09985
1137.009, 79.37988
1138.102, 95.75537
1139.195, 88.78345
1140.288, 46.58081
1141.380, 135.6167
1142.473, 72.65601
1143.565, 101.6997
1144.657, 109.7468
1145.749, 16.79736
1146.841, 140.8545
1147.932, 55.91626
1149.024, 41.98145
1150.115, 80.04980
1151.206, 33.12158
1152.297, 107.1965
1153.388, 52.27441
1154.479, 142.3555
1155.569, 66.43994
1156.659, 114.5330
1157.750, 51.63721
1158.839, 35.84863
1159.929, 46.95020
1161.019, 70.06372
1162.108, 48.17090
1163.198, 31.28052
1164.287, 56.39307
1165.376, 83.50781
1166.465, 33.66040
1167.553, 55.78003
1168.642, 79.21777
1169.730, 80.06445
1170.818, 63.73486
1171.906, 48.32593
1172.994, 3.455811
1174.082, 1.412598
1175.170, 31.04077
1176.257, 6.565430
1177.344, 14.55981
1178.431, 12.31372
1179.518, 7.101807
1180.605, 11.58862
1181.691, 4.439453
1182.778, 22.56860
1183.864, 29.67578
1184.950, 20.80713
1186.036, 36.93872
1187.122, 53.07153
1188.207, 62.20459
1189.292, 3.338867
1190.378, 80.47339
1191.463, 14.87720
1192.548, 55.25342
1193.632, 70.79907
1194.717, 90.93018
1195.801, 3.938232
1196.886, 69.19189
1197.970, 58.32251
1199.054, 56.48926
1200.137, 73.62012
1201.221, 15.24976
1202.305, 27.12524
1203.388, 9.927490
1204.471, 19.18042
1205.554, 44.28833
1206.637, 11.60449
1207.719, 17.49731
1208.802, 25.40137
1209.884, 50.70972
1210.966, 63.79858
1212.048, 31.89771
1213.130, 44.99121
1214.212, 6.916504
1215.293, 40.17188
1216.374, 2.259033
1217.456, 53.65527
1218.536, 9.400879
1219.617, 20.03320
1220.698, 10.50146
1221.778, 4.534180
1222.859, 55.56812
1223.939, 72.60034
1225.019, 65.63062
1226.099, 12.34082
1227.178, 25.67822
1228.258, 66.69531
1229.337, 0.7104490
1230.417, 28.72192
1231.496, 108.7312
1232.574, 187.7388
1233.653, 19.82007
1234.732, 45.82275
1235.810, 0.8229980
1236.888, 42.81885
1237.966, 13.18774
1239.044, 54.79321
1240.122, 41.77197
1241.199, 41.74756
1242.277, 31.72046
1243.354, 59.69336
1244.431, 17.66357
1245.508, 3.369141
1246.585, 75.59546
1247.661, 60.55127
1248.738, 5.504150
1249.814, 111.4526
1250.890, 31.60229
1251.966, 44.31909
1253.042, 6.237305
1254.117, 21.15088
1255.193, 6.0791001E-02
1256.268, 19.96265
1257.343, 19.16211
1258.418, 21.75635
1259.493, 22.64795
1260.567, 25.53589
1261.642, 13.42041
1262.716, 8.300781
1263.790, 16.82373
1264.864, 12.96680
1265.938, 42.12598
1267.011, 59.31689
1268.085, 64.48071
1269.158, 17.75513
1270.231, 52.98975
1271.304, 44.73071
1272.377, 55.46777
1273.450, 42.20068
1274.522, 34.92993
1275.594, 57.65479
1276.666, 49.42065
1277.738, 65.13770
1278.810, 40.85059
1279.882, 38.55933
1280.953, 56.26392
1282.025, 83.96411
1283.096, 43.67065
1284.167, 62.36255
1285.238, 49.37744
1286.308, 28.06079
1287.379, 17.77075
1288.449, 35.45166
1289.519, 29.39038
1290.589, 59.80078
1291.659, 60.46826
1292.729, 45.13159
1293.798, 88.79053
1294.868, 25.44482
1295.937, 46.09399
1297.006, 6.260742
1298.075, 12.61499
1299.143, 34.04565
1300.212, 98.65063
1301.280, 54.25049
1302.348, 74.84595
1303.416, 16.44800
1304.484, 11.96582
