##NAMES=Covellite
##RRUFFID=R060129
##IDEAL CHEMISTRY=Cu^1+^S
##LOCALITY=Butte, Montana, USA
##OWNER=RRUFF
##SOURCE=University of Arizona Mineral Museum
##DESCRIPTION=Iridescent blue metallic hexagonal plates
##STATUS=The identification of this mineral has been confirmed by X-ray diffraction and chemical analysis
##URL=rruff.info/R060129
##MEASURED CHEMISTRY=Cu_1.00_S_1.00_
##PIN_ID=L00818
##ORIENTATION=Laser parallel to c* (0 0 1). Fiducial mark perpendicular to laser is parallel to a [1 0 0]
172.1610, 0.0000000E+00
173.3850, 1.552734
174.6100, 213.3906
175.8340, 77.46289
177.0580, 73.64844
178.2820, 27.87695
179.5050, 93.30273
180.7290, 72.95117
181.9520, 222.5156
183.1760, 159.9199
184.3990, 369.9746
185.6220, 522.6230
186.8450, 851.3164
188.0670, 703.0723
189.2900, 669.8887
190.5120, 865.4395
191.7340, 847.8066
192.9560, 942.4121
194.1780, 985.7363
195.4000, 1019.389
196.6220, 1165.426
197.8430, 1229.994
199.0640, 1156.887
200.2860, 1564.566
201.5070, 1559.336
202.7270, 1578.947
203.9480, 1102.365
205.1690, 561.6113
206.3890, 339.4844
207.6090, 165.9590
208.8290, 157.3945
210.0490, 379.5449
211.2690, 308.8340
212.4890, 428.2656
213.7080, 401.8340
214.9280, 331.5352
216.1470, 307.3594
217.3660, 17.70117
218.5850, 70.34570
219.8030, 50.48828
221.0220, 71.28125
222.2400, 58.01758
223.4590, 60.37695
224.6770, 55.21484
225.8950, 93.23828
227.1120, 135.7344
228.3300, 136.2754
229.5480, 74.86133
230.7650, 124.4766
231.9820, 71.73242
233.1990, 45.05469
234.4160, 18.01367
235.6330, 167.3301
236.8490, 102.6523
238.0660, 171.0430
239.2820, 344.4609
240.4980, 383.8984
241.7140, 125.3633
242.9300, 275.8535
244.1460, 284.3730
245.3610, 278.9668
246.5770, 462.7109
247.7920, 628.5879
249.0070, 598.5781
250.2220, 788.6738
251.4370, 1210.861
252.6510, 1113.129
253.8660, 1382.469
255.0800, 1905.863
256.2940, 2068.303
257.5080, 2868.779
258.7220, 3026.303
259.9360, 2968.930
261.1490, 3433.285
262.3630, 2678.791
263.5760, 2499.260
264.7890, 2552.715
266.0020, 2534.172
267.2150, 2245.631
268.4270, 2078.998
269.6400, 2110.275
270.8520, 1905.467
272.0640, 1554.562
273.2760, 1546.650
274.4880, 1527.668
275.7000, 1559.539
276.9120, 1276.395
278.1230, 1394.266
279.3340, 1148.166
280.5450, 1098.092
281.7560, 968.0469
282.9670, 775.0391
284.1780, 699.0645
285.3880, 579.1250
286.5980, 657.2188
287.8090, 688.3438
289.0190, 504.9648
290.2290, 413.3066
291.4380, 614.6445
292.6480, 316.8848
293.8570, 362.1602
295.0670, 163.8516
296.2760, 365.5742
297.4850, 396.0801
298.6930, 194.9707
299.9020, 53.20703
301.1110, 300.4824
302.3190, 213.7988
303.5270, 354.1582
304.7350, 574.5605
305.9430, 319.0020
307.1510, 343.4883
308.3580, 321.0117
309.5660, 584.5703
310.7730, 553.1680
311.9800, 549.8066
313.1870, 498.4883
314.3940, 635.2109
315.6010, 777.9727
316.8070, 1048.770
318.0130, 1118.619
319.2200, 1363.695
320.4260, 1617.336
321.6310, 1772.695
322.8370, 2096.859
324.0430, 2569.643
325.2480, 3123.547
326.4540, 3771.174
327.6590, 4578.908
328.8640, 4974.508
330.0680, 5558.953
331.2730, 5612.234
332.4780, 5792.357
333.6820, 5412.324
334.8860, 5224.133
336.0900, 4439.723
337.2940, 3745.197
338.4980, 3181.594
339.7010, 2550.904
340.9050, 2082.941
342.1080, 1601.650
343.3110, 1476.240
344.5140, 973.6133
345.7170, 896.9434
346.9200, 791.0195
348.1220, 682.9141
349.3240, 612.6367
350.5270, 340.6445
351.7290, 468.0137
352.9310, 337.3008
354.1320, 276.5859
355.3340, 362.2852
356.5350, 482.7480
357.7370, 684.7676
358.9380, 656.7324
360.1390, 789.4570
361.3400, 893.1348
362.5400, 1067.107
363.7410, 1043.957
364.9410, 1155.477
366.1410, 1150.574
367.3410, 1299.516
368.5410, 1409.621
369.7410, 1496.193
370.9400, 1423.988
372.1400, 1598.260
373.3390, 1711.607
374.5380, 1616.424
375.7370, 1462.387
376.9360, 1474.805
378.1350, 1455.443
379.3330, 1524.518
380.5310, 1376.393
381.7300, 1563.902
382.9280, 1445.875
384.1260, 1319.484
385.3230, 1234.115
386.5210, 1027.023
387.7180, 951.5801
388.9160, 630.2539
390.1130, 668.9277
391.3100, 596.6797
392.5060, 303.4551
393.7030, 160.2520
394.9000, 340.0703
396.0960, 272.9102
397.2920, 438.7715
398.4880, 325.6523
399.6840, 60.55664
400.8800, 224.4844
402.0750, 194.4336
403.2710, 39.59375
404.4660, 54.58398
405.6610, 46.45312
406.8560, 10.44922
408.0510, 60.67578
409.2450, 8.148438
410.4400, 260.0703
411.6340, 100.3105
412.8280, 102.5742
414.0220, 23.85742
415.2160, 53.83398
416.4100, 21.51172
417.6030, 112.1133
418.7970, 142.6934
419.9900, 24.21094
421.1830, 181.7012
422.3760, 147.1758
423.5690, 206.3809
424.7610, 178.9590
425.9540, 50.56445
427.1460, 118.1914
428.3380, 6.845703
429.5300, 112.5332
430.7220, 237.2578
431.9140, 13.00586
433.1050, 24.76172
434.2970, 476.5391
435.4880, 340.3379
436.6790, 388.1641
437.8700, 551.0078
439.0610, 515.8730
440.2510, 920.7168
441.4420, 938.3242
442.6320, 1273.371
443.8220, 1262.807
445.0120, 1270.680
446.2020, 1600.594
447.3910, 2206.531
448.5810, 2187.492
449.7700, 2771.477
450.9600, 3129.008
452.1490, 3701.035
453.3370, 4441.080
454.5260, 5246.148
455.7150, 5558.236
456.9030, 6522.344
458.0910, 7556.475
459.2800, 8984.623
460.4670, 10475.79
461.6550, 12829.97
462.8430, 16210.14
464.0300, 20367.33
465.2180, 25768.52
466.4050, 32332.71
467.5920, 38632.91
468.7790, 44504.12
469.9650, 46428.35
471.1520, 45883.57
472.3380, 40953.81
473.5250, 34296.07
474.7110, 27422.35
475.8970, 21820.64
477.0820, 17117.94
478.2680, 13781.25
479.4540, 10963.58
480.6390, 8661.914
481.8240, 7247.268
483.0090, 5944.633
484.1940, 4804.016
485.3780, 4000.412
486.5630, 3430.824
487.7470, 2850.258
488.9320, 2553.711
490.1160, 2315.186
491.3000, 2066.684
492.4830, 2072.410
493.6670, 1674.949
494.8500, 1629.508
496.0340, 1392.094
497.2170, 1237.705
498.4000, 1083.346
499.5820, 1103.010
500.7650, 1003.699
501.9480, 1133.430
503.1300, 863.1816
504.3120, 783.9551
505.4940, 911.7734
506.6760, 833.6191
507.8580, 713.4961
509.0390, 706.4258
510.2210, 726.3867
511.4020, 527.3750
512.5830, 568.4121
513.7640, 540.4766
514.9450, 773.5703
516.1250, 626.7051
517.3060, 755.8633
518.4860, 698.0957
519.6660, 471.3809
520.8460, 688.6855
522.0260, 658.0215
523.2060, 434.3730
524.3850, 546.7480
525.5650, 539.1426
526.7440, 466.5527
527.9230, 736.9844
529.1020, 684.4336
530.2810, 619.9043
531.4590, 732.7266
532.6380, 746.2305
533.8160, 585.1504
534.9940, 402.7617
536.1720, 810.3086
537.3500, 565.8867
538.5270, 607.4609
539.7050, 533.0508
540.8820, 647.0547
542.0590, 531.4688
543.2360, 404.5312
544.4130, 709.5371
545.5900, 675.9121
546.7660, 531.7305
547.9430, 593.7617
549.1190, 580.7129
550.2950, 472.4785
551.4710, 457.6016
552.6470, 393.4414
553.8220, 574.6465
554.9980, 380.4434
556.1730, 470.3418
557.3480, 535.1484
558.5230, 499.2363
559.6980, 588.8789
560.8730, 514.0801
562.0470, 432.4863
563.2220, 367.1992
564.3960, 321.9336
565.5700, 345.8418
566.7440, 484.0879
567.9170, 325.0078
569.0910, 421.9297
570.2640, 465.1777
571.4380, 371.7012
572.6110, 531.7109
573.7840, 378.6562
574.9570, 271.6074
576.1290, 327.5586
577.3020, 252.0859
578.4740, 206.3242
579.6460, 233.2637
580.8180, 175.5879
581.9900, 160.5566
583.1620, 308.6406
584.3330, 425.1758
585.5040, 31.15430
586.6760, 467.0938
587.8470, 145.6406
589.0180, 151.0332
590.1880, 192.2793
591.3590, 20.73438
592.5290, 161.2500
593.7000, 219.8945
594.8700, 487.2266
596.0400, 318.3066
597.2090, 486.3242
598.3790, 85.34180
599.5490, 492.3789
600.7180, 304.0898
601.8870, 90.12500
603.0560, 280.1621
604.2250, 27.30273
605.3940, 131.3379
606.5620, 110.3691
607.7300, 151.4023
608.8990, 386.4844
610.0670, 389.5469
611.2350, 385.6094
612.4020, 239.9668
613.5700, 251.9121
614.7370, 346.9902
615.9050, 352.0645
617.0720, 170.1348
618.2390, 31.20508
619.4060, 189.2734
620.5720, 192.3340
621.7390, 261.3926
622.9050, 250.4453
624.0710, 125.4980
625.2370, 146.8535
626.4030, 137.9453
627.5690, 101.8555
628.7340, 137.2480
629.9000, 210.9805
631.0650, 118.8105
632.2300, 0.8222660
633.3950, 104.9160
634.5600, 211.9141
635.7240, 95.90430
636.8890, 247.8848
638.0530, 374.0293
639.2170, 202.0137
640.3810, 181.7695
641.5450, 267.4746
642.7080, 290.0684
643.8720, 260.4883
645.0350, 291.0234
646.1980, 195.0684
647.3610, 268.9668
648.5240, 237.9004
649.6870, 208.8730
650.8490, 365.9668
652.0120, 302.2539
653.1740, 532.8008
654.3360, 374.8691
655.4980, 345.2734
656.6600, 179.6074
657.8210, 338.2051
658.9830, 189.2617
660.1440, 154.1191
661.3050, 337.8672
662.4660, 235.6621
663.6270, 402.6484
664.7870, 457.8535
665.9480, 358.1914
667.1080, 241.7012
668.2680, 207.2480
669.4280, 195.7168
670.5880, 28.19336
671.7480, 194.4141
672.9070, 17.36328
674.0670, 96.29297
675.2260, 198.8438
676.3850, 114.5859
677.5440, 259.2812
678.7030, 187.7793
679.8610, 37.54492
681.0200, 9.091797
682.1780, 37.49805
683.3360, 61.02734
684.4940, 69.47656
685.6520, 17.81250
686.8090, 129.6621
687.9670, 17.46680
689.1240, 76.30664
690.2810, 67.22266
691.4380, 134.4121
692.5950, 51.99805
693.7520, 187.5332
694.9080, 142.2676
696.0650, 57.97852
697.2210, 8.730469
698.3770, 102.6953
699.5330, 213.6387
700.6880, 17.99609
701.8440, 45.40039
702.9990, 80.43555
704.1550, 228.0723
705.3100, 96.56055
706.4650, 300.0215
707.6190, 188.4609
708.7740, 30.09766
709.9290, 5.617188
711.0830, 166.6094
712.2370, 202.3477
713.3910, 219.9023
714.5450, 247.1055
715.6980, 52.35938
716.8520, 197.5449
718.0050, 129.7051
719.1580, 106.0410
720.3110, 383.1465
721.4640, 167.2285
722.6170, 62.77930
723.7700, 203.8438
724.9220, 30.15820
726.0740, 64.77930
727.2260, 104.4004
728.3780, 140.4805
729.5300, 209.5312
730.6810, 307.8184
731.8330, 453.9102
732.9840, 271.3027
734.1350, 189.1543
735.2860, 364.6289
736.4370, 375.9629
737.5880, 236.4805
738.7380, 58.52344
739.8880, 237.6816
741.0390, 342.8262
742.1890, 198.3594
743.3380, 573.9785
744.4880, 317.4512
745.6380, 455.7754
746.7870, 216.9863
747.9360, 420.5449
749.0850, 284.3066
750.2340, 174.2871
751.3830, 31.87891
752.5310, 280.0312
753.6800, 418.6445
754.8280, 339.8184
755.9760, 470.3359
757.1240, 479.9121
758.2720, 427.9922
759.4190, 504.0879
760.5670, 436.0625
761.7140, 314.9688
762.8610, 344.3105
764.0080, 264.2500
765.1550, 200.6211
766.3020, 170.6465
767.4480, 88.66406
768.5950, 65.47656
769.7410, 263.2500
770.8870, 238.7812
772.0330, 340.4902
773.1780, 411.1660
774.3240, 339.8105
775.4690, 14.42188
776.6140, 260.9824
777.7590, 22.51562
778.9040, 28.00195
780.0490, 111.4102
781.1940, 256.7871
782.3380, 233.1328
783.4820, 262.4434
784.6260, 281.7188
785.7700, 261.9316
786.9140, 250.4199
788.0580, 219.3457
789.2010, 171.4883
790.3450, 107.5977
791.4880, 38.66992
792.6310, 25.29883
793.7730, 151.6641
794.9160, 22.58984
796.0590, 213.4648
797.2010, 257.3047
798.3430, 411.1055
799.4850, 267.8789
800.6270, 218.6113
801.7690, 163.3145
802.9100, 128.9766
804.0520, 84.60156
805.1930, 72.09375
806.3340, 88.80859
807.4750, 84.02344
808.6160, 140.1484
809.7560, 202.7715
810.8970, 202.7559
812.0370, 384.0273
813.1770, 240.3438
814.3170, 247.7422
815.4570, 360.1113
816.5960, 38.04297
817.7360, 14.34961
818.8750, 62.27930
820.0140, 3.732422
821.1530, 270.9258
822.2920, 55.51367
823.4310, 33.58984
824.5690, 445.1523
825.7070, 323.2012
826.8460, 368.1289
827.9840, 124.4141
829.1220, 131.7852
830.2590, 139.5625
831.3970, 48.68945
832.5340, 133.4395
833.6710, 32.40430
834.8080, 94.86133
835.9450, 194.7168
837.0820, 273.2168
838.2190, 349.6855
839.3550, 153.4883
840.4910, 389.0352
841.6270, 379.9180
842.7630, 290.8418
843.8990, 557.4023
845.0350, 238.3496
846.1700, 213.5645
847.3060, 23.75000
848.4410, 134.8691
849.5760, 173.0762
850.7100, 356.1074
851.8450, 536.1055
852.9800, 292.5039
854.1140, 274.4375
855.2480, 195.0879
856.3820, 263.1699
857.5160, 270.6699
858.6500, 126.5762
859.7830, 236.0352
860.9170, 282.7871
862.0500, 319.5605
863.1830, 72.69922
864.3160, 194.9590
865.4480, 195.3320
866.5810, 320.9316
867.7130, 173.5039
868.8460, 20.95703
869.9780, 4.462891
871.1100, 73.08984
872.2410, 89.59570
873.3730, 59.19336
874.5050, 148.1074
875.6360, 112.0820
876.7670, 109.3320
877.8980, 317.5605
879.0290, 220.6543
880.1590, 350.8262
881.2900, 38.96680
882.4200, 59.07227
883.5500, 114.1992
884.6800, 154.5137
885.8100, 74.54102
886.9400, 123.8848
888.0690, 85.71094
889.1990, 150.7285
890.3280, 322.5332
891.4570, 159.3379
892.5860, 138.3340
893.7140, 351.0762
894.8430, 239.2109
895.9710, 246.0879
897.1000, 46.95508
898.2280, 160.7852
899.3560, 294.1328
900.4830, 80.59570
901.6110, 236.2305
902.7380, 445.9492
903.8660, 603.4082
904.9930, 534.0781
906.1200, 664.6543
907.2460, 548.0879
908.3730, 772.7461
909.5000, 633.2695
910.6260, 717.6055
911.7520, 811.5527
912.8780, 812.6445
914.0040, 893.1836
915.1290, 972.4531
916.2550, 1093.316
917.3800, 1109.467
918.5050, 1351.486
919.6300, 1299.605
920.7550, 1283.736
921.8800, 1401.789
923.0040, 1326.076
924.1290, 1163.557
925.2530, 1508.805
926.3770, 1149.334
927.5010, 1229.910
928.6250, 1040.293
929.7480, 1087.740
930.8720, 883.8828
931.9950, 821.5742
933.1180, 994.4531
934.2410, 706.3984
935.3640, 617.2598
936.4860, 693.0488
937.6090, 348.4062
938.7310, 321.5801
939.8530, 450.8711
940.9750, 115.7363
942.0970, 209.6406
943.2180, 515.4961
944.3400, 211.5566
945.4610, 481.8398
946.5820, 574.0938
947.7030, 260.6758
948.8240, 229.0117
949.9450, 232.3398
951.0650, 110.0547
952.1860, 106.8848
953.3060, 111.1914
954.4260, 17.41992
955.5460, 300.9473
956.6650, 237.8242
957.7850, 143.9062
958.9040, 290.1641
960.0230, 124.4688
961.1420, 227.7070
962.2610, 285.9492
963.3800, 93.11914
964.4990, 143.2773
965.6170, 4.064453
966.7350, 114.6582
967.8530, 84.08984
968.9710, 259.6602
970.0890, 146.9629
971.2070, 227.8086
972.3240, 271.0195
973.4410, 374.6309
974.5580, 349.0293
975.6750, 124.9062
976.7920, 274.1211
977.9090, 188.5176
979.0250, 89.90625
980.1410, 89.65820
981.2580, 213.5352
982.3740, 252.8125
983.4890, 240.7090
984.6050, 289.3477
985.7200, 320.0332
986.8360, 324.6816
987.9510, 288.2969
989.0660, 285.7324
990.1810, 145.0625
991.2950, 125.6406
992.4100, 233.4395
993.5240, 228.2012
994.6390, 340.9062
995.7530, 605.9785
996.8660, 568.8320
997.9800, 810.3984
999.0940, 929.4277
1000.207, 879.5215
1001.320, 729.5293
1002.433, 678.7832
1003.546, 690.5137
1004.659, 326.9023
1005.772, 222.4023
1006.884, 90.31055
1007.996, 441.0000
1009.108, 209.8887
1010.220, 419.2031
1011.332, 324.3145
1012.444, 318.6328
1013.555, 362.7227
1014.666, 417.3535
1015.777, 571.7695
1016.888, 139.6680
1017.999, 129.0234
1019.110, 67.58789
1020.220, 105.8574
1021.331, 108.1895
1022.441, 24.94141
1023.551, 340.2832
1024.661, 328.5957
1025.770, 264.3320
1026.880, 543.9727
1027.989, 218.0234
1029.098, 273.4551
1030.207, 31.07617
1031.316, 32.38867
1032.425, 145.4668
1033.533, 113.1562
1034.642, 11.57227
1035.750, 206.0586
1036.858, 179.2031
1037.966, 375.1719
1039.073, 312.2676
1040.181, 319.5234
1041.288, 281.0957
1042.396, 308.3164
1043.503, 543.3047
1044.610, 153.9883
1045.716, 150.2773
1046.823, 331.7949
1047.929, 163.7070
1049.036, 48.66211
1050.142, 416.9102
1051.248, 409.2637
1052.353, 543.0508
1053.459, 480.8438
1054.564, 477.9102
1055.670, 293.6016
1056.775, 209.9863
1057.880, 221.8125
1058.985, 85.52930
1060.089, 179.6387
1061.194, 161.2793
1062.298, 643.9863
1063.402, 524.0488
1064.506, 734.5605
1065.610, 593.6816
1066.713, 505.8320
1067.817, 558.7773
1068.920, 381.8828
1070.023, 531.0898
1071.126, 429.5840
1072.229, 345.4922
1073.332, 1297.375
1074.435, 1194.906
1075.537, 1200.029
1076.639, 1286.086
1077.741, 995.5547
1078.843, 889.2910
1079.945, 632.2852
1081.046, 448.0215
1082.148, 609.5117
1083.249, 385.2656
1084.350, 280.8672
1085.451, 530.4434
1086.551, 583.7363
1087.652, 169.6191
1088.752, 283.0547
1089.853, 261.4961
1090.953, 403.2520
1092.053, 442.8340
1093.152, 550.7812
1094.252, 458.5000
1095.351, 324.5410
1096.451, 326.8691
1097.550, 176.2461
1098.649, 344.6250
1099.748, 237.2988
1100.846, 143.0254
1101.945, 226.0625
1103.043, 441.2090
1104.141, 432.0469
1105.239, 337.4238
1106.337, 405.7695
1107.434, 396.1406
1108.532, 421.9883
1109.629, 371.4082
1110.726, 364.7188
1111.823, 262.7422
1112.920, 204.6914
1114.017, 393.0664
1115.113, 347.3965
1116.210, 438.6738
1117.306, 579.4043
1118.402, 537.2637
1119.498, 537.5156
1120.593, 285.6270
1121.689, 612.7441
1122.784, 234.0586
1123.879, 410.1758
1124.974, 291.6523
1126.069, 157.0195
1127.164, 2.480469
1128.259, 126.7383
1129.353, 492.9590
1130.447, 495.6523
1131.541, 635.2090
1132.635, 261.5508
1133.729, 391.1523
1134.822, 427.6426
1135.916, 143.0332
1137.009, 190.3125
1138.102, 121.2227
1139.195, 12.53711
1140.288, 27.13672
1141.380, 239.1699
1142.473, 17.96680
1143.565, 128.7461
1144.657, 382.0156
1145.749, 274.9668
1146.841, 126.7090
1147.932, 240.1680
1149.024, 270.7461
1150.115, 153.4199
1151.206, 153.3750
1152.297, 21.72266
1153.388, 81.14062
1154.479, 158.8789
1155.569, 77.76172
1156.659, 102.6328
1157.750, 279.6406
1158.839, 519.3574
1159.929, 166.0352
1161.019, 354.2363
1162.108, 213.6445
1163.198, 4.078125
1164.287, 109.5293
1165.376, 54.88086
1166.465, 71.31250
1167.553, 154.1328
1168.642, 172.3047
1169.730, 2.154297
1170.818, 316.0156
1171.906, 226.6973
1172.994, 112.3379
1174.082, 336.9492
1175.170, 162.2285
1176.257, 236.8164
1177.344, 2.199219
1178.431, 24.14062
1179.518, 37.80078
1180.605, 64.55664
1181.691, 51.02344
1182.778, 5.687500
1183.864, 91.49609
1184.950, 173.6504
1186.036, 245.3398
1187.122, 119.5410
1188.207, 57.30469
1189.292, 68.79492
1190.378, 126.0605
1191.463, 168.7363
1192.548, 52.31641
1193.632, 57.19336
1194.717, 160.4922
1195.801, 98.39453
1196.886, 228.4238
1197.970, 28.32617
1199.054, 223.7871
1200.137, 191.4883
1201.221, 354.0859
1202.305, 248.5898
1203.388, 247.0078
1204.471, 18.34766
1205.554, 59.61523
1206.637, 106.7383
1207.719, 451.6992
1208.802, 93.61133
1209.884, 409.8164
1210.966, 460.5527
1212.048, 238.5312
1213.130, 405.3105
1214.212, 639.4297
1215.293, 625.6953
1216.374, 376.2012
1217.456, 290.1602
1218.536, 233.6016
1219.617, 207.3184
1220.698, 259.8848
1221.778, 194.6113
1222.859, 197.1426
1223.939, 64.82227
1225.019, 266.2891
1226.099, 249.4648
1227.178, 516.1191
1228.258, 363.9043
1229.337, 400.8887
1230.417, 342.9336
1231.496, 212.6543
1232.574, 509.3750
1233.653, 402.8320
1234.732, 5.875000
1235.810, 527.8047
1236.888, 269.0098
1237.966, 465.7422
1239.044, 454.9336
1240.122, 362.8535
1241.199, 764.6465
1242.277, 727.4688
1243.354, 573.7090
1244.431, 346.6172
1245.508, 586.7559
1246.585, 449.8809
1247.661, 403.9023
1248.738, 292.7246
1249.814, 744.3867
1250.890, 518.2715
1251.966, 555.1855
1253.042, 646.9746
1254.117, 594.0820
1255.193, 811.9824
1256.268, 715.6113
1257.343, 576.8438
1258.418, 481.6016
1259.493, 266.9648
1260.567, 272.6992
1261.642, 302.2812
1262.716, 491.9941
1263.790, 475.2070
1264.864, 446.2422
1265.938, 545.5371
1267.011, 496.4590
1268.085, 430.6914
1269.158, 374.9473
1270.231, 261.7988
1271.304, 188.5938
1272.377, 72.06836
1273.450, 34.82227
1274.522, 5.0781000E-02
1275.594, 130.0879
1276.666, 148.9434
1277.738, 51.76953
1278.810, 301.2715
1279.882, 151.7148
1280.953, 507.2559
1282.025, 377.6367
1283.096, 294.0059
1284.167, 157.1875
1285.238, 345.5020
1286.308, 133.8125
1287.379, 202.1836
1288.449, 318.7891
1289.519, 215.0723
1290.589, 400.6895
1291.659, 518.1250
1292.729, 495.2969
1293.798, 812.1445
1294.868, 457.2676
1295.937, 675.2305
1297.006, 467.2656
1298.075, 398.9160
1299.143, 331.3262
1300.212, 140.4824
1301.280, 318.2988
1302.348, 300.1289
1303.416, 128.0156
1304.484, 353.8242
1305.552, 412.0137
1306.620, 434.5488
1307.687, 468.8008
1308.754, 468.1426
1309.821, 352.8105
1310.888, 359.2168
1311.955, 230.5332
1313.021, 15.79883
1314.088, 326.8379
1315.154, 414.4004
1316.220, 131.5684
1317.286, 115.1172
1318.352, 213.0625
1319.417, 365.8320
1320.483, 0.9902340
1321.548, 0.0000000E+00
##END=



