##NAMES=Covellite
##RRUFFID=R060143
##IDEAL CHEMISTRY=Cu^1+^S
##LOCALITY=Butte, Montana, USA
##OWNER=RRUFF
##SOURCE=Marcus Origlieri
##DESCRIPTION=Irridescent blue to purple hexagonal plates
##STATUS=The identification of this mineral has been confirmed by X-ray diffraction and chemical analysis
##URL=rruff.info/R060143
##MEASURED CHEMISTRY=Cu_1.00_S_1.00_
##PIN_ID=L00879
##ORIENTATION=Laser parallel to c* (0 0 1). Fiducial mark perpendicular to laser is parallel to b [0 1 0]
164.8110, 0.0000000E+00
166.0360, 73.45020
167.2610, 7.841797
168.4860, 1.758789
169.7110, 191.4082
170.9360, 300.4531
172.1610, 151.3818
173.3850, 34.77832
174.6100, 123.9443
175.8340, 141.6318
177.0580, 150.3428
178.2820, 209.3916
179.5050, 237.8096
180.7290, 282.9775
181.9520, 307.4385
183.1760, 305.6865
184.3990, 487.1777
185.6220, 617.0166
186.8450, 612.6689
188.0670, 771.6475
189.2900, 774.9023
190.5120, 891.0098
191.7340, 1181.039
192.9560, 1189.898
194.1780, 1362.212
195.4000, 1513.535
196.6220, 1578.316
197.8430, 1469.303
199.0640, 1350.799
200.2860, 1489.275
201.5070, 1784.474
202.7270, 1615.409
203.9480, 1185.116
205.1690, 737.3584
206.3890, 414.7656
207.6090, 310.7334
208.8290, 250.8438
210.0490, 215.0869
211.2690, 234.4570
212.4890, 254.9463
213.7080, 262.5410
214.9280, 233.1641
216.1470, 74.99414
217.3660, 108.8389
218.5850, 63.72754
219.8030, 93.33301
221.0220, 2.344727
222.2400, 67.26270
223.4590, 56.11426
224.6770, 36.91699
225.8950, 1.333008
227.1120, 35.63477
228.3300, 42.88086
229.5480, 53.40723
230.7650, 50.87988
231.9820, 19.41504
233.1990, 2.011719
234.4160, 130.6738
235.6330, 17.59766
236.8490, 69.19629
238.0660, 57.11816
239.2820, 63.70996
240.4980, 71.65332
241.7140, 261.2021
242.9300, 232.8994
244.1460, 168.7344
245.3610, 356.6934
246.5770, 282.7646
247.7920, 432.9307
249.0070, 314.1826
250.2220, 437.5059
251.4370, 751.8848
252.6510, 931.3027
253.8660, 1023.742
255.0800, 1139.198
256.2940, 1501.666
257.5080, 2361.144
258.7220, 2226.549
259.9360, 2220.231
261.1490, 2338.551
262.3630, 1943.986
263.5760, 1906.356
264.7890, 1806.817
266.0020, 1801.763
267.2150, 1520.729
268.4270, 1645.576
269.6400, 1342.396
270.8520, 1320.211
272.0640, 991.0127
273.2760, 1066.807
274.4880, 901.6045
275.7000, 970.3672
276.9120, 946.1689
278.1230, 756.2881
279.3340, 748.4004
280.5450, 658.5332
281.7560, 671.5176
282.9670, 727.5586
284.1780, 742.6562
285.3880, 705.8125
286.5980, 784.0264
287.8090, 962.2979
289.0190, 731.6279
290.2290, 900.0176
291.4380, 890.4658
292.6480, 760.9746
293.8570, 873.5430
295.0670, 961.1738
296.2760, 972.8652
297.4850, 848.6191
298.6930, 833.4355
299.9020, 854.3135
301.1110, 936.2559
302.3190, 861.2637
303.5270, 915.3330
304.7350, 837.4688
305.9430, 931.6670
307.1510, 880.9297
308.3580, 728.2559
309.5660, 997.6455
310.7730, 746.0430
311.9800, 721.3027
313.1870, 648.4082
314.3940, 737.9277
315.6010, 590.9834
316.8070, 616.7988
318.0130, 777.3506
319.2200, 756.0234
320.4260, 785.9629
321.6310, 936.7402
322.8370, 1039.329
324.0430, 1146.911
325.2480, 1255.626
326.4540, 1317.606
327.6590, 1456.729
328.8640, 1582.605
330.0680, 1708.426
331.2730, 1726.095
332.4780, 1856.587
333.6820, 1987.907
334.8860, 1946.100
336.0900, 2275.949
337.2940, 2535.641
338.4980, 2554.948
339.7010, 2573.885
340.9050, 2504.609
342.1080, 2298.257
343.3110, 2171.852
344.5140, 1899.372
345.7170, 1788.837
346.9200, 1661.292
348.1220, 1501.661
349.3240, 1397.710
350.5270, 1218.492
351.7290, 1191.312
352.9310, 1104.779
354.1320, 1069.913
355.3340, 875.8574
356.5350, 811.0762
357.7370, 800.5723
358.9380, 591.2256
360.1390, 688.7539
361.3400, 535.8896
362.5400, 502.4248
363.7410, 548.3145
364.9410, 329.0410
366.1410, 176.7217
367.3410, 420.5674
368.5410, 403.3477
369.7410, 378.5674
370.9400, 297.4189
372.1400, 232.8857
373.3390, 188.6592
374.5380, 197.7510
375.7370, 227.9346
376.9360, 139.6904
378.1350, 214.9355
379.3330, 159.2090
380.5310, 56.65625
381.7300, 94.60156
382.9280, 81.54004
384.1260, 196.7246
385.3230, 102.9648
386.5210, 56.24512
387.7180, 36.46973
388.9160, 85.51172
390.1130, 67.23145
391.3100, 108.8447
392.5060, 84.34180
393.7030, 7.533203
394.9000, 23.54102
396.0960, 43.44043
397.2920, 280.4570
398.4880, 342.5068
399.6840, 438.5908
400.8800, 447.7109
402.0750, 714.8643
403.2710, 1085.082
404.4660, 1294.344
405.6610, 1848.667
406.8560, 2687.053
408.0510, 3752.498
409.2450, 5034.977
410.4400, 7165.491
411.6340, 8625.043
412.8280, 7442.634
414.0220, 4802.262
415.2160, 2829.942
416.4100, 1809.663
417.6030, 1089.453
418.7970, 773.3066
419.9900, 570.2246
421.1830, 531.2148
422.3760, 326.2529
423.5690, 149.3516
424.7610, 355.4902
425.9540, 244.6660
427.1460, 334.8975
428.3380, 324.1885
429.5300, 263.5420
430.7220, 302.9561
431.9140, 462.4365
433.1050, 421.9668
434.2970, 527.5430
435.4880, 400.1592
436.6790, 396.8213
437.8700, 551.5371
439.0610, 363.2949
440.2510, 385.1201
441.4420, 447.9971
442.6320, 547.9121
443.8220, 560.8613
445.0120, 698.8428
446.2020, 810.8564
447.3910, 1060.902
448.5810, 1370.979
449.7700, 1701.089
450.9600, 1954.229
452.1490, 2439.401
453.3370, 2857.605
454.5260, 3367.812
455.7150, 3990.023
456.9030, 4610.246
458.0910, 5161.484
459.2800, 6035.734
460.4670, 6897.996
461.6550, 7987.272
462.8430, 9582.567
464.0300, 11674.88
465.2180, 14494.21
466.4050, 18683.56
467.5920, 24074.92
468.7790, 31192.30
469.9650, 39176.71
471.1520, 45233.13
472.3380, 46509.57
473.5250, 42640.04
474.7110, 35390.52
475.8970, 27350.03
477.0820, 21208.56
478.2680, 15934.12
479.4540, 12507.70
480.6390, 9639.301
481.8240, 9053.932
483.0090, 8468.589
484.1940, 5228.279
485.3780, 4222.995
486.5630, 3465.743
487.7470, 3037.529
488.9320, 2674.004
490.1160, 2163.855
491.3000, 2117.738
492.4830, 1875.651
493.6670, 1637.596
494.8500, 1437.571
496.0340, 1302.585
497.2170, 1191.633
498.4000, 1086.718
499.5820, 1023.927
500.7650, 948.0879
501.9480, 837.2812
503.1300, 834.5088
504.3120, 612.8096
505.4940, 709.1475
506.6760, 628.5264
507.8580, 541.9795
509.0390, 597.4834
510.2210, 554.0518
511.4020, 466.6836
512.5830, 618.3701
513.7640, 532.1016
514.9450, 576.8701
516.1250, 529.6768
517.3060, 528.5186
518.4860, 439.4102
519.6660, 695.3379
520.8460, 519.3037
522.0260, 496.2979
523.2060, 593.3340
524.3850, 488.5205
525.5650, 459.7070
526.7440, 556.8525
527.9230, 474.1240
529.1020, 481.3242
530.2810, 806.0879
531.4590, 573.5752
532.6380, 578.8447
533.8160, 423.6260
534.9940, 338.4453
536.1720, 436.2939
537.3500, 386.6934
538.5270, 491.2871
539.7050, 475.9854
540.8820, 504.3516
542.0590, 427.9541
543.2360, 461.6270
544.4130, 349.3135
545.5900, 415.4385
546.7660, 457.4209
547.9430, 360.6191
549.1190, 408.2783
550.2950, 442.8301
551.4710, 432.6338
552.6470, 473.3311
553.8220, 384.1680
554.9980, 333.0186
556.1730, 304.0586
557.3480, 292.1182
558.5230, 367.1250
559.6980, 306.4785
560.8730, 273.6904
562.0470, 431.1885
563.2220, 365.9053
564.3960, 229.0088
565.5700, 302.6445
566.7440, 229.5664
567.9170, 336.3213
569.0910, 403.7002
570.2640, 254.3760
571.4380, 141.9375
572.6110, 288.7539
573.7840, 255.4951
574.9570, 213.6758
576.1290, 244.6494
577.3020, 231.9043
578.4740, 237.8613
579.6460, 248.4258
580.8180, 153.1748
581.9900, 289.8604
583.1620, 320.8008
584.3330, 245.7539
585.5040, 191.5752
586.6760, 187.3965
587.8470, 269.2236
589.0180, 293.0615
590.1880, 384.9707
591.3590, 371.8408
592.5290, 422.7930
593.7000, 420.4639
594.8700, 503.6602
596.0400, 369.5010
597.2090, 462.3906
598.3790, 389.2803
599.5490, 406.6973
600.7180, 384.0537
601.8870, 424.9443
603.0560, 404.3857
604.2250, 354.2646
605.3940, 422.2354
606.5620, 249.1084
607.7300, 167.9805
608.8990, 221.8486
610.0670, 207.7129
611.2350, 101.6279
612.4020, 156.1582
613.5700, 275.4316
614.7370, 111.2803
615.9050, 246.1240
617.0720, 110.9639
618.2390, 19.79785
619.4060, 112.6260
620.5720, 105.4502
621.7390, 28.26855
622.9050, 108.0820
624.0710, 20.88867
625.2370, 18.68945
626.4030, 47.48242
627.5690, 2.267578
628.7340, 27.85938
629.9000, 30.90430
631.0650, 5.879883
632.2300, 102.5176
633.3950, 49.25586
634.5600, 23.98633
635.7240, 75.13574
636.8890, 21.88965
638.0530, 95.59082
639.2170, 2.115234
640.3810, 155.7178
641.5450, 216.3887
642.7080, 107.0479
643.8720, 127.6963
645.0350, 97.33203
646.1980, 116.0117
647.3610, 133.9941
648.5240, 147.2246
649.6870, 164.8125
650.8490, 180.5303
652.0120, 153.0918
653.1740, 117.6387
654.3360, 70.17090
655.4980, 100.1221
656.6600, 145.6250
657.8210, 152.7881
658.9830, 163.4697
660.1440, 119.7148
661.3050, 144.1543
662.4660, 63.57812
663.6270, 22.98438
664.7870, 32.37305
665.9480, 152.7432
667.1080, 35.09570
668.2680, 98.42871
669.4280, 174.7441
670.5880, 63.04199
671.7480, 85.32617
672.9070, 12.59082
674.0670, 104.1670
675.2260, 40.00488
676.3850, 65.89355
677.5440, 23.15234
678.7030, 55.17676
679.8610, 40.17969
681.0200, 40.16211
682.1780, 29.61230
683.3360, 91.94043
684.4940, 2.086914
685.6520, 78.27051
686.8090, 80.53223
687.9670, 54.87207
689.1240, 94.72070
690.2810, 37.29102
691.4380, 67.83691
692.5950, 39.36133
693.7520, 40.86133
694.9080, 22.66504
696.0650, 34.75684
697.2210, 83.84863
698.3770, 56.54102
699.5330, 69.30664
700.6880, 88.93066
701.8440, 27.84668
702.9990, 65.08203
704.1550, 27.84473
705.3100, 62.73926
706.4650, 25.39258
707.6190, 50.58301
708.7740, 54.63574
709.9290, 52.18457
711.0830, 71.59863
712.2370, 6.096680
713.3910, 3.353516
714.5450, 27.75879
715.6980, 3.126953
716.8520, 23.49219
718.0050, 16.70801
719.1580, 83.07227
720.3110, 17.94629
721.4640, 32.12109
722.6170, 81.15234
723.7700, 165.3428
724.9220, 156.3252
726.0740, 176.1699
727.2260, 121.2246
728.3780, 104.1318
729.5300, 117.8711
730.6810, 98.31836
731.8330, 108.3008
732.9840, 99.48340
734.1350, 140.2617
735.2860, 139.7803
736.4370, 187.5088
737.5880, 177.2109
738.7380, 221.8867
739.8880, 136.5371
741.0390, 73.16211
742.1890, 181.7549
743.3380, 115.3223
744.4880, 144.8623
745.6380, 138.3770
746.7870, 245.8652
747.9360, 304.3281
749.0850, 123.7656
750.2340, 114.1758
751.3830, 300.5605
752.5310, 161.9180
753.6800, 157.2510
754.8280, 216.5576
755.9760, 260.8389
757.1240, 326.0947
758.2720, 413.3252
759.4190, 363.5391
760.5670, 239.7061
761.7140, 299.8604
762.8610, 220.9873
764.0080, 261.0889
765.1550, 210.1650
766.3020, 12.20801
767.4480, 183.5537
768.5950, 210.5264
769.7410, 102.4727
770.8870, 391.3945
772.0330, 413.2900
773.1780, 78.16016
774.3240, 116.0010
775.4690, 180.8174
776.6140, 41.60840
777.7590, 91.27734
778.9040, 310.0020
780.0490, 128.7021
781.1940, 393.3770
782.3380, 132.0283
783.4820, 106.6533
784.6260, 212.2549
785.7700, 259.8311
786.9140, 197.3828
788.0580, 87.91211
789.2010, 218.4160
790.3450, 319.8945
791.4880, 224.3506
792.6310, 71.78223
793.7730, 187.1855
794.9160, 2.435547
796.0590, 220.8877
797.2010, 151.1875
798.3430, 165.4629
799.4850, 194.7178
800.6270, 346.9473
801.7690, 396.0352
802.9100, 255.1309
804.0520, 478.2920
805.1930, 396.3369
806.3340, 343.4531
807.4750, 557.5488
808.6160, 613.6172
809.7560, 649.6680
810.8970, 657.9199
812.0370, 514.9727
813.1770, 528.4443
814.3170, 516.2041
815.4570, 453.9307
816.5960, 674.7637
817.7360, 559.5049
818.8750, 358.2207
820.0140, 561.8643
821.1530, 622.4941
822.2920, 457.6836
823.4310, 533.0146
824.5690, 488.1279
825.7070, 503.7793
826.8460, 437.5352
827.9840, 417.4688
829.1220, 326.6484
830.2590, 366.1152
831.3970, 361.5654
832.5340, 386.8232
833.6710, 336.0605
834.8080, 325.4072
835.9450, 385.2861
837.0820, 235.3633
838.2190, 339.1504
839.3550, 250.7168
840.4910, 303.8926
841.6270, 351.5342
842.7630, 515.8857
843.8990, 357.4033
845.0350, 484.2910
846.1700, 304.8799
847.3060, 346.5791
848.4410, 350.0195
849.5760, 264.5332
850.7100, 165.6025
851.8450, 329.8750
852.9800, 278.8604
854.1140, 239.1426
855.2480, 254.3320
856.3820, 74.29199
857.5160, 123.8320
858.6500, 47.11328
859.7830, 92.62305
860.9170, 92.74805
862.0500, 20.88477
863.1830, 16.52930
864.3160, 38.80664
865.4480, 50.93359
866.5810, 99.35156
867.7130, 8.450195
868.8460, 32.21777
869.9780, 51.96191
871.1100, 220.7500
872.2410, 9.433594
873.3730, 77.61426
874.5050, 117.7939
875.6360, 9.969727
876.7670, 74.13770
877.8980, 58.74805
879.0290, 34.91602
880.1590, 230.9883
881.2900, 72.15039
882.4200, 257.3125
883.5500, 66.47656
884.6800, 110.6377
885.8100, 150.7451
886.9400, 149.8135
888.0690, 140.9736
889.1990, 97.13379
890.3280, 6.294922
891.4570, 142.4551
892.5860, 167.6152
893.7140, 176.7754
894.8430, 89.93750
895.9710, 213.0996
897.1000, 324.2637
898.2280, 210.4287
899.3560, 185.5957
900.4830, 258.7656
901.6110, 284.9355
902.7380, 333.0137
903.8660, 488.1924
904.9930, 425.3740
906.1200, 318.4570
907.2460, 575.6514
908.3730, 505.8486
909.5000, 707.6211
910.6260, 838.7842
911.7520, 704.9932
912.8780, 732.6123
914.0040, 790.6865
915.1290, 909.9170
916.2550, 920.2627
917.3800, 1040.394
918.5050, 962.6396
919.6300, 1043.838
920.7550, 1003.096
921.8800, 1215.358
923.0040, 1145.629
924.1290, 1246.762
925.2530, 1185.045
926.3770, 1178.334
927.5010, 1179.631
928.6250, 1084.502
929.7480, 964.8125
930.8720, 869.4570
931.9950, 872.7832
933.1180, 680.1279
934.2410, 689.4814
935.3640, 596.8438
936.4860, 652.2139
937.6090, 488.6006
938.7310, 527.9961
939.8530, 514.4014
940.9750, 357.8154
942.0970, 401.2402
943.2180, 476.6748
944.3400, 435.1182
945.4610, 320.5732
946.5820, 493.0723
947.7030, 494.6152
948.8240, 361.1934
949.9450, 412.8076
951.0650, 431.4326
952.1860, 404.0693
953.3060, 338.7188
954.4260, 458.3877
955.5460, 452.0703
956.6650, 358.7959
957.7850, 391.5430
958.9040, 369.3301
960.0230, 404.1592
961.1420, 426.0244
962.2610, 436.6416
963.3800, 567.7920
964.4990, 503.6973
965.6170, 548.6162
966.7350, 507.5508
967.8530, 403.5137
968.9710, 523.4932
970.0890, 354.5195
971.2070, 464.5850
972.3240, 455.6904
973.4410, 287.8457
974.5580, 337.0332
975.6750, 272.8330
976.7920, 386.5332
977.9090, 252.8086
979.0250, 435.1299
980.1410, 501.4922
981.2580, 346.8965
982.3740, 491.3418
983.4890, 418.8330
984.6050, 405.3564
985.7200, 371.9053
986.8360, 355.0869
987.9510, 385.0781
989.0660, 274.6943
990.1810, 379.0127
991.2950, 439.7939
992.4100, 459.3770
993.5240, 314.2529
994.6390, 377.6826
995.7530, 360.0518
996.8660, 338.3516
997.9800, 435.5225
999.0940, 314.4424
1000.207, 408.3242
1001.320, 417.5293
1002.433, 466.2100
1003.546, 428.3330
1004.659, 417.9209
1005.772, 481.5723
1006.884, 509.8867
1007.996, 463.2422
1009.108, 195.7109
1010.220, 314.7910
1011.332, 79.88672
1012.444, 250.0049
1013.555, 274.1631
1014.666, 437.3438
1015.777, 341.5498
1016.888, 245.3105
1017.999, 245.5625
1019.110, 263.0703
1020.220, 244.6836
1021.331, 252.3760
1022.441, 248.0391
1023.551, 256.4248
1024.661, 187.8408
1025.770, 197.2656
1026.880, 130.7100
1027.989, 224.1738
1029.098, 209.6562
1030.207, 240.1582
1031.316, 78.67871
1032.425, 266.2188
1033.533, 154.7793
1034.642, 201.3574
1035.750, 196.9551
1036.858, 300.5869
1037.966, 269.2363
1039.073, 237.2744
1040.181, 146.9629
1041.288, 182.7920
1042.396, 297.4004
1043.503, 212.1504
1044.610, 247.9189
1045.716, 230.4277
1046.823, 102.2461
1047.929, 83.08398
1049.036, 388.9414
1050.142, 158.8184
1051.248, 411.7158
1052.353, 356.6328
1053.459, 259.5801
1054.564, 311.5459
1055.670, 406.5312
1056.775, 353.5371
1057.880, 445.5635
1058.985, 322.6074
1060.089, 423.6719
1061.194, 352.7559
1062.298, 338.8604
1063.402, 499.9834
1064.506, 408.1426
1065.610, 375.5664
1066.713, 341.7637
1067.817, 380.9795
1068.920, 327.9258
1070.023, 383.6475
1071.126, 293.9199
1072.229, 310.2100
1073.332, 341.5195
1074.435, 322.8584
1075.537, 334.2158
1076.639, 293.5918
1077.741, 272.9863
1078.843, 284.0205
1079.945, 342.4521
1081.046, 159.7939
1082.148, 450.2607
1083.249, 343.7432
1084.350, 198.2441
1085.451, 284.7627
1086.551, 366.0020
1087.652, 326.5547
1088.752, 371.0244
1089.853, 296.7090
1090.953, 331.3125
1092.053, 258.9316
1093.152, 175.5684
1094.252, 342.2207
1095.351, 382.8887
1096.451, 370.5732
1097.550, 312.2725
1098.649, 211.9902
1099.748, 171.7217
1100.846, 312.4688
1101.945, 362.2324
1103.043, 327.0127
1104.141, 363.8076
1105.239, 315.6172
1106.337, 421.4424
1107.434, 196.5244
1108.532, 234.3779
1109.629, 494.2461
1110.726, 253.2979
1111.823, 328.1943
1112.920, 326.4326
1114.017, 360.3564
1115.113, 404.2930
1116.210, 342.6621
1117.306, 345.6240
1118.402, 424.6016
1119.498, 557.1885
1120.593, 434.1904
1121.689, 412.2041
1122.784, 574.2305
1123.879, 585.2725
1124.974, 511.9326
1126.069, 575.3848
1127.164, 389.5752
1128.259, 307.6787
1129.353, 403.7959
1130.447, 247.9287
1131.541, 105.0713
1132.635, 208.2334
1133.729, 354.4072
1134.822, 200.5928
1135.916, 159.7939
1137.009, 134.0068
1138.102, 26.72070
1139.195, 8.441406
1140.288, 77.01270
1141.380, 241.5420
1142.473, 64.85156
1143.565, 232.1689
1144.657, 69.64941
1145.749, 8.591797
1146.841, 50.20215
1147.932, 27.18750
1149.024, 124.1289
1150.115, 14.54883
1151.206, 108.8447
1152.297, 183.2461
1153.388, 172.6553
1154.479, 158.1797
1155.569, 0.6035160
1156.659, 182.0342
1157.750, 212.4727
1158.839, 52.91797
1159.929, 170.3701
1161.019, 102.9062
1162.108, 186.3086
1163.198, 74.78711
1164.287, 76.27148
1165.376, 74.76758
1166.465, 121.2695
1167.553, 6.777344
1168.642, 65.29102
1169.730, 42.19043
1170.818, 41.32129
1171.906, 64.83984
1172.994, 122.3643
1174.082, 108.8936
1175.170, 219.4287
1176.257, 47.39258
1177.344, 51.13574
1178.431, 7.901367
1179.518, 108.6006
1180.605, 165.7236
1181.691, 181.9658
1182.778, 33.12793
1183.864, 99.20312
1184.950, 77.84473
1186.036, 53.37500
1187.122, 147.2148
1188.207, 22.35645
1189.292, 114.3242
1190.378, 100.8174
1191.463, 10.40039
1192.548, 80.98730
1193.632, 29.57617
1194.717, 74.16797
1195.801, 49.23633
1196.886, 110.3398
1197.970, 123.9199
1199.054, 118.5010
1200.137, 26.91406
1201.221, 37.66016
1202.305, 20.23828
1203.388, 73.81738
1204.471, 110.8779
1205.554, 29.45996
1206.637, 41.23340
1207.719, 89.70898
1208.802, 131.7852
1209.884, 215.7373
1210.966, 35.74023
1212.048, 10.76562
1213.130, 43.29297
1214.212, 70.80176
1215.293, 17.30957
1216.374, 30.18164
1217.456, 166.3135
1218.536, 86.80762
1219.617, 58.30273
1220.698, 81.79688
1221.778, 41.29199
1222.859, 28.78516
1223.939, 102.2793
1225.019, 66.77246
1226.099, 96.26562
1227.178, 38.75879
1228.258, 14.25098
1229.337, 74.74316
1230.417, 153.2344
1231.496, 99.72461
1232.574, 126.2139
1233.653, 188.8467
1234.732, 179.3330
1235.810, 124.8184
1236.888, 31.69824
1237.966, 147.7646
1239.044, 74.22461
1240.122, 45.31641
1241.199, 173.1113
1242.277, 4.538086
1243.354, 28.95996
1244.431, 108.3789
1245.508, 3.793945
1246.585, 89.20312
1247.661, 33.00488
1248.738, 1.409180
1249.814, 78.81348
1250.890, 97.21387
1251.966, 88.90137
1253.042, 21.00879
1254.117, 50.40137
1255.193, 94.79102
1256.268, 17.17773
1257.343, 126.5605
1258.418, 82.93848
1259.493, 169.3438
1260.567, 54.71582
1261.642, 163.0840
1262.716, 43.45020
1263.790, 240.8115
1264.864, 59.16992
1265.938, 103.5244
1267.011, 113.0352
1268.085, 116.8203
1269.158, 128.9395
1270.231, 18.08105
1271.304, 49.17383
1272.377, 75.19434
1273.450, 63.51953
1274.522, 10.41699
1275.594, 0.8935550
1276.666, 15.69922
1277.738, 87.61230
1278.810, 27.26465
1279.882, 79.69434
1280.953, 77.50195
1282.025, 81.65332
1283.096, 74.25391
1284.167, 67.76562
1285.238, 106.7744
1286.308, 46.78516
1287.379, 145.7939
1288.449, 42.79688
1289.519, 117.8652
1290.589, 106.1680
1291.659, 205.2832
1292.729, 113.2656
1293.798, 125.0498
1294.868, 154.0400
1295.937, 69.02344
1297.006, 141.0020
1298.075, 191.9775
1299.143, 302.5820
1300.212, 260.6494
1301.280, 57.66797
1302.348, 183.6240
1303.416, 69.57812
1304.484, 22.52539
1305.552, 192.7441
1306.620, 96.67285
1307.687, 161.5967
1308.754, 246.5146
1309.821, 32.42480
1310.888, 94.32520
1311.955, 6.781250
1313.021, 197.0850
1314.088, 32.94434
1315.154, 186.7920
1316.220, 142.6338
1317.286, 148.4668
1318.352, 49.29102
1319.417, 78.44531
1320.483, 139.9121
1321.548, 96.71289
1322.613, 130.5020
1323.678, 138.2803
1324.743, 256.8076
1325.807, 79.57227
1326.872, 166.3330
1327.936, 203.0869
1329.000, 114.6465
1330.064, 75.37695
1331.128, 317.1025
1332.191, 10.17969
1333.255, 262.5234
1334.318, 231.2188
1335.381, 208.9102
1336.444, 134.5938
1337.507, 174.6504
1338.569, 175.3232
