##NAMES=Covellite
##RRUFFID=R060306
##IDEAL CHEMISTRY=Cu^1+^S
##LOCALITY=3800' level, Leonard mine, Butte, Silver Bow County, Montana, USA
##OWNER=RRUFF
##SOURCE=Michael Scott
##DESCRIPTION=Blue iridescent metallic hexagonal plates
##STATUS=The identification of this mineral has been confirmed by X-ray diffraction and chemical analysis
##URL=rruff.info/R060306
##MEASURED CHEMISTRY=Cu_1.00_S_1.00_
##PIN_ID=M00169
##ORIENTATION=Laser parallel to -a* (-1 0 0). Fiducial mark perpendicular to laser is parallel to c [0 0 1]
52.67100, 0.0000000E+00
53.91000, 40.94019
55.14900, 88.13672
56.38700, 42.22723
57.62600, 0.4538570
58.86400, 4.680542
60.10300, 90.44629
61.34100, 91.49554
62.57900, 129.1951
63.81700, 71.12402
65.05400, 5.918396
66.29200, 64.73450
67.52900, 9.101135
68.76700, 91.59131
70.00400, 405.1490
71.24100, 591.4083
72.47700, 363.2278
73.71400, 283.4780
74.95100, 502.0421
76.18700, 754.8156
77.42300, 805.7064
78.65900, 787.6326
79.89500, 917.5225
81.13100, 1171.312
82.36700, 1624.944
83.60200, 2137.371
84.83700, 2275.544
86.07200, 2139.426
87.30800, 2136.982
88.54200, 2379.182
89.77700, 2653.004
91.01200, 3170.410
92.24600, 3683.359
93.48000, 3714.813
94.71400, 3769.742
95.94800, 3910.119
97.18200, 3743.921
98.41600, 3864.126
99.64900, 4095.719
100.8830, 4284.682
102.1160, 4210.997
103.3490, 4272.654
104.5820, 4534.639
105.8150, 5402.942
107.0470, 6634.554
108.2800, 9183.466
109.5120, 10500.67
110.7440, 7846.153
111.9760, 5935.917
113.2080, 5503.948
114.4400, 5640.244
115.6710, 5875.799
116.9030, 5586.604
118.1340, 5027.658
119.3650, 4505.966
120.5960, 4257.522
121.8270, 4110.336
123.0580, 4388.392
124.2880, 4358.711
125.5190, 4059.293
126.7490, 3868.142
127.9790, 4197.092
129.2090, 4490.114
130.4390, 4769.150
131.6680, 4971.318
132.8980, 5354.622
134.1270, 5816.972
135.3560, 6209.453
136.5850, 6904.029
137.8140, 7629.724
139.0430, 8218.512
140.2710, 7888.406
141.5000, 6703.429
142.7280, 5602.564
143.9560, 4656.803
145.1840, 3903.151
146.4120, 3617.606
147.6390, 3310.169
148.8670, 3001.844
150.0940, 2734.630
151.3210, 2931.529
152.5490, 2819.540
153.7750, 2623.667
155.0020, 2535.909
156.2290, 2358.266
157.4550, 2125.738
158.6810, 1983.327
159.9080, 1989.031
161.1340, 1878.850
162.3590, 1846.784
163.5850, 1944.834
164.8110, 2163.998
166.0360, 2108.277
167.2610, 2001.670
168.4860, 1867.176
169.7110, 1997.796
170.9360, 2124.529
172.1610, 1974.219
173.3850, 1958.168
174.6100, 1800.399
175.8340, 1733.578
177.0580, 1700.869
178.2820, 1707.269
179.5050, 1647.386
180.7290, 1697.398
181.9520, 1590.126
183.1760, 1702.962
184.3990, 1724.905
185.6220, 1834.941
186.8450, 1874.088
188.0670, 1865.364
189.2900, 1942.764
190.5120, 1852.322
191.7340, 1999.487
192.9560, 2149.141
194.1780, 2206.565
195.4000, 2158.811
196.6220, 2124.660
197.8430, 2180.782
199.0640, 2232.172
200.2860, 2356.876
201.5070, 2455.623
202.7270, 2409.028
203.9480, 2227.776
205.1690, 1590.421
206.3890, 1156.716
207.6090, 916.5981
208.8290, 815.6460
210.0490, 863.9214
211.2690, 752.8208
212.4890, 795.0288
213.7080, 741.4358
214.9280, 815.1201
216.1470, 657.5000
217.3660, 676.8184
218.5850, 625.1841
219.8030, 569.4851
221.0220, 549.5522
222.2400, 523.2678
223.4590, 528.0559
224.6770, 507.7983
225.8950, 526.8210
227.1120, 534.3911
228.3300, 554.3193
229.5480, 476.2549
230.7650, 483.7017
231.9820, 470.7864
233.1990, 481.9910
234.4160, 521.8052
235.6330, 532.2412
236.8490, 464.7893
238.0660, 520.4463
239.2820, 460.2104
240.4980, 506.0789
241.7140, 539.0500
242.9300, 504.1218
244.1460, 540.2927
245.3610, 670.5613
246.5770, 662.9255
247.7920, 652.3843
249.0070, 831.9360
250.2220, 930.5791
251.4370, 1137.313
252.6510, 1286.135
253.8660, 1436.045
255.0800, 1605.042
256.2940, 1797.125
257.5080, 2194.292
258.7220, 2447.195
259.9360, 2507.381
261.1490, 2590.282
262.3630, 2538.786
263.5760, 2511.360
264.7890, 2450.012
266.0020, 2336.459
267.2150, 2253.550
268.4270, 2038.432
269.6400, 1907.388
270.8520, 1672.419
272.0640, 1457.521
273.2760, 1258.696
274.4880, 1111.941
275.7000, 1032.258
276.9120, 959.6465
278.1230, 885.1055
279.3340, 695.6353
280.5450, 607.2354
281.7560, 517.9055
282.9670, 453.6458
284.1780, 401.4241
285.3880, 433.3340
286.5980, 356.2820
287.8090, 379.2983
289.0190, 430.3831
290.2290, 294.5352
291.4380, 316.7554
292.6480, 252.0432
293.8570, 207.3970
295.0670, 221.8181
296.2760, 188.3052
297.4850, 105.8584
298.6930, 179.4771
299.9020, 198.1609
301.1110, 212.9092
302.3190, 109.7224
303.5270, 91.59985
304.7350, 76.54053
305.9430, 90.54492
307.1510, 72.61182
308.3580, 32.74170
309.5660, 64.93335
310.7730, 84.18677
311.9800, 49.50220
313.1870, 6.878174
314.3940, 19.31494
315.6010, 36.18799
316.8070, 58.36450
318.0130, 27.97656
319.2200, 27.64795
320.4260, 26.37793
321.6310, 1.166504
322.8370, 35.98755
324.0430, 91.91162
325.2480, 4.131836
326.4540, 59.88062
327.6590, 22.04980
328.8640, 47.07275
330.0680, 11.26587
331.2730, 102.5100
332.4780, 45.18896
333.6820, 7.840088
334.8860, 2.441650
336.0900, 9.987305
337.2940, 13.48291
338.4980, 15.92114
339.7010, 38.31567
340.9050, 25.66040
342.1080, 9.962402
343.3110, 106.2214
344.5140, 15.46558
345.7170, 103.6372
346.9200, 75.74585
348.1220, 83.79395
349.3240, 14.78662
350.5270, 23.29663
351.7290, 8.533203
352.9310, 86.28516
354.1320, 132.9785
355.3340, 69.63745
356.5350, 17.24707
357.7370, 43.77490
358.9380, 5.760986
360.1390, 83.62671
361.3400, 24.04248
362.5400, 21.20264
363.7410, 41.36768
364.9410, 30.47217
366.1410, 5.519775
367.3410, 66.49658
368.5410, 7.418701
369.7410, 11.26709
370.9400, 106.9409
372.1400, 54.78931
373.3390, 4.521484
374.5380, 7.090576
375.7370, 16.36377
376.9360, 54.87866
378.1350, 6.545898
379.3330, 48.08350
380.5310, 21.77661
381.7300, 81.52881
382.9280, 105.3452
384.1260, 73.23315
385.3230, 137.1843
386.5210, 90.20801
387.7180, 104.2954
388.9160, 124.4458
390.1130, 101.2637
391.3100, 70.97461
392.5060, 108.3320
393.7030, 151.7510
394.9000, 197.2310
396.0960, 102.7651
397.2920, 205.3687
398.4880, 171.0303
399.6840, 107.7634
400.8800, 214.5640
402.0750, 173.4207
403.2710, 153.3315
404.4660, 169.2969
405.6610, 262.3140
406.8560, 137.3833
408.0510, 214.5029
409.2450, 214.6753
410.4400, 204.8994
411.6340, 135.1787
412.8280, 103.5073
414.0220, 187.8867
415.2160, 95.32129
416.4100, 108.8140
417.6030, 78.35352
418.7970, 50.94580
419.9900, 154.5854
421.1830, 177.2739
422.3760, 183.0093
423.5690, 152.7910
424.7610, 153.6206
425.9540, 227.4980
427.1460, 246.4199
428.3380, 153.3887
429.5300, 176.4043
430.7220, 274.4727
431.9140, 358.5845
433.1050, 396.7393
434.2970, 417.9365
435.4880, 458.1772
436.6790, 524.4604
437.8700, 596.7861
439.0610, 684.1523
440.2510, 790.5605
441.4420, 850.0117
442.6320, 1018.504
443.8220, 1220.037
445.0120, 1404.609
446.2020, 1656.220
447.3910, 1875.870
448.5810, 2207.818
449.7700, 2661.286
450.9600, 2999.050
452.1490, 3495.854
453.3370, 4087.693
454.5260, 4728.570
455.7150, 5478.483
456.9030, 6351.434
458.0910, 7388.418
459.2800, 8264.545
460.4670, 9458.603
461.6550, 10744.69
462.8430, 12684.82
464.0300, 15129.98
465.2180, 18494.16
466.4050, 22939.41
467.5920, 28973.68
468.7790, 37094.89
469.9650, 46542.21
471.1520, 55483.99
472.3380, 59637.80
473.5250, 57618.23
474.7110, 51271.01
475.8970, 41429.10
477.0820, 32486.79
478.2680, 25007.88
479.4540, 19413.50
480.6390, 15062.98
481.8240, 11859.52
483.0090, 9556.077
484.1940, 7705.947
485.3780, 6413.849
486.5630, 5430.676
487.7470, 4652.458
488.9320, 3938.968
490.1160, 3399.596
491.3000, 3025.406
492.4830, 2685.891
493.6670, 2337.272
494.8500, 2109.457
496.0340, 1934.464
497.2170, 1761.898
498.4000, 1582.737
499.5820, 1463.517
500.7650, 1292.600
501.9480, 1233.621
503.1300, 1119.621
504.3120, 1020.066
505.4940, 905.5427
506.6760, 908.5308
507.8580, 847.7661
509.0390, 773.0623
510.2210, 831.3428
511.4020, 796.2188
512.5830, 802.0029
513.7640, 790.3208
514.9450, 728.4502
516.1250, 710.0371
517.3060, 717.4470
518.4860, 679.1260
519.6660, 670.5593
520.8460, 709.7732
522.0260, 635.5791
523.2060, 655.2417
524.3850, 640.2712
525.5650, 594.1597
526.7440, 548.0947
527.9230, 544.4329
529.1020, 550.8601
530.2810, 529.1201
531.4590, 605.8081
532.6380, 600.8396
533.8160, 535.9844
534.9940, 532.2891
536.1720, 649.7058
537.3500, 616.6433
538.5270, 575.0996
539.7050, 615.0703
540.8820, 574.3113
542.0590, 595.6196
543.2360, 611.5098
544.4130, 575.9453
545.5900, 510.5747
546.7660, 532.6543
547.9430, 404.0205
549.1190, 526.8804
550.2950, 1204.394
551.4710, 505.9724
552.6470, 468.1323
553.8220, 1412.207
554.9980, 762.7148
556.1730, 360.2551
557.3480, 413.4429
558.5230, 294.3438
559.6980, 303.3650
560.8730, 335.5764
562.0470, 322.9785
563.2220, 309.0815
564.3960, 312.2034
565.5700, 225.6726
566.7440, 259.2734
567.9170, 243.1069
569.0910, 299.3901
570.2640, 228.0222
571.4380, 286.0371
572.6110, 202.9431
573.7840, 249.8491
574.9570, 161.6765
576.1290, 166.8235
577.3020, 121.8779
578.4740, 77.83105
579.6460, 135.6470
580.8180, 123.6443
581.9900, 106.0630
583.1620, 111.1260
584.3330, 129.9363
585.5040, 150.7927
586.6760, 146.3921
587.8470, 114.3882
589.0180, 143.1775
590.1880, 69.96094
591.3590, 63.84204
592.5290, 160.6128
593.7000, 93.37695
594.8700, 108.1338
596.0400, 165.8918
597.2090, 125.6421
598.3790, 121.3845
599.5490, 102.1189
600.7180, 101.8496
601.8870, 94.57129
603.0560, 155.2844
604.2250, 116.9880
605.3940, 79.68237
606.5620, 76.36743
607.7300, 162.0469
608.8990, 64.71680
610.0670, 168.3762
611.2350, 114.0249
612.4020, 30.33423
613.5700, 115.2649
614.7370, 42.85254
615.9050, 68.42505
617.0720, 40.99170
618.2390, 30.54370
619.4060, 45.07837
620.5720, 10.59814
621.7390, 44.09521
622.9050, 15.57812
624.0710, 91.04272
625.2370, 39.49756
626.4030, 115.9355
627.5690, 40.37695
628.7340, 44.19800
629.9000, 9.189453
631.0650, 23.56055
632.2300, 65.92065
633.3950, 6.733154
634.5600, 9.575195
635.7240, 20.14453
636.8890, 9.104980
638.0530, 51.34644
639.2170, 32.33081
640.3810, 82.85278
641.5450, 5.075195
642.7080, 32.29663
643.8720, 34.94141
645.0350, 49.59863
646.1980, 2.408203
647.3610, 44.54785
648.5240, 36.48535
649.6870, 34.39746
650.8490, 5.517334
652.0120, 86.36719
653.1740, 197.2480
654.3360, 119.8232
655.4980, 31.34668
656.6600, 0.1525880
657.8210, 78.60156
658.9830, 81.47021
660.1440, 101.1497
661.3050, 30.38818
662.4660, 89.09644
663.6270, 24.74463
664.7870, 13.11548
665.9480, 30.55884
667.1080, 19.45654
668.2680, 16.94653
669.4280, 22.61401
670.5880, 54.97266
671.7480, 4.296631
672.9070, 28.52222
674.0670, 23.71240
675.2260, 20.86572
676.3850, 93.06104
677.5440, 16.61499
678.7030, 38.41968
679.8610, 28.30469
681.0200, 13.06665
682.1780, 47.07886
683.3360, 70.92896
684.4940, 60.74902
685.6520, 96.94360
686.8090, 77.38794
687.9670, 121.2463
689.1240, 69.99048
690.2810, 66.66895
691.4380, 40.31641
692.5950, 102.9275
693.7520, 72.51172
694.9080, 29.06592
696.0650, 12.81299
697.2210, 127.2979
698.3770, 50.18677
699.5330, 99.92456
700.6880, 86.57886
701.8440, 113.7319
702.9990, 112.0554
704.1550, 84.49854
705.3100, 76.76367
706.4650, 182.9971
707.6190, 99.83960
708.7740, 76.38989
709.9290, 23.53687
711.0830, 142.6470
712.2370, 142.7244
713.3910, 170.7759
714.5450, 111.8022
715.6980, 122.8000
716.8520, 134.7715
718.0050, 189.7190
719.1580, 131.0176
720.3110, 92.62695
721.4640, 123.4888
722.6170, 183.3230
723.7700, 155.1318
724.9220, 185.9148
726.0740, 212.6724
727.2260, 175.4048
728.3780, 217.1118
729.5300, 143.7937
730.6810, 169.2483
731.8330, 217.0793
732.9840, 214.6846
734.1350, 226.0354
735.2860, 315.5901
736.4370, 290.1187
737.5880, 349.6226
738.7380, 340.1011
739.8880, 342.5542
741.0390, 363.4961
742.1890, 350.4148
743.3380, 349.7622
744.4880, 347.1147
745.6380, 335.7158
746.7870, 287.7437
747.9360, 300.0166
749.0850, 284.2683
750.2340, 229.4951
751.3830, 225.2852
752.5310, 271.4624
753.6800, 253.2939
754.8280, 285.4211
755.9760, 284.4565
757.1240, 203.5762
758.2720, 256.3008
759.4190, 248.0544
760.5670, 180.6833
761.7140, 218.5378
762.8610, 163.4958
764.0080, 213.9177
765.1550, 273.8279
766.3020, 171.1948
767.4480, 174.4958
768.5950, 230.8120
769.7410, 179.6138
770.8870, 194.6135
772.0330, 170.5835
773.1780, 166.7332
774.3240, 167.1709
775.4690, 162.2129
776.6140, 116.4695
777.7590, 141.0618
778.9040, 121.6692
780.0490, 69.34937
781.1940, 83.81079
782.3380, 76.07397
783.4820, 78.43604
784.6260, 137.5227
785.7700, 144.2825
786.9140, 131.8015
788.0580, 69.23047
789.2010, 124.6104
790.3450, 94.94336
791.4880, 37.66699
792.6310, 98.67041
793.7730, 43.67212
794.9160, 86.46313
796.0590, 61.46924
797.2010, 138.4875
798.3430, 26.69385
799.4850, 69.56470
800.6270, 77.57520
801.7690, 9.783691
802.9100, 52.98901
804.0520, 22.71143
805.1930, 2.975098
806.3340, 34.24146
807.4750, 57.62085
808.6160, 79.56763
809.7560, 155.1672
810.8970, 96.05347
812.0370, 104.8450
813.1770, 39.16821
814.3170, 19.84399
815.4570, 86.99438
816.5960, 10.62524
817.7360, 3.979492
818.8750, 70.74146
820.0140, 74.93188
821.1530, 42.05396
822.2920, 15.97583
823.4310, 62.44067
824.5690, 6.612305
825.7070, 24.28271
826.8460, 33.29321
827.9840, 37.23096
829.1220, 39.58081
830.2590, 55.00854
831.3970, 44.20972
832.5340, 30.05884
833.6710, 15.22656
834.8080, 14.20972
835.9450, 49.77686
837.0820, 33.55273
838.2190, 42.60303
839.3550, 22.76685
840.4910, 5.960449
841.6270, 12.95557
842.7630, 59.73096
843.8990, 46.26343
845.0350, 2.337646
846.1700, 43.05273
847.3060, 0.3752440
848.4410, 49.79688
849.5760, 28.20801
850.7100, 78.68799
851.8450, 26.83789
852.9800, 79.07031
854.1140, 1.393311
855.2480, 45.15796
856.3820, 30.90723
857.5160, 59.90771
858.6500, 57.06665
859.7830, 20.46777
860.9170, 91.81152
862.0500, 81.19971
863.1830, 85.58179
864.3160, 62.95776
865.4480, 101.3281
866.5810, 49.58911
867.7130, 40.94849
868.8460, 64.30225
869.9780, 59.34863
871.1100, 73.97925
872.2410, 11.30273
873.3730, 63.62109
874.5050, 53.93555
875.6360, 31.24536
876.7670, 62.55151
877.8980, 112.8538
879.0290, 26.15259
880.1590, 144.4480
881.2900, 64.74023
882.4200, 65.02930
883.5500, 119.3157
884.6800, 116.5994
885.8100, 166.8809
886.9400, 100.1602
888.0690, 142.4526
889.1990, 125.7432
890.3280, 137.0352
891.4570, 203.3252
892.5860, 100.6165
893.7140, 235.9094
894.8430, 140.2029
895.9710, 236.5024
897.1000, 232.8027
898.2280, 220.1082
899.3560, 220.4133
900.4830, 316.7212
901.6110, 284.0283
902.7380, 346.3389
903.8660, 325.6694
904.9930, 466.0081
906.1200, 515.3521
907.2460, 555.6980
908.3730, 581.0559
909.5000, 699.4224
910.6260, 699.8047
911.7520, 654.1963
912.8780, 828.5012
914.0040, 866.9160
915.1290, 902.2849
916.2550, 988.2261
917.3800, 1056.375
918.5050, 1124.686
919.6300, 1191.974
920.7550, 1278.520
921.8800, 1250.078
923.0040, 1319.644
924.1290, 1512.983
925.2530, 1498.587
926.3770, 1443.148
927.5010, 1525.000
928.6250, 1478.594
929.7480, 1322.792
930.8720, 1253.406
931.9950, 1126.890
933.1180, 1108.561
934.2410, 1009.630
935.3640, 857.2227
936.4860, 817.8608
937.6090, 729.9849
938.7310, 702.5442
939.8530, 604.7712
940.9750, 610.5559
942.0970, 462.0520
943.2180, 446.7798
944.3400, 463.6094
945.4610, 425.4565
946.5820, 358.3179
947.7030, 317.1936
948.8240, 360.0039
949.9450, 265.6685
951.0650, 297.5906
952.1860, 200.2500
953.3060, 264.9121
954.4260, 241.4062
955.5460, 271.6333
956.6650, 252.6433
957.7850, 209.5776
958.9040, 202.6094
960.0230, 261.5288
961.1420, 222.5474
962.2610, 314.6133
963.3800, 304.6475
964.4990, 294.1382
965.6170, 275.8872
966.7350, 284.0020
967.8530, 165.9004
968.9710, 206.0356
970.0890, 181.7510
971.2070, 278.5967
972.3240, 228.5093
973.4410, 218.9053
974.5580, 222.1147
975.6750, 197.5254
976.7920, 241.4219
977.9090, 205.6685
979.0250, 268.9258
980.1410, 334.1904
981.2580, 342.4736
982.3740, 299.7695
983.4890, 374.0835
984.6050, 329.4077
985.7200, 350.7451
986.8360, 386.0942
987.9510, 368.4551
989.0660, 374.8242
990.1810, 358.8281
991.2950, 354.5059
992.4100, 374.9146
993.5240, 357.3892
994.6390, 372.9097
995.7530, 358.2529
996.8660, 392.7324
997.9800, 427.2241
999.0940, 443.7266
1000.207, 449.2476
1001.320, 506.7861
1002.433, 421.3359
1003.546, 472.8979
1004.659, 422.7007
1005.772, 355.2861
1006.884, 367.8833
1007.996, 375.4922
1009.108, 415.1133
1010.220, 303.7461
1011.332, 340.4116
1012.444, 270.0923
1013.555, 344.7852
1014.666, 350.5059
1015.777, 255.2393
1016.888, 325.9844
1017.999, 254.7417
1019.110, 301.5220
1020.220, 275.3140
1021.331, 308.1230
1022.441, 313.9429
1023.551, 307.0146
1024.661, 339.8594
1025.770, 319.7183
1026.880, 347.5913
1027.989, 303.4771
1029.098, 372.4233
1030.207, 338.3447
1031.316, 356.2793
1032.425, 373.2256
1033.533, 327.1841
1034.642, 269.1553
1035.750, 350.1387
1036.858, 343.1338
1037.966, 297.2056
1039.073, 378.2285
1040.181, 341.2632
1041.288, 348.3101
1042.396, 375.3691
1043.503, 353.4399
1044.610, 352.2158
1045.716, 390.6182
1046.823, 335.7256
1047.929, 343.8560
1049.036, 372.0859
1050.142, 289.6992
1051.248, 342.9282
1052.353, 275.1104
1053.459, 388.3042
1054.564, 476.6587
1055.670, 406.9375
1056.775, 316.1646
1057.880, 337.3667
1058.985, 339.6157
1060.089, 414.8760
1061.194, 479.8354
1062.298, 359.1328
1063.402, 362.6045
1064.506, 429.9248
1065.610, 323.2563
1066.713, 413.5977
1067.817, 336.9521
1068.920, 286.5615
1070.023, 298.9370
1071.126, 419.3296
1072.229, 407.7324
1073.332, 365.8672
1074.435, 331.2969
1075.537, 348.7373
1076.639, 359.1880
1077.741, 320.6479
1078.843, 373.3359
1079.945, 236.8145
1081.046, 358.3022
1082.148, 388.7998
1083.249, 293.3071
1084.350, 283.8237
1085.451, 315.3511
1086.551, 269.8882
1087.652, 251.4526
1088.752, 222.1733
1089.853, 264.7559
1090.953, 211.3467
1092.053, 282.4512
1093.152, 273.1426
1094.252, 262.7593
1095.351, 245.4092
1096.451, 305.0425
1097.550, 223.6836
1098.649, 304.3330
1099.748, 235.9902
1100.846, 259.6616
1101.945, 242.3403
1103.043, 115.0288
1104.141, 224.7358
1105.239, 298.4565
1106.337, 204.1929
1107.434, 177.9365
1108.532, 168.6890
1109.629, 225.4482
1110.726, 171.2456
1111.823, 287.0195
1112.920, 275.8008
1114.017, 261.5894
1115.113, 418.3853
1116.210, 489.1875
1117.306, 658.3682
1118.402, 951.1846
1119.498, 1049.007
1120.593, 1149.836
1121.689, 1301.672
1122.784, 1399.521
1123.879, 1420.380
1124.974, 1254.245
1126.069, 1150.043
1127.164, 1013.871
1128.259, 683.7539
1129.353, 557.6426
1130.447, 304.5371
1131.541, 209.6406
1132.635, 163.5459
1133.729, 87.87207
1134.822, 7.955078
1135.916, 34.87598
1137.009, 9.809570
1138.102, 131.7485
1139.195, 27.69238
1140.288, 186.6411
1141.380, 136.1978
1142.473, 121.7485
1143.565, 85.03467
1144.657, 86.00244
1145.749, 34.67041
1146.841, 71.64502
1147.932, 45.62451
1149.024, 111.6069
1150.115, 68.99805
1151.206, 62.98779
1152.297, 1.163574
1153.388, 7.187500
1154.479, 11.41504
1155.569, 13.66406
1156.659, 9.907715
1157.750, 30.48438
1158.839, 117.4966
1159.929, 2.388672
1161.019, 96.02100
1162.108, 22.08936
1163.198, 55.11035
1164.287, 54.13330
1165.376, 32.15918
1166.465, 45.18701
1167.553, 4.215820
1168.642, 2.751953
1169.730, 13.90283
1170.818, 30.87109
1171.906, 41.90625
1172.994, 56.94385
1174.082, 53.98291
1175.170, 53.18359
1176.257, 44.13428
1177.344, 30.63232
1178.431, 22.73389
1179.518, 2.220703
1180.605, 52.17676
1181.691, 109.1533
1182.778, 4.818848
1183.864, 44.79248
1184.950, 27.23389
1186.036, 0.6005860
1187.122, 8.691895
1188.207, 73.34473
1189.292, 13.58447
1190.378, 8.513184
1191.463, 15.55762
1192.548, 24.36523
1193.632, 2.712402
1194.717, 85.20850
1195.801, 41.12891
1196.886, 76.04834
1197.970, 22.96826
1199.054, 4.112305
1200.137, 54.80420
1201.221, 36.72070
1202.305, 20.63672
1203.388, 32.44824
1204.471, 29.45117
1205.554, 63.34912
1206.637, 21.24609
1207.719, 31.21191
1208.802, 1.893066
1209.884, 17.99805
1210.966, 41.88770
1212.048, 40.77930
1213.130, 38.66992
1214.212, 72.64551
1215.293, 36.57471
1216.374, 44.46143
1217.456, 47.06299
1218.536, 1.322754
1219.617, 42.22168
1220.698, 11.12012
1221.778, 5.984375
1222.859, 3.904297
1223.939, 40.78955
1225.019, 6.672852
1226.099, 18.55322
1227.178, 58.43164
1228.258, 22.30762
1229.337, 88.18164
1230.417, 95.05371
1231.496, 60.92285
1232.574, 108.7900
1233.653, 33.65479
1234.732, 24.51660
1235.810, 439.3750
1236.888, 202.0430
1237.966, 695.0840
1239.044, 70.93408
