##NAMES=Covellite
##RRUFFID=R060306
##IDEAL CHEMISTRY=Cu^1+^S
##LOCALITY=3800' level, Leonard mine, Butte, Silver Bow County, Montana, USA
##OWNER=RRUFF
##SOURCE=Michael Scott
##DESCRIPTION=Blue iridescent metallic hexagonal plates
##STATUS=The identification of this mineral has been confirmed by X-ray diffraction and chemical analysis
##URL=rruff.info/R060306
##MEASURED CHEMISTRY=Cu_1.00_S_1.00_
##PIN_ID=M00422
##ORIENTATION=Laser parallel to -c* (0 0 -1). Fiducial mark perpendicular to laser is parallel to a [1 0 0]
92.24600, 0.0000000E+00
93.48000, 4.763672
94.71400, 43.21484
95.94800, 227.3857
97.18200, 2.708008
98.41600, 9.309570
99.64900, 463.8096
100.8830, 666.2549
102.1160, 584.2109
103.3490, 804.6709
104.5820, 1289.572
105.8150, 2326.957
107.0470, 4098.064
108.2800, 3933.030
109.5120, 4087.812
110.7440, 4317.820
111.9760, 3344.859
113.2080, 3675.851
114.4400, 4017.155
115.6710, 4663.316
116.9030, 3774.007
118.1340, 3389.997
119.3650, 2622.119
120.5960, 2047.253
121.8270, 1741.771
123.0580, 1843.711
124.2880, 1944.212
125.5190, 1690.419
126.7490, 1623.437
127.9790, 1717.704
129.2090, 2219.665
130.4390, 2627.297
131.6680, 3110.515
132.8980, 3360.222
134.1270, 3832.390
135.3560, 4540.170
136.5850, 5499.688
137.8140, 6743.061
139.0430, 7549.388
140.2710, 7408.762
141.5000, 6163.267
142.7280, 4929.998
143.9560, 3643.021
145.1840, 2787.365
146.4120, 2291.100
147.6390, 1785.259
148.8670, 1447.875
150.0940, 1355.828
151.3210, 1147.787
152.5490, 1069.980
153.7750, 1000.182
155.0020, 973.0186
156.2290, 888.6582
157.4550, 807.6045
158.6810, 607.9551
159.9080, 525.3125
161.1340, 623.9004
162.3590, 723.8604
163.5850, 805.2754
164.8110, 852.5352
166.0360, 1048.580
167.2610, 952.9678
168.4860, 926.5713
169.7110, 960.2842
170.9360, 1055.121
172.1610, 927.2471
173.3850, 867.0586
174.6100, 792.4238
175.8340, 672.2363
177.0580, 746.1895
178.2820, 830.2715
179.5050, 936.4775
180.7290, 761.7969
181.9520, 766.2227
183.1760, 708.7471
184.3990, 899.3613
185.6220, 929.0557
186.8450, 1088.821
188.0670, 1069.769
189.2900, 984.6514
190.5120, 1190.357
191.7340, 1187.756
192.9560, 1314.441
194.1780, 1384.924
195.4000, 1553.701
196.6220, 1680.758
197.8430, 1727.715
199.0640, 1536.781
200.2860, 1807.789
201.5070, 1971.636
202.7270, 1991.354
203.9480, 1359.434
205.1690, 677.4463
206.3890, 296.7959
207.6090, 260.2041
208.8290, 68.21680
210.0490, 29.19629
211.2690, 142.9150
212.4890, 200.6025
213.7080, 309.2598
214.9280, 133.8896
216.1470, 13.51074
217.3660, 53.29199
218.5850, 109.1641
219.8030, 55.64648
221.0220, 66.15430
222.2400, 63.68750
223.4590, 19.25000
224.6770, 116.8867
225.8950, 71.58008
227.1120, 141.3086
228.3300, 218.1357
229.5480, 99.14941
230.7650, 48.34766
231.9820, 118.7139
233.1990, 104.2900
234.4160, 162.1436
235.6330, 79.16504
236.8490, 129.3965
238.0660, 145.8174
239.2820, 92.21484
240.4980, 221.2510
241.7140, 109.7178
242.9300, 106.8496
244.1460, 124.7617
245.3610, 25.48926
246.5770, 33.92480
247.7920, 11.54492
249.0070, 168.0576
250.2220, 196.7275
251.4370, 413.4424
252.6510, 405.1865
253.8660, 446.9463
255.0800, 782.7100
256.2940, 847.4668
257.5080, 1391.203
258.7220, 1513.408
259.9360, 1544.610
261.1490, 1845.186
262.3630, 1490.748
263.5760, 1392.257
264.7890, 1372.708
266.0020, 1450.102
267.2150, 1273.437
268.4270, 1144.713
269.6400, 999.9258
270.8520, 899.0693
272.0640, 916.1299
273.2760, 842.0957
274.4880, 802.3574
275.7000, 804.7061
276.9120, 667.3359
278.1230, 577.8486
279.3340, 394.2480
280.5450, 447.5430
281.7560, 307.7383
282.9670, 292.8408
284.1780, 382.8555
285.3880, 402.7852
286.5980, 241.6367
287.8090, 250.4102
289.0190, 232.1094
290.2290, 256.7383
291.4380, 236.0303
292.6480, 252.7949
293.8570, 241.2285
295.0670, 191.6016
296.2760, 210.9277
297.4850, 271.3291
298.6930, 303.2373
299.9020, 308.1816
301.1110, 205.5342
302.3190, 241.3809
303.5270, 221.4072
304.7350, 198.9385
305.9430, 253.6328
307.1510, 165.3828
308.3580, 218.3535
309.5660, 214.6318
310.7730, 236.5488
311.9800, 202.3105
313.1870, 157.0449
314.3940, 195.4219
315.6010, 316.7334
316.8070, 252.0049
318.0130, 301.2764
319.2200, 175.5518
320.4260, 152.8281
321.6310, 297.1045
322.8370, 240.3809
324.0430, 226.6592
325.2480, 206.9375
326.4540, 251.2148
327.6590, 312.4912
328.8640, 330.7676
330.0680, 332.3906
331.2730, 320.3145
332.4780, 304.5859
333.6820, 287.4346
334.8860, 267.6709
336.0900, 251.3809
337.2940, 226.6357
338.4980, 232.8848
339.7010, 169.2471
340.9050, 240.7510
342.1080, 283.8242
343.3110, 299.9883
344.5140, 208.6992
345.7170, 256.1514
346.9200, 247.9990
348.1220, 237.5410
349.3240, 304.5059
350.5270, 228.8340
351.7290, 294.2695
352.9310, 303.1084
354.1320, 335.5371
355.3340, 310.5049
356.5350, 305.7344
357.7370, 357.4619
358.9380, 378.6973
360.1390, 350.1846
361.3400, 380.5957
362.5400, 300.1641
363.7410, 310.7070
364.9410, 367.9854
366.1410, 273.3369
367.3410, 276.4219
368.5410, 163.3711
369.7410, 261.2695
370.9400, 392.0869
372.1400, 301.6074
373.3390, 143.3818
374.5380, 188.7090
375.7370, 391.3135
376.9360, 144.5928
378.1350, 260.8750
379.3330, 176.6318
380.5310, 206.7197
381.7300, 332.7715
382.9280, 296.9102
384.1260, 191.4492
385.3230, 225.9512
386.5210, 276.4805
387.7180, 192.2041
388.9160, 321.8115
390.1130, 272.6631
391.3100, 120.8408
392.5060, 274.5547
393.7030, 136.3213
394.9000, 94.19727
396.0960, 220.4805
397.2920, 153.7549
398.4880, 144.0469
399.6840, 177.3301
400.8800, 102.6133
402.0750, 250.8975
403.2710, 203.1797
404.4660, 173.4873
405.6610, 287.7998
406.8560, 153.1084
408.0510, 107.4297
409.2450, 78.74902
410.4400, 84.23535
411.6340, 86.92676
412.8280, 87.37988
414.0220, 92.08008
415.2160, 97.46289
416.4100, 99.82324
417.6030, 82.17773
418.7970, 87.14746
419.9900, 128.8721
421.1830, 119.2139
422.3760, 183.5771
423.5690, 231.9365
424.7610, 180.2949
425.9540, 117.6855
427.1460, 133.0195
428.3380, 66.42383
429.5300, 219.8398
430.7220, 208.9736
431.9140, 262.1475
433.1050, 303.9473
434.2970, 335.4912
435.4880, 358.5752
436.6790, 388.7715
437.8700, 458.9316
439.0610, 521.8086
440.2510, 567.9512
441.4420, 721.2617
442.6320, 768.7109
443.8220, 931.1621
445.0120, 1039.222
446.2020, 1297.442
447.3910, 1506.591
448.5810, 1822.660
449.7700, 2125.734
450.9600, 2326.938
452.1490, 2876.143
453.3370, 3314.353
454.5260, 3857.679
455.7150, 4527.885
456.9030, 5009.931
458.0910, 5798.166
459.2800, 6538.759
460.4670, 7324.287
461.6550, 8814.914
462.8430, 9971.182
464.0300, 12254.38
465.2180, 14996.06
466.4050, 19141.69
467.5920, 24352.28
468.7790, 31621.83
469.9650, 40455.57
471.1520, 48924.33
472.3380, 53649.11
473.5250, 51935.90
474.7110, 45161.71
475.8970, 36183.55
477.0820, 27735.40
478.2680, 21297.27
479.4540, 16166.15
480.6390, 12799.05
481.8240, 9861.960
483.0090, 8212.699
484.1940, 6690.648
485.3780, 5650.616
486.5630, 4697.604
487.7470, 3975.606
488.9320, 3557.769
490.1160, 3264.806
491.3000, 2763.183
492.4830, 2587.945
493.6670, 2233.034
494.8500, 2038.441
496.0340, 1944.569
497.2170, 1733.899
498.4000, 1492.095
499.5820, 1564.041
500.7650, 1570.299
501.9480, 1270.577
503.1300, 1164.877
504.3120, 1127.224
505.4940, 1147.632
506.6760, 1040.111
507.8580, 1096.651
509.0390, 1052.728
510.2210, 1165.383
511.4020, 1055.083
512.5830, 1142.854
513.7640, 892.6846
514.9450, 934.5928
516.1250, 1023.598
517.3060, 1113.682
518.4860, 1101.815
519.6660, 909.0195
520.8460, 1019.290
522.0260, 924.8184
523.2060, 979.2227
524.3850, 882.7051
525.5650, 874.3320
526.7440, 756.9463
527.9230, 752.6562
529.1020, 866.4268
530.2810, 878.2607
531.4590, 796.2451
532.6380, 736.1875
533.8160, 818.1543
534.9940, 692.6475
536.1720, 742.6035
537.3500, 766.7539
538.5270, 773.8096
539.7050, 847.0742
540.8820, 867.1797
542.0590, 895.4219
543.2360, 866.8574
544.4130, 865.1172
545.5900, 879.4043
546.7660, 820.9023
547.9430, 818.4160
549.1190, 788.4434
550.2950, 745.3457
551.4710, 753.8916
552.6470, 717.5840
553.8220, 732.0195
554.9980, 682.8516
556.1730, 661.1533
557.3480, 653.3691
558.5230, 640.6963
559.6980, 596.0352
560.8730, 609.3857
562.0470, 588.7295
563.2220, 565.9375
564.3960, 598.3574
565.5700, 588.7559
566.7440, 637.6982
567.9170, 611.0283
569.0910, 618.4590
570.2640, 477.4912
571.4380, 383.9443
572.6110, 458.4092
573.7840, 526.8857
574.9570, 381.3740
576.1290, 352.9072
577.3020, 329.4277
578.4740, 382.3545
579.6460, 375.6387
580.8180, 333.1934
581.9900, 307.7588
583.1620, 287.4941
584.3330, 249.9199
585.5040, 268.5146
586.6760, 239.1191
587.8470, 284.7363
589.0180, 331.3652
590.1880, 64.00391
591.3590, 76.65234
592.5290, 122.3311
593.7000, 205.0059
594.8700, 237.6904
596.0400, 190.3848
597.2090, 168.0889
598.3790, 141.8027
599.5490, 42.52637
600.7180, 165.2568
601.8870, 154.9971
603.0560, 98.76660
604.2250, 174.5439
605.3940, 226.3311
606.5620, 107.1250
607.7300, 47.92676
608.8990, 7.736328
610.0670, 124.5518
611.2350, 94.37500
612.4020, 96.20410
613.5700, 81.61230
614.7370, 24.45410
615.9050, 74.30078
617.0720, 72.15234
618.2390, 175.0098
619.4060, 66.87402
620.5720, 55.74121
621.7390, 148.6143
622.9050, 129.4922
624.0710, 16.37500
625.2370, 42.62402
626.4030, 3.516602
627.5690, 65.41211
628.7340, 9.688477
629.9000, 88.21387
631.0650, 72.88086
632.2300, 30.99316
633.3950, 125.8906
634.5600, 16.22168
635.7240, 277.6660
636.8890, 9.904297
638.0530, 128.9932
639.2170, 29.29980
640.3810, 98.02246
641.5450, 170.3848
642.7080, 78.27539
643.8720, 33.16895
645.0350, 126.6904
646.1980, 43.58496
647.3610, 50.41797
648.5240, 16.68848
649.6870, 84.19922
650.8490, 123.0869
652.0120, 143.9727
653.1740, 121.8574
654.3360, 138.6475
655.4980, 46.09766
656.6600, 137.2266
657.8210, 35.27051
658.9830, 41.28223
660.1440, 3.837891
661.3050, 61.30078
662.4660, 82.52832
663.6270, 55.34766
664.7870, 2.165039
665.9480, 83.76465
667.1080, 22.59668
668.2680, 107.5732
669.4280, 34.36230
670.5880, 35.85645
671.7480, 77.93652
672.9070, 20.68164
674.0670, 39.58105
675.2260, 184.7100
676.3850, 52.49414
677.5440, 16.18164
678.7030, 93.13965
679.8610, 92.47559
681.0200, 26.91797
682.1780, 28.78320
683.3360, 9.465820
684.4940, 118.9424
685.6520, 42.49902
686.8090, 7.906250
687.9670, 69.70508
689.1240, 4.370117
690.2810, 118.0566
691.4380, 103.1748
692.5950, 84.39551
693.7520, 73.39453
694.9080, 33.14355
696.0650, 60.71680
697.2210, 63.36816
698.3770, 42.44141
699.5330, 47.53418
700.6880, 93.58398
701.8440, 72.37598
702.9990, 29.59961
704.1550, 67.56348
705.3100, 138.4844
706.4650, 0.3681640
707.6190, 45.19727
708.7740, 17.98828
709.9290, 103.7920
711.0830, 64.73730
712.2370, 127.4912
713.3910, 61.23535
714.5450, 37.96484
715.6980, 60.86816
716.8520, 5.572266
718.0050, 0.2910160
719.1580, 94.94043
720.3110, 90.57520
721.4640, 75.19629
722.6170, 158.8047
723.7700, 245.3984
724.9220, 133.9805
726.0740, 102.9121
727.2260, 140.4668
728.3780, 164.0068
729.5300, 171.5352
730.6810, 53.04785
731.8330, 98.88477
732.9840, 66.73047
734.1350, 83.84082
735.2860, 89.29785
736.4370, 90.74023
737.5880, 163.1689
738.7380, 147.5830
739.8880, 243.9834
741.0390, 253.5996
742.1890, 98.96973
743.3380, 318.3262
744.4880, 252.6670
745.6380, 254.8076
746.7870, 501.4180
747.9360, 309.7139
749.0850, 164.9951
750.2340, 325.2607
751.3830, 40.51172
752.5310, 333.7422
753.6800, 194.9561
754.8280, 343.1562
755.9760, 215.3408
757.1240, 102.5098
758.2720, 258.6631
759.4190, 143.8008
760.5670, 148.9238
761.7140, 249.0312
762.8610, 50.12402
764.0080, 181.7363
765.1550, 440.2529
766.3020, 257.2959
767.4480, 158.1816
768.5950, 102.1924
769.7410, 271.8691
770.8870, 138.1572
772.0330, 222.1230
773.1780, 157.7734
774.3240, 42.70898
775.4690, 71.45312
776.6140, 34.96289
777.7590, 14.49707
778.9040, 44.33398
780.0490, 110.1455
781.1940, 99.94141
782.3380, 81.27734
783.4820, 185.4229
784.6260, 31.10742
785.7700, 176.7686
786.9140, 80.93359
788.0580, 134.5654
789.2010, 161.1816
790.3450, 119.7832
791.4880, 43.36914
792.6310, 177.9355
793.7730, 12.51270
794.9160, 89.99512
796.0590, 92.48926
797.2010, 78.96777
798.3430, 111.4287
799.4850, 112.6973
800.6270, 5.132813
801.7690, 163.5352
802.9100, 64.85352
804.0520, 105.7783
805.1930, 413.5898
806.3340, 82.93555
807.4750, 193.2686
808.6160, 54.50195
809.7560, 222.8076
810.8970, 107.0986
812.0370, 29.88965
813.1770, 32.85059
814.3170, 130.3594
815.4570, 82.55762
816.5960, 89.57031
817.7360, 69.74219
818.8750, 22.78027
820.0140, 15.62793
821.1530, 77.59668
822.2920, 106.6436
823.4310, 54.42969
824.5690, 169.2061
825.7070, 64.17285
826.8460, 131.1846
827.9840, 207.0098
829.1220, 58.05859
830.2590, 85.09766
831.3970, 30.42578
832.5340, 16.57422
833.6710, 100.6631
834.8080, 11.64453
835.9450, 6.618164
837.0820, 28.58203
838.2190, 84.53613
839.3550, 23.66895
840.4910, 69.57715
841.6270, 33.50879
842.7630, 12.37012
843.8990, 112.9082
845.0350, 91.81836
846.1700, 23.13281
847.3060, 6.970703
848.4410, 89.91895
849.5760, 84.80176
850.7100, 84.67773
851.8450, 44.48438
852.9800, 63.36230
854.1140, 2.192383
855.2480, 86.90039
856.3820, 73.72852
857.5160, 71.55078
858.6500, 126.3691
859.7830, 37.18164
860.9170, 120.9902
862.0500, 15.20605
863.1830, 65.58887
864.3160, 17.37891
865.4480, 105.1641
866.5810, 51.94629
867.7130, 36.29590
868.8460, 31.46484
869.9780, 44.22168
871.1100, 71.97461
872.2410, 168.7246
873.3730, 29.47070
874.5050, 96.21191
875.6360, 145.9521
876.7670, 103.3135
877.8980, 134.3740
879.0290, 123.0576
880.1590, 11.73828
881.2900, 8.583984
882.4200, 91.08984
883.5500, 46.76074
884.6800, 60.42871
885.8100, 122.0947
886.9400, 98.75879
888.0690, 71.84668
889.1990, 48.50684
890.3280, 125.1641
891.4570, 144.8203
892.5860, 248.4746
893.7140, 139.1270
894.8430, 191.7910
895.9710, 215.1963
897.1000, 206.0020
898.2280, 330.8154
899.3560, 219.1279
900.4830, 387.8018
901.6110, 323.4736
902.7380, 394.1455
903.8660, 362.8184
904.9930, 491.4902
906.1200, 555.1729
907.2460, 552.8623
908.3730, 559.5527
909.5000, 706.2441
910.6260, 738.3936
911.7520, 875.0801
912.8780, 840.9600
914.0040, 982.2246
915.1290, 913.4521
916.2550, 1003.154
917.3800, 1015.858
918.5050, 1171.936
919.6300, 1073.644
920.7550, 1155.414
921.8800, 1146.139
923.0040, 1344.878
924.1290, 1415.619
925.2530, 1417.364
926.3770, 1462.321
927.5010, 1325.384
928.6250, 1339.137
929.7480, 1195.644
930.8720, 975.4043
931.9950, 1033.169
933.1180, 851.9375
934.2410, 777.7090
935.3640, 613.5107
936.4860, 605.3359
937.6090, 527.9951
938.7310, 557.0410
939.8530, 472.9150
940.9750, 425.7949
942.0970, 441.6934
943.2180, 399.5967
944.3400, 425.4756
945.4610, 404.3760
946.5820, 391.7002
947.7030, 380.7363
948.8240, 338.6211
949.9450, 329.5996
951.0650, 254.5830
952.1860, 123.5986
953.3060, 261.6387
954.4260, 99.13574
955.5460, 213.4365
956.6650, 174.5205
957.7850, 199.6592
958.9040, 138.8193
960.0230, 302.9893
961.1420, 92.18750
962.2610, 68.39648
963.3800, 256.6494
964.4990, 89.90820
965.6170, 81.17578
966.7350, 292.0840
967.8530, 182.3887
968.9710, 264.7227
970.0890, 123.0635
971.2070, 76.37891
972.3240, 181.7344
973.4410, 102.4570
974.5580, 176.9121
975.6750, 222.9453
976.7920, 242.0996
977.9090, 153.8555
979.0250, 204.3662
980.1410, 199.3037
981.2580, 191.9795
982.3740, 261.9180
983.4890, 189.3711
984.6050, 258.2793
985.7200, 270.7344
986.8360, 315.8018
987.9510, 317.4033
989.0660, 297.9795
990.1810, 348.6133
991.2950, 200.2568
992.4100, 342.9082
993.5240, 243.5674
994.6390, 342.2363
995.7530, 252.9141
996.8660, 171.2363
997.9800, 304.9307
999.0940, 386.6357
1000.207, 279.3477
1001.320, 289.0693
1002.433, 287.4619
1003.546, 208.2002
1004.659, 248.3096
1005.772, 228.9863
1006.884, 263.4727
1007.996, 228.2490
1009.108, 210.0342
1010.220, 179.8291
1011.332, 142.4004
1012.444, 132.2139
1013.555, 151.7783
1014.666, 352.8711
1015.777, 248.5996
1016.888, 255.4521
1017.999, 365.3135
1019.110, 262.1865
1020.220, 226.0684
1021.331, 315.9609
1022.441, 278.8662
1023.551, 260.7812
1024.661, 359.7051
1025.770, 203.6396
1026.880, 285.5840
1027.989, 242.9092
1029.098, 265.0547
1030.207, 172.2539
1031.316, 205.2383
1032.425, 137.2334
1033.533, 221.2373
1034.642, 219.8428
1035.750, 329.2783
1036.858, 274.3135
1037.966, 316.3584
1039.073, 334.4131
1040.181, 343.1777
1041.288, 218.2520
1042.396, 328.3359
1043.503, 267.4287
1044.610, 271.5352
1045.716, 309.9502
1046.823, 253.0801
1047.929, 411.2334
1049.036, 191.4004
1050.142, 237.7109
1051.248, 218.8975
1052.353, 347.1270
1053.459, 296.3652
1054.564, 267.2744
1055.670, 247.8467
1056.775, 395.1182
1057.880, 152.3994
1058.985, 491.6895
1060.089, 345.9893
1061.194, 474.3008
1062.298, 442.8916
1063.402, 274.2354
1064.506, 326.5898
1065.610, 373.9531
1066.713, 344.3262
1067.817, 287.9609
1068.920, 421.5781
1070.023, 319.2607
1071.126, 411.7285
1072.229, 227.5332
1073.332, 323.9678
1074.435, 319.7295
1075.537, 407.1807
1076.639, 380.6406
1077.741, 291.9033
1078.843, 423.3779
1079.945, 418.8613
1081.046, 334.6787
1082.148, 344.1982
1083.249, 320.7246
1084.350, 301.2598
1085.451, 257.7109
1086.551, 295.2588
1087.652, 244.8174
1088.752, 350.3867
1089.853, 307.8857
1090.953, 289.6855
1092.053, 178.2754
1093.152, 343.8701
1094.252, 397.4717
1095.351, 540.0791
1096.451, 230.6934
1097.550, 280.3135
1098.649, 291.9385
1099.748, 320.5811
1100.846, 351.2285
1101.945, 255.8818
1103.043, 336.5420
1104.141, 300.2061
1105.239, 393.8779
1106.337, 415.5547
1107.434, 185.2363
1108.532, 331.6328
1109.629, 373.3252
1110.726, 258.0234
1111.823, 378.0547
1112.920, 181.7637
1114.017, 323.2529
1115.113, 225.9717
1116.210, 370.9688
1117.306, 357.6963
1118.402, 329.4268
1119.498, 310.1719
1120.593, 395.9209
1121.689, 337.6758
1122.784, 251.4346
1123.879, 353.1963
1124.974, 307.9629
1126.069, 262.7334
1127.164, 345.5068
1128.259, 284.2852
1129.353, 272.0684
1130.447, 230.8555
1131.541, 103.6465
1132.635, 150.4414
1133.729, 432.2393
1134.822, 369.9365
1135.916, 389.2891
1137.009, 441.6738
1138.102, 288.4922
1139.195, 164.3145
1140.288, 162.1396
1141.380, 224.9678
1142.473, 151.8008
1143.565, 191.6582
1144.657, 162.5205
1145.749, 124.3838
1146.841, 118.2510
1147.932, 93.12305
1149.024, 98.99609
1150.115, 212.8740
1151.206, 246.7539
1152.297, 141.6377
1153.388, 70.52246
1154.479, 217.4111
1155.569, 156.3027
1156.659, 155.1963
1157.750, 147.0938
1158.839, 55.00684
1159.929, 55.12988
1161.019, 7.275391
1162.108, 122.5791
1163.198, 128.4355
1164.287, 159.2949
1165.376, 188.6963
1166.465, 162.3691
1167.553, 193.8848
1168.642, 81.75195
1169.730, 84.62012
1170.818, 15.50879
1171.906, 257.3574
1172.994, 165.2256
1174.082, 87.09668
1175.170, 132.9678
1176.257, 6.159180
1177.344, 122.7236
1178.431, 126.6094
1179.518, 84.49512
1180.605, 1.617188
1181.691, 71.26855
1182.778, 64.15625
1183.864, 60.04492
1184.950, 45.06445
1186.036, 39.19727
1187.122, 8.649414
1188.207, 26.49707
1189.292, 110.3457
1190.378, 72.19531
1191.463, 123.0449
1192.548, 2.105469
1193.632, 187.7500
1194.717, 123.6055
1195.801, 18.46191
1196.886, 186.3184
1197.970, 34.82422
1199.054, 65.98828
1200.137, 83.18750
1201.221, 102.5654
1202.305, 51.68066
1203.388, 180.0439
1204.471, 50.23145
1205.554, 87.46387
1206.637, 166.1602
1207.719, 57.14551
1208.802, 236.5176
1209.884, 90.17871
1210.966, 17.16016
1212.048, 246.4893
1213.130, 92.13770
1214.212, 55.78516
1215.293, 57.56641
1216.374, 87.04590
1217.456, 136.6592
1218.536, 293.2715
1219.617, 41.11719
1220.698, 3.468750
1221.778, 127.0508
1222.859, 129.6318
1223.939, 142.2129
1225.019, 166.7930
1226.099, 156.4619
1227.178, 162.9512
1228.258, 122.5303
1229.337, 127.1074
1230.417, 61.68457
1231.496, 173.2607
1232.574, 28.84570
1233.653, 51.42969
1234.732, 138.0137
1235.810, 156.6260
1236.888, 116.2383
1237.966, 3.152344
1239.044, 144.4512
1240.122, 153.0518
1241.199, 60.34668
1242.277, 90.21582
1243.354, 67.22266
1244.431, 106.2969
1245.508, 11.18457
1246.585, 74.32227
1247.661, 149.8262
1248.738, 86.33105
1249.814, 171.8340
1250.890, 213.3379
1251.966, 91.84180
1253.042, 276.3438
1254.117, 221.8447
1255.193, 58.35547
1256.268, 92.86426
1257.343, 140.3730
1258.418, 32.87891
1259.493, 182.3955
1260.567, 103.9121
1261.642, 195.4277
1262.716, 238.6328
1263.790, 130.4541
1264.864, 279.9668
1265.938, 210.4766
1267.011, 114.9854
1268.085, 71.49902
1269.158, 55.67285
1270.231, 39.05469
1271.304, 78.03516
1272.377, 96.54395
1273.450, 136.0527
