##NAMES=Covellite
##RRUFFID=R060306
##IDEAL CHEMISTRY=Cu^1+^S
##LOCALITY=3800' level, Leonard mine, Butte, Silver Bow County, Montana, USA
##OWNER=RRUFF
##SOURCE=Michael Scott
##DESCRIPTION=Blue iridescent metallic hexagonal plates
##STATUS=The identification of this mineral has been confirmed by X-ray diffraction and chemical analysis
##URL=rruff.info/R060306
##MEASURED CHEMISTRY=Cu_1.00_S_1.00_
##PIN_ID=M00422
##ORIENTATION=Laser parallel to -c* (0 0 -1). Fiducial mark perpendicular to laser is parallel to a [1 0 0]
92.24600, 0.0000000E+00
93.48000, 5.390625
94.71400, 21.36133
95.94800, 147.8223
97.18200, 167.9775
98.41600, 14.58496
99.64900, 269.4707
100.8830, 384.9082
102.1160, 424.7256
103.3490, 725.5625
104.5820, 1187.060
105.8150, 2059.012
107.0470, 3906.471
108.2800, 3966.817
109.5120, 7712.269
110.7440, 4738.840
111.9760, 3380.518
113.2080, 3318.633
114.4400, 5469.429
115.6710, 4031.355
116.9030, 3479.018
118.1340, 3052.130
119.3650, 2456.490
120.5960, 2241.844
121.8270, 2050.445
123.0580, 1797.392
124.2880, 1978.413
125.5190, 1732.444
126.7490, 1765.342
127.9790, 1771.890
129.2090, 2214.333
130.4390, 2766.241
131.6680, 3120.067
132.8980, 3748.413
134.1270, 4547.006
135.3560, 5210.014
136.5850, 6487.586
137.8140, 7725.852
139.0430, 8920.925
140.2710, 9436.904
141.5000, 8958.902
142.7280, 8316.989
143.9560, 7289.271
145.1840, 6428.820
146.4120, 5519.684
147.6390, 4686.911
148.8670, 4011.548
150.0940, 3033.425
151.3210, 2741.584
152.5490, 2435.251
153.7750, 1769.203
155.0020, 1414.470
156.2290, 1371.928
157.4550, 1142.545
158.6810, 925.6465
159.9080, 815.4146
161.1340, 732.1968
162.3590, 903.5049
163.5850, 916.7422
164.8110, 1141.097
166.0360, 1046.188
167.2610, 1057.925
168.4860, 1027.258
169.7110, 1054.561
170.9360, 1093.943
172.1610, 868.1626
173.3850, 889.4961
174.6100, 706.0024
175.8340, 803.6738
177.0580, 864.5024
178.2820, 857.4766
179.5050, 726.5884
180.7290, 770.8286
181.9520, 712.1865
183.1760, 725.6543
184.3990, 794.2212
185.6220, 989.8760
186.8450, 897.6074
188.0670, 955.4062
189.2900, 1083.754
190.5120, 1021.350
191.7340, 1214.318
192.9560, 1382.927
194.1780, 1517.144
195.4000, 1452.328
196.6220, 1666.489
197.8430, 1616.673
199.0640, 1575.755
200.2860, 1665.024
201.5070, 1912.710
202.7270, 1797.799
203.9480, 1304.508
205.1690, 850.5283
206.3890, 358.5029
207.6090, 190.7563
208.8290, 78.22510
210.0490, 30.65381
211.2690, 108.1636
212.4890, 270.7847
213.7080, 202.4043
214.9280, 254.7812
216.1470, 23.46729
217.3660, 2.809570
218.5850, 66.56396
219.8030, 8.193848
221.0220, 35.96143
222.2400, 135.7744
223.4590, 87.67529
224.6770, 71.66943
225.8950, 191.7422
227.1120, 28.85498
228.3300, 110.0781
229.5480, 101.4868
230.7650, 113.0957
231.9820, 145.9424
233.1990, 114.0474
234.4160, 174.3643
235.6330, 236.9185
236.8490, 170.7207
238.0660, 104.8330
239.2820, 237.6899
240.4980, 156.0713
241.7140, 111.5840
242.9300, 62.67334
244.1460, 81.42871
245.3610, 59.05566
246.5770, 33.39551
247.7920, 71.60156
249.0070, 81.27441
250.2220, 82.23340
251.4370, 284.2476
252.6510, 421.3013
253.8660, 508.3794
255.0800, 642.4663
256.2940, 830.5479
257.5080, 1425.609
258.7220, 1620.666
259.9360, 1628.625
261.1490, 2152.535
262.3630, 1534.397
263.5760, 1295.195
264.7890, 1369.925
266.0020, 1318.585
267.2150, 1247.176
268.4270, 1206.694
269.6400, 1109.138
270.8520, 897.4980
272.0640, 894.7617
273.2760, 742.9165
274.4880, 623.9502
275.7000, 646.8501
276.9120, 610.6099
278.1230, 612.2295
279.3340, 438.7144
280.5450, 394.0732
281.7560, 385.3140
282.9670, 503.4404
284.1780, 271.4595
285.3880, 427.3740
286.5980, 239.1909
287.8090, 412.9131
289.0190, 408.5449
290.2290, 348.0913
291.4380, 306.5542
292.6480, 295.9360
293.8570, 234.2388
295.0670, 271.4653
296.2760, 214.6094
297.4850, 297.5933
298.6930, 290.4868
299.9020, 225.3057
301.1110, 231.9478
302.3190, 155.3599
303.5270, 285.4946
304.7350, 234.3745
305.9430, 240.9751
307.1510, 236.3135
308.3580, 247.3755
309.5660, 170.1577
310.7730, 202.6074
311.9800, 273.7749
313.1870, 210.7065
314.3940, 160.4731
315.6010, 293.1011
316.8070, 343.6343
318.0130, 105.1504
319.2200, 235.6577
320.4260, 232.1587
321.6310, 277.6543
322.8370, 267.1436
324.0430, 237.6255
325.2480, 222.0996
326.4540, 239.5654
327.6590, 355.0215
328.8640, 307.4697
330.0680, 360.9102
331.2730, 272.3418
332.4780, 267.7637
333.6820, 292.1748
334.8860, 307.5747
336.0900, 367.9624
337.2940, 278.3394
338.4980, 230.7036
339.7010, 284.0513
340.9050, 276.3838
342.1080, 282.7007
343.3110, 201.9980
344.5140, 289.2788
345.7170, 241.5449
346.9200, 317.7935
348.1220, 257.0269
349.3240, 256.2432
350.5270, 271.4492
351.7290, 287.6372
352.9310, 313.0786
354.1320, 412.4019
355.3340, 258.8013
356.5350, 352.0581
357.7370, 359.9502
358.9380, 289.5117
360.1390, 413.3359
361.3400, 354.6509
362.5400, 240.8335
363.7410, 468.7212
364.9410, 418.3330
366.1410, 362.2637
367.3410, 279.9917
368.5410, 314.8013
369.7410, 343.6802
370.9400, 333.7007
372.1400, 333.7852
373.3390, 369.4526
374.5380, 326.7319
375.7370, 291.3584
376.9360, 361.0068
378.1350, 283.7466
379.3330, 398.7954
380.5310, 252.0234
381.7300, 367.5186
382.9280, 382.2812
384.1260, 415.7505
385.3230, 375.3877
386.5210, 385.3145
387.7180, 348.3569
388.9160, 359.6914
390.1130, 384.4155
391.3100, 372.7178
392.5060, 440.5859
393.7030, 398.0957
394.9000, 469.5977
396.0960, 409.6055
397.2920, 401.6655
398.4880, 288.7275
399.6840, 283.7710
400.8800, 280.5142
402.0750, 377.8276
403.2710, 280.8398
404.4660, 366.8457
405.6610, 306.8340
406.8560, 360.8047
408.0510, 259.7588
409.2450, 178.6958
410.4400, 233.6235
411.6340, 193.5586
412.8280, 154.5068
414.0220, 114.4717
415.2160, 144.4229
416.4100, 126.3765
417.6030, 90.32764
418.7970, 84.26660
419.9900, 61.21191
421.1830, 106.1455
422.3760, 75.10254
423.5690, 144.0498
424.7610, 72.98779
425.9540, 142.9316
427.1460, 64.86865
428.3380, 26.47363
429.5300, 186.4067
430.7220, 185.8701
431.9140, 150.7915
433.1050, 176.7075
434.2970, 199.6133
435.4880, 328.3389
436.6790, 179.0142
437.8700, 357.4243
439.0610, 355.9849
440.2510, 410.3027
441.4420, 640.9644
442.6320, 738.5986
443.8220, 704.9580
445.0120, 914.3447
446.2020, 1115.199
447.3910, 1339.817
448.5810, 1474.226
449.7700, 1846.670
450.9600, 2127.104
452.1490, 2538.594
453.3370, 2976.654
454.5260, 3490.987
455.7150, 4035.636
456.9030, 4843.042
458.0910, 5573.132
459.2800, 6387.924
460.4670, 7128.912
461.6550, 8283.550
462.8430, 9603.173
464.0300, 11590.80
465.2180, 14175.65
466.4050, 18098.47
467.5920, 23399.19
468.7790, 30072.87
469.9650, 38661.65
471.1520, 46956.75
472.3380, 52446.86
473.5250, 51354.99
474.7110, 44741.00
475.8970, 35840.01
477.0820, 27551.16
478.2680, 21140.34
479.4540, 16272.53
480.6390, 12505.69
481.8240, 9762.670
483.0090, 7805.897
484.1940, 6578.117
485.3780, 5404.381
486.5630, 4491.338
487.7470, 3838.631
488.9320, 3537.801
490.1160, 2951.121
491.3000, 2647.405
492.4830, 2416.709
493.6670, 2030.071
494.8500, 1929.447
496.0340, 1789.841
497.2170, 1668.264
498.4000, 1414.723
499.5820, 1477.204
500.7650, 1306.701
501.9480, 1188.215
503.1300, 1168.745
504.3120, 1146.312
505.4940, 1086.920
506.6760, 1075.588
507.8580, 1040.300
509.0390, 1051.062
510.2210, 1117.903
511.4020, 1030.807
512.5830, 1004.771
513.7640, 972.8262
514.9450, 1048.930
516.1250, 1034.102
517.3060, 1000.340
518.4860, 999.6484
519.6660, 1025.773
520.8460, 1028.487
522.0260, 1048.656
523.2060, 895.3945
524.3850, 771.3262
525.5650, 887.3770
526.7440, 730.6699
527.9230, 809.2358
529.1020, 675.1064
530.2810, 797.1494
531.4590, 696.1855
532.6380, 780.3770
533.8160, 688.6138
534.9940, 684.9102
536.1720, 761.0957
537.3500, 732.7427
538.5270, 770.1548
539.7050, 671.0371
540.8820, 739.4141
542.0590, 679.1812
543.2360, 656.2856
544.4130, 590.8730
545.5900, 668.7012
546.7660, 646.2354
547.9430, 605.7163
549.1190, 656.2090
550.2950, 597.7124
551.4710, 527.7109
552.6470, 523.3408
553.8220, 516.7856
554.9980, 528.7773
556.1730, 472.5859
557.3480, 527.8086
558.5230, 462.0488
559.6980, 539.7573
560.8730, 368.8828
562.0470, 417.2842
563.2220, 465.2725
564.3960, 386.2139
565.5700, 443.0635
566.7440, 349.3994
567.9170, 431.4434
569.0910, 432.4805
570.2640, 312.7729
571.4380, 373.0391
572.6110, 302.9458
573.7840, 243.7773
574.9570, 319.7163
576.1290, 310.8130
577.3020, 209.7407
578.4740, 228.6606
579.6460, 225.5356
580.8180, 192.4893
581.9900, 95.62646
583.1620, 191.7007
584.3330, 6.677246
585.5040, 157.6938
586.6760, 64.62402
587.8470, 80.45947
589.0180, 78.40869
590.1880, 7.620605
591.3590, 148.5874
592.5290, 79.56250
593.7000, 92.54590
594.8700, 40.53955
596.0400, 81.54150
597.2090, 229.5518
598.3790, 134.5693
599.5490, 85.59668
600.7180, 124.6304
601.8870, 27.66992
603.0560, 43.72119
604.2250, 129.7783
605.3940, 164.8423
606.5620, 60.91211
607.7300, 109.9878
608.8990, 122.0698
610.0670, 141.1572
611.2350, 88.25049
612.4020, 126.4058
613.5700, 88.50781
614.7370, 105.6123
615.9050, 106.7212
617.0720, 72.58789
618.2390, 107.5352
619.4060, 177.8232
620.5720, 128.1787
621.7390, 129.3047
622.9050, 93.60059
624.0710, 90.73242
625.2370, 77.86670
626.4030, 104.0435
627.5690, 138.3140
628.7340, 222.4556
629.9000, 213.5996
631.0650, 245.7446
632.2300, 316.8911
633.3950, 293.6426
634.5600, 310.3711
635.7240, 273.5205
636.8890, 251.9331
638.0530, 206.0835
639.2170, 262.2422
640.3810, 372.3931
641.5450, 352.5439
642.7080, 200.6938
643.8720, 298.8438
645.0350, 180.9927
646.1980, 245.3164
647.3610, 84.46240
648.5240, 107.6069
649.6870, 184.7495
650.8490, 159.8896
652.0120, 156.1597
653.1740, 192.5093
654.3360, 173.6387
655.4980, 167.8740
656.6600, 146.0869
657.8210, 96.36865
658.9830, 96.47998
660.1440, 33.58545
661.3050, 20.00684
662.4660, 31.30176
663.6270, 69.50879
664.7870, 69.37012
665.9480, 70.47461
667.1080, 72.61133
668.2680, 59.55322
669.4280, 43.40625
670.5880, 21.45020
671.7480, 13.22607
672.9070, 54.63818
674.0670, 101.6787
675.2260, 53.89502
676.3850, 44.10205
677.5440, 7.704102
678.7030, 77.52637
679.8610, 44.13525
681.0200, 3.374023
682.1780, 77.74121
683.3360, 3.406738
684.4940, 39.18750
685.6520, 23.63672
686.8090, 65.31592
687.9670, 129.8184
689.1240, 45.73730
690.2810, 16.22461
691.4380, 72.94385
692.5950, 99.72998
693.7520, 104.9888
694.9080, 18.30078
696.0650, 38.79346
697.2210, 21.26855
698.3770, 95.31201
699.5330, 48.57031
700.6880, 71.56348
701.8440, 102.1113
702.9990, 39.85010
704.1550, 66.56152
705.3100, 31.51172
706.4650, 28.52783
707.6190, 31.38574
708.7740, 12.77588
709.9290, 24.19531
711.0830, 73.10449
712.2370, 95.86279
713.3910, 20.39600
714.5450, 36.29980
715.6980, 79.97607
716.8520, 84.63379
718.0050, 147.2734
719.1580, 82.89502
720.3110, 42.49805
721.4640, 15.08057
722.6170, 86.63428
723.7700, 80.16895
724.9220, 149.6846
726.0740, 23.18213
727.2260, 153.6514
728.3780, 46.10303
729.5300, 180.5337
730.6810, 195.9453
731.8330, 169.3379
732.9840, 315.7119
734.1350, 236.9277
735.2860, 450.4033
736.4370, 159.7202
737.5880, 168.0181
738.7380, 119.2954
739.8880, 251.5547
741.0390, 136.7944
742.1890, 164.0142
743.3380, 179.2144
744.4880, 146.3955
745.6380, 222.5566
746.7870, 245.6987
747.9360, 163.8198
749.0850, 193.9214
750.2340, 106.0034
751.3830, 152.0645
752.5310, 193.1064
753.6800, 175.1270
754.8280, 40.12842
755.9760, 252.1025
757.1240, 429.0562
758.2720, 67.98926
759.4190, 164.8994
760.5670, 84.79053
761.7140, 222.6597
762.8610, 148.5078
764.0080, 116.3364
765.1550, 95.14355
766.3020, 169.9287
767.4480, 191.6948
768.5950, 155.4395
769.7410, 167.1636
770.8870, 121.8662
772.0330, 91.54980
773.1780, 143.2114
774.3240, 67.85156
775.4690, 139.4697
776.6140, 128.0664
777.7590, 152.6436
778.9040, 171.2002
780.0490, 181.7358
781.1940, 195.2520
782.3380, 204.7471
783.4820, 89.22217
784.6260, 225.6748
785.7700, 184.1079
786.9140, 145.5200
788.0580, 233.9116
789.2010, 100.2832
790.3450, 80.63232
791.4880, 198.9600
792.6310, 106.2676
793.7730, 110.5537
794.9160, 92.81836
796.0590, 136.0610
797.2010, 210.2847
798.3430, 69.48633
799.4850, 76.05078
800.6270, 177.0938
801.7690, 76.02148
802.9100, 38.87012
804.0520, 130.5527
805.1930, 93.02051
806.3340, 93.22559
807.4750, 59.29199
808.6160, 30.40137
809.7560, 38.58594
810.8970, 20.34277
812.0370, 37.27148
813.1770, 102.3096
814.3170, 88.88770
815.4570, 94.69629
816.5960, 155.0273
817.7360, 22.85840
818.8750, 194.2900
820.0140, 27.37891
821.1530, 18.97656
822.2920, 56.90918
823.4310, 56.52246
824.5690, 118.1719
825.7070, 130.7568
826.8460, 52.62500
827.9840, 15.50098
829.1220, 21.41602
830.2590, 64.32129
831.3970, 33.36719
832.5340, 121.9023
833.6710, 22.72656
834.8080, 25.53418
835.9450, 121.1621
837.0820, 5.995117
838.2190, 9.184570
839.3550, 125.5264
840.4910, 5.467773
841.6270, 66.62207
842.7630, 10.22363
843.8990, 131.1104
845.0350, 248.9990
846.1700, 3.630859
847.3060, 12.28418
848.4410, 102.2949
849.5760, 45.37598
850.7100, 109.3447
851.8450, 113.1543
852.9800, 189.1299
854.1140, 138.1094
855.2480, 178.3633
856.3820, 199.0742
857.5160, 173.8311
858.6500, 192.6504
859.7830, 127.5625
860.9170, 187.4346
862.0500, 112.3916
863.1830, 106.4443
864.3160, 70.38184
865.4480, 85.05469
866.5810, 158.9707
867.7130, 146.8770
868.8460, 222.7734
869.9780, 151.6602
871.1100, 59.53711
872.2410, 212.4043
873.3730, 140.2627
874.5050, 105.1123
875.6360, 147.9541
876.7670, 218.7852
877.8980, 151.6084
879.0290, 201.8740
880.1590, 89.22559
881.2900, 198.0225
882.4200, 148.8096
883.5500, 108.5977
884.6800, 193.2285
885.8100, 147.7725
886.9400, 257.8545
888.0690, 198.6094
889.1990, 136.3574
890.3280, 252.0977
891.4570, 199.0771
892.5860, 266.8018
893.7140, 268.5186
894.8430, 197.9961
895.9710, 387.7178
897.1000, 294.2646
898.2280, 328.9717
899.3560, 445.6719
900.4830, 357.3291
901.6110, 389.8887
902.7380, 547.5732
903.8660, 419.2549
904.9930, 591.9443
906.1200, 530.6328
907.2460, 648.2891
908.3730, 694.8213
909.5000, 577.5410
910.6260, 742.9941
911.7520, 878.7119
912.8780, 810.4189
914.0040, 820.1289
915.1290, 928.8398
916.2550, 898.5635
917.3800, 1008.281
918.5050, 1048.994
919.6300, 1092.527
920.7550, 1166.231
921.8800, 1255.931
923.0040, 1252.630
924.1290, 1412.326
925.2530, 1421.885
926.3770, 1374.360
927.5010, 1329.047
928.6250, 1307.622
929.7480, 1250.209
930.8720, 1045.734
931.9950, 875.4209
933.1180, 848.1387
934.2410, 770.5420
935.3640, 744.0215
936.4860, 657.7383
937.6090, 556.2480
938.7310, 527.3467
939.8530, 539.8398
940.9750, 442.5049
942.0970, 419.1924
943.2180, 394.7529
944.3400, 360.6982
945.4610, 511.9023
946.5820, 390.4648
947.7030, 380.6299
948.8240, 189.4023
949.9450, 265.1367
951.0650, 279.8965
952.1860, 278.7305
953.3060, 271.7217
954.4260, 286.5566
955.5460, 256.8418
956.6650, 190.8564
957.7850, 159.4277
958.9040, 197.1299
960.0230, 148.9971
961.1420, 238.8633
962.2610, 338.7373
963.3800, 171.7793
964.4990, 319.8516
965.6170, 135.4707
966.7350, 263.2607
967.8530, 133.5381
968.9710, 198.1670
970.0890, 158.7148
971.2070, 49.71289
972.3240, 223.6631
973.4410, 292.4082
974.5580, 254.4697
975.6750, 251.7656
976.7920, 241.8320
977.9090, 243.1504
979.0250, 346.8496
980.1410, 278.9443
981.2580, 293.0889
982.3740, 340.8662
983.4890, 290.9854
984.6050, 207.1094
985.7200, 378.2500
986.8360, 281.3955
987.9510, 282.5449
989.0660, 365.7021
990.1810, 270.8643
991.2950, 312.0293
992.4100, 377.1992
993.5240, 304.3779
994.6390, 310.5615
995.7530, 336.7500
996.8660, 440.9424
997.9800, 382.1436
999.0940, 424.3486
1000.207, 370.5586
1001.320, 409.7734
1002.433, 350.9932
1003.546, 360.3262
1004.659, 363.4453
1005.772, 343.6777
1006.884, 326.0859
1007.996, 279.3281
1009.108, 281.6445
1010.220, 243.8975
1011.332, 201.1533
1012.444, 190.4619
1013.555, 172.3398
1014.666, 176.9512
1015.777, 188.2266
1016.888, 192.9375
1017.999, 217.8369
1019.110, 236.0830
1020.220, 283.3799
1021.331, 346.6807
1022.441, 412.9854
1023.551, 351.2959
1024.661, 333.6123
1025.770, 290.9365
1026.880, 373.2666
1027.989, 255.6016
1029.098, 277.0693
1030.207, 265.4160
1031.316, 194.7676
1032.425, 228.0684
1033.533, 318.2041
1034.642, 257.5713
1035.750, 305.9453
1036.858, 353.9355
1037.966, 373.7441
1039.073, 281.0557
1040.181, 362.4502
1041.288, 338.1514
1042.396, 481.5977
1043.503, 385.0068
1044.610, 334.3604
1045.716, 401.2305
1046.823, 397.6553
1047.929, 436.6602
1049.036, 402.9590
1050.142, 326.2061
1051.248, 337.6484
1052.353, 319.0947
1053.459, 362.5459
1054.564, 339.0020
1055.670, 337.3320
1056.775, 290.7959
1057.880, 448.5400
1058.985, 360.3076
1060.089, 410.7861
1061.194, 447.2695
1062.298, 389.7568
1063.402, 332.4619
1064.506, 436.9600
1065.610, 300.1230
1066.713, 267.6289
1067.817, 387.1387
1068.920, 303.6533
1070.023, 645.1729
1071.126, 515.4482
1072.229, 519.2285
1073.332, 394.8184
1074.435, 409.3574
1075.537, 289.9004
1076.639, 306.5771
1077.741, 324.1357
1078.843, 342.9619
1079.945, 348.5312
1081.046, 380.1084
1082.148, 276.6875
1083.249, 475.2695
1084.350, 340.8564
1085.451, 433.4463
1086.551, 365.0430
1087.652, 371.6426
1088.752, 461.4102
1089.853, 360.0244
1090.953, 286.6631
1092.053, 269.3057
1093.152, 340.9521
1094.252, 368.6016
1095.351, 302.2744
1096.451, 392.9551
1097.550, 181.6504
1098.649, 320.3730
1099.748, 287.0977
1100.846, 182.8633
1101.945, 207.6406
1103.043, 319.4326
1104.141, 311.4873
1105.239, 244.2881
1106.337, 288.0938
1107.434, 263.9014
1108.532, 235.7158
1109.629, 236.6514
1110.726, 226.9209
1111.823, 221.1719
1112.920, 247.9941
1114.017, 296.8184
1115.113, 347.6475
1116.210, 461.4766
1117.306, 591.3086
1118.402, 685.5830
1119.498, 796.5371
1120.593, 913.5898
1121.689, 938.4277
1122.784, 1022.268
1123.879, 962.1104
1124.974, 876.9541
1126.069, 774.7988
1127.164, 782.6465
1128.259, 553.4951
1129.353, 618.3457
1130.447, 300.1973
1131.541, 236.0508
1132.635, 169.9062
1133.729, 103.7637
1134.822, 61.41602
1135.916, 19.48340
1137.009, 14.34570
1138.102, 5.254883
1139.195, 20.76367
1140.288, 2.064453
1141.380, 83.79883
1142.473, 112.6650
1143.565, 120.5322
1144.657, 92.40234
1145.749, 59.27246
1146.841, 9.144531
1147.932, 37.98242
1149.024, 98.87500
1150.115, 16.73242
1151.206, 68.59180
1152.297, 123.4521
1153.388, 2.314453
1154.479, 29.17676
1155.569, 156.0410
1156.659, 33.90723
1157.750, 192.7734
1158.839, 46.64160
1159.929, 69.49023
1161.019, 16.34570
1162.108, 104.1807
1163.198, 38.01758
1164.287, 13.14355
1165.376, 43.68652
1166.465, 48.51953
1167.553, 10.64746
1168.642, 56.81836
1169.730, 16.01953
1170.818, 13.77246
1171.906, 38.43652
1172.994, 145.6641
1174.082, 44.03223
1175.170, 32.26953
1176.257, 6.587891
1177.344, 98.09082
1178.431, 26.23047
1179.518, 59.56445
1180.605, 65.07031
1181.691, 93.70508
1182.778, 36.33984
1183.864, 107.9766
1184.950, 8.613281
1186.036, 13.75000
1187.122, 109.8799
1188.207, 2.490234
1189.292, 2.863281
1190.378, 39.76074
1191.463, 12.38574
1192.548, 46.01172
1193.632, 51.36230
1194.717, 110.2363
1195.801, 122.1641
1196.886, 16.37109
1197.970, 52.90527
1199.054, 119.4414
1200.137, 65.97656
1201.221, 85.51367
1202.305, 112.0508
1203.388, 16.41211
1204.471, 93.11523
1205.554, 93.64258
1206.637, 10.17188
1207.719, 22.29980
1208.802, 53.21582
1209.884, 126.7324
1210.966, 98.24902
1212.048, 29.76562
1213.130, 55.28418
1214.212, 154.8115
1215.293, 23.33984
1216.374, 34.86719
1217.456, 202.3975
1218.536, 7.3242001E-02
1219.617, 71.39941
1220.698, 95.98242
1221.778, 57.51172
1222.859, 27.04297
1223.939, 99.57422
1225.019, 86.10547
1226.099, 117.6387
1227.178, 112.1699
1228.258, 54.70312
1229.337, 63.23730
1230.417, 61.76953
1231.496, 4.303711
1232.574, 63.83691
1233.653, 2.629883
1234.732, 69.90039
1235.810, 27.43066
1236.888, 114.9600
1237.966, 5.489258
1239.044, 101.0195
1240.122, 73.54883
1241.199, 34.08008
1242.277, 37.61035
1243.354, 63.14062
1244.431, 67.29980
1245.508, 275.2021
1246.585, 100.7344
1247.661, 135.2666
1248.738, 109.7998
1249.814, 12.66309
1250.890, 231.8672
1251.966, 132.3965
1253.042, 114.9268
1254.117, 59.46875
1255.193, 137.0342
1256.268, 156.6016
1257.343, 94.16992
1258.418, 72.73730
1259.493, 240.3057
1260.567, 131.8750
1261.642, 199.4434
1262.716, 37.01367
1263.790, 67.58301
1264.864, 129.1543
1265.938, 95.72754
1267.011, 61.30957
1268.085, 66.72559
1269.158, 78.31250
1270.231, 242.8369
1271.304, 162.3799
1272.377, 189.0244
1273.450, 89.61914
