##NAMES=Covellite
##RRUFFID=R060306
##IDEAL CHEMISTRY=Cu^1+^S
##LOCALITY=3800' level, Leonard mine, Butte, Silver Bow County, Montana, USA
##OWNER=RRUFF
##SOURCE=Michael Scott
##DESCRIPTION=Blue iridescent metallic hexagonal plates
##STATUS=The identification of this mineral has been confirmed by X-ray diffraction and chemical analysis
##URL=rruff.info/R060306
##MEASURED CHEMISTRY=Cu_1.00_S_1.00_
##PIN_ID=M00169
##ORIENTATION=Laser parallel to -a* (-1 0 0). Fiducial mark perpendicular to laser is parallel to c [0 0 1]
52.67100, 0.0000000E+00
53.91000, 24.09781
55.14900, 49.64633
56.38700, 0.3703610
57.62600, 19.02350
58.86400, 6.5857001E-02
60.10300, 72.95624
61.34100, 98.83160
62.57900, 158.7867
63.81700, 136.5601
65.05400, 62.93201
66.29200, 12.28168
67.52900, 28.23584
68.76700, 36.93927
70.00400, 165.1333
71.24100, 213.2531
72.47700, 129.2181
73.71400, 132.9556
74.95100, 197.3998
76.18700, 318.4939
77.42300, 340.1881
78.65900, 359.4377
79.89500, 429.2039
81.13100, 517.4510
82.36700, 717.1492
83.60200, 952.2699
84.83700, 1011.789
86.07200, 985.6845
87.30800, 996.9379
88.54200, 1134.531
89.77700, 1229.449
91.01200, 1539.676
92.24600, 1695.185
93.48000, 1774.958
94.71400, 1777.975
95.94800, 1905.226
97.18200, 1967.745
98.41600, 1960.401
99.64900, 2120.304
100.8830, 2170.405
102.1160, 2182.693
103.3490, 2237.163
104.5820, 2502.807
105.8150, 2822.619
107.0470, 3388.593
108.2800, 4483.725
109.5120, 5094.009
110.7440, 3939.442
111.9760, 3288.018
113.2080, 2997.737
114.4400, 2990.592
115.6710, 2974.582
116.9030, 2769.701
118.1340, 2494.948
119.3650, 2178.329
120.5960, 1985.835
121.8270, 1899.462
123.0580, 2011.205
124.2880, 2025.063
125.5190, 1885.077
126.7490, 1815.241
127.9790, 1898.443
129.2090, 2081.634
130.4390, 2193.870
131.6680, 2262.161
132.8980, 2467.487
134.1270, 2720.864
135.3560, 2991.271
136.5850, 3438.717
137.8140, 3942.252
139.0430, 4041.906
140.2710, 3843.692
141.5000, 3535.032
142.7280, 3076.105
143.9560, 2450.440
145.1840, 1984.458
146.4120, 1723.528
147.6390, 1578.650
148.8670, 1414.825
150.0940, 1358.055
151.3210, 1412.339
152.5490, 1327.679
153.7750, 1205.073
155.0020, 1115.524
156.2290, 1079.031
157.4550, 929.5938
158.6810, 891.2126
159.9080, 897.8878
161.1340, 851.6191
162.3590, 857.4060
163.5850, 861.2515
164.8110, 839.2583
166.0360, 963.1123
167.2610, 842.1335
168.4860, 887.2136
169.7110, 937.3484
170.9360, 858.5378
172.1610, 812.7814
173.3850, 853.0789
174.6100, 800.4299
175.8340, 800.8347
177.0580, 873.2925
178.2820, 794.8036
179.5050, 795.3672
180.7290, 819.9832
181.9520, 741.6514
183.1760, 763.3973
184.3990, 817.3943
185.6220, 802.2148
186.8450, 875.2463
188.0670, 866.1670
189.2900, 859.1382
190.5120, 946.1592
191.7340, 946.2300
192.9560, 984.3505
194.1780, 1019.520
195.4000, 1009.757
196.6220, 1037.521
197.8430, 1041.263
199.0640, 991.3766
200.2860, 1053.416
201.5070, 1198.077
202.7270, 1129.514
203.9480, 995.2627
205.1690, 781.3557
206.3890, 532.7383
207.6090, 435.5667
208.8290, 444.0511
210.0490, 397.2744
211.2690, 438.8145
212.4890, 463.2997
213.7080, 473.6035
214.9280, 442.6467
216.1470, 397.4509
217.3660, 378.3516
218.5850, 352.3440
219.8030, 360.4243
221.0220, 375.6462
222.2400, 377.8917
223.4590, 378.0742
224.6770, 368.4501
225.8950, 379.7754
227.1120, 341.6097
228.3300, 324.2190
229.5480, 321.3333
230.7650, 339.0703
231.9820, 331.8693
233.1990, 355.7285
234.4160, 352.6462
235.6330, 327.6208
236.8490, 326.6512
238.0660, 333.7356
239.2820, 389.8732
240.4980, 393.0629
241.7140, 367.3031
242.9300, 398.5936
244.1460, 537.9327
245.3610, 557.3203
246.5770, 653.7551
247.7920, 705.2363
249.0070, 885.7637
250.2220, 984.3352
251.4370, 1131.952
252.6510, 1320.612
253.8660, 1506.315
255.0800, 1725.060
256.2940, 1919.847
257.5080, 2276.676
258.7220, 2874.544
259.9360, 3366.454
261.1490, 2950.403
262.3630, 2728.390
263.5760, 2688.417
264.7890, 2644.481
266.0020, 2512.583
267.2150, 2266.721
268.4270, 2040.896
269.6400, 1763.109
270.8520, 1580.355
272.0640, 1327.780
273.2760, 1163.097
274.4880, 952.4480
275.7000, 758.8341
276.9120, 723.3435
278.1230, 605.0657
279.3340, 486.5546
280.5450, 471.7433
281.7560, 391.3005
282.9670, 284.8921
284.1780, 255.5172
285.3880, 298.1755
286.5980, 220.8668
287.8090, 229.5906
289.0190, 170.3467
290.2290, 191.1350
291.4380, 132.9552
292.6480, 147.8074
293.8570, 118.6914
295.0670, 138.6069
296.2760, 77.55383
297.4850, 82.53174
298.6930, 118.5409
299.9020, 70.58093
301.1110, 59.65149
302.3190, 11.75256
303.5270, 4.884033
304.7350, 23.04553
305.9430, 52.23682
307.1510, 12.45801
308.3580, 15.70898
309.5660, 46.98901
310.7730, 0.7016600
311.9800, 17.63623
313.1870, 9.996826
314.3940, 7.397217
315.6010, 33.81958
316.8070, 27.27026
318.0130, 5.251221
319.2200, 1.745361
320.4260, 37.78760
321.6310, 29.34814
322.8370, 53.93579
324.0430, 16.55078
325.2480, 32.19263
326.4540, 28.86133
327.6590, 65.55640
328.8640, 15.27783
330.0680, 28.02393
331.2730, 13.79614
332.4780, 22.59326
333.6820, 3.416016
334.8860, 9.264160
336.0900, 0.7844240
337.2940, 30.95264
338.4980, 12.02808
339.7010, 19.08130
340.9050, 22.11328
342.1080, 46.13159
343.3110, 28.14014
344.5140, 9.140625
345.7170, 53.10742
346.9200, 17.94482
348.1220, 26.03564
349.3240, 8.827881
350.5270, 14.65820
351.7290, 69.45703
352.9310, 9.244629
354.1320, 25.00122
355.3340, 2.732178
356.5350, 46.57300
357.7370, 47.08789
358.9380, 14.35522
360.1390, 115.1960
361.3400, 14.12280
362.5400, 245.6064
363.7410, 181.1230
364.9410, 70.32666
366.1410, 12.22900
367.3410, 87.18237
368.5410, 51.59692
369.7410, 81.00098
370.9400, 52.40601
372.1400, 6.198730
373.3390, 32.16577
374.5380, 7.488525
375.7370, 59.17261
376.9360, 50.88550
378.1350, 13.62842
379.3330, 49.40576
380.5310, 56.21069
381.7300, 15.05322
382.9280, 84.92993
384.1260, 32.83521
385.3230, 55.77905
386.5210, 70.75244
387.7180, 129.7712
388.9160, 89.82495
390.1130, 111.9094
391.3100, 103.0212
392.5060, 50.16455
393.7030, 46.33667
394.9000, 111.5430
396.0960, 80.78223
397.2920, 83.05322
398.4880, 46.36230
399.6840, 52.69897
400.8800, 83.06201
402.0750, 92.45142
403.2710, 30.86572
404.4660, 120.3042
405.6610, 52.76758
406.8560, 54.25659
408.0510, 92.77466
409.2450, 75.31860
410.4400, 98.89111
411.6340, 72.49097
412.8280, 38.11938
414.0220, 65.77490
415.2160, 6.456543
416.4100, 23.16675
417.6030, 31.91040
418.7970, 50.67676
419.9900, 9.466553
421.1830, 3.277344
422.3760, 22.11011
423.5690, 6.035156
424.7610, 16.83472
425.9540, 117.7351
427.1460, 98.97070
428.3380, 118.1699
429.5300, 181.5688
430.7220, 101.5579
431.9140, 217.5674
433.1050, 224.5974
434.2970, 278.6475
435.4880, 251.7188
436.6790, 337.8096
437.8700, 390.9207
439.0610, 452.0513
440.2510, 472.2012
441.4420, 544.3708
442.6320, 712.5593
443.8220, 845.7671
445.0120, 1001.994
446.2020, 1154.239
447.3910, 1439.502
448.5810, 1724.785
449.7700, 1946.085
450.9600, 2342.405
452.1490, 2693.741
453.3370, 3202.096
454.5260, 3705.446
455.7150, 4384.834
456.9030, 4997.041
458.0910, 5607.465
459.2800, 6442.907
460.4670, 7346.366
461.6550, 8453.737
462.8430, 10114.19
464.0300, 12158.70
465.2180, 15043.22
466.4050, 19252.77
467.5920, 25242.33
468.7790, 32848.91
469.9650, 41963.48
471.1520, 50297.09
472.3380, 54177.72
473.5250, 49864.36
474.7110, 42119.01
475.8970, 32637.68
477.0820, 25065.36
478.2680, 18862.26
479.4540, 14482.96
480.6390, 11261.61
481.8240, 8814.960
483.0090, 7154.064
484.1940, 6167.059
485.3780, 5134.089
486.5630, 4195.166
487.7470, 3412.649
488.9320, 3067.409
490.1160, 2570.251
491.3000, 2321.041
492.4830, 2039.564
493.6670, 1772.981
494.8500, 1644.008
496.0340, 1552.537
497.2170, 1362.476
498.4000, 1241.125
499.5820, 1161.072
500.7650, 1041.433
501.9480, 929.3821
503.1300, 872.8728
504.3120, 804.8611
505.4940, 800.4099
506.6760, 746.0059
507.8580, 699.1704
509.0390, 721.7881
510.2210, 645.9868
511.4020, 618.8728
512.5830, 649.5093
513.7640, 599.4844
514.9450, 539.0376
516.1250, 563.3499
517.3060, 521.7720
518.4860, 493.9893
519.6660, 565.5444
520.8460, 501.1680
522.0260, 517.3438
523.2060, 449.8486
524.3850, 435.6289
525.5650, 456.1064
526.7440, 481.0364
527.9230, 438.9009
529.1020, 401.5557
530.2810, 436.6865
531.4590, 462.0696
532.6380, 474.5830
533.8160, 431.1580
534.9940, 483.2131
536.1720, 434.4155
537.3500, 487.5198
538.5270, 477.2905
539.7050, 430.6348
540.8820, 494.5808
542.0590, 503.3823
543.2360, 406.1313
544.4130, 444.6206
545.5900, 332.0149
546.7660, 421.5444
547.9430, 373.3623
549.1190, 314.8906
550.2950, 355.8838
551.4710, 397.4028
552.6470, 288.7197
553.8220, 326.2864
554.9980, 291.6956
556.1730, 291.8123
557.3480, 240.8325
558.5230, 241.7871
559.6980, 255.3184
560.8730, 250.9490
562.0470, 252.8611
563.2220, 215.2051
564.3960, 257.7422
565.5700, 214.4932
566.7440, 230.0684
567.9170, 185.4768
569.0910, 156.4248
570.2640, 193.1208
571.4380, 157.8025
572.6110, 188.2141
573.7840, 208.6418
574.9570, 184.0542
576.1290, 141.6760
577.3020, 124.0886
578.4740, 108.5254
579.6460, 152.9375
580.8180, 156.3655
581.9900, 135.7766
583.1620, 127.1870
584.3330, 60.59644
585.5040, 121.0054
586.6760, 111.4149
587.8470, 82.82324
589.0180, 117.2347
590.1880, 105.6448
591.3590, 119.0532
592.5290, 127.4807
593.7000, 131.1003
594.8700, 141.2667
596.0400, 144.6675
597.2090, 160.0659
598.3790, 158.4629
599.5490, 204.8583
600.7180, 147.2511
601.8870, 161.6411
603.0560, 144.0291
604.2250, 96.41431
605.3940, 87.79626
606.5620, 55.17505
607.7300, 87.55042
608.8990, 45.92212
610.0670, 76.29016
611.2350, 46.65442
612.4020, 74.01477
613.5700, 46.37097
614.7370, 55.72302
615.9050, 82.07092
617.0720, 75.41418
618.2390, 6.246826
619.4060, 52.07642
620.5720, 40.39502
621.7390, 45.71399
622.9050, 93.03015
624.0710, 84.34436
625.2370, 63.65710
626.4030, 16.97241
627.5690, 77.28418
628.7340, 35.59229
629.9000, 55.90369
631.0650, 0.2093510
632.2300, 41.50024
633.3950, 29.83203
634.5600, 64.11450
635.7240, 46.43298
636.8890, 71.71753
638.0530, 2.018799
639.2170, 52.28809
640.3810, 5.449341
641.5450, 16.15894
642.7080, 13.17041
643.8720, 21.07214
645.0350, 24.65466
646.1980, 11.83972
647.3610, 28.19946
648.5240, 12.44678
649.6870, 49.60522
650.8490, 39.87195
652.0120, 32.04126
653.1740, 31.20667
654.3360, 18.39270
655.4980, 11.85352
656.6600, 26.23694
657.8210, 39.39038
658.9830, 21.69958
660.1440, 5.166016
661.3050, 50.13379
662.4660, 19.58374
663.6270, 6.857666
664.7870, 30.18506
665.9480, 25.78455
667.1080, 14.21313
668.2680, 52.55591
669.4280, 11.57300
670.5880, 1.418701
671.7480, 33.30884
672.9070, 1.440308
674.0670, 10.41687
675.2260, 11.69373
676.3850, 9.879883
677.5440, 3.395508
678.7030, 28.37500
679.8610, 17.35364
681.0200, 24.06665
682.1780, 27.23438
683.3360, 45.24304
684.4940, 54.76611
685.6520, 43.48364
686.8090, 26.18457
687.9670, 2.819702
689.1240, 19.06689
690.2810, 3.916626
691.4380, 8.741699
692.5950, 3.310425
693.7520, 6.885376
694.9080, 15.40161
696.0650, 6.051270
697.2210, 18.57812
698.3770, 49.86169
699.5330, 42.33777
700.6880, 53.21582
701.8440, 21.64990
702.9990, 55.03687
704.1550, 72.41150
705.3100, 10.22192
706.4650, 78.11462
707.6190, 27.43982
708.7740, 42.74890
709.9290, 44.04419
711.0830, 100.3483
712.2370, 73.61865
713.3910, 112.8773
714.5450, 49.12476
715.6980, 89.35901
716.8520, 72.58191
718.0050, 123.7931
719.1580, 74.99280
720.3110, 141.1810
721.4640, 143.3578
722.6170, 151.5232
723.7700, 163.7474
724.9220, 147.2646
726.0740, 179.3955
727.2260, 220.5034
728.3780, 187.6113
729.5300, 221.7078
730.6810, 207.7927
731.8330, 200.8658
732.9840, 276.9275
734.1350, 271.9775
735.2860, 282.0162
736.4370, 221.0431
737.5880, 284.2202
738.7380, 282.2239
739.8880, 246.2419
741.0390, 284.2224
742.1890, 253.1914
743.3380, 269.1487
744.4880, 282.0945
745.6380, 230.0287
746.7870, 252.9514
747.9360, 209.8625
749.0850, 179.7621
750.2340, 224.6501
751.3830, 205.5266
752.5310, 220.3917
753.6800, 194.2451
754.8280, 190.0872
755.9760, 204.9176
757.1240, 139.5288
758.2720, 170.3367
759.4190, 189.1331
760.5670, 171.9182
761.7140, 138.6919
762.8610, 131.4543
764.0080, 172.2054
765.1550, 174.4438
766.3020, 182.3743
767.4480, 216.0768
768.5950, 139.7827
769.7410, 110.5428
770.8870, 68.22620
772.0330, 120.7971
773.1780, 71.45776
774.3240, 131.1069
775.4690, 73.74487
776.6140, 125.4840
777.7590, 108.0997
778.9040, 66.36401
780.0490, 52.98059
781.1940, 21.05615
782.3380, 19.13074
783.4820, 68.64722
784.6260, 41.61536
785.7700, 51.95740
786.9140, 95.90381
788.0580, 48.41040
789.2010, 79.85522
790.3450, 79.18518
791.4880, 108.4822
792.6310, 30.49329
793.7730, 35.30542
794.9160, 62.44751
796.0590, 38.79407
797.2010, 60.80212
798.3430, 34.74182
799.4850, 35.12805
800.6270, 3.183960
801.7690, 56.96106
802.9100, 82.04053
804.0520, 80.66687
805.1930, 22.35767
806.3340, 37.25635
807.4750, 30.67786
808.6160, 50.84558
809.7560, 5.881836
810.8970, 56.85400
812.0370, 30.34399
813.1770, 60.68542
814.3170, 23.87659
815.4570, 5.885498
816.5960, 36.07153
817.7360, 58.65381
818.8750, 5.621582
820.0140, 15.84814
821.1530, 7.177979
822.2920, 17.29602
823.4310, 17.27625
824.5690, 40.96582
825.7070, 11.05823
826.8460, 8.552002
827.9840, 79.42310
829.1220, 20.59778
830.2590, 12.51953
831.3970, 57.59583
832.5340, 7.961548
833.6710, 117.2786
834.8080, 36.80005
835.9450, 2.741455
837.0820, 61.41956
838.2190, 5.485962
839.3550, 57.86670
840.4910, 71.77368
841.6270, 21.79785
842.7630, 24.65955
843.8990, 40.68433
845.0350, 34.16602
846.1700, 29.89539
847.3060, 0.6356200
848.4410, 21.64148
849.5760, 66.62769
850.7100, 10.62488
851.8450, 89.40845
852.9800, 72.39722
854.1140, 24.35742
855.2480, 54.33801
856.3820, 35.29834
857.5160, 57.27112
858.6500, 35.23999
859.7830, 4.794800
860.9170, 15.83411
862.0500, 15.11938
863.1830, 28.93042
864.3160, 14.00696
865.4480, 43.94116
866.5810, 44.87195
867.7130, 47.21765
868.8460, 42.72400
869.9780, 27.64551
871.1100, 13.56396
872.2410, 31.47949
873.3730, 10.60791
874.5050, 16.30054
875.6360, 2.793701
876.7670, 28.10913
877.8980, 37.00928
879.0290, 14.90698
880.1590, 24.80249
881.2900, 48.69556
882.4200, 41.58643
883.5500, 36.47510
884.6800, 40.36182
885.8100, 88.24658
886.9400, 51.12964
888.0690, 79.01050
889.1990, 45.88965
890.3280, 124.7695
891.4570, 82.64819
892.5860, 104.5249
893.7140, 115.4060
894.8430, 73.28564
895.9710, 154.1641
897.1000, 172.0410
898.2280, 115.9170
899.3560, 161.7920
900.4830, 253.6658
901.6110, 189.5403
902.7380, 267.4138
903.8660, 311.2869
904.9930, 264.1592
906.1200, 389.0354
907.2460, 371.8682
908.3730, 415.7458
909.5000, 518.5940
910.6260, 514.4727
911.7520, 581.3328
912.8780, 637.2151
914.0040, 712.0974
915.1290, 734.9478
916.2550, 735.7437
917.3800, 792.1060
918.5050, 793.4824
919.6300, 918.3953
920.7550, 977.1238
921.8800, 1013.976
923.0040, 1033.907
924.1290, 1124.739
925.2530, 1129.671
926.3770, 1169.606
927.5010, 1135.542
928.6250, 1102.184
929.7480, 1044.900
930.8720, 982.8381
931.9950, 878.6123
933.1180, 814.5549
934.2410, 744.3184
935.3640, 652.0918
936.4860, 608.4053
937.6090, 578.3884
938.7310, 518.3853
939.8530, 486.3955
940.9750, 439.1724
942.0970, 370.1709
943.2180, 405.1453
944.3400, 330.2083
945.4610, 323.9026
946.5820, 311.9775
947.7030, 224.0095
948.8240, 270.1011
949.9450, 224.5071
951.0650, 216.3625
952.1860, 185.4895
953.3060, 141.6218
954.4260, 166.2898
955.5460, 138.4294
956.6650, 131.4141
957.7850, 94.51465
958.9040, 142.6230
960.0230, 120.7878
961.1420, 117.3281
962.2610, 99.00903
963.3800, 79.19873
964.4990, 111.3848
965.6170, 97.55176
966.7350, 93.76538
967.8530, 67.93726
968.9710, 89.16919
970.0890, 77.42017
971.2070, 46.62964
972.3240, 83.43091
973.4410, 132.6689
974.5580, 79.94531
975.6750, 94.22583
976.7920, 102.5105
977.9090, 89.80859
979.0250, 87.11060
980.1410, 58.41919
981.2580, 131.7332
982.3740, 151.0374
983.4890, 64.36816
984.6050, 115.7031
985.7200, 63.04224
986.8360, 104.3867
987.9510, 99.73657
989.0660, 161.0906
990.1810, 128.4502
991.2950, 52.81445
992.4100, 151.1826
993.5240, 86.55542
994.6390, 91.86206
995.7530, 199.8684
996.8660, 120.2542
997.9800, 109.6562
999.0940, 92.05322
1000.207, 116.4548
1001.320, 142.8608
1002.433, 194.2717
1003.546, 124.6873
1004.659, 106.1077
1005.772, 146.5344
1006.884, 84.96582
1007.996, 92.24048
1009.108, 109.6821
1010.220, 98.10229
1011.332, 72.55273
1012.444, 78.00806
1013.555, 130.4685
1014.666, 127.9331
1015.777, 27.40527
1016.888, 92.88184
1017.999, 75.36401
1019.110, 80.85278
1020.220, 117.3467
1021.331, 39.84546
1022.441, 53.35034
1023.551, 131.3928
1024.661, 85.90747
1025.770, 74.42773
1026.880, 68.95264
1027.989, 70.48242
1029.098, 43.01782
1030.207, 48.01001
1031.316, 53.69702
1032.425, 45.65332
1033.533, 91.20850
1034.642, 101.7688
1035.750, 148.3340
1036.858, 96.90430
1037.966, 67.47974
1039.073, 72.05981
1040.181, 98.13745
1041.288, 88.72803
1042.396, 111.4226
1043.503, 108.2195
1044.610, 121.8252
1045.716, 115.4360
1046.823, 70.05151
1047.929, 26.67212
1049.036, 71.29810
1050.142, 99.78052
1051.248, 61.41895
1052.353, 87.67993
1053.459, 116.4021
1054.564, 88.12915
1055.670, 71.79272
1056.775, 104.4612
1057.880, 113.1348
1058.985, 73.81323
1060.089, 72.49585
1061.194, 138.1836
1062.298, 103.8772
1063.402, 119.5779
1064.506, 99.28345
1065.610, 95.76123
1066.713, 110.2126
1067.817, 96.93335
1068.920, 105.9358
1070.023, 85.67480
1071.126, 115.6758
1072.229, 132.4177
1073.332, 137.5200
1074.435, 34.27148
1075.537, 88.02856
1076.639, 68.78906
1077.741, 146.5530
1078.843, 49.39111
1079.945, 102.1646
1081.046, 98.94189
1082.148, 143.7434
1083.249, 164.5356
1084.350, 154.3325
1085.451, 140.1328
1086.551, 88.93652
1087.652, 107.0457
1088.752, 92.86304
1089.853, 59.01636
1090.953, 78.84595
1092.053, 76.67944
1093.152, 86.51855
1094.252, 83.89648
1095.351, 85.41724
1096.451, 83.55884
1097.550, 85.32471
1098.649, 72.18481
1099.748, 72.04785
1100.846, 60.91406
1101.945, 58.79321
1103.043, 62.74341
1104.141, 63.67188
1105.239, 74.56421
1106.337, 95.45923
1107.434, 107.3567
1108.532, 44.25635
1109.629, 79.18115
1110.726, 94.08594
1111.823, 37.00732
1112.920, 144.9292
1114.017, 124.6169
1115.113, 128.5312
1116.210, 96.44775
1117.306, 132.3662
1118.402, 123.9236
1119.498, 160.5151
1120.593, 168.4397
1121.689, 190.5974
1122.784, 275.5259
1123.879, 258.4563
1124.974, 269.3887
1126.069, 165.3228
1127.164, 161.2593
1128.259, 128.1992
1129.353, 74.16187
1130.447, 106.6174
1131.541, 55.56714
1132.635, 48.51831
1133.729, 25.47095
1134.822, 66.42554
1135.916, 49.38159
1137.009, 30.78589
1138.102, 39.76318
1139.195, 17.72363
1140.288, 0.6860350
1141.380, 7.649902
1142.473, 5.841309
1143.565, 82.58252
1144.657, 20.55054
1145.749, 64.51953
1146.841, 60.94727
1147.932, 3.918701
1149.024, 25.96289
1150.115, 56.34399
1151.206, 26.36084
1152.297, 32.34644
1153.388, 26.52075
1154.479, 16.49194
1155.569, 29.54956
1156.659, 10.55762
1157.750, 43.54248
1158.839, 27.52832
1159.929, 8.582275
1161.019, 27.56934
1162.108, 11.55713
1163.198, 17.54565
1164.287, 22.49561
1165.376, 9.523926
1166.465, 22.51392
1167.553, 31.50391
1168.642, 14.49512
1169.730, 7.486816
1170.818, 13.52100
1171.906, 7.467041
1172.994, 28.45581
1174.082, 8.554932
1175.170, 13.43140
1176.257, 43.42090
1177.344, 1.413086
1178.431, 60.40527
1179.518, 27.39795
1180.605, 18.60962
1181.691, 18.37549
1182.778, 14.25293
1183.864, 1.660645
1184.950, 21.14160
1186.036, 10.82666
1187.122, 13.84277
1188.207, 17.81055
1189.292, 3.778076
1190.378, 8.837402
1191.463, 27.74902
1192.548, 29.71582
1193.632, 18.02686
1194.717, 76.99243
1195.801, 10.03833
1196.886, 18.92554
1197.970, 65.88867
1199.054, 1.148438
1200.137, 3.187744
1201.221, 37.22925
1202.305, 9.708496
1203.388, 38.35352
1204.471, 57.57690
1205.554, 2.492676
1206.637, 45.50659
1207.719, 14.42041
1208.802, 0.3334960
1209.884, 59.24438
1210.966, 40.15430
1212.048, 2.062988
1213.130, 8.970215
1214.212, 35.87646
1215.293, 24.78174
1216.374, 20.68579
1217.456, 19.40454
1218.536, 42.48584
1219.617, 3.625488
1220.698, 33.34546
1221.778, 65.22827
1222.859, 35.69531
1223.939, 3.424805
1225.019, 32.14771
1226.099, 5.577393
1227.178, 68.19360
1228.258, 15.06323
1229.337, 18.93091
1230.417, 45.79688
1231.496, 12.33838
1232.574, 5.484863
1233.653, 4.638184
1234.732, 32.20190
1235.810, 43.03979
1236.888, 33.87842
1237.966, 73.71094
1239.044, 7.543213
