##NAMES=Covellite
##RRUFFID=R060306
##IDEAL CHEMISTRY=Cu^1+^S
##LOCALITY=3800' level, Leonard mine, Butte, Silver Bow County, Montana, USA
##OWNER=RRUFF
##SOURCE=Michael Scott
##DESCRIPTION=Blue iridescent metallic hexagonal plates
##STATUS=The identification of this mineral has been confirmed by X-ray diffraction and chemical analysis
##URL=rruff.info/R060306
##MEASURED CHEMISTRY=Cu_1.00_S_1.00_
##PIN_ID=M00422
##ORIENTATION=Laser parallel to -c* (0 0 -1). Fiducial mark perpendicular to laser is parallel to a [1 0 0]
92.24600, 0.0000000E+00
93.48000, 8.156250
94.71400, 21.57324
95.94800, 50.46387
97.18200, 147.7080
98.41600, 236.3965
99.64900, 321.0820
100.8830, 446.7852
102.1160, 414.9814
103.3490, 642.6846
104.5820, 1150.020
105.8150, 1993.390
107.0470, 3801.531
108.2800, 3827.238
109.5120, 3920.656
110.7440, 4509.042
111.9760, 3395.421
113.2080, 3396.875
114.4400, 4022.514
115.6710, 4275.688
116.9030, 3790.932
118.1340, 3215.902
119.3650, 2530.349
120.5960, 1788.091
121.8270, 1561.271
123.0580, 1699.607
124.2880, 1822.189
125.5190, 1573.900
126.7490, 1597.889
127.9790, 1804.963
129.2090, 2292.725
130.4390, 2788.512
131.6680, 3240.583
132.8980, 3664.802
134.1270, 4341.150
135.3560, 5223.812
136.5850, 6480.943
137.8140, 7884.689
139.0430, 9192.166
140.2710, 9571.487
141.5000, 9161.780
142.7280, 8165.111
143.9560, 7530.546
145.1840, 6290.157
146.4120, 5403.059
147.6390, 4487.314
148.8670, 3781.314
150.0940, 3109.642
151.3210, 2629.615
152.5490, 2117.418
153.7750, 1534.373
155.0020, 1415.750
156.2290, 1036.606
157.4550, 928.6338
158.6810, 737.0698
159.9080, 727.0483
161.1340, 690.0889
162.3590, 741.9414
163.5850, 937.0708
164.8110, 1104.642
166.0360, 1181.274
167.2610, 962.5615
168.4860, 943.3008
169.7110, 906.7446
170.9360, 956.3716
172.1610, 897.6826
173.3850, 778.5977
174.6100, 812.7153
175.8340, 763.0298
177.0580, 814.5303
178.2820, 838.2070
179.5050, 858.0493
180.7290, 712.0469
181.9520, 673.1890
183.1760, 749.4648
184.3990, 654.8623
185.6220, 781.3691
186.8450, 854.9727
188.0670, 1040.662
189.2900, 973.1846
190.5120, 1103.000
191.7340, 1171.926
192.9560, 1209.957
194.1780, 1343.082
195.4000, 1506.317
196.6220, 1565.820
197.8430, 1489.389
199.0640, 1440.568
200.2860, 1605.742
201.5070, 1782.868
202.7270, 1843.123
203.9480, 1350.258
205.1690, 816.0586
206.3890, 354.5171
207.6090, 85.04150
208.8290, 129.2358
210.0490, 281.6821
211.2690, 260.2046
212.4890, 237.5249
213.7080, 197.9609
214.9280, 92.62500
216.1470, 20.09326
217.3660, 50.52344
218.5850, 91.15576
219.8030, 48.72607
221.0220, 107.5679
222.2400, 144.2065
223.4590, 106.2236
224.6770, 228.2119
225.8950, 170.2373
227.1120, 140.3086
228.3300, 284.5156
229.5480, 161.9492
230.7650, 91.63867
231.9820, 311.6240
233.1990, 237.9307
234.4160, 224.5918
235.6330, 162.5410
236.8490, 196.8618
238.0660, 139.4717
239.2820, 131.1177
240.4980, 110.3335
241.7140, 81.48584
242.9300, 211.9585
244.1460, 24.97607
245.3610, 20.61816
246.5770, 94.02441
247.7920, 7.093750
249.0070, 165.9517
250.2220, 156.1396
251.4370, 387.4321
252.6510, 412.8032
253.8660, 535.2305
255.0800, 635.6929
256.2940, 907.1714
257.5080, 1452.647
258.7220, 1653.456
259.9360, 1667.983
261.1490, 2201.884
262.3630, 1540.197
263.5760, 1403.449
264.7890, 1442.637
266.0020, 1523.757
267.2150, 1539.810
268.4270, 1386.659
269.6400, 1621.698
270.8520, 1050.522
272.0640, 838.2441
273.2760, 774.8457
274.4880, 766.3076
275.7000, 675.6191
276.9120, 702.7749
278.1230, 587.7773
279.3340, 535.6353
280.5450, 551.3564
281.7560, 388.9468
282.9670, 428.4141
284.1780, 365.7646
285.3880, 226.0029
286.5980, 227.1323
287.8090, 303.1562
289.0190, 338.0815
290.2290, 340.9121
291.4380, 457.6514
292.6480, 331.3027
293.8570, 339.8687
295.0670, 337.3511
296.2760, 390.7285
297.4850, 318.0205
298.6930, 365.2363
299.9020, 280.3589
301.1110, 284.9980
302.3190, 348.8970
303.5270, 247.2021
304.7350, 290.1436
305.9430, 236.7500
307.1510, 151.9570
308.3580, 234.7993
309.5660, 304.2632
310.7730, 234.4209
311.9800, 179.3296
313.1870, 170.0347
314.3940, 247.5171
315.6010, 206.9272
316.8070, 364.2778
318.0130, 284.6216
319.2200, 175.9590
320.4260, 129.2856
321.6310, 250.5962
322.8370, 399.8979
324.0430, 230.1919
325.2480, 243.4746
326.4540, 160.7456
327.6590, 361.0010
328.8640, 328.2451
330.0680, 291.4775
331.2730, 355.6973
332.4780, 393.9048
333.6820, 351.0991
334.8860, 342.2769
336.0900, 412.4370
337.2940, 292.5825
338.4980, 357.7134
339.7010, 297.8291
340.9050, 317.9292
342.1080, 289.0132
343.3110, 321.0796
344.5140, 325.4771
345.7170, 262.1455
346.9200, 352.1440
348.1220, 320.1187
349.3240, 323.0688
350.5270, 270.0015
351.7290, 351.9136
352.9310, 414.9600
354.1320, 323.2041
355.3340, 408.0552
356.5350, 295.8950
357.7370, 463.7227
358.9380, 479.4058
360.1390, 433.7744
361.3400, 431.9014
362.5400, 430.6748
363.7410, 439.9233
364.9410, 369.8613
366.1410, 344.1338
367.3410, 244.1357
368.5410, 432.5518
369.7410, 485.3428
370.9400, 367.8047
372.1400, 236.1777
373.3390, 349.5371
374.5380, 319.6338
375.7370, 461.1934
376.9360, 345.0044
378.1350, 322.5093
379.3330, 290.9473
380.5310, 370.3730
381.7300, 262.7573
382.9280, 328.8511
384.1260, 328.5000
385.3230, 342.4502
386.5210, 364.1768
387.7180, 318.6606
388.9160, 373.8135
390.1130, 426.1670
391.3100, 359.9131
392.5060, 340.9512
393.7030, 488.3384
394.9000, 359.6460
396.0960, 463.2573
397.2920, 428.8721
398.4880, 352.4634
399.6840, 293.0303
400.8800, 330.6079
402.0750, 409.1831
403.2710, 315.7344
404.4660, 281.2622
405.6610, 200.7671
406.8560, 198.5347
408.0510, 238.7437
409.2450, 224.2285
410.4400, 238.7568
411.6340, 288.2056
412.8280, 189.6807
414.0220, 186.1689
415.2160, 93.63721
416.4100, 73.58154
417.6030, 94.54736
418.7970, 64.98975
419.9900, 99.41357
421.1830, 92.67041
422.3760, 104.2114
423.5690, 97.58789
424.7610, 54.96680
425.9540, 51.33057
427.1460, 120.6841
428.3380, 214.0557
429.5300, 178.9165
430.7220, 184.7578
431.9140, 169.9434
433.1050, 201.7070
434.2970, 205.5894
435.4880, 301.9248
436.6790, 268.1777
437.8700, 351.4614
439.0610, 523.7202
440.2510, 574.0312
441.4420, 629.1772
442.6320, 762.4712
443.8220, 906.4297
445.0120, 954.3989
446.2020, 1214.625
447.3910, 1390.389
448.5810, 1778.356
449.7700, 2225.024
450.9600, 2323.581
452.1490, 2744.243
453.3370, 3299.280
454.5260, 3809.964
455.7150, 4500.346
456.9030, 5514.113
458.0910, 5988.960
459.2800, 6795.497
460.4670, 7580.813
461.6550, 8854.864
462.8430, 10293.13
464.0300, 12523.62
465.2180, 15319.57
466.4050, 19441.03
467.5920, 24697.92
468.7790, 32386.89
469.9650, 41858.16
471.1520, 50407.55
472.3380, 55601.93
473.5250, 54374.17
474.7110, 47567.59
475.8970, 37954.04
477.0820, 29555.48
478.2680, 22364.93
479.4540, 17011.39
480.6390, 13249.74
481.8240, 10562.22
483.0090, 8446.627
484.1940, 7008.130
485.3780, 5797.530
486.5630, 5543.054
487.7470, 4264.587
488.9320, 3698.928
490.1160, 3179.481
491.3000, 2788.046
492.4830, 2451.622
493.6670, 2308.070
494.8500, 1964.667
496.0340, 1910.285
497.2170, 1680.917
498.4000, 1719.562
499.5820, 1501.216
500.7650, 1481.883
501.9480, 1230.562
503.1300, 1239.259
504.3120, 1309.992
505.4940, 1097.627
506.6760, 1199.868
507.8580, 1250.350
509.0390, 1251.865
510.2210, 1057.495
511.4020, 1116.230
512.5830, 1073.661
513.7640, 1054.391
514.9450, 1096.792
516.1250, 1142.645
517.3060, 1090.238
518.4860, 1075.941
519.6660, 1093.732
520.8460, 973.5142
522.0260, 977.4858
523.2060, 935.7529
524.3850, 876.7168
525.5650, 902.1279
526.7440, 794.4189
527.9230, 832.7725
529.1020, 803.1821
530.2810, 722.6812
531.4590, 715.0088
532.6380, 699.7085
533.8160, 726.3042
534.9940, 720.9360
536.1720, 731.5796
537.3500, 794.2363
538.5270, 848.1719
539.7050, 737.8506
540.8820, 928.5396
542.0590, 780.1294
543.2360, 595.9067
544.4130, 698.6621
545.5900, 678.3926
546.7660, 677.1860
547.9430, 657.2524
549.1190, 681.5293
550.2950, 631.5181
551.4710, 615.2104
552.6470, 451.5488
553.8220, 617.5596
554.9980, 536.7422
556.1730, 712.7266
557.3480, 537.2178
558.5230, 494.1357
559.6980, 423.6279
560.8730, 392.1538
562.0470, 498.4575
563.2220, 423.9365
564.3960, 468.0176
565.5700, 537.1309
566.7440, 501.1836
567.9170, 393.9482
569.0910, 335.2949
570.2640, 320.4683
571.4380, 355.6538
572.6110, 257.4541
573.7840, 296.7715
574.9570, 287.0918
576.1290, 323.5278
577.3020, 270.5171
578.4740, 147.7402
579.6460, 180.2427
580.8180, 151.2510
581.9900, 171.3770
583.1620, 128.4668
584.3330, 129.5747
585.5040, 120.5122
586.6760, 10.55176
587.8470, 145.6455
589.0180, 137.7510
590.1880, 31.82861
591.3590, 211.0420
592.5290, 114.1475
593.7000, 67.25977
594.8700, 137.3789
596.0400, 109.6274
597.2090, 127.7642
598.3790, 193.9111
599.5490, 80.06445
600.7180, 93.22656
601.8870, 71.39209
603.0560, 117.5630
604.2250, 61.74316
605.3940, 96.93604
606.5620, 9.866211
607.7300, 83.33496
608.8990, 53.54102
610.0670, 135.8403
611.2350, 104.1738
612.4020, 93.39746
613.5700, 61.62354
614.7370, 87.85400
615.9050, 134.0874
617.0720, 148.3232
618.2390, 163.4463
619.4060, 90.80225
620.5720, 180.1406
621.7390, 93.38672
622.9050, 103.6348
624.0710, 196.8848
625.2370, 157.1372
626.4030, 199.3916
627.5690, 236.6475
628.7340, 247.9048
629.9000, 295.1646
631.0650, 304.6064
632.2300, 307.8677
633.3950, 299.1304
634.5600, 265.3940
635.7240, 301.6582
636.8890, 284.9229
638.0530, 302.1880
639.2170, 383.6152
640.3810, 306.8804
641.5450, 329.1460
642.7080, 371.4106
643.8720, 250.8325
645.0350, 240.6704
646.1980, 131.9326
647.3610, 234.4497
648.5240, 83.95166
649.6870, 228.2080
650.8490, 166.6040
652.0120, 197.8535
653.1740, 83.09912
654.3360, 166.3403
655.4980, 13.29932
656.6600, 136.9277
657.8210, 4.311035
658.9830, 95.55322
660.1440, 76.23877
661.3050, 26.40186
662.4660, 63.25488
663.6270, 49.85449
664.7870, 158.0439
665.9480, 126.1353
667.1080, 160.6465
668.2680, 54.28809
669.4280, 103.3496
670.5880, 16.60010
671.7480, 54.56836
672.9070, 53.42285
674.0670, 51.40283
675.2260, 55.37061
676.3850, 83.64258
677.5440, 100.2319
678.7030, 78.71338
679.8610, 69.57812
681.0200, 123.5688
682.1780, 77.79688
683.3360, 38.91846
684.4940, 48.62109
685.6520, 37.17627
686.8090, 30.87354
687.9670, 49.23193
689.1240, 75.63574
690.2810, 115.2705
691.4380, 17.81299
692.5950, 41.35156
693.7520, 122.9668
694.9080, 20.53418
696.0650, 2.472656
697.2210, 83.26514
698.3770, 3.929688
699.5330, 42.10303
700.6880, 81.26758
701.8440, 6.411133
702.9990, 22.53369
704.1550, 49.27881
705.3100, 38.77588
706.4650, 7.244629
707.6190, 97.30029
708.7740, 1.634766
709.9290, 24.54297
711.0830, 9.432617
712.2370, 30.70166
713.3910, 23.48535
714.5450, 14.71387
715.6980, 98.04883
716.8520, 26.20410
718.0050, 21.49756
719.1580, 104.1792
720.3110, 60.84375
721.4640, 71.49219
722.6170, 69.12402
723.7700, 14.73828
724.9220, 121.3276
726.0740, 78.90137
727.2260, 78.45801
728.3780, 127.9985
729.5300, 67.83301
730.6810, 193.3384
731.8330, 151.8267
732.9840, 219.2983
734.1350, 69.75293
735.2860, 133.2856
736.4370, 135.6094
737.5880, 203.0117
738.7380, 101.3970
739.8880, 193.7642
741.0390, 153.1147
742.1890, 144.4478
743.3380, 142.7637
744.4880, 239.0615
745.6380, 164.2495
746.7870, 164.5122
747.9360, 82.75781
749.0850, 76.98438
750.2340, 120.1924
751.3830, 202.3828
752.5310, 165.5552
753.6800, 183.7100
754.8280, 300.8467
755.9760, 184.9658
757.1240, 242.2920
758.2720, 83.15039
759.4190, 238.2153
760.5670, 115.2622
761.7140, 109.2915
762.8610, 241.3032
764.0080, 249.2969
765.1550, 178.2729
766.3020, 244.2314
767.4480, 135.1719
768.5950, 64.09424
769.7410, 207.9976
770.8870, 159.8823
772.0330, 115.7500
773.1780, 275.5996
774.3240, 113.4312
775.4690, 169.2451
776.6140, 69.04199
777.7590, 122.8188
778.9040, 186.5776
780.0490, 208.3188
781.1940, 70.04248
782.3380, 15.25342
783.4820, 147.4019
784.6260, 41.96045
785.7700, 57.61377
786.9140, 108.1685
788.0580, 72.70508
789.2010, 161.2227
790.3450, 141.3394
791.4880, 127.8447
792.6310, 76.67041
793.7730, 137.7778
794.9160, 24.79346
796.0590, 98.55176
797.2010, 224.9092
798.3430, 37.35840
799.4850, 115.6909
800.6270, 154.7900
801.7690, 75.07324
802.9100, 170.3394
804.0520, 137.5889
805.1930, 112.8228
806.3340, 136.0391
807.4750, 158.2368
808.6160, 176.6860
809.7560, 215.6831
810.8970, 193.8359
812.0370, 141.9717
813.1770, 41.09277
814.3170, 47.19385
815.4570, 66.01172
816.5960, 103.0801
817.7360, 98.13330
818.8750, 139.2803
820.0140, 168.2358
821.1530, 145.2075
822.2920, 178.2388
823.4310, 33.12500
824.5690, 156.7720
825.7070, 95.20508
826.8460, 4.920898
827.9840, 64.07129
829.1220, 37.28125
830.2590, 75.95996
831.3970, 5.462891
832.5340, 34.83984
833.6710, 53.33398
834.8080, 135.0781
835.9450, 74.24512
837.0820, 22.93750
838.2190, 66.72559
839.3550, 119.8965
840.4910, 30.53613
841.6270, 87.98633
842.7630, 45.43359
843.8990, 17.41895
845.0350, 93.68848
846.1700, 125.1279
847.3060, 56.55664
848.4410, 74.37012
849.5760, 28.33398
850.7100, 103.9512
851.8450, 15.11816
852.9800, 47.73047
854.1140, 100.1074
855.2480, 111.2041
856.3820, 140.4326
857.5160, 131.1875
858.6500, 148.7715
859.7830, 95.25684
860.9170, 36.91602
862.0500, 24.47168
863.1830, 10.97168
864.3160, 77.53809
865.4480, 33.03809
866.5810, 23.32324
867.7130, 98.79883
868.8460, 82.26953
869.9780, 86.73438
871.1100, 129.0703
872.2410, 67.52344
873.3730, 108.9697
874.5050, 123.4121
875.6360, 116.8496
876.7670, 154.4287
877.8980, 67.70703
879.0290, 159.1279
880.1590, 119.5449
881.2900, 24.95605
882.4200, 90.36426
883.5500, 51.76758
884.6800, 23.07910
885.8100, 100.3604
886.9400, 155.7510
888.0690, 134.1367
889.1990, 168.5186
890.3280, 193.8965
891.4570, 287.2881
892.5860, 67.67480
893.7140, 116.0586
894.8430, 121.3467
895.9710, 234.7520
897.1000, 340.1650
898.2280, 377.5898
899.3560, 453.6123
900.4830, 363.4326
901.6110, 482.8486
902.7380, 523.2627
903.8660, 409.6875
904.9930, 487.9268
906.1200, 600.3467
907.2460, 626.7637
908.3730, 576.1797
909.5000, 577.5996
910.6260, 729.0186
911.7520, 736.0928
912.8780, 946.6904
914.0040, 947.1035
915.1290, 920.5166
916.2550, 1123.930
917.3800, 1037.182
918.5050, 1265.025
919.6300, 1046.471
920.7550, 1276.657
921.8800, 1414.857
923.0040, 1340.308
924.1290, 1406.614
925.2530, 1318.065
926.3770, 1476.516
927.5010, 1307.967
928.6250, 1165.295
929.7480, 1272.752
930.8720, 1119.048
931.9950, 1241.480
933.1180, 952.9404
934.2410, 866.7480
935.3640, 754.2344
936.4860, 587.7539
937.6090, 563.1895
938.7310, 565.7148
939.8530, 430.2432
940.9750, 439.7734
942.0970, 414.3047
943.2180, 437.8398
944.3400, 309.3809
945.4610, 292.9375
946.5820, 239.4971
947.7030, 306.0605
948.8240, 316.3096
949.9450, 333.6963
951.0650, 206.2275
952.1860, 128.8311
953.3060, 203.4375
954.4260, 277.0801
955.5460, 237.7490
956.6650, 129.4209
957.7850, 52.09863
958.9040, 42.63672
960.0230, 394.3311
961.1420, 240.9961
962.2610, 229.9736
963.3800, 234.7686
964.4990, 50.54004
965.6170, 87.36621
966.7350, 96.02930
967.8530, 119.2441
968.9710, 128.1240
970.0890, 164.0332
971.2070, 267.9531
972.3240, 163.8701
973.4410, 249.7979
974.5580, 163.7354
975.6750, 219.6201
976.7920, 84.61035
977.9090, 187.7354
979.0250, 131.7490
980.1410, 121.8008
981.2580, 137.8643
982.3740, 190.9346
983.4890, 175.0146
984.6050, 249.7490
985.7200, 236.8574
986.8360, 183.9844
987.9510, 231.1152
989.0660, 268.2686
990.1810, 142.4287
991.2950, 165.5957
992.4100, 47.26172
993.5240, 166.3838
994.6390, 233.6846
995.7530, 251.9453
996.8660, 74.26074
997.9800, 149.6123
999.0940, 119.5283
1000.207, 88.05957
1001.320, 199.0410
1002.433, 49.89160
1003.546, 158.6484
1004.659, 164.4619
1005.772, 217.4014
1006.884, 168.3164
1007.996, 150.7520
1009.108, 235.2549
1010.220, 263.2529
1011.332, 202.4512
1012.444, 258.4248
1013.555, 263.1133
1014.666, 227.4297
1015.777, 245.7529
1016.888, 314.0840
1017.999, 113.4209
1019.110, 125.7676
1020.220, 144.1211
1021.331, 223.4814
1022.441, 248.8496
1023.551, 233.2256
1024.661, 259.8711
1025.770, 246.6562
1026.880, 237.0547
1027.989, 225.2344
1029.098, 215.5674
1030.207, 204.0967
1031.316, 201.5117
1032.425, 186.5020
1033.533, 188.9414
1034.642, 177.3877
1035.750, 165.8418
1036.858, 142.0928
1037.966, 177.0166
1039.073, 136.0342
1040.181, 239.5146
1041.288, 209.0029
1042.396, 219.0684
1043.503, 250.5693
1044.610, 214.0771
1045.716, 302.5918
1046.823, 291.1133
1047.929, 301.6426
1049.036, 271.1768
1050.142, 309.0283
1051.248, 302.9980
1052.353, 365.0254
1053.459, 359.6025
1054.564, 339.2090
1055.670, 367.1348
1056.775, 240.7559
1057.880, 267.3818
1058.985, 289.0156
1060.089, 357.6543
1061.194, 343.2129
1062.298, 273.4883
1063.402, 305.1455
1064.506, 344.8281
1065.610, 260.5166
1066.713, 371.2109
1067.817, 334.9150
1068.920, 360.7090
1070.023, 256.9180
1071.126, 216.6396
1072.229, 253.3652
1073.332, 426.0996
1074.435, 399.8369
1075.537, 239.5801
1076.639, 380.3301
1077.741, 325.0840
1078.843, 228.8447
1079.945, 355.6113
1081.046, 284.3818
1082.148, 332.8125
1083.249, 342.9453
1084.350, 358.9688
1085.451, 387.1904
1086.551, 411.5645
1087.652, 400.3701
1088.752, 350.1807
1089.853, 294.0986
1090.953, 332.8174
1092.053, 253.6436
1093.152, 240.4736
1094.252, 351.0400
1095.351, 366.8838
1096.451, 378.7334
1097.550, 189.5859
1098.649, 218.4424
1099.748, 308.3057
1100.846, 242.1836
1101.945, 329.0664
1103.043, 282.6748
1104.141, 277.8438
1105.239, 174.7383
1106.337, 263.6357
1107.434, 163.2314
1108.532, 336.1465
1109.629, 303.4268
1110.726, 318.1768
1111.823, 305.6211
1112.920, 333.5615
1114.017, 272.5039
1115.113, 265.4502
1116.210, 354.3984
1117.306, 157.3564
1118.402, 268.3174
1119.498, 372.2803
1120.593, 260.2461
1121.689, 330.2139
1122.784, 385.1855
1123.879, 413.1582
1124.974, 502.1338
1126.069, 303.1123
1127.164, 291.0928
1128.259, 186.0752
1129.353, 176.1055
1130.447, 112.5176
1131.541, 260.0547
1132.635, 33.07031
1133.729, 156.0879
1134.822, 193.1074
1135.916, 81.12891
1137.009, 303.1523
1138.102, 188.9355
1139.195, 152.2051
1140.288, 141.2354
1141.380, 104.2656
1142.473, 152.2998
1143.565, 147.3340
1144.657, 145.3701
1145.749, 85.40918
1146.841, 77.77832
1147.932, 143.4912
1149.024, 31.53418
1150.115, 12.57910
1151.206, 14.62598
1152.297, 140.6738
1153.388, 33.72363
1154.479, 141.7734
1155.569, 63.17383
1156.659, 105.8477
1157.750, 75.87109
1158.839, 15.10547
1159.929, 98.08691
1161.019, 37.11914
1162.108, 59.75000
1163.198, 18.75098
1164.287, 31.67188
1165.376, 46.59375
1166.465, 110.5166
1167.553, 46.56055
1168.642, 58.33984
1169.730, 145.2402
1170.818, 93.14258
1171.906, 196.0449
1172.994, 26.05176
1174.082, 96.83789
1175.170, 33.72754
1176.257, 121.6182
1177.344, 64.50977
1178.431, 150.4014
1179.518, 7.293945
1180.605, 116.1875
1181.691, 26.91895
1182.778, 102.0391
1183.864, 52.78418
1184.950, 47.60840
1186.036, 19.56836
1187.122, 94.24414
1188.207, 54.05566
1189.292, 112.8672
1190.378, 139.6797
1191.463, 20.49219
1192.548, 5.695313
1193.632, 7.111328
1194.717, 75.92285
1195.801, 13.73340
1196.886, 60.54395
1197.970, 118.3535
1199.054, 61.83691
1200.137, 4.063477
1201.221, 228.7051
1202.305, 99.49414
1203.388, 160.2412
1204.471, 217.0088
1205.554, 233.4199
1206.637, 213.4258
1207.719, 207.1533
1208.802, 104.0732
1209.884, 161.8389
1210.966, 78.60254
1212.048, 109.3652
1213.130, 73.12793
1214.212, 1.890625
1215.293, 170.6494
1216.374, 36.40723
1217.456, 91.16406
1218.536, 93.92090
1219.617, 204.6768
1220.698, 29.43457
1221.778, 35.19238
1222.859, 186.9492
1223.939, 53.27832
1225.019, 81.46094
1226.099, 35.19922
1227.178, 22.94922
1228.258, 198.6992
1229.337, 23.44824
1230.417, 28.19727
1231.496, 24.94629
1232.574, 75.69629
1233.653, 43.44531
1234.732, 68.19336
1235.810, 29.94727
1236.888, 83.29980
1237.966, 88.40234
1239.044, 100.1055
1240.122, 19.19336
1241.199, 98.49316
1242.277, 423.1836
1243.354, 234.3896
1244.431, 636.5615
1245.508, 95.24902
1246.585, 140.9375
1247.661, 91.62207
1248.738, 74.30566
1249.814, 103.9922
1250.890, 104.6787
1251.966, 161.3623
1253.042, 84.05469
1254.117, 90.74707
1255.193, 32.43750
1256.268, 147.1260
1257.343, 86.81543
1258.418, 87.50293
1259.493, 107.1914
1260.567, 82.87695
1261.642, 95.32812
1262.716, 56.24707
1263.790, 101.9287
1264.864, 56.60938
1265.938, 63.28906
1267.011, 103.9678
1268.085, 65.64453
1269.158, 86.31934
1270.231, 79.23242
1271.304, 56.66602
1272.377, 80.33691
1273.450, 109.0078
