##NAMES=Covellite
##RRUFFID=R060129
##IDEAL CHEMISTRY=Cu^1+^S
##LOCALITY=Butte, Montana, USA
##OWNER=RRUFF
##SOURCE=University of Arizona Mineral Museum
##DESCRIPTION=Iridescent blue metallic hexagonal plates
##STATUS=The identification of this mineral has been confirmed by X-ray diffraction and chemical analysis
##URL=rruff.info/R060129
##MEASURED CHEMISTRY=Cu_1.00_S_1.00_
##PIN_ID=L00818
##ORIENTATION=Laser parallel to c* (0 0 1). Fiducial mark perpendicular to laser is parallel to a [1 0 0]
170.9360, 0.0000000E+00
172.1610, 50.88867
173.3850, 380.7578
174.6100, 373.0586
175.8340, 44.08203
177.0580, 197.0859
178.2820, 9.972656
179.5050, 234.4492
180.7290, 302.7812
181.9520, 299.9277
183.1760, 418.9688
184.3990, 532.2246
185.6220, 631.5195
186.8450, 879.9180
188.0670, 688.1738
189.2900, 696.5410
190.5120, 897.0859
191.7340, 685.3809
192.9560, 704.5176
194.1780, 1020.496
195.4000, 678.8926
196.6220, 1227.697
197.8430, 1185.006
199.0640, 1226.123
200.2860, 1563.895
201.5070, 1480.369
202.7270, 1480.701
203.9480, 879.0078
205.1690, 496.5723
206.3890, 283.3633
207.6090, 86.63477
208.8290, 14.56445
210.0490, 160.9531
211.2690, 293.5078
212.4890, 374.2227
213.7080, 261.0879
214.9280, 168.0898
216.1470, 181.7695
217.3660, 12.46289
218.5850, 125.8027
219.8030, 33.76172
221.0220, 75.24414
222.2400, 70.34961
223.4590, 110.0078
224.6770, 152.7383
225.8950, 137.5293
227.1120, 61.38477
228.3300, 1.699219
229.5480, 67.28125
230.7650, 27.68164
231.9820, 117.4180
233.1990, 139.0488
234.4160, 287.6191
235.6330, 628.2402
236.8490, 728.8496
238.0660, 575.4453
239.2820, 1036.029
240.4980, 963.6133
241.7140, 874.1953
242.9300, 1193.779
244.1460, 1201.410
245.3610, 1177.164
246.5770, 1323.963
247.7920, 1809.760
249.0070, 2008.568
250.2220, 2435.410
251.4370, 2921.285
252.6510, 3392.186
253.8660, 3507.100
255.0800, 4042.023
256.2940, 4449.957
257.5080, 5662.887
258.7220, 5608.092
259.9360, 5661.199
261.1490, 5838.680
262.3630, 5697.539
263.5760, 5661.977
264.7890, 5452.105
266.0020, 5346.887
267.2150, 5055.660
268.4270, 4805.395
269.6400, 4425.027
270.8520, 4604.660
272.0640, 4412.301
273.2760, 4116.926
274.4880, 4327.529
275.7000, 4253.145
276.9120, 4397.785
278.1230, 4125.449
279.3340, 4014.137
280.5450, 3464.846
281.7560, 3235.580
282.9670, 2904.336
284.1780, 2795.115
285.3880, 2203.951
286.5980, 2059.826
287.8090, 2073.719
289.0190, 1766.639
290.2290, 2076.580
291.4380, 1790.543
292.6480, 1538.531
293.8570, 1849.836
295.0670, 1663.875
296.2760, 1671.336
297.4850, 1661.025
298.6930, 1574.988
299.9020, 1727.707
301.1110, 1823.424
302.3190, 1630.992
303.5270, 2089.590
304.7350, 2092.213
305.9430, 2454.963
307.1510, 2634.768
308.3580, 2504.609
309.5660, 2677.473
310.7730, 2483.355
311.9800, 2813.311
313.1870, 3253.350
314.3940, 3521.408
315.6010, 4202.484
316.8070, 4919.758
318.0130, 5413.467
319.2200, 6386.234
320.4260, 7141.148
321.6310, 8736.215
322.8370, 10098.51
324.0430, 11415.76
325.2480, 13271.09
326.4540, 15052.57
327.6590, 17056.95
328.8640, 18079.33
330.0680, 18928.62
331.2730, 18319.85
332.4780, 17720.00
333.6820, 16163.11
334.8860, 14669.88
336.0900, 12901.55
337.2940, 10745.20
338.4980, 8696.832
339.7010, 7362.406
340.9050, 5755.871
342.1080, 5168.172
343.3110, 4166.467
344.5140, 3613.758
345.7170, 2925.023
346.9200, 2519.246
348.1220, 2085.494
349.3240, 1858.775
350.5270, 1790.088
351.7290, 1590.102
352.9310, 1689.764
354.1320, 1780.744
355.3340, 2082.402
356.5350, 2413.666
357.7370, 3074.141
358.9380, 3260.365
360.1390, 3599.242
361.3400, 3983.221
362.5400, 4298.953
363.7410, 4503.785
364.9410, 4719.301
366.1410, 4926.346
367.3410, 5272.969
368.5410, 5649.898
369.7410, 5683.047
370.9400, 5934.170
372.1400, 5836.941
373.3390, 5808.123
374.5380, 5609.051
375.7370, 5665.051
376.9360, 5363.273
378.1350, 5286.621
379.3330, 5293.475
380.5310, 5231.344
381.7300, 4995.223
382.9280, 4699.113
384.1260, 4308.021
385.3230, 3829.941
386.5210, 3334.871
387.7180, 2788.820
388.9160, 2214.777
390.1130, 2102.752
391.3100, 1506.734
392.5060, 1499.732
393.7030, 1035.742
394.9000, 1109.762
396.0960, 978.7949
397.2920, 1128.270
398.4880, 789.7676
399.6840, 311.8359
400.8800, 328.1016
402.0750, 272.1953
403.2710, 190.3008
404.4660, 123.4199
405.6610, 69.59961
406.8560, 129.7988
408.0510, 75.01172
409.2450, 80.24023
410.4400, 258.6035
411.6340, 82.85742
412.8280, 111.1270
414.0220, 20.59180
415.2160, 147.3027
416.4100, 210.0332
417.6030, 179.7988
418.7970, 303.5938
419.9900, 181.4492
421.1830, 61.33398
422.3760, 225.5957
423.5690, 28.27344
424.7610, 248.8281
425.9540, 246.1934
427.1460, 10.35352
428.3380, 15.52539
429.5300, 105.7090
430.7220, 251.9043
431.9140, 242.4609
433.1050, 244.3320
434.2970, 300.5664
435.4880, 298.8105
436.6790, 334.1953
437.8700, 782.5020
439.0610, 976.2480
440.2510, 900.4062
441.4420, 984.4258
442.6320, 1093.137
443.8220, 1250.150
445.0120, 1363.254
446.2020, 1695.287
447.3910, 2344.336
448.5810, 2365.443
449.7700, 3286.668
450.9600, 3946.799
452.1490, 4200.031
453.3370, 4727.137
454.5260, 5243.252
455.7150, 6031.379
456.9030, 6787.516
458.0910, 7720.662
459.2800, 9200.820
460.4670, 10701.99
461.6550, 13221.16
462.8430, 16196.33
464.0300, 19889.51
465.2180, 23625.70
466.4050, 27845.88
467.5920, 30624.09
468.7790, 33146.30
469.9650, 33199.52
471.1520, 31135.74
472.3380, 27566.96
473.5250, 23643.21
474.7110, 19330.49
475.8970, 16075.77
477.0820, 12625.19
478.2680, 10481.82
479.4540, 8732.160
480.6390, 6962.496
481.8240, 5454.840
483.0090, 4435.191
484.1940, 3409.879
485.3780, 2910.250
486.5630, 2659.652
487.7470, 2338.068
488.9320, 2052.492
490.1160, 1912.211
491.3000, 1477.029
492.4830, 1456.930
493.6670, 1120.826
494.8500, 961.2637
496.0340, 920.8848
497.2170, 668.4590
498.4000, 550.0430
499.5820, 446.6406
500.7650, 649.2617
501.9480, 240.8984
503.1300, 551.5469
504.3120, 542.3008
505.4940, 524.1328
506.6760, 481.8672
507.8580, 552.6270
509.0390, 261.4258
510.2210, 222.2363
511.4020, 71.05859
512.5830, 278.8887
513.7640, 310.7305
514.9450, 159.6035
516.1250, 470.4883
517.3060, 561.4258
518.4860, 689.3828
519.6660, 422.3672
520.8460, 527.3594
522.0260, 535.3516
523.2060, 150.3477
524.3850, 409.3535
525.5650, 96.36133
526.7440, 275.3711
527.9230, 292.3926
529.1020, 432.4160
530.2810, 466.4492
531.4590, 699.4863
532.6380, 506.5234
533.8160, 634.7441
534.9940, 345.7871
536.1720, 295.8262
537.3500, 243.8730
538.5270, 14.08008
539.7050, 34.05273
540.8820, 457.9688
542.0590, 42.99805
543.2360, 330.0625
544.4130, 567.3594
545.5900, 317.3340
546.7660, 140.2090
547.9430, 376.0879
549.1190, 169.4883
550.2950, 123.8223
551.4710, 75.31641
552.6470, 201.4199
553.8220, 337.9414
554.9980, 287.0566
556.1730, 389.7070
557.3480, 625.7695
558.5230, 440.8594
559.6980, 370.7129
560.8730, 385.5234
562.0470, 71.06641
563.2220, 58.22070
564.3960, 202.9258
565.5700, 19.27734
566.7440, 46.16797
567.9170, 85.91406
569.0910, 315.8320
570.2640, 277.0234
571.4380, 328.1680
572.6110, 350.3242
573.7840, 338.8164
574.9570, 171.9648
576.1290, 344.3984
577.3020, 44.53516
578.4740, 131.3320
579.6460, 123.2734
580.8180, 39.72266
581.9900, 73.71094
583.1620, 32.30859
584.3330, 269.6562
585.5040, 64.61719
586.6760, 443.5742
587.8470, 130.7891
589.0180, 75.89844
590.1880, 52.21875
591.3590, 206.8555
592.5290, 18.04297
593.7000, 146.7500
594.8700, 244.5625
596.0400, 196.3633
597.2090, 322.7227
598.3790, 345.4961
599.5490, 419.2578
600.7180, 352.7578
601.8870, 368.5586
603.0560, 351.3164
604.2250, 322.0234
605.3940, 173.2930
606.5620, 366.0469
607.7300, 127.7852
608.8990, 306.5156
610.0670, 656.2344
611.2350, 275.5664
612.4020, 381.7578
613.5700, 539.1484
614.7370, 167.3945
615.9050, 165.2852
617.0720, 107.0273
618.2390, 59.68750
619.4060, 982.3320
620.5720, 520.9570
621.7390, 290.5703
622.9050, 597.1680
624.0710, 61.63281
625.2370, 823.2031
626.4030, 520.4648
627.5690, 329.0898
628.7340, 220.6602
629.9000, 101.1250
631.0650, 80.56250
632.2300, 64.03125
633.3950, 67.62891
634.5600, 197.0547
635.7240, 327.4570
636.8890, 568.0977
638.0530, 349.2695
639.2170, 473.4727
640.3810, 276.7773
641.5450, 366.3164
642.7080, 406.9023
643.8720, 178.4375
645.0350, 165.1484
646.1980, 415.0352
647.3610, 336.4414
648.5240, 533.4102
649.6870, 774.5352
650.8490, 942.5078
652.0120, 965.6641
653.1740, 882.8008
654.3360, 880.0273
655.4980, 847.8281
656.6600, 559.4727
657.8210, 630.6641
658.9830, 765.0000
660.1440, 897.1133
661.3050, 674.0039
662.4660, 1072.461
663.6270, 871.5273
664.7870, 1202.336
665.9480, 1124.309
667.1080, 955.6562
668.2680, 789.6094
669.4280, 564.5820
670.5880, 441.4062
671.7480, 495.2422
672.9070, 197.4688
674.0670, 384.4219
675.2260, 633.9688
676.3850, 460.4844
677.5440, 737.2070
678.7030, 671.2344
679.8610, 463.9180
681.0200, 523.2227
682.1780, 271.2578
683.3360, 223.3203
684.4940, 64.00781
685.6520, 131.8633
686.8090, 13.11719
687.9670, 206.0742
689.1240, 222.1172
690.2810, 184.4883
691.4380, 322.2344
692.5950, 178.5586
693.7520, 363.5078
694.9080, 457.3906
696.0650, 248.0664
697.2210, 142.2656
698.3770, 176.1797
699.5330, 243.8516
700.6880, 228.7773
701.8440, 208.8359
702.9990, 296.4883
704.1550, 661.9258
705.3100, 429.8359
706.4650, 646.0195
707.6190, 697.0117
708.7740, 252.5938
709.9290, 642.4492
711.0830, 423.9688
712.2370, 243.1172
713.3910, 404.3086
714.5450, 258.1719
715.6980, 413.6523
716.8520, 647.9688
718.0050, 649.2812
719.1580, 689.0195
720.3110, 692.6797
721.4640, 642.9336
722.6170, 446.0156
723.7700, 427.4375
724.9220, 353.9609
726.0740, 264.0781
727.2260, 290.1523
728.3780, 239.5703
729.5300, 442.4062
730.6810, 448.3047
731.8330, 531.0664
732.9840, 401.7734
734.1350, 633.5938
735.2860, 208.4180
736.4370, 367.9844
737.5880, 108.0234
738.7380, 26.45703
739.8880, 98.79688
741.0390, 108.4258
742.1890, 236.0273
743.3380, 399.4375
744.4880, 420.8008
745.6380, 467.1211
746.7870, 629.3945
747.9360, 447.6758
749.0850, 203.2422
750.2340, 239.2930
751.3830, 7.507813
752.5310, 37.07422
753.6800, 69.03125
754.8280, 45.05078
755.9760, 410.6211
757.1240, 643.0391
758.2720, 689.7227
759.4190, 386.3594
760.5670, 736.9492
761.7140, 153.8828
762.8610, 524.9609
764.0080, 38.41797
765.1550, 108.9453
766.3020, 119.2617
767.4480, 104.4805
768.5950, 360.4062
769.7410, 564.1602
770.8870, 335.7852
772.0330, 566.3750
773.1780, 427.4570
774.3240, 75.21875
775.4690, 184.0586
776.6140, 172.8438
777.7590, 26.41797
778.9040, 83.23438
780.0490, 68.82422
781.1940, 142.6367
782.3380, 268.7031
783.4820, 221.9297
784.6260, 93.21094
785.7700, 192.4336
786.9140, 151.1562
788.0580, 182.7266
789.2010, 133.7969
790.3450, 132.8125
791.4880, 30.23047
792.6310, 201.6406
793.7730, 117.5391
794.9160, 99.14844
796.0590, 18.22266
797.2010, 106.3203
798.3430, 542.8086
799.4850, 249.2500
800.6270, 98.63281
801.7690, 423.9688
802.9100, 108.9141
804.0520, 38.14062
805.1930, 101.3164
806.3340, 89.43359
807.4750, 118.3008
808.6160, 347.5117
809.7560, 248.4727
810.8970, 306.2070
812.0370, 474.0703
813.1770, 157.8828
814.3170, 340.6406
815.4570, 495.3516
816.5960, 10.33594
817.7360, 23.51953
818.8750, 92.93750
820.0140, 122.9375
821.1530, 67.16016
822.2920, 191.5273
823.4310, 188.9375
824.5690, 182.3008
825.7070, 410.0859
826.8460, 303.8867
827.9840, 355.4766
829.1220, 359.4062
830.2590, 23.67578
831.3970, 155.6328
832.5340, 117.1836
833.6710, 5.980469
834.8080, 150.9219
835.9450, 209.1875
837.0820, 609.3984
838.2190, 366.4883
839.3550, 363.4453
840.4910, 592.7344
841.6270, 387.3438
842.7630, 28.56641
843.8990, 11.26562
845.0350, 21.58203
846.1700, 122.4766
847.3060, 6.578125
848.4410, 269.2461
849.5760, 248.6836
850.7100, 317.4102
851.8450, 526.7969
852.9800, 517.4258
854.1140, 802.0156
855.2480, 405.5859
856.3820, 278.1367
857.5160, 427.6367
858.6500, 265.0938
859.7830, 224.5156
860.9170, 171.8945
862.0500, 451.2227
863.1830, 587.2383
864.3160, 293.3242
865.4480, 648.1445
866.5810, 498.3047
867.7130, 597.4688
868.8460, 61.40625
869.9780, 158.6133
871.1100, 146.5859
872.2410, 30.59375
873.3730, 74.46875
874.5050, 187.3047
875.6360, 240.3633
876.7670, 314.7617
877.8980, 471.7734
879.0290, 462.9688
880.1590, 404.5664
881.2900, 564.1172
882.4200, 552.6289
883.5500, 142.0898
884.6800, 63.74219
885.8100, 22.04688
886.9400, 128.8828
888.0690, 145.5820
889.1990, 247.0312
890.3280, 373.9258
891.4570, 449.0078
892.5860, 554.2422
893.7140, 539.3203
894.8430, 557.3516
895.9710, 531.3477
897.1000, 288.3711
898.2280, 163.9102
899.3560, 100.8906
900.4830, 578.3359
901.6110, 529.1172
902.7380, 787.2617
903.8660, 506.2109
904.9930, 880.9492
906.1200, 1076.699
907.2460, 789.2539
908.3730, 779.9219
909.5000, 788.6875
910.6260, 577.2109
911.7520, 598.9531
912.8780, 750.8945
914.0040, 877.3867
915.1290, 1007.711
916.2550, 1029.566
917.3800, 1259.086
918.5050, 1423.094
919.6300, 1420.891
920.7550, 1421.113
921.8800, 1346.707
923.0040, 1198.086
924.1290, 1131.883
925.2530, 1059.414
926.3770, 880.4375
927.5010, 885.7656
928.6250, 735.7266
929.7480, 1198.504
930.8720, 950.4180
931.9950, 1235.129
933.1180, 1051.016
934.2410, 807.0664
935.3640, 904.4922
936.4860, 371.6133
937.6090, 185.5586
938.7310, 415.2773
939.8530, 390.5859
940.9750, 438.4844
942.0970, 404.9805
943.2180, 579.6562
944.3400, 518.2617
945.4610, 579.4219
946.5820, 502.7891
947.7030, 481.4961
948.8240, 678.1641
949.9450, 393.5547
951.0650, 192.1406
952.1860, 283.9805
953.3060, 486.1211
954.4260, 198.0352
955.5460, 525.3164
956.6650, 442.6641
957.7850, 657.4375
958.9040, 701.0195
960.0230, 638.9648
961.1420, 635.8164
962.2610, 495.7305
963.3800, 347.8320
964.4990, 221.9062
965.6170, 96.97266
966.7350, 48.13672
967.8530, 60.58984
968.9710, 430.5586
970.0890, 253.5312
971.2070, 465.6406
972.3240, 851.5195
973.4410, 523.2656
974.5580, 592.9688
975.6750, 239.7852
976.7920, 502.5195
977.9090, 420.3594
979.0250, 183.7578
980.1410, 4.781250
981.2580, 508.6406
982.3740, 471.5625
983.4890, 664.2188
984.6050, 698.1562
985.7200, 915.3750
986.8360, 939.8125
987.9510, 960.2148
989.0660, 497.5781
990.1810, 394.9102
991.2950, 426.6992
992.4100, 452.4414
993.5240, 489.2031
994.6390, 506.5898
995.7530, 712.3711
996.8660, 818.4844
997.9800, 1070.266
999.0940, 1006.309
1000.207, 991.3086
1001.320, 953.2734
1002.433, 891.2109
1003.546, 644.2773
1004.659, 424.2539
1005.772, 219.0586
1006.884, 266.7266
1007.996, 486.4180
1009.108, 368.8281
1010.220, 670.1914
1011.332, 734.1797
1012.444, 479.3750
1013.555, 707.9805
1014.666, 811.6719
1015.777, 586.2500
1016.888, 475.8320
1017.999, 270.7031
1019.110, 216.2695
1020.220, 301.9531
1021.331, 346.8633
1022.441, 276.5195
1023.551, 205.3594
1024.661, 662.0273
1025.770, 313.2109
1026.880, 757.6680
1027.989, 447.5273
1029.098, 344.2109
1030.207, 326.3438
1031.316, 220.0508
1032.425, 76.95703
1033.533, 28.05859
1034.642, 87.42578
1035.750, 280.8047
1036.858, 519.0859
1037.966, 762.0625
1039.073, 658.3281
1040.181, 786.0859
1041.288, 453.3789
1042.396, 343.5195
1043.503, 331.8828
1044.610, 547.0430
1045.716, 310.8320
1046.823, 399.9648
1047.929, 182.6367
1049.036, 442.2305
1050.142, 312.8125
1051.248, 541.7852
1052.353, 689.1016
1053.459, 665.1250
1054.564, 723.8672
1055.670, 768.2695
1056.775, 471.3867
1057.880, 272.0469
1058.985, 500.4648
1060.089, 155.0195
1061.194, 291.2148
1062.298, 366.9883
1063.402, 691.7617
1064.506, 518.2539
1065.610, 811.1953
1066.713, 849.5391
1067.817, 734.5703
1068.920, 353.7109
1070.023, 583.6953
1071.126, 502.4336
1072.229, 196.5078
1073.332, 465.5781
1074.435, 143.6055
1075.537, 828.2695
1076.639, 802.6211
1077.741, 698.6445
1078.843, 711.1953
1079.945, 979.6172
1081.046, 775.3516
1082.148, 1109.250
1083.249, 833.1133
1084.350, 753.2852
1085.451, 340.8086
1086.551, 397.5195
1087.652, 334.5820
1088.752, 392.4414
1089.853, 407.7227
1090.953, 464.3125
1092.053, 844.5781
1093.152, 767.5508
1094.252, 891.5156
1095.351, 824.9258
1096.451, 737.3086
1097.550, 603.2070
1098.649, 306.0391
1099.748, 248.9062
1100.846, 281.7617
1101.945, 469.6328
1103.043, 577.1719
1104.141, 597.6016
1105.239, 872.5586
1106.337, 552.7500
1107.434, 625.7422
1108.532, 624.6562
1109.629, 330.6367
1110.726, 281.6719
1111.823, 211.8086
1112.920, 167.3633
1114.017, 217.2383
1115.113, 351.5977
1116.210, 257.6914
1117.306, 490.8125
1118.402, 923.2578
1119.498, 819.4219
1120.593, 697.0977
1121.689, 728.1836
1122.784, 561.5859
1123.879, 403.0156
1124.974, 139.3047
1126.069, 11.54297
1127.164, 145.7227
1128.259, 283.0430
1129.353, 4.070313
1130.447, 421.1914
1131.541, 714.5156
1132.635, 576.2188
1133.729, 528.8672
1134.822, 526.4414
1135.916, 502.8711
1137.009, 285.0859
1138.102, 357.8047
1139.195, 16.31250
1140.288, 9.070313
1141.380, 218.0117
1142.473, 39.98047
1143.565, 164.6562
1144.657, 598.2812
1145.749, 534.1992
1146.841, 319.8828
1147.932, 644.2695
1149.024, 477.6172
1150.115, 462.6094
1151.206, 298.1523
1152.297, 40.00781
1153.388, 101.0898
1154.479, 107.4570
1155.569, 238.6094
1156.659, 17.39844
1157.750, 528.6016
1158.839, 423.0391
1159.929, 455.8438
1161.019, 627.1484
1162.108, 730.2969
1163.198, 155.8203
1164.287, 88.63281
1165.376, 75.16016
1166.465, 290.1641
1167.553, 65.91406
1168.642, 112.5703
1169.730, 233.9570
1170.818, 345.0117
1171.906, 445.4727
1172.994, 470.5977
1174.082, 407.5078
1175.170, 445.2812
1176.257, 284.1211
1177.344, 191.6641
1178.431, 107.2656
1179.518, 137.9727
1180.605, 58.51562
1181.691, 271.5508
1182.778, 22.56250
1183.864, 48.12500
1184.950, 222.5469
1186.036, 529.8633
1187.122, 660.0898
1188.207, 205.2266
1189.292, 88.60938
1190.378, 203.5195
1191.463, 281.1875
1192.548, 19.67578
1193.632, 38.64844
1194.717, 0.1289060
1195.801, 7.507813
1196.886, 63.07812
1197.970, 94.19922
1199.054, 214.8906
1200.137, 238.4844
1201.221, 364.2773
1202.305, 427.9727
1203.388, 413.5547
1204.471, 175.0898
1205.554, 232.7188
1206.637, 24.58984
1207.719, 45.82031
1208.802, 227.9766
1209.884, 245.0742
1210.966, 395.1211
1212.048, 787.1328
1213.130, 1028.168
1214.212, 710.0469
1215.293, 754.3320
1216.374, 617.8398
1217.456, 156.0469
1218.536, 125.9336
1219.617, 417.1211
1220.698, 147.0664
1221.778, 71.26172
1222.859, 234.3828
1223.939, 230.4414
1225.019, 354.6914
1226.099, 653.7383
1227.178, 642.6523
1228.258, 709.4141
1229.337, 648.0898
1230.417, 521.8477
1231.496, 454.5352
1232.574, 220.9062
1233.653, 10.98828
1234.732, 45.73828
1235.810, 351.4688
1236.888, 189.0430
1237.966, 553.4023
1239.044, 827.3047
1240.122, 587.4062
1241.199, 419.1406
1242.277, 789.7734
1243.354, 651.9492
1244.431, 490.4727
1245.508, 540.9883
1246.585, 480.6328
1247.661, 463.8633
1248.738, 488.8125
1249.814, 595.4141
1250.890, 484.0938
1251.966, 792.4609
1253.042, 593.9805
1254.117, 811.0195
1255.193, 1075.414
1256.268, 653.9844
1257.343, 570.3438
1258.418, 657.8828
1259.493, 244.0625
1260.567, 226.0039
1261.642, 766.3633
1262.716, 662.6914
1263.790, 885.8242
1264.864, 1090.809
1265.938, 897.2852
1267.011, 660.4219
1268.085, 716.8203
1269.158, 457.0000
1270.231, 602.9414
1271.304, 112.3867
1272.377, 43.37500
1273.450, 67.14453
1274.522, 56.40625
1275.594, 21.32422
1276.666, 96.87500
1277.738, 226.4883
1278.810, 471.4844
1279.882, 519.3164
1280.953, 907.0938
1282.025, 753.7422
1283.096, 756.5078
1284.167, 611.2891
1285.238, 458.8594
1286.308, 310.5391
1287.379, 626.9648
1288.449, 398.1406
1289.519, 803.3047
1290.589, 644.9922
1291.659, 1009.801
1292.729, 925.2227
1293.798, 1307.609
1294.868, 1398.020
1295.937, 1297.207
1297.006, 1046.957
1298.075, 1028.465
1299.143, 499.8906
1300.212, 709.2695
1301.280, 602.7617
1302.348, 687.0664
1303.416, 885.9336
1304.484, 1192.660
1305.552, 1024.691
1306.620, 1305.781
1307.687, 1352.883
1308.754, 1251.691
1309.821, 1375.230
1310.888, 1275.230
1311.955, 960.0078
1313.021, 1002.559
1314.088, 727.7227
1315.154, 804.8867
1316.220, 922.6133
1317.286, 818.0742
1318.352, 949.1719
1319.417, 1202.508
1320.483, 1279.496
1321.548, 1527.105
1322.613, 1031.230
1323.678, 1019.980
1324.743, 602.2539
1325.807, 425.9141
1326.872, 705.3281
1327.936, 330.9492
1329.000, 534.8594
1330.064, 858.6797
1331.128, 824.2109
1332.191, 513.8945
1333.255, 1317.219
1334.318, 934.1328
1335.381, 1024.703
1336.444, 1290.270
1337.507, 965.3359
1338.569, 452.9844
1339.632, 659.7031
1340.694, 37.25781
1341.756, 228.8320
1342.818, 367.0508
1343.880, 633.6758
