##NAMES=Covellite
##RRUFFID=R060129
##IDEAL CHEMISTRY=Cu^1+^S
##LOCALITY=Butte, Montana, USA
##OWNER=RRUFF
##SOURCE=University of Arizona Mineral Museum
##DESCRIPTION=Iridescent blue metallic hexagonal plates
##STATUS=The identification of this mineral has been confirmed by X-ray diffraction and chemical analysis
##URL=rruff.info/R060129
##MEASURED CHEMISTRY=Cu_1.00_S_1.00_
##PIN_ID=L00520
##ORIENTATION=Laser parallel to -a* (-1 0 0). Fiducial mark perpendicular to laser is parallel to c [0 0 1]
53.91000, 0.0000000E+00
55.14900, 3.7659001E-02
56.38700, 4.535095
57.62600, 15.19354
58.86400, 10.05914
60.10300, 37.02197
61.34100, 39.81015
62.57900, 30.51437
63.81700, 12.01312
65.05400, 7.795441
66.29200, 8.997650
67.52900, 8.333557
68.76700, 59.13702
70.00400, 54.60931
71.24100, 81.98126
72.47700, 79.94879
73.71400, 98.23602
74.95100, 117.8138
76.18700, 135.7625
77.42300, 217.7383
78.65900, 193.0412
79.89500, 229.5464
81.13100, 274.2379
82.36700, 389.1018
83.60200, 475.1332
84.83700, 479.3364
86.07200, 480.7045
87.30800, 537.2238
88.54200, 680.8817
89.77700, 761.6674
91.01200, 926.5717
92.24600, 1036.586
93.48000, 1034.703
94.71400, 1153.912
95.94800, 1179.208
97.18200, 1176.583
98.41600, 1344.035
99.64900, 1492.558
100.8830, 1544.148
102.1160, 1608.802
103.3490, 1746.516
104.5820, 1941.288
105.8150, 2134.116
107.0470, 2561.997
108.2800, 2350.370
109.5120, 2653.912
110.7440, 2005.946
111.9760, 1735.098
113.2080, 1573.378
114.4400, 1567.840
115.6710, 1686.377
116.9030, 1578.958
118.1340, 1449.564
119.3650, 1238.191
120.5960, 1046.839
121.8270, 921.5090
123.0580, 777.1998
124.2880, 715.9120
125.5190, 698.6457
126.7490, 649.4007
127.9790, 689.1833
129.2090, 729.9897
130.4390, 806.8078
131.6680, 859.6301
132.8980, 903.4597
134.1270, 914.2885
135.3560, 977.1188
136.5850, 949.9639
137.8140, 985.8186
139.0430, 921.6918
140.2710, 704.5840
141.5000, 666.4865
142.7280, 507.3999
143.9560, 431.3258
145.1840, 392.2646
146.4120, 351.2167
147.6390, 341.1830
148.8670, 296.1636
150.0940, 274.1592
151.3210, 259.9481
152.5490, 233.4386
153.7750, 225.2376
155.0020, 213.2950
156.2290, 179.3684
157.4550, 195.4579
158.6810, 192.5635
159.9080, 175.6852
161.1340, 184.8232
162.3590, 200.9772
163.5850, 245.1475
164.8110, 241.3337
166.0360, 221.5361
167.2610, 199.0004
168.4860, 192.1673
169.7110, 179.6024
170.9360, 171.8439
172.1610, 168.7661
173.3850, 183.4229
174.6100, 189.3726
175.8340, 234.4188
177.0580, 173.6036
178.2820, 182.4431
179.5050, 222.1364
180.7290, 189.3632
181.9520, 186.6075
183.1760, 231.8692
184.3990, 246.1483
185.6220, 285.4445
186.8450, 263.7573
188.0670, 305.0861
189.2900, 270.4304
190.5120, 286.7903
191.7340, 259.1655
192.9560, 302.5562
194.1780, 282.9622
195.4000, 281.3836
196.6220, 262.8202
197.8430, 285.2722
199.0640, 275.7394
200.2860, 323.8927
201.5070, 345.6662
202.7270, 327.1797
203.9480, 255.9418
205.1690, 215.1714
206.3890, 151.1505
207.6090, 144.9297
208.8290, 138.7648
210.0490, 156.2427
211.2690, 178.1769
212.4890, 170.2631
213.7080, 183.8857
214.9280, 135.9448
216.1470, 132.2268
217.3660, 133.6040
218.5850, 120.0908
219.8030, 138.2855
221.0220, 110.5101
222.2400, 121.3419
223.4590, 83.64874
224.6770, 88.47803
225.8950, 79.51416
227.1120, 106.1652
228.3300, 71.54419
229.5480, 86.94568
230.7650, 92.36908
231.9820, 106.8134
233.1990, 99.20032
234.4160, 55.76245
235.6330, 88.26581
236.8490, 64.78778
238.0660, 74.32764
239.2820, 55.88501
240.4980, 71.45953
241.7140, 63.05060
242.9300, 52.65796
244.1460, 70.28143
245.3610, 61.92047
246.5770, 94.57495
247.7920, 119.2446
249.0070, 125.9290
250.2220, 115.6280
251.4370, 192.3414
252.6510, 185.0690
253.8660, 198.8104
255.0800, 239.5657
256.2940, 292.3345
257.5080, 377.1166
258.7220, 362.1768
259.9360, 356.1083
261.1490, 317.5385
262.3630, 297.3690
263.5760, 268.4255
264.7890, 240.0632
266.0020, 210.9268
267.2150, 179.6374
268.4270, 147.6870
269.6400, 119.5834
270.8520, 94.49072
272.0640, 72.40869
273.2760, 25.33740
274.4880, 61.27673
275.7000, 63.22662
276.9120, 41.18689
278.1230, 10.15784
279.3340, 4.860718
280.5450, 27.86975
281.7560, 7.873535
282.9670, 18.86835
284.1780, 19.85632
285.3880, 25.83752
286.5980, 5.813416
287.8090, 19.78015
289.0190, 20.74023
290.2290, 33.69415
291.4380, 45.64435
292.6480, 33.76331
293.8570, 17.53882
295.0670, 10.47748
296.2760, 6.408081
297.4850, 5.670227
298.6930, 10.75867
299.9020, 5.142700
301.1110, 7.035217
302.3190, 9.398743
303.5270, 3.204956
304.7350, 5.501465
305.9430, 8.483154
307.1510, 22.63721
308.3580, 34.80115
309.5660, 44.97504
310.7730, 46.15881
311.9800, 26.35236
313.1870, 79.55426
314.3940, 96.75696
315.6010, 67.95984
316.8070, 56.16461
318.0130, 57.36938
319.2200, 93.56439
320.4260, 86.75708
321.6310, 87.95551
322.8370, 91.16418
324.0430, 86.51990
325.2480, 85.55157
326.4540, 84.83588
327.6590, 74.07910
328.8640, 77.33246
330.0680, 63.59576
331.2730, 45.86902
332.4780, 41.15210
333.6820, 20.44507
334.8860, 62.74780
336.0900, 32.06036
337.2940, 43.38269
338.4980, 35.71460
339.7010, 16.05627
340.9050, 8.407593
342.1080, 26.76843
343.3110, 14.86121
344.5140, 10.51544
345.7170, 0.8984380
346.9200, 39.70612
348.1220, 27.68640
349.3240, 9.908142
350.5270, 25.49402
351.7290, 51.92236
352.9310, 9.351929
354.1320, 13.20215
355.3340, 30.25067
356.5350, 12.27301
357.7370, 25.21222
358.9380, 6.711853
360.1390, 3.776062
361.3400, 5.254150
362.5400, 7.100281
363.7410, 4.821045
364.9410, 7.379028
366.1410, 13.04492
367.3410, 0.5419920
368.5410, 11.85492
369.7410, 15.75702
370.9400, 41.38239
372.1400, 24.01917
373.3390, 40.66656
374.5380, 26.32904
375.7370, 62.00269
376.9360, 38.68756
378.1350, 58.38873
379.3330, 81.10779
380.5310, 65.83984
381.7300, 77.58203
382.9280, 54.33527
384.1260, 75.10382
385.3230, 66.88275
386.5210, 68.67218
387.7180, 59.47522
388.9160, 83.29065
390.1130, 59.11646
391.3100, 65.95197
392.5060, 38.79791
393.7030, 45.28979
394.9000, 93.52075
396.0960, 56.39685
397.2920, 79.28326
398.4880, 92.18256
399.6840, 99.09747
400.8800, 103.0283
402.0750, 94.97083
403.2710, 123.9294
404.4660, 94.90302
405.6610, 131.8898
406.8560, 96.89050
408.0510, 94.90356
409.2450, 93.92749
410.4400, 102.9626
411.6340, 81.00751
412.8280, 89.06366
414.0220, 115.1295
415.2160, 112.2049
416.4100, 86.28912
417.6030, 145.3824
418.7970, 121.4844
419.9900, 118.5959
421.1830, 158.7159
422.3760, 188.8464
423.5690, 169.7953
424.7610, 239.7430
425.9540, 264.5878
427.1460, 264.9604
428.3380, 321.2926
429.5300, 324.3549
430.7220, 344.3077
431.9140, 465.6598
433.1050, 493.9731
434.2970, 573.6796
435.4880, 610.7911
436.6790, 704.5048
437.8700, 813.3392
439.0610, 947.8853
440.2510, 1073.774
441.4420, 1303.042
442.6320, 1465.317
443.8220, 1701.371
445.0120, 2027.352
446.2020, 2380.242
447.3910, 2720.551
448.5810, 3210.868
449.7700, 3752.979
450.9600, 4366.526
452.1490, 5064.867
453.3370, 5867.216
454.5260, 6697.573
455.7150, 7700.938
456.9030, 8896.311
458.0910, 10316.69
459.2800, 12285.08
460.4670, 14798.48
461.6550, 18670.88
462.8430, 23924.30
464.0300, 30811.72
465.2180, 38634.14
466.4050, 46840.57
467.5920, 53501.01
468.7790, 59185.47
469.9650, 61431.93
471.1520, 58979.40
472.3380, 52814.87
473.5250, 43381.34
474.7110, 35323.84
475.8970, 28224.33
477.0820, 22619.83
478.2680, 17821.35
479.4540, 14179.86
480.6390, 11235.38
481.8240, 9084.917
483.0090, 7157.456
484.1940, 5919.001
485.3780, 5060.554
486.5630, 4279.441
487.7470, 3688.008
488.9320, 3193.562
490.1160, 2771.272
491.3000, 2505.859
492.4830, 2216.005
493.6670, 2000.446
494.8500, 1770.068
496.0340, 1603.478
497.2170, 1468.506
498.4000, 1344.708
499.5820, 1270.794
500.7650, 1144.543
501.9480, 1056.305
503.1300, 941.8232
504.3120, 937.7200
505.4940, 802.2504
506.6760, 796.9229
507.8580, 799.1263
509.0390, 754.4454
510.2210, 718.4613
511.4020, 713.2390
512.5830, 660.5061
513.7640, 657.3427
514.9450, 621.7289
516.1250, 605.7911
517.3060, 567.6517
518.4860, 565.5485
519.6660, 555.6268
520.8460, 545.6988
522.0260, 502.4669
523.2060, 537.2169
524.3850, 543.1613
525.5650, 539.1127
526.7440, 452.9735
527.9230, 551.8647
529.1020, 449.4663
530.2810, 458.7892
531.4590, 512.7026
532.6380, 487.4982
533.8160, 459.4626
534.9940, 430.4681
536.1720, 415.2916
537.3500, 449.1893
538.5270, 428.1769
539.7050, 401.7307
540.8820, 741.9959
542.0590, 1090.333
543.2360, 1011.674
544.4130, 572.0562
545.5900, 372.2219
546.7660, 361.9888
547.9430, 357.9221
549.1190, 330.4580
550.2950, 362.7103
551.4710, 332.0355
552.6470, 327.0794
553.8220, 323.4235
554.9980, 305.2812
556.1730, 302.3611
557.3480, 289.3351
558.5230, 284.2914
559.6980, 289.1385
560.8730, 276.1777
562.0470, 243.0378
563.2220, 281.3194
564.3960, 230.1972
565.5700, 221.4044
566.7440, 210.2731
567.9170, 210.2173
569.0910, 221.0925
570.2640, 223.9910
571.4380, 198.8860
572.6110, 244.7768
573.7840, 190.6719
574.9570, 214.5712
576.1290, 203.4813
577.3020, 202.4011
578.4740, 182.3297
579.6460, 201.2608
580.8180, 183.1941
581.9900, 200.1285
583.1620, 204.0629
584.3330, 194.9968
585.5040, 260.9340
586.6760, 231.8754
587.8470, 252.8184
589.0180, 274.7608
590.1880, 270.7025
591.3590, 294.6436
592.5290, 315.5839
593.7000, 321.5233
594.8700, 292.4617
596.0400, 310.1201
597.2090, 298.7784
598.3790, 316.2707
599.5490, 291.2047
600.7180, 300.1373
601.8870, 296.0687
603.0560, 311.9987
604.2250, 282.8994
605.3940, 230.8542
606.5620, 217.7796
607.7300, 210.7032
608.8990, 165.6252
610.0670, 167.5453
611.2350, 152.4636
612.4020, 148.3799
613.5700, 130.2943
614.7370, 117.2065
615.9050, 102.1165
617.0720, 102.0244
618.2390, 88.93005
619.4060, 83.74390
620.5720, 60.73431
621.7390, 74.63275
622.9050, 66.52869
624.0710, 66.42200
625.2370, 36.31268
626.4030, 28.20068
627.5690, 14.09937
628.7340, 9.397034
629.9000, 37.86780
631.0650, 14.75598
632.2300, 19.65118
633.3950, 30.53558
634.5600, 9.596313
635.7240, 9.516113
636.8890, 24.35626
638.0530, 37.77191
639.2170, 15.08685
640.3810, 4.932251
641.5450, 4.971191
642.7080, 8.807007
643.8720, 3.177612
645.0350, 2.728943
646.1980, 11.36816
647.3610, 19.55945
648.5240, 14.42731
649.6870, 16.23120
650.8490, 4.087402
652.0120, 3.302917
653.1740, 7.443848
654.3360, 19.18500
655.4980, 10.04810
656.6600, 7.714966
657.8210, 6.432678
658.9830, 14.83160
660.1440, 21.07715
661.3050, 2.552979
662.4660, 22.12433
663.6270, 6.919373
664.7870, 11.42456
665.9480, 12.37262
667.1080, 11.00531
668.2680, 5.263611
669.4280, 0.6493530
670.5880, 10.95477
671.7480, 21.65143
672.9070, 9.244141
674.0670, 8.407104
675.2260, 20.98578
676.3850, 14.57434
677.5440, 10.26031
678.7030, 2.395996
679.8610, 13.39355
681.0200, 14.39026
682.1780, 1.647278
683.3360, 14.85205
684.4940, 11.25073
685.6520, 4.786499
686.8090, 7.334412
687.9670, 0.8994140
689.1240, 4.571777
690.2810, 2.968201
691.4380, 12.38849
692.5950, 2.784119
693.7520, 13.16937
694.9080, 13.54712
696.0650, 38.94617
697.2210, 18.31067
698.3770, 30.66833
699.5330, 14.02008
700.6880, 30.42383
701.8440, 7.091003
702.9990, 29.41937
704.1550, 9.741516
705.3100, 49.47870
706.4650, 24.78564
707.6190, 38.08569
708.7740, 32.30493
709.9290, 34.59247
711.0830, 38.87366
712.2370, 37.14868
713.3910, 38.41724
714.5450, 39.51758
715.6980, 40.16565
716.8520, 37.22339
718.0050, 46.52795
719.1580, 44.76416
720.3110, 55.99371
721.4640, 60.21661
722.6170, 53.43286
723.7700, 76.14716
724.9220, 73.08563
726.0740, 68.20947
727.2260, 73.40479
728.3780, 81.58746
729.5300, 66.76343
730.6810, 85.93262
731.8330, 65.09497
732.9840, 59.25049
734.1350, 94.39929
735.2860, 76.54126
736.4370, 76.67651
737.5880, 69.80493
738.7380, 98.92657
739.8880, 77.04138
741.0390, 125.1494
742.1890, 104.2505
743.3380, 108.3449
744.4880, 66.43250
745.6380, 68.51337
746.7870, 55.58740
747.9360, 94.65466
749.0850, 89.71515
750.2340, 84.76886
751.3830, 79.81573
752.5310, 55.85590
753.6800, 71.88928
754.8280, 49.91595
755.9760, 89.93585
757.1240, 59.94910
758.2720, 71.95551
759.4190, 61.95526
760.5670, 64.94830
761.7140, 39.93469
762.8610, 62.91437
764.0080, 84.88745
765.1550, 37.85376
766.3020, 40.81342
767.4480, 65.76331
768.5950, 47.70953
769.7410, 37.64917
770.8870, 42.58203
772.0330, 21.50830
773.1780, 38.41235
774.3240, 43.52722
775.4690, 47.43207
776.6140, 33.75525
777.7590, 39.64691
778.9040, 16.42188
780.0490, 40.18341
781.1940, 17.00177
782.3380, 24.38007
783.4820, 24.04736
784.6260, 38.89508
785.7700, 33.21124
786.9140, 2.167297
788.0580, 3.305298
789.2010, 24.51740
790.3450, 34.76257
791.4880, 52.43732
792.6310, 23.23468
793.7730, 21.00934
794.9160, 30.65765
796.0590, 22.26880
797.2010, 16.69757
798.3430, 7.280640
799.4850, 19.86420
800.6270, 7.614380
801.7690, 21.16833
802.9100, 4.714172
804.0520, 27.34863
805.1930, 7.951843
806.3340, 28.84302
807.4750, 43.01147
808.6160, 6.588501
809.7560, 32.28137
810.8970, 5.195801
812.0370, 21.28198
813.1770, 13.94055
814.3170, 3.523315
815.4570, 8.985657
816.5960, 4.065918
817.7360, 24.13892
818.8750, 24.27075
820.0140, 13.39581
821.1530, 0.5208130
822.2920, 33.77655
823.4310, 6.471008
824.5690, 31.99719
825.7070, 8.0688000E-02
826.8460, 10.12286
827.9840, 25.25183
829.1220, 8.660278
830.2590, 11.76648
831.3970, 28.17859
832.5340, 0.4075930
833.6710, 16.19507
834.8080, 3.681396
835.9450, 17.27490
837.0820, 19.32568
838.2190, 23.75372
839.3550, 20.38892
840.4910, 28.93317
841.6270, 9.852905
842.7630, 16.70081
843.8990, 28.17847
845.0350, 18.27332
846.1700, 10.24921
847.3060, 22.77820
848.4410, 18.31030
849.5760, 10.83990
850.7100, 17.63300
851.8450, 3.115845
852.9800, 5.601807
854.1140, 3.092834
855.2480, 19.41443
856.3820, 33.91943
857.5160, 9.422302
858.6500, 28.92291
859.7830, 13.57849
860.9170, 16.08679
862.0500, 0.6029660
863.1830, 0.1213990
864.3160, 25.35815
865.4480, 4.835815
866.5810, 36.31165
867.7130, 48.78583
868.8460, 43.25812
869.9780, 9.728882
871.1100, 9.197998
872.2410, 38.66553
873.3730, 10.13159
874.5050, 51.59607
875.6360, 25.05920
876.7670, 41.52100
877.8980, 2.982605
879.0290, 23.44293
880.1590, 56.90204
881.2900, 41.35992
882.4200, 26.81671
883.5500, 41.27240
884.6800, 66.72693
885.8100, 60.18054
886.9400, 77.63367
888.0690, 114.0859
889.1990, 92.53802
890.3280, 112.9900
891.4570, 99.44135
892.5860, 132.8920
893.7140, 151.3419
894.8430, 157.7941
895.9710, 174.2458
897.1000, 201.6970
898.2280, 230.1477
899.3560, 232.5980
900.4830, 233.0481
901.6110, 250.4875
902.7380, 253.9369
903.8660, 412.3863
904.9930, 385.0204
906.1200, 432.2743
907.2460, 448.7233
908.3730, 468.9994
909.5000, 545.4453
910.6260, 608.8998
911.7520, 637.3552
912.8780, 685.8091
914.0040, 738.2822
915.1290, 768.5580
916.2550, 867.0330
917.3800, 849.3264
918.5050, 971.7242
919.6300, 1028.123
920.7550, 1117.609
921.8800, 1135.102
923.0040, 1205.853
924.1290, 1210.971
925.2530, 1270.452
926.3770, 1206.966
927.5010, 1212.482
928.6250, 1092.970
929.7480, 1052.453
930.8720, 922.9774
931.9950, 893.4797
933.1180, 816.9539
934.2410, 756.6475
935.3640, 731.1816
936.4860, 669.5958
937.6090, 614.1448
938.7310, 623.5440
939.8530, 625.1111
940.9750, 552.5762
942.0970, 485.1508
943.2180, 473.7297
944.3400, 439.2130
945.4610, 402.8018
946.5820, 355.8160
947.7030, 346.4102
948.8240, 285.9907
949.9450, 267.4702
951.0650, 253.2875
952.1860, 200.4392
953.3060, 193.0538
954.4260, 194.6770
955.5460, 179.3047
956.6650, 180.8217
957.7850, 145.4662
958.9040, 145.1154
960.0230, 138.7733
961.1420, 132.3884
962.2610, 121.0559
963.3800, 109.7280
964.4990, 124.4031
965.6170, 75.08307
966.7350, 103.7661
967.8530, 82.42365
968.9710, 93.11230
970.0890, 71.80457
971.2070, 112.4991
972.3240, 83.14355
973.4410, 92.52118
974.5580, 109.2324
975.6750, 105.9465
976.7920, 120.2404
977.9090, 110.9614
979.0250, 121.6858
980.1410, 123.1196
981.2580, 132.2177
982.3740, 131.9507
983.4890, 114.6920
984.6050, 122.4364
985.7200, 108.3457
986.8360, 129.0347
987.9510, 110.6548
989.0660, 121.3525
990.1810, 112.1152
991.2950, 112.8810
992.4100, 88.64996
993.5240, 104.2573
994.6390, 103.6928
995.7530, 129.8195
996.8660, 138.5911
997.9800, 159.3712
999.0940, 130.1605
1000.207, 110.9556
1001.320, 145.7540
1002.433, 122.5558
1003.546, 163.3609
1004.659, 150.1694
1005.772, 126.9814
1006.884, 86.79846
1007.996, 126.6173
1009.108, 121.4397
1010.220, 96.26550
1011.332, 93.34424
1012.444, 101.1775
1013.555, 119.0142
1014.666, 114.8545
1015.777, 120.8432
1016.888, 100.5459
1017.999, 119.3969
1019.110, 99.25146
1020.220, 95.19995
1021.331, 92.06281
1022.441, 83.06482
1023.551, 96.09277
1024.661, 80.96820
1025.770, 114.8479
1026.880, 113.7313
1027.989, 96.25818
1029.098, 78.15112
1030.207, 118.0476
1031.316, 100.9476
1032.425, 143.8513
1033.533, 128.7586
1034.642, 124.6695
1035.750, 131.5841
1036.858, 75.50238
1037.966, 108.4250
1039.073, 86.35144
1040.181, 123.2816
1041.288, 124.5342
1042.396, 107.4724
1043.503, 86.41425
1044.610, 98.89795
1045.716, 82.46710
1046.823, 113.8264
1047.929, 109.8051
1049.036, 107.7655
1050.142, 120.7737
1051.248, 106.7418
1052.353, 142.7137
1053.459, 99.68945
1054.564, 117.8549
1055.670, 121.8374
1056.775, 109.8267
1057.880, 138.8209
1058.985, 120.8187
1060.089, 135.0665
1061.194, 129.7949
1062.298, 105.0786
1063.402, 111.0898
1064.506, 108.1042
1065.610, 91.12207
1066.713, 92.14343
1067.817, 124.1717
1068.920, 125.4907
1070.023, 114.5260
1071.126, 91.56458
1072.229, 115.3546
1073.332, 72.42004
1074.435, 96.46887
1075.537, 93.52057
1076.639, 100.8105
1077.741, 117.0175
1078.843, 68.08197
1079.945, 118.1483
1081.046, 92.21741
1082.148, 59.28943
1083.249, 107.3647
1084.350, 54.44641
1085.451, 68.53296
1086.551, 84.62231
1087.652, 76.71411
1088.752, 66.80865
1089.853, 69.90656
1090.953, 108.0068
1092.053, 91.10980
1093.152, 95.38239
1094.252, 91.32349
1095.351, 81.43414
1096.451, 69.54730
1097.550, 69.66290
1098.649, 66.78082
1099.748, 63.57727
1100.846, 55.02417
1101.945, 63.52716
1103.043, 68.24445
1104.141, 72.91992
1105.239, 97.05676
1106.337, 84.45618
1107.434, 55.34875
1108.532, 70.49805
1109.629, 68.65155
1110.726, 63.85712
1111.823, 63.01477
1112.920, 67.17865
1114.017, 132.3447
1115.113, 170.7578
1116.210, 150.9644
1117.306, 236.1363
1118.402, 313.9775
1119.498, 338.1575
1120.593, 328.3692
1121.689, 330.5539
1122.784, 350.7404
1123.879, 376.9285
1124.974, 342.1229
1126.069, 243.3147
1127.164, 237.5106
1128.259, 175.8945
1129.353, 129.0969
1130.447, 91.30096
1131.541, 74.04657
1132.635, 33.25403
1133.729, 59.46289
1134.822, 51.67340
1135.916, 15.88538
1137.009, 15.11340
1138.102, 0.3283690
1139.195, 38.54480
1140.288, 23.76263
1141.380, 43.98193
1142.473, 8.694824
1143.565, 2.524963
1144.657, 27.74615
1145.749, 25.96869
1146.841, 45.22253
1147.932, 16.44757
1149.024, 20.67719
1150.115, 21.90796
1151.206, 3.860107
1152.297, 21.62360
1153.388, 5.028748
1154.479, 5.499329
1155.569, 37.73334
1156.659, 35.11292
1157.750, 4.348450
1158.839, 15.41504
1159.929, 14.36072
1161.019, 12.59344
1162.108, 25.82690
1163.198, 9.061340
1164.287, 20.29681
1165.376, 3.535156
1166.465, 18.78241
1167.553, 28.03943
1168.642, 3.415222
1169.730, 6.695923
1170.818, 8.941772
1171.906, 7.817688
1172.994, 4.420532
1174.082, 14.65936
1175.170, 4.101257
1176.257, 6.137024
1177.344, 25.62415
1178.431, 0.3969730
1179.518, 8.830322
1180.605, 0.9419560
1181.691, 27.28558
1182.778, 34.51349
1183.864, 15.74457
1184.950, 4.023987
1186.036, 32.20605
1187.122, 3.436462
1188.207, 1.668152
1189.292, 25.90009
1190.378, 4.867798
1191.463, 23.36218
1192.548, 4.592407
1193.632, 2.826843
1194.717, 25.06158
1195.801, 20.29749
1196.886, 26.53351
1197.970, 27.76965
1199.054, 4.988647
1200.137, 3.244995
1201.221, 15.49194
1202.305, 28.27209
1203.388, 0.9465330
1204.471, 31.16461
1205.554, 8.382690
1206.637, 3.399475
1207.719, 18.18402
1208.802, 2.021179
1209.884, 18.22607
1210.966, 46.43073
1212.048, 16.64331
1213.130, 40.84741
1214.212, 8.058777
1215.293, 43.26227
1216.374, 10.46545
1217.456, 23.66821
1218.536, 17.87061
1219.617, 19.07257
1220.698, 8.274292
1221.778, 9.679138
1222.859, 11.38776
1223.939, 11.88312
1225.019, 17.08606
1226.099, 26.28851
1227.178, 25.49402
1228.258, 19.69556
1229.337, 35.89764
1230.417, 34.10046
1231.496, 1.302734
1232.574, 23.50385
1233.653, 20.29578
1234.732, 25.89172
1235.810, 36.07843
1236.888, 45.26447
1237.966, 37.44971
1239.044, 37.63416
1240.122, 2.817749
