##NAMES=Covellite
##RRUFFID=R060129
##IDEAL CHEMISTRY=Cu^1+^S
##LOCALITY=Butte, Montana, USA
##OWNER=RRUFF
##SOURCE=University of Arizona Mineral Museum
##DESCRIPTION=Iridescent blue metallic hexagonal plates
##STATUS=The identification of this mineral has been confirmed by X-ray diffraction and chemical analysis
##URL=rruff.info/R060129
##MEASURED CHEMISTRY=Cu_1.00_S_1.00_
##PIN_ID=L00818
##ORIENTATION=Laser parallel to c* (0 0 1). Fiducial mark perpendicular to laser is parallel to a [1 0 0]
170.9360, 0.0000000E+00
172.1610, 115.4727
173.3850, 1.404297
174.6100, 99.54688
175.8340, 162.8311
177.0580, 47.61914
178.2820, 75.05566
179.5050, 180.9395
180.7290, 250.4873
181.9520, 241.3467
183.1760, 205.7119
184.3990, 377.9434
185.6220, 674.5273
186.8450, 722.7012
188.0670, 683.9238
189.2900, 703.7363
190.5120, 759.4160
191.7340, 861.8242
192.9560, 1003.594
194.1780, 1095.302
195.4000, 1085.700
196.6220, 1158.721
197.8430, 1027.267
199.0640, 1269.490
200.2860, 1287.388
201.5070, 1478.067
202.7270, 1356.485
203.9480, 1018.594
205.1690, 593.4980
206.3890, 271.5723
207.6090, 43.80566
208.8290, 62.08398
210.0490, 256.7402
211.2690, 0.5654300
212.4890, 80.27246
213.7080, 290.2471
214.9280, 184.3496
216.1470, 90.56934
217.3660, 106.1045
218.5850, 35.31250
219.8030, 11.81250
221.0220, 86.38184
222.2400, 12.01562
223.4590, 93.70703
224.6770, 31.54102
225.8950, 30.26758
227.1120, 32.86523
228.3300, 164.0586
229.5480, 63.04199
230.7650, 119.0811
231.9820, 125.2129
233.1990, 210.5713
234.4160, 224.4189
235.6330, 238.4053
236.8490, 314.4102
238.0660, 273.4355
239.2820, 418.4834
240.4980, 466.5557
241.7140, 565.6572
242.9300, 799.7861
244.1460, 792.9805
245.3610, 924.3105
246.5770, 1078.745
247.7920, 1156.270
249.0070, 1424.879
250.2220, 1659.562
251.4370, 1895.307
252.6510, 2089.105
253.8660, 2420.943
255.0800, 2701.810
256.2940, 3074.688
257.5080, 4033.577
258.7220, 4052.102
259.9360, 4165.465
261.1490, 4407.268
262.3630, 3895.152
263.5760, 3823.913
264.7890, 3742.618
266.0020, 3678.324
267.2150, 3349.964
268.4270, 3362.519
269.6400, 3046.053
270.8520, 2943.557
272.0640, 2908.013
273.2760, 2632.459
274.4880, 2816.923
275.7000, 2735.415
276.9120, 2648.940
278.1230, 2620.501
279.3340, 2444.098
280.5450, 2333.729
281.7560, 2101.398
282.9670, 2110.104
284.1780, 1776.843
285.3880, 1485.619
286.5980, 1523.432
287.8090, 1260.279
289.0190, 1070.163
290.2290, 1018.084
291.4380, 1123.043
292.6480, 816.1074
293.8570, 905.4824
295.0670, 710.7109
296.2760, 911.2070
297.4850, 1006.808
298.6930, 1009.012
299.9020, 1022.894
301.1110, 892.8193
302.3190, 971.7881
303.5270, 1063.801
304.7350, 1214.855
305.9430, 1052.957
307.1510, 1140.102
308.3580, 1300.286
309.5660, 1495.509
310.7730, 1553.771
311.9800, 1574.074
313.1870, 1767.414
314.3940, 1803.794
315.6010, 2126.213
316.8070, 2573.154
318.0130, 3000.980
319.2200, 3319.689
320.4260, 3920.932
321.6310, 4679.142
322.8370, 5510.771
324.0430, 6537.373
325.2480, 7669.186
326.4540, 9176.847
327.6590, 10558.36
328.8640, 11339.65
330.0680, 11916.85
331.2730, 11657.91
332.4780, 11063.85
333.6820, 9814.705
334.8860, 9121.368
336.0900, 7620.703
337.2940, 6410.836
338.4980, 5359.926
339.7010, 4223.709
340.9050, 3549.404
342.1080, 3138.031
343.3110, 2412.547
344.5140, 2053.466
345.7170, 1602.390
346.9200, 1435.835
348.1220, 1190.310
349.3240, 1201.819
350.5270, 1015.365
351.7290, 882.4248
352.9310, 1046.236
354.1320, 1005.637
355.3340, 1132.585
356.5350, 1327.219
357.7370, 1403.263
358.9380, 1794.777
360.1390, 1908.905
361.3400, 2288.368
362.5400, 2503.090
363.7410, 2810.923
364.9410, 2916.223
366.1410, 3178.975
367.3410, 3226.567
368.5410, 3235.528
369.7410, 3548.851
370.9400, 3479.652
372.1400, 3596.771
373.3390, 3504.405
374.5380, 3400.464
375.7370, 3368.012
376.9360, 3293.635
378.1350, 3043.663
379.3330, 3154.793
380.5310, 3210.023
381.7300, 2655.368
382.9280, 2659.736
384.1260, 2405.129
385.3230, 2645.547
386.5210, 2174.988
387.7180, 1560.456
388.9160, 1600.949
390.1130, 1243.466
391.3100, 1086.006
392.5060, 876.5693
393.7030, 700.1572
394.9000, 680.7676
396.0960, 513.4014
397.2920, 465.0576
398.4880, 408.7363
399.6840, 107.4385
400.8800, 226.1631
402.0750, 93.91016
403.2710, 338.6904
404.4660, 43.49414
405.6610, 217.3203
406.8560, 221.1846
408.0510, 538.1143
409.2450, 391.1064
410.4400, 84.12793
411.6340, 49.18848
412.8280, 86.72754
414.0220, 26.37012
415.2160, 93.48145
416.4100, 140.3193
417.6030, 21.14258
418.7970, 134.9404
419.9900, 195.7051
421.1830, 181.4785
422.3760, 26.25000
423.5690, 48.99902
424.7610, 42.27344
425.9540, 22.57129
427.1460, 115.8926
428.3380, 56.23828
429.5300, 107.6094
430.7220, 138.0059
431.9140, 161.4268
433.1050, 186.8740
434.2970, 369.3457
435.4880, 495.8408
436.6790, 532.6846
437.8700, 845.8574
439.0610, 643.9238
440.2510, 817.3975
441.4420, 905.8564
442.6320, 1082.332
443.8220, 1252.834
445.0120, 1419.360
446.2020, 1885.910
447.3910, 2129.484
448.5810, 2456.081
449.7700, 2982.703
450.9600, 3380.347
452.1490, 3981.016
453.3370, 4638.708
454.5260, 5408.427
455.7150, 6036.166
456.9030, 7006.926
458.0910, 7995.712
459.2800, 9622.518
460.4670, 11388.33
461.6550, 13830.15
462.8430, 17566.98
464.0300, 21514.83
465.2180, 26675.68
466.4050, 32852.55
467.5920, 37780.72
468.7790, 42606.62
469.9650, 42929.54
471.1520, 40630.46
472.3380, 37630.40
473.5250, 30868.36
474.7110, 23899.34
475.8970, 19315.32
477.0820, 15293.33
478.2680, 12369.36
479.4540, 10000.40
480.6390, 7781.463
481.8240, 6370.545
483.0090, 5275.168
484.1940, 4490.295
485.3780, 3747.443
486.5630, 3005.615
487.7470, 2658.335
488.9320, 2222.562
490.1160, 2100.812
491.3000, 1799.083
492.4830, 1778.375
493.6670, 1440.692
494.8500, 1188.033
496.0340, 1142.130
497.2170, 1181.566
498.4000, 826.0273
499.5820, 887.5303
500.7650, 845.0654
501.9480, 807.6250
503.1300, 800.5166
504.3120, 607.8203
505.4940, 704.4961
506.6760, 595.2051
507.8580, 486.9893
509.0390, 584.8242
510.2210, 496.6904
511.4020, 642.6045
512.5830, 429.5674
513.7640, 583.5586
514.9450, 512.5879
516.1250, 556.6367
517.3060, 666.7080
518.4860, 657.7988
519.6660, 823.9102
520.8460, 387.0420
522.0260, 429.1914
523.2060, 486.3818
524.3850, 454.5908
525.5650, 485.8193
526.7440, 472.3447
527.9230, 392.3301
529.1020, 412.6172
530.2810, 420.9238
531.4590, 340.2480
532.6380, 263.5908
533.8160, 405.9678
534.9940, 536.3887
536.1720, 447.8262
537.3500, 665.2969
538.5270, 521.7852
539.7050, 544.2920
540.8820, 402.8145
542.0590, 458.3721
543.2360, 402.9414
544.4130, 322.5586
545.5900, 608.1699
546.7660, 199.0947
547.9430, 722.4121
549.1190, 321.2275
550.2950, 392.5518
551.4710, 547.2529
552.6470, 283.9854
553.8220, 245.7031
554.9980, 291.9883
556.1730, 290.4639
557.3480, 451.6748
558.5230, 171.2139
559.6980, 401.7803
560.8730, 342.4570
562.0470, 104.5244
563.2220, 221.1396
564.3960, 287.6572
565.5700, 210.5938
566.7440, 326.6377
567.9170, 272.5010
569.0910, 235.3770
570.2640, 324.2627
571.4380, 134.1592
572.6110, 208.3281
573.7840, 150.7197
574.9570, 139.6484
576.1290, 40.58496
577.3020, 78.63574
578.4740, 68.58789
579.6460, 21.45312
580.8180, 45.89844
581.9900, 185.8662
583.1620, 282.8398
584.3330, 89.11426
585.5040, 52.10059
586.6760, 56.09277
587.8470, 17.09375
589.0180, 75.10742
590.1880, 93.12891
591.3590, 54.34570
592.5290, 119.0137
593.7000, 115.3350
594.8700, 160.1846
596.0400, 144.2471
597.2090, 92.31445
598.3790, 78.38574
599.5490, 32.46289
600.7180, 195.5488
601.8870, 173.7568
603.0560, 200.3037
604.2250, 122.3965
605.3940, 28.49121
606.5620, 158.7373
607.7300, 9.159180
608.8990, 134.9414
610.0670, 217.3643
611.2350, 9.471680
612.4020, 174.9932
613.5700, 152.2793
614.7370, 165.3945
615.9050, 231.5635
617.0720, 373.6777
618.2390, 158.8008
619.4060, 47.91406
620.5720, 118.1895
621.7390, 228.3008
622.9050, 95.58887
624.0710, 259.9229
625.2370, 121.9883
626.4030, 182.0508
627.5690, 110.8906
628.7340, 145.7725
629.9000, 509.7783
631.0650, 426.7764
632.2300, 666.7725
633.3950, 434.5127
634.5600, 377.7500
635.7240, 57.14844
636.8890, 164.8477
638.0530, 112.3877
639.2170, 247.7158
640.3810, 113.9287
641.5450, 76.50879
642.7080, 49.70703
643.8720, 30.49609
645.0350, 39.95312
646.1980, 234.3994
647.3610, 200.1387
648.5240, 300.0469
649.6870, 307.5508
650.8490, 254.1377
652.0120, 215.9932
653.1740, 568.5039
654.3360, 486.3359
655.4980, 483.1562
656.6600, 359.9648
657.8210, 380.7617
658.9830, 563.5469
660.1440, 497.6982
661.3050, 532.5771
662.4660, 396.9199
663.6270, 540.3545
664.7870, 481.4023
665.9480, 478.6689
667.1080, 428.0000
668.2680, 404.7373
669.4280, 343.5098
670.5880, 339.9229
671.7480, 238.1787
672.9070, 176.3955
674.0670, 255.4297
675.2260, 338.6406
676.3850, 324.6055
677.5440, 169.9082
678.7030, 429.4541
679.8610, 190.4551
681.0200, 83.41504
682.1780, 230.4688
683.3360, 11.64648
684.4940, 178.1201
685.6520, 31.34766
686.8090, 20.84863
687.9670, 139.6201
689.1240, 115.2656
690.2810, 9.448242
691.4380, 25.06152
692.5950, 119.4873
693.7520, 79.26074
694.9080, 67.11230
696.0650, 44.99609
697.2210, 16.57715
698.3770, 79.78613
699.5330, 77.50781
700.6880, 92.33691
701.8440, 2.231445
702.9990, 76.61621
704.1550, 58.67480
705.3100, 84.02637
706.4650, 441.7314
707.6190, 219.6855
708.7740, 176.6279
709.9290, 353.0752
711.0830, 74.53516
712.2370, 35.76465
713.3910, 222.1738
714.5450, 167.9697
715.6980, 118.7275
716.8520, 265.0586
718.0050, 253.8008
719.1580, 11.26855
720.3110, 277.1328
721.4640, 164.8633
722.6170, 82.34277
723.7700, 160.3896
724.9220, 251.7549
726.0740, 276.0156
727.2260, 160.1953
728.3780, 174.2236
729.5300, 117.3008
730.6810, 153.6816
731.8330, 52.49414
732.9840, 132.0459
734.1350, 170.8037
735.2860, 294.4648
736.4370, 263.8379
737.5880, 275.8975
738.7380, 201.2109
739.8880, 148.6885
741.0390, 69.66406
742.1890, 233.6074
743.3380, 210.6699
744.4880, 147.3193
745.6380, 262.9961
746.7870, 220.8779
747.9360, 110.2393
749.0850, 230.7275
750.2340, 89.86719
751.3830, 148.5088
752.5310, 282.5469
753.6800, 179.2324
754.8280, 285.9072
755.9760, 192.5352
757.1240, 268.2959
758.2720, 158.0449
759.4190, 319.6377
760.5670, 268.2217
761.7140, 90.13477
762.8610, 309.5322
764.0080, 214.9004
765.1550, 223.2383
766.3020, 4.982422
767.4480, 199.2725
768.5950, 241.4961
769.7410, 206.6895
770.8870, 59.85254
772.0330, 253.9814
773.1780, 76.07910
774.3240, 26.42188
775.4690, 60.44434
776.6140, 110.4316
777.7590, 20.38477
778.9040, 49.29492
780.0490, 140.1699
781.1940, 34.01172
782.3380, 76.81445
783.4820, 78.58203
784.6260, 135.6855
785.7700, 58.82617
786.9140, 61.45117
788.0580, 54.05859
789.2010, 5.351563
790.3450, 54.71484
791.4880, 419.0420
792.6310, 723.3369
793.7730, 400.6045
794.9160, 669.8408
796.0590, 456.5469
797.2010, 128.2236
798.3430, 191.3662
799.4850, 52.52344
800.6270, 53.50879
801.7690, 143.5029
802.9100, 88.46484
804.0520, 70.39160
805.1930, 11.28320
806.3340, 100.1299
807.4750, 45.94141
808.6160, 76.71777
809.7560, 37.54395
810.8970, 66.87500
812.0370, 77.70703
813.1770, 34.74512
814.3170, 49.73438
815.4570, 30.17676
816.5960, 113.5791
817.7360, 13.96875
818.8750, 6.580078
820.0140, 20.30859
821.1530, 147.8848
822.2920, 11.93750
823.4310, 129.8994
824.5690, 32.41797
825.7070, 190.3232
826.8460, 74.70215
827.9840, 120.6846
829.1220, 92.60352
830.2590, 34.71191
831.3970, 67.34961
832.5340, 48.52344
833.6710, 90.96680
834.8080, 99.03809
835.9450, 15.59961
837.0820, 300.7383
838.2190, 61.27832
839.3550, 217.0352
840.4910, 142.4365
841.6270, 17.72754
842.7630, 28.08203
843.8990, 8.453125
845.0350, 149.0723
846.1700, 23.51758
847.3060, 14.92871
848.4410, 64.04199
849.5760, 19.08887
850.7100, 155.2119
851.8450, 158.4844
852.9800, 15.62109
854.1140, 150.8320
855.2480, 77.01367
856.3820, 105.7764
857.5160, 131.8984
858.6500, 185.9922
859.7830, 43.76367
860.9170, 277.7979
862.0500, 2.194336
863.1830, 24.22266
864.3160, 23.70605
865.4480, 8.602539
866.5810, 45.72168
867.7130, 56.03809
868.8460, 111.3389
869.9780, 54.93848
871.1100, 71.66113
872.2410, 91.35254
873.3730, 6.017578
874.5050, 16.35059
875.6360, 89.24316
876.7670, 239.6934
877.8980, 204.7832
879.0290, 167.3037
880.1590, 19.80078
881.2900, 6.121094
882.4200, 120.5596
883.5500, 67.97363
884.6800, 30.04980
885.8100, 106.4141
886.9400, 4.656250
888.0690, 115.4844
889.1990, 192.7705
890.3280, 187.9795
891.4570, 192.2246
892.5860, 153.4385
893.7140, 149.0801
894.8430, 178.6729
895.9710, 173.8359
897.1000, 268.9766
898.2280, 280.6689
899.3560, 234.1016
900.4830, 353.2334
901.6110, 396.4902
902.7380, 416.9189
903.8660, 537.0801
904.9930, 719.1201
906.1200, 546.1387
907.2460, 805.5469
908.3730, 622.5352
909.5000, 731.9717
910.6260, 805.8867
911.7520, 771.2354
912.8780, 820.7666
914.0040, 1043.408
915.1290, 1113.651
916.2550, 1141.250
917.3800, 1068.239
918.5050, 961.5664
919.6300, 1234.913
920.7550, 1402.938
921.8800, 1255.768
923.0040, 1262.974
924.1290, 1280.068
925.2530, 1369.245
926.3770, 1227.383
927.5010, 1244.195
928.6250, 1094.466
929.7480, 995.2705
930.8720, 1058.064
931.9950, 811.8418
933.1180, 775.2256
934.2410, 624.8535
935.3640, 878.9922
936.4860, 743.3994
937.6090, 890.4395
938.7310, 622.6191
939.8530, 568.7168
940.9750, 329.8105
942.0970, 425.0127
943.2180, 414.9531
944.3400, 183.0156
945.4610, 504.0879
946.5820, 428.3164
947.7030, 206.3291
948.8240, 313.5625
949.9450, 273.4150
951.0650, 297.9883
952.1860, 168.0674
953.3060, 139.1504
954.4260, 311.1045
955.5460, 183.3818
956.6650, 199.5400
957.7850, 255.2061
958.9040, 146.2578
960.0230, 274.9600
961.1420, 231.3652
962.2610, 288.3359
963.3800, 219.4902
964.4990, 158.8740
965.6170, 284.6514
966.7350, 183.5449
967.8530, 363.8965
968.9710, 351.3369
970.0890, 259.5234
971.2070, 295.1807
972.3240, 248.7686
973.4410, 264.6533
974.5580, 242.1113
975.6750, 326.3975
976.7920, 199.0625
977.9090, 318.7539
979.0250, 466.9463
980.1410, 362.1064
981.2580, 292.7539
982.3740, 270.3135
983.4890, 506.0625
984.6050, 380.5859
985.7200, 460.6934
986.8360, 524.0254
987.9510, 494.5088
989.0660, 531.0498
990.1810, 566.2393
991.2950, 526.0488
992.4100, 446.9453
993.5240, 457.0479
994.6390, 415.5547
995.7530, 403.6846
996.8660, 429.0371
997.9800, 536.3027
999.0940, 652.8887
1000.207, 768.2861
1001.320, 735.6484
1002.433, 626.4561
1003.546, 498.2764
1004.659, 418.3535
1005.772, 236.7539
1006.884, 264.4551
1007.996, 467.1963
1009.108, 279.9639
1010.220, 358.3057
1011.332, 324.8750
1012.444, 206.7148
1013.555, 309.8008
1014.666, 455.5146
1015.777, 315.4697
1016.888, 252.8135
1017.999, 306.9658
1019.110, 204.8281
1020.220, 284.8057
1021.331, 320.4951
1022.441, 230.8037
1023.551, 277.2236
1024.661, 312.2607
1025.770, 240.1104
1026.880, 279.8125
1027.989, 238.6904
1029.098, 251.9951
1030.207, 245.3906
1031.316, 136.4736
1032.425, 220.4355
1033.533, 203.9980
1034.642, 169.6709
1035.750, 238.7100
1036.858, 189.6494
1037.966, 214.7803
1039.073, 258.9766
1040.181, 348.8604
1041.288, 400.1738
1042.396, 343.7354
1043.503, 407.8105
1044.610, 363.1992
1045.716, 308.2852
1046.823, 349.8457
1047.929, 255.6289
1049.036, 301.4355
1050.142, 301.2422
1051.248, 411.4561
1052.353, 381.0391
1053.459, 348.7920
1054.564, 436.1377
1055.670, 471.5732
1056.775, 394.0459
1057.880, 166.3789
1058.985, 420.3037
1060.089, 410.5273
1061.194, 159.8516
1062.298, 415.8115
1063.402, 362.4043
1064.506, 437.9043
1065.610, 484.4238
1066.713, 335.5469
1067.817, 393.0039
1068.920, 678.3877
1070.023, 498.4209
1071.126, 589.7373
1072.229, 529.7695
1073.332, 988.6650
1074.435, 489.9082
1075.537, 959.8242
1076.639, 718.8623
1077.741, 607.4062
1078.843, 541.0391
1079.945, 458.5449
1081.046, 310.5898
1082.148, 451.9883
1083.249, 491.6855
1084.350, 444.2773
1085.451, 341.7617
1086.551, 405.3184
1087.652, 273.0410
1088.752, 437.1172
1089.853, 422.9531
1090.953, 405.0352
1092.053, 309.6016
1093.152, 388.2812
1094.252, 382.8281
1095.351, 341.9824
1096.451, 253.0371
1097.550, 423.5684
1098.649, 484.8691
1099.748, 358.5312
1100.846, 232.4043
1101.945, 303.2383
1103.043, 402.4062
1104.141, 314.5176
1105.239, 364.3438
1106.337, 353.0625
1107.434, 325.8926
1108.532, 362.7070
1109.629, 431.1465
1110.726, 379.8809
1111.823, 375.4023
1112.920, 341.3906
1114.017, 540.1094
1115.113, 385.6895
1116.210, 408.5215
1117.306, 538.5781
1118.402, 300.9980
1119.498, 517.5898
1120.593, 599.2109
1121.689, 361.2090
1122.784, 515.4629
1123.879, 448.6426
1124.974, 395.2324
1126.069, 427.8652
1127.164, 355.9160
1128.259, 321.8750
1129.353, 351.5605
1130.447, 300.2148
1131.541, 326.4805
1132.635, 246.7988
1133.729, 267.4824
1134.822, 316.4805
1135.916, 194.5469
1137.009, 387.3984
1138.102, 211.5801
1139.195, 313.0566
1140.288, 330.4180
1141.380, 142.4082
1142.473, 197.2832
1143.565, 129.2051
1144.657, 268.9102
1145.749, 213.2266
1146.841, 137.2090
1147.932, 153.1777
1149.024, 20.46094
1150.115, 167.0000
1151.206, 44.13086
1152.297, 145.7051
1153.388, 128.7129
1154.479, 201.7539
1155.569, 51.96680
1156.659, 87.91211
1157.750, 14.43164
1158.839, 234.4414
1159.929, 155.9414
1161.019, 122.8418
1162.108, 51.21289
1163.198, 62.10352
1164.287, 106.8594
1165.376, 119.9336
1166.465, 143.0762
1167.553, 222.7344
1168.642, 169.5059
1169.730, 146.2871
1170.818, 213.9551
1171.906, 23.45898
1172.994, 276.0391
1174.082, 29.51758
1175.170, 94.85352
1176.257, 130.1074
1177.344, 44.72461
1178.431, 188.3320
1179.518, 174.2949
1180.605, 3.830078
1181.691, 102.0508
1182.778, 110.4043
1183.864, 156.1113
1184.950, 71.47070
1186.036, 59.74023
1187.122, 53.92188
1188.207, 11.58984
1189.292, 21.37109
1190.378, 74.48438
1191.463, 44.71094
1192.548, 7.707031
1193.632, 2.429688
1194.717, 32.51367
1195.801, 28.88672
1196.886, 55.16992
1197.970, 2.630859
1199.054, 49.52930
1200.137, 44.53320
1201.221, 49.64062
1202.305, 29.85742
1203.388, 60.17383
1204.471, 123.4082
1205.554, 45.91016
1206.637, 149.3320
1207.719, 29.67773
1208.802, 3.054688
1209.884, 254.1328
1210.966, 119.2520
1212.048, 73.29297
1213.130, 179.2793
1214.212, 193.2031
1215.293, 203.0762
1216.374, 32.90039
1217.456, 131.6758
1218.536, 81.45117
1219.617, 19.16602
1220.698, 70.78711
1221.778, 113.6660
1222.859, 111.2344
1223.939, 125.1562
1225.019, 55.66211
1226.099, 62.45508
1227.178, 341.5684
1228.258, 164.0957
1229.337, 100.6582
1230.417, 260.0684
1231.496, 77.49023
1232.574, 47.80859
1233.653, 51.09180
1234.732, 72.29297
1235.810, 19.15039
1236.888, 236.1992
1237.966, 220.1875
1239.044, 115.1113
1240.122, 72.73828
1241.199, 288.1602
1242.277, 169.0996
1243.354, 227.9961
1244.431, 78.68945
1245.508, 187.0898
1246.585, 6.873047
1247.661, 270.2852
1248.738, 221.1074
1249.814, 205.7656
1250.890, 377.1094
1251.966, 271.5762
1253.042, 323.0957
1254.117, 189.9082
1255.193, 322.2266
1256.268, 275.0820
1257.343, 284.1309
1258.418, 476.3535
1259.493, 426.3809
1260.567, 183.0195
1261.642, 152.2324
1262.716, 294.8105
1263.790, 208.3496
1264.864, 168.7793
1265.938, 203.7090
1267.011, 359.2656
1268.085, 219.7871
1269.158, 232.1816
1270.231, 352.6016
1271.304, 71.18750
1272.377, 52.43555
1273.450, 285.3457
1274.522, 36.16602
1275.594, 135.1270
1276.666, 95.41211
1277.738, 254.5332
1278.810, 145.2617
1279.882, 258.4980
1280.953, 95.96484
1282.025, 225.0410
1283.096, 191.5566
1284.167, 131.1016
1285.238, 172.1914
1286.308, 228.9980
1287.379, 115.0742
1288.449, 244.5488
1289.519, 70.28516
1290.589, 279.1367
1291.659, 60.20508
1292.729, 490.6738
1293.798, 393.2344
1294.868, 298.0020
1295.937, 240.0566
1297.006, 339.6855
1298.075, 255.8320
1299.143, 207.9395
1300.212, 187.2773
1301.280, 156.4727
1302.348, 113.7910
1303.416, 217.9688
1304.484, 145.1055
1305.552, 341.6074
1306.620, 377.8984
1307.687, 330.9492
1308.754, 438.0098
1309.821, 458.5938
1310.888, 502.9473
1311.955, 328.7969
1313.021, 228.5723
1314.088, 609.1309
1315.154, 385.4668
1316.220, 386.7910
1317.286, 548.9766
1318.352, 415.2598
1319.417, 470.9277
1320.483, 522.4766
1321.548, 154.7012
1322.613, 341.9219
1323.678, 295.9570
1324.743, 296.0586
1325.807, 75.17188
1326.872, 298.7559
1327.936, 259.4785
1329.000, 261.2363
1330.064, 406.0195
1331.128, 301.9336
1332.191, 198.9082
1333.255, 30.00391
1334.318, 61.54492
1335.381, 111.8164
1336.444, 164.7383
1337.507, 121.9414
1338.569, 284.5156
1339.632, 308.6289
1340.694, 213.4375
1341.756, 139.9453
1342.818, 47.27930
1343.880, 163.6426
