##NAMES=Covellite
##RRUFFID=R060129
##IDEAL CHEMISTRY=Cu^1+^S
##LOCALITY=Butte, Montana, USA
##OWNER=RRUFF
##SOURCE=University of Arizona Mineral Museum
##DESCRIPTION=Iridescent blue metallic hexagonal plates
##STATUS=The identification of this mineral has been confirmed by X-ray diffraction and chemical analysis
##URL=rruff.info/R060129
##MEASURED CHEMISTRY=Cu_1.00_S_1.00_
##PIN_ID=L00520
##ORIENTATION=Laser parallel to -a* (-1 0 0). Fiducial mark perpendicular to laser is parallel to c [0 0 1]
126.7490, 0.0000000E+00
127.9790, 179.8965
129.2090, 508.1201
130.4390, 924.9839
131.6680, 1286.609
132.8980, 1739.791
134.1270, 2340.870
135.3560, 3212.127
136.5850, 4217.309
137.8140, 4933.818
139.0430, 5114.575
140.2710, 4172.223
141.5000, 2916.811
142.7280, 1865.940
143.9560, 1336.636
145.1840, 937.5312
146.4120, 743.7915
147.6390, 586.1724
148.8670, 338.8496
150.0940, 451.0054
151.3210, 683.7949
152.5490, 455.0967
153.7750, 324.7944
155.0020, 280.4297
156.2290, 201.4746
157.4550, 53.30664
158.6810, 115.5835
159.9080, 98.18359
161.1340, 126.8667
162.3590, 88.57471
163.5850, 293.3218
164.8110, 250.5630
166.0360, 96.34570
167.2610, 100.2192
168.4860, 57.10889
169.7110, 309.6885
170.9360, 380.3833
172.1610, 327.4956
173.3850, 188.4595
174.6100, 185.7422
175.8340, 253.6548
177.0580, 406.4663
178.2820, 476.7896
179.5050, 533.4453
180.7290, 450.6138
181.9520, 461.4009
183.1760, 612.3899
184.3990, 596.0806
185.6220, 748.4214
186.8450, 790.2732
188.0670, 767.4092
189.2900, 846.5513
190.5120, 868.9390
191.7340, 944.2793
192.9560, 1041.569
194.1780, 1101.811
195.4000, 976.0071
196.6220, 1011.164
197.8430, 1064.283
199.0640, 1101.371
200.2860, 1239.524
201.5070, 1319.042
202.7270, 1164.922
203.9480, 720.1611
205.1690, 473.7756
206.3890, 206.1946
207.6090, 95.16016
208.8290, 13.32715
210.0490, 22.54053
211.2690, 94.35376
212.4890, 208.4192
213.7080, 248.1836
214.9280, 66.33887
216.1470, 18.95508
217.3660, 29.57544
218.5850, 68.60986
219.8030, 2.130615
221.0220, 99.25830
222.2400, 60.68018
223.4590, 92.72437
224.6770, 43.23901
225.8950, 123.9102
227.1120, 146.4248
228.3300, 29.48901
229.5480, 44.52808
230.7650, 49.51294
231.9820, 84.28003
233.1990, 80.13379
234.4160, 12.41919
235.6330, 52.61157
236.8490, 25.31738
238.0660, 13.01562
239.2820, 2.089355
240.4980, 21.79614
241.7140, 4.476563
242.9300, 71.06616
244.1460, 50.19043
245.3610, 77.83960
246.5770, 195.3276
247.7920, 267.6167
249.0070, 349.7078
250.2220, 410.5659
251.4370, 614.2925
252.6510, 793.9072
253.8660, 878.4092
255.0800, 1001.806
256.2940, 1266.130
257.5080, 2304.389
258.7220, 2040.318
259.9360, 3129.843
261.1490, 2015.072
262.3630, 1798.320
263.5760, 1702.593
264.7890, 1703.893
266.0020, 1589.219
267.2150, 1353.572
268.4270, 1212.951
269.6400, 1077.358
270.8520, 855.7922
272.0640, 774.2534
273.2760, 650.2710
274.4880, 622.0808
275.7000, 651.0781
276.9120, 532.0127
278.1230, 456.7297
279.3340, 251.1584
280.5450, 287.2722
281.7560, 264.9263
282.9670, 257.1252
284.1780, 276.9136
285.3880, 296.3269
286.5980, 269.7795
287.8090, 253.0642
289.0190, 245.7625
290.2290, 214.4463
291.4380, 250.9160
292.6480, 173.1423
293.8570, 241.0840
295.0670, 165.8442
296.2760, 158.3843
297.4850, 219.6626
298.6930, 154.7205
299.9020, 115.3711
301.1110, 190.5757
302.3190, 153.2275
303.5270, 209.7251
304.7350, 143.0430
305.9430, 146.2148
307.1510, 143.3794
308.3580, 163.3894
309.5660, 195.4934
310.7730, 237.3057
311.9800, 118.0056
313.1870, 191.5242
314.3940, 161.8203
315.6010, 166.9292
316.8070, 172.1797
318.0130, 134.9067
319.2200, 124.4277
320.4260, 166.2778
321.6310, 139.1514
322.8370, 172.3042
324.0430, 293.5522
325.2480, 270.8665
326.4540, 145.5803
327.6590, 258.1260
328.8640, 227.1919
330.0680, 214.0779
331.2730, 236.5750
332.4780, 217.0095
333.6820, 206.5471
334.8860, 207.0298
336.0900, 233.5161
337.2940, 216.0076
338.4980, 240.5034
339.7010, 209.0059
340.9050, 205.5132
342.1080, 175.0259
343.3110, 203.5437
344.5140, 231.0671
345.7170, 220.9236
346.9200, 244.1345
348.1220, 204.6755
349.3240, 182.2090
350.5270, 117.9873
351.7290, 178.3225
352.9310, 268.4172
354.1320, 236.4192
355.3340, 302.9648
356.5350, 172.2214
357.7370, 198.7170
358.9380, 116.5659
360.1390, 186.5107
361.3400, 188.8848
362.5400, 213.0713
363.7410, 215.2349
364.9410, 227.6494
366.1410, 217.4868
367.3410, 178.8660
368.5410, 224.3516
369.7410, 246.0620
370.9400, 215.8313
372.1400, 181.3118
373.3390, 181.3340
374.5380, 203.4683
375.7370, 153.4194
376.9360, 194.4226
378.1350, 114.6980
379.3330, 238.3474
380.5310, 169.6079
381.7300, 214.7031
382.9280, 266.6963
384.1260, 152.4917
385.3230, 145.1685
386.5210, 157.0603
387.7180, 157.3586
388.9160, 169.5151
390.1130, 153.6570
391.3100, 156.2688
392.5060, 140.9077
393.7030, 103.9219
394.9000, 141.2317
396.0960, 87.86255
397.2920, 210.5220
398.4880, 218.2158
399.6840, 115.9326
400.8800, 199.6731
402.0750, 150.4382
403.2710, 159.2190
404.4660, 192.0391
405.6610, 98.88135
406.8560, 110.7397
408.0510, 175.6318
409.2450, 145.5603
410.4400, 235.5151
411.6340, 234.4880
412.8280, 197.4751
414.0220, 109.4817
415.2160, 176.5029
416.4100, 224.5452
417.6030, 71.55493
418.7970, 153.5417
419.9900, 140.4956
421.1830, 183.4116
422.3760, 187.2910
423.5690, 164.5215
424.7610, 112.8660
425.9540, 153.0813
427.1460, 146.2310
428.3380, 182.4333
429.5300, 274.6882
430.7220, 281.8057
431.9140, 305.8289
433.1050, 264.8052
434.2970, 341.6465
435.4880, 353.6313
436.6790, 351.2832
437.8700, 434.2134
439.0610, 507.8228
440.2510, 655.3965
441.4420, 742.2236
442.6320, 754.7769
443.8220, 849.1660
445.0120, 1149.872
446.2020, 1232.672
447.3910, 1586.270
448.5810, 1662.921
449.7700, 1953.665
450.9600, 2306.491
452.1490, 2826.416
453.3370, 3174.484
454.5260, 3717.736
455.7150, 4231.505
456.9030, 4956.600
458.0910, 5747.595
459.2800, 6363.625
460.4670, 7612.689
461.6550, 8853.615
462.8430, 10687.52
464.0300, 13259.62
465.2180, 16738.64
466.4050, 21457.83
467.5920, 27953.55
468.7790, 36155.20
469.9650, 44633.36
471.1520, 50677.01
472.3380, 50618.55
473.5250, 44605.08
474.7110, 35849.72
475.8970, 27665.99
477.0820, 20922.56
478.2680, 16292.16
479.4540, 12621.89
480.6390, 9810.575
481.8240, 7908.566
483.0090, 6425.271
484.1940, 5166.987
485.3780, 4333.598
486.5630, 3794.354
487.7470, 3231.249
488.9320, 2844.983
490.1160, 2435.916
491.3000, 2266.772
492.4830, 1994.896
493.6670, 1789.021
494.8500, 1635.930
496.0340, 1482.695
497.2170, 1413.743
498.4000, 1229.835
499.5820, 1151.135
500.7650, 1037.267
501.9480, 1027.136
503.1300, 899.0786
504.3120, 838.2861
505.4940, 853.5459
506.6760, 800.8379
507.8580, 836.1416
509.0390, 772.6094
510.2210, 736.1421
511.4020, 774.7705
512.5830, 702.3135
513.7640, 764.6562
514.9450, 712.4146
516.1250, 747.1748
517.3060, 750.7549
518.4860, 780.2256
519.6660, 682.1060
520.8460, 674.7051
522.0260, 712.9600
523.2060, 563.0322
524.3850, 542.4409
525.5650, 634.4465
526.7440, 530.4434
527.9230, 638.1938
529.1020, 569.1453
530.2810, 610.1191
531.4590, 561.3408
532.6380, 553.7915
533.8160, 551.1628
534.9940, 608.4414
536.1720, 630.4294
537.3500, 665.1772
538.5270, 670.4329
539.7050, 666.0713
540.8820, 658.9104
542.0590, 612.1123
543.2360, 597.5127
544.4130, 538.7688
545.5900, 517.6582
546.7660, 543.5442
547.9430, 502.8757
549.1190, 481.4553
550.2950, 571.7417
551.4710, 488.6597
552.6470, 518.5796
553.8220, 337.7847
554.9980, 533.1650
556.1730, 427.4939
557.3480, 367.2166
558.5230, 387.6694
559.6980, 336.2629
560.8730, 421.7673
562.0470, 350.1885
563.2220, 275.7800
564.3960, 432.2021
565.5700, 308.8264
566.7440, 255.2161
567.9170, 180.6187
569.0910, 264.9924
570.2640, 277.3381
571.4380, 254.6860
572.6110, 262.9519
573.7840, 219.5627
574.9570, 184.2053
576.1290, 239.4878
577.3020, 261.9102
578.4740, 139.3560
579.6460, 165.6550
580.8180, 192.9590
581.9900, 234.2690
583.1620, 159.5828
584.3330, 105.9016
585.5040, 69.22681
586.6760, 130.5708
587.8470, 208.9199
589.0180, 137.2720
590.1880, 175.6279
591.3590, 197.9878
592.5290, 61.35547
593.7000, 46.73242
594.8700, 80.11108
596.0400, 133.4910
597.2090, 84.87354
598.3790, 166.2578
599.5490, 117.6443
600.7180, 160.0320
601.8870, 105.4211
603.0560, 227.8123
604.2250, 126.2051
605.3940, 185.5989
606.5620, 145.9944
607.7300, 74.38989
608.8990, 84.78369
610.0670, 96.17578
611.2350, 122.5684
612.4020, 116.9587
613.5700, 104.3479
614.7370, 117.7356
615.9050, 26.87866
617.0720, 91.49829
618.2390, 38.87329
619.4060, 85.24658
620.5720, 111.6167
621.7390, 7.015625
622.9050, 77.34668
624.0710, 75.70605
625.2370, 29.06226
626.4030, 21.41577
627.5690, 54.76587
628.7340, 25.88843
629.9000, 52.44531
631.0650, 30.77466
632.2300, 34.90039
633.3950, 16.59180
634.5600, 5.708008
635.7240, 19.99731
636.8890, 55.28467
638.0530, 36.56177
639.2170, 29.16724
640.3810, 39.09595
641.5450, 50.34741
642.7080, 103.0056
643.8720, 21.05273
645.0350, 30.59131
646.1980, 53.62671
647.3610, 37.88037
648.5240, 18.41675
649.6870, 15.46216
650.8490, 13.27148
652.0120, 90.34717
653.1740, 9.905762
654.3360, 50.57275
655.4980, 33.46875
656.6600, 28.50000
657.8210, 6.495361
658.9830, 31.49219
660.1440, 6.531250
661.3050, 50.57275
662.4660, 16.37231
663.6270, 17.70776
664.7870, 48.17236
665.9480, 70.04126
667.1080, 20.10181
668.2680, 4.955322
669.4280, 21.83936
670.5880, 27.63281
671.7480, 27.60107
672.9070, 11.87988
674.0670, 26.59668
675.2260, 17.42529
676.3850, 12.75220
677.5440, 42.98413
678.7030, 63.13281
679.8610, 15.24707
681.0200, 16.62866
682.1780, 19.14453
683.3360, 54.74463
684.4940, 72.81909
685.6520, 8.445313
686.8090, 42.95361
687.9670, 49.71704
689.1240, 60.43896
690.2810, 22.19165
691.4380, 11.99023
692.5950, 97.15137
693.7520, 4.701172
694.9080, 52.88843
696.0650, 5.1270002E-03
697.2210, 32.09961
698.3770, 27.71045
699.5330, 6.307373
700.6880, 38.56323
701.8440, 29.53833
702.9990, 43.79761
704.1550, 31.73779
705.3100, 53.65967
706.4650, 51.56543
707.6190, 59.45508
708.7740, 67.32886
709.9290, 68.63403
711.0830, 128.4761
712.2370, 38.40454
713.3910, 12.21289
714.5450, 100.9932
715.6980, 60.82617
716.8520, 56.57495
718.0050, 110.3066
719.1580, 105.0234
720.3110, 108.8467
721.4640, 114.5317
722.6170, 136.7422
723.7700, 154.1008
724.9220, 187.1069
726.0740, 194.7292
727.2260, 195.3352
728.3780, 182.9253
729.5300, 105.4990
730.6810, 148.1294
731.8330, 136.1089
732.9840, 178.6340
734.1350, 213.1426
735.2860, 221.6350
736.4370, 241.1311
737.5880, 304.5703
738.7380, 233.0132
739.8880, 268.4399
741.0390, 226.8499
742.1890, 272.2434
743.3380, 252.6204
744.4880, 191.9807
745.6380, 248.2957
746.7870, 298.6514
747.9360, 331.9619
749.0850, 169.2559
750.2340, 249.5332
751.3830, 175.7942
752.5310, 191.0381
753.6800, 278.2656
754.8280, 191.8005
755.9760, 199.9951
757.1240, 179.1729
758.2720, 114.3342
759.4190, 178.4790
760.5670, 162.4299
761.7140, 116.5420
762.8610, 201.6375
764.0080, 192.7163
765.1550, 186.7791
766.3020, 182.8252
767.4480, 155.9966
768.5950, 127.0100
769.7410, 163.0073
770.8870, 199.6489
772.0330, 111.0312
773.1780, 166.8997
774.3240, 106.0728
775.4690, 165.9893
776.6140, 179.8899
777.7590, 84.51636
778.9040, 85.38501
780.0490, 98.23779
781.1940, 117.3047
782.3380, 115.1318
783.4820, 65.91870
784.6260, 114.7097
785.7700, 100.5066
786.9140, 201.1829
788.0580, 15.17261
789.2010, 97.40332
790.3450, 126.0918
791.4880, 47.02930
792.6310, 92.60327
793.7730, 121.1843
794.9160, 98.97070
796.0590, 108.4307
797.2010, 118.4114
798.3430, 81.24365
799.4850, 53.43530
800.6270, 55.83594
801.7690, 128.9175
802.9100, 98.41626
804.0520, 98.93433
805.1930, 31.71509
806.3340, 117.3032
807.4750, 64.87256
808.6160, 69.19751
809.7560, 14.29590
810.8970, 56.46924
812.0370, 27.73291
813.1770, 45.28198
814.3170, 31.06592
815.4570, 22.90283
816.5960, 16.41870
817.7360, 1.116943
818.8750, 60.17871
820.0140, 8.730957
821.1530, 50.49048
822.2920, 31.07178
823.4310, 6.350098
824.5690, 28.77124
825.7070, 53.63794
826.8460, 10.79102
827.9840, 15.30493
829.1220, 71.81055
830.2590, 18.97607
831.3970, 5.048828
832.5340, 18.11792
833.6710, 14.21436
834.8080, 16.28809
835.9450, 26.48535
837.0820, 2.658691
838.2190, 35.27271
839.3550, 38.97290
840.4910, 49.93481
841.6270, 85.63745
842.7630, 22.57080
843.8990, 16.48804
845.0350, 77.43091
846.1700, 8.600098
847.3060, 13.36084
848.4410, 21.59863
849.5760, 4.089600
850.7100, 8.744873
851.8450, 22.24121
852.9800, 18.62622
854.1140, 4.469971
855.2480, 39.45898
856.3820, 4.556885
857.5160, 62.42065
858.6500, 49.39380
859.7830, 7.637207
860.9170, 64.67554
862.0500, 55.25244
863.1830, 16.17627
864.3160, 47.09668
865.4480, 4.013184
866.5810, 27.07422
867.7130, 34.17529
868.8460, 58.70752
869.9780, 54.58643
871.1100, 107.4629
872.2410, 63.33594
873.3730, 96.20605
874.5050, 26.07373
875.6360, 8.938477
876.7670, 88.80078
877.8980, 112.6606
879.0290, 12.51855
880.1590, 171.3745
881.2900, 22.22803
882.4200, 40.08008
883.5500, 62.93018
884.6800, 68.77881
885.8100, 69.62549
886.9400, 38.47070
888.0690, 74.31543
889.1990, 139.1582
890.3280, 94.00098
891.4570, 181.8457
892.5860, 135.6895
893.7140, 207.5332
894.8430, 241.3770
895.9710, 200.2197
897.1000, 228.0635
898.2280, 242.9077
899.3560, 307.7520
900.4830, 264.5967
901.6110, 321.4414
902.7380, 335.2871
903.8660, 411.1372
904.9930, 383.9888
906.1200, 432.8408
907.2460, 521.7002
908.3730, 544.5640
909.5000, 525.4297
910.6260, 703.3003
911.7520, 632.1729
912.8780, 694.0469
914.0040, 812.9194
915.1290, 880.7998
916.2550, 936.6860
917.3800, 1042.883
918.5050, 1058.521
919.6300, 1187.392
920.7550, 1204.317
921.8800, 1196.255
923.0040, 1242.197
924.1290, 1374.929
925.2530, 1321.879
926.3770, 1295.832
927.5010, 1347.539
928.6250, 1268.517
929.7480, 1134.500
930.8720, 1133.505
931.9950, 984.5181
933.1180, 879.5352
934.2410, 797.5605
935.3640, 671.5776
936.4860, 616.6133
937.6090, 564.6743
938.7310, 600.7402
939.8530, 431.8120
940.9750, 471.5791
942.0970, 539.6724
943.2180, 389.7793
944.3400, 336.8926
945.4610, 366.2734
946.5820, 345.4116
947.7030, 368.2935
948.8240, 352.4644
949.9450, 315.5264
951.0650, 296.4829
952.1860, 342.3862
953.3060, 230.5410
954.4260, 203.8237
955.5460, 257.6846
956.6650, 223.9907
957.7850, 285.3306
958.9040, 285.6309
960.0230, 214.9932
961.1420, 263.3818
962.2610, 281.7720
963.3800, 234.2080
964.4990, 328.6558
965.6170, 284.7075
966.7350, 264.1104
967.8530, 233.5859
968.9710, 363.0576
970.0890, 374.4370
971.2070, 462.9785
972.3240, 401.2710
973.4410, 420.8359
974.5580, 342.1089
975.6750, 337.6240
976.7920, 391.2886
977.9090, 308.8931
979.0250, 360.3184
980.1410, 358.8516
981.2580, 344.3608
982.3740, 431.0234
983.4890, 393.6040
984.6050, 358.2969
985.7200, 425.0054
986.8360, 390.6631
987.9510, 351.4058
989.0660, 404.1587
990.1810, 365.9199
991.2950, 281.5693
992.4100, 305.3530
993.5240, 379.1465
994.6390, 382.7417
995.7530, 320.1636
996.8660, 364.9937
997.9800, 360.8335
999.0940, 377.6831
1000.207, 376.5430
1001.320, 392.3403
1002.433, 414.7832
1003.546, 299.6753
1004.659, 378.5820
1005.772, 321.4990
1006.884, 381.4263
1007.996, 357.3643
1009.108, 291.3125
1010.220, 225.2715
1011.332, 443.2412
1012.444, 301.2236
1013.555, 384.2178
1014.666, 287.2222
1015.777, 343.2373
1016.888, 388.2637
1017.999, 215.3003
1019.110, 279.3477
1020.220, 328.4062
1021.331, 241.4751
1022.441, 294.5635
1023.551, 300.6685
1024.661, 324.7847
1025.770, 292.9146
1026.880, 315.0547
1027.989, 216.2065
1029.098, 317.3696
1030.207, 217.5562
1031.316, 334.7539
1032.425, 271.9624
1033.533, 336.1816
1034.642, 268.4155
1035.750, 208.6606
1036.858, 269.9170
1037.966, 304.1846
1039.073, 273.4629
1040.181, 292.7524
1041.288, 330.0537
1042.396, 334.3779
1043.503, 282.7109
1044.610, 366.0552
1045.716, 294.4102
1046.823, 282.7764
1047.929, 344.1538
1049.036, 255.5420
1050.142, 371.9419
1051.248, 356.3525
1052.353, 334.7734
1053.459, 438.2061
1054.564, 340.6494
1055.670, 338.1870
1056.775, 359.6523
1057.880, 322.3467
1058.985, 354.8521
1060.089, 351.3677
1061.194, 339.8965
1062.298, 319.6841
1063.402, 357.2925
1064.506, 387.8530
1065.610, 412.4243
1066.713, 376.0054
1067.817, 351.5972
1068.920, 437.1997
1070.023, 376.8125
1071.126, 345.4355
1072.229, 339.0688
1073.332, 424.7124
1074.435, 330.3677
1075.537, 345.0322
1076.639, 331.7075
1077.741, 273.3926
1078.843, 279.4746
1079.945, 292.9580
1081.046, 331.6772
1082.148, 303.4219
1083.249, 373.1611
1084.350, 343.2456
1085.451, 260.9106
1086.551, 303.6885
1087.652, 302.4717
1088.752, 274.2710
1089.853, 333.5874
1090.953, 285.4038
1092.053, 353.2339
1093.152, 266.0723
1094.252, 348.9185
1095.351, 319.7739
1096.451, 287.6372
1097.550, 263.5088
1098.649, 272.3940
1099.748, 281.2886
1100.846, 270.8066
1101.945, 264.7212
1103.043, 244.5381
1104.141, 266.4731
1105.239, 259.0957
1106.337, 272.3687
1107.434, 271.3374
1108.532, 274.0693
1109.629, 242.2964
1110.726, 278.3115
1111.823, 276.3081
1112.920, 268.2314
1114.017, 291.2441
1115.113, 326.7734
1116.210, 313.8042
1117.306, 381.8418
1118.402, 390.9536
1119.498, 445.3623
1120.593, 447.4229
1121.689, 451.4897
1122.784, 489.5620
1123.879, 439.3228
1124.974, 351.4067
1126.069, 302.1523
1127.164, 262.0088
1128.259, 123.3657
1129.353, 199.4883
1130.447, 168.6152
1131.541, 143.7480
1132.635, 55.88623
1133.729, 206.0342
1134.822, 170.5649
1135.916, 162.5322
1137.009, 180.7017
1138.102, 151.5571
1139.195, 121.0610
1140.288, 109.2480
1141.380, 101.4023
1142.473, 85.69482
1143.565, 86.65088
1144.657, 74.68652
1145.749, 84.89551
1146.841, 92.10889
1147.932, 89.13770
1149.024, 95.54834
1150.115, 109.7739
1151.206, 147.0034
1152.297, 164.2378
1153.388, 52.36035
1154.479, 163.9438
1155.569, 78.18799
1156.659, 93.98291
1157.750, 123.2334
1158.839, 43.58154
1159.929, 96.83936
1161.019, 143.0039
1162.108, 6.268066
1163.198, 66.53564
1164.287, 63.80469
1165.376, 67.83252
1166.465, 90.10742
1167.553, 80.73975
1168.642, 108.6641
1169.730, 72.94580
1170.818, 66.22949
1171.906, 53.73340
1172.994, 1.137207
1174.082, 59.42676
1175.170, 65.75879
1176.257, 124.0518
1177.344, 48.34619
1178.431, 77.69189
1179.518, 18.98926
1180.605, 18.28857
1181.691, 8.588379
1182.778, 31.88965
1183.864, 40.23730
1184.950, 25.54053
1186.036, 5.155273
1187.122, 83.14941
1188.207, 9.545898
1189.292, 106.7495
1190.378, 13.05420
1191.463, 50.62988
1192.548, 10.06445
1193.632, 43.76172
1194.717, 17.52295
1195.801, 71.80811
1196.886, 50.09326
1197.970, 42.42432
1199.054, 4.787598
1200.137, 7.071777
1201.221, 1.703613
1202.305, 4.649414
1203.388, 5.939941
1204.471, 12.23047
1205.554, 8.520508
1206.637, 28.81006
1207.719, 105.0986
1208.802, 9.613281
1209.884, 49.33008
1210.966, 38.92822
1212.048, 0.1875000
1213.130, 4.445313
1214.212, 39.29688
1215.293, 10.94043
1216.374, 34.82422
1217.456, 87.39209
1218.536, 65.61182
1219.617, 9.174805
1220.698, 54.03223
1221.778, 9.237793
1222.859, 49.44189
1223.939, 29.64453
1225.019, 6.844238
1226.099, 43.04297
1227.178, 45.23975
1228.258, 43.43457
1229.337, 28.62695
1230.417, 24.18311
1231.496, 21.99463
1232.574, 43.83301
1233.653, 105.3130
1234.732, 25.45752
1235.810, 53.59912
1236.888, 57.73828
1237.966, 17.87500
1239.044, 26.07422
1240.122, 43.79346
1241.199, 49.30908
1242.277, 25.59131
1243.354, 47.48828
1244.431, 34.43457
1245.508, 66.61768
1246.585, 26.66699
1247.661, 22.28760
1248.738, 19.26074
1249.814, 114.7485
1250.890, 64.75391
1251.966, 91.75732
1253.042, 3.241699
1254.117, 37.74902
1255.193, 18.26367
1256.268, 54.70654
1257.343, 87.67236
1258.418, 59.63672
1259.493, 84.45605
1260.567, 96.55371
1261.642, 40.50732
1262.716, 65.45703
1263.790, 4.402832
1264.864, 2.620117
1265.938, 35.30664
1267.011, 30.01270
1268.085, 36.93164
1269.158, 63.84619
1270.231, 26.84668
1271.304, 66.75293
1272.377, 1.654785
1273.450, 46.54541
1274.522, 39.43408
1275.594, 53.31885
1276.666, 57.72559
1277.738, 46.13867
1278.810, 42.01172
1279.882, 52.88037
1280.953, 28.76123
1282.025, 16.37988
1283.096, 7.541992
1284.167, 49.29980
1285.238, 6.119629
1286.308, 168.9302
1287.379, 19.96973
1288.449, 75.76953
1289.519, 31.37402
1290.589, 39.39111
1291.659, 45.15234
1292.729, 89.90820
1293.798, 3.658691
1294.868, 83.39746
1295.937, 46.13135
1297.006, 59.85986
1298.075, 42.58301
1299.143, 62.30176
1300.212, 18.01514
1301.280, 17.27881
1302.348, 120.4014
1303.416, 30.07812
1304.484, 165.7500
