##NAMES=Covellite
##RRUFFID=R060143
##IDEAL CHEMISTRY=Cu^1+^S
##LOCALITY=Butte, Montana, USA
##OWNER=RRUFF
##SOURCE=Marcus Origlieri
##DESCRIPTION=Irridescent blue to purple hexagonal plates
##STATUS=The identification of this mineral has been confirmed by X-ray diffraction and chemical analysis
##URL=rruff.info/R060143
##MEASURED CHEMISTRY=Cu_1.00_S_1.00_
##PIN_ID=L00760
##ORIENTATION=Laser parallel to -a* (-1 0 0). Fiducial mark perpendicular to laser is parallel to -c [0 0 -1]
164.8110, 0.0000000E+00
166.0360, 148.8643
167.2610, 1.547852
168.4860, 138.2114
169.7110, 364.2617
170.9360, 429.8540
172.1610, 167.3638
173.3850, 99.14697
174.6100, 79.85889
175.8340, 139.2100
177.0580, 239.1016
178.2820, 251.0317
179.5050, 314.1768
180.7290, 381.2681
181.9520, 450.1094
183.1760, 527.5405
184.3990, 622.6016
185.6220, 734.5391
186.8450, 837.4121
188.0670, 954.3228
189.2900, 1074.332
190.5120, 1203.311
191.7340, 1338.390
192.9560, 1486.365
194.1780, 1616.273
195.4000, 1711.307
196.6220, 1783.966
197.8430, 1826.217
199.0640, 2076.355
200.2860, 2155.793
201.5070, 2007.241
202.7270, 1930.955
203.9480, 1581.823
205.1690, 746.5107
206.3890, 365.6797
207.6090, 203.5991
208.8290, 240.5371
210.0490, 348.4961
211.2690, 337.4756
212.4890, 288.6406
213.7080, 405.4863
214.9280, 154.5103
216.1470, 65.53809
217.3660, 92.56201
218.5850, 132.5723
219.8030, 33.56104
221.0220, 149.5269
222.2400, 65.52979
223.4590, 6.394531
224.6770, 23.74609
225.8950, 12.36377
227.1120, 13.30078
228.3300, 30.90332
229.5480, 40.58496
230.7650, 15.77588
231.9820, 56.92578
233.1990, 66.55713
234.4160, 2.412598
235.6330, 76.21582
236.8490, 16.77783
238.0660, 32.56299
239.2820, 7.439453
240.4980, 68.47998
241.7140, 5.729004
242.9300, 124.3105
244.1460, 99.99316
245.3610, 140.3262
246.5770, 219.5693
247.7920, 233.1597
249.0070, 455.8237
250.2220, 554.5488
251.4370, 742.3232
252.6510, 695.1348
253.8660, 915.6636
255.0800, 1319.815
256.2940, 1706.686
257.5080, 2053.392
258.7220, 2356.512
259.9360, 2618.364
261.1490, 2715.245
262.3630, 3537.646
263.5760, 2559.355
264.7890, 2317.662
266.0020, 1755.611
267.2150, 1448.082
268.4270, 1430.475
269.6400, 1183.779
270.8520, 1080.985
272.0640, 866.0581
273.2760, 746.0273
274.4880, 786.9385
275.7000, 841.8262
276.9120, 667.6997
278.1230, 525.5762
279.3340, 460.4668
280.5450, 428.3838
281.7560, 344.2773
282.9670, 208.3091
284.1780, 276.3174
285.3880, 244.3564
286.5980, 274.4277
287.8090, 138.5303
289.0190, 209.6646
290.2290, 192.8296
291.4380, 251.0269
292.6480, 178.2549
293.8570, 191.5142
295.0670, 125.8052
296.2760, 195.1284
297.4850, 115.4814
298.6930, 72.86670
299.9020, 19.27930
301.1110, 10.72314
302.3190, 41.19775
303.5270, 35.70068
304.7350, 33.22900
305.9430, 50.77734
307.1510, 46.65332
308.3580, 83.93750
309.5660, 101.5415
310.7730, 0.5009770
311.9800, 41.95166
313.1870, 42.09766
314.3940, 28.84277
315.6010, 53.57373
316.8070, 0.8798830
318.0130, 67.46436
319.2200, 65.31787
320.4260, 14.12451
321.6310, 68.45898
322.8370, 72.17822
324.0430, 102.7300
325.2480, 122.1069
326.4540, 165.3052
327.6590, 215.3188
328.8640, 222.1470
330.0680, 227.8071
331.2730, 171.2949
332.4780, 159.5728
333.6820, 186.7163
334.8860, 190.1973
336.0900, 248.5005
337.2940, 262.1416
338.4980, 279.6187
339.7010, 319.4487
340.9050, 304.7627
342.1080, 292.5703
343.3110, 327.1592
344.5140, 265.4805
345.7170, 299.6084
346.9200, 253.6689
348.1220, 319.6719
349.3240, 275.6318
350.5270, 207.5718
351.7290, 230.7925
352.9310, 225.1514
354.1320, 243.8804
355.3340, 213.1484
356.5350, 273.4087
357.7370, 207.5029
358.9380, 144.1343
360.1390, 166.4512
361.3400, 366.7588
362.5400, 279.5542
363.7410, 288.8594
364.9410, 191.7651
366.1410, 202.3267
367.3410, 284.9019
368.5410, 258.1128
369.7410, 136.2100
370.9400, 203.5605
372.1400, 65.99219
373.3390, 118.5835
374.5380, 176.5859
375.7370, 163.2837
376.9360, 250.5361
378.1350, 209.3154
379.3330, 226.2632
380.5310, 223.7119
381.7300, 159.6074
382.9280, 162.8110
384.1260, 142.8218
385.3230, 185.3452
386.5210, 136.3232
387.7180, 190.5713
388.9160, 228.6719
390.1130, 174.0869
391.3100, 160.8789
392.5060, 268.7944
393.7030, 162.2847
394.9000, 172.7930
396.0960, 220.3350
397.2920, 132.9180
398.4880, 95.51611
399.6840, 157.1348
400.8800, 137.8872
402.0750, 224.4287
403.2710, 265.1338
404.4660, 318.8560
405.6610, 335.2617
406.8560, 371.4404
408.0510, 357.2622
409.2450, 443.0996
410.4400, 495.9541
411.6340, 582.8237
412.8280, 563.7114
414.0220, 343.6162
415.2160, 217.5376
416.4100, 203.4780
417.6030, 151.4375
418.7970, 185.4160
419.9900, 105.4150
421.1830, 77.45752
422.3760, 95.52344
423.5690, 56.71191
424.7610, 229.7241
425.9540, 73.85889
427.1460, 138.8384
428.3380, 215.0210
429.5300, 160.2222
430.7220, 194.4482
431.9140, 193.2822
433.1050, 273.4541
434.2970, 297.6157
435.4880, 320.9473
436.6790, 337.1138
437.8700, 358.3691
439.0610, 477.3813
440.2510, 611.7153
441.4420, 647.7476
442.6320, 833.6328
443.8220, 833.3232
445.0120, 976.0078
446.2020, 1211.851
447.3910, 1400.699
448.5810, 1688.567
449.7700, 2025.538
450.9600, 2443.345
452.1490, 2887.511
453.3370, 3284.779
454.5260, 3972.603
455.7150, 4500.607
456.9030, 5328.655
458.0910, 6029.609
459.2800, 6931.667
460.4670, 7975.483
461.6550, 9151.604
462.8430, 10951.72
464.0300, 13403.39
465.2180, 16657.53
466.4050, 21375.69
467.5920, 27914.98
468.7790, 36736.36
469.9650, 46764.90
471.1520, 55703.41
472.3380, 58798.94
473.5250, 54768.48
474.7110, 45859.00
475.8970, 35383.53
477.0820, 26827.08
478.2680, 20268.64
479.4540, 15591.19
480.6390, 11983.75
481.8240, 9743.922
483.0090, 7750.497
484.1940, 6475.082
485.3780, 5404.675
486.5630, 4420.282
487.7470, 3995.898
488.9320, 3428.528
490.1160, 3051.171
491.3000, 2636.828
492.4830, 2423.498
493.6670, 2132.181
494.8500, 2079.880
496.0340, 1912.676
497.2170, 1624.414
498.4000, 1540.167
499.5820, 1435.008
500.7650, 1225.830
501.9480, 1265.631
503.1300, 1176.451
504.3120, 1038.295
505.4940, 1010.161
506.6760, 953.0469
507.8580, 870.9590
509.0390, 862.5415
510.2210, 841.8667
511.4020, 856.9868
512.5830, 878.0210
513.7640, 957.2646
514.9450, 912.4580
516.1250, 933.7524
517.3060, 858.2925
518.4860, 909.4902
519.6660, 936.0225
520.8460, 716.9263
522.0260, 804.5601
523.2060, 770.4897
524.3850, 788.1475
525.5650, 718.4727
526.7440, 654.3096
527.9230, 699.7935
529.1020, 763.3101
530.2810, 670.3169
531.4590, 737.1797
532.6380, 671.2837
533.8160, 634.7695
534.9940, 839.3682
536.1720, 771.3052
537.3500, 659.4785
538.5270, 766.0835
539.7050, 758.9209
540.8820, 769.8188
542.0590, 825.6646
543.2360, 756.8940
544.4130, 715.6851
545.5900, 726.6230
546.7660, 713.6230
547.9430, 667.2139
549.1190, 707.4287
550.2950, 713.1943
551.4710, 679.9141
552.6470, 701.6509
553.8220, 629.6084
554.9980, 539.3022
556.1730, 511.0464
557.3480, 606.7671
558.5230, 565.7793
559.6980, 420.6260
560.8730, 482.6504
562.0470, 404.3281
563.2220, 480.7090
564.3960, 483.9189
565.5700, 393.8765
566.7440, 468.8311
567.9170, 462.6289
569.0910, 394.7900
570.2640, 445.7134
571.4380, 358.8711
572.6110, 249.8955
573.7840, 346.1387
574.9570, 341.3101
576.1290, 297.1191
577.3020, 215.0015
578.4740, 293.9673
579.6460, 301.9443
580.8180, 304.8135
581.9900, 155.5898
583.1620, 226.3379
584.3330, 243.0854
585.5040, 138.8335
586.6760, 282.5864
587.8470, 251.3394
589.0180, 188.0913
590.1880, 190.8555
591.3590, 251.6230
592.5290, 187.3950
593.7000, 259.1641
594.8700, 186.9302
596.0400, 185.6958
597.2090, 119.4590
598.3790, 220.2251
599.5490, 246.9888
600.7180, 198.7495
601.8870, 257.5098
603.0560, 96.26660
604.2250, 224.0210
605.3940, 186.7734
606.5620, 98.52246
607.7300, 127.2686
608.8990, 162.0103
610.0670, 224.7466
611.2350, 184.4780
612.4020, 118.2041
613.5700, 129.9243
614.7370, 47.63867
615.9050, 157.3481
617.0720, 120.0513
618.2390, 22.74805
619.4060, 105.4390
620.5720, 96.12256
621.7390, 19.19922
622.9050, 109.5024
624.0710, 51.16113
625.2370, 48.81348
626.4030, 63.45801
627.5690, 90.09619
628.7340, 41.72705
629.9000, 106.3501
631.0650, 46.96582
632.2300, 107.5732
633.3950, 71.17334
634.5600, 79.67725
635.7240, 24.34912
636.8890, 57.92383
638.0530, 108.4897
639.2170, 29.04785
640.3810, 41.40430
641.5450, 98.15674
642.7080, 69.66699
643.8720, 99.16895
645.0350, 99.93848
646.1980, 112.4590
647.3610, 75.72021
648.5240, 92.18262
649.6870, 160.6348
650.8490, 30.07617
652.0120, 92.21143
653.1740, 17.62988
654.3360, 38.03564
655.4980, 20.42871
656.6600, 0.1508790
657.8210, 12.37646
658.9830, 17.03809
660.1440, 53.57031
661.3050, 16.29883
662.4660, 2.053223
663.6270, 5.321289
664.7870, 7.368652
665.9480, 2.816895
667.1080, 8.266113
668.2680, 7.873535
669.4280, 30.75635
670.5880, 11.67627
671.7480, 30.62402
672.9070, 115.6040
674.0670, 60.90625
675.2260, 11.01904
676.3850, 58.01367
677.5440, 80.17383
678.7030, 25.78320
679.8610, 3.463867
681.0200, 32.59668
682.1780, 22.25684
683.3360, 93.24902
684.4940, 33.11426
685.6520, 140.3149
686.8090, 5.850098
687.9670, 20.57959
689.1240, 79.98682
690.2810, 80.37646
691.4380, 111.0244
692.5950, 44.75684
693.7520, 139.0913
694.9080, 97.76514
696.0650, 120.7188
697.2210, 48.27197
698.3770, 94.56396
699.5330, 52.96924
700.6880, 58.97412
701.8440, 34.17725
702.9990, 14.30322
704.1550, 71.39746
705.3100, 20.47168
706.4650, 4.516113
707.6190, 44.52295
708.7740, 80.50684
709.9290, 17.47119
711.0830, 56.40332
712.2370, 16.31494
713.3910, 63.80664
714.5450, 107.9980
715.6980, 91.26025
716.8520, 71.02539
718.0050, 67.76953
719.1580, 93.49316
720.3110, 115.1968
721.4640, 189.8804
722.6170, 172.5454
723.7700, 141.1914
724.9220, 196.7783
726.0740, 277.3857
727.2260, 225.9741
728.3780, 187.4048
729.5300, 277.9873
730.6810, 261.5176
731.8330, 237.0278
732.9840, 285.5186
734.1350, 242.9902
735.2860, 255.4424
736.4370, 260.8740
737.5880, 220.2861
738.7380, 236.6792
739.8880, 326.0527
741.0390, 310.4058
742.1890, 287.7397
743.3380, 299.0537
744.4880, 261.3486
745.6380, 393.6235
746.7870, 325.6484
747.9360, 378.4683
749.0850, 244.3301
750.2340, 371.5269
751.3830, 277.7031
752.5310, 140.8604
753.6800, 201.9980
754.8280, 269.1157
755.9760, 143.2148
757.1240, 250.2847
758.2720, 227.3438
759.4190, 218.3843
760.5670, 107.8022
761.7140, 283.8032
762.8610, 227.7847
764.0080, 269.7471
765.1550, 250.6904
766.3020, 208.6138
767.4480, 213.5190
768.5950, 190.4048
769.7410, 250.2720
770.8870, 273.1196
772.0330, 222.9482
773.1780, 158.7578
774.3240, 180.4727
775.4690, 144.2451
776.6140, 170.9980
777.7590, 143.6616
778.9040, 95.34277
780.0490, 160.0400
781.1940, 109.7188
782.3380, 173.3784
783.4820, 77.02100
784.6260, 156.6440
785.7700, 114.2480
786.9140, 146.8350
788.0580, 162.4932
789.2010, 37.84033
790.3450, 162.3662
791.4880, 168.6973
792.6310, 125.0918
793.7730, 27.39014
794.9160, 15.45850
796.0590, 98.87354
797.2010, 156.9785
798.3430, 98.73633
799.4850, 104.7729
800.6270, 164.5391
801.7690, 15.58154
802.9100, 109.9526
804.0520, 128.8154
805.1930, 101.0327
806.3340, 82.21973
807.4750, 95.91504
808.6160, 96.75244
809.7560, 66.34668
810.8970, 17.55469
812.0370, 59.35742
813.1770, 40.36279
814.3170, 142.8394
815.4570, 1.123047
816.5960, 148.6689
817.7360, 20.60547
818.8750, 11.15430
820.0140, 22.47852
821.1530, 80.69189
822.2920, 44.91699
823.4310, 44.45605
824.5690, 48.39795
825.7070, 15.70850
826.8460, 42.46143
827.9840, 54.79639
829.1220, 22.00439
830.2590, 41.52734
831.3970, 108.3071
832.5340, 76.97119
833.6710, 20.25439
834.8080, 47.84229
835.9450, 11.71387
837.0820, 69.08545
838.2190, 31.79590
839.3550, 70.79639
840.4910, 99.95898
841.6270, 8.368652
842.7630, 21.77246
843.8990, 15.32568
845.0350, 35.50830
846.1700, 28.57471
847.3060, 80.09326
848.4410, 24.38965
849.5760, 47.46240
850.7100, 54.59912
851.8450, 15.90918
852.9800, 66.49902
854.1140, 31.81689
855.2480, 106.1157
856.3820, 12.51660
857.5160, 19.00293
858.6500, 82.51025
859.7830, 18.01318
860.9170, 29.48926
862.0500, 32.99414
863.1830, 15.47266
864.3160, 66.05273
865.4480, 32.60889
866.5810, 40.82129
867.7130, 19.64844
868.8460, 129.6699
869.9780, 86.08838
871.1100, 42.50342
872.2410, 104.9150
873.3730, 152.3237
874.5050, 114.2256
875.6360, 59.13184
876.7670, 86.53223
877.8980, 58.92920
879.0290, 75.32422
880.1590, 133.7173
881.2900, 141.1079
882.4200, 74.49658
883.5500, 120.8838
884.6800, 61.26904
885.8100, 123.6533
886.9400, 256.0361
888.0690, 176.4180
889.1990, 156.7988
890.3280, 268.1782
891.4570, 75.05566
892.5860, 201.2378
893.7140, 283.8169
894.8430, 325.1914
895.9710, 201.8003
897.1000, 291.1260
898.2280, 295.2139
899.3560, 295.8042
900.4830, 415.0586
901.6110, 315.6401
902.7380, 433.0146
903.8660, 463.8691
904.9930, 534.3066
906.1200, 548.5391
907.2460, 582.9365
908.3730, 568.3423
909.5000, 654.7505
910.6260, 698.1611
911.7520, 789.5742
912.8780, 842.9907
914.0040, 984.4106
915.1290, 1061.803
916.2550, 1105.238
917.3800, 1123.677
918.5050, 1232.119
919.6300, 1357.460
920.7550, 1268.910
921.8800, 1446.364
923.0040, 1502.821
924.1290, 1524.283
925.2530, 1525.045
926.3770, 1573.521
927.5010, 1618.001
928.6250, 1531.487
929.7480, 1435.940
930.8720, 1265.881
931.9950, 1227.391
933.1180, 974.9126
934.2410, 1118.457
935.3640, 936.0205
936.4860, 778.5933
937.6090, 870.9238
938.7310, 646.5156
939.8530, 613.1172
940.9750, 628.7305
942.0970, 607.3657
943.2180, 599.0244
944.3400, 611.7061
945.4610, 558.4004
946.5820, 499.5630
947.7030, 418.1182
948.8240, 564.8159
949.9450, 462.9932
951.0650, 495.2617
952.1860, 458.1045
953.3060, 437.3608
954.4260, 392.0586
955.5460, 440.6089
956.6650, 360.7734
957.7850, 396.7227
958.9040, 434.7363
960.0230, 334.7686
961.1420, 320.8140
962.2610, 372.8711
963.3800, 270.2856
964.4990, 303.3647
965.6170, 258.4590
966.7350, 329.5645
967.8530, 393.7612
968.9710, 303.5400
970.0890, 362.6592
971.2070, 329.8213
972.3240, 415.9971
973.4410, 326.2104
974.5580, 407.4385
975.6750, 326.6855
976.7920, 294.9458
977.9090, 277.2236
979.0250, 391.5234
980.1410, 441.8369
981.2580, 369.1636
982.3740, 382.5103
983.4890, 401.8706
984.6050, 365.2495
985.7200, 411.6743
986.8360, 460.6353
987.9510, 417.9819
989.0660, 441.9385
990.1810, 418.0317
991.2950, 389.5254
992.4100, 497.0322
993.5240, 421.5518
994.6390, 385.0850
995.7530, 440.6714
996.8660, 507.2427
997.9800, 504.8276
999.0940, 477.5781
1000.207, 488.1738
1001.320, 446.8281
1002.433, 479.4961
1003.546, 503.1787
1004.659, 475.8755
1005.772, 474.5869
1006.884, 424.3120
1007.996, 393.0513
1009.108, 321.8057
1010.220, 426.5742
1011.332, 409.3574
1012.444, 456.1655
1013.555, 393.9888
1014.666, 386.8262
1015.777, 351.6782
1016.888, 402.5454
1017.999, 472.4272
1019.110, 437.3237
1020.220, 426.2354
1021.331, 427.6743
1022.441, 425.1035
1023.551, 390.0605
1024.661, 376.0322
1025.770, 363.0186
1026.880, 371.0220
1027.989, 396.2578
1029.098, 366.2998
1030.207, 376.3716
1031.316, 295.4590
1032.425, 306.6689
1033.533, 374.6982
1034.642, 299.8398
1035.750, 343.9966
1036.858, 366.1709
1037.966, 336.3599
1039.073, 375.5645
1040.181, 419.8071
1041.288, 432.5752
1042.396, 377.8472
1043.503, 456.1616
1044.610, 365.4902
1045.716, 350.8408
1046.823, 341.2578
1047.929, 386.6362
1049.036, 493.0308
1050.142, 352.4404
1051.248, 476.8647
1052.353, 508.3047
1053.459, 494.7593
1054.564, 376.2295
1055.670, 478.7148
1056.775, 508.2158
1057.880, 446.7310
1058.985, 484.0488
1060.089, 560.5981
1061.194, 476.1616
1062.298, 462.7432
1063.402, 582.3452
1064.506, 430.9683
1065.610, 374.1768
1066.713, 478.2832
1067.817, 540.4370
1068.920, 559.7637
1070.023, 414.3682
1071.126, 481.7148
1072.229, 463.8267
1073.332, 442.4663
1074.435, 541.9033
1075.537, 421.5679
1076.639, 519.1230
1077.741, 528.0649
1078.843, 496.2949
1079.945, 500.6182
1081.046, 501.8501
1082.148, 490.7422
1083.249, 486.9253
1084.350, 468.5972
1085.451, 452.5347
1086.551, 482.0210
1087.652, 435.9966
1088.752, 468.4907
1089.853, 561.5269
1090.953, 469.8032
1092.053, 499.8638
1093.152, 305.9360
1094.252, 470.4346
1095.351, 407.5298
1096.451, 453.6538
1097.550, 747.4258
1098.649, 381.5728
1099.748, 331.7549
1100.846, 509.0879
1101.945, 383.2964
1103.043, 261.5293
1104.141, 290.7734
1105.239, 224.0532
1106.337, 261.2944
1107.434, 241.5708
1108.532, 276.8574
1109.629, 337.1548
1110.726, 215.4619
1111.823, 257.7798
1112.920, 284.1084
1114.017, 217.4468
1115.113, 319.7954
1116.210, 248.1533
1117.306, 320.4863
1118.402, 345.8643
1119.498, 212.2539
1120.593, 282.6533
1121.689, 431.0615
1122.784, 235.4790
1123.879, 295.9062
1124.974, 259.3423
1126.069, 326.7881
1127.164, 201.2422
1128.259, 331.1348
1129.353, 152.6113
1130.447, 198.4531
1131.541, 189.2554
1132.635, 145.4360
1133.729, 228.9639
1134.822, 121.5000
1135.916, 202.0430
1137.009, 244.5947
1138.102, 235.1533
1139.195, 230.7202
1140.288, 183.2949
1141.380, 94.37891
1142.473, 187.6572
1143.565, 239.7461
1144.657, 248.2339
1145.749, 91.99316
1146.841, 148.4829
1147.932, 119.7354
1149.024, 87.49268
1150.115, 173.9497
1151.206, 41.70996
1152.297, 126.3022
1153.388, 124.3882
1154.479, 162.0547
1155.569, 113.9561
1156.659, 38.21680
1157.750, 156.2119
1158.839, 15.38135
1159.929, 120.4595
1161.019, 61.60547
1162.108, 54.31445
1163.198, 8.072754
1164.287, 40.20752
1165.376, 152.4775
1166.465, 41.19727
1167.553, 55.29883
1168.642, 232.0317
1169.730, 4.847168
1170.818, 139.7588
1171.906, 47.49414
1172.994, 19.24219
1174.082, 54.19531
1175.170, 83.93896
1176.257, 0.6904300
1177.344, 3.652832
1178.431, 57.09766
1179.518, 10.85059
1180.605, 106.6055
1181.691, 84.36377
1182.778, 65.12354
1183.864, 106.8853
1184.950, 43.67041
1186.036, 23.43652
1187.122, 55.20361
1188.207, 35.77295
1189.292, 24.25732
1190.378, 44.50781
1191.463, 67.27393
1192.548, 30.67920
1193.632, 8.459473
1194.717, 128.2285
1195.801, 17.99756
1196.886, 34.90186
1197.970, 37.32715
1199.054, 30.42920
1200.137, 121.1860
1201.221, 81.94287
1202.305, 127.7002
1203.388, 6.221680
1204.471, 43.01953
1205.554, 23.28027
1206.637, 41.55176
1207.719, 49.15771
1208.802, 37.86768
1209.884, 11.05664
1210.966, 27.35352
1212.048, 73.33643
1213.130, 1.025879
1214.212, 53.71289
1215.293, 63.39941
1216.374, 9.916016
1217.456, 59.76123
1218.536, 26.56250
1219.617, 90.09717
1220.698, 37.24463
1221.778, 33.39209
1222.859, 27.02637
1223.939, 5.341797
1225.019, 68.28223
1226.099, 67.90527
1227.178, 8.422852
1228.258, 86.18701
1229.337, 14.20508
1230.417, 15.61035
1231.496, 10.97021
1232.574, 77.54785
1233.653, 41.12256
1234.732, 96.69629
1235.810, 57.78516
1236.888, 27.92627
1237.966, 123.5942
1239.044, 175.6836
1240.122, 186.5322
1241.199, 32.64502
1242.277, 91.47266
1243.354, 65.04980
1244.431, 35.12744
1245.508, 123.8867
1246.585, 6.059082
1247.661, 80.80371
1248.738, 81.12500
1249.814, 121.0679
1250.890, 75.22900
1251.966, 55.88037
1253.042, 122.3296
1254.117, 141.2666
1255.193, 85.53516
1256.268, 127.9712
1257.343, 24.99414
1258.418, 101.4932
1259.493, 39.02588
1260.567, 12.42090
1261.642, 27.14111
1262.716, 71.26855
1263.790, 84.67285
1264.864, 218.0732
1265.938, 166.4067
1267.011, 114.8564
1268.085, 97.23926
1269.158, 57.76904
1270.231, 63.14062
1271.304, 83.84961
1272.377, 18.79053
1273.450, 96.54199
1274.522, 166.8677
1275.594, 160.4771
1276.666, 61.78955
1277.738, 110.1733
1278.810, 106.7310
1279.882, 70.02441
1280.953, 74.56299
1282.025, 43.85596
1283.096, 88.14014
1284.167, 61.40625
1285.238, 88.70215
1286.308, 27.07178
1287.379, 15.31299
1288.449, 6.326172
1289.519, 30.46533
1290.589, 114.7051
1291.659, 50.91113
1292.729, 83.06494
1293.798, 6.592773
1294.868, 66.52734
1295.937, 28.62646
1297.006, 97.72559
1298.075, 47.81641
1299.143, 56.10254
1300.212, 85.52441
1301.280, 171.0332
1302.348, 72.95654
1303.416, 112.9917
1304.484, 68.93115
1305.552, 14.85449
1306.620, 129.7227
1307.687, 98.62549
1308.754, 76.51904
1309.821, 162.4028
1310.888, 108.2769
1311.955, 106.1411
1313.021, 70.99658
1314.088, 146.8423
1315.154, 99.67871
1316.220, 173.5059
1317.286, 101.3228
1318.352, 91.47510
1319.417, 189.2729
1320.483, 26.06006
1321.548, 77.83154
1322.613, 270.5933
1323.678, 411.3413
1324.743, 54.08154
1325.807, 196.8135
1326.872, 132.9355
1327.936, 140.6440
1329.000, 137.3447
1330.064, 155.2031
1331.128, 1.224609
1332.191, 179.8926
1333.255, 95.45264
1334.318, 198.0850
1335.381, 213.6533
1336.444, 158.5273
1337.507, 36.15674
1338.569, 220.2964
