##NAMES=Creedite
##RRUFFID=R050141
##IDEAL CHEMISTRY=Ca_3_Al_2_(S^6+^O_4_)(OH)_2_F_8_&#183;2H_2_O
##LOCALITY=Mina de Navidad, Rodeo, Durango, Mexico
##OWNER=RRUFF
##SOURCE=Dave Bunk Minerals
##DESCRIPTION=Radiating group of bladed crystals
##STATUS=The identification of this mineral has been confirmed by X-ray diffraction and chemical analysis
##URL=rruff.info/R050141
##MEASURED CHEMISTRY=Ca_3.00_Al_2.00_(S_1.00_O_4_)(OH)_2_(F_7.31_(OH)_0.69_)_Σ=8_·2H_2_O ; OH estimated by stoichiometry and charge balance OH=10-F
##PIN_ID=L00475
##ORIENTATION=Laser parallel to (1 0 1). Fiducial mark perpendicular to laser is parallel to b [0 1 0]
90.650, 0.000
92.046, 8.851
93.442, 2.594
94.838, 52.018
96.233, 55.769
97.628, 65.097
99.023, 94.987
100.418, 127.075
101.812, 114.686
103.206, 121.605
104.600, 101.614
105.994, 87.544
107.387, 153.257
108.781, 215.633
110.174, 390.568
111.566, 419.002
112.959, 218.889
114.351, 254.195
115.744, 132.876
117.136, 206.876
118.527, 169.179
119.919, 190.774
121.310, 234.619
122.701, 353.672
124.092, 466.894
125.482, 530.252
126.873, 572.721
128.263, 636.281
129.653, 533.868
131.042, 416.826
132.432, 329.954
133.821, 271.144
135.210, 250.505
136.599, 269.077
137.987, 175.788
139.376, 258.550
140.764, 253.260
142.152, 265.994
143.539, 386.866
144.927, 400.876
146.314, 518.154
147.701, 639.562
149.088, 809.901
150.474, 909.226
151.861, 987.534
153.247, 985.749
154.633, 775.878
156.018, 619.927
157.404, 414.901
158.789, 323.804
160.174, 233.642
161.559, 209.422
162.943, 223.148
164.327, 232.824
165.711, 291.469
167.095, 290.068
168.479, 338.045
169.862, 455.222
171.246, 497.139
172.628, 723.344
174.011, 793.597
175.394, 989.817
176.776, 986.938
178.158, 1065.757
179.540, 987.817
180.922, 855.750
182.303, 811.870
183.684, 645.816
185.065, 684.629
186.446, 644.777
187.826, 675.700
189.207, 591.469
190.587, 620.243
191.967, 534.787
193.346, 359.027
194.726, 350.156
196.105, 203.430
197.484, 167.542
198.862, 165.357
200.241, 131.743
201.619, 135.685
202.997, 163.836
204.375, 152.157
205.753, 117.417
207.130, 152.017
208.507, 168.269
209.884, 133.832
211.261, 166.146
212.638, 187.414
214.014, 262.686
215.390, 292.961
216.766, 288.239
218.141, 393.519
219.517, 441.799
220.892, 560.079
222.267, 577.358
223.642, 764.636
225.016, 821.920
226.391, 824.207
227.765, 710.544
229.139, 504.909
230.512, 435.293
231.886, 276.682
233.259, 269.092
234.632, 169.506
236.005, 106.911
237.377, 77.362
238.749, 30.654
240.122, 127.027
241.493, 54.437
242.865, 92.793
244.237, 18.143
245.608, 6.514
246.979, 43.821
248.350, 8.850
249.720, 40.471
251.090, 23.995
252.461, 27.338
253.830, 46.986
255.200, 3.527
256.570, 41.512
257.939, 7.801
259.308, 45.081
260.677, 23.533
262.045, 11.926
263.414, 29.682
264.782, 18.652
266.150, 8.945
267.517, 6.200
268.885, 12.424
270.252, 1.625
271.619, 38.803
272.986, 7.029
274.353, 7.123
275.719, 7.264
277.085, 27.604
278.451, 50.483
279.817, 44.370
281.182, 23.736
282.548, 66.155
283.913, 11.049
285.278, 18.945
286.642, 82.843
288.007, 44.740
289.371, 96.637
290.735, 2.533
292.099, 65.425
293.462, 5.314
294.826, 18.801
296.189, 47.072
297.552, 34.060
298.914, 23.790
300.277, 5.365
301.639, 16.533
303.001, 17.716
304.363, 11.915
305.724, 35.871
307.086, 86.350
308.447, 8.394
309.808, 26.873
311.168, 0.838
312.529, 24.536
313.889, 57.778
315.249, 35.879
316.609, 41.526
317.969, 9.162
319.328, 13.787
320.687, 20.401
322.046, 20.006
323.405, 8.398
324.764, 62.183
326.122, 12.244
327.480, 53.314
328.838, 67.864
330.196, 9.593
331.553, 83.936
332.910, 51.451
334.267, 104.952
335.624, 73.430
336.981, 166.885
338.337, 167.330
339.693, 184.768
341.049, 299.193
342.405, 254.600
343.760, 451.989
345.116, 541.359
346.471, 637.702
347.826, 791.027
349.180, 730.349
350.535, 757.652
351.889, 591.951
353.243, 426.247
354.597, 393.540
355.950, 228.360
357.304, 250.627
358.657, 174.277
360.010, 110.512
361.362, 115.129
362.715, 95.598
364.067, 84.748
365.419, 74.879
366.771, 72.157
368.123, 84.606
369.474, 82.121
370.825, 156.207
372.176, 134.029
373.527, 112.094
374.877, 118.342
376.228, 74.394
377.578, 86.446
378.928, 70.590
380.277, 66.546
381.627, 36.595
382.976, 63.642
384.325, 10.688
385.674, 70.729
387.023, 111.769
388.371, 35.808
389.719, 76.846
391.067, 91.884
392.415, 97.921
393.762, 120.956
395.110, 69.991
396.457, 118.024
397.804, 58.057
399.150, 50.090
400.497, 43.121
401.843, 78.146
403.189, 82.171
404.535, 67.194
405.881, 92.217
407.226, 25.239
408.571, 30.586
409.916, 32.606
411.261, 17.810
412.605, 29.021
413.950, 48.128
415.294, 42.211
416.638, 17.224
417.981, 36.716
419.325, 21.729
420.668, 60.718
422.011, 136.730
423.354, 55.743
424.697, 121.723
426.039, 75.734
427.381, 94.299
428.723, 175.419
430.065, 130.687
431.406, 228.576
432.748, 241.083
434.089, 267.315
435.430, 407.204
436.770, 473.344
438.111, 652.460
439.451, 872.458
440.791, 975.454
442.131, 1148.449
443.471, 1112.505
444.810, 1266.498
446.149, 1172.399
447.488, 1342.390
448.827, 1389.380
450.166, 1270.369
451.504, 1415.358
452.842, 1081.873
454.180, 1076.860
455.518, 991.476
456.855, 838.669
458.193, 892.655
459.530, 780.858
460.867, 783.844
462.203, 729.803
463.540, 599.063
464.876, 646.235
466.212, 453.758
467.548, 550.745
468.883, 446.573
470.219, 447.187
471.554, 506.726
472.889, 580.965
474.224, 830.944
475.558, 957.517
476.892, 1347.512
478.227, 1728.509
479.561, 2298.108
480.894, 2962.856
482.228, 3351.767
483.561, 4003.667
484.894, 3964.296
486.227, 3603.306
487.559, 3112.684
488.892, 2464.700
490.224, 2057.717
491.556, 1538.252
492.888, 1142.275
494.220, 952.302
495.551, 725.331
496.882, 696.363
498.213, 452.398
499.544, 394.438
500.874, 328.480
502.205, 205.527
503.535, 250.576
504.865, 157.630
506.194, 117.688
507.524, 132.750
508.853, 10.817
510.182, 52.887
511.511, 14.963
512.840, 65.042
514.168, 13.126
515.496, 17.785
516.824, 89.303
518.152, 14.604
519.480, 6.490
520.807, 73.411
522.134, 71.337
523.461, 12.713
524.788, 67.231
526.114, 8.196
527.441, 37.157
528.767, 16.125
530.093, 6.908
531.418, 64.053
532.744, 79.969
534.069, 35.004
535.394, 64.019
536.719, 60.048
538.044, 54.083
539.368, 94.130
540.693, 103.183
542.017, 242.196
543.340, 248.262
544.664, 290.522
545.987, 460.601
547.311, 423.688
548.634, 525.740
549.956, 537.071
551.279, 440.178
552.601, 452.292
553.923, 333.417
555.245, 410.549
556.567, 315.090
557.889, 221.238
559.210, 332.393
560.531, 246.561
561.852, 288.741
563.173, 227.927
564.493, 269.130
565.813, 361.342
567.133, 255.399
568.453, 350.593
569.773, 288.824
571.092, 361.757
572.412, 285.986
573.731, 210.280
575.049, 290.592
576.368, 273.669
577.686, 317.006
579.005, 332.250
580.323, 252.602
581.640, 322.970
582.958, 360.345
584.275, 455.761
585.593, 512.187
586.909, 588.631
588.226, 775.094
589.543, 847.569
590.859, 1135.068
592.175, 1416.578
593.491, 1774.115
594.807, 2374.664
596.122, 3258.333
597.438, 4172.817
598.753, 5555.421
600.068, 6889.032
601.382, 8415.669
602.697, 8432.324
604.011, 8228.989
605.325, 6615.662
606.639, 4995.343
607.952, 3764.062
609.266, 2670.803
610.579, 2000.557
611.892, 1440.323
613.205, 1117.098
614.518, 859.889
615.830, 618.697
617.142, 595.513
618.454, 328.358
619.766, 373.211
621.078, 319.082
622.389, 236.968
623.700, 304.872
625.011, 290.791
626.322, 429.719
627.632, 535.682
628.943, 611.656
630.253, 840.648
631.563, 688.654
632.872, 730.667
634.182, 564.708
635.491, 445.759
636.800, 434.817
638.109, 304.887
639.418, 362.966
640.726, 354.054
642.035, 420.152
643.343, 619.264
644.651, 520.385
645.958, 782.522
647.266, 803.668
648.573, 951.823
649.880, 1158.992
651.187, 1110.170
652.494, 1393.357
653.800, 1502.552
655.106, 1775.756
656.412, 2272.968
657.718, 2471.189
659.024, 2888.418
660.329, 3360.656
661.634, 3661.902
662.939, 4170.157
664.244, 3964.420
665.549, 4024.692
666.853, 3578.971
668.157, 3051.260
669.461, 2757.556
670.765, 2120.861
672.069, 1916.174
673.372, 1516.960
674.675, 1220.290
675.978, 1113.223
677.281, 816.569
678.583, 769.514
679.886, 692.603
681.188, 481.974
682.490, 485.351
683.792, 318.558
685.093, 385.603
686.394, 218.585
687.696, 209.000
688.997, 212.679
690.297, 134.112
691.598, 171.360
692.898, 180.812
694.198, 123.271
695.498, 200.740
696.798, 36.217
698.097, 129.703
699.397, 100.199
700.696, 25.703
701.995, 127.219
703.293, 45.744
704.592, 128.277
705.890, 17.180
707.188, 75.368
708.486, 103.925
709.784, 30.405
711.081, 86.979
712.378, 24.294
713.675, 51.313
714.972, 144.907
716.269, 28.878
717.565, 89.141
718.862, 99.759
720.158, 75.560
721.453, 146.213
722.749, 58.439
724.045, 124.253
725.340, 140.911
726.635, 155.532
727.930, 115.206
729.224, 136.056
730.519, 188.087
731.813, 221.782
733.107, 182.916
734.401, 248.626
735.694, 181.344
736.988, 275.624
738.281, 297.354
739.574, 267.523
740.867, 377.529
742.160, 308.170
743.452, 444.407
744.744, 473.167
746.036, 381.469
747.328, 553.240
748.620, 551.661
749.911, 663.647
751.202, 662.433
752.493, 671.337
753.784, 812.133
755.075, 830.933
756.365, 908.930
757.655, 1045.823
758.945, 1068.635
760.235, 1334.598
761.525, 1399.419
762.814, 1437.718
764.103, 1678.039
765.392, 1592.572
766.681, 1691.663
767.969, 1628.532
769.258, 1720.550
770.546, 1626.396
771.834, 1496.244
773.122, 1431.873
774.409, 1252.726
775.697, 1047.235
776.984, 1136.094
778.271, 822.955
779.558, 763.959
780.844, 657.824
782.131, 552.691
783.417, 634.561
784.703, 390.432
785.989, 499.305
787.274, 294.182
788.560, 290.061
789.845, 337.940
791.130, 238.822
792.415, 315.705
793.699, 245.589
794.983, 239.475
796.268, 287.362
797.552, 136.250
798.835, 199.140
800.119, 161.031
801.402, 221.922
802.686, 282.815
803.969, 172.709
805.251, 304.604
806.534, 280.500
807.816, 273.396
809.098, 458.293
810.380, 355.191
811.662, 418.090
812.944, 489.990
814.225, 509.890
815.506, 727.791
816.787, 631.692
818.068, 627.594
819.349, 680.496
820.629, 563.399
821.909, 699.302
823.189, 636.205
824.469, 519.109
825.749, 587.013
827.028, 407.917
828.307, 484.823
829.586, 308.730
830.865, 279.639
832.144, 322.548
833.422, 192.472
834.700, 220.411
835.978, 212.349
837.256, 133.301
838.534, 222.253
839.811, 98.211
841.088, 145.172
842.365, 154.131
843.642, 88.103
844.919, 129.075
846.195, 88.051
847.472, 9.026
848.748, 13.999
850.023, 17.966
851.299, 45.930
852.575, 20.894
853.850, 43.856
855.125, 35.818
856.400, 44.779
857.674, 58.739
858.949, 51.698
860.223, 42.425
861.497, 40.981
862.771, 10.662
864.045, 29.285
865.318, 3.230
866.591, 6.771
867.864, 66.711
869.137, 17.350
870.410, 5.426
871.682, 87.491
872.955, 29.594
874.227, 8.301
875.499, 19.806
876.770, 12.929
878.042, 68.935
879.313, 25.203
880.584, 58.641
881.855, 4.483
883.126, 1.321
884.396, 82.153
885.667, 16.016
886.937, 62.799
888.207, 39.613
889.476, 17.575
890.746, 49.222
892.015, 94.984
893.284, 3.753
894.553, 6.515
895.822, 15.793
897.090, 107.913
898.359, 32.383
899.627, 71.296
900.895, 18.026
902.163, 5.634
903.430, 89.290
904.698, 73.056
905.965, 14.552
907.232, 66.157
908.499, 58.240
909.765, 9.325
911.032, 33.887
912.298, 7.446
913.564, 94.001
914.830, 94.445
916.095, 46.890
917.361, 2.427
918.626, 5.027
919.891, 11.475
921.156, 10.081
922.420, 62.544
923.685, 42.986
924.949, 19.574
926.213, 160.848
927.477, 1.732
928.740, 59.679
930.004, 104.088
931.267, 7.495
932.530, 150.900
933.793, 44.302
935.056, 78.702
936.318, 128.101
937.581, 57.497
938.843, 165.294
940.104, 79.686
941.366, 39.076
942.628, 207.471
943.889, 103.862
945.150, 188.252
946.411, 231.642
947.672, 107.029
948.932, 286.432
950.193, 193.833
951.453, 201.231
952.713, 285.629
953.973, 213.024
955.232, 314.417
956.491, 242.808
957.751, 289.197
959.010, 375.584
960.268, 384.970
961.527, 462.353
962.785, 526.743
964.044, 486.131
965.302, 763.517
966.559, 671.900
967.817, 913.283
969.075, 1118.663
970.332, 1048.041
971.589, 1229.417
972.846, 1411.792
974.102, 1727.165
975.359, 2208.536
976.615, 2544.905
977.871, 3394.273
979.127, 4236.639
980.383, 5414.012
981.638, 7790.384
982.893, 11427.754
984.149, 17855.123
985.404, 30772.490
986.658, 45579.855
987.913, 58307.219
989.167, 52564.574
990.421, 37991.938
991.675, 25439.297
992.929, 15756.649
994.183, 10614.006
995.436, 7341.360
996.689, 4962.709
997.942, 3929.060
999.195, 2949.407
1000.448, 2453.757
1001.700, 2040.104
1002.952, 1608.450
1004.204, 1487.795
1005.456, 1206.137
1006.708, 1031.487
1007.959, 983.833
1009.210, 780.178
1010.461, 747.546
1011.712, 679.913
1012.963, 551.277
1014.213, 679.726
1015.464, 486.088
1016.714, 500.304
1017.964, 493.644
1019.214, 358.003
1020.463, 503.010
1021.712, 364.732
1022.962, 337.104
1024.210, 376.300
1025.459, 309.651
1026.708, 358.435
1027.956, 352.637
1029.204, 265.003
1030.452, 371.412
1031.700, 305.775
1032.948, 297.968
1034.195, 365.992
1035.442, 259.357
1036.689, 415.292
1037.936, 286.656
1039.183, 372.019
1040.429, 494.826
1041.676, 348.190
1042.922, 502.120
1044.168, 395.220
1045.413, 335.690
1046.659, 389.569
1047.904, 241.944
1049.149, 333.782
1050.394, 315.157
1051.639, 180.886
1052.884, 222.057
1054.128, 220.432
1055.372, 128.693
1056.616, 155.068
1057.860, 60.444
1059.104, 109.628
1060.347, 154.920
1061.590, 45.299
1062.833, 126.531
1064.076, 111.915
1065.319, 5.174
1066.561, 113.717
1067.803, 2.401
1069.046, 193.530
1070.287, 146.885
1071.529, 12.054
1072.771, 82.333
1074.012, 15.721
1075.253, 113.437
1076.494, 91.827
1077.735, 2.696
1078.975, 142.091
1080.216, 71.487
1081.456, 73.143
1082.696, 181.558
1083.936, 9.975
1085.175, 76.411
1086.415, 123.848
1087.654, 20.706
1088.893, 146.737
1090.132, 78.181
1091.371, 99.028
1092.609, 130.475
1093.847, 43.922
1095.085, 131.617
1096.323, 231.065
1097.561, 85.662
1098.799, 206.136
1100.036, 152.586
1101.273, 119.159
1102.510, 246.610
1103.747, 93.061
1104.983, 308.537
1106.220, 224.989
1107.456, 191.442
1108.692, 338.900
1109.928, 219.358
1111.163, 270.934
1112.399, 358.394
1113.634, 288.853
1114.869, 497.414
1116.104, 493.909
1117.339, 499.369
1118.573, 703.830
1119.808, 734.291
1121.042, 1101.967
1122.276, 1301.429
1123.509, 1512.890
1124.743, 1942.549
1125.976, 2369.012
1127.210, 2589.520
1128.443, 3321.190
1129.675, 3476.654
1130.908, 4610.317
1132.141, 6007.948
1133.373, 7145.418
1134.605, 9443.118
1135.837, 10510.587
1137.068, 10408.056
1138.300, 9815.723
1139.531, 7613.190
1140.762, 6070.888
1141.993, 4687.712
1143.224, 3276.179
1144.455, 2854.776
1145.685, 2103.241
1146.915, 1492.707
1148.145, 1550.269
1149.375, 1080.737
1150.605, 1020.557
1151.834, 742.250
1153.063, 614.715
1154.292, 698.198
1155.521, 470.661
1156.750, 442.124
1157.978, 409.406
1159.207, 416.869
1160.435, 362.450
1161.663, 384.260
1162.891, 277.818
1164.118, 381.534
1165.345, 208.035
1166.573, 206.492
1167.800, 313.454
1169.026, 198.930
1170.253, 277.389
1171.480, 286.139
1172.706, 180.603
1173.932, 314.304
1175.158, 199.874
1176.383, 356.344
1177.609, 436.099
1178.834, 418.572
1180.059, 652.043
1181.284, 772.891
1182.509, 1072.361
1183.734, 1631.076
1184.958, 1685.750
1186.182, 1673.216
1187.406, 1337.301
1188.630, 982.965
1189.854, 824.431
1191.077, 573.431
1192.301, 396.919
1193.524, 395.463
1194.747, 195.112
1195.969, 304.602
1197.192, 273.572
1198.414, 124.243
1199.636, 168.739
1200.858, 194.513
1202.080, 143.002
1203.302, 179.516
1204.523, 171.483
1205.744, 133.096
1206.966, 178.625
1208.186, 107.448
1209.407, 103.960
1210.628, 70.965
1211.848, 58.469
1213.068, 142.935
1214.288, 63.478
1215.508, 138.014
1216.727, 179.548
1217.947, 48.408
1219.166, 185.917
1220.385, 95.552
1221.604, 23.366
1222.822, 164.863
1224.041, 19.037
1225.259, 72.717
1226.477, 116.201
1227.695, 4.014
1228.913, 195.455
1230.130, 164.985
1231.348, 121.125
1232.565, 193.575
1233.782, 98.965
1234.999, 101.141
1236.215, 246.569
1237.432, 18.571
1238.648, 130.842
1239.864, 156.499
1241.080, 10.915
1242.296, 208.302
1243.511, 61.312
1244.726, 63.277
1245.942, 148.642
1247.156, 41.096
1248.371, 144.467
1249.586, 150.814
1250.800, 66.396
1252.014, 194.738
1253.228, 94.078
1254.442, 119.562
1255.656, 227.885
1256.869, 26.678
1258.083, 124.787
1259.296, 133.091
1260.509, 53.390
1261.722, 69.749
1262.934, 139.039
1264.147, 100.687
1265.359, 206.965
1266.571, 29.237
1267.783, 119.661
1268.994, 189.914
1270.206, 35.160
1271.417, 167.774
1272.628, 72.980
1273.839, 25.320
1275.050, 308.839
1276.260, 37.994
1277.471, 48.941
1278.681, 202.082
1279.891, 33.217
1281.101, 155.346
1282.310, 99.462
1283.520, 42.570
1284.729, 235.885
1285.938, 35.977
1287.147, 19.289
1288.356, 163.343
1289.564, 61.389
1290.773, 156.659
1291.981, 118.690
1293.189, 4.289
1294.397, 189.018
1295.604, 23.019
1296.812, 42.002
1298.019, 143.979
1299.226, 18.051
1300.433, 127.986
1301.640, 127.927
1302.846, 78.144
1304.053, 116.454
1305.259, 71.309
1306.465, 27.118
1307.671, 77.915
1308.876, 39.688
1310.082, 91.448
1311.287, 145.197
1312.492, 56.062
1313.697, 98.649
1314.902, 114.351
1316.106, 37.042
1317.310, 119.760
1318.515, 47.418
1319.719, 80.063
1320.922, 217.698
1322.126, 39.322
1323.329, 123.930
1324.533, 119.525
1325.736, 4.891
1326.939, 148.836
1328.141, 47.383
1329.344, 58.895
1330.546, 159.395
1331.748, 10.883
1332.950, 61.354
1334.152, 144.296
1335.354, 18.739
1336.555, 186.163
1337.757, 96.571
1338.958, 32.035
1340.159, 162.332
1341.359, 22.684
1342.560, 68.008
1343.760, 197.375
1344.960, 45.673
1346.160, 175.958
1347.360, 179.820
1348.560, 18.080
1349.759, 193.324
1350.959, 111.554
1352.158, 44.772
1353.357, 274.976
1354.555, 3.837
1355.754, 131.332
1356.952, 169.488
1358.151, 113.620
1359.349, 236.739
1360.546, 178.369
1361.744, 24.465
1362.941, 237.696
1364.139, 81.793
1365.336, 43.787
1366.533, 308.661
1367.730, 12.788
1368.926, 68.600
1370.123, 120.522
1371.319, 48.610
1372.515, 159.826
1373.711, 98.809
1374.906, 54.439
1376.102, 144.263
1377.297, 10.625
1378.492, 81.957
1379.687, 150.019
1380.882, 30.655
1382.077, 184.681
1383.271, 57.444
1384.465, 107.135
1385.659, 259.967
1386.853, 144.916
1388.047, 61.829
1389.240, 291.752
1390.434, 90.370
1391.627, 110.246
1392.820, 245.961
1394.013, 59.814
1395.205, 207.415
1396.398, 177.243
1397.590, 2.832
1398.782, 275.031
1399.974, 89.562
1401.166, 80.106
1402.357, 178.551
1403.549, 126.020
1404.740, 104.433
1405.931, 253.676
1407.122, 45.175
1408.313, 175.451
1409.503, 149.629
1410.693, 83.948
1411.883, 193.935
1413.073, 106.886
1414.263, 34.182
1415.453, 284.024
1416.642, 25.045
1417.831, 150.298
1419.020, 246.604
1420.209, 11.487
1421.398, 236.333
1422.587, 124.208
1423.775, 125.478
1424.963, 242.715
1426.151, 165.267
1427.339, 59.536
1428.526, 223.417
1429.714, 56.795
1430.901, 171.921
1432.088, 258.237
1433.275, 52.999
1434.462, 247.578
1435.648, 205.642
1436.835, 42.600
1438.021, 275.039
1439.207, 129.407
1440.393, 191.294
1441.579, 303.176
1442.764, 87.144
1443.949, 193.210
1445.135, 296.820
1446.320, 8.304
1447.504, 299.906
1448.689, 163.379
1449.873, 87.079
1451.058, 364.268
1452.242, 195.822
1453.426, 151.677
1454.609, 388.070
1455.793, 101.922
1456.976, 237.960
1458.159, 340.671
1459.342, 79.840
1460.525, 274.309
1461.708, 337.701
1462.890, 92.667
1464.073, 296.412
1465.255, 198.345
1466.437, 104.712
1467.619, 350.460
1468.800, 45.217
1469.982, 211.667
1471.163, 332.402
1472.344, 82.016
1473.525, 261.574
1474.706, 254.442
1475.886, 0.827
1477.066, 357.660
1478.247, 185.320
1479.427, 129.658
1480.607, 301.916
1481.786, 111.109
1482.966, 206.915
1484.145, 313.311
1485.324, 59.588
1486.503, 219.012
1487.682, 299.460
1488.860, 20.149
1490.039, 275.192
1491.217, 274.341
1492.395, 73.680
1493.573, 300.986
1494.751, 191.275
1495.928, 168.671
1497.106, 333.171
1498.283, 115.667
1499.460, 156.050
1500.637, 192.478
1501.814, 1.062
1502.990, 207.530
1504.166, 274.779
1505.342, 41.400
1506.518, 238.996
1507.694, 144.438
1508.870, 21.719
1510.045, 271.753
1511.221, 93.771
1512.396, 55.988
1513.571, 244.103
1514.745, 15.943
1515.920, 169.589
1517.094, 184.305
1518.269, 0.539
1519.443, 122.712
1520.616, 0.000
##END=



