##NAMES=Creedite
##RRUFFID=R050141
##IDEAL CHEMISTRY=Ca_3_Al_2_(S^6+^O_4_)(OH)_2_F_8_&#183;2H_2_O
##LOCALITY=Mina de Navidad, Rodeo, Durango, Mexico
##OWNER=RRUFF
##SOURCE=Dave Bunk Minerals
##DESCRIPTION=Radiating group of bladed crystals
##STATUS=The identification of this mineral has been confirmed by X-ray diffraction and chemical analysis
##URL=rruff.info/R050141
##MEASURED CHEMISTRY=Ca_3.00_Al_2.00_(S_1.00_O_4_)(OH)_2_(F_7.31_(OH)_0.69_)_Σ=8_·2H_2_O ; OH estimated by stoichiometry and charge balance OH=10-F
##PIN_ID=L00203
##ORIENTATION=Laser parallel to c* (0 0 1). Fiducial mark perpendicular to laser is parallel to -a [-1 0 0]
111.566, 0.000
112.959, 36.695
114.351, 61.600
115.744, 1.934
117.136, 254.681
118.527, 268.418
119.919, 270.205
121.310, 63.557
122.701, 146.151
124.092, 31.518
125.482, 151.094
126.873, 300.935
128.263, 238.238
129.653, 641.556
131.042, 844.271
132.432, 911.948
133.821, 899.323
135.210, 588.892
136.599, 533.544
137.987, 392.084
139.376, 332.875
140.764, 381.510
142.152, 399.763
143.539, 466.753
144.927, 370.173
146.314, 356.458
147.701, 207.285
149.088, 171.511
150.474, 74.593
151.861, 102.161
153.247, 86.686
154.633, 89.229
156.018, 66.127
157.404, 30.021
158.789, 21.930
160.174, 1.611
161.559, 101.622
162.943, 108.641
164.327, 98.173
165.711, 228.918
167.095, 309.562
168.479, 485.744
169.862, 558.833
171.246, 736.731
172.628, 935.178
174.011, 820.318
175.394, 984.827
176.776, 632.434
178.158, 696.496
179.540, 649.375
180.922, 606.748
182.303, 503.457
183.684, 401.228
185.065, 448.137
186.446, 429.517
187.826, 609.638
189.207, 574.720
190.587, 719.379
191.967, 868.315
193.346, 599.731
194.726, 585.505
196.105, 368.992
197.484, 341.050
198.862, 316.433
200.241, 319.050
201.619, 367.694
202.997, 285.983
204.375, 373.991
205.753, 286.484
207.130, 260.260
208.507, 274.534
209.884, 201.743
211.261, 293.441
212.638, 226.825
214.014, 389.165
215.390, 462.696
216.766, 499.431
218.141, 588.275
219.517, 341.102
220.892, 347.061
222.267, 196.835
223.642, 202.589
225.016, 170.672
226.391, 172.712
227.765, 156.386
229.139, 2.448
230.512, 49.187
231.886, 8.208
233.259, 51.540
234.632, 11.843
236.005, 19.569
237.377, 15.854
238.749, 14.882
240.122, 81.683
241.493, 24.926
242.865, 40.309
244.237, 2.329
245.608, 9.044
246.979, 76.869
248.350, 62.505
249.720, 129.396
251.090, 86.159
252.461, 56.230
253.830, 219.025
255.200, 303.735
256.570, 601.357
257.939, 137.897
259.308, 78.357
260.677, 59.741
262.045, 12.130
263.414, 6.217
264.782, 12.198
266.150, 15.693
267.517, 60.385
268.885, 33.761
270.252, 53.299
271.619, 52.016
272.986, 17.933
274.353, 12.882
275.719, 8.557
277.085, 2.036
278.451, 60.982
279.817, 54.392
281.182, 74.864
282.548, 162.905
283.913, 102.699
285.278, 207.323
286.642, 143.511
288.007, 134.795
289.371, 168.241
290.735, 101.083
292.099, 105.815
293.462, 76.393
294.826, 106.814
296.189, 99.037
297.552, 51.068
298.914, 104.905
300.277, 29.359
301.639, 91.603
303.001, 3.713
304.363, 69.735
305.724, 87.684
307.086, 49.559
308.447, 90.354
309.808, 81.069
311.168, 108.704
312.529, 91.843
313.889, 91.748
315.249, 95.837
316.609, 4.887
317.969, 90.165
319.328, 35.145
320.687, 70.750
322.046, 55.631
323.405, 6.939
324.764, 24.437
326.122, 16.920
327.480, 21.701
328.838, 21.830
330.196, 45.312
331.553, 46.719
332.910, 0.859
334.267, 124.486
335.624, 50.718
336.981, 115.840
338.337, 78.848
339.693, 76.745
341.049, 119.539
342.405, 79.245
343.760, 227.877
345.116, 210.513
346.471, 283.030
347.826, 376.511
349.180, 332.954
350.535, 369.345
351.889, 252.727
353.243, 222.981
354.597, 191.250
355.950, 116.274
357.304, 221.233
358.657, 106.199
360.010, 176.919
361.362, 156.494
362.715, 145.941
364.067, 173.372
365.419, 194.981
366.771, 245.218
368.123, 215.797
369.474, 274.980
370.825, 258.021
372.176, 281.087
373.527, 334.820
374.877, 193.924
376.228, 216.723
377.578, 189.158
378.928, 127.560
380.277, 174.927
381.627, 115.274
382.976, 208.417
384.325, 99.547
385.674, 156.025
387.023, 151.505
388.371, 109.848
389.719, 237.179
391.067, 171.431
392.415, 292.215
393.762, 243.532
395.110, 246.116
396.457, 350.475
397.804, 252.827
399.150, 350.674
400.497, 237.445
401.843, 308.659
403.189, 286.348
404.535, 218.297
405.881, 256.554
407.226, 179.670
408.571, 168.429
409.916, 167.083
411.261, 112.625
412.605, 147.672
413.950, 31.404
415.294, 129.884
416.638, 78.281
417.981, 95.027
419.325, 117.911
420.668, 33.953
422.011, 154.622
423.354, 47.138
424.697, 119.097
426.039, 97.371
427.381, 100.297
428.723, 131.344
430.065, 94.300
431.406, 223.954
432.748, 123.410
434.089, 213.976
435.430, 294.713
436.770, 258.778
438.111, 491.798
439.451, 512.674
440.791, 685.155
442.131, 730.548
443.471, 641.086
444.810, 870.008
446.149, 770.645
447.488, 989.689
448.827, 972.437
450.166, 854.119
451.504, 961.915
452.842, 639.403
454.180, 762.884
455.518, 575.199
456.855, 560.633
458.193, 639.012
459.530, 552.052
460.867, 769.410
462.203, 600.235
463.540, 595.500
464.876, 564.025
466.212, 461.148
467.548, 498.345
468.883, 419.275
470.219, 489.452
471.554, 439.573
472.889, 473.804
474.224, 609.951
475.558, 590.090
476.892, 882.239
478.227, 982.541
479.561, 1295.650
480.894, 1797.410
482.228, 1730.436
483.561, 2448.417
484.894, 2003.026
486.227, 1924.805
487.559, 1664.840
488.892, 1091.594
490.224, 1016.418
491.556, 607.366
492.888, 558.320
494.220, 470.863
495.551, 324.124
496.882, 381.070
498.213, 194.280
499.544, 230.329
500.874, 202.363
502.205, 108.570
503.535, 181.677
504.865, 56.401
506.194, 173.973
507.524, 75.793
508.853, 80.555
510.182, 83.307
511.511, 52.049
512.840, 130.776
514.168, 33.375
515.496, 63.837
516.824, 116.031
518.152, 48.618
519.480, 138.722
520.807, 99.177
522.134, 193.490
523.461, 220.862
524.788, 205.254
526.114, 322.737
527.441, 249.719
528.767, 434.290
530.093, 376.138
531.418, 358.883
532.744, 490.574
534.069, 353.537
535.394, 400.035
536.719, 328.843
538.044, 304.423
539.368, 316.773
540.693, 172.402
542.017, 223.575
543.340, 148.331
544.664, 135.605
545.987, 124.372
547.311, 71.876
548.634, 188.054
549.956, 67.128
551.279, 87.904
552.601, 139.650
553.923, 32.663
555.245, 119.526
556.567, 45.983
557.889, 74.752
559.210, 61.131
560.531, 68.907
561.852, 99.582
563.173, 5.629
564.493, 107.471
565.813, 73.164
567.133, 48.521
568.453, 112.185
569.773, 65.414
571.092, 132.909
572.412, 126.503
573.731, 63.781
575.049, 133.312
576.368, 76.643
577.686, 171.198
579.005, 144.683
580.323, 137.962
581.640, 231.613
582.958, 175.959
584.275, 313.552
585.593, 209.000
586.909, 318.552
588.226, 520.169
589.543, 429.673
590.859, 712.425
592.175, 720.130
593.491, 1050.918
594.807, 1409.714
596.122, 1509.513
597.438, 2334.322
598.753, 2520.134
600.068, 3617.946
601.382, 4229.757
602.697, 3810.569
604.011, 4185.378
605.325, 2609.187
606.639, 2129.994
607.952, 1541.799
609.266, 959.602
610.579, 925.404
611.892, 569.206
613.205, 511.007
614.518, 492.809
615.830, 374.610
617.142, 426.411
618.454, 190.214
619.766, 391.093
621.078, 349.898
622.389, 314.703
623.700, 502.512
625.011, 466.322
626.322, 795.213
627.632, 1054.024
628.943, 1305.837
630.253, 1809.563
631.563, 1317.376
632.872, 1186.133
634.182, 714.972
635.491, 497.787
636.800, 437.721
638.109, 206.540
639.418, 312.228
640.726, 242.050
642.035, 159.873
643.343, 240.844
644.651, 156.671
645.958, 221.625
647.266, 193.459
648.573, 178.299
649.880, 218.021
651.187, 112.862
652.494, 231.706
653.800, 136.789
655.106, 158.632
656.412, 171.526
657.718, 82.370
659.024, 145.213
660.329, 34.057
661.634, 33.899
662.939, 55.679
664.244, 40.516
665.549, 122.351
666.853, 58.200
668.157, 62.029
669.461, 100.811
670.765, 55.633
672.069, 162.322
673.372, 41.721
674.675, 138.538
675.978, 153.342
677.281, 39.156
678.583, 160.968
679.886, 31.447
681.188, 74.255
682.490, 82.100
683.792, 3.096
685.093, 86.702
686.394, 10.522
687.696, 34.312
688.997, 46.098
690.297, 57.090
691.598, 71.660
692.898, 5.571
694.198, 18.687
695.498, 26.142
696.798, 54.016
698.097, 68.681
699.397, 12.547
700.696, 19.238
701.995, 3.074
703.293, 66.984
704.592, 57.659
705.890, 22.699
707.188, 20.073
708.486, 26.537
709.784, 20.858
711.081, 2.632
712.378, 9.541
713.675, 28.990
714.972, 7.444
716.269, 63.860
717.565, 55.657
718.862, 32.314
720.158, 0.618
721.453, 60.117
722.749, 38.172
724.045, 78.255
725.340, 36.282
726.635, 49.462
727.930, 81.894
729.224, 22.390
730.519, 85.815
731.813, 58.236
733.107, 21.931
734.401, 65.344
735.694, 28.494
736.988, 135.901
738.281, 28.303
739.574, 46.003
740.867, 144.397
742.160, 44.788
743.452, 135.228
744.744, 123.609
746.036, 116.747
747.328, 187.120
748.620, 90.009
749.911, 225.372
751.202, 100.729
752.493, 111.189
753.784, 184.535
755.075, 77.876
756.365, 203.229
757.655, 181.559
758.945, 130.884
760.235, 247.220
761.525, 126.534
762.814, 190.842
764.103, 238.144
765.392, 144.440
766.681, 224.735
767.969, 124.020
769.258, 179.337
770.546, 162.612
771.834, 127.881
773.122, 169.144
774.409, 46.402
775.697, 119.654
776.984, 119.900
778.271, 107.140
779.558, 116.422
780.844, 44.652
782.131, 164.875
783.417, 141.092
784.703, 16.696
785.989, 121.493
787.274, 0.323
788.560, 56.846
789.845, 107.010
791.130, 35.168
792.415, 68.319
793.699, 15.535
794.983, 70.588
796.268, 87.706
797.552, 26.818
798.835, 116.923
800.119, 32.023
801.402, 63.116
802.686, 84.203
803.969, 1.284
805.251, 86.352
806.534, 67.414
807.816, 17.469
809.098, 80.517
810.380, 47.565
811.662, 103.606
812.944, 78.646
814.225, 112.681
815.506, 204.636
816.787, 98.585
818.068, 132.603
819.349, 116.568
820.629, 53.575
821.909, 171.576
823.189, 53.571
824.469, 127.561
825.749, 114.544
827.028, 7.523
828.307, 158.446
829.586, 45.409
830.865, 95.365
832.144, 73.260
833.422, 11.795
834.700, 113.035
835.978, 45.955
837.256, 82.868
838.534, 149.454
839.811, 17.644
841.088, 71.045
842.365, 67.828
843.642, 46.654
844.919, 110.200
846.195, 18.057
847.472, 95.696
848.748, 25.443
850.023, 21.157
851.299, 72.785
852.575, 7.385
853.850, 50.241
855.125, 45.893
856.400, 11.714
857.674, 107.915
858.949, 51.696
860.223, 65.008
861.497, 92.450
862.771, 49.089
864.045, 87.460
865.318, 13.014
866.591, 67.910
867.864, 131.531
869.137, 26.541
870.410, 64.154
871.682, 31.124
872.955, 13.531
874.227, 118.756
875.499, 2.448
876.770, 53.478
878.042, 59.169
879.313, 1.708
880.584, 106.923
881.855, 5.602
883.126, 123.114
884.396, 69.788
885.667, 1.555
886.937, 66.945
888.207, 10.392
889.476, 81.121
890.746, 81.772
892.015, 20.719
893.284, 101.845
894.553, 38.477
895.822, 5.032
897.090, 105.659
898.359, 45.717
899.627, 86.882
900.895, 7.522
902.163, 20.067
903.430, 91.653
904.698, 35.762
905.965, 48.802
907.232, 86.364
908.499, 9.924
909.765, 64.483
911.032, 16.039
912.298, 8.595
913.564, 92.149
914.830, 53.701
916.095, 78.251
917.361, 99.800
918.626, 10.348
919.891, 93.895
921.156, 1.440
922.420, 101.983
923.685, 52.525
924.949, 38.066
926.213, 70.605
927.477, 36.068
928.740, 68.613
930.004, 103.158
931.267, 0.299
932.530, 145.258
933.793, 9.734
935.056, 65.290
936.318, 114.844
937.581, 10.486
938.843, 175.039
940.104, 74.649
941.366, 84.175
942.628, 106.728
943.889, 26.165
945.150, 137.717
946.411, 125.402
947.672, 91.953
948.932, 125.504
950.193, 72.909
951.453, 199.460
952.713, 128.889
953.973, 77.440
955.232, 294.991
956.491, 144.660
957.751, 239.211
959.010, 271.764
960.268, 181.077
961.527, 255.878
962.785, 232.381
964.044, 199.731
965.302, 465.608
966.559, 351.162
967.817, 508.717
969.075, 498.272
970.332, 465.827
971.589, 663.383
972.846, 648.921
974.102, 892.478
975.359, 1183.019
976.615, 1133.576
977.871, 1868.135
979.127, 1951.113
980.383, 2666.673
981.638, 4077.186
982.893, 5287.757
984.149, 9501.327
985.404, 15676.230
986.658, 23932.807
987.913, 34549.348
989.167, 25845.920
990.421, 17732.500
991.675, 10687.055
992.929, 5577.642
994.183, 4334.234
995.436, 2772.796
996.689, 2003.418
997.942, 1773.879
999.195, 1231.505
1000.448, 1162.040
1001.700, 937.561
1002.952, 665.212
1004.204, 792.695
1005.456, 427.599
1006.708, 520.270
1007.959, 458.537
1009.210, 313.231
1010.461, 422.940
1011.712, 348.783
1012.963, 240.509
1014.213, 336.237
1015.464, 144.973
1016.714, 249.471
1017.964, 319.390
1019.214, 149.139
1020.463, 314.867
1021.712, 191.642
1022.962, 199.277
1024.210, 228.953
1025.459, 124.739
1026.708, 278.322
1027.956, 195.136
1029.204, 213.952
1030.452, 338.483
1031.700, 208.325
1032.948, 368.102
1034.195, 324.950
1035.442, 256.799
1036.689, 375.376
1037.936, 244.233
1039.183, 387.352
1040.429, 409.219
1041.676, 294.088
1042.922, 417.657
1044.168, 287.537
1045.413, 231.419
1046.659, 347.250
1047.904, 127.138
1049.149, 214.268
1050.394, 258.163
1051.639, 121.539
1052.884, 212.438
1054.128, 92.355
1055.372, 135.167
1056.616, 131.090
1057.860, 8.016
1059.104, 83.927
1060.347, 95.861
1061.590, 106.997
1062.833, 150.917
1064.076, 66.862
1065.319, 84.908
1066.561, 100.857
1067.803, 64.968
1069.046, 178.918
1070.287, 63.874
1071.529, 49.891
1072.771, 186.851
1074.012, 53.847
1075.253, 154.812
1076.494, 189.780
1077.735, 94.784
1078.975, 221.768
1080.216, 218.755
1081.456, 306.313
1082.696, 542.313
1083.936, 456.538
1085.175, 735.545
1086.415, 592.554
1087.654, 460.575
1088.893, 537.597
1090.132, 196.625
1091.371, 578.995
1092.609, 548.027
1093.847, 117.061
1095.085, 159.245
1096.323, 110.292
1097.561, 103.447
1098.799, 178.497
1100.036, 31.549
1101.273, 61.755
1102.510, 114.816
1103.747, 21.877
1104.983, 156.057
1106.220, 19.127
1107.456, 65.404
1108.692, 109.483
1109.928, 37.435
1111.163, 115.913
1112.399, 28.012
1113.634, 15.943
1114.869, 66.124
1116.104, 34.192
1117.339, 55.261
1118.573, 143.332
1119.808, 69.403
1121.042, 254.665
1122.276, 292.739
1123.509, 352.814
1124.743, 454.889
1125.976, 341.965
1127.210, 448.081
1128.443, 552.162
1129.675, 444.244
1130.908, 779.528
1132.141, 870.611
1133.373, 1036.694
1134.605, 1538.199
1135.837, 1455.291
1137.068, 1647.522
1138.300, 1471.662
1139.531, 861.755
1140.762, 920.224
1141.993, 613.453
1143.224, 351.647
1144.455, 378.098
1145.685, 153.207
1146.915, 188.484
1148.145, 227.934
1149.375, 48.041
1150.605, 193.326
1151.834, 107.432
1153.063, 9.458
1154.292, 135.965
1155.521, 26.071
1156.750, 96.181
1157.978, 80.329
1159.207, 2.531
1160.435, 141.854
1161.663, 71.956
1162.891, 41.055
1164.118, 112.870
1165.345, 4.030
1166.573, 101.067
1167.800, 61.493
1169.026, 31.585
1170.253, 113.240
1171.480, 70.430
1172.706, 57.528
1173.932, 136.472
1175.158, 71.565
1176.383, 185.655
1177.609, 225.296
1178.834, 165.476
1180.059, 226.967
1181.284, 259.141
1182.509, 263.283
1183.734, 156.783
1184.958, 193.333
1186.182, 172.296
1187.406, 150.095
1188.630, 206.861
1189.854, 115.896
1191.077, 172.888
1192.301, 169.913
1193.524, 193.748
1194.747, 159.937
1195.969, 143.665
1197.192, 185.870
1198.414, 195.479
1199.636, 154.642
1200.858, 183.981
1202.080, 90.969
1203.302, 102.020
1204.523, 158.169
1205.744, 100.310
1206.966, 69.150
1208.186, 5.161
1209.407, 126.165
1210.628, 67.971
1211.848, 30.964
1213.068, 130.951
1214.288, 17.977
1215.508, 116.950
1216.727, 84.083
1217.947, 35.047
1219.166, 215.004
1220.385, 51.207
1221.604, 75.152
1222.822, 136.089
1224.041, 26.916
1225.259, 148.991
1226.477, 89.892
1227.695, 50.825
1228.913, 164.032
1230.130, 15.433
1231.348, 103.502
1232.565, 154.335
1233.782, 79.764
1234.999, 124.585
1236.215, 160.399
1237.432, 3.427
1238.648, 178.225
1239.864, 81.020
1241.080, 38.071
1242.296, 209.858
1243.511, 48.730
1244.726, 78.682
1245.942, 152.457
1247.156, 41.438
1248.371, 215.204
1249.586, 87.966
1250.800, 51.281
1252.014, 202.037
1253.228, 30.847
1254.442, 183.976
1255.656, 235.716
1256.869, 17.805
1258.083, 140.526
1259.296, 101.445
1260.509, 96.022
1261.722, 139.727
1262.934, 86.419
1264.147, 118.241
1265.359, 154.905
1266.571, 39.607
1267.783, 199.389
1268.994, 137.017
1270.206, 94.639
1271.417, 158.239
1272.628, 77.833
1273.839, 105.838
1275.050, 188.416
1276.260, 22.015
1277.471, 131.624
1278.681, 166.151
1279.891, 12.727
1281.101, 154.276
1282.310, 57.765
1283.520, 80.575
1284.729, 136.046
1285.938, 7.497
1287.147, 63.598
1288.356, 72.023
1289.564, 38.561
1290.773, 229.117
1291.981, 55.474
1293.189, 23.821
1294.397, 114.157
1295.604, 54.479
1296.812, 152.786
1298.019, 183.085
1299.226, 36.873
1300.433, 160.394
1301.640, 116.650
1302.846, 32.102
1304.053, 91.101
1305.259, 34.149
1306.465, 103.309
1307.671, 112.458
1308.876, 6.592
1310.082, 125.713
1311.287, 102.652
1312.492, 29.752
1313.697, 101.868
1314.902, 12.932
1316.106, 78.983
1317.310, 134.018
1318.515, 27.973
1319.719, 107.006
1320.922, 156.974
1322.126, 23.073
1323.329, 153.856
1324.533, 89.772
1325.736, 60.674
1326.939, 120.563
1328.141, 11.435
1329.344, 111.292
1330.546, 140.190
1331.748, 0.981
1332.950, 139.826
1334.152, 122.621
1335.354, 5.607
1336.555, 201.128
1337.757, 90.850
1338.958, 31.558
1340.159, 196.251
1341.359, 18.930
1342.560, 101.593
1343.760, 179.242
1344.960, 43.122
1346.160, 125.485
1347.360, 82.135
1348.560, 33.714
1349.759, 171.278
1350.959, 6.829
1352.158, 109.363
1353.357, 171.855
1354.555, 7.364
1355.754, 143.858
1356.952, 143.238
1358.151, 93.705
1359.349, 170.001
1360.546, 66.082
1361.744, 116.516
1362.941, 248.845
1364.139, 45.260
1365.336, 161.631
1366.533, 213.036
1367.730, 29.584
1368.926, 133.752
1370.123, 170.104
1371.319, 19.589
1372.515, 117.089
1373.711, 14.364
1374.906, 45.403
1376.102, 190.648
1377.297, 12.294
1378.492, 210.526
1379.687, 155.731
1380.882, 46.587
1382.077, 245.513
1383.271, 125.616
1384.465, 41.746
1385.659, 217.972
1386.853, 81.021
1388.047, 61.091
1389.240, 189.048
1390.434, 0.804
1391.627, 222.042
1392.820, 207.179
1394.013, 18.306
1395.205, 224.419
1396.398, 90.308
1397.590, 2.605
1398.782, 245.425
1399.974, 17.484
1401.166, 113.966
1402.357, 147.490
1403.549, 59.318
1404.740, 246.240
1405.931, 145.393
1407.122, 65.109
1408.313, 257.761
1409.503, 91.181
1410.693, 70.788
1411.883, 233.367
1413.073, 123.130
1414.263, 137.868
1415.453, 245.192
1416.642, 20.916
1417.831, 188.576
1419.020, 110.771
1420.209, 74.492
1421.398, 202.123
1422.587, 79.676
1423.775, 77.563
1424.963, 162.714
1426.151, 24.250
1427.339, 117.699
1428.526, 185.335
1429.714, 2.458
1430.901, 249.735
1432.088, 190.535
1433.275, 7.963
1434.462, 215.140
1435.648, 190.203
1436.835, 92.843
1438.021, 279.650
1439.207, 115.432
1440.393, 130.553
1441.579, 276.582
1442.764, 99.380
1443.949, 336.998
1445.135, 205.052
1446.320, 95.435
1447.504, 389.911
1448.689, 199.805
1449.873, 170.282
1451.058, 300.989
1452.242, 153.404
1453.426, 228.228
1454.609, 210.465
1455.793, 59.633
1456.976, 286.685
1458.159, 266.240
1459.342, 136.492
1460.525, 337.616
1461.708, 228.500
1462.890, 198.735
1464.073, 326.444
1465.255, 162.238
1466.437, 175.266
1467.619, 276.047
1468.800, 117.170
1469.982, 213.150
1471.163, 247.181
1472.344, 39.958
1473.525, 294.689
1474.706, 156.731
1475.886, 103.686
1477.066, 325.596
1478.247, 76.350
1479.427, 158.198
1480.607, 281.004
1481.786, 46.790
1482.966, 228.499
1484.145, 176.137
1485.324, 60.938
1486.503, 169.777
1487.682, 154.595
1488.860, 26.355
1490.039, 230.987
1491.217, 123.755
1492.395, 83.654
1493.573, 194.559
1494.751, 2.464
1495.928, 148.360
1497.106, 127.283
1498.283, 67.885
1499.460, 77.834
1500.637, 80.006
1501.814, 9.673
1502.990, 225.703
1504.166, 113.155
1505.342, 55.678
1506.518, 229.797
1507.694, 34.495
1508.870, 120.556
1510.045, 158.348
1511.221, 48.321
1512.396, 124.529
1513.571, 75.602
1514.745, 37.496
1515.920, 116.965
1517.094, 85.154
1518.269, 1.144
1519.443, 189.917
1520.616, 3.780
1521.790, 0.000
##END=



