##NAMES=Creedite
##RRUFFID=R050141
##IDEAL CHEMISTRY=Ca_3_Al_2_(S^6+^O_4_)(OH)_2_F_8_&#183;2H_2_O
##LOCALITY=Mina de Navidad, Rodeo, Durango, Mexico
##OWNER=RRUFF
##SOURCE=Dave Bunk Minerals
##DESCRIPTION=Radiating group of bladed crystals
##STATUS=The identification of this mineral has been confirmed by X-ray diffraction and chemical analysis
##URL=rruff.info/R050141
##MEASURED CHEMISTRY=Ca_3.00_Al_2.00_(S_1.00_O_4_)(OH)_2_(F_7.31_(OH)_0.69_)_Σ=8_·2H_2_O ; OH estimated by stoichiometry and charge balance OH=10-F
##PIN_ID=L00203
##ORIENTATION=Laser parallel to c* (0 0 1). Fiducial mark perpendicular to laser is parallel to -a [-1 0 0]
103.206, 0.000
104.600, 0.920
105.994, 50.032
107.387, 116.886
108.781, 38.677
110.174, 38.329
111.566, 74.025
112.959, 70.174
114.351, 51.296
115.744, 48.608
117.136, 294.390
118.527, 338.549
119.919, 192.283
121.310, 70.037
122.701, 67.259
124.092, 47.438
125.482, 16.727
126.873, 41.476
128.263, 72.398
129.653, 176.749
131.042, 268.169
132.432, 354.469
133.821, 266.094
135.210, 120.922
136.599, 69.704
137.987, 5.029
139.376, 57.979
140.764, 97.318
142.152, 74.916
143.539, 114.407
144.927, 59.227
146.314, 106.526
147.701, 11.515
149.088, 136.281
150.474, 30.973
151.861, 117.664
153.247, 117.427
154.633, 82.319
156.018, 88.505
157.404, 13.066
158.789, 60.522
160.174, 34.867
161.559, 29.800
162.943, 65.244
164.327, 29.002
165.711, 154.539
167.095, 98.767
168.479, 205.180
169.862, 265.784
171.246, 378.949
172.628, 481.887
174.011, 450.786
175.394, 615.474
176.776, 504.404
178.158, 618.526
179.540, 530.379
180.922, 371.152
182.303, 356.082
183.684, 209.029
185.065, 253.207
186.446, 251.624
187.826, 315.010
189.207, 193.972
190.587, 122.097
191.967, 51.280
193.346, 17.157
194.726, 51.940
196.105, 28.169
197.484, 72.276
198.862, 66.349
200.241, 19.398
201.619, 62.903
202.997, 35.008
204.375, 71.482
205.753, 35.047
207.130, 52.564
208.507, 83.858
209.884, 27.427
211.261, 93.930
212.638, 97.637
214.014, 194.328
215.390, 221.217
216.766, 200.258
218.141, 159.677
219.517, 152.832
220.892, 177.387
222.267, 66.558
223.642, 54.348
225.016, 70.999
226.391, 22.626
227.765, 66.232
229.139, 35.186
230.512, 20.362
231.886, 19.144
233.259, 36.699
234.632, 30.718
236.005, 20.912
237.377, 29.581
238.749, 38.290
240.122, 2.963
241.493, 42.813
242.865, 13.387
244.237, 34.567
245.608, 35.822
246.979, 86.936
248.350, 72.013
249.720, 169.021
251.090, 195.952
252.461, 283.818
253.830, 293.595
255.200, 292.299
256.570, 323.950
257.939, 225.572
259.308, 185.170
260.677, 92.932
262.045, 62.501
263.414, 25.191
264.782, 23.156
266.150, 3.642
267.517, 2.823
268.885, 51.869
270.252, 6.132
271.619, 53.782
272.986, 109.605
274.353, 0.329
275.719, 106.944
277.085, 77.453
278.451, 58.851
279.817, 129.124
281.182, 142.283
282.548, 241.342
283.913, 159.293
285.278, 226.135
286.642, 170.824
288.007, 141.414
289.371, 124.855
290.735, 68.030
292.099, 167.185
293.462, 46.365
294.826, 101.469
296.189, 91.462
297.552, 63.281
298.914, 63.009
300.277, 14.666
301.639, 76.052
303.001, 57.334
304.363, 3.507
305.724, 76.765
307.086, 31.857
308.447, 44.042
309.808, 54.928
311.168, 77.942
312.529, 39.175
313.889, 15.099
315.249, 80.343
316.609, 46.987
317.969, 30.543
319.328, 73.868
320.687, 74.150
322.046, 34.675
323.405, 14.677
324.764, 52.447
326.122, 40.073
327.480, 30.969
328.838, 40.472
330.196, 40.641
331.553, 96.442
332.910, 62.521
334.267, 94.543
335.624, 73.459
336.981, 174.288
338.337, 169.076
339.693, 134.832
341.049, 243.563
342.405, 170.278
343.760, 424.977
345.116, 423.707
346.471, 525.402
347.826, 712.008
349.180, 644.776
350.535, 754.407
351.889, 515.147
353.243, 466.420
354.597, 318.623
355.950, 263.125
357.304, 257.874
358.657, 188.335
360.010, 208.256
361.362, 189.056
362.715, 187.913
364.067, 227.703
365.419, 204.346
366.771, 296.356
368.123, 311.310
369.474, 386.289
370.825, 344.679
372.176, 311.645
373.527, 341.448
374.877, 204.488
376.228, 279.149
377.578, 216.263
378.928, 198.373
380.277, 179.398
381.627, 187.793
382.976, 166.533
384.325, 141.342
385.674, 258.788
387.023, 278.909
388.371, 246.891
389.719, 378.580
391.067, 424.902
392.415, 496.811
393.762, 508.481
395.110, 518.283
396.457, 624.915
397.804, 437.779
399.150, 543.424
400.497, 417.535
401.843, 486.109
403.189, 433.271
404.535, 348.581
405.881, 370.144
407.226, 235.057
408.571, 283.990
409.916, 208.346
411.261, 165.604
412.605, 167.294
413.950, 83.094
415.294, 187.969
416.638, 125.838
417.981, 147.700
419.325, 176.555
420.668, 89.404
422.011, 191.140
423.354, 92.486
424.697, 203.666
426.039, 175.498
427.381, 136.274
428.723, 245.291
430.065, 153.711
431.406, 251.780
432.748, 281.621
434.089, 355.663
435.430, 419.970
436.770, 448.149
438.111, 674.395
439.451, 757.493
440.791, 1021.454
442.131, 1120.722
443.471, 929.022
444.810, 1178.578
446.149, 1047.906
447.488, 1304.422
448.827, 1319.757
450.166, 1170.950
451.504, 1319.054
452.842, 809.903
454.180, 920.148
455.518, 670.789
456.855, 618.725
458.193, 576.603
459.530, 378.339
460.867, 459.060
462.203, 362.304
463.540, 308.059
464.876, 293.704
466.212, 165.728
467.548, 293.455
468.883, 246.854
470.219, 283.345
471.554, 267.917
472.889, 274.603
474.224, 450.029
475.558, 401.209
476.892, 620.886
478.227, 750.361
479.561, 963.697
480.894, 1380.326
482.228, 1352.948
483.561, 1914.306
484.894, 1583.458
486.227, 1517.992
487.559, 1337.420
488.892, 875.769
490.224, 780.197
491.556, 534.621
492.888, 432.326
494.220, 371.882
495.551, 238.567
496.882, 251.158
498.213, 142.167
499.544, 159.149
500.874, 114.984
502.205, 102.051
503.535, 118.026
504.865, 61.078
506.194, 64.122
507.524, 50.159
508.853, 25.189
510.182, 50.210
511.511, 15.225
512.840, 77.230
514.168, 9.395
515.496, 27.389
516.824, 31.379
518.152, 35.528
519.480, 79.517
520.807, 1.521
522.134, 33.495
523.461, 36.474
524.788, 7.445
526.114, 71.410
527.441, 12.463
528.767, 119.566
530.093, 18.687
531.418, 11.273
532.744, 66.675
534.069, 12.308
535.394, 32.634
536.719, 15.746
538.044, 40.511
539.368, 34.438
540.693, 15.153
542.017, 55.760
543.340, 63.600
544.664, 10.365
545.987, 107.265
547.311, 16.032
548.634, 105.899
549.956, 42.160
551.279, 13.823
552.601, 93.869
553.923, 44.769
555.245, 128.473
556.567, 96.121
557.889, 81.060
559.210, 100.988
560.531, 79.968
561.852, 149.929
563.173, 79.892
564.493, 140.149
565.813, 139.127
567.133, 149.895
568.453, 188.941
569.773, 96.916
571.092, 218.003
572.412, 196.177
573.731, 206.031
575.049, 335.095
576.368, 185.054
577.686, 301.006
579.005, 301.954
580.323, 316.804
581.640, 436.742
582.958, 377.565
584.275, 566.720
585.593, 546.651
586.909, 647.693
588.226, 836.634
589.543, 791.576
590.859, 1212.410
592.175, 1296.355
593.491, 1742.298
594.807, 2202.238
596.122, 2437.180
597.438, 3911.166
598.753, 4412.103
600.068, 6407.131
601.382, 7600.066
602.697, 7086.997
604.011, 7694.056
605.325, 4953.979
606.639, 4072.899
607.952, 3012.822
609.266, 1891.741
610.579, 1712.658
611.892, 1062.578
613.205, 973.494
614.518, 778.410
615.830, 540.323
617.142, 677.335
618.454, 419.246
619.766, 505.156
621.078, 414.067
622.389, 358.976
623.700, 438.885
625.011, 331.796
626.322, 403.770
627.632, 452.680
628.943, 469.590
630.253, 582.583
631.563, 417.492
632.872, 390.709
634.182, 289.619
635.491, 188.527
636.800, 226.664
638.109, 104.572
639.418, 153.479
640.726, 166.385
642.035, 118.291
643.343, 206.471
644.651, 97.378
645.958, 189.360
647.266, 158.487
648.573, 69.392
649.880, 151.652
651.187, 106.556
652.494, 165.459
653.800, 97.361
655.106, 105.262
656.412, 120.212
657.718, 127.107
659.024, 94.001
660.329, 89.891
661.634, 59.779
662.939, 100.617
664.244, 74.468
665.549, 105.260
666.853, 90.946
668.157, 84.737
669.461, 110.380
670.765, 11.247
672.069, 97.865
673.372, 64.557
674.675, 12.264
675.978, 99.988
677.281, 45.839
678.583, 91.419
679.886, 82.874
681.188, 47.600
682.490, 106.206
683.792, 9.084
685.093, 30.395
686.394, 8.224
687.696, 26.869
688.997, 54.209
690.297, 30.067
691.598, 52.375
692.898, 5.211
694.198, 8.162
695.498, 60.627
696.798, 66.679
698.097, 70.438
699.397, 9.834
700.696, 10.093
701.995, 86.420
703.293, 39.852
704.592, 34.135
705.890, 33.167
707.188, 39.586
708.486, 7.842
709.784, 42.487
711.081, 23.958
712.378, 6.334
713.675, 37.281
714.972, 47.893
716.269, 35.452
717.565, 45.059
718.862, 44.662
720.158, 14.600
721.453, 43.987
722.749, 6.053
724.045, 25.521
725.340, 44.091
726.635, 15.207
727.930, 5.770
729.224, 29.226
730.519, 17.782
731.813, 72.334
733.107, 53.884
734.401, 45.430
735.694, 31.973
736.988, 43.515
738.281, 53.053
739.574, 5.589
740.867, 50.120
742.160, 14.648
743.452, 45.173
744.744, 64.695
746.036, 23.244
747.328, 139.255
748.620, 43.753
749.911, 78.247
751.202, 130.739
752.493, 26.228
753.784, 86.714
755.075, 14.198
756.365, 65.423
757.655, 96.900
758.945, 9.375
760.235, 128.845
761.525, 79.313
762.814, 96.294
764.103, 80.757
765.392, 83.218
766.681, 89.624
767.969, 41.079
769.258, 65.531
770.546, 142.981
771.834, 12.428
773.122, 103.872
774.409, 40.313
775.697, 59.751
776.984, 64.188
778.271, 42.621
779.558, 122.138
780.844, 18.567
782.131, 47.992
783.417, 107.415
784.703, 12.836
785.989, 103.253
787.274, 13.333
788.560, 38.068
789.845, 112.466
791.130, 12.139
792.415, 31.244
793.699, 45.623
794.983, 50.001
796.268, 92.375
797.552, 4.748
798.835, 131.116
800.119, 11.481
801.402, 5.843
802.686, 100.200
803.969, 2.567
805.251, 87.928
806.534, 89.287
807.816, 65.645
809.098, 84.001
810.380, 14.354
811.662, 140.705
812.944, 104.054
814.225, 69.401
815.506, 218.745
816.787, 158.088
818.068, 135.428
819.349, 116.767
820.629, 77.104
821.909, 167.440
823.189, 100.774
824.469, 114.107
825.749, 119.274
827.028, 64.604
828.307, 138.933
829.586, 81.103
830.865, 102.429
832.144, 97.738
833.422, 87.062
834.700, 99.391
835.978, 19.716
837.256, 10.043
838.534, 76.205
839.811, 76.459
841.088, 69.619
842.365, 41.857
843.642, 9.181
844.919, 135.436
846.195, 4.761
847.472, 42.912
848.748, 6.403
850.023, 74.725
851.299, 64.559
852.575, 17.882
853.850, 78.272
855.125, 24.648
856.400, 34.975
857.674, 96.498
858.949, 33.787
860.223, 43.745
861.497, 90.299
862.771, 45.481
864.045, 125.809
865.318, 21.350
866.591, 67.959
867.864, 52.278
869.137, 36.385
870.410, 43.904
871.682, 56.226
872.955, 3.453
874.227, 116.589
875.499, 9.091
876.770, 18.438
878.042, 89.688
879.313, 12.991
880.584, 104.212
881.855, 19.675
883.126, 101.580
884.396, 110.788
885.667, 13.098
886.937, 52.409
888.207, 20.720
889.476, 28.996
890.746, 119.308
892.015, 36.622
893.284, 76.712
894.553, 3.028
895.822, 50.240
897.090, 70.557
898.359, 14.108
899.627, 87.333
900.895, 63.665
902.163, 73.002
903.430, 83.341
904.698, 46.680
905.965, 9.974
907.232, 34.316
908.499, 19.435
909.765, 45.903
911.032, 35.242
912.298, 62.451
913.564, 107.794
914.830, 33.861
916.095, 106.471
917.361, 62.804
918.626, 23.861
919.891, 134.467
921.156, 24.797
922.420, 126.133
923.685, 54.471
924.949, 66.711
926.213, 83.052
927.477, 46.394
928.740, 101.740
930.004, 79.086
931.267, 4.565
932.530, 186.785
933.793, 61.073
935.056, 97.427
936.318, 130.782
937.581, 109.056
938.843, 161.415
940.104, 119.467
941.366, 88.830
942.628, 174.198
943.889, 33.337
945.150, 219.709
946.411, 167.085
947.672, 163.462
948.932, 182.842
950.193, 166.950
951.453, 253.335
952.713, 224.648
953.973, 148.819
955.232, 282.929
956.491, 239.972
957.751, 283.369
959.010, 372.024
960.268, 248.426
961.527, 376.831
962.785, 400.188
964.044, 327.598
965.302, 608.047
966.559, 491.463
967.817, 690.881
969.075, 777.323
970.332, 705.746
971.589, 970.170
972.846, 912.598
974.102, 1198.029
975.359, 1573.462
976.615, 1673.898
977.871, 2538.337
979.127, 2733.780
980.383, 3672.225
981.638, 5509.673
982.893, 6928.131
984.149, 12974.593
985.404, 21011.055
986.658, 31637.520
987.913, 45993.988
989.167, 33760.422
990.421, 23226.889
991.675, 14093.368
992.929, 7219.848
994.183, 5738.332
995.436, 3653.420
996.689, 2669.909
997.942, 2338.494
999.195, 1502.073
1000.448, 1550.516
1001.700, 1260.029
1002.952, 895.565
1004.204, 1023.103
1005.456, 725.932
1006.708, 697.490
1007.959, 700.051
1009.210, 388.635
1010.461, 526.231
1011.712, 473.841
1012.963, 334.464
1014.213, 461.104
1015.464, 298.557
1016.714, 436.195
1017.964, 356.913
1019.214, 289.563
1020.463, 445.264
1021.712, 299.992
1022.962, 336.645
1024.210, 360.164
1025.459, 223.872
1026.708, 377.159
1027.956, 310.267
1029.204, 250.939
1030.452, 315.070
1031.700, 265.913
1032.948, 300.700
1034.195, 352.388
1035.442, 297.077
1036.689, 465.770
1037.936, 395.465
1039.183, 469.162
1040.429, 591.880
1041.676, 411.599
1042.922, 570.319
1044.168, 460.045
1045.413, 371.772
1046.659, 458.501
1047.904, 329.369
1049.149, 366.565
1050.394, 395.313
1051.639, 176.959
1052.884, 335.710
1054.128, 181.462
1055.372, 171.215
1056.616, 234.970
1057.860, 57.819
1059.104, 220.832
1060.347, 110.601
1061.590, 46.637
1062.833, 143.410
1064.076, 93.195
1065.319, 85.461
1066.561, 187.245
1067.803, 11.032
1069.046, 176.873
1070.287, 114.662
1071.529, 126.703
1072.771, 230.502
1074.012, 123.305
1075.253, 102.109
1076.494, 207.914
1077.735, 122.910
1078.975, 258.729
1080.216, 151.547
1081.456, 194.528
1082.696, 340.354
1083.936, 245.182
1085.175, 312.027
1086.415, 363.870
1087.654, 215.718
1088.893, 286.564
1090.132, 125.416
1091.371, 175.737
1092.609, 200.590
1093.847, 52.449
1095.085, 157.725
1096.323, 151.584
1097.561, 48.456
1098.799, 128.317
1100.036, 9.181
1101.273, 62.609
1102.510, 85.472
1103.747, 53.663
1104.983, 128.179
1106.220, 34.021
1107.456, 9.136
1108.692, 130.752
1109.928, 14.593
1111.163, 35.671
1112.399, 9.512
1113.634, 0.352
1114.869, 138.490
1116.104, 42.331
1117.339, 4.172
1118.573, 58.012
1119.808, 22.851
1121.042, 88.025
1122.276, 110.863
1123.509, 175.700
1124.743, 266.725
1125.976, 166.560
1127.210, 132.588
1128.443, 193.633
1129.675, 16.464
1130.908, 166.037
1132.141, 144.868
1133.373, 131.697
1134.605, 265.724
1135.837, 245.550
1137.068, 191.521
1138.300, 214.442
1139.531, 65.265
1140.762, 138.181
1141.993, 146.125
1143.224, 15.059
1144.455, 158.883
1145.685, 5.311
1146.915, 2.536
1148.145, 78.853
1149.375, 38.652
1150.605, 141.542
1151.834, 61.336
1153.063, 23.872
1154.292, 149.826
1155.521, 42.601
1156.750, 28.372
1157.978, 103.680
1159.207, 45.445
1160.435, 145.393
1161.663, 33.322
1162.891, 28.924
1164.118, 132.815
1165.345, 20.715
1166.573, 37.440
1167.800, 118.268
1169.026, 20.994
1170.253, 90.716
1171.480, 41.466
1172.706, 30.179
1173.932, 112.888
1175.158, 5.405
1176.383, 86.292
1177.609, 181.302
1178.834, 5.993
1180.059, 197.678
1181.284, 140.552
1182.509, 181.231
1183.734, 386.007
1184.958, 269.129
1186.182, 361.794
1187.406, 251.672
1188.630, 128.327
1189.854, 104.977
1191.077, 58.156
1192.301, 87.794
1193.524, 158.428
1194.747, 59.636
1195.969, 126.951
1197.192, 110.727
1198.414, 7.696
1199.636, 138.868
1200.858, 66.489
1202.080, 72.040
1203.302, 133.585
1204.523, 37.306
1205.744, 105.838
1206.966, 172.673
1208.186, 7.479
1209.407, 146.995
1210.628, 64.277
1211.848, 69.780
1213.068, 212.334
1214.288, 67.511
1215.508, 171.001
1216.727, 145.496
1217.947, 9.311
1219.166, 227.160
1220.385, 76.491
1221.604, 100.949
1222.822, 199.400
1224.041, 31.491
1225.259, 170.927
1226.477, 136.356
1227.695, 22.292
1228.913, 155.704
1230.130, 93.150
1231.348, 80.013
1232.565, 229.403
1233.782, 81.237
1234.999, 139.615
1236.215, 196.987
1237.432, 11.446
1238.648, 177.805
1239.864, 116.160
1241.080, 14.749
1242.296, 222.090
1243.511, 82.427
1244.726, 104.063
1245.942, 220.389
1247.156, 9.893
1248.371, 267.205
1249.586, 119.513
1250.800, 123.112
1252.014, 256.409
1253.228, 112.699
1254.442, 75.009
1255.656, 270.278
1256.869, 32.542
1258.083, 240.799
1259.296, 230.050
1260.509, 26.830
1261.722, 203.067
1262.934, 149.299
1264.147, 133.605
1265.359, 205.812
1266.571, 25.012
1267.783, 173.194
1268.994, 206.345
1270.206, 46.490
1271.417, 224.625
1272.628, 45.755
1273.839, 41.876
1275.050, 252.992
1276.260, 9.900
1277.471, 127.488
1278.681, 259.568
1279.891, 46.642
1281.101, 229.708
1282.310, 59.763
1283.520, 71.784
1284.729, 263.831
1285.938, 72.834
1287.147, 65.821
1288.356, 149.800
1289.564, 64.129
1290.773, 223.094
1291.981, 85.819
1293.189, 21.333
1294.397, 131.690
1295.604, 74.582
1296.812, 154.460
1298.019, 205.332
1299.226, 12.103
1300.433, 136.767
1301.640, 127.564
1302.846, 53.655
1304.053, 152.140
1305.259, 52.852
1306.465, 56.550
1307.671, 110.225
1308.876, 95.081
1310.082, 55.748
1311.287, 175.333
1312.492, 70.973
1313.697, 174.606
1314.902, 148.152
1316.106, 88.764
1317.310, 138.364
1318.515, 97.907
1319.719, 147.479
1320.922, 179.603
1322.126, 2.849
1323.329, 131.683
1324.533, 100.044
1325.736, 51.555
1326.939, 149.054
1328.141, 72.539
1329.344, 22.011
1330.546, 194.563
1331.748, 48.990
1332.950, 118.429
1334.152, 116.836
1335.354, 17.231
1336.555, 209.612
1337.757, 124.980
1338.958, 2.661
1340.159, 207.550
1341.359, 46.880
1342.560, 105.201
1343.760, 268.617
1344.960, 76.921
1346.160, 112.216
1347.360, 115.616
1348.560, 48.895
1349.759, 198.073
1350.959, 20.665
1352.158, 33.581
1353.357, 250.554
1354.555, 12.217
1355.754, 140.996
1356.952, 79.206
1358.151, 7.411
1359.349, 156.610
1360.546, 114.229
1361.744, 10.578
1362.941, 211.356
1364.139, 2.621
1365.336, 126.794
1366.533, 226.970
1367.730, 25.854
1368.926, 113.137
1370.123, 151.200
1371.319, 7.757
1372.515, 148.017
1373.711, 81.225
1374.906, 38.812
1376.102, 218.039
1377.297, 18.812
1378.492, 178.617
1379.687, 244.939
1380.882, 68.722
1382.077, 225.061
1383.271, 105.803
1384.465, 38.950
1385.659, 295.674
1386.853, 135.413
1388.047, 32.089
1389.240, 263.546
1390.434, 48.250
1391.627, 170.607
1392.820, 286.280
1394.013, 88.563
1395.205, 243.210
1396.398, 209.631
1397.590, 36.782
1398.782, 187.340
1399.974, 107.916
1401.166, 100.242
1402.357, 268.498
1403.549, 14.918
1404.740, 165.289
1405.931, 143.645
1407.122, 61.922
1408.313, 217.271
1409.503, 143.729
1410.693, 88.684
1411.883, 305.116
1413.073, 86.219
1414.263, 111.329
1415.453, 289.442
1416.642, 109.637
1417.831, 188.970
1419.020, 199.248
1420.209, 27.567
1421.398, 257.977
1422.587, 136.266
1423.775, 118.269
1424.963, 247.710
1426.151, 135.545
1427.339, 68.713
1428.526, 179.039
1429.714, 80.110
1430.901, 202.968
1432.088, 195.131
1433.275, 82.192
1434.462, 296.049
1435.648, 120.292
1436.835, 44.899
1438.021, 238.886
1439.207, 91.622
1440.393, 135.615
1441.579, 294.486
1442.764, 54.815
1443.949, 177.735
1445.135, 250.550
1446.320, 47.416
1447.504, 265.245
1448.689, 154.966
1449.873, 104.546
1451.058, 323.903
1452.242, 149.897
1453.426, 114.354
1454.609, 358.097
1455.793, 80.046
1456.976, 186.313
1458.159, 279.565
1459.342, 114.130
1460.525, 272.312
1461.708, 283.037
1462.890, 71.085
1464.073, 359.844
1465.255, 116.861
1466.437, 194.981
1467.619, 431.054
1468.800, 96.071
1469.982, 245.175
1471.163, 350.085
1472.344, 15.939
1473.525, 327.796
1474.706, 265.739
1475.886, 56.649
1477.066, 368.492
1478.247, 157.998
1479.427, 174.927
1480.607, 356.857
1481.786, 43.746
1482.966, 201.693
1484.145, 294.072
1485.324, 129.452
1486.503, 217.840
1487.682, 214.255
1488.860, 7.684
1490.039, 295.150
1491.217, 208.704
1492.395, 55.308
1493.573, 291.954
1494.751, 129.674
1495.928, 96.918
1497.106, 304.798
1498.283, 35.779
1499.460, 154.905
1500.637, 213.172
1501.814, 17.409
1502.990, 188.140
1504.166, 212.758
1505.342, 20.550
1506.518, 236.530
1507.694, 141.757
1508.870, 104.271
1510.045, 298.076
1511.221, 78.024
1512.396, 128.074
1513.571, 225.034
1514.745, 0.506
1515.920, 170.727
1517.094, 189.492
1518.269, 0.000
##END=



