##NAMES=Creedite
##RRUFFID=R050141
##IDEAL CHEMISTRY=Ca_3_Al_2_(S^6+^O_4_)(OH)_2_F_8_&#183;2H_2_O
##LOCALITY=Mina de Navidad, Rodeo, Durango, Mexico
##OWNER=RRUFF
##SOURCE=Dave Bunk Minerals
##DESCRIPTION=Radiating group of bladed crystals
##STATUS=The identification of this mineral has been confirmed by X-ray diffraction and chemical analysis
##URL=rruff.info/R050141
##MEASURED CHEMISTRY=Ca_3.00_Al_2.00_(S_1.00_O_4_)(OH)_2_(F_7.31_(OH)_0.69_)_Σ=8_·2H_2_O ; OH estimated by stoichiometry and charge balance OH=10-F
##PIN_ID=L00115
##ORIENTATION=Laser parallel to -b* (0 -1 0). Fiducial mark perpendicular to laser is parallel to c [0 0 1]
80.872, 0.000
82.270, 228.601
83.667, 70.316
85.064, 300.074
86.461, 10.026
87.858, 165.115
89.254, 257.823
90.650, 172.596
92.046, 489.078
93.442, 58.010
94.838, 509.176
96.233, 258.371
97.628, 488.454
99.023, 310.345
100.418, 269.897
101.812, 575.117
103.206, 152.979
104.600, 491.365
105.994, 268.262
107.387, 357.575
108.781, 496.200
110.174, 493.065
111.566, 942.134
112.959, 664.432
114.351, 1099.479
115.744, 547.621
117.136, 619.782
118.527, 472.918
119.919, 398.386
121.310, 667.627
122.701, 396.489
124.092, 880.513
125.482, 734.282
126.873, 1100.978
128.263, 959.155
129.653, 789.766
131.042, 968.153
132.432, 592.466
133.821, 896.514
135.210, 476.308
136.599, 610.962
137.987, 432.510
139.376, 302.846
140.764, 518.160
142.152, 163.970
143.539, 540.687
144.927, 316.438
146.314, 615.362
147.701, 666.306
149.088, 795.960
150.474, 1064.577
151.861, 891.990
153.247, 1271.259
154.633, 825.393
156.018, 875.397
157.404, 566.762
158.789, 356.121
160.174, 621.147
161.559, 190.766
162.943, 640.775
164.327, 341.509
165.711, 702.536
167.095, 735.134
168.479, 758.298
169.862, 1106.461
171.246, 911.626
172.628, 1611.336
174.011, 1406.403
175.394, 1572.843
176.776, 1464.462
178.158, 1188.227
179.540, 1382.733
180.922, 955.077
182.303, 1243.243
183.684, 928.646
185.065, 1275.458
186.446, 1438.900
187.826, 1740.362
189.207, 2395.847
190.587, 2622.550
191.967, 3354.081
193.346, 3029.760
194.726, 2561.211
196.105, 2110.676
197.484, 1308.152
198.862, 1153.418
200.241, 525.417
201.619, 680.769
202.997, 392.525
204.375, 328.576
205.753, 359.638
207.130, 61.683
208.507, 406.685
209.884, 43.305
211.261, 242.712
212.638, 161.734
214.014, 147.761
215.390, 301.791
216.766, 53.823
218.141, 429.860
219.517, 44.901
220.892, 305.946
222.267, 248.994
223.642, 310.045
225.016, 497.098
226.391, 246.152
227.765, 470.202
229.139, 161.201
230.512, 278.205
231.886, 156.209
233.259, 51.216
234.632, 199.227
236.005, 122.754
237.377, 200.273
238.749, 89.689
240.122, 54.359
241.493, 60.376
242.865, 91.665
244.237, 223.276
245.608, 127.827
246.979, 192.951
248.350, 3.651
249.720, 68.338
251.090, 245.547
252.461, 33.606
253.830, 418.984
255.200, 111.427
256.570, 372.924
257.939, 221.468
259.308, 163.051
260.677, 214.667
262.045, 79.688
263.414, 272.955
264.782, 92.383
266.150, 38.269
267.517, 85.933
268.885, 102.393
270.252, 136.259
271.619, 154.083
272.986, 184.533
274.353, 33.152
275.719, 71.771
277.085, 198.391
278.451, 35.990
279.817, 321.610
281.182, 35.794
282.548, 365.784
283.913, 182.356
285.278, 172.922
286.642, 434.479
288.007, 16.022
289.371, 512.552
290.735, 115.070
292.099, 276.575
293.462, 232.066
294.826, 71.542
296.189, 364.002
297.552, 26.552
298.914, 375.869
300.277, 61.278
301.639, 202.674
303.001, 283.060
304.363, 39.563
305.724, 427.791
307.086, 71.131
308.447, 355.459
309.808, 292.770
311.168, 128.012
312.529, 413.244
313.889, 16.535
315.249, 292.666
316.609, 76.139
317.969, 27.970
319.328, 36.185
320.687, 217.667
322.046, 272.417
323.405, 135.588
324.764, 299.305
326.122, 214.195
327.480, 148.023
328.838, 388.774
330.196, 86.485
331.553, 455.232
332.910, 90.954
334.267, 314.679
335.624, 351.407
336.981, 134.094
338.337, 569.730
339.693, 150.318
341.049, 540.833
342.405, 317.354
343.760, 417.882
345.116, 686.395
346.471, 348.891
347.826, 964.395
349.180, 565.905
350.535, 812.421
351.889, 779.945
353.243, 484.476
354.597, 815.999
355.950, 277.527
357.304, 553.043
358.657, 308.567
360.010, 276.097
361.362, 565.636
362.715, 223.170
364.067, 807.669
365.419, 374.094
366.771, 691.477
368.123, 693.871
369.474, 474.273
370.825, 979.229
372.176, 527.628
373.527, 909.669
374.877, 557.121
376.228, 567.583
377.578, 837.055
378.928, 330.597
380.277, 905.781
381.627, 411.392
382.976, 696.577
384.325, 576.206
385.674, 426.904
387.023, 990.610
388.371, 459.386
389.719, 1049.173
391.067, 877.970
392.415, 867.841
393.762, 1204.721
395.110, 660.656
396.457, 1238.379
397.804, 858.336
399.150, 923.104
400.497, 1057.151
401.843, 663.182
403.189, 1139.130
404.535, 487.120
405.881, 936.298
407.226, 703.526
408.571, 520.598
409.916, 989.867
411.261, 461.795
412.605, 962.064
413.950, 559.417
415.294, 674.585
416.638, 794.993
417.981, 429.405
419.325, 1031.872
420.668, 449.343
422.011, 912.824
423.354, 822.310
424.697, 773.931
426.039, 1308.465
427.381, 806.371
428.723, 1540.736
430.065, 1321.280
431.406, 1612.609
432.748, 2231.179
434.089, 2103.320
435.430, 3494.896
436.770, 4009.287
438.111, 6036.843
439.451, 8161.429
440.791, 9603.071
442.131, 9951.382
443.471, 10369.354
444.810, 9163.945
446.149, 7248.548
447.488, 5433.151
448.827, 4927.756
450.166, 3317.120
451.504, 3521.732
452.842, 2455.347
454.180, 2204.964
455.518, 2321.585
456.855, 1512.204
458.193, 2034.830
459.530, 1465.326
460.867, 1494.958
462.203, 1580.554
463.540, 951.192
464.876, 1542.416
466.212, 824.201
467.548, 1233.847
468.883, 1025.497
470.219, 701.149
471.554, 1258.025
472.889, 518.685
474.224, 1261.347
475.558, 847.741
476.892, 1067.411
478.227, 1458.706
479.561, 1195.461
480.894, 2073.031
482.228, 1733.933
483.561, 2408.624
484.894, 2402.905
486.227, 1859.606
487.559, 2368.311
488.892, 1364.021
490.224, 1517.737
491.556, 1306.118
492.888, 800.845
494.220, 1239.577
495.551, 406.313
496.882, 1046.078
498.213, 565.849
499.544, 473.625
500.874, 835.405
502.205, 90.192
503.535, 765.985
504.865, 195.782
506.194, 355.584
507.524, 653.393
508.853, 83.207
510.182, 814.025
511.511, 198.848
512.840, 474.677
514.168, 562.511
515.496, 89.349
516.824, 722.191
518.152, 68.040
519.480, 543.892
520.807, 427.748
522.134, 126.609
523.461, 753.474
524.788, 34.594
526.114, 548.469
527.441, 385.619
528.767, 286.502
530.093, 607.390
531.418, 11.084
532.744, 631.981
534.069, 182.515
535.394, 369.622
536.719, 715.554
538.044, 182.438
539.368, 855.376
540.693, 248.864
542.017, 547.809
543.340, 715.757
544.664, 235.047
545.987, 1099.997
547.311, 369.683
548.634, 793.216
549.956, 742.163
551.279, 425.931
552.601, 1130.875
553.923, 281.041
555.245, 848.631
556.567, 555.568
557.889, 252.744
559.210, 809.715
560.531, 200.857
561.852, 709.041
563.173, 504.228
564.493, 301.211
565.813, 936.243
567.133, 188.924
568.453, 792.519
569.773, 447.568
571.092, 377.325
572.412, 917.366
573.731, 146.308
575.049, 767.967
576.368, 356.982
577.686, 464.041
579.005, 747.036
580.323, 180.472
581.640, 853.485
582.958, 371.449
584.275, 726.448
585.593, 805.416
586.909, 447.617
588.226, 1032.687
589.543, 476.649
590.859, 1092.207
592.175, 1244.177
593.491, 1013.266
594.807, 1955.257
596.122, 1675.236
597.438, 2700.567
598.753, 3481.521
600.068, 3895.478
601.382, 5400.485
602.697, 5005.492
604.011, 5540.489
605.325, 4625.470
606.639, 3332.439
607.952, 3139.396
609.266, 1824.339
610.579, 1776.269
611.892, 1160.186
613.205, 730.089
614.518, 1072.978
615.830, 364.854
617.142, 849.715
618.454, 337.573
619.766, 290.417
621.078, 611.248
622.389, 25.064
623.700, 541.860
625.011, 229.655
626.322, 188.436
627.632, 632.202
628.943, 101.954
630.253, 665.793
631.563, 255.513
632.872, 296.218
634.182, 513.080
635.491, 32.761
636.800, 621.845
638.109, 230.523
639.418, 348.187
640.726, 728.403
642.035, 124.095
643.343, 909.807
644.651, 466.503
645.958, 663.184
647.266, 1041.070
648.573, 483.719
649.880, 1184.377
651.187, 669.018
652.494, 993.642
653.800, 1191.377
655.106, 826.969
656.412, 1715.544
657.718, 1384.103
659.024, 1770.644
660.329, 2369.169
661.634, 2015.677
662.939, 3001.167
664.244, 2472.642
665.549, 2736.098
666.853, 2653.538
668.157, 1795.960
669.461, 2312.364
670.765, 1345.752
672.069, 1447.122
673.372, 1329.475
674.675, 675.810
675.978, 1203.127
677.281, 527.427
678.583, 724.708
679.886, 704.972
681.188, 134.218
682.490, 630.443
683.792, 130.651
685.093, 318.838
686.394, 361.006
687.696, 20.157
688.997, 496.271
690.297, 73.634
691.598, 157.375
692.898, 303.364
694.198, 173.667
695.498, 400.164
696.798, 134.848
698.097, 272.845
699.397, 215.518
700.696, 162.828
701.995, 471.692
703.293, 168.808
704.592, 75.555
705.890, 242.893
707.188, 185.788
708.486, 464.384
709.784, 112.463
711.081, 67.581
712.378, 241.600
713.675, 208.399
714.972, 350.442
716.269, 159.736
717.565, 155.954
718.862, 153.622
720.158, 217.626
721.453, 367.856
722.749, 37.681
724.045, 81.711
725.340, 320.079
726.635, 198.573
727.930, 372.620
729.224, 11.206
730.519, 23.088
731.813, 404.968
733.107, 141.995
734.401, 473.918
735.694, 30.812
736.988, 185.674
738.281, 446.516
739.574, 111.661
740.867, 557.056
742.160, 138.755
743.452, 166.434
744.744, 511.093
746.036, 27.266
747.328, 580.316
748.620, 163.879
749.911, 310.424
751.202, 627.951
752.493, 93.460
753.784, 701.951
755.075, 451.424
756.365, 361.846
757.655, 933.284
758.945, 360.703
760.235, 1049.111
761.525, 771.500
762.814, 718.873
764.103, 1278.228
765.392, 664.566
766.681, 1158.887
767.969, 1024.190
769.258, 675.477
770.546, 1208.748
771.834, 582.001
773.122, 1049.239
774.409, 853.461
775.697, 573.667
776.984, 1108.857
778.271, 346.448
779.558, 703.608
780.844, 665.751
782.131, 243.880
783.417, 803.993
784.703, 134.873
785.989, 605.956
787.274, 543.023
788.560, 116.077
789.845, 741.115
791.130, 56.547
792.415, 332.553
793.699, 460.544
794.983, 33.522
796.268, 725.479
797.552, 169.260
798.835, 438.190
800.119, 705.108
801.402, 87.011
802.686, 762.899
803.969, 258.774
805.251, 254.636
806.534, 577.485
807.816, 55.680
809.098, 580.096
810.380, 352.859
811.662, 414.609
812.944, 907.348
814.225, 397.109
815.506, 1089.858
816.787, 785.596
818.068, 569.322
819.349, 1113.037
820.629, 517.739
821.909, 909.430
823.189, 912.110
824.469, 529.779
825.749, 1160.437
827.028, 472.083
828.307, 832.720
829.586, 847.346
830.865, 328.962
832.144, 1074.567
833.422, 336.162
834.700, 525.747
835.978, 780.072
837.256, 130.638
838.534, 980.921
839.811, 307.468
841.088, 483.005
842.365, 834.733
843.642, 111.252
844.919, 669.155
846.195, 355.479
847.472, 235.974
848.748, 593.513
850.023, 13.992
851.299, 643.918
852.575, 328.383
853.850, 175.842
855.125, 755.954
856.400, 115.403
857.674, 684.111
858.949, 553.968
860.223, 74.405
861.497, 900.021
862.771, 92.453
864.045, 495.661
865.318, 975.473
866.591, 157.934
867.864, 921.154
869.137, 258.622
870.410, 474.914
871.682, 794.208
872.955, 138.503
874.227, 967.962
875.499, 303.412
876.770, 242.208
878.042, 1031.127
879.313, 157.589
880.584, 871.346
881.855, 572.820
883.126, 267.390
884.396, 1017.240
885.667, 190.776
886.937, 671.264
888.207, 616.814
889.476, 175.920
890.746, 953.447
892.015, 224.029
893.284, 550.600
894.553, 783.199
895.822, 36.653
897.090, 933.237
898.359, 342.930
899.627, 452.058
900.895, 872.772
902.163, 147.426
903.430, 896.177
904.698, 390.938
905.965, 127.598
907.232, 597.385
908.499, 341.814
909.765, 440.867
911.032, 520.560
912.298, 143.452
913.564, 1161.225
914.830, 180.010
916.095, 692.812
917.361, 944.627
918.626, 192.455
919.891, 1082.296
921.156, 335.149
922.420, 486.044
923.685, 973.951
924.949, 131.874
926.213, 1053.882
927.477, 576.904
928.740, 356.942
930.004, 1122.995
931.267, 214.066
932.530, 1090.151
933.793, 651.252
935.056, 312.367
936.318, 1214.499
937.581, 368.541
938.843, 843.703
940.104, 1078.881
941.366, 147.910
942.628, 1230.122
943.889, 500.950
945.150, 721.195
946.411, 1348.477
947.672, 283.266
948.932, 1135.668
950.193, 841.998
951.453, 456.343
952.713, 1317.704
953.973, 337.860
955.232, 1013.253
956.491, 990.664
957.751, 512.089
959.010, 1354.531
960.268, 688.860
961.527, 948.332
962.785, 1324.819
964.044, 420.320
965.302, 1531.958
966.559, 992.488
967.817, 949.032
969.075, 1992.589
970.332, 872.161
971.589, 1845.746
972.846, 1766.344
974.102, 1374.956
975.359, 2860.581
976.615, 2162.217
977.871, 2863.867
979.127, 3925.529
980.383, 3787.205
981.638, 6248.893
982.893, 8240.592
984.149, 11822.306
985.404, 21034.027
986.658, 30235.764
987.913, 41757.512
989.167, 42739.266
990.421, 31641.041
991.675, 22832.824
992.929, 13854.618
994.183, 9526.435
995.436, 6958.262
996.689, 4100.136
997.942, 4102.023
999.195, 2823.921
1000.448, 2255.891
1001.700, 2757.707
1002.952, 1192.771
1004.204, 1961.857
1005.456, 1572.966
1006.708, 913.155
1007.959, 1928.368
1009.210, 737.663
1010.461, 1162.984
1011.712, 1503.328
1012.963, 484.759
1014.213, 1600.214
1015.464, 743.975
1016.714, 776.525
1017.964, 1416.133
1019.214, 332.088
1020.463, 1314.779
1021.712, 1044.043
1022.962, 404.841
1024.210, 1436.559
1025.459, 384.221
1026.708, 919.164
1027.956, 1115.157
1029.204, 126.175
1030.452, 1293.217
1031.700, 481.947
1032.948, 405.100
1034.195, 1260.295
1035.442, 148.483
1036.689, 962.749
1037.936, 946.092
1039.183, 421.457
1040.429, 1420.854
1041.676, 581.951
1042.922, 816.396
1044.168, 1263.907
1045.413, 314.585
1046.659, 1153.146
1047.904, 730.701
1049.149, 443.309
1050.394, 1329.960
1051.639, 184.889
1052.884, 834.588
1054.128, 852.311
1055.372, 22.112
1056.616, 805.657
1057.860, 41.487
1059.104, 99.279
1060.347, 845.062
1061.590, 65.094
1062.833, 924.732
1064.076, 755.582
1065.319, 112.588
1066.561, 1318.488
1067.803, 224.413
1069.046, 667.364
1070.287, 951.342
1071.529, 39.575
1072.771, 1127.605
1074.012, 597.662
1075.253, 263.802
1076.494, 1216.914
1077.735, 111.340
1078.975, 846.507
1080.216, 902.701
1081.456, 122.020
1082.696, 1285.199
1083.936, 354.404
1085.175, 466.620
1086.415, 1203.826
1087.654, 18.046
1088.893, 878.293
1090.132, 636.564
1091.371, 139.171
1092.609, 1189.375
1093.847, 154.604
1095.085, 506.752
1096.323, 1105.004
1097.561, 6.893
1098.799, 962.214
1100.036, 614.338
1101.273, 224.684
1102.510, 995.781
1103.747, 135.894
1104.983, 668.268
1106.220, 732.219
1107.456, 5.157
1108.692, 1028.104
1109.928, 341.079
1111.163, 351.951
1112.399, 1013.529
1113.634, 163.911
1114.869, 617.850
1116.104, 802.333
1117.339, 130.795
1118.573, 1157.233
1119.808, 389.645
1121.042, 710.019
1122.276, 1447.244
1123.509, 615.432
1124.743, 1573.580
1125.976, 1726.680
1127.210, 1179.724
1128.443, 2553.021
1129.675, 1735.970
1130.908, 2708.877
1132.141, 3951.742
1133.373, 3724.568
1134.605, 5687.356
1135.837, 6450.108
1137.068, 5912.830
1138.300, 6835.527
1139.531, 4718.184
1140.762, 4120.820
1141.993, 3833.447
1143.224, 1896.072
1144.455, 2619.127
1145.685, 1701.788
1146.915, 934.349
1148.145, 1756.845
1149.375, 546.909
1150.605, 957.023
1151.834, 1042.185
1153.063, 134.394
1154.292, 1052.649
1155.521, 481.952
1156.750, 422.231
1157.978, 1038.547
1159.207, 176.881
1160.435, 708.265
1161.663, 733.707
1162.891, 111.812
1164.118, 845.708
1165.345, 81.263
1166.573, 12.242
1167.800, 832.290
1169.026, 44.151
1170.253, 545.431
1171.480, 694.906
1172.706, 4.400
1173.932, 939.907
1175.158, 213.426
1176.383, 296.660
1177.609, 846.307
1178.834, 22.563
1180.059, 615.200
1181.284, 504.852
1182.509, 130.466
1183.734, 893.209
1184.958, 196.876
1186.182, 406.374
1187.406, 899.892
1188.630, 10.429
1189.854, 559.987
1191.077, 523.567
1192.301, 183.831
1193.524, 701.790
1194.747, 44.435
1195.969, 310.040
1197.192, 884.535
1198.414, 1.811
1199.636, 604.871
1200.858, 701.579
1202.080, 72.320
1203.302, 873.099
1204.523, 171.717
1205.744, 239.407
1206.966, 697.147
1208.186, 150.061
1209.407, 612.792
1210.628, 674.710
1211.848, 72.696
1213.068, 986.758
1214.288, 344.900
1215.508, 451.131
1216.727, 1035.458
1217.947, 26.115
1219.166, 658.418
1220.385, 549.053
1221.604, 192.194
1222.822, 838.619
1224.041, 195.472
1225.259, 369.360
1226.477, 1189.290
1227.695, 256.257
1228.913, 847.094
1230.130, 853.750
1231.348, 363.518
1232.565, 1175.979
1233.782, 590.766
1234.999, 471.326
1236.215, 1303.912
1237.432, 218.003
1238.648, 789.494
1239.864, 995.541
1241.080, 14.582
1242.296, 1022.902
1243.511, 498.093
1244.726, 285.119
1245.942, 1124.870
1247.156, 194.441
1248.371, 741.107
1249.586, 1025.111
1250.800, 203.495
1252.014, 1058.601
1253.228, 597.340
1254.442, 409.741
1255.656, 1161.852
1256.869, 329.219
1258.083, 580.708
1259.296, 897.162
1260.509, 86.048
1261.722, 790.005
1262.934, 665.906
1264.147, 231.364
1265.359, 1245.866
1266.571, 348.220
1267.783, 544.378
1268.994, 1066.402
1270.206, 108.236
1271.417, 857.660
1272.628, 695.421
1273.839, 5.850
1275.050, 1184.783
1276.260, 346.041
1277.471, 296.620
1278.681, 1108.645
1279.891, 59.990
1281.101, 802.216
1282.310, 715.768
1283.520, 100.091
1284.729, 1090.785
1285.938, 226.768
1287.147, 44.032
1288.356, 992.964
1289.564, 5.645
1290.773, 829.465
1291.981, 885.823
1293.189, 0.000
##END=



