##NAMES=Creedite
##RRUFFID=R050141
##IDEAL CHEMISTRY=Ca_3_Al_2_(S^6+^O_4_)(OH)_2_F_8_&#183;2H_2_O
##LOCALITY=Mina de Navidad, Rodeo, Durango, Mexico
##OWNER=RRUFF
##SOURCE=Dave Bunk Minerals
##DESCRIPTION=Radiating group of bladed crystals
##STATUS=The identification of this mineral has been confirmed by X-ray diffraction and chemical analysis
##URL=rruff.info/R050141
##MEASURED CHEMISTRY=Ca_3.00_Al_2.00_(S_1.00_O_4_)(OH)_2_(F_7.31_(OH)_0.69_)_Σ=8_·2H_2_O ; OH estimated by stoichiometry and charge balance OH=10-F
##PIN_ID=L00203
##ORIENTATION=Laser parallel to c* (0 0 1). Fiducial mark perpendicular to laser is parallel to -a [-1 0 0]
103.206, 0.000
104.600, 111.554
105.994, 2.341
107.387, 134.521
108.781, 199.641
110.174, 490.882
111.566, 442.742
112.959, 384.383
114.351, 403.905
115.744, 228.028
117.136, 535.351
118.527, 521.752
119.919, 413.558
121.310, 323.534
122.701, 402.349
124.092, 647.484
125.482, 772.085
126.873, 1055.824
128.263, 1063.074
129.653, 2028.051
131.042, 2514.953
132.432, 3115.531
133.821, 2883.283
135.210, 1639.812
136.599, 1142.026
137.987, 623.997
139.376, 559.365
140.764, 417.806
142.152, 333.246
143.539, 317.157
144.927, 265.405
146.314, 236.722
147.701, 128.623
149.088, 152.992
150.474, 106.763
151.861, 116.984
153.247, 160.743
154.633, 33.157
156.018, 139.187
157.404, 87.064
158.789, 3.436
160.174, 15.675
161.559, 80.648
162.943, 38.349
164.327, 31.936
165.711, 169.817
167.095, 136.442
168.479, 300.124
169.862, 316.729
171.246, 397.776
172.628, 627.235
174.011, 540.283
175.394, 601.775
176.776, 388.772
178.158, 507.402
179.540, 439.966
180.922, 371.055
182.303, 481.952
183.684, 489.892
185.065, 827.587
186.446, 931.445
187.826, 1474.474
189.207, 1836.416
190.587, 2428.531
191.967, 3095.261
193.346, 2235.087
194.726, 1963.493
196.105, 1191.465
197.484, 928.138
198.862, 674.443
200.241, 524.936
201.619, 557.002
202.997, 384.354
204.375, 473.761
205.753, 363.643
207.130, 402.834
208.507, 382.174
209.884, 393.966
211.261, 458.709
212.638, 504.655
214.014, 734.448
215.390, 853.593
216.766, 890.387
218.141, 913.272
219.517, 623.777
220.892, 590.812
222.267, 377.154
223.642, 343.488
225.016, 239.618
226.391, 196.462
227.765, 163.286
229.139, 18.263
230.512, 12.304
231.886, 7.141
233.259, 55.168
234.632, 13.772
236.005, 13.943
237.377, 3.965
238.749, 12.908
240.122, 1.886
241.493, 12.897
242.865, 10.056
244.237, 6.859
245.608, 4.356
246.979, 38.328
248.350, 3.389
249.720, 76.225
251.090, 20.917
252.461, 30.872
253.830, 51.356
255.200, 45.754
256.570, 74.076
257.939, 35.585
259.308, 6.866
260.677, 58.414
262.045, 58.756
263.414, 42.961
264.782, 49.690
266.150, 3.791
267.517, 42.894
268.885, 23.331
270.252, 65.082
271.619, 9.969
272.986, 67.473
274.353, 5.826
275.719, 32.077
277.085, 16.215
278.451, 26.233
279.817, 108.132
281.182, 100.912
282.548, 205.558
283.913, 111.058
285.278, 249.417
286.642, 253.648
288.007, 298.761
289.371, 295.763
290.735, 320.640
292.099, 381.381
293.462, 210.999
294.826, 290.469
296.189, 192.591
297.552, 194.570
298.914, 201.344
300.277, 145.037
301.639, 200.669
303.001, 151.239
304.363, 175.743
305.724, 163.182
307.086, 81.554
308.447, 99.858
309.808, 84.090
311.168, 95.153
312.529, 60.680
313.889, 17.229
315.249, 91.428
316.609, 38.637
317.969, 49.996
319.328, 28.134
320.687, 29.268
322.046, 26.685
323.405, 6.713
324.764, 45.182
326.122, 21.624
327.480, 39.484
328.838, 36.098
330.196, 16.924
331.553, 33.486
332.910, 13.597
334.267, 67.617
335.624, 46.528
336.981, 62.334
338.337, 49.052
339.693, 14.697
341.049, 116.275
342.405, 427.771
343.760, 170.216
345.116, 43.585
346.471, 120.858
347.826, 127.020
349.180, 84.096
350.535, 150.098
351.889, 75.010
353.243, 112.877
354.597, 112.701
355.950, 44.485
357.304, 129.239
358.657, 98.963
360.010, 150.665
361.362, 106.347
362.715, 168.003
364.067, 206.637
365.419, 218.244
366.771, 352.825
368.123, 312.380
369.474, 478.889
370.825, 445.385
372.176, 445.850
373.527, 511.283
374.877, 344.698
376.228, 417.078
377.578, 319.428
378.928, 257.749
380.277, 243.041
381.627, 175.316
382.976, 208.562
384.325, 145.794
385.674, 196.999
387.023, 203.153
388.371, 175.878
389.719, 217.408
391.067, 143.804
392.415, 209.707
393.762, 171.444
395.110, 145.156
396.457, 212.684
397.804, 140.525
399.150, 255.392
400.497, 204.419
401.843, 313.923
403.189, 334.148
404.535, 272.712
405.881, 333.585
407.226, 181.594
408.571, 221.316
409.916, 145.710
411.261, 126.494
412.605, 139.273
413.950, 69.664
415.294, 107.992
416.638, 42.569
417.981, 130.098
419.325, 91.966
420.668, 25.473
422.011, 129.479
423.354, 75.698
424.697, 136.838
426.039, 109.999
427.381, 99.770
428.723, 107.457
430.065, 74.726
431.406, 201.022
432.748, 153.866
434.089, 204.160
435.430, 282.791
436.770, 239.748
438.111, 408.026
439.451, 394.080
440.791, 530.234
442.131, 657.993
443.471, 627.693
444.810, 857.806
446.149, 747.496
447.488, 1020.740
448.827, 1062.979
450.166, 1043.382
451.504, 1237.750
452.842, 889.114
454.180, 1106.456
455.518, 1052.403
456.855, 1129.663
458.193, 1459.495
459.530, 1434.319
460.867, 1937.377
462.203, 1734.962
463.540, 1735.766
464.876, 1623.347
466.212, 1347.017
467.548, 1447.619
468.883, 1148.867
470.219, 1290.178
471.554, 1212.410
472.889, 1190.676
474.224, 1555.740
475.558, 1455.436
476.892, 2061.659
478.227, 2290.525
479.561, 2915.489
480.894, 3854.272
482.228, 3867.063
483.561, 5287.913
484.894, 4372.611
486.227, 4086.644
487.559, 3595.480
488.892, 2396.472
490.224, 2271.478
491.556, 1503.321
492.888, 1358.313
494.220, 1140.137
495.551, 811.320
496.882, 853.411
498.213, 557.563
499.544, 631.657
500.874, 525.583
502.205, 467.949
503.535, 545.908
504.865, 336.095
506.194, 451.148
507.524, 424.716
508.853, 379.170
510.182, 414.442
511.511, 339.071
512.840, 507.251
514.168, 352.691
515.496, 467.029
516.824, 527.083
518.152, 445.491
519.480, 749.774
520.807, 631.274
522.134, 768.590
523.461, 942.168
524.788, 911.909
526.114, 1296.703
527.441, 1166.529
528.767, 1623.350
530.093, 1613.180
531.418, 1651.094
532.744, 1988.904
534.069, 1503.844
535.394, 1788.645
536.719, 1473.784
538.044, 1286.776
539.368, 1199.564
540.693, 820.840
542.017, 942.477
543.340, 693.768
544.664, 579.295
545.987, 620.028
547.311, 387.539
548.634, 522.249
549.956, 346.283
551.279, 418.060
552.601, 379.838
553.923, 223.052
555.245, 297.715
556.567, 203.465
557.889, 189.196
559.210, 148.114
560.531, 105.964
561.852, 217.793
563.173, 51.721
564.493, 118.473
565.813, 97.327
567.133, 85.978
568.453, 80.914
569.773, 23.713
571.092, 79.927
572.412, 8.387
573.731, 90.122
575.049, 134.289
576.368, 143.041
577.686, 11.878
579.005, 61.716
580.323, 38.803
581.640, 13.276
582.958, 48.662
584.275, 124.647
585.593, 61.564
586.909, 75.594
588.226, 111.552
589.543, 46.408
590.859, 115.452
592.175, 181.518
593.491, 255.702
594.807, 275.776
596.122, 323.855
597.438, 600.941
598.753, 623.030
600.068, 926.123
601.382, 1042.217
602.697, 934.311
604.011, 1055.403
605.325, 594.498
606.639, 506.589
607.952, 396.686
609.266, 154.780
610.579, 236.871
611.892, 130.961
613.205, 109.048
614.518, 87.146
615.830, 32.241
617.142, 129.336
618.454, 6.568
619.766, 160.525
621.078, 94.620
622.389, 75.714
623.700, 247.809
625.011, 197.909
626.322, 484.010
627.632, 620.115
628.943, 889.221
630.253, 1126.365
631.563, 807.476
632.872, 746.598
634.182, 436.716
635.491, 296.836
636.800, 310.259
638.109, 155.387
639.418, 250.522
640.726, 181.657
642.035, 190.796
643.343, 221.679
644.651, 167.824
645.958, 207.973
647.266, 152.257
648.573, 128.411
649.880, 186.080
651.187, 49.240
652.494, 185.705
653.800, 36.366
655.106, 115.534
656.412, 70.990
657.718, 11.162
659.024, 71.336
660.329, 26.560
661.634, 15.267
662.939, 56.900
664.244, 27.930
665.549, 20.229
666.853, 20.389
668.157, 1.549
669.461, 91.166
670.765, 10.326
672.069, 157.487
673.372, 49.648
674.675, 116.811
675.978, 182.052
677.281, 62.216
678.583, 190.380
679.886, 116.512
681.188, 83.677
682.490, 117.646
683.792, 37.808
685.093, 99.968
686.394, 35.080
687.696, 14.237
688.997, 87.391
690.297, 55.457
691.598, 68.666
692.898, 4.181
694.198, 0.064
695.498, 72.048
696.798, 43.812
698.097, 45.274
699.397, 43.640
700.696, 36.421
701.995, 77.482
703.293, 78.459
704.592, 24.558
705.890, 70.415
707.188, 20.439
708.486, 35.525
709.784, 6.513
711.081, 20.442
712.378, 13.404
713.675, 9.538
714.972, 13.478
716.269, 31.255
717.565, 42.661
718.862, 20.575
720.158, 28.514
721.453, 89.377
722.749, 8.185
724.045, 26.694
725.340, 45.330
726.635, 0.499
727.930, 71.368
729.224, 3.885
730.519, 36.971
731.813, 77.824
733.107, 51.705
734.401, 78.458
735.694, 25.951
736.988, 49.796
738.281, 77.553
739.574, 58.928
740.867, 156.765
742.160, 19.598
743.452, 125.427
744.744, 127.253
746.036, 101.076
747.328, 180.895
748.620, 20.709
749.911, 183.519
751.202, 147.325
752.493, 156.201
753.784, 254.999
755.075, 157.792
756.365, 305.582
757.655, 192.366
758.945, 216.147
760.235, 272.924
761.525, 234.696
762.814, 297.691
764.103, 313.457
765.392, 271.218
766.681, 355.976
767.969, 244.728
769.258, 304.806
770.546, 341.551
771.834, 243.290
773.122, 298.025
774.409, 203.534
775.697, 186.261
776.984, 196.983
778.271, 78.701
779.558, 170.477
780.844, 79.186
782.131, 145.003
783.417, 126.703
784.703, 42.398
785.989, 140.089
787.274, 48.775
788.560, 69.457
789.845, 75.134
791.130, 5.194
792.415, 64.462
793.699, 49.114
794.983, 77.760
796.268, 116.403
797.552, 5.040
798.835, 102.666
800.119, 67.289
801.402, 22.907
802.686, 110.520
803.969, 23.872
805.251, 57.709
806.534, 16.285
807.816, 10.854
809.098, 107.413
810.380, 16.967
811.662, 140.513
812.944, 60.963
814.225, 36.500
815.506, 160.004
816.787, 79.929
818.068, 87.452
819.349, 102.775
820.629, 61.232
821.909, 134.685
823.189, 11.053
824.469, 113.547
825.749, 116.938
827.028, 95.423
828.307, 121.904
829.586, 26.380
830.865, 44.851
832.144, 84.317
833.422, 0.779
834.700, 121.227
835.978, 3.671
837.256, 44.102
838.534, 64.529
839.811, 0.952
841.088, 55.351
842.365, 88.657
843.642, 55.057
844.919, 77.319
846.195, 31.711
847.472, 57.756
848.748, 68.939
850.023, 31.318
851.299, 89.200
852.575, 67.571
853.850, 87.422
855.125, 95.775
856.400, 64.135
857.674, 92.741
858.949, 25.033
860.223, 44.107
861.497, 63.201
862.771, 36.529
864.045, 100.327
865.318, 29.414
866.591, 50.943
867.864, 74.123
869.137, 15.683
870.410, 78.579
871.682, 31.871
872.955, 36.070
874.227, 122.452
875.499, 4.263
876.770, 65.227
878.042, 8.564
879.313, 35.299
880.584, 69.472
881.855, 29.713
883.126, 39.288
884.396, 91.490
885.667, 5.725
886.937, 94.957
888.207, 24.812
889.476, 45.316
890.746, 129.528
892.015, 23.262
893.284, 79.933
894.553, 47.126
895.822, 35.201
897.090, 57.390
898.359, 62.578
899.627, 114.765
900.895, 86.950
902.163, 64.023
903.430, 125.206
904.698, 16.613
905.965, 59.557
907.232, 73.725
908.499, 21.893
909.765, 69.059
911.032, 32.224
912.298, 57.387
913.564, 114.550
914.830, 20.286
916.095, 133.221
917.361, 48.373
918.626, 57.528
919.891, 107.682
921.156, 39.166
922.420, 69.967
923.685, 51.097
924.949, 20.228
926.213, 108.357
927.477, 30.486
928.740, 73.623
930.004, 113.760
931.267, 19.105
932.530, 132.020
933.793, 1.855
935.056, 88.267
936.318, 140.389
937.581, 55.474
938.843, 144.595
940.104, 79.707
941.366, 15.826
942.628, 126.947
943.889, 31.767
945.150, 160.886
946.411, 129.000
947.672, 88.119
948.932, 178.240
950.193, 98.619
951.453, 188.158
952.713, 224.279
953.973, 88.267
955.232, 260.387
956.491, 133.997
957.751, 241.118
959.010, 281.945
960.268, 209.578
961.527, 314.711
962.785, 277.555
964.044, 286.686
965.302, 440.817
966.559, 405.899
967.817, 553.031
969.075, 581.167
970.332, 491.304
971.589, 764.447
972.846, 660.593
974.102, 924.740
975.359, 1304.430
976.615, 1307.587
977.871, 1948.745
979.127, 2117.904
980.383, 2937.063
981.638, 4401.147
982.893, 5609.311
984.149, 10367.476
985.404, 17033.676
986.658, 25870.846
987.913, 37997.215
989.167, 27784.381
990.421, 19111.555
991.675, 11607.780
992.929, 5982.960
994.183, 4732.144
995.436, 2935.328
996.689, 2117.529
997.942, 1915.700
999.195, 1195.907
1000.448, 1265.132
1001.700, 1039.330
1002.952, 731.570
1004.204, 810.812
1005.456, 510.067
1006.708, 548.330
1007.959, 508.594
1009.210, 255.880
1010.461, 421.172
1011.712, 323.497
1012.963, 244.830
1014.213, 342.165
1015.464, 184.504
1016.714, 226.644
1017.964, 221.992
1019.214, 146.342
1020.463, 286.385
1021.712, 168.771
1022.962, 169.158
1024.210, 248.547
1025.459, 122.947
1026.708, 222.801
1027.956, 129.210
1029.204, 121.860
1030.452, 185.927
1031.700, 146.352
1032.948, 193.780
1034.195, 186.214
1035.442, 88.651
1036.689, 248.060
1037.936, 111.502
1039.183, 142.301
1040.429, 186.753
1041.676, 72.208
1042.922, 171.130
1044.168, 106.601
1045.413, 25.074
1046.659, 235.550
1047.904, 73.112
1049.149, 137.604
1050.394, 129.112
1051.639, 26.718
1052.884, 132.231
1054.128, 43.756
1055.372, 61.200
1056.616, 65.720
1057.860, 34.259
1059.104, 18.786
1060.347, 19.315
1061.590, 14.913
1062.833, 68.448
1064.076, 37.653
1065.319, 19.034
1066.561, 105.504
1067.803, 16.156
1069.046, 83.702
1070.287, 110.250
1071.529, 5.567
1072.771, 157.127
1074.012, 19.735
1075.253, 103.301
1076.494, 108.868
1077.735, 18.305
1078.975, 122.883
1080.216, 99.463
1081.456, 116.054
1082.696, 209.652
1083.936, 147.142
1085.175, 217.749
1086.415, 220.358
1087.654, 164.972
1088.893, 256.588
1090.132, 93.207
1091.371, 176.954
1092.609, 117.578
1093.847, 19.209
1095.085, 115.900
1096.323, 4.536
1097.561, 1.251
1098.799, 95.926
1100.036, 21.428
1101.273, 19.398
1102.510, 50.046
1103.747, 23.697
1104.983, 118.350
1106.220, 24.016
1107.456, 25.304
1108.692, 157.979
1109.928, 0.658
1111.163, 117.413
1112.399, 146.097
1113.634, 75.783
1114.869, 233.471
1116.104, 164.162
1117.339, 185.853
1118.573, 355.554
1119.808, 306.257
1121.042, 516.382
1122.276, 531.087
1123.509, 622.794
1124.743, 934.159
1125.976, 975.871
1127.210, 1123.649
1128.443, 1455.364
1129.675, 1363.080
1130.908, 2171.270
1132.141, 2517.000
1133.373, 3233.731
1134.605, 4836.925
1135.837, 4555.663
1137.068, 5066.548
1138.300, 4483.390
1139.531, 2835.135
1140.762, 2704.618
1141.993, 1821.367
1143.224, 1121.117
1144.455, 1240.286
1145.685, 676.036
1146.915, 637.859
1148.145, 587.374
1149.375, 319.125
1150.605, 439.024
1151.834, 261.776
1153.063, 157.527
1154.292, 315.630
1155.521, 129.380
1156.750, 212.213
1157.978, 174.695
1159.207, 106.443
1160.435, 169.329
1161.663, 149.114
1162.891, 61.859
1164.118, 175.603
1165.345, 55.355
1166.573, 112.106
1167.800, 131.928
1169.026, 43.683
1170.253, 135.435
1171.480, 61.186
1172.706, 85.934
1173.932, 170.879
1175.158, 123.626
1176.383, 150.371
1177.609, 217.679
1178.834, 148.434
1180.059, 354.410
1181.284, 387.247
1182.509, 538.994
1183.734, 832.781
1184.958, 650.739
1186.182, 796.479
1187.406, 509.332
1188.630, 282.103
1189.854, 222.892
1191.077, 134.241
1192.301, 148.980
1193.524, 179.799
1194.747, 4.199
1195.969, 144.927
1197.192, 42.557
1198.414, 2.277
1199.636, 102.993
1200.858, 23.756
1202.080, 45.464
1203.302, 131.174
1204.523, 24.292
1205.744, 59.994
1206.966, 105.702
1208.186, 13.521
1209.407, 93.210
1210.628, 10.993
1211.848, 51.682
1213.068, 49.068
1214.288, 17.735
1215.508, 117.923
1216.727, 97.585
1217.947, 12.858
1219.166, 116.521
1220.385, 24.238
1221.604, 62.893
1222.822, 124.544
1224.041, 27.542
1225.259, 90.084
1226.477, 91.706
1227.695, 27.264
1228.913, 98.881
1230.130, 78.313
1231.348, 59.187
1232.565, 131.798
1233.782, 72.002
1234.999, 107.610
1236.215, 122.217
1237.432, 15.927
1238.648, 138.530
1239.864, 88.130
1241.080, 33.729
1242.296, 131.318
1243.511, 29.905
1244.726, 40.489
1245.942, 157.072
1247.156, 9.595
1248.371, 149.174
1249.586, 65.748
1250.800, 66.358
1252.014, 140.918
1253.228, 18.523
1254.442, 104.749
1255.656, 154.290
1256.869, 35.824
1258.083, 217.359
1259.296, 60.886
1260.509, 110.469
1261.722, 111.989
1262.934, 62.484
1264.147, 101.597
1265.359, 142.077
1266.571, 3.554
1267.783, 127.003
1268.994, 103.448
1270.206, 16.111
1271.417, 187.320
1272.628, 44.716
1273.839, 81.242
1275.050, 155.628
1276.260, 4.010
1277.471, 137.127
1278.681, 134.487
1279.891, 6.841
1281.101, 167.187
1282.310, 31.521
1283.520, 41.832
1284.729, 146.136
1285.938, 1.417
1287.147, 106.668
1288.356, 78.914
1289.564, 10.154
1290.773, 168.383
1291.981, 50.606
1293.189, 46.177
1294.397, 187.093
1295.604, 33.277
1296.812, 70.441
1298.019, 87.599
1299.226, 7.249
1300.433, 112.879
1301.640, 49.977
1302.846, 44.940
1304.053, 114.117
1305.259, 37.162
1306.465, 61.198
1307.671, 103.226
1308.876, 113.246
1310.082, 92.259
1311.287, 89.260
1312.492, 65.748
1313.697, 83.214
1314.902, 122.160
1316.106, 79.097
1317.310, 140.024
1318.515, 29.942
1319.719, 78.831
1320.922, 110.709
1322.126, 9.420
1323.329, 143.433
1324.533, 27.276
1325.736, 51.108
1326.939, 99.895
1328.141, 61.672
1329.344, 28.438
1330.546, 151.193
1331.748, 2.061
1332.950, 64.670
1334.152, 59.392
1335.354, 25.898
1336.555, 112.791
1337.757, 51.471
1338.958, 26.859
1340.159, 169.721
1341.359, 30.637
1342.560, 72.985
1343.760, 124.502
1344.960, 59.107
1346.160, 115.695
1347.360, 71.285
1348.560, 14.868
1349.759, 193.429
1350.959, 67.999
1352.158, 40.565
1353.357, 205.063
1354.555, 43.624
1355.754, 143.516
1356.952, 54.075
1358.151, 9.638
1359.349, 226.094
1360.546, 131.381
1361.744, 10.045
1362.941, 222.443
1364.139, 56.031
1365.336, 99.589
1366.533, 173.211
1367.730, 4.305
1368.926, 121.307
1370.123, 108.763
1371.319, 31.797
1372.515, 73.584
1373.711, 2.089
1374.906, 23.383
1376.102, 160.667
1377.297, 7.942
1378.492, 164.080
1379.687, 122.281
1380.882, 44.453
1382.077, 164.663
1383.271, 140.708
1384.465, 85.940
1385.659, 206.395
1386.853, 126.589
1388.047, 101.694
1389.240, 75.872
1390.434, 20.044
1391.627, 126.192
1392.820, 220.846
1394.013, 59.048
1395.205, 191.076
1396.398, 124.171
1397.590, 6.680
1398.782, 179.174
1399.974, 80.036
1401.166, 96.939
1402.357, 178.040
1403.549, 56.516
1404.740, 182.418
1405.931, 88.544
1407.122, 9.720
1408.313, 161.416
1409.503, 128.202
1410.693, 63.052
1411.883, 194.638
1413.073, 136.458
1414.263, 122.272
1415.453, 260.909
1416.642, 27.629
1417.831, 106.057
1419.020, 187.764
1420.209, 32.852
1421.398, 176.350
1422.587, 88.943
1423.775, 111.265
1424.963, 223.133
1426.151, 110.545
1427.339, 76.973
1428.526, 194.192
1429.714, 66.900
1430.901, 118.243
1432.088, 172.663
1433.275, 60.367
1434.462, 208.531
1435.648, 151.725
1436.835, 23.002
1438.021, 205.439
1439.207, 97.802
1440.393, 164.995
1441.579, 254.284
1442.764, 53.119
1443.949, 204.573
1445.135, 187.085
1446.320, 100.647
1447.504, 277.458
1448.689, 161.216
1449.873, 93.149
1451.058, 317.053
1452.242, 176.924
1453.426, 179.919
1454.609, 293.676
1455.793, 97.312
1456.976, 188.258
1458.159, 311.881
1459.342, 101.458
1460.525, 240.840
1461.708, 249.164
1462.890, 140.637
1464.073, 327.165
1465.255, 97.633
1466.437, 138.824
1467.619, 254.342
1468.800, 90.544
1469.982, 232.804
1471.163, 231.103
1472.344, 37.454
1473.525, 234.942
1474.706, 183.386
1475.886, 41.791
1477.066, 285.875
1478.247, 140.285
1479.427, 111.678
1480.607, 222.290
1481.786, 49.939
1482.966, 122.595
1484.145, 171.229
1485.324, 63.882
1486.503, 138.570
1487.682, 191.299
1488.860, 40.149
1490.039, 201.130
1491.217, 185.164
1492.395, 115.476
1493.573, 216.122
1494.751, 108.907
1495.928, 59.849
1497.106, 189.002
1498.283, 81.380
1499.460, 134.000
1500.637, 177.919
1501.814, 26.798
1502.990, 190.916
1504.166, 188.138
1505.342, 85.920
1506.518, 185.374
1507.694, 89.657
1508.870, 149.632
1510.045, 290.001
1511.221, 34.403
1512.396, 118.624
1513.571, 206.776
1514.745, 0.000
##END=



