##NAMES=Creedite
##RRUFFID=R050141
##IDEAL CHEMISTRY=Ca_3_Al_2_(S^6+^O_4_)(OH)_2_F_8_&#183;2H_2_O
##LOCALITY=Mina de Navidad, Rodeo, Durango, Mexico
##OWNER=RRUFF
##SOURCE=Dave Bunk Minerals
##DESCRIPTION=Radiating group of bladed crystals
##STATUS=The identification of this mineral has been confirmed by X-ray diffraction and chemical analysis
##URL=rruff.info/R050141
##MEASURED CHEMISTRY=Ca_3.00_Al_2.00_(S_1.00_O_4_)(OH)_2_(F_7.31_(OH)_0.69_)_Σ=8_·2H_2_O ; OH estimated by stoichiometry and charge balance OH=10-F
##PIN_ID=L00115
##ORIENTATION=Laser parallel to -b* (0 -1 0). Fiducial mark perpendicular to laser is parallel to c [0 0 1]
99.023, 0.000
100.418, 42.054
101.812, 19.454
103.206, 18.132
104.600, 105.195
105.994, 32.183
107.387, 164.232
108.781, 152.999
110.174, 292.059
111.566, 505.016
112.959, 396.720
114.351, 328.058
115.744, 137.948
117.136, 187.316
118.527, 81.408
119.919, 133.414
121.310, 57.764
122.701, 104.421
124.092, 158.336
125.482, 131.475
126.873, 200.820
128.263, 135.379
129.653, 172.151
131.042, 116.106
132.432, 80.229
133.821, 122.488
135.210, 4.849
136.599, 97.366
137.987, 20.986
139.376, 95.704
140.764, 41.476
142.152, 60.367
143.539, 75.407
144.927, 22.475
146.314, 131.542
147.701, 68.600
149.088, 169.660
150.474, 166.782
151.861, 178.899
153.247, 247.106
154.633, 147.527
156.018, 110.142
157.404, 54.035
158.789, 107.987
160.174, 62.869
161.559, 52.792
162.943, 99.644
164.327, 73.431
165.711, 125.691
167.095, 121.360
168.479, 194.977
169.862, 186.544
171.246, 250.072
172.628, 326.556
174.011, 285.836
175.394, 385.164
176.776, 246.454
178.158, 293.716
179.540, 225.951
180.922, 235.156
182.303, 230.985
183.684, 216.082
185.065, 342.828
186.446, 352.864
187.826, 485.555
189.207, 572.482
190.587, 638.615
191.967, 734.604
193.346, 668.506
194.726, 562.403
196.105, 374.333
197.484, 317.221
198.862, 205.771
200.241, 93.804
201.619, 144.640
202.997, 26.471
204.375, 96.983
205.753, 3.197
207.130, 66.226
208.507, 87.116
209.884, 7.974
211.261, 51.052
212.638, 14.172
214.014, 115.995
215.390, 50.616
216.766, 64.770
218.141, 117.162
219.517, 24.573
220.892, 116.967
222.267, 57.130
223.642, 147.416
225.016, 88.703
226.391, 97.021
227.765, 154.351
229.139, 33.678
230.512, 96.378
231.886, 1.244
233.259, 62.108
234.632, 22.465
236.005, 17.822
237.377, 94.182
238.749, 32.536
240.122, 90.881
241.493, 32.459
242.865, 68.959
244.237, 74.274
245.608, 41.580
246.979, 55.877
248.350, 24.837
249.720, 122.440
251.090, 97.707
252.461, 70.967
253.830, 137.231
255.200, 59.905
256.570, 163.141
257.939, 36.622
259.308, 99.266
260.677, 59.463
262.045, 87.745
263.414, 30.926
264.782, 17.058
266.150, 83.147
267.517, 3.527
268.885, 17.882
270.252, 0.643
271.619, 20.118
272.986, 65.441
274.353, 8.966
275.719, 104.649
277.085, 33.288
278.451, 64.946
279.817, 125.620
281.182, 6.309
282.548, 153.008
283.913, 9.706
285.278, 101.412
286.642, 105.124
288.007, 64.842
289.371, 126.564
290.735, 19.290
292.099, 128.016
293.462, 46.744
294.826, 118.472
296.189, 86.199
297.552, 4.924
298.914, 68.644
300.277, 9.638
301.639, 128.070
303.001, 77.476
304.363, 140.193
305.724, 89.887
307.086, 6.575
308.447, 94.255
309.808, 1.071
311.168, 41.591
312.529, 55.248
313.889, 30.103
315.249, 46.528
316.609, 39.848
317.969, 46.754
319.328, 29.653
320.687, 19.080
322.046, 18.472
323.405, 66.988
324.764, 46.521
326.122, 42.982
327.480, 53.490
328.838, 10.049
330.196, 59.608
331.553, 50.803
332.910, 9.205
334.267, 54.595
335.624, 34.976
336.981, 106.348
338.337, 32.717
339.693, 36.055
341.049, 112.384
342.405, 39.294
343.760, 96.005
345.116, 56.219
346.471, 99.490
347.826, 187.815
349.180, 95.827
350.535, 142.055
351.889, 61.925
353.243, 135.131
354.597, 147.488
355.950, 67.678
357.304, 185.861
358.657, 29.305
360.010, 106.474
361.362, 64.686
362.715, 83.837
364.067, 143.319
365.419, 105.602
366.771, 266.883
368.123, 101.924
369.474, 170.022
370.825, 206.095
372.176, 116.003
373.527, 216.023
374.877, 118.167
376.228, 236.128
377.578, 87.060
378.928, 88.948
380.277, 157.828
381.627, 39.789
382.976, 190.671
384.325, 44.549
385.674, 156.401
387.023, 166.247
388.371, 127.091
389.719, 187.929
391.067, 115.763
392.415, 291.592
393.762, 173.414
395.110, 216.024
396.457, 301.842
397.804, 109.655
399.150, 252.462
400.497, 179.265
401.843, 176.092
403.189, 177.891
404.535, 170.118
405.881, 217.906
407.226, 31.688
408.571, 158.476
409.916, 99.259
411.261, 98.286
412.605, 138.059
413.950, 37.828
415.294, 197.591
416.638, 29.350
417.981, 173.099
419.325, 184.845
420.668, 58.584
422.011, 258.317
423.354, 90.045
424.697, 191.857
426.039, 164.576
427.381, 182.945
428.723, 376.657
430.065, 301.846
431.406, 429.548
432.748, 473.881
434.089, 619.970
435.430, 998.655
436.770, 1156.400
438.111, 1836.072
439.451, 2189.738
440.791, 2691.398
442.131, 2640.050
443.471, 2260.578
444.810, 1968.217
446.149, 1386.805
447.488, 1137.431
448.827, 930.050
450.166, 682.663
451.504, 674.268
452.842, 467.845
454.180, 484.437
455.518, 344.022
456.855, 302.600
458.193, 370.171
459.530, 236.331
460.867, 394.951
462.203, 274.171
463.540, 248.716
464.876, 325.254
466.212, 170.786
467.548, 266.311
468.883, 131.391
470.219, 222.904
471.554, 176.502
472.889, 124.010
474.224, 296.510
475.558, 203.223
476.892, 258.711
478.227, 233.765
479.561, 302.250
480.894, 381.908
482.228, 276.208
483.561, 591.489
484.894, 318.741
486.227, 386.214
487.559, 430.949
488.892, 236.411
490.224, 306.176
491.556, 156.812
492.888, 202.259
494.220, 158.098
495.551, 79.536
496.882, 228.904
498.213, 46.332
499.544, 109.687
500.874, 97.048
502.205, 80.473
503.535, 156.252
504.865, 39.333
506.194, 124.050
507.524, 32.431
508.853, 5.193
510.182, 106.172
511.511, 51.468
512.840, 133.851
514.168, 10.171
515.496, 67.486
516.824, 144.797
518.152, 13.896
519.480, 237.105
520.807, 26.608
522.134, 50.637
523.461, 142.899
524.788, 4.844
526.114, 129.403
527.441, 9.342
528.767, 126.888
530.093, 73.122
531.418, 8.649
532.744, 159.569
534.069, 10.860
535.394, 163.071
536.719, 50.278
538.044, 84.482
539.368, 215.683
540.693, 30.217
542.017, 175.203
543.340, 126.490
544.664, 63.527
545.987, 167.713
547.311, 59.122
548.634, 233.302
549.956, 111.479
551.279, 109.752
552.601, 187.923
553.923, 49.276
555.245, 213.444
556.567, 50.654
557.889, 103.816
559.210, 131.975
560.531, 41.638
561.852, 241.792
563.173, 18.056
564.493, 127.136
565.813, 118.277
567.133, 88.889
568.453, 185.039
569.773, 73.185
571.092, 240.336
572.412, 156.485
573.731, 90.495
575.049, 171.639
576.368, 89.355
577.686, 192.494
579.005, 120.629
580.323, 103.752
581.640, 174.883
582.958, 25.010
584.275, 273.271
585.593, 162.392
586.909, 509.612
588.226, 402.795
589.543, 228.855
590.859, 349.975
592.175, 278.094
593.491, 379.400
594.807, 455.520
596.122, 399.642
597.438, 761.855
598.753, 812.979
600.068, 1102.100
601.382, 1204.219
602.697, 1156.336
604.011, 1296.465
605.325, 947.590
606.639, 1100.714
607.952, 678.844
609.266, 427.971
610.579, 490.097
611.892, 177.219
613.205, 338.339
614.518, 252.476
615.830, 129.610
617.142, 264.741
618.454, 27.874
619.766, 258.002
621.078, 140.135
622.389, 105.266
623.700, 242.432
625.011, 112.558
626.322, 242.804
627.632, 228.937
628.943, 152.066
630.253, 265.080
631.563, 58.227
632.872, 278.393
634.182, 158.547
635.491, 127.699
636.800, 261.072
638.109, 70.247
639.418, 252.431
640.726, 157.742
642.035, 168.932
643.343, 296.921
644.651, 148.128
645.958, 403.350
647.266, 258.568
648.573, 284.792
649.880, 326.255
651.187, 158.495
652.494, 435.734
653.800, 278.971
655.106, 332.206
656.412, 413.909
657.718, 289.139
659.024, 520.366
660.329, 490.591
661.634, 466.829
662.939, 647.194
664.244, 488.426
665.549, 679.591
666.853, 486.054
668.157, 448.280
669.461, 543.846
670.765, 326.067
672.069, 429.127
673.372, 239.344
674.675, 238.560
675.978, 329.505
677.281, 150.716
678.583, 302.875
679.886, 151.188
681.188, 169.394
682.490, 246.936
683.792, 40.138
685.093, 252.408
686.394, 67.046
687.696, 116.243
688.997, 123.573
690.297, 24.941
691.598, 175.985
692.898, 49.209
694.198, 58.395
695.498, 214.579
696.798, 52.136
698.097, 208.943
699.397, 21.093
700.696, 47.241
701.995, 192.387
703.293, 1.406
704.592, 178.734
705.890, 61.872
707.188, 21.008
708.486, 188.141
709.784, 17.689
711.081, 114.429
712.378, 33.631
713.675, 63.751
714.972, 139.870
716.269, 22.672
717.565, 148.406
718.862, 84.505
720.158, 33.931
721.453, 218.025
722.749, 42.634
724.045, 176.434
725.340, 68.499
726.635, 114.827
727.930, 221.888
729.224, 21.156
730.519, 152.213
731.813, 98.267
733.107, 56.499
734.401, 186.551
735.694, 29.600
736.988, 183.647
738.281, 61.692
739.574, 16.746
740.867, 184.785
742.160, 26.874
743.452, 225.907
744.744, 142.938
746.036, 87.081
747.328, 251.107
748.620, 6.131
749.911, 255.152
751.202, 151.170
752.493, 30.799
753.784, 283.812
755.075, 51.822
756.365, 252.067
757.655, 203.073
758.945, 124.156
760.235, 325.156
761.525, 130.154
762.814, 274.196
764.103, 337.188
765.392, 139.222
766.681, 410.208
767.969, 200.193
769.258, 334.577
770.546, 264.556
771.834, 152.530
773.122, 299.657
774.409, 168.564
775.697, 253.564
776.984, 284.526
778.271, 52.486
779.558, 122.689
780.844, 32.641
782.131, 160.360
783.417, 202.315
784.703, 20.733
785.989, 253.279
787.274, 62.208
788.560, 100.132
789.845, 147.053
791.130, 24.029
792.415, 228.591
793.699, 128.483
794.983, 41.371
796.268, 166.326
797.552, 47.795
798.835, 234.206
800.119, 79.044
801.402, 77.879
802.686, 209.777
803.969, 17.605
805.251, 204.427
806.534, 89.245
807.816, 96.060
809.098, 219.869
810.380, 27.315
811.662, 267.475
812.944, 90.261
814.225, 116.047
815.506, 297.829
816.787, 58.605
818.068, 207.391
819.349, 219.172
820.629, 122.949
821.909, 332.726
823.189, 137.498
824.469, 226.283
825.749, 270.063
827.028, 154.839
828.307, 310.612
829.586, 135.380
830.865, 131.150
832.144, 250.916
833.422, 46.687
834.700, 289.453
835.978, 72.214
837.256, 79.975
838.534, 190.720
839.811, 10.523
841.088, 163.217
842.365, 133.952
843.642, 30.688
844.919, 182.341
846.195, 64.067
847.472, 200.790
848.748, 150.507
850.023, 48.221
851.299, 230.595
852.575, 80.301
853.850, 158.907
855.125, 115.604
856.400, 55.298
857.674, 219.761
858.949, 78.446
860.223, 128.127
861.497, 138.707
862.771, 61.380
864.045, 154.865
865.318, 51.963
866.591, 116.577
867.864, 226.234
869.137, 6.887
870.410, 190.027
871.682, 87.670
872.955, 17.692
874.227, 269.885
875.499, 41.367
876.770, 145.365
878.042, 144.952
879.313, 7.535
880.584, 136.412
881.855, 17.688
883.126, 92.142
884.396, 263.709
885.667, 25.273
886.937, 230.832
888.207, 74.391
889.476, 135.865
890.746, 244.417
892.015, 43.968
893.284, 256.378
894.553, 55.924
895.822, 76.373
897.090, 139.914
898.359, 41.457
899.627, 148.996
900.895, 72.531
902.163, 95.885
903.430, 211.413
904.698, 17.068
905.965, 127.353
907.232, 139.858
908.499, 12.480
909.765, 160.956
911.032, 40.571
912.298, 204.885
913.564, 214.319
914.830, 24.250
916.095, 187.168
917.361, 58.584
918.626, 118.155
919.891, 256.555
921.156, 62.068
922.420, 219.287
923.685, 120.640
924.949, 31.975
926.213, 177.306
927.477, 60.634
928.740, 185.958
930.004, 184.281
931.267, 9.562
932.530, 282.877
933.793, 20.933
935.056, 159.840
936.318, 259.139
937.581, 57.447
938.843, 338.829
940.104, 136.081
941.366, 138.483
942.628, 281.751
943.889, 37.192
945.150, 276.207
946.411, 133.454
947.672, 49.580
948.932, 306.823
950.193, 25.285
951.453, 251.523
952.713, 283.758
953.973, 46.992
955.232, 342.516
956.491, 121.524
957.751, 163.751
959.010, 252.977
960.268, 182.189
961.527, 310.822
962.785, 204.539
964.044, 115.746
965.302, 395.747
966.559, 175.950
967.817, 342.151
969.075, 425.299
970.332, 190.498
971.589, 525.729
972.846, 255.924
974.102, 365.117
975.359, 545.310
976.615, 378.500
977.871, 802.688
979.127, 804.875
980.383, 1028.061
981.638, 1591.245
982.893, 2041.426
984.149, 3480.607
985.404, 5869.684
986.658, 8762.862
987.913, 11006.041
989.167, 9569.219
990.421, 7092.398
991.675, 4784.138
992.929, 2793.319
994.183, 2066.501
995.436, 1305.480
996.689, 850.636
997.942, 949.756
999.195, 496.911
1000.448, 644.066
1001.700, 517.119
1002.952, 345.291
1004.204, 554.463
1005.456, 242.633
1006.708, 361.804
1007.959, 349.880
1009.210, 107.021
1010.461, 384.151
1011.712, 248.283
1012.963, 118.415
1014.213, 422.510
1015.464, 23.350
1016.714, 280.706
1017.964, 167.900
1019.214, 159.039
1020.463, 411.839
1021.712, 97.989
1022.962, 250.142
1024.210, 334.534
1025.459, 29.692
1026.708, 418.606
1027.956, 157.913
1029.204, 199.097
1030.452, 442.021
1031.700, 138.342
1032.948, 297.336
1034.195, 283.553
1035.442, 61.779
1036.689, 471.835
1037.936, 82.683
1039.183, 255.946
1040.429, 400.226
1041.676, 87.523
1042.922, 391.724
1044.168, 181.522
1045.413, 243.820
1046.659, 438.141
1047.904, 88.250
1049.149, 344.427
1050.394, 328.713
1051.639, 89.007
1052.884, 367.507
1054.128, 104.277
1055.372, 174.659
1056.616, 307.795
1057.860, 27.985
1059.104, 252.195
1060.347, 250.475
1061.590, 98.798
1062.833, 370.400
1064.076, 111.511
1065.319, 243.749
1066.561, 365.022
1067.803, 17.021
1069.046, 408.293
1070.287, 84.908
1071.529, 114.109
1072.771, 393.308
1074.012, 98.349
1075.253, 308.451
1076.494, 228.467
1077.735, 80.688
1078.975, 302.826
1080.216, 90.045
1081.456, 105.263
1082.696, 455.468
1083.936, 52.317
1085.175, 418.893
1086.415, 300.103
1087.654, 119.313
1088.893, 394.523
1090.132, 17.732
1091.371, 313.942
1092.609, 319.152
1093.847, 14.362
1095.085, 366.573
1096.323, 293.785
1097.561, 90.015
1098.799, 369.248
1100.036, 87.481
1101.273, 202.718
1102.510, 305.956
1103.747, 3.805
1104.983, 386.435
1106.220, 73.678
1107.456, 129.922
1108.692, 330.870
1109.928, 52.911
1111.163, 242.310
1112.399, 192.536
1113.634, 20.425
1114.869, 348.874
1116.104, 99.175
1117.339, 195.480
1118.573, 308.787
1119.808, 45.092
1121.042, 363.391
1122.276, 337.688
1123.509, 240.975
1124.743, 467.252
1125.976, 333.520
1127.210, 395.780
1128.443, 664.079
1129.675, 264.131
1130.908, 739.522
1132.141, 779.958
1133.373, 862.446
1134.605, 1372.587
1135.837, 1230.173
1137.068, 1361.817
1138.300, 1411.543
1139.531, 815.293
1140.762, 979.064
1141.993, 707.856
1143.224, 415.320
1144.455, 697.018
1145.685, 200.380
1146.915, 368.109
1148.145, 521.442
1149.375, 165.204
1150.605, 540.987
1151.834, 246.793
1153.063, 234.719
1154.292, 427.553
1155.521, 79.555
1156.750, 383.297
1157.978, 245.307
1159.207, 62.017
1160.435, 430.618
1161.663, 111.362
1162.891, 130.129
1164.118, 400.923
1165.345, 52.749
1166.573, 292.604
1167.800, 291.483
1169.026, 97.383
1170.253, 357.286
1171.480, 104.186
1172.706, 191.378
1173.932, 412.615
1175.158, 46.903
1176.383, 413.225
1177.609, 316.633
1178.834, 53.554
1180.059, 457.771
1181.284, 88.160
1182.509, 153.741
1183.734, 464.042
1184.958, 7.929
1186.182, 381.419
1187.406, 274.128
1188.630, 108.674
1189.854, 273.416
1191.077, 16.138
1192.301, 143.417
1193.524, 301.312
1194.747, 0.977
1195.969, 360.560
1197.192, 280.392
1198.414, 0.494
1199.636, 0.000
##END=



