##NAMES=Creedite
##RRUFFID=R050141
##IDEAL CHEMISTRY=Ca_3_Al_2_(S^6+^O_4_)(OH)_2_F_8_&#183;2H_2_O
##LOCALITY=Mina de Navidad, Rodeo, Durango, Mexico
##OWNER=RRUFF
##SOURCE=Dave Bunk Minerals
##DESCRIPTION=Radiating group of bladed crystals
##STATUS=The identification of this mineral has been confirmed by X-ray diffraction and chemical analysis
##URL=rruff.info/R050141
##MEASURED CHEMISTRY=Ca_3.00_Al_2.00_(S_1.00_O_4_)(OH)_2_(F_7.31_(OH)_0.69_)_Σ=8_·2H_2_O ; OH estimated by stoichiometry and charge balance OH=10-F
##PIN_ID=L00475
##ORIENTATION=Laser parallel to (1 0 1). Fiducial mark perpendicular to laser is parallel to b [0 1 0]
86.461, 0.000
87.858, 103.972
89.254, 3.408
90.650, 36.159
92.046, 18.219
93.442, 14.264
94.838, 113.330
96.233, 75.758
97.628, 106.092
99.023, 104.999
100.418, 83.223
101.812, 125.555
103.206, 150.832
104.600, 166.935
105.994, 201.760
107.387, 365.237
108.781, 367.284
110.174, 637.867
111.566, 642.111
112.959, 775.388
114.351, 725.198
115.744, 585.311
117.136, 574.705
118.527, 456.389
119.919, 648.362
121.310, 761.588
122.701, 994.030
124.092, 1295.656
125.482, 1730.574
126.873, 2377.688
128.263, 2799.928
129.653, 3752.279
131.042, 4493.774
132.432, 4929.693
133.821, 4589.753
135.210, 3309.839
136.599, 2257.930
137.987, 1478.026
139.376, 1049.129
140.764, 754.239
142.152, 540.356
143.539, 431.489
144.927, 338.696
146.314, 377.999
147.701, 323.570
149.088, 324.367
150.474, 247.449
151.861, 258.721
153.247, 245.963
154.633, 173.146
156.018, 174.274
157.404, 149.352
158.789, 121.382
160.174, 161.368
161.559, 144.314
162.943, 244.339
164.327, 240.612
165.711, 338.486
167.095, 346.370
168.479, 421.071
169.862, 449.413
171.246, 534.100
172.628, 695.776
174.011, 685.319
175.394, 759.068
176.776, 633.533
178.158, 608.694
179.540, 623.943
180.922, 720.414
182.303, 805.654
183.684, 955.900
185.065, 1394.153
186.446, 1796.414
187.826, 2558.683
189.207, 3149.960
190.587, 3950.246
191.967, 4343.540
193.346, 3928.843
194.726, 3213.155
196.105, 2417.473
197.484, 1742.802
198.862, 1250.137
200.241, 930.984
201.619, 788.540
202.997, 589.866
204.375, 568.700
205.753, 517.033
207.130, 523.619
208.507, 554.799
209.884, 648.352
211.261, 790.033
212.638, 992.892
214.014, 1135.551
215.390, 1292.689
216.766, 1370.978
218.141, 1341.339
219.517, 1016.195
220.892, 938.061
222.267, 692.937
223.642, 542.822
225.016, 449.717
226.391, 369.620
227.765, 279.532
229.139, 224.361
230.512, 159.378
231.886, 125.311
233.259, 68.249
234.632, 26.190
236.005, 52.135
237.377, 21.084
238.749, 27.963
240.122, 24.995
241.493, 4.042
242.865, 2.073
244.237, 8.100
245.608, 0.792
246.979, 22.844
248.350, 21.815
249.720, 1.790
251.090, 7.228
252.461, 25.147
253.830, 43.537
255.200, 0.084
256.570, 82.633
257.939, 0.532
259.308, 28.402
260.677, 7.419
262.045, 43.490
263.414, 32.654
264.782, 10.146
266.150, 51.900
267.517, 68.621
268.885, 3.681
270.252, 32.018
271.619, 19.387
272.986, 13.214
274.353, 64.207
275.719, 46.651
277.085, 79.118
278.451, 160.604
279.817, 170.107
281.182, 129.626
282.548, 358.162
283.913, 286.710
285.278, 407.271
286.642, 447.844
288.007, 431.426
289.371, 475.017
290.735, 459.616
292.099, 522.223
293.462, 438.835
294.826, 430.453
296.189, 387.076
297.552, 312.702
298.914, 332.331
300.277, 259.968
301.639, 286.608
303.001, 240.251
304.363, 179.896
305.724, 147.542
307.086, 101.192
308.447, 32.843
309.808, 32.497
311.168, 0.939
312.529, 46.804
313.889, 22.545
315.249, 23.098
316.609, 18.737
317.969, 46.374
319.328, 8.008
320.687, 0.717
322.046, 26.734
323.405, 37.117
324.764, 45.513
326.122, 34.923
327.480, 19.360
328.838, 20.192
330.196, 62.262
331.553, 18.264
332.910, 51.211
334.267, 46.705
335.624, 19.213
336.981, 43.729
338.337, 21.257
339.693, 65.812
341.049, 47.411
342.405, 22.053
343.760, 25.300
345.116, 12.348
346.471, 1.001
347.826, 83.351
349.180, 141.704
350.535, 85.058
351.889, 64.415
353.243, 120.772
354.597, 72.133
355.950, 71.496
357.304, 186.860
358.657, 139.227
360.010, 130.595
361.362, 146.964
362.715, 241.336
364.067, 345.707
365.419, 371.069
366.771, 484.433
368.123, 577.796
369.474, 698.134
370.825, 732.441
372.176, 751.742
373.527, 765.022
374.877, 650.267
376.228, 592.489
377.578, 557.681
378.928, 467.478
380.277, 358.015
381.627, 315.190
382.976, 300.372
384.325, 188.565
385.674, 237.775
387.023, 205.999
388.371, 128.235
389.719, 88.486
391.067, 182.750
392.415, 145.020
393.762, 167.293
395.110, 162.571
396.457, 190.720
397.804, 231.822
399.150, 279.501
400.497, 348.834
401.843, 417.736
403.189, 514.090
404.535, 453.232
405.881, 417.481
407.226, 332.466
408.571, 247.788
409.916, 286.189
411.261, 236.596
412.605, 129.004
413.950, 158.076
415.294, 156.500
416.638, 128.931
417.981, 174.327
419.325, 191.771
420.668, 161.165
422.011, 182.620
423.354, 141.079
424.697, 235.263
426.039, 188.730
427.381, 223.703
428.723, 288.379
430.065, 187.068
431.406, 316.550
432.748, 359.035
434.089, 448.522
435.430, 542.315
436.770, 675.759
438.111, 820.307
439.451, 958.807
440.791, 1165.309
442.131, 1246.814
443.471, 1384.321
444.810, 1593.831
446.149, 1716.344
447.488, 1953.858
448.827, 2100.374
450.166, 2071.894
451.504, 2171.415
452.842, 1848.938
454.180, 2066.463
455.518, 2057.990
456.855, 2283.520
458.193, 2559.051
459.530, 2807.585
460.867, 3150.662
462.203, 3215.199
463.540, 3073.738
464.876, 2957.279
466.212, 2638.822
467.548, 2588.367
468.883, 2365.914
470.219, 2298.463
471.554, 2408.014
472.889, 2456.219
474.224, 2850.774
475.558, 3142.793
476.892, 3825.360
478.227, 4599.929
479.561, 5708.501
480.894, 7035.040
482.228, 7691.291
483.561, 8101.086
484.894, 8500.105
486.227, 7723.705
487.559, 6957.917
488.892, 5383.037
490.224, 4383.625
491.556, 3440.194
492.888, 2744.794
494.220, 2352.030
495.551, 1901.528
496.882, 1688.632
498.213, 1399.297
499.544, 1329.279
500.874, 1160.601
502.205, 959.051
503.535, 1027.987
504.865, 882.294
506.194, 828.800
507.524, 837.338
508.853, 781.984
510.182, 814.634
511.511, 771.288
512.840, 900.946
514.168, 910.607
515.496, 867.273
516.824, 1026.943
518.152, 1080.616
519.480, 1215.293
520.807, 1259.974
522.134, 1486.659
523.461, 1722.354
524.788, 1892.054
526.114, 2189.757
527.441, 2409.472
528.767, 2826.191
530.093, 2945.914
531.418, 3128.643
532.744, 3279.374
534.069, 3048.109
535.394, 2899.850
536.719, 2693.595
538.044, 2263.354
539.368, 2052.117
540.693, 1681.747
542.017, 1565.882
543.340, 1272.159
544.664, 1061.578
545.987, 1114.732
547.311, 887.164
548.634, 916.489
549.956, 740.066
551.279, 633.078
552.601, 636.901
553.923, 510.729
555.245, 496.324
556.567, 378.020
557.889, 250.957
559.210, 274.798
560.531, 240.465
561.852, 150.324
563.173, 149.185
564.493, 77.868
565.813, 240.738
567.133, 102.769
568.453, 124.646
569.773, 143.526
571.092, 96.415
572.412, 101.304
573.731, 96.365
575.049, 92.270
576.368, 53.175
577.686, 98.096
579.005, 146.018
580.323, 141.959
581.640, 48.901
582.958, 56.845
584.275, 209.800
585.593, 94.756
586.909, 95.716
588.226, 172.698
589.543, 88.696
590.859, 139.704
592.175, 277.711
593.491, 244.721
594.807, 307.734
596.122, 482.748
597.438, 640.763
598.753, 796.779
600.068, 999.796
601.382, 1160.813
602.697, 1134.832
604.011, 1121.850
605.325, 887.869
606.639, 633.888
607.952, 535.908
609.266, 292.928
610.579, 258.949
611.892, 182.970
613.205, 147.991
614.518, 98.018
615.830, 14.044
617.142, 164.072
618.454, 32.901
619.766, 81.112
621.078, 90.125
622.389, 86.138
623.700, 216.151
625.011, 225.171
626.322, 299.191
627.632, 438.210
628.943, 560.229
630.253, 678.333
631.563, 648.354
632.872, 643.233
634.182, 466.261
635.491, 408.289
636.800, 426.314
638.109, 211.341
639.418, 275.540
640.726, 312.632
642.035, 234.667
643.343, 239.756
644.651, 235.814
645.958, 345.883
647.266, 247.957
648.573, 228.030
649.880, 214.217
651.187, 127.306
652.494, 206.475
653.800, 113.590
655.106, 120.711
656.412, 3.494
657.718, 45.634
659.024, 41.791
660.329, 58.961
661.634, 12.862
662.939, 46.306
664.244, 6.523
665.549, 54.645
666.853, 51.812
668.157, 14.978
669.461, 175.141
670.765, 111.303
672.069, 215.463
673.372, 179.621
674.675, 274.776
675.978, 255.930
677.281, 255.084
678.583, 285.235
679.886, 290.958
681.188, 116.104
682.490, 201.247
683.792, 80.298
685.093, 227.436
686.394, 143.572
687.696, 159.838
688.997, 56.968
690.297, 112.096
691.598, 74.437
692.898, 42.559
694.198, 55.812
695.498, 56.966
696.798, 23.905
698.097, 0.188
699.397, 17.043
700.696, 34.976
701.995, 29.902
703.293, 18.073
704.592, 32.075
705.890, 19.925
707.188, 7.687
708.486, 27.633
709.784, 48.856
711.081, 3.167
712.378, 84.241
713.675, 24.151
714.972, 46.698
716.269, 35.457
717.565, 73.486
718.862, 70.298
720.158, 50.272
721.453, 82.496
722.749, 23.639
724.045, 102.182
725.340, 75.918
726.635, 37.117
727.930, 47.844
729.224, 16.600
730.519, 49.323
731.813, 40.040
733.107, 55.666
734.401, 65.367
735.694, 90.937
736.988, 136.627
738.281, 162.312
739.574, 124.048
740.867, 155.722
742.160, 139.390
743.452, 132.824
744.744, 208.480
746.036, 193.664
747.328, 189.309
748.620, 242.948
749.911, 255.581
751.202, 255.208
752.493, 263.872
753.784, 330.487
755.075, 324.096
756.365, 343.698
757.655, 441.294
758.945, 326.884
760.235, 557.468
761.525, 511.046
762.814, 441.618
764.103, 546.184
765.392, 484.743
766.681, 610.296
767.969, 571.843
769.258, 627.500
770.546, 555.035
771.834, 475.562
773.122, 531.084
774.409, 398.059
775.697, 387.568
776.984, 392.076
778.271, 259.573
779.558, 273.512
780.844, 237.996
782.131, 245.475
783.417, 208.947
784.703, 39.412
785.989, 188.871
787.274, 9.678
788.560, 59.751
789.845, 132.174
791.130, 76.589
792.415, 106.999
793.699, 29.415
794.983, 45.069
796.268, 67.224
797.552, 50.622
798.835, 69.012
800.119, 74.396
801.402, 106.774
802.686, 87.144
803.969, 2.508
805.251, 173.855
806.534, 46.195
807.816, 70.528
809.098, 148.853
810.380, 11.172
811.662, 164.477
812.944, 161.775
814.225, 153.067
815.506, 203.351
816.787, 134.956
818.068, 151.225
819.349, 178.186
820.629, 148.440
821.909, 169.689
823.189, 173.929
824.469, 143.163
825.749, 118.390
827.028, 72.609
828.307, 121.822
829.586, 66.026
830.865, 61.225
832.144, 114.415
833.422, 6.401
834.700, 106.761
835.978, 83.917
837.256, 11.936
838.534, 79.188
839.811, 78.306
841.088, 31.416
842.365, 72.518
843.642, 87.613
844.919, 22.701
846.195, 65.780
847.472, 16.148
848.748, 51.899
850.023, 56.938
851.299, 73.110
852.575, 10.227
853.850, 65.286
855.125, 8.347
856.400, 8.276
857.674, 89.619
858.949, 13.065
860.223, 0.256
861.497, 163.008
862.771, 6.946
864.045, 36.875
865.318, 112.036
866.591, 4.094
867.864, 101.906
869.137, 40.812
870.410, 13.109
871.682, 137.778
872.955, 5.339
874.227, 134.716
875.499, 6.584
876.770, 9.292
878.042, 65.150
879.313, 21.996
880.584, 85.841
881.855, 31.325
883.126, 25.328
884.396, 52.135
885.667, 46.061
886.937, 59.714
888.207, 61.515
889.476, 114.219
890.746, 179.950
892.015, 11.677
893.284, 25.401
894.553, 57.121
895.822, 29.162
897.090, 101.536
898.359, 25.770
899.627, 93.908
900.895, 68.583
902.163, 106.254
903.430, 40.923
904.698, 11.589
905.965, 85.251
907.232, 76.912
908.499, 76.570
909.765, 32.225
911.032, 93.877
912.298, 64.528
913.564, 108.177
914.830, 25.823
916.095, 87.467
917.361, 112.109
918.626, 31.748
919.891, 147.385
921.156, 22.979
922.420, 104.644
923.685, 131.265
924.949, 52.926
926.213, 100.543
927.477, 104.166
928.740, 13.809
930.004, 164.427
931.267, 29.825
932.530, 208.778
933.793, 36.380
935.056, 73.980
936.318, 210.580
937.581, 126.093
938.843, 210.689
940.104, 182.425
941.366, 86.085
942.628, 316.680
943.889, 125.273
945.150, 268.857
946.411, 281.278
947.672, 185.805
948.932, 313.072
950.193, 206.618
951.453, 282.206
952.713, 256.795
953.973, 248.384
955.232, 311.013
956.491, 259.502
957.751, 328.087
959.010, 371.606
960.268, 383.189
961.527, 388.772
962.785, 434.705
964.044, 470.288
965.302, 757.869
966.559, 717.450
967.817, 795.032
969.075, 961.616
970.332, 897.201
971.589, 1147.787
972.846, 1277.375
974.102, 1538.963
975.359, 2039.551
976.615, 2314.139
977.871, 2975.726
979.127, 3899.312
980.383, 4834.900
981.638, 7000.487
982.893, 10216.074
984.149, 16031.665
985.404, 27235.678
986.658, 40251.270
987.913, 51186.859
989.167, 45570.539
990.421, 32846.145
991.675, 22061.738
992.929, 13367.205
994.183, 9142.812
995.436, 6078.419
996.689, 4283.811
997.942, 3348.420
999.195, 2543.896
1000.448, 1972.489
1001.700, 1697.104
1002.952, 1278.746
1004.204, 1212.726
1005.456, 905.396
1006.708, 832.639
1007.959, 838.937
1009.210, 620.645
1010.461, 559.221
1011.712, 565.324
1012.963, 387.091
1014.213, 478.589
1015.464, 296.337
1016.714, 381.130
1017.964, 336.736
1019.214, 282.572
1020.463, 308.419
1021.712, 218.152
1022.962, 275.017
1024.210, 262.266
1025.459, 177.157
1026.708, 211.951
1027.956, 197.776
1029.204, 191.683
1030.452, 265.128
1031.700, 156.043
1032.948, 165.926
1034.195, 231.839
1035.442, 28.761
1036.689, 180.758
1037.936, 236.699
1039.183, 267.767
1040.429, 253.711
1041.676, 138.661
1042.922, 264.555
1044.168, 207.510
1045.413, 156.467
1046.659, 248.656
1047.904, 226.654
1049.149, 157.122
1050.394, 215.125
1051.639, 12.131
1052.884, 174.140
1054.128, 92.150
1055.372, 174.121
1056.616, 87.136
1057.860, 26.399
1059.104, 165.437
1060.347, 100.478
1061.590, 89.682
1062.833, 142.727
1064.076, 14.799
1065.319, 52.873
1066.561, 96.948
1067.803, 35.059
1069.046, 117.139
1070.287, 84.221
1071.529, 5.357
1072.771, 136.444
1074.012, 4.468
1075.253, 26.745
1076.494, 43.836
1077.735, 2.044
1078.975, 88.073
1080.216, 10.804
1081.456, 45.306
1082.696, 137.440
1083.936, 17.576
1085.175, 104.727
1086.415, 147.878
1087.654, 31.036
1088.893, 155.261
1090.132, 6.571
1091.371, 99.063
1092.609, 131.233
1093.847, 76.595
1095.085, 98.050
1096.323, 145.198
1097.561, 30.651
1098.799, 70.495
1100.036, 87.642
1101.273, 48.206
1102.510, 263.362
1103.747, 4.481
1104.983, 229.677
1106.220, 115.841
1107.456, 39.006
1108.692, 232.173
1109.928, 92.341
1111.163, 157.609
1112.399, 245.784
1113.634, 115.961
1114.869, 331.251
1116.104, 337.616
1117.339, 407.797
1118.573, 527.138
1119.808, 477.320
1121.042, 782.991
1122.276, 915.184
1123.509, 1039.378
1124.743, 1400.571
1125.976, 1723.767
1127.210, 1792.962
1128.443, 2405.265
1129.675, 2549.460
1130.908, 3311.967
1132.141, 4258.302
1133.373, 5174.497
1134.605, 6921.011
1135.837, 7627.210
1137.068, 7483.414
1138.300, 7130.956
1139.531, 5387.164
1140.762, 4323.991
1141.993, 3371.175
1143.224, 2239.383
1144.455, 1981.800
1145.685, 1428.011
1146.915, 977.311
1148.145, 1007.334
1149.375, 662.550
1150.605, 664.832
1151.834, 550.234
1153.063, 343.452
1154.292, 552.371
1155.521, 342.744
1156.750, 269.965
1157.978, 326.293
1159.207, 189.509
1160.435, 221.020
1161.663, 162.676
1162.891, 117.181
1164.118, 213.822
1165.345, 92.993
1166.573, 155.284
1167.800, 223.774
1169.026, 170.038
1170.253, 163.636
1171.480, 191.196
1172.706, 153.544
1173.932, 205.392
1175.158, 183.276
1176.383, 285.445
1177.609, 375.467
1178.834, 409.803
1180.059, 603.962
1181.284, 781.532
1182.509, 1101.689
1183.734, 1605.840
1184.958, 1467.302
1186.182, 1525.452
1187.406, 1367.963
1188.630, 886.388
1189.854, 638.597
1191.077, 519.155
1192.301, 363.294
1193.524, 312.426
1194.747, 121.288
1195.969, 221.413
1197.192, 276.714
1198.414, 154.988
1199.636, 188.096
1200.858, 183.247
1202.080, 91.433
1203.302, 139.518
1204.523, 15.870
1205.744, 140.937
1206.966, 157.102
1208.186, 33.422
1209.407, 111.462
1210.628, 164.233
1211.848, 112.255
1213.068, 178.267
1214.288, 72.490
1215.508, 141.483
1216.727, 120.468
1217.947, 41.496
1219.166, 120.465
1220.385, 113.590
1221.604, 54.499
1222.822, 281.439
1224.041, 122.832
1225.259, 233.743
1226.477, 208.654
1227.695, 14.402
1228.913, 144.297
1230.130, 205.182
1231.348, 152.161
1232.565, 204.026
1233.782, 121.611
1234.999, 84.456
1236.215, 163.292
1237.432, 18.053
1238.648, 195.872
1239.864, 243.684
1241.080, 14.500
1242.296, 120.300
1243.511, 153.095
1244.726, 148.393
1245.942, 216.178
1247.156, 24.292
1248.371, 199.066
1249.586, 166.834
1250.800, 107.604
1252.014, 239.361
1253.228, 149.110
1254.442, 161.986
1255.656, 236.725
1256.869, 84.458
1258.083, 126.647
1259.296, 238.365
1260.509, 83.392
1261.722, 66.089
1262.934, 159.771
1264.147, 73.447
1265.359, 218.115
1266.571, 26.751
1267.783, 208.521
1268.994, 177.115
1270.206, 119.700
1271.417, 234.431
1272.628, 177.941
1273.839, 91.444
1275.050, 309.921
1276.260, 50.375
1277.471, 84.953
1278.681, 295.375
1279.891, 51.787
1281.101, 132.183
1282.310, 119.567
1283.520, 4.942
1284.729, 271.281
1285.938, 26.607
1287.147, 13.917
1288.356, 174.213
1289.564, 71.442
1290.773, 142.923
1291.981, 102.128
1293.189, 48.680
1294.397, 184.452
1295.604, 108.569
1296.812, 38.367
1298.019, 154.667
1299.226, 26.689
1300.433, 88.898
1301.640, 133.889
1302.846, 100.132
1304.053, 171.767
1305.259, 60.619
1306.465, 9.544
1307.671, 10.243
1308.876, 45.003
1310.082, 18.747
1311.287, 103.472
1312.492, 6.818
1313.697, 107.865
1314.902, 47.519
1316.106, 9.155
1317.310, 85.768
1318.515, 81.362
1319.719, 77.938
1320.922, 150.490
1322.126, 23.020
1323.329, 83.528
1324.533, 130.016
1325.736, 47.461
1326.939, 186.883
1328.141, 131.287
1329.344, 22.329
1330.546, 223.021
1331.748, 53.351
1332.950, 62.660
1334.152, 109.864
1335.354, 47.133
1336.555, 198.363
1337.757, 159.574
1338.958, 108.235
1340.159, 240.900
1341.359, 79.014
1342.560, 83.106
1343.760, 226.180
1344.960, 108.236
1346.160, 97.275
1347.360, 207.296
1348.560, 37.700
1349.759, 194.042
1350.959, 91.994
1352.158, 58.930
1353.357, 303.686
1354.555, 61.411
1355.754, 157.453
1356.952, 146.303
1358.151, 63.115
1359.349, 218.881
1360.546, 152.768
1361.744, 100.541
1362.941, 256.134
1364.139, 73.021
1365.336, 125.764
1366.533, 324.377
1367.730, 73.893
1368.926, 106.806
1370.123, 147.503
1371.319, 2.805
1372.515, 162.460
1373.711, 107.147
1374.906, 21.153
1376.102, 237.552
1377.297, 22.286
1378.492, 144.062
1379.687, 212.847
1380.882, 103.837
1382.077, 236.414
1383.271, 174.949
1384.465, 191.985
1385.659, 238.011
1386.853, 229.584
1388.047, 61.566
1389.240, 252.533
1390.434, 9.483
1391.627, 174.310
1392.820, 326.101
1394.013, 94.792
1395.205, 268.491
1396.398, 294.792
1397.590, 75.609
1398.782, 212.409
1399.974, 231.070
1401.166, 38.312
1402.357, 290.695
1403.549, 49.424
1404.740, 222.541
1405.931, 319.292
1407.122, 147.687
1408.313, 224.199
1409.503, 290.795
1410.693, 6.051
1411.883, 259.514
1413.073, 179.756
1414.263, 44.588
1415.453, 249.267
1416.642, 80.198
1417.831, 151.970
1419.020, 227.909
1420.209, 43.573
1421.398, 200.171
1422.587, 137.958
1423.775, 115.534
1424.963, 223.963
1426.151, 182.963
1427.339, 80.047
1428.526, 228.033
1429.714, 91.202
1430.901, 158.065
1432.088, 266.282
1433.275, 4.584
1434.462, 182.982
1435.648, 282.462
1436.835, 91.034
1438.021, 295.913
1439.207, 71.675
1440.393, 102.015
1441.579, 305.957
1442.764, 6.167
1443.949, 260.161
1445.135, 335.427
1446.320, 20.686
1447.504, 359.012
1448.689, 262.983
1449.873, 77.894
1451.058, 309.270
1452.242, 154.021
1453.426, 153.714
1454.609, 347.328
1455.793, 118.474
1456.976, 249.041
1458.159, 333.333
1459.342, 90.420
1460.525, 340.225
1461.708, 333.216
1462.890, 68.006
1464.073, 331.019
1465.255, 171.716
1466.437, 105.357
1467.619, 326.499
1468.800, 74.574
1469.982, 223.232
1471.163, 400.905
1472.344, 43.161
1473.525, 248.725
1474.706, 260.196
1475.886, 26.322
1477.066, 332.063
1478.247, 192.655
1479.427, 154.069
1480.607, 310.570
1481.786, 129.251
1482.966, 132.115
1484.145, 295.586
1485.324, 98.323
1486.503, 175.210
1487.682, 276.188
1488.860, 26.111
1490.039, 275.057
1491.217, 219.029
1492.395, 15.003
1493.573, 262.044
1494.751, 157.126
1495.928, 123.512
1497.106, 228.973
1498.283, 101.530
1499.460, 196.582
1500.637, 341.176
1501.814, 6.988
1502.990, 197.016
1504.166, 140.228
1505.342, 8.389
1506.518, 142.192
1507.694, 54.012
1508.870, 31.117
1510.045, 319.527
1511.221, 32.603
1512.396, 167.103
1513.571, 304.560
1514.745, 43.397
1515.920, 77.362
1517.094, 231.645
1518.269, 23.987
1519.443, 252.039
1520.616, 201.992
1521.790, 0.000
##END=



