##NAMES=Crocoite
##RRUFFID=R040053
##IDEAL CHEMISTRY=Pb^2+^Cr^6+^O_4_
##LOCALITY=Dundas, Tasmania
##OWNER=RRUFF
##SOURCE=Bob Downs
##DESCRIPTION=Reddish-orange prismatic crystal
##STATUS=The identification of this mineral has been confirmed by X-ray diffraction and chemical analysis
##URL=rruff.info/R040053
##MEASURED CHEMISTRY=(Pb_.995_Mn_.005_)CrO_4_
##PIN_ID=L00292
##ORIENTATION=Laser parallel to (-1 0 -1). Fiducial mark perpendicular to laser is parallel to -b [0 -1 0]
66.157, 0.000
67.554, 33.059
68.952, 38.100
70.349, 37.373
71.747, 9.345
73.144, 259.040
74.540, 155.941
75.937, 254.641
77.333, 145.014
78.729, 175.701
80.125, 193.500
81.521, 214.258
82.916, 235.849
84.311, 253.830
85.706, 331.091
87.101, 300.560
88.496, 309.495
89.890, 351.847
91.284, 322.591
92.678, 382.703
94.071, 418.164
95.465, 435.953
96.858, 460.039
98.251, 444.380
99.644, 437.939
101.036, 458.685
102.428, 419.594
103.820, 448.644
105.212, 452.819
106.604, 434.102
107.995, 460.484
109.387, 466.952
110.777, 511.508
112.168, 589.144
113.559, 670.045
114.949, 773.070
116.339, 855.216
117.729, 840.543
119.119, 901.101
120.508, 902.730
121.897, 875.503
123.286, 849.424
124.675, 957.479
126.063, 948.538
127.452, 1035.563
128.840, 1251.554
130.228, 1454.508
131.615, 1680.429
133.003, 1973.320
134.390, 2109.183
135.777, 2226.020
137.164, 2330.834
138.550, 2268.625
139.937, 2073.397
141.323, 1862.148
142.709, 1653.880
144.094, 1446.594
145.480, 1365.291
146.865, 1209.224
148.250, 1106.663
149.635, 1001.396
151.019, 926.012
152.403, 818.595
153.788, 729.154
155.171, 655.550
156.555, 585.667
157.939, 527.707
159.322, 499.778
160.705, 477.135
162.088, 479.861
163.470, 472.233
164.853, 417.536
166.235, 400.192
167.617, 348.170
168.998, 374.375
170.380, 381.774
171.761, 350.411
173.142, 357.844
174.523, 326.279
175.904, 331.365
177.284, 346.637
178.664, 373.759
180.044, 325.326
181.424, 328.355
182.803, 324.727
184.183, 304.282
185.562, 259.538
186.940, 262.762
188.319, 271.082
189.698, 246.246
191.076, 265.349
192.454, 218.449
193.831, 193.560
195.209, 211.683
196.586, 182.818
197.963, 178.961
199.340, 199.112
200.717, 152.270
202.093, 144.434
203.470, 187.604
204.846, 165.777
206.221, 158.952
207.597, 153.127
208.972, 143.306
210.347, 106.484
211.722, 115.664
213.097, 95.842
214.472, 134.016
215.846, 114.193
217.220, 112.365
218.594, 104.534
219.967, 105.701
221.341, 115.866
222.714, 76.028
224.087, 60.188
225.460, 41.354
226.832, 98.523
228.204, 24.690
229.577, 91.853
230.948, 14.013
232.320, 2.039
233.692, 45.785
235.063, 58.464
236.434, 75.296
237.805, 53.919
239.175, 8.541
240.545, 20.624
241.916, 13.234
243.286, 48.959
244.655, 10.196
246.025, 27.474
247.394, 18.789
248.763, 0.859
250.132, 26.440
251.501, 24.044
252.869, 17.632
254.237, 26.206
255.605, 4.653
256.973, 17.937
258.340, 1.437
259.708, 9.848
261.075, 10.286
262.442, 11.286
263.808, 20.200
265.175, 13.651
266.541, 1.988
267.907, 34.416
269.273, 9.170
270.639, 7.310
272.004, 31.733
273.369, 37.210
274.734, 3.507
276.099, 6.869
277.463, 19.656
278.828, 7.301
280.192, 6.173
281.556, 30.642
282.919, 8.025
284.283, 24.393
285.646, 6.860
287.009, 5.332
288.372, 21.810
289.734, 9.294
291.097, 28.730
292.459, 6.769
293.821, 29.677
295.183, 10.104
296.544, 6.381
297.905, 38.950
299.266, 1.521
300.627, 2.953
301.988, 19.428
303.348, 41.907
304.709, 32.412
306.069, 39.948
307.428, 14.588
308.788, 86.108
310.147, 66.579
311.507, 40.123
312.865, 74.726
314.224, 55.285
315.583, 110.837
316.941, 79.394
318.299, 114.856
319.657, 189.482
321.015, 224.115
322.372, 291.679
323.729, 383.291
325.086, 404.435
326.443, 431.693
327.800, 478.677
329.156, 397.005
330.512, 432.449
331.868, 339.858
333.224, 379.457
334.579, 367.765
335.935, 464.105
337.290, 584.492
338.645, 629.764
339.999, 636.003
341.354, 616.337
342.708, 543.471
344.062, 568.711
345.416, 729.754
346.769, 924.988
348.123, 1096.363
349.476, 1109.370
350.829, 1027.562
352.182, 838.750
353.534, 725.024
354.887, 721.088
356.239, 770.051
357.591, 861.998
358.942, 866.965
360.294, 872.071
361.645, 789.368
362.996, 645.381
364.347, 605.293
365.698, 485.184
367.048, 452.203
368.398, 465.032
369.748, 511.159
371.098, 582.118
372.448, 863.997
373.797, 1194.194
375.146, 1703.128
376.495, 2074.970
377.844, 2104.785
379.192, 1874.400
380.540, 1375.241
381.889, 864.547
383.236, 586.260
384.584, 410.841
385.932, 345.609
387.279, 310.506
388.626, 195.296
389.973, 269.388
391.319, 219.222
392.666, 254.026
394.012, 230.928
395.358, 265.472
396.704, 295.123
398.049, 345.080
399.394, 482.900
400.740, 477.573
402.084, 526.442
403.429, 489.085
404.774, 347.335
406.118, 259.881
407.462, 186.805
408.806, 190.978
410.150, 210.947
411.493, 108.345
412.836, 183.648
414.179, 142.324
415.522, 121.911
416.865, 91.541
418.207, 86.286
419.549, 81.894
420.891, 95.097
422.233, 104.212
423.575, 104.027
424.916, 127.031
426.257, 114.768
427.598, 93.946
428.939, 107.146
430.279, 106.555
431.619, 133.768
432.959, 114.174
434.299, 147.818
435.639, 76.491
436.978, 97.464
438.318, 151.792
439.657, 100.239
440.996, 132.618
442.334, 131.894
443.673, 96.388
445.011, 121.487
446.349, 137.918
447.687, 149.326
449.024, 164.971
450.361, 144.854
451.699, 123.839
453.036, 138.017
454.372, 129.302
455.709, 124.163
457.045, 161.704
458.381, 121.668
459.717, 133.865
461.053, 156.730
462.388, 162.966
463.724, 177.617
465.059, 146.096
466.394, 138.844
467.728, 117.380
469.063, 145.779
470.397, 163.317
471.731, 148.238
473.065, 135.783
474.398, 148.975
475.732, 148.379
477.065, 150.789
478.398, 173.090
479.731, 128.430
481.063, 126.760
482.396, 139.843
483.728, 120.716
485.060, 156.147
486.391, 124.141
487.723, 158.141
489.054, 175.079
490.385, 135.990
491.716, 144.154
493.047, 105.009
494.377, 154.004
495.708, 142.056
497.038, 127.825
498.368, 147.584
499.697, 149.297
501.027, 120.981
502.356, 161.638
503.685, 129.267
505.014, 181.309
506.342, 119.883
507.671, 96.428
508.999, 173.483
510.327, 120.972
511.655, 118.432
512.982, 102.906
514.310, 141.308
515.637, 161.683
516.964, 162.031
518.291, 153.352
519.617, 116.645
520.944, 88.911
522.270, 131.146
523.596, 151.353
524.921, 152.565
526.247, 117.686
527.572, 183.811
528.897, 93.909
530.222, 119.978
531.547, 135.019
532.871, 81.032
534.196, 113.016
535.520, 130.971
536.844, 132.899
538.167, 51.800
539.491, 117.667
540.814, 27.505
542.137, 139.304
543.460, 48.075
544.783, 116.813
546.105, 87.523
547.427, 102.205
548.749, 65.859
550.071, 86.483
551.393, 87.078
552.714, 73.646
554.035, 123.184
555.356, 106.697
556.677, 63.182
557.998, 71.638
559.318, 88.065
560.638, 63.465
561.958, 84.963
563.278, 72.622
564.597, 97.498
565.917, 51.790
567.236, 39.052
568.555, 15.281
569.874, 95.472
571.192, 60.594
572.511, 43.737
573.829, 85.856
575.147, 8.953
576.464, 51.906
577.782, 35.808
579.099, 21.659
580.416, 30.526
581.733, 29.401
583.050, 3.245
584.366, 27.119
585.683, 23.934
586.999, 14.634
588.315, 35.350
589.630, 51.050
590.946, 16.207
592.261, 24.443
593.576, 66.119
594.891, 25.411
596.206, 3.915
597.520, 1.660
598.834, 23.081
600.148, 22.409
601.462, 3.945
602.776, 29.654
604.089, 47.322
605.402, 1.010
606.715, 2.690
608.028, 24.423
609.341, 26.805
610.653, 23.047
611.965, 40.877
613.277, 30.812
614.589, 5.809
615.901, 9.243
617.212, 25.823
618.523, 15.891
619.834, 34.944
621.145, 38.042
622.456, 3.188
623.766, 9.396
625.076, 38.671
626.386, 8.094
627.696, 40.433
629.006, 47.766
630.315, 28.216
631.624, 38.765
632.933, 4.686
634.242, 44.885
635.551, 4.495
636.859, 1.941
638.167, 15.810
639.475, 26.399
640.783, 23.646
642.090, 1.202
643.398, 22.079
644.705, 9.211
646.012, 43.470
647.318, 36.180
648.625, 56.098
649.931, 34.018
651.237, 4.088
652.543, 6.961
653.849, 30.098
655.155, 0.085
656.460, 9.143
657.765, 49.194
659.070, 4.115
660.375, 22.195
661.679, 15.873
662.984, 22.208
664.288, 26.072
665.592, 40.236
666.895, 15.792
668.199, 66.609
669.502, 2.593
670.805, 89.094
672.108, 4.968
673.411, 22.919
674.713, 8.862
676.016, 23.761
677.318, 16.499
678.620, 9.022
679.921, 62.805
681.223, 77.667
682.524, 94.528
683.825, 105.873
685.126, 117.112
686.427, 110.667
687.727, 113.369
689.028, 132.129
690.328, 159.548
691.628, 111.207
692.927, 143.938
694.227, 131.674
695.526, 230.589
696.825, 111.256
698.124, 108.439
699.423, 264.192
700.721, 182.058
702.020, 181.715
703.318, 233.224
704.616, 177.820
705.913, 212.094
707.211, 187.606
708.508, 205.127
709.805, 223.533
711.102, 231.221
712.399, 218.844
713.695, 239.145
714.992, 180.571
716.288, 207.130
717.584, 302.476
718.879, 203.029
720.175, 233.500
721.470, 250.115
722.765, 211.333
724.060, 233.286
725.355, 233.423
726.649, 215.050
727.944, 236.855
729.238, 244.126
730.532, 250.042
731.825, 272.215
733.119, 265.583
734.412, 258.649
735.705, 216.299
736.998, 282.275
738.291, 256.249
739.584, 241.132
740.876, 270.099
742.168, 282.994
743.460, 232.568
744.752, 369.846
746.043, 359.393
747.334, 343.292
748.626, 335.378
749.916, 320.049
751.207, 345.495
752.498, 344.332
753.788, 440.563
755.078, 375.790
756.368, 425.600
757.658, 417.615
758.947, 418.063
760.237, 411.451
761.526, 407.922
762.815, 490.211
764.104, 417.187
765.392, 497.808
766.680, 502.975
767.969, 502.077
769.257, 460.865
770.544, 510.280
771.832, 534.615
773.119, 488.888
774.406, 554.842
775.693, 589.660
776.980, 544.344
778.267, 672.277
779.553, 582.885
780.839, 599.719
782.125, 581.538
783.411, 675.393
784.697, 732.856
785.982, 538.614
787.267, 766.781
788.552, 697.712
789.837, 933.638
791.122, 896.662
792.406, 967.636
793.690, 1087.608
794.974, 996.817
796.258, 1166.041
797.542, 1221.064
798.825, 1256.329
800.108, 1318.579
801.391, 1386.881
802.674, 1331.201
803.957, 1419.260
805.239, 1446.618
806.522, 1569.826
807.804, 1599.967
809.085, 1645.385
810.367, 1749.803
811.649, 1900.261
812.930, 1962.738
814.211, 1986.236
815.492, 2347.755
816.772, 2268.854
818.053, 2706.414
819.333, 2835.995
820.613, 3203.061
821.893, 3594.687
823.173, 4029.333
824.452, 4451.964
825.732, 5188.654
827.011, 5643.369
828.290, 6376.106
829.568, 7128.864
830.847, 8141.651
832.125, 9834.460
833.403, 11667.317
834.681, 15200.207
835.959, 19773.129
837.236, 25176.080
838.514, 32169.053
839.791, 36642.059
841.068, 38435.105
842.345, 34478.176
843.621, 29471.293
844.898, 23484.461
846.174, 19507.676
847.450, 16490.932
848.726, 14534.212
850.001, 13397.543
851.277, 13030.899
852.552, 12994.296
853.827, 13177.721
855.102, 13181.183
856.376, 12746.348
857.651, 12256.555
858.925, 11391.758
860.199, 10565.344
861.473, 9128.961
862.746, 7922.700
864.020, 6746.394
865.293, 5880.527
866.566, 5248.290
867.839, 4752.240
869.112, 4126.204
870.384, 3899.050
871.656, 3474.938
872.928, 3207.860
874.200, 2826.875
875.472, 2723.863
876.744, 2460.880
878.015, 2233.927
879.286, 2057.008
880.557, 1968.114
881.828, 1832.252
883.098, 1777.830
884.369, 1548.025
885.639, 1474.256
886.909, 1568.514
888.178, 1355.804
889.448, 1338.125
890.717, 1321.477
891.987, 1223.860
893.256, 1247.280
894.524, 1137.729
895.793, 1181.211
897.061, 1090.724
898.330, 1125.267
899.598, 1000.838
900.865, 1001.448
902.133, 996.090
903.401, 987.760
904.668, 976.456
905.935, 967.338
907.202, 918.999
908.468, 924.811
909.735, 839.662
911.001, 769.551
912.267, 808.480
913.533, 639.457
914.799, 682.468
916.064, 639.512
917.330, 628.597
918.595, 692.711
919.860, 660.864
921.124, 528.061
922.389, 491.298
923.653, 557.570
924.918, 451.872
926.182, 511.213
927.445, 376.590
928.709, 439.009
929.972, 344.468
931.236, 463.999
932.499, 348.525
933.761, 369.091
935.024, 344.715
936.286, 390.355
937.549, 295.038
938.811, 312.758
940.073, 280.518
941.334, 265.305
942.596, 282.134
943.857, 299.990
945.118, 276.875
946.379, 193.792
947.640, 205.736
948.900, 251.707
950.161, 159.705
951.421, 224.729
952.681, 152.778
953.940, 159.854
955.200, 97.397
956.459, 165.738
957.719, 202.363
958.978, 208.979
960.236, 95.633
961.495, 137.254
962.753, 116.808
964.012, 93.839
965.270, 157.345
966.527, 61.576
967.785, 123.759
969.043, 122.936
970.300, 150.980
971.557, 116.572
972.814, 101.491
974.071, 148.933
975.327, 92.282
976.583, 149.830
977.840, 251.402
979.095, 151.997
980.351, 181.617
981.607, 77.307
982.862, 156.004
984.117, 232.502
985.372, 103.344
986.627, 140.027
987.882, 176.984
989.136, 96.762
990.390, 152.580
991.644, 67.704
992.898, 172.189
994.152, 142.981
995.405, 82.362
996.659, 123.603
997.912, 94.951
999.165, 22.505
1000.417, 127.578
1001.670, 60.641
1002.922, 49.924
1004.174, 83.657
1005.426, 71.039
1006.678, 91.784
1007.930, 96.469
1009.181, 101.606
1010.432, 82.490
1011.683, 43.023
1012.934, 10.880
1014.185, 106.508
1015.435, 31.269
1016.685, 68.749
1017.935, 59.999
1019.185, 14.503
1020.435, 93.731
1021.684, 1.129
1022.934, 88.008
1024.183, 5.865
1025.432, 62.438
1026.680, 61.757
1027.929, 67.090
1029.177, 80.452
1030.425, 57.827
1031.673, 107.684
1032.921, 27.805
1034.169, 30.765
1035.416, 33.294
1036.663, 111.789
1037.911, 95.322
1039.157, 89.897
1040.404, 13.463
1041.650, 91.113
1042.897, 156.767
1044.143, 69.288
1045.389, 72.820
1046.634, 76.368
1047.880, 82.933
1049.125, 125.508
1050.371, 90.114
1051.615, 41.711
1052.860, 47.318
1054.105, 95.936
1055.349, 134.572
1056.593, 128.808
1057.837, 54.890
1059.081, 132.561
1060.325, 61.238
1061.568, 73.922
1062.812, 87.612
1064.055, 79.318
1065.298, 73.030
1066.540, 39.748
1067.783, 36.473
1069.025, 143.202
1070.267, 55.936
1071.509, 111.676
1072.751, 123.422
1073.993, 86.172
1075.234, 70.937
1076.475, 70.705
1077.716, 81.475
1078.957, 102.248
1080.198, 1.966
1081.438, 54.813
1082.679, 105.597
1083.919, 0.617
1085.159, 159.170
1086.398, 35.971
1087.638, 80.776
1088.877, 181.584
1090.116, 116.392
1091.355, 18.363
1092.594, 45.170
1093.833, 9.797
1095.071, 74.095
1096.309, 23.979
1097.547, 85.784
1098.785, 95.589
1100.023, 40.390
1101.260, 113.271
1102.498, 16.067
1103.735, 66.860
1104.972, 27.649
1106.208, 46.435
1107.445, 86.217
1108.681, 48.997
1109.918, 70.154
1111.154, 111.588
1112.389, 56.499
1113.625, 35.261
1114.860, 9.020
1116.096, 65.772
1117.331, 4.521
1118.566, 71.263
1119.800, 78.999
1121.035, 48.728
1122.269, 286.453
1123.503, 422.459
1124.737, 301.254
1125.971, 195.104
1127.205, 12.800
1128.438, 61.663
1129.671, 14.370
1130.904, 9.295
1132.137, 74.789
1133.370, 31.144
1134.602, 43.246
1135.834, 6.341
1137.066, 20.869
1138.298, 41.614
1139.530, 12.931
1140.762, 17.855
1141.993, 85.259
1143.224, 29.739
1144.455, 137.833
1145.686, 6.415
1146.917, 3.731
1148.147, 83.949
1149.377, 18.774
1150.607, 13.281
1151.837, 11.601
1153.067, 4.960
1154.296, 25.422
1155.526, 8.719
1156.755, 61.383
1157.984, 7.807
1159.213, 2.143
1160.441, 6.102
1161.670, 45.811
1162.898, 34.371
1164.126, 38.426
1165.354, 38.572
1166.581, 24.201
1167.809, 85.951
1169.036, 5.866
1170.263, 33.117
1171.490, 19.330
1172.717, 106.432
1173.943, 81.336
1175.170, 76.225
1176.396, 106.624
1177.622, 95.577
1178.848, 31.458
1180.073, 51.190
1181.299, 45.973
1182.524, 56.516
1183.749, 71.073
1184.974, 66.429
1186.199, 61.332
1187.423, 69.130
1188.648, 54.263
1189.872, 58.497
1191.096, 96.120
1192.320, 150.165
1193.543, 148.976
1194.767, 138.273
1195.990, 162.979
1197.213, 102.019
1198.436, 138.025
1199.659, 213.500
1200.881, 152.659
1202.104, 188.488
1203.326, 224.196
1204.548, 198.751
1205.770, 133.163
1206.991, 241.508
1208.213, 168.670
1209.434, 217.843
1210.655, 173.301
1211.876, 148.540
1213.096, 246.904
1214.317, 244.333
1215.537, 243.348
1216.757, 261.570
1217.977, 260.544
1219.197, 262.309
1220.417, 269.445
1221.636, 257.970
1222.855, 252.027
1224.074, 240.801
1225.293, 230.590
1226.512, 152.118
1227.731, 192.305
1228.949, 203.382
1230.167, 172.483
1231.385, 273.440
1232.603, 240.982
1233.820, 262.757
1235.038, 256.015
1236.255, 230.515
1237.472, 131.398
1238.689, 244.794
1239.906, 105.608
1241.122, 221.221
1242.338, 157.049
1243.555, 236.637
1244.771, 198.416
1245.986, 245.642
1247.202, 161.225
1248.417, 218.389
1249.633, 194.659
1250.848, 209.849
1252.063, 211.012
1253.277, 249.466
1254.492, 254.792
1255.706, 177.975
1256.920, 259.458
1258.134, 156.750
1259.348, 238.787
1260.562, 242.044
1261.775, 206.125
1262.988, 246.492
1264.201, 258.484
1265.414, 253.409
1266.627, 211.450
1267.839, 332.695
1269.052, 131.548
1270.264, 182.083
1271.476, 167.766
1272.688, 288.422
1273.899, 163.827
1275.111, 137.467
1276.322, 220.237
1277.533, 143.760
1278.744, 192.661
1279.955, 127.073
1281.165, 187.604
1282.376, 220.107
1283.586, 223.605
1284.796, 150.468
1286.006, 93.522
1287.215, 158.775
1288.425, 157.105
1289.634, 89.973
1290.843, 198.965
1292.052, 51.700
1293.261, 157.371
1294.469, 76.577
1295.678, 97.560
1296.886, 221.503
1298.094, 77.826
1299.302, 30.633
1300.509, 148.222
1301.717, 66.540
1302.924, 87.420
1304.131, 156.637
1305.338, 102.990
1306.545, 113.167
1307.752, 96.637
1308.958, 55.286
1310.164, 122.076
1311.370, 174.619
1312.576, 138.894
1313.782, 130.412
1314.987, 96.748
1316.193, 12.240
1317.398, 120.303
1318.603, 23.655
1319.807, 95.048
1321.012, 24.670
1322.216, 80.565
1323.421, 22.041
1324.625, 63.748
1325.829, 27.781
1327.032, 105.780
1328.236, 30.750
1329.439, 87.736
1330.642, 66.660
1331.845, 37.522
1333.048, 48.368
1334.251, 40.941
1335.453, 97.874
1336.656, 49.691
1337.858, 15.473
1339.060, 3.216
1340.261, 73.917
1341.463, 44.581
1342.664, 45.184
1343.866, 97.771
1345.067, 34.325
1346.267, 8.160
1347.468, 6.690
1348.669, 72.736
1349.869, 87.123
1351.069, 95.476
1352.269, 133.792
1353.469, 125.076
1354.668, 5.671
1355.868, 97.541
1357.067, 74.719
1358.266, 63.866
1359.465, 133.161
1360.664, 82.459
1361.862, 58.506
1363.061, 48.519
1364.259, 122.500
1365.457, 11.551
1366.655, 87.082
1367.852, 147.957
1369.050, 137.802
1370.247, 36.618
1371.444, 55.392
1372.641, 67.145
1373.838, 60.867
1375.035, 71.559
1376.231, 16.769
1377.427, 16.854
1378.623, 39.439
1379.819, 147.833
1381.015, 66.369
1382.211, 207.667
1383.406, 67.155
1384.601, 91.244
1385.796, 57.615
1386.991, 82.876
1388.185, 56.184
1389.380, 154.390
1390.574, 71.552
1391.768, 167.735
1392.962, 121.813
1394.156, 132.875
1395.350, 131.786
1396.543, 66.553
1397.736, 79.358
1398.929, 108.071
1400.122, 54.635
1401.315, 74.299
1402.507, 125.917
1403.700, 72.490
1404.892, 103.706
1406.084, 52.934
1407.276, 110.172
1408.467, 122.240
1409.659, 88.269
1410.850, 54.229
1412.041, 120.570
1413.232, 26.976
1414.423, 185.954
1415.614, 163.686
1416.804, 28.692
1417.994, 135.988
1419.184, 86.709
1420.374, 141.173
1421.564, 96.193
1422.753, 130.034
1423.943, 138.638
1425.132, 77.754
1426.321, 120.890
1427.510, 47.570
1428.698, 135.621
1429.887, 36.810
1431.075, 155.455
1432.263, 100.062
1433.451, 100.209
1434.639, 168.278
1435.827, 94.240
1437.014, 76.895
1438.201, 178.341
1439.388, 76.116
1440.575, 113.044
1441.762, 77.163
1442.949, 44.366
1444.135, 93.363
1445.321, 101.895
1446.507, 71.885
1447.693, 219.001
1448.879, 33.840
1450.064, 180.349
1451.250, 103.543
1452.435, 112.917
1453.620, 172.392
1454.805, 155.827
1455.989, 123.033
1457.174, 170.362
1458.358, 49.707
1459.542, 111.000
1460.726, 147.893
1461.910, 76.251
1463.093, 120.350
1464.277, 203.943
1465.460, 32.757
1466.643, 234.863
1467.826, 216.383
1469.009, 78.827
1470.191, 179.416
1471.373, 147.681
1472.556, 126.296
1473.738, 136.705
1474.919, 124.987
1476.101, 67.661
1477.283, 225.357
1478.464, 150.049
1479.645, 188.940
1480.826, 102.743
1482.007, 157.332
1483.187, 134.011
1484.368, 168.574
1485.548, 167.362
1486.728, 143.104
1487.908, 78.113
1489.088, 155.541
1490.268, 218.808
1491.447, 84.449
1492.626, 123.664
1493.805, 164.364
1494.984, 67.147
1496.163, 144.074
1497.341, 128.955
1498.520, 104.180
1499.698, 145.159
1500.876, 17.811
1502.054, 12.643
1503.232, 92.429
1504.409, 145.993
1505.586, 167.716
1506.763, 74.418
1507.940, 7.142
1509.117, 71.585
1510.294, 155.303
1511.470, 101.089
1512.647, 105.897
1513.823, 182.747
1514.999, 140.661
1516.174, 137.669
1517.350, 44.720
1518.526, 57.797
1519.701, 160.506
1520.876, 7.191
1522.051, 41.838
1523.226, 98.974
1524.400, 27.492
1525.574, 159.933
1526.749, 103.255
1527.923, 59.232
1529.097, 113.124
1530.270, 109.116
1531.444, 27.739
1532.617, 0.007
