##NAMES=Crocoite
##RRUFFID=R050044
##IDEAL CHEMISTRY=Pb^2+^Cr^6+^O_4_
##LOCALITY=Red Ledge mine, Dundas, Tasmania
##OWNER=RRUFF
##SOURCE=Eugene Schlepp
##DESCRIPTION=Red crystal fragment
##STATUS=The identification of this mineral has been confirmed by X-ray diffraction and chemical analysis
##URL=rruff.info/R050044
##MEASURED CHEMISTRY=Pb_1.02_Cr_0.99_O_4_
##PIN_ID=L00482
##ORIENTATION=Laser parallel to (-1 0 -1). Fiducial mark perpendicular to laser is parallel to b [0 1 0]
163.613, 0.000
165.002, 20.819
166.391, 37.899
167.780, 59.745
169.169, 8.090
170.557, 1.637
171.945, 63.286
173.333, 72.737
174.720, 1.697
176.108, 61.138
177.495, 43.708
178.881, 99.998
180.268, 81.228
181.654, 32.404
183.040, 62.239
184.426, 91.634
185.812, 96.717
187.197, 73.503
188.582, 113.934
189.967, 87.641
191.351, 97.289
192.736, 62.818
194.120, 102.154
195.504, 61.332
196.887, 117.419
198.271, 34.267
199.654, 96.885
201.036, 49.777
202.419, 79.681
203.801, 87.221
205.184, 120.138
206.565, 31.476
207.947, 65.750
209.328, 59.466
210.710, 67.051
212.090, 75.270
213.471, 83.075
214.851, 68.965
216.232, 68.752
217.611, 60.594
218.991, 67.139
220.370, 121.058
221.750, 85.569
223.129, 60.563
224.507, 109.225
225.886, 104.504
227.264, 56.427
228.642, 37.529
230.019, 38.031
231.397, 58.982
232.774, 51.978
234.151, 70.528
235.528, 78.059
236.904, 100.270
238.281, 55.791
239.656, 74.612
241.032, 102.712
242.408, 128.562
243.783, 47.380
245.158, 66.007
246.533, 108.669
247.907, 22.416
249.282, 70.236
250.656, 86.101
252.029, 33.012
253.403, 47.964
254.776, 65.954
256.149, 2.028
257.522, 60.015
258.895, 27.921
260.267, 33.158
261.639, 14.247
263.011, 21.340
264.382, 2.437
265.754, 37.532
267.125, 63.626
268.496, 38.711
269.866, 45.783
271.237, 1.839
272.607, 10.876
273.977, 4.626
275.346, 13.541
276.716, 8.867
278.085, 39.818
279.454, 48.740
280.823, 27.630
282.191, 15.499
283.559, 40.346
284.927, 66.160
286.295, 45.957
287.662, 4.728
289.030, 55.468
290.397, 4.180
291.763, 0.863
293.130, 48.532
294.496, 47.173
295.862, 16.792
297.228, 10.609
298.594, 1.006
299.959, 21.711
301.324, 4.526
302.689, 64.167
304.053, 43.875
305.418, 50.605
306.782, 55.415
308.146, 85.266
309.509, 105.136
310.873, 122.588
312.236, 140.953
313.599, 159.961
314.961, 182.939
316.324, 193.751
317.686, 130.097
319.048, 186.518
320.409, 163.789
321.771, 167.906
323.132, 222.065
324.493, 229.013
325.854, 305.076
327.214, 259.088
328.574, 248.008
329.934, 288.300
331.294, 352.375
332.654, 333.762
334.013, 352.320
335.372, 378.502
336.731, 409.176
338.089, 486.658
339.448, 502.831
340.806, 592.333
342.164, 624.639
343.521, 685.012
344.879, 900.241
346.236, 1163.305
347.593, 1591.191
348.949, 1859.242
350.306, 2139.133
351.662, 2093.048
353.018, 2124.864
354.373, 2009.547
355.729, 1986.225
357.084, 1988.683
358.439, 2210.221
359.794, 2393.512
361.148, 2432.973
362.503, 2385.187
363.857, 2202.566
365.210, 2004.695
366.564, 1672.853
367.917, 1525.953
369.270, 1393.188
370.623, 1398.922
371.976, 1498.828
373.328, 1902.498
374.680, 2507.027
376.032, 3425.605
377.384, 4336.128
378.735, 4798.583
380.086, 4884.036
381.437, 4252.530
382.788, 3222.768
384.138, 2347.104
385.488, 1568.563
386.838, 1147.512
388.188, 953.773
389.538, 772.029
390.887, 671.767
392.236, 657.946
393.585, 612.323
394.933, 612.178
396.282, 523.851
397.630, 594.433
398.977, 601.466
400.325, 680.482
401.672, 740.767
403.020, 789.420
404.366, 668.308
405.713, 621.042
407.059, 491.408
408.406, 417.278
409.752, 408.168
411.097, 387.256
412.443, 350.073
413.788, 380.833
415.133, 327.981
416.478, 347.388
417.822, 279.121
419.167, 298.946
420.511, 286.192
421.854, 260.858
423.198, 271.569
424.541, 295.919
425.884, 293.446
427.227, 301.687
428.570, 262.882
429.912, 282.981
431.254, 248.200
432.596, 246.376
433.938, 234.801
435.280, 248.622
436.621, 242.276
437.962, 264.458
439.303, 265.114
440.643, 288.596
441.983, 335.028
443.323, 330.842
444.663, 389.003
446.003, 330.665
447.342, 274.945
448.681, 375.534
450.020, 359.346
451.359, 326.546
452.697, 384.585
454.035, 320.125
455.373, 413.329
456.711, 352.675
458.048, 350.593
459.386, 335.316
460.723, 305.905
462.059, 330.358
463.396, 334.284
464.732, 345.519
466.068, 349.810
467.404, 314.986
468.740, 336.574
470.075, 284.068
471.410, 317.171
472.745, 338.934
474.080, 320.770
475.414, 356.207
476.748, 343.248
478.082, 338.435
479.416, 338.680
480.749, 352.108
482.083, 362.559
483.416, 378.863
484.749, 308.158
486.081, 339.407
487.413, 313.608
488.745, 276.335
490.077, 353.429
491.409, 326.466
492.740, 230.084
494.072, 286.005
495.402, 288.871
496.733, 296.684
498.064, 322.441
499.394, 266.145
500.724, 276.974
502.054, 287.569
503.383, 277.110
504.712, 292.595
506.041, 273.027
507.370, 324.406
508.699, 280.503
510.027, 298.776
511.355, 269.997
512.683, 279.165
514.011, 292.280
515.338, 274.343
516.666, 287.508
517.993, 273.273
519.319, 286.223
520.646, 254.082
521.972, 234.889
523.298, 237.645
524.624, 232.350
525.950, 238.004
527.275, 241.607
528.600, 215.161
529.925, 238.372
531.250, 216.116
532.574, 247.520
533.898, 268.875
535.222, 234.182
536.546, 236.442
537.869, 219.655
539.193, 205.819
540.516, 186.935
541.839, 217.003
543.161, 229.024
544.484, 173.999
545.806, 222.924
547.128, 188.804
548.449, 177.638
549.771, 222.424
551.092, 140.165
552.413, 246.857
553.734, 162.508
555.054, 169.113
556.374, 106.673
557.694, 134.180
559.014, 137.640
560.334, 207.052
561.653, 148.422
562.972, 133.748
564.291, 90.028
565.610, 145.253
566.928, 111.436
568.247, 116.571
569.565, 133.659
570.882, 102.705
572.200, 105.704
573.517, 119.656
574.834, 105.567
576.151, 90.349
577.468, 56.251
578.784, 35.019
580.100, 68.726
581.416, 37.393
582.732, 68.003
584.047, 61.567
585.362, 48.083
586.677, 49.551
587.992, 21.968
589.307, 13.325
590.621, 22.620
591.935, 26.151
593.249, 24.064
594.563, 6.987
595.876, 49.054
597.189, 12.120
598.502, 21.255
599.815, 32.537
601.127, 16.717
602.440, 78.040
603.752, 16.457
605.064, 40.941
606.375, 98.540
607.686, 65.210
608.998, 0.032
610.308, 57.780
611.619, 21.672
612.930, 71.625
614.240, 28.666
615.550, 61.771
616.860, 76.954
618.169, 20.219
619.478, 76.595
620.787, 113.996
622.096, 71.495
623.405, 1.927
624.713, 77.691
626.021, 54.492
627.329, 36.281
628.637, 63.354
629.945, 107.371
631.252, 46.413
632.559, 57.598
633.866, 9.709
635.172, 18.909
636.479, 9.831
637.785, 10.698
639.091, 21.694
640.396, 3.040
641.702, 13.748
643.007, 6.243
644.312, 67.851
645.617, 73.667
646.921, 59.593
648.226, 8.151
649.530, 19.410
650.834, 28.481
652.137, 24.711
653.441, 86.940
654.744, 16.188
656.047, 110.531
657.350, 8.372
658.652, 50.755
659.954, 65.915
661.256, 27.023
662.558, 74.186
663.860, 123.258
665.161, 33.463
666.462, 98.614
667.763, 54.761
669.064, 20.781
670.365, 138.834
671.665, 74.938
672.965, 92.962
674.265, 110.037
675.564, 144.051
676.864, 154.116
678.163, 157.046
679.462, 142.894
680.760, 179.754
682.059, 214.592
683.357, 200.456
684.655, 199.336
685.953, 243.080
687.250, 252.953
688.548, 252.728
689.845, 280.649
691.142, 348.664
692.438, 372.541
693.735, 376.434
695.031, 442.265
696.327, 372.042
697.623, 424.678
698.918, 468.526
700.214, 419.435
701.509, 514.021
702.804, 457.928
704.098, 529.681
705.393, 560.363
706.687, 523.310
707.981, 588.632
709.275, 487.712
710.568, 526.368
711.861, 528.105
713.155, 550.983
714.447, 546.406
715.740, 657.910
717.032, 562.934
718.325, 561.646
719.617, 664.219
720.908, 546.032
722.200, 643.816
723.491, 534.189
724.782, 642.700
726.073, 544.486
727.364, 639.869
728.654, 673.355
729.944, 645.105
731.234, 672.700
732.524, 709.068
733.814, 714.585
735.103, 784.376
736.392, 674.431
737.681, 886.492
738.969, 766.681
740.258, 760.761
741.546, 870.493
742.834, 808.358
744.122, 856.185
745.409, 903.664
746.697, 940.715
747.984, 908.976
749.270, 991.471
750.557, 965.005
751.844, 918.144
753.130, 987.710
754.416, 1004.814
755.701, 1052.029
756.987, 1053.648
758.272, 1070.535
759.557, 1171.407
760.842, 1134.864
762.127, 1185.832
763.411, 1201.019
764.695, 1168.432
765.979, 1273.350
767.263, 1285.668
768.547, 1363.990
769.830, 1225.147
771.113, 1418.369
772.396, 1202.783
773.679, 1421.906
774.961, 1391.640
776.243, 1332.179
777.525, 1423.541
778.807, 1404.000
780.089, 1474.961
781.370, 1451.872
782.651, 1566.090
783.932, 1587.777
785.213, 1572.871
786.493, 1607.963
787.773, 1668.529
789.053, 1725.196
790.333, 1734.497
791.613, 1952.113
792.892, 1919.775
794.171, 2158.314
795.450, 2560.011
796.729, 2883.814
798.007, 2560.666
799.285, 2352.566
800.563, 2528.942
801.841, 2585.942
803.119, 2636.992
804.396, 2801.453
805.673, 2899.190
806.950, 3048.811
808.227, 3216.068
809.504, 3427.378
810.780, 3653.920
812.056, 3712.975
813.332, 4081.443
814.607, 4225.966
815.883, 4421.544
817.158, 5012.177
818.433, 5234.862
819.708, 5986.833
820.982, 6549.632
822.256, 7262.485
823.531, 7765.396
824.804, 8988.361
826.078, 10021.385
827.352, 11204.465
828.625, 12927.604
829.898, 14560.808
831.170, 16814.084
832.443, 19597.426
833.715, 23170.842
834.988, 27514.322
836.259, 33297.879
837.531, 39941.523
838.803, 46645.223
840.074, 51329.004
841.345, 54922.859
842.616, 53186.797
843.886, 49940.809
845.157, 44574.910
846.427, 39149.094
847.697, 35363.352
848.966, 31827.682
850.236, 28672.115
851.505, 27836.625
852.774, 26561.250
854.043, 25505.932
855.312, 26470.695
856.580, 24975.537
857.849, 23700.465
859.117, 22195.572
860.384, 20000.682
861.652, 18375.861
862.919, 16201.119
864.186, 14496.454
865.453, 12501.883
866.720, 11227.384
867.986, 9922.982
869.253, 8838.658
870.519, 7974.427
871.784, 7370.438
873.050, 6426.350
874.315, 6062.352
875.581, 5388.419
876.846, 5014.563
878.110, 4634.798
879.375, 4189.106
880.639, 3949.486
881.903, 3499.960
883.167, 3336.501
884.431, 3165.113
885.694, 2997.797
886.957, 3021.554
888.220, 2780.427
889.483, 2734.476
890.746, 2718.505
892.008, 2516.568
893.270, 2547.705
894.532, 2532.915
895.794, 2484.200
897.056, 2338.564
898.317, 2276.008
899.578, 2274.530
900.839, 2180.143
902.099, 2230.845
903.360, 2031.627
904.620, 2223.505
905.880, 2012.467
907.140, 2203.517
908.399, 1974.641
909.659, 1949.850
910.918, 1918.160
912.177, 1920.554
913.435, 1686.039
914.694, 1731.629
915.952, 1721.315
917.210, 1517.080
918.468, 1624.937
919.726, 1359.877
920.983, 1333.913
922.240, 1283.033
923.497, 1291.246
924.754, 1162.554
926.011, 1133.943
927.267, 1204.425
928.523, 1007.011
929.779, 963.689
931.035, 1002.440
932.290, 981.284
933.546, 907.212
934.801, 841.221
936.056, 805.316
937.310, 740.107
938.565, 750.783
939.819, 647.141
941.073, 624.568
942.327, 601.067
943.580, 620.631
944.833, 588.260
946.087, 545.959
947.340, 595.724
948.592, 469.553
949.845, 534.445
951.097, 441.402
952.349, 431.438
953.601, 400.538
954.853, 386.701
956.104, 404.929
957.355, 290.221
958.606, 290.574
959.857, 331.990
961.108, 260.467
962.358, 318.006
963.608, 237.607
964.858, 336.270
966.108, 341.993
967.357, 305.777
968.607, 266.621
969.856, 393.525
971.105, 287.493
972.353, 249.521
973.602, 374.607
974.850, 331.753
976.098, 246.957
977.346, 280.220
978.594, 269.541
979.841, 296.504
981.088, 377.979
982.335, 318.681
983.582, 269.407
984.828, 299.118
986.075, 201.564
987.321, 300.072
988.567, 120.818
989.812, 230.278
991.058, 246.322
992.303, 132.180
993.548, 159.554
994.793, 158.999
996.038, 227.684
997.282, 163.122
998.526, 112.315
999.770, 117.420
1001.014, 57.039
1002.258, 3.706
1003.501, 81.162
1004.744, 122.079
1005.987, 63.197
1007.230, 65.231
1008.473, 15.719
1009.715, 47.645
1010.957, 94.182
1012.199, 77.019
1013.441, 69.346
1014.682, 12.062
1015.923, 18.070
1017.164, 52.806
1018.405, 10.188
1019.646, 90.596
1020.886, 21.362
1022.127, 48.274
1023.367, 46.216
1024.606, 30.510
1025.846, 78.964
1027.085, 69.389
1028.325, 32.347
1029.564, 58.704
1030.802, 81.845
1032.041, 57.266
1033.279, 25.954
1034.517, 29.511
1035.755, 67.030
1036.993, 3.392
1038.230, 16.808
1039.468, 4.453
1040.705, 82.632
1041.942, 20.317
1043.178, 48.141
1044.415, 63.891
1045.651, 44.669
1046.887, 87.478
1048.123, 89.255
1049.358, 136.187
1050.594, 113.088
1051.829, 86.019
1053.064, 77.979
1054.299, 83.965
1055.533, 50.979
1056.768, 78.018
1058.002, 118.082
1059.236, 185.174
1060.469, 21.290
1061.703, 50.428
1062.936, 77.589
1064.169, 122.771
1065.402, 106.975
1066.635, 63.199
1067.867, 89.443
1069.100, 91.708
1070.332, 74.993
1071.564, 100.297
1072.795, 71.623
1074.027, 109.967
1075.258, 24.329
1076.489, 90.706
1077.720, 102.099
1078.950, 65.505
1080.181, 156.931
1081.411, 64.373
1082.641, 94.835
1083.871, 104.311
1085.100, 97.799
1086.330, 108.308
1087.559, 113.828
1088.788, 109.360
1090.016, 108.385
1091.245, 135.460
1092.473, 94.026
1093.701, 68.602
1094.929, 59.780
1096.157, 74.777
1097.384, 70.374
1098.612, 95.977
1099.839, 142.585
1101.066, 93.201
1102.292, 35.820
1103.519, 183.445
1104.745, 53.073
1105.971, 136.705
1107.197, 98.340
1108.423, 130.977
1109.648, 89.616
1110.873, 74.255
1112.098, 82.896
1113.323, 61.540
1114.548, 91.182
1115.772, 51.826
1116.996, 122.470
1118.220, 60.112
1119.444, 49.751
1120.667, 35.390
1121.891, 11.027
1123.114, 58.662
1124.337, 21.293
1125.560, 56.921
1126.782, 27.454
1128.004, 72.851
1129.227, 5.710
1130.448, 53.738
1131.670, 12.223
1132.892, 61.726
1134.113, 60.271
1135.334, 43.691
1136.555, 17.316
1137.776, 79.873
1138.996, 0.580
1140.216, 80.305
1141.436, 96.013
1142.656, 27.865
1143.876, 56.753
1145.095, 32.564
1146.315, 114.475
1147.534, 35.537
1148.753, 10.424
1149.971, 135.748
1151.190, 33.757
1152.408, 34.939
1153.626, 14.262
1154.844, 46.380
1156.061, 99.798
1157.279, 0.684
1158.496, 19.243
1159.713, 8.492
1160.930, 64.188
1162.146, 51.894
1163.363, 91.825
1164.579, 17.350
1165.795, 66.291
1167.010, 29.942
1168.226, 44.569
1169.441, 20.359
1170.657, 65.765
1171.871, 31.346
1173.086, 37.518
1174.301, 50.354
1175.515, 41.804
1176.729, 27.155
1177.943, 88.112
1179.157, 76.396
1180.370, 89.087
1181.584, 120.536
1182.797, 99.597
1184.010, 108.445
1185.222, 66.185
1186.435, 79.493
1187.647, 160.859
1188.859, 101.249
1190.071, 183.095
1191.283, 225.857
1192.494, 170.699
1193.706, 226.881
1194.917, 196.170
1196.128, 191.464
1197.338, 245.617
1198.549, 267.053
1199.759, 279.591
1200.969, 327.462
1202.179, 262.270
1203.389, 390.529
1204.598, 215.179
1205.807, 303.457
1207.016, 321.809
1208.225, 254.233
1209.434, 358.472
1210.642, 221.769
1211.850, 248.127
1213.058, 357.410
1214.266, 377.706
1215.474, 325.204
1216.681, 336.703
1217.889, 370.400
1219.096, 347.940
1220.302, 341.110
1221.509, 361.260
1222.715, 336.874
1223.922, 355.722
1225.128, 342.677
1226.334, 270.910
1227.539, 344.761
1228.745, 337.354
1229.950, 289.349
1231.155, 343.238
1232.360, 337.715
1233.564, 351.926
1234.769, 321.050
1235.973, 286.205
1237.177, 326.043
1238.381, 317.786
1239.584, 304.219
1240.787, 336.611
1241.991, 369.775
1243.194, 334.776
1244.396, 360.253
1245.599, 349.672
1246.801, 358.814
1248.004, 328.091
1249.206, 387.177
1250.407, 318.222
1251.609, 410.229
1252.810, 300.141
1254.012, 286.129
1255.212, 343.796
1256.413, 395.957
1257.614, 352.958
1258.814, 319.520
1260.014, 313.771
1261.214, 357.729
1262.414, 447.182
1263.614, 307.696
1264.813, 380.571
1266.012, 299.397
1267.211, 326.132
1268.410, 388.900
1269.609, 343.251
1270.807, 413.885
1272.005, 319.491
1273.203, 304.794
1274.401, 331.893
1275.598, 306.813
1276.796, 328.956
1277.993, 315.116
1279.190, 219.184
1280.387, 332.035
1281.583, 228.340
1282.780, 256.930
1283.976, 264.936
1285.172, 225.384
1286.368, 259.696
1287.563, 262.699
1288.759, 203.891
1289.954, 216.333
1291.149, 299.868
1292.343, 207.895
1293.538, 238.288
1294.732, 173.079
1295.927, 191.830
1297.121, 211.387
1298.314, 91.033
1299.508, 179.665
1300.701, 93.985
1301.895, 64.130
1303.087, 137.982
1304.280, 91.336
1305.473, 49.288
1306.665, 198.931
1307.857, 76.843
1309.049, 65.100
1310.241, 142.539
1311.433, 38.128
1312.624, 66.182
1313.815, 137.967
1315.006, 5.703
1316.197, 53.515
1317.388, 58.708
1318.578, 33.365
1319.768, 116.614
1320.958, 32.068
1322.148, 10.765
1323.338, 159.292
1324.527, 1.299
1325.716, 91.332
1326.906, 108.294
1328.094, 39.238
1329.283, 69.399
1330.471, 53.821
1331.660, 56.632
1332.848, 94.292
1334.035, 101.016
1335.223, 88.725
1336.411, 61.373
1337.598, 52.977
1338.785, 50.748
1339.972, 57.056
1341.158, 40.534
1342.345, 103.016
1343.531, 68.412
1344.717, 70.769
1345.903, 134.084
1347.089, 24.361
1348.274, 114.594
1349.459, 101.790
1350.644, 88.948
1351.829, 107.052
1353.014, 95.897
1354.198, 84.237
1355.383, 89.249
1356.567, 83.225
1357.751, 63.167
1358.934, 59.950
1360.118, 44.946
1361.301, 51.784
1362.484, 76.585
1363.667, 108.356
1364.850, 99.098
1366.032, 100.910
1367.215, 20.593
1368.397, 55.245
1369.579, 3.129
1370.760, 120.462
1371.942, 64.033
1373.123, 6.417
1374.304, 121.098
1375.485, 40.281
1376.666, 42.765
1377.847, 38.238
1379.027, 56.677
1380.207, 60.479
1381.387, 89.414
1382.567, 90.281
1383.747, 128.083
1384.926, 168.815
1386.105, 67.478
1387.284, 70.072
1388.463, 101.599
1389.641, 78.057
1390.820, 98.444
1391.998, 99.756
1393.176, 100.000
1394.354, 114.170
1395.532, 88.265
1396.709, 174.287
1397.886, 57.276
1399.063, 71.237
1400.240, 182.179
1401.417, 36.935
1402.593, 60.772
1403.769, 173.631
1404.945, 126.631
1406.121, 55.410
1407.297, 56.410
1408.472, 62.249
1409.648, 53.703
1410.823, 118.768
1411.998, 55.671
1413.172, 132.261
1414.347, 84.180
1415.521, 79.574
1416.695, 117.345
1417.869, 71.009
1419.043, 123.583
1420.216, 148.110
1421.390, 125.772
1422.563, 80.787
1423.736, 109.173
1424.909, 54.825
1426.081, 65.293
1427.254, 82.226
1428.426, 100.873
1429.598, 119.954
1430.770, 126.193
1431.941, 129.312
1433.113, 145.581
1434.284, 129.417
1435.455, 152.053
1436.626, 168.666
1437.796, 148.469
1438.967, 168.331
1440.137, 125.205
1441.307, 100.318
1442.477, 107.233
1443.646, 104.351
1444.816, 124.489
1445.985, 101.729
1447.154, 110.673
1448.323, 106.387
1449.492, 90.545
1450.660, 31.662
1451.829, 158.899
1452.997, 67.117
1454.165, 55.427
1455.332, 123.325
1456.500, 64.429
1457.667, 161.579
1458.834, 172.898
1460.001, 85.605
1461.168, 132.633
1462.335, 150.125
1463.501, 28.171
1464.667, 92.264
1465.833, 87.917
1466.999, 65.776
1468.165, 167.541
1469.330, 79.555
1470.495, 122.512
1471.660, 108.030
1472.825, 86.208
1473.990, 135.169
1475.154, 47.948
1476.318, 51.915
1477.482, 138.859
1478.646, 104.734
1479.810, 93.531
1480.974, 92.297
1482.137, 36.030
1483.300, 85.829
1484.463, 128.799
1485.626, 71.981
1486.788, 181.746
1487.950, 137.307
1489.113, 50.037
1490.275, 176.987
1491.436, 103.004
1492.598, 31.262
1493.759, 187.455
1494.920, 59.765
1496.081, 63.132
1497.242, 141.607
1498.403, 70.961
1499.563, 66.561
1500.724, 131.243
1501.884, 66.658
1503.043, 127.542
1504.203, 74.597
1505.363, 17.835
1506.522, 112.876
1507.681, 136.532
1508.840, 72.410
1509.999, 148.566
1511.157, 98.065
1512.315, 113.986
1513.474, 146.249
1514.632, 3.154
1515.789, 159.961
1516.947, 174.941
1518.104, 7.842
1519.261, 0.000
##END=



