##NAMES=Crocoite
##RRUFFID=R040053
##IDEAL CHEMISTRY=Pb^2+^Cr^6+^O_4_
##LOCALITY=Dundas, Tasmania
##OWNER=RRUFF
##SOURCE=Bob Downs
##DESCRIPTION=Reddish-orange prismatic crystal
##STATUS=The identification of this mineral has been confirmed by X-ray diffraction and chemical analysis
##URL=rruff.info/R040053
##MEASURED CHEMISTRY=(Pb_.995_Mn_.005_)CrO_4_
##PIN_ID=L00229
##ORIENTATION=Laser parallel to -b* (0 -1 0). Fiducial mark perpendicular to laser is parallel to -c [0 0 -1]
82.916, 0.000
84.311, 11.771
85.706, 3.574
87.101, 9.365
88.496, 29.756
89.890, 156.929
91.284, 315.782
92.678, 443.783
94.071, 605.861
95.465, 715.244
96.858, 732.383
98.251, 780.867
99.644, 693.354
101.036, 533.560
102.428, 474.247
103.820, 344.222
105.212, 341.321
106.604, 373.424
107.995, 344.466
109.387, 436.394
110.777, 411.149
112.168, 436.646
113.559, 500.789
114.949, 517.499
116.339, 595.710
117.729, 642.352
119.119, 610.427
120.508, 775.847
121.897, 830.594
123.286, 937.638
124.675, 1136.955
126.063, 1330.513
127.452, 1539.286
128.840, 1899.361
130.228, 2292.915
131.615, 2896.835
133.003, 3382.190
134.390, 3970.909
135.777, 4407.993
137.164, 4699.408
138.550, 4573.018
139.937, 4290.691
141.323, 3874.369
142.709, 3480.057
144.094, 3037.759
145.480, 2553.477
146.865, 2405.215
148.250, 2030.975
149.635, 1880.757
151.019, 1670.564
152.403, 1564.396
153.788, 1423.253
155.171, 1246.136
156.555, 1101.046
157.939, 922.981
159.322, 877.943
160.705, 821.931
162.088, 656.943
163.470, 623.981
164.853, 547.042
166.235, 560.101
167.617, 508.095
168.998, 479.050
170.380, 447.990
171.761, 398.925
173.142, 448.867
174.523, 462.304
175.904, 452.141
177.284, 485.187
178.664, 543.758
180.044, 486.222
181.424, 539.496
182.803, 504.658
184.183, 547.731
185.562, 474.895
186.940, 494.258
188.319, 519.854
189.698, 432.136
191.076, 451.192
192.454, 427.214
193.831, 411.317
195.209, 420.716
196.586, 363.364
197.963, 353.062
199.340, 406.805
200.717, 297.593
202.093, 304.425
203.470, 338.300
204.846, 311.216
206.221, 287.173
207.597, 279.176
208.972, 262.222
210.347, 247.304
211.722, 198.419
213.097, 227.567
214.472, 191.746
215.846, 218.955
217.220, 180.190
218.594, 207.451
219.967, 178.734
221.341, 232.036
222.714, 140.363
224.087, 195.718
225.460, 180.090
226.832, 185.487
228.204, 137.905
229.577, 80.346
230.948, 139.810
232.320, 116.287
233.692, 111.774
235.063, 156.269
236.434, 91.780
237.805, 87.311
239.175, 60.857
240.545, 110.410
241.916, 52.967
243.286, 58.530
244.655, 32.110
246.025, 77.704
247.394, 35.325
248.763, 54.023
250.132, 20.279
251.501, 46.900
252.869, 41.709
254.237, 33.908
255.605, 18.329
256.973, 15.700
258.340, 47.701
259.708, 8.618
261.075, 25.667
262.442, 33.827
263.808, 63.910
265.175, 17.565
266.541, 30.884
267.907, 61.576
269.273, 9.976
270.639, 28.320
272.004, 18.605
273.369, 25.835
274.734, 39.019
276.099, 1.173
277.463, 79.280
278.828, 7.162
280.192, 10.796
281.556, 40.201
282.919, 22.169
284.283, 24.112
285.646, 77.030
287.009, 5.919
288.372, 7.785
289.734, 39.613
291.097, 17.424
292.459, 32.221
293.821, 23.766
295.183, 46.738
296.544, 2.463
297.905, 23.173
299.266, 16.869
300.627, 6.555
301.988, 22.240
303.348, 25.070
304.709, 6.399
306.069, 18.745
307.428, 61.116
308.788, 78.763
310.147, 79.149
311.507, 77.542
312.865, 91.933
314.224, 65.348
315.583, 86.410
316.941, 100.216
318.299, 110.612
319.657, 137.047
321.015, 150.492
322.372, 148.948
323.729, 168.406
325.086, 232.868
326.443, 248.334
327.800, 197.799
329.156, 270.962
330.512, 254.424
331.868, 336.284
333.224, 441.736
334.579, 553.182
335.935, 656.625
337.290, 816.061
338.645, 966.459
339.999, 894.829
341.354, 885.176
342.708, 712.557
344.062, 625.103
345.416, 637.360
346.769, 648.593
348.123, 729.357
349.476, 895.322
350.829, 1004.457
352.182, 1082.562
353.534, 1280.864
354.887, 1376.906
356.239, 1766.925
357.591, 2136.924
358.942, 2396.562
360.294, 2435.539
361.645, 2190.727
362.996, 1845.685
364.347, 1504.638
365.698, 1221.842
367.048, 1028.121
368.398, 935.867
369.748, 923.816
371.098, 870.479
372.448, 1075.378
373.797, 1277.542
375.146, 1719.857
376.495, 2380.872
377.844, 2690.721
379.192, 2547.774
380.540, 1987.573
381.889, 1422.358
383.236, 972.128
384.584, 653.883
385.932, 542.971
387.279, 404.820
388.626, 338.190
389.973, 439.233
391.319, 433.646
392.666, 406.467
394.012, 367.255
395.358, 477.878
396.704, 465.483
398.049, 636.071
399.394, 809.889
400.740, 961.649
402.084, 933.896
403.429, 707.106
404.774, 548.903
406.118, 402.047
407.462, 303.716
408.806, 220.871
410.150, 206.916
411.493, 192.829
412.836, 152.409
414.179, 218.921
415.522, 186.429
416.865, 193.343
418.207, 219.395
419.549, 199.883
420.891, 179.116
422.233, 182.428
423.575, 149.342
424.916, 140.371
426.257, 185.215
427.598, 123.259
428.939, 133.568
430.279, 164.125
431.619, 150.995
432.959, 127.978
434.299, 185.684
435.639, 149.423
436.978, 179.589
438.318, 166.078
439.657, 94.893
440.996, 221.014
442.334, 180.943
443.673, 151.931
445.011, 204.277
446.349, 156.983
447.687, 223.288
449.024, 213.137
450.361, 204.160
451.699, 196.425
453.036, 176.880
454.372, 208.834
455.709, 237.435
457.045, 208.785
458.381, 171.444
459.717, 240.538
461.053, 209.749
462.388, 191.444
463.724, 221.608
465.059, 214.766
466.394, 162.420
467.728, 174.822
469.063, 130.118
470.397, 207.490
471.731, 223.788
473.065, 223.983
474.398, 296.354
475.732, 235.849
477.065, 202.826
478.398, 240.996
479.731, 202.810
481.063, 225.114
482.396, 185.424
483.728, 277.696
485.060, 224.571
486.391, 202.407
487.723, 253.114
489.054, 137.958
490.385, 228.275
491.716, 154.711
493.047, 201.342
494.377, 265.934
495.708, 220.163
497.038, 252.678
498.368, 235.156
499.697, 201.595
501.027, 202.194
502.356, 178.357
503.685, 162.680
505.014, 203.963
506.342, 189.207
507.671, 182.413
508.999, 155.581
510.327, 209.707
511.655, 201.795
512.982, 160.846
514.310, 195.857
515.637, 260.830
516.964, 195.766
518.291, 133.664
519.617, 207.519
520.944, 107.336
522.270, 216.105
523.596, 179.837
524.921, 152.531
526.247, 146.185
527.572, 119.797
528.897, 169.365
530.222, 120.895
531.547, 171.380
532.871, 96.828
534.196, 134.227
535.520, 152.584
536.844, 166.902
538.167, 145.182
539.491, 381.423
540.814, 304.418
542.137, 275.799
543.460, 293.923
544.783, 132.016
546.105, 93.068
547.427, 112.074
548.749, 128.037
550.071, 105.959
551.393, 138.838
552.714, 138.679
554.035, 163.482
555.356, 154.975
556.677, 153.707
557.998, 124.674
559.318, 126.329
560.638, 95.947
561.958, 58.522
563.278, 115.047
564.597, 93.532
565.917, 69.976
567.236, 27.374
568.555, 53.712
569.874, 56.001
571.192, 113.241
572.511, 65.444
573.829, 63.602
575.147, 23.715
576.464, 42.770
577.782, 57.776
579.099, 4.264
580.416, 9.628
581.733, 38.459
583.050, 33.240
584.366, 16.972
585.683, 68.340
586.999, 29.746
588.315, 17.769
589.630, 79.244
590.946, 2.314
592.261, 7.072
593.576, 17.365
594.891, 89.699
596.206, 0.034
597.520, 43.178
598.834, 33.838
600.148, 23.718
601.462, 11.665
602.776, 10.338
604.089, 0.300
605.402, 68.783
606.715, 7.064
608.028, 63.131
609.341, 13.406
610.653, 16.275
611.965, 71.078
613.277, 29.505
614.589, 77.985
615.901, 19.539
617.212, 44.143
618.523, 27.804
619.834, 1.484
621.145, 13.739
622.456, 59.032
623.766, 59.871
625.076, 84.776
626.386, 3.760
627.696, 39.055
629.006, 24.130
630.315, 15.750
631.624, 93.396
632.933, 0.621
634.242, 27.875
635.551, 49.171
636.859, 29.520
638.167, 55.909
639.475, 58.352
640.783, 26.848
642.090, 39.380
643.398, 40.954
644.705, 23.567
646.012, 28.212
647.318, 19.589
648.625, 24.293
649.931, 44.574
651.237, 58.822
652.543, 24.949
653.849, 68.256
655.155, 33.440
656.460, 132.608
657.765, 49.759
659.070, 49.892
660.375, 26.950
661.679, 35.802
662.984, 79.886
664.288, 35.956
665.592, 35.987
666.895, 30.691
668.199, 85.716
669.502, 108.728
670.805, 99.490
672.108, 82.475
673.411, 136.447
674.713, 118.408
676.016, 143.704
677.318, 136.640
678.620, 225.346
679.921, 135.262
681.223, 153.163
682.524, 269.793
683.825, 204.329
685.126, 252.376
686.427, 259.204
687.727, 220.295
689.028, 253.133
690.328, 308.686
691.628, 303.069
692.927, 391.733
694.227, 356.546
695.526, 386.135
696.825, 356.959
698.124, 499.780
699.423, 615.598
700.721, 597.024
702.020, 502.878
703.318, 625.563
704.616, 505.716
705.913, 538.179
707.211, 477.255
708.508, 503.907
709.805, 507.581
711.102, 640.403
712.399, 586.227
713.695, 586.054
714.992, 537.635
716.288, 541.258
717.584, 553.380
718.879, 583.526
720.175, 577.070
721.470, 615.251
722.765, 553.896
724.060, 602.042
725.355, 612.284
726.649, 556.658
727.944, 666.365
729.238, 543.136
730.532, 652.909
731.825, 585.271
733.119, 632.491
734.412, 649.268
735.705, 573.292
736.998, 726.230
738.291, 654.561
739.584, 661.768
740.876, 697.326
742.168, 668.723
743.460, 694.626
744.752, 747.474
746.043, 723.279
747.334, 727.167
748.626, 733.717
749.916, 753.895
751.207, 737.003
752.498, 793.401
753.788, 899.811
755.078, 875.280
756.368, 977.483
757.658, 951.541
758.947, 954.036
760.237, 1040.049
761.526, 1004.828
762.815, 1100.454
764.104, 1038.800
765.392, 1084.376
766.680, 1075.778
767.969, 1209.956
769.257, 1133.856
770.544, 1369.829
771.832, 1173.588
773.119, 1236.921
774.406, 1099.401
775.693, 1229.843
776.980, 1257.038
778.267, 1272.929
779.553, 1250.898
780.839, 1245.433
782.125, 1225.185
783.411, 1301.856
784.697, 1285.312
785.982, 1334.821
787.267, 1331.114
788.552, 1389.658
789.837, 1459.719
791.122, 1433.587
792.406, 1691.811
793.690, 1808.545
794.974, 1591.273
796.258, 1781.041
797.542, 1804.206
798.825, 2022.411
800.108, 1927.747
801.391, 2093.949
802.674, 2105.675
803.957, 2127.286
805.239, 2222.703
806.522, 2177.161
807.804, 2295.985
809.085, 2560.527
810.367, 2549.112
811.649, 2710.740
812.930, 2765.411
814.211, 2906.125
815.492, 3331.882
816.772, 3426.685
818.053, 3882.532
819.333, 4130.424
820.613, 4708.362
821.893, 5331.344
823.173, 5914.373
824.452, 6717.448
825.732, 7680.569
827.011, 8393.738
828.290, 9436.951
829.568, 10320.214
830.847, 11743.545
832.125, 13956.929
833.403, 16200.387
834.681, 20903.906
835.959, 26657.469
837.236, 34101.094
838.514, 43524.770
839.791, 50498.523
841.068, 54422.332
842.345, 49676.223
843.621, 42200.168
844.898, 33054.176
846.174, 25658.262
847.450, 20952.418
848.726, 17136.643
850.001, 14950.942
851.277, 13655.306
852.552, 12579.729
853.827, 12264.215
855.102, 11468.757
856.376, 11443.359
857.651, 10599.018
858.925, 9383.751
860.199, 9008.561
861.473, 7183.435
862.746, 6289.456
864.020, 5214.480
865.293, 4539.564
866.566, 4244.724
867.839, 3745.947
869.112, 3283.224
870.384, 3122.574
871.656, 2766.989
872.928, 2595.472
874.200, 2335.046
875.472, 2273.682
876.744, 2156.377
878.015, 1936.143
879.286, 1947.970
880.557, 1936.946
881.828, 1716.913
883.098, 1917.938
884.369, 1714.050
885.639, 1654.258
886.909, 1745.498
888.178, 1612.803
889.448, 1627.182
890.717, 1573.628
891.987, 1640.140
893.256, 1660.719
894.524, 1498.433
895.793, 1584.168
897.061, 1498.981
898.330, 1504.863
899.598, 1496.802
900.865, 1581.821
902.133, 1577.908
903.401, 1640.061
904.668, 1624.223
905.935, 1535.546
907.202, 1581.882
908.468, 1485.296
909.735, 1463.785
911.001, 1287.343
912.267, 1420.966
913.533, 1235.656
914.799, 1194.431
916.064, 1240.271
917.330, 1220.191
918.595, 1144.182
919.860, 1106.232
921.124, 1017.367
922.389, 939.574
923.653, 931.864
924.918, 893.223
926.182, 946.657
927.445, 663.252
928.709, 745.816
929.972, 611.440
931.236, 774.035
932.499, 596.812
933.761, 527.669
935.024, 573.589
936.286, 592.577
937.549, 423.692
938.811, 542.800
940.073, 391.990
941.334, 320.237
942.596, 453.548
943.857, 388.927
945.118, 501.369
946.379, 294.881
947.640, 360.462
948.900, 469.103
950.161, 274.808
951.421, 388.575
952.681, 170.400
953.940, 268.285
955.200, 326.227
956.459, 274.226
957.719, 189.276
958.978, 166.378
960.236, 175.397
961.495, 172.060
962.753, 250.211
964.012, 225.524
965.270, 276.888
966.527, 285.303
967.785, 330.769
969.043, 270.285
970.300, 301.852
971.557, 390.469
972.814, 273.136
974.071, 340.852
975.327, 357.617
976.583, 284.431
977.840, 430.295
979.095, 232.207
980.351, 367.167
981.607, 262.835
982.862, 342.670
984.117, 325.980
985.372, 222.367
986.627, 316.565
987.882, 377.197
989.136, 166.506
990.390, 289.934
991.644, 170.377
992.898, 214.779
994.152, 135.452
995.405, 202.352
996.659, 235.165
997.912, 136.389
999.165, 71.079
1000.417, 193.985
1001.670, 75.471
1002.922, 147.651
1004.174, 149.117
1005.426, 29.425
1006.678, 142.744
1007.930, 77.410
1009.181, 149.046
1010.432, 91.379
1011.683, 45.974
1012.934, 79.747
1014.185, 100.917
1015.435, 59.702
1016.685, 127.511
1017.935, 18.084
1019.185, 48.346
1020.435, 68.762
1021.684, 110.498
1022.934, 48.130
1024.183, 99.826
1025.432, 153.983
1026.680, 72.638
1027.929, 155.653
1029.177, 127.221
1030.425, 8.276
1031.673, 165.221
1032.921, 73.888
1034.169, 121.911
1035.416, 2.354
1036.663, 277.423
1037.911, 76.127
1039.157, 162.962
1040.404, 14.831
1041.650, 141.733
1042.897, 197.810
1044.143, 7.224
1045.389, 131.770
1046.634, 178.791
1047.880, 58.086
1049.125, 230.155
1050.371, 107.466
1051.615, 132.587
1052.860, 139.734
1054.105, 148.907
1055.349, 293.102
1056.593, 21.333
1057.837, 26.587
1059.081, 178.860
1060.325, 119.166
1061.568, 162.488
1062.812, 104.829
1064.055, 108.189
1065.298, 243.566
1066.540, 172.962
1067.783, 116.374
1069.025, 197.802
1070.267, 59.246
1071.509, 153.705
1072.751, 145.180
1073.993, 122.670
1075.234, 117.175
1076.475, 7.309
1077.716, 191.221
1078.957, 203.762
1080.198, 43.685
1081.438, 151.871
1082.679, 138.438
1083.919, 64.020
1085.159, 299.610
1086.398, 3.790
1087.638, 146.817
1088.877, 228.432
1090.116, 74.056
1091.355, 161.688
1092.594, 123.326
1093.833, 181.971
1095.071, 110.621
1096.309, 123.275
1097.547, 215.935
1098.785, 75.597
1100.023, 115.262
1101.260, 124.932
1102.498, 93.604
1103.735, 157.493
1104.972, 90.174
1106.208, 37.857
1107.445, 131.541
1108.681, 124.226
1109.918, 6.087
1111.154, 239.597
1112.389, 80.283
1113.625, 42.981
1114.860, 51.664
1116.096, 54.343
1117.331, 18.078
1118.566, 166.753
1119.800, 81.425
1121.035, 85.096
1122.269, 434.763
1123.503, 506.424
1124.737, 362.084
1125.971, 233.739
1127.205, 123.389
1128.438, 47.031
1129.671, 86.275
1130.904, 9.685
1132.137, 93.110
1133.370, 17.475
1134.602, 28.171
1135.834, 37.731
1137.066, 16.016
1138.298, 134.415
1139.530, 15.962
1140.762, 43.400
1141.993, 64.023
1143.224, 9.257
1144.455, 96.244
1145.686, 67.043
1146.917, 38.687
1148.147, 74.580
1149.377, 31.148
1150.607, 23.654
1151.837, 8.682
1153.067, 3.956
1154.296, 2.308
1155.526, 8.719
1156.755, 19.800
1157.984, 66.124
1159.213, 1.154
1160.441, 6.684
1161.670, 114.247
1162.898, 0.306
1164.126, 49.009
1165.354, 10.354
1166.581, 74.639
1167.809, 37.285
1169.036, 9.416
1170.263, 13.553
1171.490, 99.858
1172.717, 28.661
1173.943, 49.737
1175.170, 38.213
1176.396, 80.773
1177.622, 22.210
1178.848, 34.091
1180.073, 122.201
1181.299, 40.764
1182.524, 120.195
1183.749, 92.711
1184.974, 42.441
1186.199, 122.035
1187.423, 112.577
1188.648, 89.616
1189.872, 43.136
1191.096, 136.749
1192.320, 203.442
1193.543, 131.204
1194.767, 79.310
1195.990, 250.351
1197.213, 26.874
1198.436, 201.637
1199.659, 232.188
1200.881, 173.321
1202.104, 284.258
1203.326, 202.507
1204.548, 212.956
1205.770, 267.497
1206.991, 236.980
1208.213, 228.380
1209.434, 303.901
1210.655, 265.871
1211.876, 268.320
1213.096, 302.271
1214.317, 319.649
1215.537, 293.977
1216.757, 306.579
1217.977, 336.094
1219.197, 322.680
1220.417, 288.412
1221.636, 341.731
1222.855, 294.797
1224.074, 192.356
1225.293, 370.356
1226.512, 210.736
1227.731, 252.075
1228.949, 339.178
1230.167, 214.264
1231.385, 260.154
1232.603, 316.071
1233.820, 198.000
1235.038, 280.624
1236.255, 226.848
1237.472, 244.987
1238.689, 331.504
1239.906, 232.397
1241.122, 313.850
1242.338, 276.403
1243.555, 296.916
1244.771, 359.257
1245.986, 288.560
1247.202, 231.341
1248.417, 323.648
1249.633, 174.129
1250.848, 239.541
1252.063, 321.742
1253.277, 227.150
1254.492, 330.372
1255.706, 236.116
1256.920, 292.129
1258.134, 349.727
1259.348, 228.691
1260.562, 251.624
1261.775, 316.524
1262.988, 224.558
1264.201, 250.392
1265.414, 343.219
1266.627, 302.656
1267.839, 346.435
1269.052, 267.169
1270.264, 300.607
1271.476, 348.237
1272.688, 269.832
1273.899, 322.415
1275.111, 243.198
1276.322, 318.349
1277.533, 302.000
1278.744, 223.187
1279.955, 216.937
1281.165, 287.248
1282.376, 280.515
1283.586, 337.672
1284.796, 273.731
1286.006, 189.880
1287.215, 235.589
1288.425, 286.417
1289.634, 189.980
1290.843, 310.760
1292.052, 186.976
1293.261, 286.908
1294.469, 157.468
1295.678, 143.418
1296.886, 270.875
1298.094, 116.817
1299.302, 119.898
1300.509, 93.244
1301.717, 70.791
1302.924, 107.924
1304.131, 170.302
1305.338, 87.091
1306.545, 135.132
1307.752, 142.839
1308.958, 103.422
1310.164, 175.460
1311.370, 114.242
1312.576, 106.331
1313.782, 137.420
1314.987, 40.025
1316.193, 60.729
1317.398, 131.365
1318.603, 4.538
1319.807, 130.292
1321.012, 36.416
1322.216, 74.314
1323.421, 127.114
1324.625, 19.890
1325.829, 0.512
1327.032, 191.936
1328.236, 12.552
1329.439, 69.902
1330.642, 77.412
1331.845, 26.779
1333.048, 11.099
1334.251, 25.407
1335.453, 20.346
1336.656, 55.653
1337.858, 53.770
1339.060, 105.838
1340.261, 109.617
1341.463, 17.595
1342.664, 145.313
1343.866, 54.206
1345.067, 25.058
1346.267, 100.866
1347.468, 19.371
1348.669, 52.328
1349.869, 157.053
1351.069, 9.332
1352.269, 176.233
1353.469, 139.762
1354.668, 74.254
1355.868, 141.706
1357.067, 70.122
1358.266, 143.499
1359.465, 147.921
1360.664, 94.314
1361.862, 100.579
1363.061, 87.923
1364.259, 70.114
1365.457, 111.269
1366.655, 162.390
1367.852, 67.479
1369.050, 161.535
1370.247, 86.615
1371.444, 99.607
1372.641, 111.573
1373.838, 27.511
1375.035, 145.413
1376.231, 130.385
1377.427, 106.227
1378.623, 183.045
1379.819, 70.121
1381.015, 74.891
1382.211, 249.641
1383.406, 96.873
1384.601, 198.585
1385.796, 150.250
1386.991, 150.589
1388.185, 188.708
1389.380, 214.629
1390.574, 81.940
1391.768, 165.973
1392.962, 117.151
1394.156, 25.270
1395.350, 169.323
1396.543, 112.299
1397.736, 149.230
1398.929, 60.040
1400.122, 134.847
1401.315, 67.590
1402.507, 200.266
1403.700, 195.881
1404.892, 185.391
1406.084, 137.831
1407.276, 196.211
1408.467, 170.713
1409.659, 54.917
1410.850, 165.374
1412.041, 167.607
1413.232, 44.905
1414.423, 186.434
1415.614, 212.049
1416.804, 165.278
1417.994, 104.701
1419.184, 87.545
1420.374, 187.053
1421.564, 228.501
1422.753, 51.577
1423.943, 186.408
1425.132, 78.936
1426.321, 20.259
1427.510, 176.195
1428.698, 129.381
1429.887, 36.574
1431.075, 138.653
1432.263, 148.466
1433.451, 4.045
1434.639, 192.846
1435.827, 94.678
1437.014, 128.208
1438.201, 170.327
1439.388, 83.027
1440.575, 224.330
1441.762, 133.868
1442.949, 58.023
1444.135, 138.125
1445.321, 72.102
1446.507, 45.461
1447.693, 275.251
1448.879, 7.171
1450.064, 193.680
1451.250, 168.820
1452.435, 22.730
1453.620, 183.159
1454.805, 167.197
1455.989, 73.025
1457.174, 261.882
1458.358, 119.001
1459.542, 138.334
1460.726, 203.177
1461.910, 85.784
1463.093, 113.343
1464.277, 270.160
1465.460, 97.826
1466.643, 203.394
1467.826, 226.565
1469.009, 47.263
1470.191, 288.180
1471.373, 99.367
1472.556, 113.167
1473.738, 109.783
1474.919, 155.588
1476.101, 81.219
1477.283, 316.970
1478.464, 101.267
1479.645, 235.020
1480.826, 216.353
1482.007, 132.706
1483.187, 212.886
1484.368, 188.371
1485.548, 171.049
1486.728, 248.232
1487.908, 141.997
1489.088, 189.815
1490.268, 174.074
1491.447, 56.471
1492.626, 152.080
1493.805, 186.773
1494.984, 139.013
1496.163, 205.167
1497.341, 171.931
1498.520, 92.977
1499.698, 288.103
1500.876, 46.157
1502.054, 44.215
1503.232, 186.274
1504.409, 37.180
1505.586, 182.393
1506.763, 155.745
1507.940, 86.266
1509.117, 147.826
1510.294, 160.463
1511.470, 51.875
1512.647, 227.923
1513.823, 67.085
1514.999, 77.404
1516.174, 169.119
1517.350, 46.897
1518.526, 80.482
1519.701, 234.541
1520.876, 24.889
1522.051, 233.690
1523.226, 230.642
1524.400, 7.955
1525.574, 296.038
1526.749, 141.224
1527.923, 62.516
1529.097, 71.918
1530.270, 0.000
##END=



