##NAMES=Crocoite
##RRUFFID=R050044
##IDEAL CHEMISTRY=Pb^2+^Cr^6+^O_4_
##LOCALITY=Red Ledge mine, Dundas, Tasmania
##OWNER=RRUFF
##SOURCE=Eugene Schlepp
##DESCRIPTION=Red crystal fragment
##STATUS=The identification of this mineral has been confirmed by X-ray diffraction and chemical analysis
##URL=rruff.info/R050044
##MEASURED CHEMISTRY=Pb_1.02_Cr_0.99_O_4_
##PIN_ID=L00482
##ORIENTATION=Laser parallel to (-1 0 -1). Fiducial mark perpendicular to laser is parallel to b [0 1 0]
159.444, 0.000
160.834, 14.862
162.224, 53.922
163.613, 39.484
165.002, 0.465
166.391, 38.485
167.780, 0.973
169.169, 24.555
170.557, 0.028
171.945, 25.389
173.333, 1.855
174.720, 28.626
176.108, 50.531
177.495, 24.056
178.881, 41.284
180.268, 34.522
181.654, 10.760
183.040, 24.628
184.426, 51.457
185.812, 39.890
187.197, 10.320
188.582, 50.740
189.967, 61.930
191.351, 67.492
192.736, 16.384
194.120, 31.310
195.504, 33.805
196.887, 64.130
198.271, 37.901
199.654, 18.041
201.036, 41.818
202.419, 36.375
203.801, 62.040
205.184, 50.537
206.565, 68.364
207.947, 40.088
209.328, 38.091
210.710, 31.276
212.090, 28.917
213.471, 24.288
214.851, 33.917
216.232, 26.236
217.611, 24.005
218.991, 36.760
220.370, 30.011
221.750, 46.605
223.129, 32.034
224.507, 32.804
225.886, 56.488
227.264, 55.274
228.642, 57.557
230.019, 61.365
231.397, 56.248
232.774, 48.821
234.151, 57.524
235.528, 43.290
236.904, 28.392
238.281, 12.204
239.656, 40.835
241.032, 16.464
242.408, 30.104
243.783, 19.794
245.158, 1.475
246.533, 35.291
247.907, 14.911
249.282, 34.915
250.656, 13.765
252.029, 13.366
253.403, 19.518
254.776, 28.412
256.149, 21.314
257.522, 34.221
258.895, 34.132
260.267, 21.044
261.639, 11.044
263.011, 0.136
264.382, 14.767
265.754, 2.336
267.125, 15.552
268.496, 38.427
269.866, 4.714
271.237, 4.129
272.607, 28.958
273.977, 35.772
275.346, 7.571
276.716, 10.355
278.085, 24.124
279.454, 3.876
280.823, 16.612
282.191, 1.328
283.559, 10.024
284.927, 19.702
286.295, 11.353
287.662, 29.978
289.030, 19.568
290.397, 22.141
291.763, 25.846
293.130, 30.506
294.496, 13.398
295.862, 41.261
297.228, 11.065
298.594, 7.046
299.959, 47.879
301.324, 481.504
302.689, 232.563
304.053, 267.203
305.418, 22.263
306.782, 45.853
308.146, 38.513
309.509, 53.132
310.873, 29.737
312.236, 74.378
313.599, 69.064
314.961, 79.755
316.324, 96.404
317.686, 111.089
319.048, 151.871
320.409, 138.478
321.771, 176.074
323.132, 222.668
324.493, 218.929
325.854, 313.156
327.214, 337.235
328.574, 362.334
329.934, 425.256
331.294, 487.201
332.654, 588.025
334.013, 722.881
335.372, 971.609
336.731, 1316.453
338.089, 1677.122
339.448, 1840.863
340.806, 1922.490
342.164, 1800.031
343.521, 1537.528
344.879, 1262.941
346.236, 1087.253
347.593, 1059.538
348.949, 1122.818
350.306, 1157.122
351.662, 1057.174
353.018, 942.318
354.373, 743.454
355.729, 595.693
357.084, 464.580
358.439, 409.642
359.794, 363.603
361.148, 318.654
362.503, 318.516
363.857, 294.289
365.210, 283.142
366.564, 203.885
367.917, 196.719
369.270, 194.397
370.623, 167.000
371.976, 199.658
373.328, 181.083
374.680, 205.655
376.032, 232.959
377.384, 241.221
378.735, 272.550
380.086, 277.803
381.437, 264.045
382.788, 227.369
384.138, 204.675
385.488, 167.018
386.838, 174.263
388.188, 159.445
389.538, 160.948
390.887, 180.944
392.236, 192.166
393.585, 201.315
394.933, 251.490
396.282, 335.564
397.630, 482.806
398.977, 655.904
400.325, 847.876
401.672, 1093.666
403.020, 1148.654
404.366, 1069.474
405.713, 913.436
407.059, 662.556
408.406, 471.041
409.752, 350.119
411.097, 234.549
412.443, 178.494
413.788, 156.191
415.133, 155.613
416.478, 129.392
417.822, 113.202
419.167, 119.013
420.511, 86.812
421.854, 101.681
423.198, 83.585
424.541, 108.104
425.884, 92.735
427.227, 47.814
428.570, 83.707
429.912, 56.236
431.254, 87.734
432.596, 59.695
433.938, 54.934
435.280, 61.256
436.621, 84.522
437.962, 69.442
439.303, 114.537
440.643, 88.111
441.983, 116.731
443.323, 131.522
444.663, 140.223
446.003, 112.579
447.342, 103.254
448.681, 137.940
450.020, 124.154
451.359, 129.821
452.697, 148.839
454.035, 115.132
455.373, 128.038
456.711, 138.503
458.048, 136.182
459.386, 137.739
460.723, 132.476
462.059, 142.640
463.396, 134.445
464.732, 140.257
466.068, 154.765
467.404, 135.529
468.740, 147.223
470.075, 148.461
471.410, 165.336
472.745, 135.447
474.080, 108.504
475.414, 147.724
476.748, 143.278
478.082, 159.549
479.416, 139.827
480.749, 144.093
482.083, 136.423
483.416, 148.671
484.749, 153.865
486.081, 130.062
487.413, 145.205
488.745, 121.431
490.077, 129.526
491.409, 130.484
492.740, 132.540
494.072, 127.577
495.402, 124.581
496.733, 105.562
498.064, 112.519
499.394, 105.454
500.724, 120.365
502.054, 126.438
503.383, 128.305
504.712, 136.639
506.041, 127.986
507.370, 135.790
508.699, 136.682
510.027, 116.444
511.355, 131.185
512.683, 129.906
514.011, 120.607
515.338, 85.287
516.666, 125.946
517.993, 88.593
519.319, 105.212
520.646, 93.811
521.972, 112.465
523.298, 101.034
524.624, 96.574
525.950, 103.094
527.275, 88.595
528.600, 105.076
529.925, 127.538
531.250, 73.983
532.574, 120.408
533.898, 66.815
535.222, 109.204
536.546, 97.575
537.869, 88.929
539.193, 83.266
540.516, 74.137
541.839, 72.887
543.161, 61.171
544.484, 64.437
545.806, 61.436
547.128, 67.915
548.449, 67.128
549.771, 77.324
551.092, 71.502
552.413, 86.663
553.734, 71.808
555.054, 83.935
556.374, 54.046
557.694, 63.140
559.014, 64.216
560.334, 60.277
561.653, 75.322
562.972, 60.351
564.291, 55.365
565.610, 33.362
566.928, 38.341
568.247, 41.305
569.565, 57.252
570.882, 50.190
572.200, 53.807
573.517, 70.017
574.834, 45.915
576.151, 50.797
577.468, 39.663
578.784, 56.514
580.100, 40.258
581.416, 28.049
582.732, 49.748
584.047, 18.542
585.362, 15.258
586.677, 6.760
587.992, 44.400
589.307, 7.912
590.621, 27.533
591.935, 28.973
593.249, 7.454
594.563, 24.115
595.876, 8.633
597.189, 11.245
598.502, 0.706
599.815, 23.299
601.127, 38.817
602.440, 27.377
603.752, 18.971
605.064, 6.636
606.375, 25.367
607.686, 31.051
608.998, 8.782
610.308, 30.527
611.619, 3.308
612.930, 29.173
614.240, 10.027
615.550, 25.887
616.860, 2.221
618.169, 34.687
619.478, 51.646
620.787, 27.633
622.096, 12.683
623.405, 8.735
624.713, 35.801
626.021, 0.939
627.329, 27.054
628.637, 5.198
629.945, 9.641
631.252, 8.575
632.559, 21.076
633.866, 2.124
635.172, 23.651
636.479, 18.426
637.785, 15.170
639.091, 17.077
640.396, 7.622
641.702, 14.346
643.007, 6.061
644.312, 19.709
645.617, 1.595
646.921, 8.002
648.226, 18.374
649.530, 2.235
650.834, 0.846
652.137, 1.431
653.441, 8.996
654.744, 2.477
656.047, 9.981
657.350, 23.451
658.652, 8.022
659.954, 10.523
661.256, 0.071
662.558, 18.650
663.860, 15.188
665.161, 6.245
666.462, 30.314
667.763, 4.792
669.064, 19.329
670.365, 31.858
671.665, 31.346
672.965, 34.448
674.265, 0.189
675.564, 24.536
676.864, 6.951
678.163, 5.683
679.462, 0.241
680.760, 14.152
682.059, 14.526
683.357, 19.926
684.655, 26.266
685.953, 33.089
687.250, 27.161
688.548, 52.441
689.845, 59.916
691.142, 72.147
692.438, 58.577
693.735, 94.961
695.031, 71.310
696.327, 105.638
697.623, 106.929
698.918, 92.218
700.214, 95.434
701.509, 69.683
702.804, 85.914
704.098, 131.193
705.393, 118.473
706.687, 130.799
707.981, 129.105
709.275, 115.478
710.568, 131.793
711.861, 126.164
713.155, 134.388
714.447, 139.681
715.740, 104.984
717.032, 101.275
718.325, 97.635
719.617, 111.938
720.908, 95.225
722.200, 120.250
723.491, 72.379
724.782, 132.564
726.073, 75.885
727.364, 142.178
728.654, 126.499
729.944, 172.897
731.234, 146.188
732.524, 141.520
733.814, 173.780
735.103, 155.152
736.392, 153.442
737.681, 178.573
738.969, 147.943
740.258, 150.875
741.546, 201.721
742.834, 185.233
744.122, 172.620
745.409, 207.249
746.697, 225.513
747.984, 231.946
749.270, 250.643
750.557, 257.093
751.844, 247.255
753.130, 267.933
754.416, 283.306
755.701, 277.296
756.987, 359.348
758.272, 317.154
759.557, 350.525
760.842, 302.709
762.127, 352.757
763.411, 394.488
764.695, 388.657
765.979, 396.504
767.263, 476.104
768.547, 466.131
769.830, 486.404
771.113, 503.727
772.396, 519.857
773.679, 613.719
774.961, 611.565
776.243, 595.967
777.525, 707.357
778.807, 723.045
780.089, 777.086
781.370, 890.366
782.651, 964.061
783.932, 1057.182
785.213, 1101.918
786.493, 1191.935
787.773, 1288.760
789.053, 1383.295
790.333, 1478.256
791.613, 1585.015
792.892, 1681.946
794.171, 1799.768
795.450, 1928.670
796.729, 2039.620
798.007, 2104.559
799.285, 2272.542
800.563, 2337.839
801.841, 2500.447
803.119, 2501.589
804.396, 2662.624
805.673, 2725.672
806.950, 2967.745
808.227, 3082.835
809.504, 3232.949
810.780, 3365.078
812.056, 3557.225
813.332, 3810.208
814.607, 4001.399
815.883, 4268.606
817.158, 4733.838
818.433, 5058.099
819.708, 5664.270
820.982, 6317.566
822.256, 7032.880
823.531, 7532.212
824.804, 8735.566
826.078, 9852.937
827.352, 10800.339
828.625, 12357.755
829.898, 14025.198
831.170, 16012.669
832.443, 18760.078
833.715, 22307.592
834.988, 26565.137
836.259, 32322.715
837.531, 38950.320
838.803, 45327.926
840.074, 50005.586
841.345, 53043.266
842.616, 50720.965
843.886, 47298.691
845.157, 40966.438
846.427, 35204.199
847.697, 30541.977
848.966, 26299.773
850.236, 22847.592
851.505, 21065.430
852.774, 19073.283
854.043, 17391.172
855.312, 17189.080
856.580, 15807.007
857.849, 14594.955
859.117, 13362.918
860.384, 12120.903
861.652, 11138.906
862.919, 9916.927
864.186, 9074.970
865.453, 8018.026
866.720, 7390.104
867.986, 6785.201
869.253, 6228.316
870.519, 5740.452
871.784, 5303.605
873.050, 4874.776
874.315, 4638.968
875.581, 4242.180
876.846, 4024.413
878.110, 3740.663
879.375, 3512.013
880.639, 3271.303
881.903, 3086.649
883.167, 2974.275
884.431, 2797.643
885.694, 2689.009
886.957, 2639.395
888.220, 2472.799
889.483, 2352.224
890.746, 2270.754
892.008, 2135.847
893.270, 2083.702
894.532, 1931.518
895.794, 1861.047
897.056, 1782.011
898.317, 1646.582
899.578, 1593.174
900.839, 1548.796
902.099, 1436.079
903.360, 1332.755
904.620, 1370.457
905.880, 1245.186
907.140, 1216.938
908.399, 1115.777
909.659, 1055.616
910.918, 1040.463
912.177, 1044.338
913.435, 914.238
914.694, 978.167
915.952, 894.137
917.210, 825.122
918.468, 873.584
919.726, 748.024
920.983, 919.094
922.240, 767.861
923.497, 840.309
924.754, 600.451
926.011, 593.624
927.267, 597.830
928.523, 545.066
929.779, 544.325
931.035, 512.607
932.290, 556.918
933.546, 515.250
934.801, 499.849
936.056, 453.228
937.310, 469.625
938.565, 426.044
939.819, 399.002
941.073, 388.457
942.327, 422.304
943.580, 409.162
944.833, 407.669
946.087, 333.197
947.340, 391.742
948.592, 324.304
949.845, 333.883
951.097, 301.876
952.349, 295.489
953.601, 287.117
954.853, 277.767
956.104, 269.720
957.355, 246.541
958.606, 245.239
959.857, 226.827
961.108, 202.556
962.358, 195.532
963.608, 193.291
964.858, 195.047
966.108, 206.089
967.357, 194.294
968.607, 187.383
969.856, 200.019
971.105, 189.846
972.353, 188.063
973.602, 187.304
974.850, 174.404
976.098, 171.922
977.346, 157.084
978.594, 147.772
979.841, 134.982
981.088, 164.043
982.335, 149.018
983.582, 177.215
984.828, 155.423
986.075, 178.676
987.321, 167.828
988.567, 94.761
989.812, 141.862
991.058, 100.311
992.303, 119.863
993.548, 85.815
994.793, 101.914
996.038, 101.214
997.282, 76.363
998.526, 56.487
999.770, 86.197
1001.014, 104.441
1002.258, 43.595
1003.501, 62.641
1004.744, 76.889
1005.987, 67.628
1007.230, 68.934
1008.473, 36.061
1009.715, 53.362
1010.957, 45.585
1012.199, 46.817
1013.441, 81.058
1014.682, 22.307
1015.923, 41.609
1017.164, 48.875
1018.405, 10.151
1019.646, 48.436
1020.886, 23.730
1022.127, 33.032
1023.367, 18.342
1024.606, 14.663
1025.846, 62.991
1027.085, 30.327
1028.325, 7.330
1029.564, 46.020
1030.802, 19.623
1032.041, 12.738
1033.279, 1.894
1034.517, 24.480
1035.755, 16.860
1036.993, 15.248
1038.230, 6.641
1039.468, 6.959
1040.705, 11.446
1041.942, 7.860
1043.178, 16.721
1044.415, 19.702
1045.651, 19.870
1046.887, 35.561
1048.123, 2.997
1049.358, 7.439
1050.594, 25.114
1051.829, 19.333
1053.064, 27.786
1054.299, 41.242
1055.533, 14.704
1056.768, 3.825
1058.002, 1.351
1059.236, 7.126
1060.469, 20.607
1061.703, 21.091
1062.936, 26.689
1064.169, 0.073
1065.402, 22.568
1066.635, 15.934
1067.867, 36.438
1069.100, 1.047
1070.332, 10.535
1071.564, 26.025
1072.795, 21.516
1074.027, 30.274
1075.258, 14.502
1076.489, 24.998
1077.720, 29.493
1078.950, 4.991
1080.181, 2.490
1081.411, 7.992
1082.641, 6.500
1083.871, 6.006
1085.100, 10.513
1086.330, 11.025
1087.559, 11.463
1088.788, 24.044
1090.016, 7.450
1091.245, 6.948
1092.473, 15.548
1093.701, 4.042
1094.929, 9.536
1096.157, 4.028
1097.384, 8.396
1098.612, 4.989
1099.839, 23.496
1101.066, 8.979
1102.292, 22.238
1103.519, 1.056
1104.745, 2.419
1105.971, 9.891
1107.197, 27.640
1108.423, 13.809
1109.648, 2.257
1110.873, 11.302
1112.098, 26.872
1113.323, 30.580
1114.548, 0.922
1115.772, 29.700
1116.996, 5.346
1118.220, 15.997
1119.444, 0.336
1120.667, 8.989
1121.891, 10.010
1123.114, 0.299
1124.337, 25.401
1125.560, 17.125
1126.782, 9.131
1128.004, 21.612
1129.227, 31.613
1130.448, 70.167
1131.670, 13.005
1132.892, 37.831
1134.113, 3.699
1135.334, 0.416
1136.555, 33.480
1137.776, 38.410
1138.996, 9.632
1140.216, 2.657
1141.436, 27.668
1142.656, 18.672
1143.876, 26.691
1145.095, 42.822
1146.315, 10.804
1147.534, 24.778
1148.753, 35.740
1149.971, 26.304
1151.190, 28.032
1152.408, 13.948
1153.626, 31.871
1154.844, 40.009
1156.061, 29.980
1157.279, 62.920
1158.496, 66.843
1159.713, 52.709
1160.930, 65.596
1162.146, 35.629
1163.363, 44.471
1164.579, 56.476
1165.795, 79.686
1167.010, 94.576
1168.226, 98.389
1169.441, 94.632
1170.657, 82.914
1171.871, 88.768
1173.086, 79.694
1174.301, 94.512
1175.515, 73.360
1176.729, 89.259
1177.943, 94.769
1179.157, 88.551
1180.370, 96.429
1181.584, 100.053
1182.797, 94.940
1184.010, 102.641
1185.222, 97.477
1186.435, 104.044
1187.647, 118.484
1188.859, 121.283
1190.071, 112.776
1191.283, 129.678
1192.494, 141.211
1193.706, 170.906
1194.917, 122.824
1196.128, 131.596
1197.338, 136.863
1198.549, 179.736
1199.759, 99.390
1200.969, 148.266
1202.179, 85.048
1203.389, 137.512
1204.598, 128.228
1205.807, 163.876
1207.016, 163.503
1208.225, 172.401
1209.434, 172.088
1210.642, 135.693
1211.850, 110.338
1213.058, 114.594
1214.266, 136.650
1215.474, 128.211
1216.681, 137.656
1217.889, 169.162
1219.096, 145.606
1220.302, 178.039
1221.509, 147.584
1222.715, 156.917
1223.922, 121.754
1225.128, 171.077
1226.334, 139.345
1227.539, 134.988
1228.745, 138.122
1229.950, 137.857
1231.155, 132.500
1232.360, 135.929
1233.564, 159.958
1234.769, 162.164
1235.973, 143.109
1237.177, 125.977
1238.381, 179.149
1239.584, 124.394
1240.787, 98.750
1241.991, 181.577
1243.194, 119.706
1244.396, 132.563
1245.599, 120.747
1246.801, 157.437
1248.004, 123.759
1249.206, 173.662
1250.407, 145.815
1251.609, 185.869
1252.810, 150.069
1254.012, 154.551
1255.212, 148.341
1256.413, 180.520
1257.614, 153.713
1258.814, 176.509
1260.014, 113.283
1261.214, 155.077
1262.414, 124.316
1263.614, 149.419
1264.813, 167.953
1266.012, 118.819
1267.211, 118.773
1268.410, 125.363
1269.609, 105.125
1270.807, 116.523
1272.005, 83.139
1273.203, 107.046
1274.401, 115.926
1275.598, 88.958
1276.796, 105.691
1277.993, 82.426
1279.190, 91.152
1280.387, 82.564
1281.583, 86.239
1282.780, 68.627
1283.976, 82.910
1285.172, 97.887
1286.368, 82.766
1287.563, 64.297
1288.759, 41.977
1289.954, 79.708
1291.149, 68.816
1292.343, 76.389
1293.538, 80.146
1294.732, 20.998
1295.927, 78.650
1297.121, 62.784
1298.314, 30.373
1299.508, 48.248
1300.701, 53.904
1301.895, 56.479
1303.087, 89.161
1304.280, 61.698
1305.473, 35.254
1306.665, 82.714
1307.857, 36.287
1309.049, 21.763
1310.241, 51.290
1311.433, 43.736
1312.624, 24.170
1313.815, 16.585
1315.006, 51.985
1316.197, 36.461
1317.388, 60.834
1318.578, 36.194
1319.768, 38.575
1320.958, 43.908
1322.148, 56.263
1323.338, 55.568
1324.527, 59.617
1325.716, 34.133
1326.906, 66.394
1328.094, 37.637
1329.283, 50.865
1330.471, 8.076
1331.660, 38.271
1332.848, 36.450
1334.035, 26.617
1335.223, 22.770
1336.411, 47.909
1337.598, 23.033
1338.785, 33.349
1339.972, 22.316
1341.158, 23.391
1342.345, 44.450
1343.531, 21.552
1344.717, 4.418
1345.903, 74.592
1347.089, 28.637
1348.274, 36.620
1349.459, 37.677
1350.644, 15.630
1351.829, 28.374
1353.014, 34.650
1354.198, 29.561
1355.383, 40.459
1356.567, 29.345
1357.751, 34.224
1358.934, 54.091
1360.118, 37.951
1361.301, 47.788
1362.484, 47.613
1363.667, 28.423
1364.850, 65.218
1366.032, 9.573
1367.215, 62.334
1368.397, 1.917
1369.579, 8.186
1370.760, 40.547
1371.942, 10.256
1373.123, 9.103
1374.304, 27.487
1375.485, 17.048
1376.666, 65.556
1377.847, 34.997
1379.027, 49.778
1380.207, 69.489
1381.387, 42.703
1382.567, 24.898
1383.747, 1.074
1384.926, 72.227
1386.105, 32.364
1387.284, 43.498
1388.463, 2.619
1389.641, 20.754
1390.820, 33.897
1391.998, 21.039
1393.176, 66.170
1394.354, 53.297
1395.532, 6.438
1396.709, 78.575
1397.886, 26.740
1399.063, 25.931
1400.240, 47.138
1401.417, 23.377
1402.593, 38.639
1403.769, 41.866
1404.945, 27.936
1406.121, 32.171
1407.297, 35.894
1408.472, 18.116
1409.648, 13.938
1410.823, 35.022
1411.998, 16.198
1413.172, 62.157
1414.347, 28.600
1415.521, 53.525
1416.695, 6.547
1417.869, 32.352
1419.043, 26.192
1420.216, 47.941
1421.390, 3.891
1422.563, 59.660
1423.736, 99.501
1424.909, 69.439
1426.081, 35.025
1427.254, 26.149
1428.426, 69.550
1429.598, 63.762
1430.770, 50.121
1431.941, 74.547
1433.113, 78.134
1434.284, 31.604
1435.455, 33.455
1436.626, 31.754
1437.796, 38.126
1438.967, 50.664
1440.137, 10.208
1441.307, 21.604
1442.477, 72.540
1443.646, 23.560
1444.816, 57.615
1445.985, 35.783
1447.154, 44.492
1448.323, 24.978
1449.492, 56.587
1450.660, 29.688
1451.829, 50.908
1452.997, 51.079
1454.165, 66.860
1455.332, 62.639
1456.500, 21.075
1457.667, 70.511
1458.834, 81.143
1460.001, 31.928
1461.168, 63.847
1462.335, 31.454
1463.501, 51.816
1464.667, 69.960
1465.833, 49.374
1466.999, 56.992
1468.165, 49.596
1469.330, 36.988
1470.495, 37.572
1471.660, 40.910
1472.825, 72.481
1473.990, 57.250
1475.154, 50.927
1476.318, 58.352
1477.482, 45.453
1478.646, 39.837
1479.810, 11.851
1480.974, 88.907
1482.137, 47.341
1483.300, 15.596
1484.463, 81.876
1485.626, 46.403
1486.788, 16.940
1487.950, 36.029
1489.113, 9.326
1490.275, 95.580
1491.436, 60.002
1492.598, 2.424
1493.759, 58.880
1494.920, 31.368
1496.081, 28.859
1497.242, 82.330
1498.403, 47.822
1499.563, 22.760
1500.724, 110.880
1501.884, 28.468
1503.043, 76.626
1504.203, 28.328
1505.363, 4.885
1506.522, 76.509
1507.681, 57.864
1508.840, 40.055
1509.999, 20.386
1511.157, 23.744
1512.315, 10.060
1513.474, 43.527
1514.632, 2.521
1515.789, 1.368
1516.947, 0.000
##END=



