##NAMES=Crocoite
##RRUFFID=R040053
##IDEAL CHEMISTRY=Pb^2+^Cr^6+^O_4_
##LOCALITY=Dundas, Tasmania
##OWNER=RRUFF
##SOURCE=Bob Downs
##DESCRIPTION=Reddish-orange prismatic crystal
##STATUS=The identification of this mineral has been confirmed by X-ray diffraction and chemical analysis
##URL=rruff.info/R040053
##MEASURED CHEMISTRY=(Pb_.995_Mn_.005_)CrO_4_
##PIN_ID=L00292
##ORIENTATION=Laser parallel to (-1 0 -1). Fiducial mark perpendicular to laser is parallel to -b [0 -1 0]
87.101, 0.000
88.496, 2.776
89.890, 95.085
91.284, 65.611
92.678, 69.117
94.071, 58.527
95.465, 110.583
96.858, 66.450
98.251, 130.537
99.644, 126.427
101.036, 114.830
102.428, 118.515
103.820, 148.283
105.212, 154.693
106.604, 148.437
107.995, 205.584
109.387, 188.326
110.777, 228.625
112.168, 232.457
113.559, 321.786
114.949, 397.562
116.339, 440.718
117.729, 482.193
119.119, 506.938
120.508, 595.914
121.897, 693.088
123.286, 827.433
124.675, 976.955
126.063, 1168.669
127.452, 1443.489
128.840, 1700.427
130.228, 2249.499
131.615, 2726.855
133.003, 3156.440
134.390, 3467.314
135.777, 3736.440
137.164, 3823.932
138.550, 3552.437
139.937, 3321.219
141.323, 2886.032
142.709, 2482.795
144.094, 2088.530
145.480, 1864.205
146.865, 1686.824
148.250, 1443.396
149.635, 1323.924
151.019, 1148.411
152.403, 1053.864
153.788, 919.283
155.171, 831.671
156.555, 763.031
157.939, 666.365
159.322, 586.673
160.705, 516.958
162.088, 464.724
163.470, 480.620
164.853, 383.647
166.235, 359.563
167.617, 319.103
168.998, 253.227
170.380, 288.696
171.761, 185.727
173.142, 234.330
174.523, 249.266
175.904, 270.456
177.284, 224.526
178.664, 202.268
180.044, 214.953
181.424, 216.646
182.803, 166.047
184.183, 221.229
185.562, 214.046
186.940, 188.181
188.319, 218.590
189.698, 220.066
191.076, 169.838
192.454, 209.680
193.831, 171.025
195.209, 235.448
196.586, 155.023
197.963, 110.169
199.340, 147.403
200.717, 111.792
202.093, 128.203
203.470, 134.637
204.846, 183.089
206.221, 138.559
207.597, 178.048
208.972, 153.552
210.347, 76.070
211.722, 186.604
213.097, 47.153
214.472, 80.716
215.846, 80.290
217.220, 60.873
218.594, 103.462
219.967, 108.057
221.341, 45.657
222.714, 66.261
224.087, 33.869
225.460, 68.479
226.832, 76.087
228.204, 27.697
229.577, 61.302
230.948, 54.904
232.320, 71.508
233.692, 40.107
235.063, 18.700
236.434, 17.710
237.805, 15.882
239.175, 14.533
240.545, 19.048
241.916, 4.621
243.286, 18.187
244.655, 9.744
246.025, 79.297
247.394, 52.844
248.763, 11.383
250.132, 42.923
251.501, 17.524
252.869, 13.305
254.237, 3.892
255.605, 44.954
256.973, 2.819
258.340, 17.412
259.708, 11.943
261.075, 39.391
262.442, 14.231
263.808, 14.994
265.175, 21.253
266.541, 1.394
267.907, 54.548
269.273, 24.329
270.639, 15.246
272.004, 44.794
273.369, 2.820
274.734, 13.820
276.099, 23.800
277.463, 12.233
278.828, 52.719
280.192, 30.667
281.556, 30.599
282.919, 20.514
284.283, 32.432
285.646, 1.317
287.009, 27.787
288.372, 31.896
289.734, 16.018
291.097, 42.172
292.459, 28.669
293.821, 35.506
295.183, 8.649
296.544, 61.187
297.905, 24.955
299.266, 51.096
300.627, 36.234
301.988, 22.488
303.348, 17.632
304.709, 52.790
306.069, 10.005
307.428, 35.298
308.788, 9.611
310.147, 93.839
311.507, 108.015
312.865, 112.153
314.224, 100.290
315.583, 97.576
316.941, 71.853
318.299, 148.961
319.657, 132.167
321.015, 182.246
322.372, 117.318
323.729, 177.486
325.086, 228.567
326.443, 189.831
327.800, 225.950
329.156, 220.117
330.512, 235.895
331.868, 220.983
333.224, 255.084
334.579, 277.124
335.935, 331.450
337.290, 353.430
338.645, 436.606
339.999, 474.594
341.354, 573.643
342.708, 728.934
344.062, 821.489
345.416, 1136.301
346.769, 1459.163
348.123, 1785.863
349.476, 1909.821
350.829, 1756.397
352.182, 1496.286
353.534, 1435.000
354.887, 1448.826
356.239, 1631.397
357.591, 1743.051
358.942, 1868.067
360.294, 1824.496
361.645, 1653.048
362.996, 1381.441
364.347, 1223.171
365.698, 1031.808
367.048, 960.234
368.398, 896.531
369.748, 968.922
371.098, 1130.204
372.448, 1589.764
373.797, 2367.666
375.146, 3367.049
376.495, 4214.312
377.844, 4264.533
379.192, 3658.717
380.540, 2556.034
381.889, 1572.530
383.236, 1007.695
384.584, 743.931
385.932, 608.990
387.279, 444.084
388.626, 382.635
389.973, 386.902
391.319, 409.065
392.666, 389.071
394.012, 337.356
395.358, 378.372
396.704, 390.478
398.049, 451.934
399.394, 529.501
400.740, 502.379
402.084, 510.006
403.429, 375.430
404.774, 349.859
406.118, 291.773
407.462, 202.777
408.806, 267.923
410.150, 228.704
411.493, 206.156
412.836, 378.459
414.179, 530.603
415.522, 556.982
416.865, 521.173
418.207, 236.734
419.549, 144.011
420.891, 174.648
422.233, 210.807
423.575, 209.939
424.916, 136.494
426.257, 162.382
427.598, 149.232
428.939, 179.575
430.279, 167.999
431.619, 221.871
432.959, 168.095
434.299, 178.052
435.639, 202.373
436.978, 184.692
438.318, 207.322
439.657, 233.550
440.996, 186.624
442.334, 267.607
443.673, 184.613
445.011, 229.511
446.349, 177.066
447.687, 204.527
449.024, 247.715
450.361, 200.088
451.699, 246.960
453.036, 198.908
454.372, 212.736
455.709, 229.909
457.045, 218.182
458.381, 284.562
459.717, 247.304
461.053, 257.474
462.388, 178.673
463.724, 233.899
465.059, 223.888
466.394, 205.615
467.728, 188.761
469.063, 182.068
470.397, 199.877
471.731, 216.387
473.065, 244.431
474.398, 229.452
475.732, 189.704
477.065, 191.374
478.398, 240.599
479.731, 204.741
481.063, 246.846
482.396, 264.338
483.728, 209.694
485.060, 226.690
486.391, 181.798
487.723, 234.719
489.054, 220.605
490.385, 234.371
491.716, 210.185
493.047, 202.960
494.377, 211.697
495.708, 165.641
497.038, 222.432
498.368, 175.054
499.697, 204.638
501.027, 183.189
502.356, 218.696
503.685, 179.167
505.014, 212.599
506.342, 192.995
507.671, 217.353
508.999, 161.972
510.327, 232.254
511.655, 162.501
512.982, 184.709
514.310, 159.880
515.637, 193.013
516.964, 171.109
518.291, 133.168
519.617, 212.186
520.944, 177.168
522.270, 209.114
523.596, 146.024
524.921, 153.896
526.247, 185.729
527.572, 216.527
528.897, 183.568
530.222, 204.015
531.547, 146.707
532.871, 116.360
534.196, 162.972
535.520, 185.548
536.844, 190.089
538.167, 192.726
539.491, 155.064
540.814, 130.499
542.137, 178.895
543.460, 82.256
544.783, 239.573
546.105, 176.855
547.427, 111.102
548.749, 133.311
550.071, 141.483
551.393, 171.620
552.714, 119.722
554.035, 155.787
555.356, 131.818
556.677, 97.814
557.998, 120.771
559.318, 71.694
560.638, 118.575
561.958, 88.424
563.278, 85.233
564.597, 124.003
565.917, 108.740
567.236, 93.440
568.555, 30.104
569.874, 36.688
571.192, 75.283
572.511, 23.810
573.829, 66.289
575.147, 72.729
576.464, 54.131
577.782, 59.492
579.099, 5.766
580.416, 103.036
581.733, 24.276
583.050, 103.478
584.366, 14.555
585.683, 26.321
586.999, 14.677
588.315, 4.313
589.630, 1.347
590.946, 13.564
592.261, 13.581
593.576, 4.234
594.891, 8.000
596.206, 6.723
597.520, 26.405
598.834, 1.952
600.148, 44.345
601.462, 46.800
602.776, 39.681
604.089, 45.863
605.402, 15.489
606.715, 11.854
608.028, 25.841
609.341, 99.595
610.653, 6.445
611.965, 44.341
613.277, 11.291
614.589, 36.276
615.901, 2.680
617.212, 12.381
618.523, 4.487
619.834, 38.633
621.145, 41.949
622.456, 89.210
623.766, 52.551
625.076, 37.008
626.386, 2.595
627.696, 5.246
629.006, 56.854
630.315, 35.468
631.624, 37.092
632.933, 20.235
634.242, 19.624
635.551, 30.517
636.859, 22.713
638.167, 4.810
639.475, 25.002
640.783, 40.849
642.090, 12.161
643.398, 24.775
644.705, 27.058
646.012, 16.100
647.318, 23.929
648.625, 44.935
649.931, 8.921
651.237, 52.730
652.543, 69.438
653.849, 5.940
655.155, 53.864
656.460, 124.415
657.765, 2.118
659.070, 62.718
660.375, 21.455
661.679, 40.004
662.984, 117.694
664.288, 96.291
665.592, 16.021
666.895, 25.351
668.199, 56.055
669.502, 11.420
670.805, 40.932
672.108, 43.267
673.411, 106.798
674.713, 35.221
676.016, 67.255
677.318, 22.848
678.620, 91.288
679.921, 104.857
681.223, 104.064
682.524, 170.338
683.825, 92.798
685.126, 141.363
686.427, 172.810
687.727, 189.340
689.028, 181.568
690.328, 235.430
691.628, 177.787
692.927, 347.238
694.227, 236.710
695.526, 389.196
696.825, 267.525
698.124, 384.655
699.423, 430.090
700.721, 297.432
702.020, 350.930
703.318, 447.370
704.616, 343.334
705.913, 470.562
707.211, 345.870
708.508, 385.316
709.805, 379.464
711.102, 441.861
712.399, 454.150
713.695, 630.069
714.992, 700.300
716.288, 819.758
717.584, 736.004
718.879, 849.879
720.175, 760.732
721.470, 737.081
722.765, 849.323
724.060, 737.405
725.355, 809.834
726.649, 631.575
727.944, 586.450
729.238, 385.773
730.532, 501.542
731.825, 420.487
733.119, 532.050
734.412, 516.795
735.705, 469.504
736.998, 521.959
738.291, 503.718
739.584, 505.213
740.876, 547.653
742.168, 612.692
743.460, 453.273
744.752, 580.834
746.043, 556.652
747.334, 606.391
748.626, 615.588
749.916, 723.973
751.207, 636.647
752.498, 644.330
753.788, 769.992
755.078, 619.309
756.368, 780.046
757.658, 768.711
758.947, 748.062
760.237, 810.956
761.526, 706.843
762.815, 896.456
764.104, 762.870
765.392, 886.747
766.680, 853.563
767.969, 843.097
769.257, 824.802
770.544, 855.036
771.832, 852.815
773.119, 868.750
774.406, 891.344
775.693, 955.771
776.980, 918.158
778.267, 959.685
779.553, 950.622
780.839, 1004.645
782.125, 891.940
783.411, 980.184
784.697, 955.302
785.982, 796.880
787.267, 1146.474
788.552, 992.829
789.837, 1222.758
791.122, 1155.126
792.406, 1403.570
793.690, 1427.046
794.974, 1290.129
796.258, 1475.343
797.542, 1484.911
798.825, 1574.363
800.108, 1538.995
801.391, 1711.660
802.674, 1616.439
803.957, 1772.168
805.239, 1851.932
806.522, 1957.730
807.804, 2024.317
809.085, 2101.055
810.367, 2169.957
811.649, 2342.896
812.930, 2384.867
814.211, 2471.877
815.492, 2944.924
816.772, 2998.008
818.053, 3324.127
819.333, 3553.285
820.613, 4060.180
821.893, 4559.412
823.173, 5053.681
824.452, 5495.990
825.732, 6488.336
827.011, 7210.721
828.290, 8103.146
829.568, 9145.612
830.847, 10418.120
832.125, 12670.672
833.403, 15153.276
834.681, 19765.926
835.959, 25358.650
837.236, 32581.426
838.514, 41544.246
839.791, 47147.137
841.068, 49290.059
842.345, 43823.055
843.621, 37696.125
844.898, 29989.252
846.174, 24602.457
847.450, 21225.730
848.726, 19139.059
850.001, 18452.436
851.277, 18445.861
852.552, 18449.330
853.827, 19112.848
855.102, 19406.441
856.376, 20060.076
857.651, 18994.129
858.925, 16997.859
860.199, 15571.655
861.473, 13155.529
862.746, 11269.850
864.020, 9303.839
865.293, 8148.353
866.566, 7132.451
867.839, 6336.598
869.112, 5370.804
870.384, 4965.073
871.656, 4459.389
872.928, 4008.834
874.200, 3465.254
875.472, 3303.721
876.744, 2945.233
878.015, 2729.792
879.286, 2512.405
880.557, 2488.078
881.828, 2206.801
883.098, 2150.577
884.369, 1915.415
885.639, 1788.300
886.909, 1839.245
888.178, 1741.290
889.448, 1659.343
890.717, 1635.443
891.987, 1580.599
893.256, 1574.801
894.524, 1510.058
895.793, 1592.380
897.061, 1494.757
898.330, 1548.193
899.598, 1455.688
900.865, 1522.240
902.133, 1457.853
903.401, 1510.521
904.668, 1280.245
905.935, 1386.024
907.202, 1357.854
908.468, 1407.741
909.735, 1218.696
911.001, 1147.719
912.267, 1187.790
913.533, 1106.929
914.799, 1062.126
916.064, 1080.375
917.330, 998.686
918.595, 1008.077
919.860, 943.524
921.124, 826.035
922.389, 840.603
923.653, 795.232
924.918, 767.914
926.182, 822.650
927.445, 639.439
928.709, 606.290
929.972, 586.203
931.236, 583.189
932.499, 473.239
933.761, 489.348
935.024, 522.506
936.286, 526.716
937.549, 369.988
938.811, 467.316
940.073, 431.703
941.334, 369.133
942.596, 415.615
943.857, 367.150
945.118, 414.729
946.379, 328.353
947.640, 287.028
948.900, 399.758
950.161, 277.530
951.421, 375.352
952.681, 183.217
953.940, 305.125
955.200, 206.080
956.459, 199.087
957.719, 119.137
958.978, 149.229
960.236, 136.376
961.495, 197.571
962.753, 148.805
964.012, 185.081
965.270, 168.398
966.527, 187.756
967.785, 226.156
969.043, 208.596
970.300, 249.077
971.557, 246.938
972.814, 237.161
974.071, 252.765
975.327, 262.408
976.583, 267.091
977.840, 252.812
979.095, 244.574
980.351, 277.659
981.607, 214.823
982.862, 243.702
984.117, 161.549
985.372, 101.525
986.627, 191.288
987.882, 193.034
989.136, 140.485
990.390, 169.708
991.644, 64.716
992.898, 113.863
994.152, 120.352
995.405, 91.629
996.659, 206.018
997.912, 182.428
999.165, 38.500
1000.417, 160.348
1001.670, 69.024
1002.922, 125.022
1004.174, 96.475
1005.426, 5.325
1006.678, 114.216
1007.930, 37.082
1009.181, 85.114
1010.432, 117.167
1011.683, 51.446
1012.934, 36.328
1014.185, 81.877
1015.435, 40.383
1016.685, 93.280
1017.935, 45.528
1019.185, 70.493
1020.435, 26.686
1021.684, 60.693
1022.934, 8.456
1024.183, 12.586
1025.432, 67.900
1026.680, 81.886
1027.929, 48.897
1029.177, 53.941
1030.425, 22.744
1031.673, 63.838
1032.921, 49.073
1034.169, 3.520
1035.416, 46.837
1036.663, 19.710
1037.911, 5.360
1039.157, 43.867
1040.404, 81.542
1041.650, 103.170
1042.897, 114.484
1044.143, 63.818
1045.389, 60.183
1046.634, 113.574
1047.880, 114.988
1049.125, 152.428
1050.371, 148.661
1051.615, 176.766
1052.860, 172.904
1054.105, 169.712
1055.349, 147.248
1056.593, 139.625
1057.837, 131.935
1059.081, 123.979
1060.325, 114.588
1061.568, 102.212
1062.812, 84.850
1064.055, 103.509
1065.298, 112.456
1066.540, 91.868
1067.783, 138.570
1069.025, 130.282
1070.267, 94.008
1071.509, 84.743
1072.751, 174.487
1073.993, 98.245
1075.234, 60.013
1076.475, 38.790
1077.716, 143.576
1078.957, 199.369
1080.198, 115.170
1081.438, 137.979
1082.679, 90.795
1083.919, 57.621
1085.159, 192.451
1086.398, 87.289
1087.638, 105.130
1088.877, 172.975
1090.116, 92.826
1091.355, 139.681
1092.594, 98.537
1093.833, 234.408
1095.071, 135.271
1096.309, 135.276
1097.547, 173.141
1098.785, 134.008
1100.023, 194.874
1101.260, 146.742
1102.498, 118.610
1103.735, 137.477
1104.972, 97.345
1106.208, 82.212
1107.445, 47.077
1108.681, 68.942
1109.918, 82.930
1111.154, 137.789
1112.389, 91.644
1113.625, 153.495
1114.860, 13.342
1116.096, 79.184
1117.331, 87.021
1118.566, 124.852
1119.800, 121.676
1121.035, 71.587
1122.269, 310.401
1123.503, 426.208
1124.737, 258.010
1125.971, 156.805
1127.205, 38.664
1128.438, 1.504
1129.671, 1.272
1130.904, 44.171
1132.137, 66.084
1133.370, 30.383
1134.602, 93.596
1135.834, 40.930
1137.066, 15.354
1138.298, 94.803
1139.530, 3.276
1140.762, 57.810
1141.993, 109.119
1143.224, 39.619
1144.455, 135.552
1145.686, 86.328
1146.917, 5.086
1148.147, 57.733
1149.377, 18.572
1150.607, 11.775
1151.837, 3.888
1153.067, 50.983
1154.296, 1.378
1155.526, 29.141
1156.755, 15.718
1157.984, 63.925
1159.213, 97.825
1160.441, 0.143
1161.670, 62.133
1162.898, 106.143
1164.126, 35.041
1165.354, 26.289
1166.581, 21.000
1167.809, 23.256
1169.036, 41.549
1170.263, 0.917
1171.490, 45.324
1172.717, 36.336
1173.943, 71.403
1175.170, 107.283
1176.396, 72.990
1177.622, 11.752
1178.848, 74.135
1180.073, 72.154
1181.299, 2.669
1182.524, 58.435
1183.749, 5.009
1184.974, 70.597
1186.199, 145.119
1187.423, 56.081
1188.648, 61.982
1189.872, 92.592
1191.096, 203.921
1192.320, 131.171
1193.543, 187.167
1194.767, 143.476
1195.990, 140.508
1197.213, 79.049
1198.436, 176.695
1199.659, 149.456
1200.881, 119.520
1202.104, 179.444
1203.326, 158.982
1204.548, 148.196
1205.770, 294.032
1206.991, 271.705
1208.213, 244.921
1209.434, 217.901
1210.655, 291.047
1211.876, 234.047
1213.096, 332.908
1214.317, 242.923
1215.537, 246.426
1216.757, 331.657
1217.977, 279.333
1219.197, 278.708
1220.417, 268.238
1221.636, 271.239
1222.855, 261.679
1224.074, 259.442
1225.293, 248.959
1226.512, 214.323
1227.731, 218.129
1228.949, 302.554
1230.167, 279.633
1231.385, 280.849
1232.603, 329.571
1233.820, 247.709
1235.038, 297.730
1236.255, 216.364
1237.472, 251.413
1238.689, 281.269
1239.906, 201.526
1241.122, 276.560
1242.338, 174.261
1243.555, 242.384
1244.771, 310.278
1245.986, 291.930
1247.202, 218.021
1248.417, 252.672
1249.633, 262.443
1250.848, 306.666
1252.063, 340.288
1253.277, 270.643
1254.492, 357.843
1255.706, 198.168
1256.920, 260.753
1258.134, 290.967
1259.348, 313.383
1260.562, 238.681
1261.775, 376.795
1262.988, 253.087
1264.201, 307.139
1265.414, 329.230
1266.627, 220.432
1267.839, 317.674
1269.052, 252.599
1270.264, 262.349
1271.476, 274.358
1272.688, 232.194
1273.899, 236.288
1275.111, 292.964
1276.322, 218.420
1277.533, 255.319
1278.744, 300.166
1279.955, 222.926
1281.165, 232.883
1282.376, 265.948
1283.586, 254.312
1284.796, 229.983
1286.006, 262.537
1287.215, 172.400
1288.425, 193.641
1289.634, 113.908
1290.843, 218.247
1292.052, 73.376
1293.261, 202.812
1294.469, 156.659
1295.678, 177.493
1296.886, 193.942
1298.094, 183.958
1299.302, 102.530
1300.509, 106.034
1301.717, 197.845
1302.924, 118.024
1304.131, 137.540
1305.338, 142.603
1306.545, 113.157
1307.752, 86.264
1308.958, 83.824
1310.164, 73.505
1311.370, 149.529
1312.576, 127.823
1313.782, 106.989
1314.987, 57.208
1316.193, 24.591
1317.398, 165.749
1318.603, 0.362
1319.807, 82.826
1321.012, 5.003
1322.216, 91.103
1323.421, 44.103
1324.625, 63.118
1325.829, 110.090
1327.032, 75.602
1328.236, 92.642
1329.439, 83.904
1330.642, 82.712
1331.845, 6.502
1333.048, 6.183
1334.251, 20.346
1335.453, 98.981
1336.656, 13.423
1337.858, 7.121
1339.060, 26.615
1340.261, 4.795
1341.463, 16.462
1342.664, 54.497
1343.866, 45.803
1345.067, 104.069
1346.267, 34.287
1347.468, 7.528
1348.669, 75.611
1349.869, 127.711
1351.069, 39.774
1352.269, 67.792
1353.469, 88.772
1354.668, 5.282
1355.868, 78.616
1357.067, 91.479
1358.266, 16.305
1359.465, 148.091
1360.664, 48.933
1361.862, 97.637
1363.061, 155.305
1364.259, 26.938
1365.457, 54.529
1366.655, 116.084
1367.852, 67.605
1369.050, 123.092
1370.247, 84.837
1371.444, 55.257
1372.641, 89.645
1373.838, 33.000
1375.035, 112.321
1376.231, 49.611
1377.427, 113.869
1378.623, 133.094
1379.819, 47.333
1381.015, 109.500
1382.211, 146.640
1383.406, 71.173
1384.601, 93.235
1385.796, 160.284
1386.991, 73.167
1388.185, 96.164
1389.380, 145.138
1390.574, 62.932
1391.768, 126.662
1392.962, 91.408
1394.156, 41.966
1395.350, 105.345
1396.543, 161.800
1397.736, 36.066
1398.929, 154.400
1400.122, 87.677
1401.315, 165.897
1402.507, 110.062
1403.700, 130.423
1404.892, 258.111
1406.084, 116.014
1407.276, 227.869
1408.467, 147.579
1409.659, 113.308
1410.850, 95.124
1412.041, 181.958
1413.232, 30.531
1414.423, 125.402
1415.614, 156.917
1416.804, 87.581
1417.994, 111.292
1419.184, 145.337
1420.374, 108.515
1421.564, 129.072
1422.753, 119.743
1423.943, 123.131
1425.132, 100.973
1426.321, 101.224
1427.510, 78.868
1428.698, 190.170
1429.887, 57.137
1431.075, 105.782
1432.263, 151.036
1433.451, 104.328
1434.639, 198.645
1435.827, 181.187
1437.014, 93.910
1438.201, 123.654
1439.388, 140.791
1440.575, 119.301
1441.762, 133.543
1442.949, 136.574
1444.135, 92.440
1445.321, 142.771
1446.507, 64.886
1447.693, 217.239
1448.879, 27.272
1450.064, 191.993
1451.250, 146.422
1452.435, 95.323
1453.620, 190.495
1454.805, 137.963
1455.989, 77.833
1457.174, 178.361
1458.358, 98.961
1459.542, 144.307
1460.726, 97.361
1461.910, 116.801
1463.093, 92.376
1464.277, 206.132
1465.460, 0.835
1466.643, 145.999
1467.826, 242.024
1469.009, 101.993
1470.191, 164.183
1471.373, 68.470
1472.556, 160.533
1473.738, 220.324
1474.919, 162.991
1476.101, 40.869
1477.283, 191.215
1478.464, 123.564
1479.645, 96.618
1480.826, 158.617
1482.007, 160.071
1483.187, 199.841
1484.368, 117.716
1485.548, 204.697
1486.728, 140.164
1487.908, 123.057
1489.088, 186.643
1490.268, 195.383
1491.447, 85.761
1492.626, 172.888
1493.805, 223.219
1494.984, 81.793
1496.163, 188.553
1497.341, 75.924
1498.520, 73.607
1499.698, 208.280
1500.876, 155.887
1502.054, 36.872
1503.232, 169.523
1504.409, 80.724
1505.586, 154.277
1506.763, 152.969
1507.940, 72.546
1509.117, 109.156
1510.294, 146.842
1511.470, 5.642
1512.647, 115.492
1513.823, 103.372
1514.999, 68.292
1516.174, 75.322
1517.350, 87.387
1518.526, 99.496
1519.701, 137.911
1520.876, 46.282
1522.051, 104.810
1523.226, 75.510
1524.400, 12.941
1525.574, 148.740
1526.749, 189.544
1527.923, 89.481
1529.097, 158.898
1530.270, 127.078
1531.444, 120.003
1532.617, 35.482
1533.790, 2.136
1534.963, 116.104
1536.136, 0.000
##END=



