##NAMES=Crocoite
##RRUFFID=R040053
##IDEAL CHEMISTRY=Pb^2+^Cr^6+^O_4_
##LOCALITY=Dundas, Tasmania
##OWNER=RRUFF
##SOURCE=Bob Downs
##DESCRIPTION=Reddish-orange prismatic crystal
##STATUS=The identification of this mineral has been confirmed by X-ray diffraction and chemical analysis
##URL=rruff.info/R040053
##MEASURED CHEMISTRY=(Pb_.995_Mn_.005_)CrO_4_
##PIN_ID=L00142
##ORIENTATION=Laser parallel to c* (0 0 1). Fiducial mark perpendicular to laser is parallel to a [1 0 0]
66.157, 0.000
67.554, 201.628
68.952, 121.645
70.349, 92.462
71.747, 4.869
73.144, 72.953
74.540, 150.978
75.937, 259.460
77.333, 227.294
78.729, 391.216
80.125, 194.245
81.521, 86.490
82.916, 159.957
84.311, 213.450
85.706, 165.551
87.101, 120.923
88.496, 58.390
89.890, 130.585
91.284, 212.420
92.678, 242.396
94.071, 319.645
95.465, 291.170
96.858, 301.883
98.251, 182.731
99.644, 158.635
101.036, 130.547
102.428, 81.746
103.820, 110.150
105.212, 36.842
106.604, 178.562
107.995, 167.551
109.387, 204.845
110.777, 146.156
112.168, 164.381
113.559, 359.597
114.949, 506.542
116.339, 677.436
117.729, 600.207
119.119, 465.671
120.508, 295.635
121.897, 232.463
123.286, 296.501
124.675, 359.560
126.063, 418.591
127.452, 339.151
128.840, 470.743
130.228, 550.364
131.615, 572.146
133.003, 740.250
134.390, 729.371
135.777, 789.169
137.164, 770.254
138.550, 740.039
139.937, 648.530
141.323, 668.448
142.709, 600.389
144.094, 540.353
145.480, 533.093
146.865, 510.662
148.250, 503.052
149.635, 541.999
151.019, 467.689
152.403, 540.406
153.788, 541.414
155.171, 512.900
156.555, 517.130
157.939, 484.119
159.322, 476.259
160.705, 467.419
162.088, 421.870
163.470, 417.161
164.853, 437.134
166.235, 380.661
167.617, 391.964
168.998, 373.661
170.380, 271.909
171.761, 324.952
173.142, 270.756
174.523, 237.532
175.904, 227.238
177.284, 235.412
178.664, 194.096
180.044, 190.258
181.424, 149.416
182.803, 126.456
184.183, 180.185
185.562, 159.651
186.940, 150.565
188.319, 121.194
189.698, 127.406
191.076, 107.224
192.454, 123.800
193.831, 118.778
195.209, 117.171
196.586, 80.365
197.963, 105.495
199.340, 86.558
200.717, 73.552
202.093, 81.469
203.470, 81.308
204.846, 59.065
206.221, 79.832
207.597, 59.325
208.972, 85.823
210.347, 77.233
211.722, 37.551
213.097, 37.778
214.472, 48.913
215.846, 24.956
217.220, 32.167
218.594, 19.757
219.967, 29.518
221.341, 30.191
222.714, 34.768
224.087, 15.747
225.460, 17.357
226.832, 23.940
228.204, 23.863
229.577, 3.782
230.948, 31.814
232.320, 54.566
233.692, 40.813
235.063, 24.563
236.434, 1.441
237.805, 2.919
239.175, 20.675
240.545, 14.788
241.916, 4.001
243.286, 39.327
244.655, 8.237
246.025, 3.703
247.394, 31.968
248.763, 31.691
250.132, 29.152
251.501, 4.234
252.869, 10.347
254.237, 17.506
255.605, 13.152
256.973, 14.945
258.340, 19.801
259.708, 39.357
261.075, 61.804
262.442, 79.198
263.808, 43.374
265.175, 69.617
266.541, 77.376
267.907, 97.998
269.273, 101.458
270.639, 46.776
272.004, 98.391
273.369, 63.741
274.734, 80.262
276.099, 82.281
277.463, 76.352
278.828, 93.202
280.192, 115.924
281.556, 122.814
282.919, 121.412
284.283, 113.006
285.646, 156.552
287.009, 113.769
288.372, 170.037
289.734, 136.981
291.097, 187.950
292.459, 173.699
293.821, 171.315
295.183, 173.114
296.544, 155.645
297.905, 190.131
299.266, 172.481
300.627, 207.787
301.988, 200.898
303.348, 205.826
304.709, 237.702
306.069, 246.350
307.428, 262.893
308.788, 253.333
310.147, 273.665
311.507, 298.882
312.865, 277.986
314.224, 347.940
315.583, 325.852
316.941, 326.632
318.299, 361.247
319.657, 383.753
321.015, 421.168
322.372, 416.459
323.729, 482.745
325.086, 532.929
326.443, 611.031
327.800, 617.098
329.156, 616.183
330.512, 673.946
331.868, 647.689
333.224, 800.191
334.579, 951.423
335.935, 1323.602
337.290, 1695.717
338.645, 2026.642
339.999, 2026.246
341.354, 1571.191
342.708, 1216.546
344.062, 1016.184
345.416, 946.162
346.769, 1119.264
348.123, 1274.457
349.476, 1281.361
350.829, 1041.521
352.182, 815.067
353.534, 723.749
354.887, 615.340
356.239, 627.736
357.591, 533.296
358.942, 587.693
360.294, 561.752
361.645, 512.987
362.996, 536.965
364.347, 467.832
365.698, 509.624
367.048, 478.556
368.398, 478.133
369.748, 490.993
371.098, 465.663
372.448, 482.498
373.797, 464.342
375.146, 479.485
376.495, 559.749
377.844, 543.304
379.192, 578.253
380.540, 465.536
381.889, 450.172
383.236, 437.317
384.584, 438.447
385.932, 415.275
387.279, 379.485
388.626, 403.337
389.973, 373.077
391.319, 438.765
392.666, 445.513
394.012, 482.732
395.358, 558.206
396.704, 605.603
398.049, 779.946
399.394, 1023.408
400.740, 1252.116
402.084, 1211.296
403.429, 855.004
404.774, 680.168
406.118, 492.989
407.462, 393.823
408.806, 327.414
410.150, 309.741
411.493, 287.103
412.836, 250.483
414.179, 306.333
415.522, 235.722
416.865, 240.893
418.207, 305.038
419.549, 193.213
420.891, 240.175
422.233, 238.838
423.575, 225.687
424.916, 250.616
426.257, 206.122
427.598, 310.085
428.939, 234.864
430.279, 271.356
431.619, 199.155
432.959, 219.643
434.299, 255.905
435.639, 186.097
436.978, 250.722
438.318, 222.175
439.657, 266.019
440.996, 281.510
442.334, 200.066
443.673, 245.553
445.011, 216.982
446.349, 200.835
447.687, 253.104
449.024, 210.485
450.361, 274.215
451.699, 229.583
453.036, 256.024
454.372, 258.813
455.709, 186.274
457.045, 226.138
458.381, 208.375
459.717, 215.075
461.053, 199.372
462.388, 218.720
463.724, 241.825
465.059, 226.137
466.394, 418.550
467.728, 549.369
469.063, 471.763
470.397, 590.854
471.731, 633.088
473.065, 549.710
474.398, 263.140
475.732, 223.579
477.065, 235.835
478.398, 390.116
479.731, 303.238
481.063, 308.850
482.396, 251.069
483.728, 218.975
485.060, 216.529
486.391, 215.749
487.723, 204.269
489.054, 182.424
490.385, 210.661
491.716, 208.047
493.047, 232.842
494.377, 177.164
495.708, 224.455
497.038, 170.070
498.368, 165.300
499.697, 219.709
501.027, 133.263
502.356, 217.404
503.685, 131.825
505.014, 236.910
506.342, 133.974
507.671, 184.006
508.999, 225.011
510.327, 131.306
511.655, 206.258
512.982, 174.862
514.310, 143.765
515.637, 223.642
516.964, 150.497
518.291, 175.327
519.617, 172.801
520.944, 170.750
522.270, 183.510
523.596, 173.851
524.921, 199.441
526.247, 155.142
527.572, 168.816
528.897, 148.469
530.222, 129.040
531.547, 147.649
532.871, 118.237
534.196, 157.802
535.520, 120.349
536.844, 75.876
538.167, 125.380
539.491, 64.867
540.814, 159.333
542.137, 68.782
543.460, 66.212
544.783, 147.621
546.105, 92.013
547.427, 145.394
548.749, 98.766
550.071, 71.121
551.393, 111.466
552.714, 48.799
554.035, 106.124
555.356, 74.450
556.677, 75.772
557.998, 139.087
559.318, 46.391
560.638, 128.682
561.958, 73.967
563.278, 110.243
564.597, 123.509
565.917, 46.775
567.236, 59.027
568.555, 63.266
569.874, 42.479
571.192, 59.612
572.511, 65.607
573.829, 67.828
575.147, 17.770
576.464, 51.740
577.782, 94.940
579.099, 9.281
580.416, 47.671
581.733, 0.387
583.050, 65.481
584.366, 51.448
585.683, 17.224
586.999, 53.312
588.315, 5.195
589.630, 68.216
590.946, 13.930
592.261, 5.724
593.576, 86.657
594.891, 5.703
596.206, 42.189
597.520, 12.043
598.834, 27.886
600.148, 44.820
601.462, 19.535
602.776, 59.271
604.089, 13.046
605.402, 15.453
606.715, 16.333
608.028, 56.062
609.341, 40.713
610.653, 20.662
611.965, 6.045
613.277, 28.757
614.589, 31.839
615.901, 41.698
617.212, 13.842
618.523, 9.374
619.834, 31.012
621.145, 39.523
622.456, 14.000
623.766, 10.456
625.076, 0.977
626.386, 17.577
627.696, 24.880
629.006, 59.639
630.315, 32.850
631.624, 3.632
632.933, 56.103
634.242, 60.527
635.551, 42.844
636.859, 38.744
638.167, 30.637
639.475, 29.010
640.783, 20.626
642.090, 36.619
643.398, 27.147
644.705, 1.939
646.012, 4.785
647.318, 30.729
648.625, 62.422
649.931, 42.438
651.237, 34.775
652.543, 6.756
653.849, 25.064
655.155, 54.871
656.460, 41.212
657.765, 27.094
659.070, 25.645
660.375, 7.261
661.679, 38.472
662.984, 1.592
664.288, 3.339
665.592, 5.298
666.895, 47.597
668.199, 20.117
669.502, 17.850
670.805, 5.045
672.108, 55.815
673.411, 2.871
674.713, 44.677
676.016, 19.408
677.318, 6.508
678.620, 13.385
679.921, 37.663
681.223, 54.235
682.524, 1.246
683.825, 45.077
685.126, 28.971
686.427, 28.213
687.727, 131.515
689.028, 23.329
690.328, 94.026
691.628, 40.897
692.927, 22.618
694.227, 49.162
695.526, 30.920
696.825, 132.434
698.124, 76.351
699.423, 56.899
700.721, 150.444
702.020, 66.339
703.318, 130.011
704.616, 91.916
705.913, 87.635
707.211, 155.248
708.508, 29.041
709.805, 134.581
711.102, 121.372
712.399, 26.040
713.695, 129.724
714.992, 55.684
716.288, 113.266
717.584, 123.204
718.879, 36.923
720.175, 210.806
721.470, 41.756
722.765, 87.396
724.060, 142.098
725.355, 80.831
726.649, 192.489
727.944, 62.230
729.238, 133.009
730.532, 148.809
731.825, 106.326
733.119, 248.088
734.412, 94.042
735.705, 187.260
736.998, 157.045
738.291, 141.880
739.584, 269.773
740.876, 112.621
742.168, 213.298
743.460, 259.188
744.752, 169.491
746.043, 316.471
747.334, 196.154
748.626, 261.557
749.916, 341.660
751.207, 245.460
752.498, 339.408
753.788, 233.873
755.078, 335.793
756.368, 380.799
757.658, 280.892
758.947, 446.000
760.237, 393.577
761.526, 325.037
762.815, 440.017
764.104, 326.490
765.392, 501.042
766.680, 604.823
767.969, 644.957
769.257, 424.780
770.544, 538.641
771.832, 520.194
773.119, 494.850
774.406, 583.291
775.693, 697.521
776.980, 598.937
778.267, 734.135
779.553, 757.344
780.839, 790.155
782.125, 966.439
783.411, 875.961
784.697, 1011.401
785.982, 1157.540
787.267, 1210.762
788.552, 1313.926
789.837, 1343.795
791.122, 1448.303
792.406, 1494.298
793.690, 1572.832
794.974, 1791.379
796.258, 1667.563
797.542, 1926.136
798.825, 1992.024
800.108, 1940.325
801.391, 2251.521
802.674, 2244.364
803.957, 2411.040
805.239, 2563.290
806.522, 2523.013
807.804, 2960.752
809.085, 2918.153
810.367, 3160.923
811.649, 3471.500
812.930, 3513.931
814.211, 4115.762
815.492, 4344.299
816.772, 4791.163
818.053, 5549.037
819.333, 5715.943
820.613, 6882.867
821.893, 7255.491
823.173, 7970.447
824.452, 9324.746
825.732, 9429.736
827.011, 10784.746
828.290, 11639.771
829.568, 12394.812
830.847, 14629.209
832.125, 16204.122
833.403, 19479.238
834.681, 23512.893
835.959, 27888.053
837.236, 35563.215
838.514, 39638.422
839.791, 44213.668
841.068, 43847.992
842.345, 37543.266
843.621, 33838.582
844.898, 26703.922
846.174, 22519.283
847.450, 19644.658
848.726, 16350.057
850.001, 15665.489
851.277, 14030.938
852.552, 13186.406
853.827, 13061.911
855.102, 11487.436
856.376, 11672.992
857.651, 10348.567
858.925, 9164.165
860.199, 8729.782
861.473, 7355.513
862.746, 6951.169
864.020, 6277.869
865.293, 5493.589
866.566, 5397.333
867.839, 4685.144
869.112, 4539.927
870.384, 4260.739
871.656, 3694.569
872.928, 3812.421
874.200, 3270.498
875.472, 3282.388
876.744, 3121.299
878.015, 2668.435
879.286, 2785.387
880.557, 2581.416
881.828, 2434.846
883.098, 2514.379
884.369, 2208.977
885.639, 2263.039
886.909, 2144.122
888.178, 2063.493
889.448, 1962.624
890.717, 1678.800
891.987, 1789.979
893.256, 1647.178
894.524, 1467.609
895.793, 1621.850
897.061, 1248.112
898.330, 1388.396
899.598, 1354.701
900.865, 1080.027
902.133, 1266.377
903.401, 1037.746
904.668, 1000.141
905.935, 1058.556
907.202, 814.182
908.468, 946.645
909.735, 826.128
911.001, 713.595
912.267, 874.127
913.533, 641.685
914.799, 773.271
916.064, 749.876
917.330, 615.520
918.595, 703.184
919.860, 575.875
921.124, 596.150
922.389, 628.883
923.653, 527.646
924.918, 670.429
926.182, 455.238
927.445, 455.072
928.709, 565.924
929.972, 388.809
931.236, 504.496
932.499, 399.420
933.761, 295.604
935.024, 447.569
936.286, 299.560
937.549, 352.183
938.811, 359.221
940.073, 235.279
941.334, 437.354
942.596, 191.465
943.857, 296.594
945.118, 361.751
946.379, 150.927
947.640, 329.120
948.900, 170.338
950.161, 203.573
951.421, 316.226
952.681, 96.506
953.940, 266.176
955.200, 206.502
956.459, 158.844
957.719, 224.254
958.978, 116.641
960.236, 263.044
961.495, 238.454
962.753, 39.915
964.012, 292.619
965.270, 119.112
966.527, 138.621
967.785, 242.251
969.043, 94.794
970.300, 230.228
971.557, 132.802
972.814, 61.391
974.071, 234.006
975.327, 103.636
976.583, 145.284
977.840, 226.946
979.095, 65.625
980.351, 277.317
981.607, 109.074
982.862, 140.801
984.117, 238.513
985.372, 50.270
986.627, 205.286
987.882, 51.634
989.136, 70.438
990.390, 191.604
991.644, 26.435
992.898, 153.283
994.152, 57.745
995.405, 56.618
996.659, 182.123
997.912, 43.107
999.165, 82.025
1000.417, 140.606
1001.670, 46.547
1002.922, 190.537
1004.174, 105.829
1005.426, 51.803
1006.678, 187.175
1007.930, 16.805
1009.181, 106.822
1010.432, 121.894
1011.683, 8.070
1012.934, 137.976
1014.185, 78.042
1015.435, 56.108
1016.685, 151.340
1017.935, 3.576
1019.185, 126.517
1020.435, 62.936
1021.684, 192.046
1022.934, 162.704
1024.183, 12.631
1025.432, 91.526
1026.680, 96.705
1027.929, 12.108
1029.177, 159.114
1030.425, 60.516
1031.673, 45.142
1032.921, 34.402
1034.169, 23.092
1035.416, 44.176
1036.663, 94.534
1037.911, 13.144
1039.157, 147.143
1040.404, 33.271
1041.650, 74.018
1042.897, 116.328
1044.143, 36.356
1045.389, 135.954
1046.634, 285.272
1047.880, 158.611
1049.125, 215.990
1050.371, 34.260
1051.615, 109.601
1052.860, 69.950
1054.105, 65.303
1055.349, 216.660
1056.593, 6.976
1057.837, 78.389
1059.081, 220.758
1060.325, 45.868
1061.568, 141.492
1062.812, 88.867
1064.055, 66.249
1065.298, 234.633
1066.540, 17.021
1067.783, 127.410
1069.025, 185.802
1070.267, 13.684
1071.509, 197.710
1072.751, 37.106
1073.993, 62.547
1075.234, 199.946
1076.475, 4.428
1077.716, 134.830
1078.957, 126.233
1080.198, 15.216
1081.438, 195.186
1082.679, 23.413
1083.919, 58.979
1085.159, 177.370
1086.398, 29.237
1087.638, 211.139
1088.877, 70.515
1090.116, 55.890
1091.355, 187.265
1092.594, 18.638
1093.833, 97.012
1095.071, 92.384
1096.309, 12.798
1097.547, 150.167
1098.785, 56.533
1100.023, 19.799
1101.260, 100.550
1102.498, 84.104
1103.735, 68.329
1104.972, 79.624
1106.208, 61.084
1107.445, 132.170
1108.681, 23.419
1109.918, 81.165
1111.154, 189.407
1112.389, 29.355
1113.625, 129.189
1114.860, 50.397
1116.096, 12.600
1117.331, 137.094
1118.566, 20.712
1119.800, 148.565
1121.035, 204.730
1122.269, 238.890
1123.503, 444.196
1124.737, 303.343
1125.971, 94.484
1127.205, 157.206
1128.438, 46.293
1129.671, 21.586
1130.904, 77.700
1132.137, 48.192
1133.370, 114.339
1134.602, 3.601
1135.834, 9.440
1137.066, 145.469
1138.298, 99.511
1139.530, 104.647
1140.762, 85.649
1141.993, 38.417
1143.224, 193.697
1144.455, 11.700
1145.686, 28.570
1146.917, 182.506
1148.147, 20.643
1149.377, 119.175
1150.607, 35.983
1151.837, 30.219
1153.067, 135.824
1154.296, 14.417
1155.526, 16.310
1156.755, 160.804
1157.984, 44.503
1159.213, 164.191
1160.441, 164.079
1161.670, 53.254
1162.898, 187.782
1164.126, 9.633
1165.354, 95.211
1166.581, 83.007
1167.809, 7.769
1169.036, 177.456
1170.263, 113.985
1171.490, 66.731
1172.717, 171.492
1173.943, 89.637
1175.170, 143.106
1176.396, 243.473
1177.622, 37.422
1178.848, 169.844
1180.073, 207.753
1181.299, 54.148
1182.524, 262.179
1183.749, 79.186
1184.974, 90.537
1186.199, 264.107
1187.423, 53.429
1188.648, 208.711
1189.872, 172.880
1191.096, 185.156
1192.320, 293.250
1193.543, 156.457
1194.767, 182.689
1195.990, 273.299
1197.213, 115.041
1198.436, 352.227
1199.659, 256.497
1200.881, 156.777
1202.104, 351.946
1203.326, 167.834
1204.548, 210.758
1205.770, 291.083
1206.991, 161.802
1208.213, 253.906
1209.434, 213.073
1210.655, 218.958
1211.876, 314.969
1213.096, 195.502
1214.317, 210.478
1215.537, 305.438
1216.757, 104.750
1217.977, 300.113
1219.197, 705.264
1220.417, 124.400
1221.636, 372.272
1222.855, 117.942
1224.074, 229.797
1225.293, 345.619
1226.512, 107.124
1227.731, 368.126
1228.949, 272.895
1230.167, 179.097
1231.385, 357.831
1232.603, 163.032
1233.820, 188.314
1235.038, 283.997
1236.255, 154.110
1237.472, 526.050
1238.689, 385.153
1239.906, 151.030
1241.122, 362.626
1242.338, 138.206
1243.555, 197.307
1244.771, 307.852
1245.986, 79.957
1247.202, 277.111
1248.417, 284.612
1249.633, 115.529
1250.848, 292.988
1252.063, 228.434
1253.277, 147.277
1254.492, 308.695
1255.706, 56.244
1256.920, 292.750
1258.134, 245.121
1259.348, 70.495
1260.562, 246.875
1261.775, 215.203
1262.988, 79.053
1264.201, 262.348
1265.414, 123.751
1266.627, 157.173
1267.839, 181.423
1269.052, 114.659
1270.264, 209.880
1271.476, 208.086
1272.688, 79.294
1273.899, 286.538
1275.111, 65.690
1276.322, 192.098
1277.533, 298.207
1278.744, 57.331
1279.955, 209.049
1281.165, 205.871
1282.376, 162.476
1283.586, 252.543
1284.796, 97.180
1286.006, 133.554
1287.215, 272.448
1288.425, 92.706
1289.634, 117.841
1290.843, 225.046
1292.052, 3.232
1293.261, 274.866
1294.469, 181.961
1295.678, 202.687
1296.886, 216.354
1298.094, 74.707
1299.302, 159.796
1300.509, 267.056
1301.717, 17.952
1302.924, 207.628
1304.131, 148.141
1305.338, 70.682
1306.545, 230.498
1307.752, 44.985
1308.958, 80.465
1310.164, 198.868
1311.370, 74.299
1312.576, 90.807
1313.782, 101.885
1314.987, 57.741
1316.193, 82.597
1317.398, 37.879
1318.603, 36.827
1319.807, 165.589
1321.012, 92.171
1322.216, 34.023
1323.421, 161.634
1324.625, 35.215
1325.829, 169.903
1327.032, 90.765
1328.236, 20.850
1329.439, 227.189
1330.642, 34.194
1331.845, 152.218
1333.048, 221.042
1334.251, 42.961
1335.453, 186.000
1336.656, 131.183
1337.858, 3.106
1339.060, 147.006
1340.261, 47.889
1341.463, 28.749
1342.664, 222.683
1343.866, 0.494
1345.067, 112.304
1346.267, 135.138
1347.468, 8.875
1348.669, 170.591
1349.869, 86.294
1351.069, 16.978
1352.269, 212.645
1353.469, 34.697
1354.668, 1.933
1355.868, 187.545
1357.067, 27.143
1358.266, 172.723
1359.465, 169.289
1360.664, 8.158
1361.862, 190.262
1363.061, 83.781
1364.259, 83.284
1365.457, 184.731
1366.655, 1.452
1367.852, 137.832
1369.050, 262.279
1370.247, 15.284
1371.444, 152.996
1372.641, 170.528
1373.838, 8.940
1375.035, 273.350
1376.231, 31.929
1377.427, 95.331
1378.623, 259.738
1379.819, 36.146
1381.015, 72.545
1382.211, 214.949
1383.406, 4.389
1384.601, 198.800
1385.796, 222.347
1386.991, 25.730
1388.185, 346.177
1389.380, 23.678
1390.574, 138.856
1391.768, 267.381
1392.962, 1.306
1394.156, 199.411
1395.350, 190.632
1396.543, 38.863
1397.736, 275.559
1398.929, 111.406
1400.122, 118.581
1401.315, 207.419
1402.507, 87.448
1403.700, 138.403
1404.892, 280.500
1406.084, 16.236
1407.276, 235.835
1408.467, 180.360
1409.659, 111.396
1410.850, 309.425
1412.041, 191.195
1413.232, 381.015
1414.423, 299.953
1415.614, 142.571
1416.804, 130.620
1417.994, 255.330
1419.184, 73.371
1420.374, 211.006
1421.564, 226.628
1422.753, 14.108
1423.943, 217.818
1425.132, 121.224
1426.321, 128.568
1427.510, 293.576
1428.698, 39.656
1429.887, 139.335
1431.075, 301.351
1432.263, 59.743
1433.451, 256.522
1434.639, 191.467
1435.827, 44.613
1437.014, 311.104
1438.201, 149.256
1439.388, 130.403
1440.575, 440.260
1441.762, 46.511
1442.949, 154.773
1444.135, 127.847
1445.321, 121.366
1446.507, 224.335
1447.693, 324.771
1448.879, 47.829
1450.064, 365.673
1451.250, 182.495
1452.435, 95.306
1453.620, 311.570
1454.805, 95.709
1455.989, 139.615
1457.174, 349.491
1458.358, 116.741
1459.542, 303.242
1460.726, 247.876
1461.910, 79.827
1463.093, 328.653
1464.277, 137.475
1465.460, 149.733
1466.643, 311.626
1467.826, 204.078
1469.009, 185.534
1470.191, 395.564
1471.373, 29.754
1472.556, 303.286
1473.738, 296.406
1474.919, 89.820
1476.101, 271.139
1477.283, 404.291
1478.464, 57.805
1479.645, 420.446
1480.826, 218.316
1482.007, 200.393
1483.187, 450.661
1484.368, 92.407
1485.548, 324.912
1486.728, 309.535
1487.908, 104.113
1489.088, 400.381
1490.268, 238.791
1491.447, 128.319
1492.626, 321.897
1493.805, 325.438
1494.984, 187.683
1496.163, 490.966
1497.341, 144.591
1498.520, 184.250
1499.698, 423.347
1500.876, 218.070
1502.054, 322.850
1503.232, 395.658
1504.409, 155.912
1505.586, 349.265
1506.763, 300.146
1507.940, 65.921
1509.117, 489.980
1510.294, 213.642
1511.470, 153.902
1512.647, 358.134
1513.823, 106.967
1514.999, 244.987
1516.174, 380.193
1517.350, 101.591
1518.526, 352.237
1519.701, 327.129
1520.876, 194.458
1522.051, 387.676
1523.226, 357.745
1524.400, 162.361
1525.574, 497.942
