##NAMES=Crocoite
##RRUFFID=R050044
##IDEAL CHEMISTRY=Pb^2+^Cr^6+^O_4_
##LOCALITY=Red Ledge mine, Dundas, Tasmania
##OWNER=RRUFF
##SOURCE=Eugene Schlepp
##DESCRIPTION=Red crystal fragment
##STATUS=The identification of this mineral has been confirmed by X-ray diffraction and chemical analysis
##URL=rruff.info/R050044
##MEASURED CHEMISTRY=Pb_1.02_Cr_0.99_O_4_
##PIN_ID=L00274
##ORIENTATION=Laser parallel to a* (1 0 0). Fiducial mark perpendicular to laser is parallel to b [0 1 0]
163.613, 0.000
165.002, 1.909
166.391, 21.528
167.780, 36.851
169.169, 21.337
170.557, 1.295
171.945, 15.305
173.333, 16.018
174.720, 40.746
176.108, 42.474
177.495, 38.200
178.881, 26.429
180.268, 23.078
181.654, 22.954
183.040, 25.951
184.426, 23.422
185.812, 29.046
187.197, 37.175
188.582, 29.908
189.967, 49.063
191.351, 34.390
192.736, 17.784
194.120, 21.653
195.504, 16.241
196.887, 14.308
198.271, 24.512
199.654, 24.235
201.036, 27.704
202.419, 18.632
203.801, 31.516
205.184, 33.185
206.565, 13.426
207.947, 21.666
209.328, 29.500
210.710, 24.762
212.090, 25.586
213.471, 30.086
214.851, 14.631
216.232, 11.571
217.611, 20.417
218.991, 35.584
220.370, 33.324
221.750, 14.074
223.129, 10.789
224.507, 25.619
225.886, 10.790
227.264, 27.609
228.642, 7.836
230.019, 12.397
231.397, 19.079
232.774, 15.512
234.151, 27.054
235.528, 19.649
236.904, 42.063
238.281, 0.710
239.656, 33.409
241.032, 2.619
242.408, 29.447
243.783, 1.277
245.158, 5.110
246.533, 5.049
247.907, 11.815
249.282, 13.700
250.656, 35.599
252.029, 0.513
253.403, 14.442
254.776, 15.383
256.149, 0.333
257.522, 17.290
258.895, 5.255
260.267, 20.224
261.639, 13.198
263.011, 18.172
264.382, 9.148
265.754, 17.123
267.125, 11.099
268.496, 4.929
269.866, 32.041
271.237, 6.992
272.607, 18.971
273.977, 11.928
275.346, 0.120
276.716, 10.823
278.085, 38.759
279.454, 14.686
280.823, 11.603
282.191, 18.487
283.559, 18.413
284.927, 14.301
286.295, 11.180
287.662, 4.046
289.030, 30.899
290.397, 6.742
291.763, 12.584
293.130, 6.419
294.496, 18.430
295.862, 20.288
297.228, 8.245
298.594, 25.446
299.959, 24.611
301.324, 23.658
302.689, 19.712
304.053, 16.611
305.418, 20.504
306.782, 12.317
308.146, 23.315
309.509, 21.767
310.873, 34.146
312.236, 30.002
313.599, 31.897
314.961, 43.798
316.324, 24.755
317.686, 40.727
319.048, 88.716
320.409, 82.649
321.771, 93.601
323.132, 102.481
324.493, 127.474
325.854, 147.382
327.214, 197.278
328.574, 185.961
329.934, 207.553
331.294, 264.130
332.654, 297.637
334.013, 387.179
335.372, 540.436
336.731, 704.888
338.089, 996.273
339.448, 1220.732
340.806, 1346.197
342.164, 1314.621
343.521, 1084.952
344.879, 796.318
346.236, 666.550
347.593, 689.786
348.949, 722.009
350.306, 781.235
351.662, 722.581
353.018, 629.727
354.373, 450.838
355.729, 337.037
357.084, 256.231
358.439, 251.310
359.794, 207.390
361.148, 211.376
362.503, 219.491
363.857, 173.503
365.210, 153.478
366.564, 127.377
367.917, 138.507
369.270, 109.538
370.623, 126.306
371.976, 101.262
373.328, 116.186
374.680, 110.109
376.032, 131.904
377.384, 177.890
378.735, 176.717
380.086, 190.031
381.437, 195.218
382.788, 182.021
384.138, 149.865
385.488, 126.536
386.838, 102.069
388.188, 114.805
389.538, 100.476
390.887, 98.177
392.236, 97.744
393.585, 139.290
394.933, 167.900
396.282, 169.455
397.630, 241.117
398.977, 360.666
400.325, 516.311
401.672, 694.571
403.020, 790.168
404.366, 794.527
405.713, 691.190
407.059, 456.531
408.406, 326.991
409.752, 189.002
411.097, 128.476
412.443, 94.899
413.788, 110.451
415.133, 138.680
416.478, 97.397
417.822, 89.005
419.167, 62.325
420.511, 50.845
421.854, 75.131
423.198, 67.738
424.541, 65.253
425.884, 74.238
427.227, 47.322
428.570, 75.821
429.912, 43.317
431.254, 31.291
432.596, 34.012
433.938, 43.700
435.280, 46.048
436.621, 51.854
437.962, 34.103
439.303, 60.498
440.643, 50.964
441.983, 73.335
443.323, 50.165
444.663, 91.605
446.003, 76.845
447.342, 68.639
448.681, 53.875
450.020, 63.002
451.359, 59.861
452.697, 81.926
454.035, 72.413
455.373, 70.196
456.711, 82.349
458.048, 79.728
459.386, 74.802
460.723, 84.081
462.059, 92.951
463.396, 73.540
464.732, 75.523
466.068, 79.657
467.404, 71.665
468.740, 89.159
470.075, 71.395
471.410, 95.662
472.745, 99.089
474.080, 91.978
475.414, 85.477
476.748, 104.443
478.082, 99.269
479.416, 101.140
480.749, 92.544
482.083, 78.487
483.416, 107.380
484.749, 83.263
486.081, 101.071
487.413, 82.866
488.745, 87.764
490.077, 91.546
491.409, 85.512
492.740, 88.021
494.072, 74.803
495.402, 74.459
496.733, 84.185
498.064, 95.973
499.394, 74.635
500.724, 68.290
502.054, 73.242
503.383, 89.833
504.712, 75.787
506.041, 113.392
507.370, 95.859
508.699, 93.310
510.027, 86.743
511.355, 52.224
512.683, 96.243
514.011, 98.721
515.338, 72.101
516.666, 60.448
517.993, 84.828
519.319, 73.356
520.646, 86.662
521.972, 59.942
523.298, 79.224
524.624, 84.469
525.950, 87.698
527.275, 43.927
528.600, 56.566
529.925, 94.744
531.250, 52.906
532.574, 64.051
533.898, 54.179
535.222, 81.290
536.546, 41.385
537.869, 54.462
539.193, 61.523
540.516, 63.568
541.839, 63.596
543.161, 46.608
544.484, 64.603
545.806, 77.583
547.128, 47.547
548.449, 40.495
549.771, 50.426
551.092, 44.341
552.413, 57.241
553.734, 51.125
555.054, 54.992
556.374, 40.845
557.694, 56.681
559.014, 52.959
560.334, 54.305
561.653, 50.095
562.972, 50.869
564.291, 31.628
565.610, 44.371
566.928, 33.099
568.247, 36.810
569.565, 36.509
570.882, 49.191
572.200, 40.858
573.517, 51.510
574.834, 15.147
576.151, 3.234
577.468, 27.359
578.784, 24.899
580.100, 41.373
581.416, 17.920
582.732, 19.433
584.047, 4.918
585.362, 1.356
586.677, 18.772
587.992, 5.774
589.307, 18.524
590.621, 9.759
591.935, 31.985
593.249, 24.398
594.563, 3.492
595.876, 13.745
597.189, 12.908
598.502, 15.165
599.815, 13.365
601.127, 0.642
602.440, 14.201
603.752, 5.960
605.064, 0.258
606.375, 23.581
607.686, 23.522
608.998, 4.465
610.308, 3.446
611.619, 13.359
612.930, 11.343
614.240, 8.361
615.550, 12.356
616.860, 9.392
618.169, 11.475
619.478, 5.548
620.787, 17.624
622.096, 8.798
623.405, 11.989
624.713, 26.191
626.021, 19.438
627.329, 30.789
628.637, 16.044
629.945, 34.320
631.252, 26.625
632.559, 4.997
633.866, 12.585
635.172, 22.227
636.479, 22.842
637.785, 4.547
639.091, 10.009
640.396, 17.495
641.702, 15.071
643.007, 28.554
644.312, 27.075
645.617, 0.559
646.921, 20.026
648.226, 2.502
649.530, 28.068
650.834, 4.343
652.137, 28.688
653.441, 7.022
654.744, 1.614
656.047, 11.789
657.350, 8.092
658.652, 7.642
659.954, 12.632
661.256, 9.035
662.558, 0.226
663.860, 57.588
665.161, 28.915
666.462, 26.223
667.763, 7.496
669.064, 14.384
670.365, 0.096
671.665, 16.195
672.965, 19.366
674.265, 5.482
675.564, 6.307
676.864, 12.846
678.163, 22.047
679.462, 8.131
680.760, 24.288
682.059, 23.461
683.357, 5.642
684.655, 14.385
685.953, 31.647
687.250, 32.834
688.548, 29.841
689.845, 34.889
691.142, 14.891
692.438, 21.001
693.735, 39.917
695.031, 20.905
696.327, 73.919
697.623, 86.936
698.918, 73.950
700.214, 45.889
701.509, 66.899
702.804, 54.960
704.098, 55.892
705.393, 64.780
706.687, 53.693
707.981, 76.628
709.275, 54.589
710.568, 70.522
711.861, 97.469
713.155, 114.355
714.447, 86.306
715.740, 86.240
717.032, 33.177
718.325, 90.095
719.617, 61.906
720.908, 62.527
722.200, 73.710
723.491, 45.530
724.782, 83.382
726.073, 47.232
727.364, 79.137
728.654, 87.005
729.944, 83.918
731.234, 57.476
732.524, 85.178
733.814, 75.962
735.103, 108.721
736.392, 103.592
737.681, 134.252
738.969, 97.946
740.258, 89.193
741.546, 104.258
742.834, 115.961
744.122, 127.605
745.409, 123.318
746.697, 140.823
747.984, 138.667
749.270, 174.466
750.557, 141.744
751.844, 147.409
753.130, 119.065
754.416, 198.779
755.701, 184.466
756.987, 236.656
758.272, 228.930
759.557, 234.738
760.842, 249.951
762.127, 242.686
763.411, 221.443
764.695, 253.424
765.979, 250.493
767.263, 278.963
768.547, 237.582
769.830, 301.407
771.113, 347.003
772.396, 321.806
773.679, 358.507
774.961, 358.604
776.243, 351.966
777.525, 438.905
778.807, 439.668
780.089, 489.567
781.370, 473.915
782.651, 549.576
783.932, 617.190
785.213, 617.685
786.493, 686.690
787.773, 761.082
789.053, 798.046
790.333, 884.060
791.613, 949.085
792.892, 1067.623
794.171, 1121.614
795.450, 1170.648
796.729, 1287.682
798.007, 1320.782
799.285, 1390.885
800.563, 1497.876
801.841, 1525.972
803.119, 1584.876
804.396, 1619.225
805.673, 1735.291
806.950, 1859.470
808.227, 1810.573
809.504, 1916.606
810.780, 2043.753
812.056, 2086.896
813.332, 2191.732
814.607, 2312.918
815.883, 2434.730
817.158, 2742.885
818.433, 2903.169
819.708, 3208.460
820.982, 3608.765
822.256, 3980.013
823.531, 4314.718
824.804, 4931.955
826.078, 5627.288
827.352, 6160.648
828.625, 7059.969
829.898, 7891.131
831.170, 9092.516
832.443, 10428.918
833.715, 12555.310
834.988, 15111.736
836.259, 18948.164
837.531, 24214.594
838.803, 30500.602
840.074, 36407.082
841.345, 40313.578
842.616, 39440.082
843.886, 35856.590
845.157, 30093.113
846.427, 24209.646
847.697, 20026.193
848.966, 16792.756
850.236, 14309.342
851.505, 12995.936
852.774, 11712.538
854.043, 10899.165
855.312, 11025.803
856.580, 10142.452
857.849, 9589.369
859.117, 8796.039
860.384, 7919.717
861.652, 7144.407
862.919, 6302.107
864.186, 5670.815
865.453, 4982.124
866.720, 4564.853
867.986, 4170.592
869.253, 3733.340
870.519, 3579.099
871.784, 3291.867
873.050, 3025.645
874.315, 2863.435
875.581, 2689.236
876.846, 2515.046
878.110, 2273.867
879.375, 2193.698
880.639, 2060.539
881.903, 1901.391
883.167, 1837.252
884.431, 1753.126
885.694, 1693.355
886.957, 1633.254
888.220, 1557.164
889.483, 1468.084
890.746, 1449.015
892.008, 1322.957
893.270, 1220.912
894.532, 1209.881
895.794, 1159.897
897.056, 1087.892
898.317, 1055.922
899.578, 1002.768
900.839, 990.968
902.099, 922.006
903.360, 888.057
904.620, 860.936
905.880, 774.193
907.140, 771.277
908.399, 729.372
909.659, 667.480
910.918, 691.606
912.177, 670.746
913.435, 612.900
914.694, 577.459
915.952, 544.526
917.210, 483.851
918.468, 480.954
919.726, 428.619
920.983, 449.871
922.240, 459.137
923.497, 419.419
924.754, 417.063
926.011, 442.811
927.267, 336.136
928.523, 353.477
929.779, 315.832
931.035, 338.721
932.290, 343.108
933.546, 292.527
934.801, 284.951
936.056, 300.389
937.310, 337.848
938.565, 288.324
939.819, 300.813
941.073, 269.311
942.327, 214.818
943.580, 235.333
944.833, 247.860
946.087, 185.985
947.340, 266.530
948.592, 230.098
949.845, 213.660
951.097, 206.230
952.349, 205.860
953.601, 205.585
954.853, 211.198
956.104, 220.810
957.355, 188.491
958.606, 117.899
959.857, 138.932
961.108, 144.610
962.358, 181.328
963.608, 173.036
964.858, 156.760
966.108, 114.514
967.357, 122.929
968.607, 93.867
969.856, 102.062
971.105, 111.025
972.353, 121.831
973.602, 125.159
974.850, 99.437
976.098, 126.437
977.346, 115.862
978.594, 103.673
979.841, 108.944
981.088, 86.967
982.335, 96.784
983.582, 90.814
984.828, 77.920
986.075, 73.708
987.321, 65.438
988.567, 63.485
989.812, 73.771
991.058, 70.692
992.303, 59.510
993.548, 66.560
994.793, 52.755
996.038, 73.594
997.282, 87.910
998.526, 39.878
999.770, 48.229
1001.014, 68.100
1002.258, 24.177
1003.501, 99.653
1004.744, 45.656
1005.987, 19.660
1007.230, 15.398
1008.473, 41.862
1009.715, 57.820
1010.957, 30.106
1012.199, 75.123
1013.441, 42.018
1014.682, 25.031
1015.923, 47.865
1017.164, 17.849
1018.405, 8.752
1019.646, 3.800
1020.886, 20.710
1022.127, 23.750
1023.367, 51.079
1024.606, 34.015
1025.846, 55.943
1027.085, 57.929
1028.325, 42.421
1029.564, 41.537
1030.802, 23.908
1032.041, 4.926
1033.279, 17.998
1034.517, 14.998
1035.755, 28.945
1036.993, 25.894
1038.230, 9.847
1039.468, 8.802
1040.705, 4.760
1041.942, 24.719
1043.178, 41.682
1044.415, 2.354
1045.651, 24.611
1046.887, 1.402
1048.123, 19.567
1049.358, 49.536
1050.594, 55.505
1051.829, 7.475
1053.064, 11.446
1054.299, 10.416
1055.533, 16.387
1056.768, 15.081
1058.002, 19.863
1059.236, 10.310
1060.469, 19.286
1061.703, 9.262
1062.936, 11.697
1064.169, 38.726
1065.402, 25.469
1066.635, 23.829
1067.867, 7.897
1069.100, 11.031
1070.332, 7.956
1071.564, 1.879
1072.795, 27.200
1074.027, 10.292
1075.258, 10.608
1076.489, 20.506
1077.720, 39.401
1078.950, 10.707
1080.181, 80.180
1081.411, 1.065
1082.641, 23.950
1083.871, 66.832
1085.100, 23.771
1086.330, 30.684
1087.559, 45.558
1088.788, 39.340
1090.016, 37.919
1091.245, 37.191
1092.473, 48.050
1093.701, 8.095
1094.929, 51.776
1096.157, 10.616
1097.384, 32.454
1098.612, 34.287
1099.839, 5.135
1101.066, 15.042
1102.292, 15.766
1103.519, 21.571
1104.745, 7.369
1105.971, 7.837
1107.197, 1.057
1108.423, 16.714
1109.648, 10.530
1110.873, 15.289
1112.098, 15.040
1113.323, 10.786
1114.548, 4.475
1115.772, 4.252
1116.996, 26.970
1118.220, 19.318
1119.444, 12.447
1120.667, 8.869
1121.891, 26.799
1123.114, 10.523
1124.337, 16.877
1125.560, 24.746
1126.782, 19.373
1128.004, 16.017
1129.227, 30.570
1130.448, 9.151
1131.670, 9.279
1132.892, 68.272
1134.113, 2.520
1135.334, 23.397
1136.555, 44.867
1137.776, 4.386
1138.996, 65.093
1140.216, 13.666
1141.436, 10.111
1142.656, 49.711
1143.876, 24.864
1145.095, 22.863
1146.315, 40.673
1147.534, 49.674
1148.753, 17.170
1149.971, 41.564
1151.190, 24.929
1152.408, 26.355
1153.626, 42.782
1154.844, 13.818
1156.061, 41.176
1157.279, 14.340
1158.496, 31.927
1159.713, 70.350
1160.930, 50.826
1162.146, 81.536
1163.363, 43.842
1164.579, 97.429
1165.795, 31.923
1167.010, 70.121
1168.226, 36.622
1169.441, 16.966
1170.657, 64.118
1171.871, 67.475
1173.086, 54.910
1174.301, 102.163
1175.515, 54.150
1176.729, 45.683
1177.943, 53.851
1179.157, 42.305
1180.370, 59.521
1181.584, 87.074
1182.797, 93.477
1184.010, 87.893
1185.222, 100.430
1186.435, 93.506
1187.647, 110.154
1188.859, 85.775
1190.071, 107.942
1191.283, 107.243
1192.494, 79.003
1193.706, 100.289
1194.917, 96.468
1196.128, 110.043
1197.338, 110.144
1198.549, 109.176
1199.759, 107.249
1200.969, 136.421
1202.179, 102.792
1203.389, 197.149
1204.598, 119.521
1205.807, 123.830
1207.016, 146.837
1208.225, 75.815
1209.434, 177.359
1210.642, 145.668
1211.850, 156.422
1213.058, 123.240
1214.266, 128.796
1215.474, 124.539
1216.681, 169.210
1217.889, 149.114
1219.096, 141.544
1220.302, 123.874
1221.509, 143.480
1222.715, 134.154
1223.922, 135.818
1225.128, 138.679
1226.334, 135.444
1227.539, 137.018
1228.745, 131.723
1229.950, 80.634
1231.155, 86.553
1232.360, 113.196
1233.564, 146.875
1234.769, 88.473
1235.973, 101.029
1237.177, 111.593
1238.381, 135.103
1239.584, 91.115
1240.787, 111.600
1241.991, 98.794
1243.194, 130.989
1244.396, 94.558
1245.599, 107.849
1246.801, 132.417
1248.004, 124.012
1249.206, 137.321
1250.407, 100.820
1251.609, 100.362
1252.810, 158.242
1254.012, 87.605
1255.212, 139.797
1256.413, 129.991
1257.614, 125.407
1258.814, 171.551
1260.014, 118.284
1261.214, 163.336
1262.414, 133.501
1263.614, 82.336
1264.813, 154.585
1266.012, 111.615
1267.211, 95.995
1268.410, 118.502
1269.609, 104.868
1270.807, 96.244
1272.005, 136.309
1273.203, 119.802
1274.401, 150.925
1275.598, 106.786
1276.796, 106.588
1277.993, 104.664
1279.190, 55.738
1280.387, 73.315
1281.583, 116.165
1282.780, 89.061
1283.976, 65.082
1285.172, 107.993
1286.368, 53.644
1287.563, 98.624
1288.759, 27.999
1289.954, 72.713
1291.149, 89.031
1292.343, 50.813
1293.538, 0.739
1294.732, 36.894
1295.927, 50.636
1297.121, 52.879
1298.314, 81.537
1299.508, 63.863
1300.701, 0.483
1301.895, 22.765
1303.087, 40.371
1304.280, 32.346
1305.473, 65.912
1306.665, 61.518
1307.857, 19.200
1309.049, 25.777
1310.241, 84.645
1311.433, 26.188
1312.624, 44.635
1313.815, 86.831
1315.006, 38.306
1316.197, 27.779
1317.388, 55.181
1318.578, 1.629
1319.768, 18.064
1320.958, 67.365
1322.148, 21.677
1323.338, 61.920
1324.527, 1.210
1325.716, 6.382
1326.906, 20.929
1328.094, 13.222
1329.283, 16.988
1330.471, 31.106
1331.660, 7.993
1332.848, 40.210
1334.035, 21.410
1335.223, 2.595
1336.411, 67.739
1337.598, 62.884
1338.785, 54.975
1339.972, 39.050
1341.158, 50.106
1342.345, 39.141
1343.531, 26.156
1344.717, 12.109
1345.903, 12.043
1347.089, 10.537
1348.274, 12.840
1349.459, 36.755
1350.644, 38.601
1351.829, 44.122
1353.014, 16.338
1354.198, 51.129
1355.383, 48.994
1356.567, 56.751
1357.751, 71.488
1358.934, 85.202
1360.118, 32.933
1361.301, 52.605
1362.484, 51.264
1363.667, 103.905
1364.850, 66.526
1366.032, 65.128
1367.215, 0.698
1368.397, 36.247
1369.579, 3.226
1370.760, 40.278
1371.942, 16.762
1373.123, 15.371
1374.304, 43.781
1375.485, 34.959
1376.666, 46.750
1377.847, 52.799
1379.027, 48.248
1380.207, 58.654
1381.387, 36.066
1382.567, 59.438
1383.747, 4.814
1384.926, 74.174
1386.105, 34.518
1387.284, 88.796
1388.463, 18.112
1389.641, 25.408
1390.820, 86.693
1391.998, 28.885
1393.176, 74.153
1394.354, 120.390
1395.532, 50.637
1396.709, 81.885
1397.886, 93.125
1399.063, 31.362
1400.240, 108.271
1401.417, 29.504
1402.593, 58.604
1403.769, 103.631
1404.945, 16.364
1406.121, 39.425
1407.297, 104.245
1408.472, 25.110
1409.648, 3.158
1410.823, 60.703
1411.998, 34.272
1413.172, 63.156
1414.347, 52.322
1415.521, 51.904
1416.695, 61.715
1417.869, 56.016
1419.043, 62.593
1420.216, 74.833
1421.390, 52.093
1422.563, 49.727
1423.736, 59.266
1424.909, 51.037
1426.081, 26.597
1427.254, 41.563
1428.426, 46.066
1429.598, 105.297
1430.770, 111.476
1431.941, 92.418
1433.113, 84.756
1434.284, 13.222
1435.455, 109.248
1436.626, 40.899
1437.796, 30.936
1438.967, 108.594
1440.137, 83.539
1441.307, 94.918
1442.477, 97.250
1443.646, 52.944
1444.816, 13.184
1445.985, 73.137
1447.154, 98.923
1448.323, 28.903
1449.492, 132.908
1450.660, 28.251
1451.829, 96.769
1452.997, 54.671
1454.165, 41.536
1455.332, 68.212
1456.500, 68.343
1457.667, 77.198
1458.834, 98.750
1460.001, 45.201
1461.168, 139.966
1462.335, 97.499
1463.501, 73.674
1464.667, 123.619
1465.833, 43.667
1466.999, 111.764
1468.165, 141.951
1469.330, 98.361
1470.495, 108.356
1471.660, 130.501
1472.825, 92.005
1473.990, 128.245
1475.154, 67.826
1476.318, 85.210
1477.482, 82.323
1478.646, 86.416
1479.810, 61.588
1480.974, 59.442
1482.137, 114.271
1483.300, 65.635
1484.463, 63.351
1485.626, 95.719
1486.788, 48.774
1487.950, 121.148
1489.113, 24.030
1490.275, 68.186
1491.436, 69.291
1492.598, 3.912
1493.759, 114.811
1494.920, 10.578
1496.081, 39.224
1497.242, 85.687
1498.403, 41.243
1499.563, 15.890
1500.724, 101.450
1501.884, 56.605
1503.043, 31.742
1504.203, 67.370
1505.363, 17.501
1506.522, 94.304
1507.681, 72.167
1508.840, 65.494
1509.999, 58.346
1511.157, 72.091
1512.315, 0.981
1513.474, 33.394
1514.632, 17.120
1515.789, 26.178
1516.947, 0.000
##END=



