##NAMES=Crocoite
##RRUFFID=R050044
##IDEAL CHEMISTRY=Pb^2+^Cr^6+^O_4_
##LOCALITY=Red Ledge mine, Dundas, Tasmania
##OWNER=RRUFF
##SOURCE=Eugene Schlepp
##DESCRIPTION=Red crystal fragment
##STATUS=The identification of this mineral has been confirmed by X-ray diffraction and chemical analysis
##URL=rruff.info/R050044
##MEASURED CHEMISTRY=Pb_1.02_Cr_0.99_O_4_
##PIN_ID=L00200
##ORIENTATION=Laser parallel to c* (0 0 1). Fiducial mark perpendicular to laser is parallel to -a [-1 0 0]
155.272, 0.000
156.663, 23.835
158.054, 57.709
159.444, 18.192
160.834, 28.382
162.224, 26.911
163.613, 9.883
165.002, 9.178
166.391, 2.339
167.780, 1.049
169.169, 8.158
170.557, 3.514
171.945, 28.183
173.333, 21.656
174.720, 1.147
176.108, 27.495
177.495, 26.273
178.881, 10.383
180.268, 38.873
181.654, 66.250
183.040, 23.565
184.426, 17.216
185.812, 4.301
187.197, 35.491
188.582, 30.626
189.967, 26.066
191.351, 36.601
192.736, 41.091
194.120, 41.977
195.504, 37.451
196.887, 46.374
198.271, 47.288
199.654, 49.270
201.036, 57.636
202.419, 51.821
203.801, 74.805
205.184, 51.794
206.565, 67.710
207.947, 61.550
209.328, 42.326
210.710, 21.205
212.090, 25.561
213.471, 53.579
214.851, 36.364
216.232, 38.127
217.611, 52.938
218.991, 42.135
220.370, 58.385
221.750, 51.737
223.129, 50.024
224.507, 29.854
225.886, 37.240
227.264, 27.446
228.642, 28.403
230.019, 27.671
231.397, 41.084
232.774, 25.105
234.151, 3.884
235.528, 51.337
236.904, 15.446
238.281, 22.383
239.656, 11.235
241.032, 16.135
242.408, 17.071
243.783, 25.032
245.158, 29.011
246.533, 23.005
247.907, 21.010
249.282, 27.928
250.656, 16.046
252.029, 31.075
253.403, 31.102
254.776, 10.125
256.149, 34.148
257.522, 6.170
258.895, 19.812
260.267, 8.201
261.639, 4.209
263.011, 0.211
264.382, 7.207
265.754, 6.192
267.125, 22.162
268.496, 6.880
269.866, 18.064
271.237, 0.995
272.607, 7.088
273.977, 11.812
275.346, 1.304
276.716, 6.563
278.085, 5.589
279.454, 23.241
280.823, 16.052
282.191, 13.682
283.559, 13.398
284.927, 10.384
286.295, 2.264
287.662, 19.142
289.030, 33.047
290.397, 28.021
291.763, 19.886
293.130, 9.875
294.496, 6.950
295.862, 1.833
297.228, 3.311
298.594, 0.508
299.959, 11.274
301.324, 3.038
302.689, 19.719
304.053, 18.388
305.418, 15.114
306.782, 11.851
308.146, 21.541
309.509, 23.116
310.873, 21.682
312.236, 40.322
313.599, 41.926
314.961, 47.924
316.324, 62.175
317.686, 64.728
319.048, 65.424
320.409, 91.147
321.771, 137.726
323.132, 183.233
324.493, 245.558
325.854, 347.801
327.214, 485.888
328.574, 646.774
329.934, 653.548
331.294, 627.195
332.654, 512.779
334.013, 381.360
335.372, 330.788
336.731, 356.324
338.089, 438.779
339.448, 582.013
340.806, 733.406
342.164, 830.753
343.521, 671.965
344.879, 531.292
346.236, 382.641
347.593, 431.821
348.949, 491.926
350.306, 693.487
351.662, 684.594
353.018, 595.644
354.373, 378.641
355.729, 243.644
357.084, 171.676
358.439, 189.630
359.794, 162.525
361.148, 146.422
362.503, 132.286
363.857, 126.128
365.210, 125.978
366.564, 98.777
367.917, 118.631
369.270, 88.378
370.623, 85.167
371.976, 84.864
373.328, 92.447
374.680, 99.884
376.032, 147.315
377.384, 125.858
378.735, 213.294
380.086, 283.710
381.437, 345.158
382.788, 325.545
384.138, 254.983
385.488, 204.374
386.838, 154.747
388.188, 124.801
389.538, 117.294
390.887, 95.486
392.236, 95.670
393.585, 106.837
394.933, 120.071
396.282, 131.195
397.630, 142.031
398.977, 172.281
400.325, 290.297
401.672, 348.371
403.020, 502.325
404.366, 525.335
405.713, 433.350
407.059, 303.425
408.406, 195.528
409.752, 141.575
411.097, 104.599
412.443, 96.675
413.788, 58.645
415.133, 75.734
416.478, 80.816
417.822, 50.694
419.167, 51.775
420.511, 68.579
421.854, 39.955
423.198, 55.781
424.541, 60.529
425.884, 50.146
427.227, 46.970
428.570, 32.797
429.912, 24.824
431.254, 31.030
432.596, 43.965
433.938, 43.699
435.280, 44.759
436.621, 43.712
437.962, 46.486
439.303, 50.004
440.643, 47.355
441.983, 54.684
443.323, 53.297
444.663, 48.558
446.003, 69.698
447.342, 48.187
448.681, 78.961
450.020, 47.622
451.359, 49.796
452.697, 59.248
454.035, 48.469
455.373, 57.654
456.711, 52.886
458.048, 65.532
459.386, 70.639
460.723, 71.175
462.059, 73.486
463.396, 68.967
464.732, 60.395
466.068, 74.041
467.404, 67.896
468.740, 77.266
470.075, 70.518
471.410, 73.830
472.745, 68.122
474.080, 66.376
475.414, 86.281
476.748, 72.181
478.082, 66.240
479.416, 49.174
480.749, 75.146
482.083, 90.252
483.416, 64.245
484.749, 75.228
486.081, 62.160
487.413, 71.571
488.745, 88.908
490.077, 90.775
491.409, 84.142
492.740, 54.001
494.072, 85.405
495.402, 74.195
496.733, 78.044
498.064, 85.867
499.394, 75.285
500.724, 81.055
502.054, 88.986
503.383, 84.820
504.712, 99.009
506.041, 100.829
507.370, 89.525
508.699, 89.203
510.027, 84.938
511.355, 93.777
512.683, 99.426
514.011, 99.622
515.338, 80.251
516.666, 65.116
517.993, 80.751
519.319, 81.350
520.646, 98.939
521.972, 79.534
523.298, 84.104
524.624, 88.722
525.950, 92.273
527.275, 103.815
528.600, 106.551
529.925, 97.870
531.250, 109.399
532.574, 108.903
533.898, 93.400
535.222, 113.889
536.546, 105.370
537.869, 82.842
539.193, 85.307
540.516, 95.764
541.839, 77.213
543.161, 102.655
544.484, 80.089
545.806, 88.515
547.128, 97.933
548.449, 80.344
549.771, 70.749
551.092, 69.146
552.413, 82.536
553.734, 74.920
555.054, 84.297
556.374, 82.667
557.694, 72.032
559.014, 73.389
560.334, 80.741
561.653, 76.369
562.972, 87.425
564.291, 74.759
565.610, 92.086
566.928, 84.407
568.247, 91.249
569.565, 96.669
570.882, 99.331
572.200, 102.627
573.517, 96.827
574.834, 94.092
576.151, 83.369
577.468, 78.490
578.784, 72.024
580.100, 67.886
581.416, 59.990
582.732, 55.440
584.047, 58.338
585.362, 44.475
586.677, 37.594
587.992, 30.650
589.307, 37.667
590.621, 39.711
591.935, 22.804
593.249, 5.108
594.563, 14.976
595.876, 15.951
597.189, 1.113
598.502, 16.183
599.815, 2.241
601.127, 3.680
602.440, 1.380
603.752, 3.411
605.064, 3.478
606.375, 10.469
607.686, 5.367
608.998, 4.609
610.308, 1.414
611.619, 2.570
612.930, 2.460
614.240, 12.484
615.550, 10.546
616.860, 6.570
618.169, 26.417
619.478, 3.595
620.787, 8.609
622.096, 36.655
623.405, 8.773
624.713, 12.849
626.021, 5.968
627.329, 3.059
628.637, 4.123
629.945, 4.315
631.252, 2.474
632.559, 7.349
633.866, 12.101
635.172, 1.066
636.479, 15.874
637.785, 4.606
639.091, 0.443
640.396, 7.290
641.702, 5.070
643.007, 12.892
644.312, 6.345
645.617, 21.553
646.921, 16.251
648.226, 22.950
649.530, 10.831
650.834, 8.502
652.137, 23.264
653.441, 2.003
654.744, 4.755
656.047, 10.492
657.350, 10.233
658.652, 3.028
659.954, 1.295
661.256, 8.567
662.558, 1.848
663.860, 10.867
665.161, 24.578
666.462, 0.714
667.763, 4.010
669.064, 17.688
670.365, 11.616
671.665, 22.071
672.965, 6.245
674.265, 0.387
675.564, 27.063
676.864, 13.735
678.163, 0.405
679.462, 36.073
680.760, 2.263
682.059, 2.399
683.357, 26.058
684.655, 7.714
685.953, 20.369
687.250, 0.979
688.548, 21.672
689.845, 9.320
691.142, 33.966
692.438, 17.611
693.735, 18.254
695.031, 17.895
696.327, 18.535
697.623, 39.173
698.918, 44.810
700.214, 54.446
701.509, 60.080
702.804, 65.465
704.098, 37.345
705.393, 71.975
706.687, 59.605
707.981, 55.234
709.275, 74.862
710.568, 64.489
711.861, 49.115
713.155, 59.740
714.447, 48.366
715.740, 34.990
717.032, 47.614
718.325, 17.238
719.617, 35.861
720.908, 39.484
722.200, 36.107
723.491, 60.730
724.782, 63.352
726.073, 31.975
727.364, 57.597
728.654, 67.219
729.944, 32.842
731.234, 58.466
732.524, 57.089
733.814, 72.714
735.103, 69.339
736.392, 63.966
737.681, 84.595
738.969, 66.224
740.258, 75.855
741.546, 79.452
742.834, 66.023
744.122, 91.569
745.409, 84.149
746.697, 79.743
747.984, 83.270
749.270, 80.972
750.557, 81.182
751.844, 93.512
753.130, 88.635
754.416, 108.157
755.701, 131.368
756.987, 129.285
758.272, 144.423
759.557, 128.728
760.842, 153.643
762.127, 131.131
763.411, 135.952
764.695, 144.353
765.979, 159.449
767.263, 167.485
768.547, 155.542
769.830, 175.984
771.113, 171.562
772.396, 184.404
773.679, 204.047
774.961, 215.105
776.243, 230.864
777.525, 247.878
778.807, 221.658
780.089, 242.199
781.370, 285.189
782.651, 341.379
783.932, 318.520
785.213, 314.667
786.493, 369.948
787.773, 398.582
789.053, 427.242
790.333, 435.799
791.613, 474.105
792.892, 547.146
794.171, 539.724
795.450, 625.404
796.729, 666.081
798.007, 667.799
799.285, 737.029
800.563, 755.328
801.841, 764.088
803.119, 823.340
804.396, 862.095
805.673, 891.296
806.950, 918.108
808.227, 1008.857
809.504, 1010.627
810.780, 1077.794
812.056, 1128.603
813.332, 1230.246
814.607, 1329.981
815.883, 1426.356
817.158, 1572.095
818.433, 1663.959
819.708, 1839.835
820.982, 2023.652
822.256, 2305.361
823.531, 2510.257
824.804, 2794.601
826.078, 3155.508
827.352, 3386.175
828.625, 3900.068
829.898, 4180.995
831.170, 4730.926
832.443, 5313.850
833.715, 6081.799
834.988, 7317.701
836.259, 8821.670
837.531, 10927.657
838.803, 13746.646
840.074, 16395.650
841.345, 19024.646
842.616, 19173.666
843.886, 17972.695
845.157, 15391.729
846.427, 12300.768
847.697, 10419.816
848.966, 8896.871
850.236, 7512.934
851.505, 7040.008
852.774, 6362.087
854.043, 6039.177
855.312, 6171.273
856.580, 5779.375
857.849, 5659.485
859.117, 5210.602
860.384, 4746.723
861.652, 4357.852
862.919, 3909.988
864.186, 3550.131
865.453, 3126.281
866.720, 2904.499
867.986, 2724.665
869.253, 2391.837
870.519, 2244.016
871.784, 2110.201
873.050, 1938.420
874.315, 1872.620
875.581, 1688.827
876.846, 1661.040
878.110, 1533.261
879.375, 1462.488
880.639, 1474.723
881.903, 1295.015
883.167, 1292.283
884.431, 1262.539
885.694, 1194.801
886.957, 1161.071
888.220, 1047.690
889.483, 1026.974
890.746, 952.264
892.008, 908.574
893.270, 872.879
894.532, 824.190
895.794, 774.510
897.056, 726.836
898.317, 684.717
899.578, 642.029
900.839, 618.378
902.099, 583.738
903.360, 586.105
904.620, 560.487
905.880, 529.594
907.140, 509.993
908.399, 487.349
909.659, 470.783
910.918, 435.357
912.177, 433.794
913.435, 379.240
914.694, 376.727
915.952, 387.197
917.210, 343.675
918.468, 357.183
919.726, 316.681
920.983, 277.188
922.240, 302.708
923.497, 289.239
924.754, 249.782
926.011, 263.331
927.267, 245.890
928.523, 231.461
929.779, 232.049
931.035, 233.649
932.290, 214.261
933.546, 203.883
934.801, 189.514
936.056, 181.896
937.310, 176.805
938.565, 170.563
939.819, 163.774
941.073, 149.904
942.327, 151.010
943.580, 146.930
944.833, 140.689
946.087, 145.098
947.340, 132.808
948.592, 120.526
949.845, 127.324
951.097, 123.030
952.349, 109.776
953.601, 111.530
954.853, 92.661
956.104, 98.434
957.355, 83.908
958.606, 129.388
959.857, 98.184
961.108, 76.986
962.358, 105.797
963.608, 87.615
964.858, 107.858
966.108, 82.690
967.357, 55.631
968.607, 89.870
969.856, 79.723
971.105, 69.112
972.353, 89.978
973.602, 81.850
974.850, 58.764
976.098, 66.650
977.346, 75.542
978.594, 81.479
979.841, 53.490
981.088, 59.509
982.335, 56.627
983.582, 44.292
984.828, 57.469
986.075, 51.135
987.321, 58.150
988.567, 46.671
989.812, 38.620
991.058, 68.105
992.303, 24.203
993.548, 66.400
994.793, 50.481
996.038, 66.455
997.282, 55.625
998.526, 32.608
999.770, 45.102
1001.014, 27.048
1002.258, 22.045
1003.501, 23.791
1004.744, 9.579
1005.987, 20.591
1007.230, 14.606
1008.473, 11.626
1009.715, 26.650
1010.957, 20.678
1012.199, 39.935
1013.441, 31.972
1014.682, 15.014
1015.923, 4.597
1017.164, 31.453
1018.405, 36.506
1019.646, 23.563
1020.886, 32.624
1022.127, 2.311
1023.367, 21.783
1024.606, 3.855
1025.846, 21.933
1027.085, 9.017
1028.325, 3.104
1029.564, 11.195
1030.802, 3.711
1032.041, 1.614
1033.279, 10.486
1034.517, 24.590
1035.755, 10.698
1036.993, 13.192
1038.230, 13.919
1039.468, 7.033
1040.705, 0.851
1041.942, 5.269
1043.178, 24.392
1044.415, 10.518
1045.651, 8.648
1046.887, 16.218
1048.123, 14.914
1049.358, 48.052
1050.594, 27.197
1051.829, 5.344
1053.064, 19.494
1054.299, 19.354
1055.533, 0.794
1056.768, 11.056
1058.002, 16.906
1059.236, 5.759
1060.469, 11.387
1061.703, 31.536
1062.936, 1.313
1064.169, 15.839
1065.402, 48.994
1066.635, 0.850
1067.867, 13.307
1069.100, 1.467
1070.332, 13.629
1071.564, 19.793
1072.795, 35.959
1074.027, 39.483
1075.258, 45.831
1076.489, 37.467
1077.720, 47.640
1078.950, 21.814
1080.181, 7.989
1081.411, 18.166
1082.641, 9.343
1083.871, 29.522
1085.100, 35.702
1086.330, 2.112
1087.559, 7.073
1088.788, 7.260
1090.016, 8.554
1091.245, 30.629
1092.473, 3.813
1093.701, 14.040
1094.929, 18.224
1096.157, 3.409
1097.384, 0.406
1098.612, 17.222
1099.839, 44.962
1101.066, 10.146
1102.292, 5.671
1103.519, 27.510
1104.745, 11.310
1105.971, 11.135
1107.197, 18.032
1108.423, 44.199
1109.648, 26.152
1110.873, 5.534
1112.098, 5.236
1113.323, 14.926
1114.548, 1.087
1115.772, 20.754
1116.996, 10.392
1118.220, 6.462
1119.444, 5.717
1120.667, 11.858
1121.891, 3.999
1123.114, 16.150
1124.337, 9.498
1125.560, 4.610
1126.782, 2.746
1128.004, 2.879
1129.227, 1.010
1130.448, 7.863
1131.670, 15.741
1132.892, 7.325
1134.113, 28.536
1135.334, 4.457
1136.555, 9.615
1137.776, 19.315
1138.996, 3.740
1140.216, 1.792
1141.436, 4.840
1142.656, 18.257
1143.876, 3.194
1145.095, 31.123
1146.315, 1.827
1147.534, 8.797
1148.753, 29.245
1149.971, 1.695
1151.190, 24.327
1152.408, 15.547
1153.626, 24.554
1154.844, 36.558
1156.061, 37.560
1157.279, 43.968
1158.496, 4.893
1159.713, 42.887
1160.930, 19.967
1162.146, 2.955
1163.363, 13.879
1164.579, 39.004
1165.795, 19.027
1167.010, 34.020
1168.226, 83.043
1169.441, 13.039
1170.657, 59.004
1171.871, 31.560
1173.086, 27.148
1174.301, 53.104
1175.515, 73.108
1176.729, 47.057
1177.943, 38.000
1179.157, 26.945
1180.370, 54.074
1181.584, 38.062
1182.797, 38.037
1184.010, 66.623
1185.222, 43.700
1186.435, 49.622
1187.647, 73.593
1188.859, 46.570
1190.071, 66.481
1191.283, 65.971
1192.494, 47.924
1193.706, 65.308
1194.917, 81.227
1196.128, 52.997
1197.338, 61.885
1198.549, 49.779
1199.759, 46.672
1200.969, 65.936
1202.179, 39.967
1203.389, 82.491
1204.598, 38.824
1205.807, 71.536
1207.016, 61.391
1208.225, 65.302
1209.434, 44.142
1210.642, 65.022
1211.850, 53.937
1213.058, 64.750
1214.266, 64.875
1215.474, 48.848
1216.681, 67.669
1217.889, 60.848
1219.096, 64.660
1220.302, 59.468
1221.509, 48.492
1222.715, 65.508
1223.922, 58.455
1225.128, 53.265
1226.334, 59.052
1227.539, 77.035
1228.745, 63.875
1229.950, 48.860
1231.155, 55.822
1232.360, 77.486
1233.564, 62.644
1234.769, 58.844
1235.973, 51.886
1237.177, 42.760
1238.381, 27.052
1239.584, 108.844
1240.787, 69.796
1241.991, 82.581
1243.194, 64.240
1244.396, 61.948
1245.599, 86.668
1246.801, 59.412
1248.004, 62.971
1249.206, 85.680
1250.407, 64.791
1251.609, 53.810
1252.810, 69.506
1254.012, 53.433
1255.212, 85.165
1256.413, 26.850
1257.614, 67.114
1258.814, 77.792
1260.014, 45.365
1261.214, 56.734
1262.414, 54.400
1263.614, 29.532
1264.813, 67.775
1266.012, 39.429
1267.211, 37.255
1268.410, 60.900
1269.609, 17.547
1270.807, 81.224
1272.005, 64.751
1273.203, 59.272
1274.401, 58.695
1275.598, 39.567
1276.796, 44.956
1277.993, 44.853
1279.190, 41.378
1280.387, 53.399
1281.583, 78.992
1282.780, 40.050
1283.976, 64.496
1285.172, 44.840
1286.368, 15.295
1287.563, 76.852
1288.759, 30.215
1289.954, 32.762
1291.149, 50.818
1292.343, 29.404
1293.538, 24.940
1294.732, 31.957
1295.927, 9.482
1297.121, 46.141
1298.314, 68.709
1299.508, 42.217
1300.701, 30.923
1301.895, 5.421
1303.087, 41.706
1304.280, 18.182
1305.473, 35.651
1306.665, 35.810
1307.857, 13.270
1309.049, 24.726
1310.241, 31.248
1311.433, 23.677
1312.624, 23.098
1313.815, 36.520
1315.006, 1.069
1316.197, 1.655
1317.388, 52.807
1318.578, 24.197
1319.768, 58.581
1320.958, 24.954
1322.148, 31.319
1323.338, 10.679
1324.527, 24.032
1325.716, 26.380
1326.906, 57.722
1328.094, 13.060
1329.283, 40.391
1330.471, 21.718
1331.660, 22.038
1332.848, 39.360
1334.035, 1.331
1335.223, 24.970
1336.411, 36.266
1337.598, 8.445
1338.785, 6.169
1339.972, 40.096
1341.158, 34.357
1342.345, 33.610
1343.531, 16.857
1344.717, 12.101
1345.903, 57.339
1347.089, 18.572
1348.274, 57.801
1349.459, 45.026
1350.644, 22.247
1351.829, 31.462
1353.014, 27.672
1354.198, 19.877
1355.383, 41.088
1356.567, 4.406
1357.751, 12.595
1358.934, 40.780
1360.118, 1.969
1361.301, 43.145
1362.484, 54.362
1363.667, 7.531
1364.850, 7.697
1366.032, 12.285
1367.215, 32.437
1368.397, 44.586
1369.579, 8.730
1370.760, 21.869
1371.942, 7.943
1373.123, 12.009
1374.304, 44.999
1375.485, 6.979
1376.666, 52.401
1377.847, 37.819
1379.027, 43.187
1380.207, 32.590
1381.387, 23.983
1382.567, 7.365
1383.747, 23.742
1384.926, 35.121
1386.105, 24.504
1387.284, 65.793
1388.463, 30.156
1389.641, 7.521
1390.820, 47.845
1391.998, 17.202
1393.176, 34.539
1394.354, 58.668
1395.532, 6.005
1396.709, 26.339
1397.886, 56.691
1399.063, 50.065
1400.240, 73.446
1401.417, 67.545
1402.593, 18.054
1403.769, 40.391
1404.945, 37.750
1406.121, 2.925
1407.297, 63.191
1408.472, 7.574
1409.648, 61.509
1410.823, 35.761
1411.998, 20.130
1413.172, 50.237
1414.347, 60.502
1415.521, 51.786
1416.695, 44.411
1417.869, 29.672
1419.043, 30.933
1420.216, 54.952
1421.390, 49.134
1422.563, 50.226
1423.736, 47.444
1424.909, 48.636
1426.081, 51.986
1427.254, 51.661
1428.426, 70.530
1429.598, 77.749
1430.770, 72.198
1431.941, 29.672
1433.113, 55.921
1434.284, 45.028
1435.455, 31.075
1436.626, 64.795
1437.796, 9.764
1438.967, 20.335
1440.137, 39.148
1441.307, 4.668
1442.477, 48.834
1443.646, 28.522
1444.816, 57.937
1445.985, 55.637
1447.154, 21.776
1448.323, 67.871
1449.492, 45.420
1450.660, 14.390
1451.829, 59.186
1452.997, 59.647
1454.165, 18.395
1455.332, 59.325
1456.500, 22.606
1457.667, 10.513
1458.834, 44.399
1460.001, 31.037
1461.168, 41.378
1462.335, 35.616
1463.501, 45.361
1464.667, 44.888
1465.833, 67.596
1466.999, 28.235
1468.165, 38.859
1469.330, 56.528
1470.495, 33.621
1471.660, 66.824
1472.825, 19.507
1473.990, 50.113
1475.154, 49.744
1476.318, 73.311
1477.482, 44.196
1478.646, 36.988
1479.810, 27.437
1480.974, 70.019
1482.137, 34.417
1483.300, 32.629
1484.463, 63.276
1485.626, 28.767
1486.788, 32.014
1487.950, 38.614
1489.113, 38.277
1490.275, 43.948
1491.436, 22.618
1492.598, 19.290
1493.759, 48.960
1494.920, 14.583
1496.081, 0.253
1497.242, 56.002
1498.403, 46.805
1499.563, 15.664
1500.724, 28.573
1501.884, 8.564
1503.043, 26.609
1504.203, 57.722
1505.363, 3.227
1506.522, 72.123
1507.681, 45.108
1508.840, 20.283
1509.999, 62.198
1511.157, 29.648
1512.315, 16.145
1513.474, 40.321
1514.632, 0.000
##END=



