##NAMES=Crocoite
##RRUFFID=R040053
##IDEAL CHEMISTRY=Pb^2+^Cr^6+^O_4_
##LOCALITY=Dundas, Tasmania
##OWNER=RRUFF
##SOURCE=Bob Downs
##DESCRIPTION=Reddish-orange prismatic crystal
##STATUS=The identification of this mineral has been confirmed by X-ray diffraction and chemical analysis
##URL=rruff.info/R040053
##MEASURED CHEMISTRY=(Pb_.995_Mn_.005_)CrO_4_
##PIN_ID=L00229
##ORIENTATION=Laser parallel to -b* (0 -1 0). Fiducial mark perpendicular to laser is parallel to -c [0 0 -1]
66.157, 0.000
67.554, 3.615
68.952, 22.242
70.349, 7.637
71.747, 16.094
73.144, 5.502
74.540, 3.658
75.937, 25.421
77.333, 68.669
78.729, 90.328
80.125, 83.351
81.521, 91.685
82.916, 137.275
84.311, 132.073
85.706, 151.043
87.101, 197.166
88.496, 219.811
89.890, 226.886
91.284, 314.502
92.678, 372.269
94.071, 447.153
95.465, 573.124
96.858, 735.157
98.251, 909.228
99.644, 1047.317
101.036, 1085.412
102.428, 998.523
103.820, 811.665
105.212, 620.844
106.604, 464.064
107.995, 322.364
109.387, 224.787
110.777, 183.344
112.168, 220.164
113.559, 146.110
114.949, 168.140
116.339, 161.276
117.729, 167.365
119.119, 136.398
120.508, 133.346
121.897, 160.238
123.286, 150.056
124.675, 169.804
126.063, 151.468
127.452, 165.045
128.840, 204.527
130.228, 261.913
131.615, 285.208
133.003, 361.416
134.390, 397.543
135.777, 406.708
137.164, 461.077
138.550, 410.473
139.937, 393.002
141.323, 311.666
142.709, 303.194
144.094, 252.106
145.480, 210.802
146.865, 217.618
148.250, 170.435
149.635, 145.531
151.019, 163.589
152.403, 122.688
153.788, 139.339
155.171, 109.927
156.555, 148.673
157.939, 133.811
159.322, 92.604
160.705, 85.332
162.088, 114.925
163.470, 129.156
164.853, 99.818
166.235, 128.727
167.617, 138.306
168.998, 139.107
170.380, 149.418
171.761, 171.965
173.142, 176.192
174.523, 183.729
175.904, 215.876
177.284, 216.230
178.664, 272.736
180.044, 273.967
181.424, 290.373
182.803, 276.655
184.183, 301.508
185.562, 276.288
186.940, 293.947
188.319, 253.815
189.698, 211.135
191.076, 221.444
192.454, 182.697
193.831, 169.945
195.209, 177.186
196.586, 143.420
197.963, 96.646
199.340, 96.863
200.717, 91.072
202.093, 88.271
203.470, 95.462
204.846, 66.643
206.221, 37.814
207.597, 80.976
208.972, 54.128
210.347, 51.270
211.722, 49.402
213.097, 33.525
214.472, 24.639
215.846, 35.744
217.220, 24.841
218.594, 40.928
219.967, 12.005
221.341, 20.071
222.714, 15.124
224.087, 24.166
225.460, 22.194
226.832, 7.208
228.204, 20.208
229.577, 5.191
230.948, 12.841
232.320, 0.104
233.692, 2.001
235.063, 3.169
236.434, 1.798
237.805, 2.279
239.175, 2.638
240.545, 4.591
241.916, 7.800
243.286, 30.010
244.655, 29.231
246.025, 11.463
247.394, 4.296
248.763, 11.951
250.132, 22.210
251.501, 3.483
252.869, 3.768
254.237, 4.065
255.605, 3.352
256.973, 3.656
258.340, 26.951
259.708, 5.243
261.075, 21.554
262.442, 9.119
263.808, 11.211
265.175, 0.559
266.541, 23.105
267.907, 18.715
269.273, 12.332
270.639, 13.871
272.004, 8.465
273.369, 0.008
274.734, 27.485
276.099, 13.947
277.463, 41.396
278.828, 27.831
280.192, 27.250
281.556, 13.660
282.919, 1.054
284.283, 9.435
285.646, 17.825
287.009, 34.175
288.372, 19.512
289.734, 18.836
291.097, 36.146
292.459, 24.736
293.821, 27.769
295.183, 16.984
296.544, 33.236
297.905, 20.472
299.266, 48.694
300.627, 59.906
301.988, 52.102
303.348, 67.909
304.709, 75.454
306.069, 64.611
307.428, 63.838
308.788, 39.043
310.147, 100.152
311.507, 99.341
312.865, 127.413
314.224, 96.461
315.583, 107.488
316.941, 122.553
318.299, 123.635
319.657, 153.579
321.015, 184.514
322.372, 179.455
323.729, 235.303
325.086, 283.189
326.443, 362.988
327.800, 378.809
329.156, 471.711
330.512, 567.427
331.868, 728.252
333.224, 1088.047
334.579, 1608.821
335.935, 2369.559
337.290, 3257.328
338.645, 3687.077
339.999, 3479.745
341.354, 2609.522
342.708, 1676.170
344.062, 1121.766
345.416, 937.485
346.769, 1039.155
348.123, 1206.880
349.476, 1286.530
350.829, 1127.100
352.182, 811.806
353.534, 571.388
354.887, 422.949
356.239, 354.658
357.591, 336.218
358.942, 315.901
360.294, 318.535
361.645, 273.242
362.996, 272.897
364.347, 253.471
365.698, 275.045
367.048, 268.672
368.398, 274.265
369.748, 387.683
371.098, 462.244
372.448, 741.678
373.797, 1209.050
375.146, 2089.429
376.495, 2911.742
377.844, 3209.220
379.192, 2715.556
380.540, 1708.781
381.889, 960.994
383.236, 614.162
384.584, 400.420
385.932, 295.562
387.279, 250.587
388.626, 225.726
389.973, 206.815
391.319, 166.884
392.666, 184.856
394.012, 162.237
395.358, 163.301
396.704, 143.420
398.049, 176.975
399.394, 151.732
400.740, 170.549
402.084, 170.397
403.429, 135.788
404.774, 160.009
406.118, 134.750
407.462, 146.630
408.806, 121.353
410.150, 131.205
411.493, 123.855
412.836, 139.064
414.179, 117.202
415.522, 123.364
416.865, 98.531
418.207, 98.954
419.549, 93.513
420.891, 86.074
422.233, 86.233
423.575, 83.623
424.916, 81.262
426.257, 79.941
427.598, 73.281
428.939, 83.240
430.279, 77.883
431.619, 93.958
432.959, 78.033
434.299, 86.706
435.639, 101.145
436.978, 106.970
438.318, 108.829
439.657, 110.024
440.996, 108.611
442.334, 149.190
443.673, 128.646
445.011, 124.389
446.349, 98.458
447.687, 140.877
449.024, 117.287
450.361, 131.221
451.699, 136.334
453.036, 115.089
454.372, 118.707
455.709, 132.219
457.045, 117.956
458.381, 122.146
459.717, 120.690
461.053, 118.930
462.388, 116.437
463.724, 122.441
465.059, 117.151
466.394, 113.404
467.728, 92.626
469.063, 93.289
470.397, 122.089
471.731, 89.508
473.065, 114.944
474.398, 124.628
475.732, 116.543
477.065, 99.911
478.398, 90.275
479.731, 121.583
481.063, 105.908
482.396, 98.220
483.728, 122.523
485.060, 97.919
486.391, 140.833
487.723, 98.868
489.054, 73.736
490.385, 127.852
491.716, 85.735
493.047, 88.797
494.377, 90.568
495.708, 95.681
497.038, 84.987
498.368, 86.000
499.697, 101.051
501.027, 71.048
502.356, 99.889
503.685, 109.070
505.014, 75.977
506.342, 88.019
507.671, 74.294
508.999, 91.435
510.327, 109.374
511.655, 74.594
512.982, 101.759
514.310, 105.238
515.637, 66.984
516.964, 99.676
518.291, 67.340
519.617, 76.004
520.944, 57.814
522.270, 67.855
523.596, 86.489
524.921, 83.057
526.247, 67.646
527.572, 61.507
528.897, 71.030
530.222, 74.542
531.547, 77.094
532.871, 85.544
534.196, 79.142
535.520, 75.627
536.844, 34.996
538.167, 65.359
539.491, 76.690
540.814, 93.004
542.137, 57.300
543.460, 48.579
544.783, 62.840
546.105, 105.092
547.427, 70.319
548.749, 44.529
550.071, 75.721
551.393, 58.896
552.714, 79.054
554.035, 61.200
555.356, 33.330
556.677, 63.444
557.998, 72.542
559.318, 55.625
560.638, 46.691
561.958, 64.741
563.278, 51.776
564.597, 66.798
565.917, 39.812
567.236, 147.818
568.555, 28.753
569.874, 156.791
571.192, 43.758
572.511, 119.715
573.829, 81.086
575.147, 69.592
576.464, 24.488
577.782, 15.372
579.099, 38.217
580.416, 33.031
581.733, 23.834
583.050, 30.622
584.366, 37.384
585.683, 33.133
586.999, 13.841
588.315, 32.571
589.630, 6.263
590.946, 6.000
592.261, 14.649
593.576, 14.317
594.891, 13.750
596.206, 9.299
597.520, 4.356
598.834, 4.010
600.148, 20.401
601.462, 5.000
602.776, 13.854
604.089, 0.752
605.402, 5.276
606.715, 3.567
608.028, 14.346
609.341, 1.922
610.653, 6.480
611.965, 6.864
613.277, 8.770
614.589, 1.570
615.901, 4.892
617.212, 8.195
618.523, 15.517
619.834, 9.742
621.145, 2.016
622.456, 12.794
623.766, 5.600
625.076, 6.428
626.386, 20.637
627.696, 8.310
629.006, 18.802
630.315, 8.800
631.624, 14.119
632.933, 3.064
634.242, 14.971
635.551, 10.932
636.859, 18.839
638.167, 9.830
639.475, 7.776
640.783, 0.675
642.090, 169.355
643.398, 77.216
644.705, 85.524
646.012, 7.737
647.318, 23.988
648.625, 25.137
649.931, 26.592
651.237, 8.678
652.543, 4.039
653.849, 2.235
655.155, 17.432
656.460, 3.091
657.765, 10.801
659.070, 13.625
660.375, 2.953
661.679, 16.744
662.984, 34.708
664.288, 23.148
665.592, 21.672
666.895, 19.152
668.199, 7.580
669.502, 7.170
670.805, 13.660
672.108, 11.846
673.411, 19.182
674.713, 20.647
676.016, 14.967
677.318, 22.685
678.620, 9.436
679.921, 21.159
681.223, 15.174
682.524, 4.485
683.825, 8.276
685.126, 8.926
686.427, 6.159
687.727, 1.599
689.028, 9.644
690.328, 5.083
691.628, 1.846
692.927, 38.369
694.227, 8.357
695.526, 48.517
696.825, 40.720
698.124, 40.985
699.423, 21.095
700.721, 31.165
702.020, 2.288
703.318, 44.584
704.616, 31.730
705.913, 27.764
707.211, 15.924
708.508, 16.010
709.805, 36.176
711.102, 39.263
712.399, 53.200
713.695, 50.290
714.992, 15.415
716.288, 46.466
717.584, 14.476
718.879, 21.559
720.175, 25.585
721.470, 35.671
722.765, 17.641
724.060, 18.858
725.355, 11.745
726.649, 42.952
727.944, 18.930
729.238, 30.128
730.532, 37.258
731.825, 22.338
733.119, 43.180
734.412, 44.840
735.705, 57.785
736.998, 50.706
738.291, 76.549
739.584, 58.457
740.876, 62.394
742.168, 65.313
743.460, 79.971
744.752, 68.886
746.043, 81.284
747.334, 88.679
748.626, 96.385
749.916, 77.091
751.207, 67.789
752.498, 124.313
753.788, 106.677
755.078, 84.554
756.368, 110.413
757.658, 82.252
758.947, 125.547
760.237, 121.677
761.526, 110.538
762.815, 135.519
764.104, 123.839
765.392, 132.953
766.680, 120.542
767.969, 154.162
769.257, 169.894
770.544, 184.289
771.832, 172.872
773.119, 176.602
774.406, 196.979
775.693, 193.788
776.980, 223.049
778.267, 219.652
779.553, 248.727
780.839, 258.770
782.125, 257.709
783.411, 274.675
784.697, 318.618
785.982, 314.524
787.267, 407.189
788.552, 418.571
789.837, 473.523
791.122, 482.465
792.406, 573.448
793.690, 591.399
794.974, 671.349
796.258, 727.104
797.542, 758.270
798.825, 819.438
800.108, 881.610
801.391, 908.935
802.674, 992.998
803.957, 1046.282
805.239, 1075.372
806.522, 1130.741
807.804, 1236.755
809.085, 1295.563
810.367, 1422.651
811.649, 1521.689
812.930, 1655.768
814.211, 1788.999
815.492, 2141.879
816.772, 2397.021
818.053, 2804.015
819.333, 3198.763
820.613, 3769.635
821.893, 4459.696
823.173, 5099.464
824.452, 5801.275
825.732, 6429.761
827.011, 6744.968
828.290, 7150.224
829.568, 7374.490
830.847, 7728.745
832.125, 8581.842
833.403, 9417.701
834.681, 11632.953
835.959, 14279.277
837.236, 18035.580
838.514, 22821.598
839.791, 26117.951
841.068, 28044.316
842.345, 25480.635
843.621, 22167.057
844.898, 18523.332
846.174, 15999.725
847.450, 14796.239
848.726, 14002.752
850.001, 14299.300
851.277, 15475.854
852.552, 16652.418
853.827, 18399.014
855.102, 19535.619
856.376, 20462.230
857.651, 19998.855
858.925, 17905.492
860.199, 16202.144
861.473, 13428.816
862.746, 11385.500
864.020, 9622.197
865.293, 8228.904
866.566, 7169.622
867.839, 6345.351
869.112, 5569.089
870.384, 5137.839
871.656, 4551.596
872.928, 4211.364
874.200, 3768.146
875.472, 3505.938
876.744, 3231.739
878.015, 2955.550
879.286, 2684.374
880.557, 2548.206
881.828, 2301.049
883.098, 2121.902
884.369, 2006.766
885.639, 1869.640
886.909, 1843.525
888.178, 1726.423
889.448, 1674.321
890.717, 1587.247
891.987, 1560.176
893.256, 1502.117
894.524, 1423.066
895.793, 1448.027
897.061, 1339.999
898.330, 1301.982
899.598, 1229.977
900.865, 1189.984
902.133, 1130.003
903.401, 1113.034
904.668, 1036.807
905.935, 946.134
907.202, 888.204
908.468, 878.383
909.735, 786.488
911.001, 710.608
912.267, 722.745
913.533, 634.897
914.799, 647.063
916.064, 572.245
917.330, 559.443
918.595, 502.655
919.860, 538.880
921.124, 460.116
922.389, 424.367
923.653, 427.632
924.918, 388.856
926.182, 372.738
927.445, 350.501
928.709, 365.818
929.972, 311.147
931.236, 310.844
932.499, 347.853
933.761, 289.228
935.024, 278.612
936.286, 289.011
937.549, 225.420
938.811, 268.840
940.073, 260.276
941.334, 213.724
942.596, 199.182
943.857, 190.660
945.118, 165.962
946.379, 158.627
947.640, 138.126
948.900, 136.637
950.161, 120.156
951.421, 133.685
952.681, 124.821
953.940, 126.785
955.200, 115.345
956.459, 65.923
957.719, 44.510
958.978, 49.109
960.236, 94.718
961.495, 55.404
962.753, 60.033
964.012, 70.672
965.270, 32.474
966.527, 70.135
967.785, 45.806
969.043, 57.523
970.300, 49.221
971.557, 41.935
972.814, 34.663
974.071, 12.405
975.327, 11.158
976.583, 17.921
977.840, 38.696
979.095, 0.480
980.351, 55.271
981.607, 14.071
982.862, 42.879
984.117, 67.594
985.372, 65.571
986.627, 35.074
987.882, 66.495
989.136, 18.491
990.390, 101.566
991.644, 29.000
992.898, 60.881
994.152, 51.290
995.405, 38.984
996.659, 58.299
997.912, 39.027
999.165, 65.225
1000.417, 67.979
1001.670, 97.198
1002.922, 73.478
1004.174, 97.567
1005.426, 45.753
1006.678, 101.870
1007.930, 55.715
1009.181, 78.936
1010.432, 67.760
1011.683, 47.901
1012.934, 44.980
1014.185, 5.405
1015.435, 56.941
1016.685, 86.161
1017.935, 94.672
1019.185, 17.948
1020.435, 50.812
1021.684, 39.568
1022.934, 26.712
1024.183, 75.349
1025.432, 11.184
1026.680, 58.159
1027.929, 60.869
1029.177, 84.312
1030.425, 63.137
1031.673, 54.595
1032.921, 48.643
1034.169, 35.297
1035.416, 11.587
1036.663, 63.677
1037.911, 38.851
1039.157, 66.910
1040.404, 68.067
1041.650, 52.298
1042.897, 46.503
1044.143, 69.574
1045.389, 49.765
1046.634, 32.840
1047.880, 71.947
1049.125, 18.025
1050.371, 56.106
1051.615, 11.188
1052.860, 39.269
1054.105, 29.351
1055.349, 124.447
1056.593, 17.537
1057.837, 6.372
1059.081, 71.719
1060.325, 53.810
1061.568, 61.901
1062.812, 37.993
1064.055, 18.092
1065.298, 100.189
1066.540, 103.286
1067.783, 124.922
1069.025, 116.979
1070.267, 132.595
1071.509, 81.696
1072.751, 91.705
1073.993, 42.894
1075.234, 68.994
1076.475, 63.092
1077.716, 35.294
1078.957, 42.389
1080.198, 42.481
1081.438, 45.572
1082.679, 11.659
1083.919, 25.749
1085.159, 86.833
1086.398, 24.915
1087.638, 56.015
1088.877, 53.091
1090.116, 8.188
1091.355, 27.259
1092.594, 1.326
1093.833, 47.390
1095.071, 27.512
1096.309, 21.656
1097.547, 26.708
1098.785, 44.758
1100.023, 28.802
1101.260, 29.894
1102.498, 9.930
1103.735, 17.008
1104.972, 41.110
1106.208, 27.133
1107.445, 20.153
1108.681, 43.167
1109.918, 4.177
1111.154, 81.183
1112.389, 36.182
1113.625, 33.823
1114.860, 25.157
1116.096, 56.126
1117.331, 18.229
1118.566, 31.250
1119.800, 81.241
1121.035, 125.360
1122.269, 489.299
1123.503, 671.242
1124.737, 553.247
1125.971, 305.208
1127.205, 140.158
1128.438, 70.061
1129.671, 55.045
1130.904, 47.940
1132.137, 7.118
1133.370, 7.754
1134.602, 34.383
1135.834, 32.552
1137.066, 12.249
1138.298, 25.960
1139.530, 31.196
1140.762, 55.538
1141.993, 45.735
1143.224, 17.930
1144.455, 59.218
1145.686, 33.486
1146.917, 8.680
1148.147, 17.116
1149.377, 9.519
1150.607, 8.759
1151.837, 37.182
1153.067, 6.496
1154.296, 18.026
1155.526, 0.318
1156.755, 13.251
1157.984, 0.739
1159.213, 35.842
1160.441, 36.727
1161.670, 3.775
1162.898, 38.751
1164.126, 25.335
1165.354, 6.747
1166.581, 70.258
1167.809, 16.219
1169.036, 80.590
1170.263, 30.540
1171.490, 8.133
1172.717, 23.349
1173.943, 73.482
1175.170, 30.908
1176.396, 13.473
1177.622, 96.795
1178.848, 34.335
1180.073, 89.573
1181.299, 13.889
1182.524, 28.070
1183.749, 72.337
1184.974, 53.523
1186.199, 108.886
1187.423, 60.129
1188.648, 43.358
1189.872, 52.596
1191.096, 100.784
1192.320, 58.000
1193.543, 98.269
1194.767, 80.111
1195.990, 119.824
1197.213, 118.628
1198.436, 96.198
1199.659, 112.245
1200.881, 115.154
1202.104, 88.190
1203.326, 121.906
1204.548, 95.089
1205.770, 123.131
1206.991, 113.294
1208.213, 118.222
1209.434, 113.425
1210.655, 129.940
1211.876, 115.864
1213.096, 122.740
1214.317, 113.421
1215.537, 131.281
1216.757, 147.283
1217.977, 127.964
1219.197, 227.000
1220.417, 115.695
1221.636, 148.342
1222.855, 184.997
1224.074, 80.800
1225.293, 149.634
1226.512, 113.358
1227.731, 120.205
1228.949, 146.785
1230.167, 107.588
1231.385, 143.578
1232.603, 161.281
1233.820, 104.936
1235.038, 132.644
1236.255, 105.354
1237.472, 121.052
1238.689, 116.740
1239.906, 140.379
1241.122, 98.012
1242.338, 92.539
1243.555, 122.069
1244.771, 125.563
1245.986, 129.634
1247.202, 102.450
1248.417, 132.930
1249.633, 104.452
1250.848, 97.921
1252.063, 153.422
1253.277, 138.903
1254.492, 160.401
1255.706, 171.306
1256.920, 166.390
1258.134, 171.692
1259.348, 136.154
1260.562, 114.463
1261.775, 116.067
1262.988, 83.293
1264.201, 101.637
1265.414, 108.155
1266.627, 76.464
1267.839, 145.783
1269.052, 115.868
1270.264, 100.292
1271.476, 109.481
1272.688, 110.978
1273.899, 144.432
1275.111, 100.560
1276.322, 130.646
1277.533, 107.731
1278.744, 121.934
1279.955, 136.768
1281.165, 136.052
1282.376, 136.409
1283.586, 145.184
1284.796, 137.234
1286.006, 122.289
1287.215, 135.661
1288.425, 81.967
1289.634, 97.063
1290.843, 77.813
1292.052, 49.776
1293.261, 130.269
1294.469, 77.188
1295.678, 53.640
1296.886, 82.177
1298.094, 44.763
1299.302, 78.210
1300.509, 43.710
1301.717, 59.531
1302.924, 75.964
1304.131, 87.787
1305.338, 40.197
1306.545, 54.973
1307.752, 42.400
1308.958, 30.821
1310.164, 64.275
1311.370, 36.136
1312.576, 10.387
1313.782, 63.858
1314.987, 10.702
1316.193, 21.542
1317.398, 100.236
1318.603, 1.392
1319.807, 34.750
1321.012, 6.027
1322.216, 51.732
1323.421, 41.179
1324.625, 28.288
1325.829, 44.564
1327.032, 72.314
1328.236, 48.315
1329.439, 64.554
1330.642, 26.708
1331.845, 44.892
1333.048, 44.962
1334.251, 4.058
1335.453, 47.931
1336.656, 38.032
1337.858, 27.997
1339.060, 34.068
1340.261, 17.086
1341.463, 11.120
1342.664, 107.133
1343.866, 58.800
1345.067, 103.103
1346.267, 55.145
1347.468, 14.925
1348.669, 22.993
1349.869, 26.968
1351.069, 21.853
1352.269, 63.720
1353.469, 15.567
1354.668, 13.604
1355.868, 54.203
1357.067, 61.993
1358.266, 17.227
1359.465, 58.604
1360.664, 26.418
1361.862, 45.139
1363.061, 54.839
1364.259, 83.560
1365.457, 2.773
1366.655, 90.875
1367.852, 46.524
1369.050, 35.037
1370.247, 57.640
1371.444, 27.246
1372.641, 91.818
1373.838, 28.664
1375.035, 9.202
1376.231, 43.860
1377.427, 51.374
1378.623, 34.852
1379.819, 30.674
1381.015, 29.910
1382.211, 28.619
1383.406, 34.217
1384.601, 33.644
1385.796, 54.997
1386.991, 50.016
1388.185, 54.680
1389.380, 65.115
1390.574, 56.531
1391.768, 45.756
1392.962, 29.132
1394.156, 40.397
1395.350, 28.530
1396.543, 30.076
1397.736, 17.452
1398.929, 28.486
1400.122, 14.362
1401.315, 57.478
1402.507, 21.303
1403.700, 19.140
1404.892, 34.876
1406.084, 13.675
1407.276, 23.458
1408.467, 7.205
1409.659, 30.955
1410.850, 24.792
1412.041, 90.564
1413.232, 9.378
1414.423, 45.204
1415.614, 1.860
1416.804, 3.362
1417.994, 49.152
1419.184, 55.740
1420.374, 52.321
1421.564, 45.800
1422.753, 70.577
1423.943, 220.052
1425.132, 130.569
1426.321, 140.864
1427.510, 32.481
1428.698, 50.707
1429.887, 3.337
1431.075, 75.028
1432.263, 50.324
1433.451, 2.450
1434.639, 131.869
1435.827, 67.580
1437.014, 86.263
1438.201, 65.037
1439.388, 28.012
1440.575, 58.783
1441.762, 65.710
1442.949, 74.143
1444.135, 48.816
1445.321, 48.482
1446.507, 47.375
1447.693, 100.648
1448.879, 0.735
1450.064, 40.956
1451.250, 140.640
1452.435, 33.790
1453.620, 59.545
1454.805, 70.259
1455.989, 29.956
1457.174, 90.843
1458.358, 68.065
1459.542, 68.722
1460.726, 60.159
1461.910, 90.583
1463.093, 41.183
1464.277, 125.892
1465.460, 22.719
1466.643, 84.156
1467.826, 67.521
1469.009, 31.598
1470.191, 128.567
1471.373, 25.848
1472.556, 99.846
1473.738, 75.567
1474.919, 77.157
1476.101, 79.481
1477.283, 98.148
1478.464, 65.819
1479.645, 70.980
1480.826, 49.018
1482.007, 56.489
1483.187, 64.975
1484.368, 52.801
1485.548, 64.340
1486.728, 129.608
1487.908, 27.990
1489.088, 98.334
1490.268, 111.106
1491.447, 29.403
1492.626, 67.325
1493.805, 77.437
1494.984, 125.552
1496.163, 185.666
1497.341, 236.876
1498.520, 305.780
1499.698, 44.060
1500.876, 26.325
1502.054, 26.331
1503.232, 43.993
1504.409, 61.774
1505.586, 35.443
1506.763, 77.596
1507.940, 44.773
1509.117, 40.994
1510.294, 68.223
1511.470, 52.465
1512.647, 40.730
1513.823, 65.592
1514.999, 3.103
1516.174, 55.774
1517.350, 14.124
1518.526, 45.523
1519.701, 89.913
1520.876, 3.854
1522.051, 30.558
1523.226, 82.738
1524.400, 15.134
1525.574, 90.698
1526.749, 60.135
1527.923, 94.221
1529.097, 46.718
1530.270, 24.437
1531.444, 24.461
1532.617, 69.061
1533.790, 22.464
1534.963, 29.771
1536.136, 45.867
1537.309, 0.215
1538.481, 0.000
##END=



