##NAMES=Crocoite
##RRUFFID=R050044
##IDEAL CHEMISTRY=Pb^2+^Cr^6+^O_4_
##LOCALITY=Red Ledge mine, Dundas, Tasmania
##OWNER=RRUFF
##SOURCE=Eugene Schlepp
##DESCRIPTION=Red crystal fragment
##STATUS=The identification of this mineral has been confirmed by X-ray diffraction and chemical analysis
##URL=rruff.info/R050044
##MEASURED CHEMISTRY=Pb_1.02_Cr_0.99_O_4_
##PIN_ID=L00482
##ORIENTATION=Laser parallel to (-1 0 -1). Fiducial mark perpendicular to laser is parallel to b [0 1 0]
163.613, 0.000
165.002, 21.813
166.391, 31.531
167.780, 16.352
169.169, 44.422
170.557, 3.062
171.945, 31.441
173.333, 53.298
174.720, 77.219
176.108, 92.089
177.495, 80.221
178.881, 90.319
180.268, 83.094
181.654, 69.368
183.040, 88.578
184.426, 50.003
185.812, 123.884
187.197, 43.762
188.582, 73.649
189.967, 63.658
191.351, 108.059
192.736, 62.193
194.120, 42.330
195.504, 37.592
196.887, 54.558
198.271, 85.757
199.654, 47.885
201.036, 49.412
202.419, 73.996
203.801, 59.968
205.184, 54.736
206.565, 16.328
207.947, 50.155
209.328, 47.815
210.710, 54.589
212.090, 13.570
213.471, 53.202
214.851, 86.602
216.232, 28.283
217.611, 45.608
218.991, 17.092
220.370, 57.542
221.750, 68.185
223.129, 59.498
224.507, 94.389
225.886, 25.693
227.264, 71.789
228.642, 23.571
230.019, 68.758
231.397, 53.591
232.774, 79.298
234.151, 61.616
235.528, 50.538
236.904, 49.760
238.281, 29.763
239.656, 42.567
241.032, 2.737
242.408, 61.568
243.783, 9.882
245.158, 54.200
246.533, 25.541
247.907, 26.952
249.282, 13.416
250.656, 27.925
252.029, 50.480
253.403, 69.077
254.776, 15.706
256.149, 45.365
257.522, 14.048
258.895, 25.750
260.267, 14.464
261.639, 16.188
263.011, 23.917
264.382, 1.650
265.754, 17.381
267.125, 33.105
268.496, 5.184
269.866, 5.517
271.237, 25.797
272.607, 22.800
273.977, 22.530
275.346, 12.834
276.716, 16.783
278.085, 33.380
279.454, 12.956
280.823, 52.511
282.191, 8.955
283.559, 27.553
284.927, 28.035
286.295, 70.496
287.662, 18.931
289.030, 29.339
290.397, 12.720
291.763, 27.076
293.130, 0.594
294.496, 13.715
295.862, 15.006
297.228, 0.392
298.594, 54.071
299.959, 34.549
301.324, 40.853
302.689, 23.086
304.053, 22.313
305.418, 49.573
306.782, 61.956
308.146, 65.241
309.509, 29.602
310.873, 35.956
312.236, 70.405
313.599, 79.898
314.961, 141.379
316.324, 95.853
317.686, 132.356
319.048, 193.060
320.409, 191.883
321.771, 256.428
323.132, 325.003
324.493, 377.505
325.854, 509.914
327.214, 572.391
328.574, 586.188
329.934, 580.701
331.294, 544.114
332.654, 504.127
334.013, 469.350
335.372, 477.993
336.731, 497.169
338.089, 598.229
339.448, 554.339
340.806, 631.312
342.164, 647.075
343.521, 580.808
344.879, 645.526
346.236, 654.191
347.593, 800.825
348.949, 970.401
350.306, 1162.890
351.662, 1157.303
353.018, 1095.591
354.373, 966.818
355.729, 919.959
357.084, 960.053
358.439, 1034.048
359.794, 1061.081
361.148, 1073.023
362.503, 1019.981
363.857, 954.886
365.210, 920.581
366.564, 725.191
367.917, 694.729
369.270, 625.161
370.623, 595.350
371.976, 670.782
373.328, 852.135
374.680, 1088.587
376.032, 1462.587
377.384, 1841.752
378.735, 2193.089
380.086, 2266.184
381.437, 2024.203
382.788, 1620.223
384.138, 1199.160
385.488, 829.179
386.838, 618.069
388.188, 511.143
389.538, 408.744
390.887, 354.665
392.236, 308.028
393.585, 298.897
394.933, 287.905
396.282, 330.789
397.630, 369.544
398.977, 389.057
400.325, 481.547
401.672, 510.896
403.020, 564.827
404.366, 525.470
405.713, 397.916
407.059, 338.795
408.406, 309.429
409.752, 248.762
411.097, 215.104
412.443, 218.177
413.788, 200.409
415.133, 183.768
416.478, 167.192
417.822, 207.216
419.167, 161.529
420.511, 177.772
421.854, 174.146
423.198, 160.673
424.541, 165.137
425.884, 170.482
427.227, 143.427
428.570, 178.911
429.912, 119.934
431.254, 139.681
432.596, 143.777
433.938, 149.193
435.280, 151.094
436.621, 163.702
437.962, 169.195
439.303, 163.555
440.643, 186.159
441.983, 168.686
443.323, 168.564
444.663, 220.003
446.003, 172.601
447.342, 146.168
448.681, 217.245
450.020, 216.528
451.359, 172.468
452.697, 201.179
454.035, 183.989
455.373, 210.549
456.711, 166.953
458.048, 234.804
459.386, 209.784
460.723, 159.285
462.059, 219.066
463.396, 174.443
464.732, 211.330
466.068, 180.318
467.404, 176.249
468.740, 210.684
470.075, 172.064
471.410, 174.453
472.745, 174.960
474.080, 155.439
475.414, 222.817
476.748, 175.462
478.082, 174.983
479.416, 203.255
480.749, 183.501
482.083, 219.937
483.416, 213.156
484.749, 197.346
486.081, 194.349
487.413, 190.483
488.745, 167.419
490.077, 198.486
491.409, 184.125
492.740, 218.451
494.072, 176.755
495.402, 171.677
496.733, 151.564
498.064, 171.415
499.394, 144.378
500.724, 161.157
502.054, 195.899
503.383, 186.607
504.712, 173.281
506.041, 169.920
507.370, 161.573
508.699, 157.885
510.027, 162.630
511.355, 153.132
512.683, 178.600
514.011, 178.035
515.338, 181.437
516.666, 174.807
517.993, 162.145
519.319, 130.450
520.646, 151.723
521.972, 151.964
523.298, 125.173
524.624, 159.350
525.950, 184.496
527.275, 171.917
528.600, 178.442
529.925, 171.754
531.250, 145.782
532.574, 149.780
533.898, 119.748
535.222, 157.686
536.546, 160.596
537.869, 138.478
539.193, 118.330
540.516, 133.153
541.839, 87.948
543.161, 125.713
544.484, 108.449
545.806, 114.158
547.128, 101.838
548.449, 110.489
549.771, 98.113
551.092, 78.709
552.413, 115.276
553.734, 90.816
555.054, 84.328
556.374, 84.811
557.694, 109.266
559.014, 105.695
560.334, 95.098
561.653, 56.475
562.972, 110.822
564.291, 37.146
565.610, 127.436
566.928, 67.703
568.247, 71.943
569.565, 69.156
570.882, 76.343
572.200, 72.505
573.517, 74.385
574.834, 71.766
576.151, 68.838
577.468, 64.899
578.784, 47.934
580.100, 45.943
581.416, 32.924
582.732, 33.876
584.047, 39.800
585.362, 5.305
586.677, 5.473
587.992, 33.712
589.307, 27.853
590.621, 5.475
591.935, 25.076
593.249, 15.687
594.563, 16.287
595.876, 22.345
597.189, 23.493
598.502, 14.049
599.815, 7.430
601.127, 39.949
602.440, 5.534
603.752, 9.144
605.064, 9.793
606.375, 46.595
607.686, 25.342
608.998, 35.134
610.308, 52.017
611.619, 35.917
612.930, 7.116
614.240, 34.858
615.550, 42.976
616.860, 15.952
618.169, 34.138
619.478, 58.422
620.787, 36.616
622.096, 32.964
623.405, 20.246
624.713, 32.659
626.021, 25.138
627.329, 25.535
628.637, 63.117
629.945, 49.759
631.252, 15.456
632.559, 1.734
633.866, 32.849
635.172, 2.637
636.479, 14.446
637.785, 63.163
639.091, 2.027
640.396, 8.234
641.702, 6.465
643.007, 17.382
644.312, 32.735
645.617, 19.177
646.921, 20.792
648.226, 16.119
649.530, 10.111
650.834, 10.995
652.137, 15.952
653.441, 33.869
654.744, 18.693
656.047, 6.409
657.350, 12.365
658.652, 66.202
659.954, 21.176
661.256, 50.105
662.558, 29.971
663.860, 84.817
665.161, 9.621
666.462, 63.405
667.763, 28.204
669.064, 77.958
670.365, 42.813
671.665, 61.663
672.965, 40.523
674.265, 17.352
675.564, 28.125
676.864, 59.763
678.163, 102.488
679.462, 56.211
680.760, 54.814
682.059, 68.566
683.357, 91.423
684.655, 98.228
685.953, 77.060
687.250, 116.864
688.548, 184.561
689.845, 160.276
691.142, 171.867
692.438, 208.619
693.735, 161.386
695.031, 199.063
696.327, 221.660
697.623, 224.322
698.918, 235.663
700.214, 252.303
701.509, 252.868
702.804, 261.652
704.098, 268.375
705.393, 257.599
706.687, 276.121
707.981, 251.450
709.275, 247.092
710.568, 255.592
711.861, 271.042
713.155, 263.517
714.447, 302.168
715.740, 283.813
717.032, 271.421
718.325, 301.537
719.617, 279.234
720.908, 305.905
722.200, 306.693
723.491, 235.117
724.782, 309.617
726.073, 305.105
727.364, 366.695
728.654, 314.272
729.944, 312.885
731.234, 310.496
732.524, 349.103
733.814, 378.687
735.103, 343.023
736.392, 321.352
737.681, 337.374
738.969, 370.476
740.258, 359.773
741.546, 399.108
742.834, 433.155
744.122, 462.809
745.409, 463.940
746.697, 466.146
747.984, 412.282
749.270, 489.106
750.557, 474.008
751.844, 458.203
753.130, 493.885
754.416, 548.856
755.701, 593.664
756.987, 578.490
758.272, 541.539
759.557, 586.424
760.842, 587.332
762.127, 566.996
763.411, 641.061
764.695, 627.579
765.979, 691.108
767.263, 673.719
768.547, 635.071
769.830, 676.896
771.113, 668.287
772.396, 708.233
773.679, 720.100
774.961, 806.990
776.243, 733.096
777.525, 788.514
778.807, 769.814
780.089, 880.420
781.370, 885.585
782.651, 932.813
783.932, 951.774
785.213, 905.664
786.493, 991.800
787.773, 1105.070
789.053, 1109.302
790.333, 1108.484
791.613, 1264.063
792.892, 1261.681
794.171, 1386.104
795.450, 1458.741
796.729, 1487.403
798.007, 1487.249
799.285, 1570.226
800.563, 1622.906
801.841, 1712.648
803.119, 1778.836
804.396, 1879.328
805.673, 1945.834
806.950, 2056.713
808.227, 2137.079
809.504, 2226.555
810.780, 2332.371
812.056, 2426.363
813.332, 2570.384
814.607, 2811.433
815.883, 2813.512
817.158, 3243.622
818.433, 3350.760
819.708, 3853.929
820.982, 4176.126
822.256, 4709.355
823.531, 4938.613
824.804, 5691.906
826.078, 6409.229
827.352, 7088.591
828.625, 8043.988
829.898, 9139.419
831.170, 10374.889
832.443, 12100.398
833.715, 14415.945
834.988, 17141.523
836.259, 20907.141
837.531, 24982.803
838.803, 29718.496
840.074, 32964.234
841.345, 35540.008
842.616, 34465.832
843.886, 32761.709
845.157, 29107.617
846.427, 25293.578
847.697, 22539.584
848.966, 20175.625
850.236, 17891.721
851.505, 17207.848
852.774, 16034.008
854.043, 15300.229
855.312, 15636.495
856.580, 14602.805
857.849, 13989.168
859.117, 12995.570
860.384, 11922.235
861.652, 11038.724
862.919, 9815.253
864.186, 8851.828
865.453, 7618.459
866.720, 6895.132
867.986, 6291.850
869.253, 5654.603
870.519, 5082.398
871.784, 4716.230
873.050, 4237.100
874.315, 3878.025
875.581, 3522.986
876.846, 3280.986
878.110, 3038.033
879.375, 2856.143
880.639, 2655.268
881.903, 2404.425
883.167, 2290.619
884.431, 2243.849
885.694, 2054.116
886.957, 2074.464
888.220, 1927.820
889.483, 1831.199
890.746, 1756.619
892.008, 1616.079
893.270, 1649.577
894.532, 1604.122
895.794, 1576.711
897.056, 1501.355
898.317, 1470.039
899.578, 1465.766
900.839, 1325.533
902.099, 1388.342
903.360, 1198.191
904.620, 1340.081
905.880, 1200.021
907.140, 1179.001
908.399, 1154.028
909.659, 1112.109
910.918, 1067.236
912.177, 1103.408
913.435, 971.627
914.694, 999.900
915.952, 983.226
917.210, 858.601
918.468, 953.031
919.726, 762.514
920.983, 748.036
922.240, 818.610
923.497, 769.235
924.754, 734.898
926.011, 591.611
927.267, 656.380
928.523, 610.198
929.779, 550.065
931.035, 529.977
932.290, 501.810
933.546, 552.941
934.801, 469.522
936.056, 503.627
937.310, 480.783
938.565, 399.980
939.819, 402.214
941.073, 418.493
942.327, 418.810
943.580, 453.166
944.833, 370.575
946.087, 331.019
947.340, 357.498
948.592, 322.010
949.845, 304.562
951.097, 244.426
952.349, 283.050
953.601, 259.707
954.853, 243.700
956.104, 257.131
957.355, 218.896
958.606, 215.695
959.857, 204.601
961.108, 211.465
962.358, 267.364
963.608, 182.295
964.858, 234.259
966.108, 173.465
967.357, 189.585
968.607, 171.646
969.856, 213.739
971.105, 159.863
972.353, 179.019
973.602, 203.206
974.850, 229.547
976.098, 222.797
977.346, 214.532
978.594, 221.391
979.841, 182.953
981.088, 232.425
982.335, 134.845
983.582, 171.599
984.828, 202.699
986.075, 148.842
987.321, 207.489
988.567, 142.291
989.812, 127.773
991.058, 125.260
992.303, 103.524
993.548, 126.358
994.793, 108.361
996.038, 128.084
997.282, 106.663
998.526, 76.576
999.770, 83.305
1001.014, 82.295
1002.258, 78.145
1003.501, 85.138
1004.744, 81.060
1005.987, 49.486
1007.230, 45.220
1008.473, 24.833
1009.715, 23.805
1010.957, 70.599
1012.199, 61.584
1013.441, 51.937
1014.682, 52.241
1015.923, 67.117
1017.164, 44.793
1018.405, 49.961
1019.646, 32.057
1020.886, 16.637
1022.127, 81.875
1023.367, 32.159
1024.606, 44.438
1025.846, 16.159
1027.085, 7.646
1028.325, 3.017
1029.564, 2.051
1030.802, 7.939
1032.041, 23.344
1033.279, 14.772
1034.517, 14.219
1035.755, 5.317
1036.993, 0.332
1038.230, 33.665
1039.468, 14.184
1040.705, 14.791
1041.942, 47.343
1043.178, 50.912
1044.415, 25.498
1045.651, 67.108
1046.887, 63.735
1048.123, 36.378
1049.358, 82.039
1050.594, 36.714
1051.829, 88.405
1053.064, 83.109
1054.299, 68.826
1055.533, 53.557
1056.768, 47.752
1058.002, 61.063
1059.236, 46.840
1060.469, 21.630
1061.703, 52.434
1062.936, 87.254
1064.169, 2.085
1065.402, 70.926
1066.635, 71.779
1067.867, 61.643
1069.100, 88.657
1070.332, 74.385
1071.564, 84.291
1072.795, 62.195
1074.027, 33.108
1075.258, 19.031
1076.489, 33.962
1077.720, 88.902
1078.950, 24.850
1080.181, 54.804
1081.411, 56.767
1082.641, 25.259
1083.871, 47.718
1085.100, 18.702
1086.330, 32.695
1087.559, 61.695
1088.788, 8.701
1090.016, 80.712
1091.245, 45.727
1092.473, 37.749
1093.701, 38.779
1094.929, 64.813
1096.157, 16.850
1097.384, 39.890
1098.612, 38.067
1099.839, 51.966
1101.066, 28.000
1102.292, 10.037
1103.519, 69.076
1104.745, 4.117
1105.971, 14.160
1107.197, 1.797
1108.423, 48.246
1109.648, 77.291
1110.873, 27.336
1112.098, 45.381
1113.323, 4.573
1114.548, 0.530
1115.772, 31.510
1116.996, 24.551
1118.220, 19.589
1119.444, 25.626
1120.667, 15.660
1121.891, 20.308
1123.114, 18.711
1124.337, 25.273
1125.560, 24.274
1126.782, 9.709
1128.004, 40.311
1129.227, 13.555
1130.448, 18.417
1131.670, 4.494
1132.892, 4.017
1134.113, 30.681
1135.334, 13.805
1136.555, 24.945
1137.776, 41.109
1138.996, 18.305
1140.216, 77.522
1141.436, 8.623
1142.656, 39.655
1143.876, 52.966
1145.095, 5.516
1146.315, 35.803
1147.534, 17.794
1148.753, 33.459
1149.971, 68.782
1151.190, 34.155
1152.408, 24.298
1153.626, 44.620
1154.844, 10.543
1156.061, 19.679
1157.279, 2.451
1158.496, 6.198
1159.713, 16.473
1160.930, 62.422
1162.146, 12.432
1163.363, 18.227
1164.579, 63.846
1165.795, 11.650
1167.010, 26.325
1168.226, 50.409
1169.441, 38.083
1170.657, 54.182
1171.871, 28.431
1173.086, 6.402
1174.301, 55.621
1175.515, 40.438
1176.729, 63.559
1177.943, 101.026
1179.157, 77.404
1180.370, 130.437
1181.584, 112.711
1182.797, 64.961
1184.010, 95.544
1185.222, 69.865
1186.435, 57.818
1187.647, 141.883
1188.859, 119.123
1190.071, 84.155
1191.283, 139.368
1192.494, 100.795
1193.706, 162.775
1194.917, 161.613
1196.128, 152.442
1197.338, 191.529
1198.549, 170.384
1199.759, 144.126
1200.969, 174.914
1202.179, 166.620
1203.389, 201.290
1204.598, 173.310
1205.807, 158.346
1207.016, 202.376
1208.225, 185.342
1209.434, 222.938
1210.642, 223.021
1211.850, 188.556
1213.058, 225.258
1214.266, 211.951
1215.474, 205.485
1216.681, 198.931
1217.889, 204.342
1219.096, 203.020
1220.302, 218.804
1221.509, 206.598
1222.715, 207.249
1223.922, 223.775
1225.128, 186.250
1226.334, 178.989
1227.539, 212.680
1228.745, 205.926
1229.950, 166.541
1231.155, 187.793
1232.360, 185.561
1233.564, 244.963
1234.769, 194.541
1235.973, 244.768
1237.177, 192.625
1238.381, 270.794
1239.584, 172.185
1240.787, 165.351
1241.991, 219.649
1243.194, 210.767
1244.396, 222.482
1245.599, 210.594
1246.801, 220.670
1248.004, 152.947
1249.206, 198.913
1250.407, 171.320
1251.609, 246.310
1252.810, 203.206
1254.012, 182.555
1255.212, 236.503
1256.413, 214.371
1257.614, 262.804
1258.814, 223.360
1260.014, 211.282
1261.214, 280.351
1262.414, 244.062
1263.614, 238.744
1264.813, 258.407
1266.012, 227.050
1267.211, 230.806
1268.410, 247.414
1269.609, 192.549
1270.807, 268.099
1272.005, 221.623
1273.203, 179.814
1274.401, 245.327
1275.598, 173.635
1276.796, 202.558
1277.993, 196.299
1279.190, 158.543
1280.387, 273.881
1281.583, 161.297
1282.780, 175.709
1283.976, 158.444
1285.172, 88.563
1286.368, 177.680
1287.563, 157.003
1288.759, 61.376
1289.954, 118.649
1291.149, 163.832
1292.343, 117.750
1293.538, 101.991
1294.732, 108.902
1295.927, 30.887
1297.121, 88.664
1298.314, 49.843
1299.508, 71.287
1300.701, 105.831
1301.895, 74.333
1303.087, 131.333
1304.280, 43.872
1305.473, 46.501
1306.665, 88.503
1307.857, 31.842
1309.049, 43.534
1310.241, 49.161
1311.433, 28.785
1312.624, 58.519
1313.815, 74.104
1315.006, 74.667
1316.197, 84.814
1317.388, 112.158
1318.578, 14.356
1319.768, 79.031
1320.958, 45.455
1322.148, 9.855
1323.338, 92.225
1324.527, 56.572
1325.716, 53.890
1326.906, 34.183
1328.094, 49.447
1329.283, 94.717
1330.471, 70.860
1331.660, 52.050
1332.848, 71.212
1334.035, 8.652
1335.223, 36.448
1336.411, 71.615
1337.598, 17.664
1338.785, 94.801
1339.972, 54.792
1341.158, 80.757
1342.345, 103.698
1343.531, 88.615
1344.717, 17.504
1345.903, 108.365
1347.089, 7.203
1348.274, 48.011
1349.459, 46.792
1350.644, 6.550
1351.829, 104.279
1353.014, 70.093
1354.198, 51.776
1355.383, 69.461
1356.567, 68.158
1357.751, 95.770
1358.934, 115.458
1360.118, 14.024
1361.301, 67.564
1362.484, 47.290
1363.667, 44.787
1364.850, 55.264
1366.032, 68.351
1367.215, 71.781
1368.397, 42.187
1369.579, 2.567
1370.760, 35.906
1371.942, 46.224
1373.123, 11.456
1374.304, 31.631
1375.485, 60.799
1376.666, 41.033
1377.847, 82.826
1379.027, 21.174
1380.207, 8.474
1381.387, 49.736
1382.567, 80.966
1383.747, 56.166
1384.926, 84.016
1386.105, 120.448
1387.284, 76.531
1388.463, 80.573
1389.641, 46.575
1390.820, 97.539
1391.998, 31.465
1393.176, 82.353
1394.354, 82.214
1395.532, 30.060
1396.709, 77.886
1397.886, 91.707
1399.063, 19.508
1400.240, 107.307
1401.417, 51.114
1402.593, 41.445
1403.769, 104.285
1404.945, 119.061
1406.121, 118.832
1407.297, 123.343
1408.472, 48.228
1409.648, 97.699
1410.823, 97.127
1411.998, 27.056
1413.172, 129.052
1414.347, 72.987
1415.521, 83.938
1416.695, 55.095
1417.869, 66.614
1419.043, 127.541
1420.216, 125.527
1421.390, 41.212
1422.563, 103.979
1423.736, 102.100
1424.909, 70.425
1426.081, 82.245
1427.254, 40.279
1428.426, 52.922
1429.598, 75.822
1430.770, 32.092
1431.941, 85.770
1433.113, 87.947
1434.284, 39.966
1435.455, 98.971
1436.626, 90.381
1437.796, 24.015
1438.967, 140.214
1440.137, 43.265
1441.307, 86.023
1442.477, 93.318
1443.646, 57.351
1444.816, 103.783
1445.985, 60.088
1447.154, 85.500
1448.323, 37.407
1449.492, 92.594
1450.660, 22.511
1451.829, 166.492
1452.997, 37.906
1454.165, 60.554
1455.332, 88.898
1456.500, 56.911
1457.667, 68.889
1458.834, 100.558
1460.001, 26.168
1461.168, 170.494
1462.335, 101.609
1463.501, 66.001
1464.667, 98.930
1465.833, 70.691
1466.999, 77.150
1468.165, 133.140
1469.330, 46.006
1470.495, 157.115
1471.660, 155.622
1472.825, 90.581
1473.990, 84.738
1475.154, 60.530
1476.318, 25.592
1477.482, 112.248
1478.646, 17.785
1479.810, 85.781
1480.974, 89.958
1482.137, 72.311
1483.300, 97.313
1484.463, 104.031
1485.626, 76.064
1486.788, 137.479
1487.950, 100.837
1489.113, 63.662
1490.275, 145.141
1491.436, 43.595
1492.598, 14.065
1493.759, 111.365
1494.920, 32.836
1496.081, 24.335
1497.242, 179.237
1498.403, 13.907
1499.563, 95.466
1500.724, 96.060
1501.884, 2.749
1503.043, 99.485
1504.203, 82.310
1505.363, 6.033
1506.522, 108.472
1507.681, 131.502
1508.840, 43.848
1509.999, 123.833
1511.157, 82.858
1512.315, 27.844
1513.474, 28.678
1514.632, 11.470
1515.789, 0.064
1516.947, 0.000
##END=



