##NAMES=Crocoite
##RRUFFID=R040053
##IDEAL CHEMISTRY=Pb^2+^Cr^6+^O_4_
##LOCALITY=Dundas, Tasmania
##OWNER=RRUFF
##SOURCE=Bob Downs
##DESCRIPTION=Reddish-orange prismatic crystal
##STATUS=The identification of this mineral has been confirmed by X-ray diffraction and chemical analysis
##URL=rruff.info/R040053
##MEASURED CHEMISTRY=(Pb_.995_Mn_.005_)CrO_4_
##PIN_ID=L00292
##ORIENTATION=Laser parallel to (-1 0 -1). Fiducial mark perpendicular to laser is parallel to -b [0 -1 0]
66.157, 0.000
67.554, 18.136
68.952, 1.620
70.349, 9.498
71.747, 15.695
73.144, 30.481
74.540, 25.313
75.937, 70.126
77.333, 104.669
78.729, 112.814
80.125, 68.477
81.521, 110.581
82.916, 103.055
84.311, 103.839
85.706, 103.881
87.101, 117.143
88.496, 135.609
89.890, 178.285
91.284, 228.174
92.678, 242.253
94.071, 312.496
95.465, 379.870
96.858, 388.341
98.251, 342.882
99.644, 383.498
101.036, 283.167
102.428, 271.877
103.820, 211.618
105.212, 202.379
106.604, 178.169
107.995, 186.028
109.387, 191.006
110.777, 211.103
112.168, 223.441
113.559, 252.944
114.949, 277.089
116.339, 317.342
117.729, 325.192
119.119, 248.717
120.508, 241.460
121.897, 265.153
123.286, 286.753
124.675, 327.276
126.063, 367.715
127.452, 392.061
128.840, 460.312
130.228, 502.471
131.615, 553.992
133.003, 653.517
134.390, 700.693
135.777, 682.787
137.164, 684.930
138.550, 642.266
139.937, 545.403
141.323, 489.255
142.709, 427.337
144.094, 360.210
145.480, 318.278
146.865, 263.656
148.250, 235.860
149.635, 200.089
151.019, 167.440
152.403, 212.870
153.788, 156.887
155.171, 170.616
156.555, 151.144
157.939, 126.160
159.322, 140.492
160.705, 118.098
162.088, 125.450
163.470, 118.097
164.853, 123.814
166.235, 119.154
167.617, 129.921
168.998, 108.389
170.380, 122.485
171.761, 116.627
173.142, 128.817
174.523, 120.387
175.904, 113.622
177.284, 99.378
178.664, 104.092
180.044, 59.013
181.424, 70.106
182.803, 66.823
184.183, 90.492
185.562, 73.236
186.940, 73.499
188.319, 94.734
189.698, 81.240
191.076, 93.119
192.454, 65.193
193.831, 60.248
195.209, 23.297
196.586, 53.339
197.963, 29.374
199.340, 38.402
200.717, 48.420
202.093, 45.428
203.470, 54.426
204.846, 40.414
206.221, 36.393
207.597, 46.362
208.972, 42.320
210.347, 16.267
211.722, 40.202
213.097, 28.127
214.472, 41.039
215.846, 50.939
217.220, 43.247
218.594, 18.701
219.967, 40.563
221.341, 35.414
222.714, 41.369
224.087, 3.077
225.460, 36.891
226.832, 7.695
228.204, 0.516
229.577, 1.743
230.948, 9.011
232.320, 14.479
233.692, 17.854
235.063, 7.864
236.434, 14.397
237.805, 7.904
239.175, 29.608
240.545, 3.138
241.916, 30.319
243.286, 22.224
244.655, 0.228
246.025, 24.675
247.394, 24.131
248.763, 14.589
250.132, 1.054
251.501, 23.525
252.869, 18.064
254.237, 2.398
255.605, 0.158
256.973, 37.282
258.340, 1.222
259.708, 11.207
261.075, 0.643
262.442, 10.179
263.808, 10.607
265.175, 9.892
266.541, 2.541
267.907, 0.032
269.273, 12.502
270.639, 19.897
272.004, 28.381
273.369, 12.156
274.734, 15.739
276.099, 0.595
277.463, 12.016
278.828, 0.730
280.192, 3.522
281.556, 12.257
282.919, 10.037
284.283, 37.263
285.646, 42.432
287.009, 41.584
288.372, 45.732
289.734, 44.931
291.097, 30.040
292.459, 36.175
293.821, 19.355
295.183, 34.433
296.544, 31.582
297.905, 64.549
299.266, 41.596
300.627, 54.623
301.988, 68.632
303.348, 27.630
304.709, 78.671
306.069, 87.732
307.428, 76.695
308.788, 95.676
310.147, 95.617
311.507, 111.531
312.865, 93.433
314.224, 72.362
315.583, 121.220
316.941, 101.070
318.299, 134.898
319.657, 157.674
321.015, 149.430
322.372, 169.136
323.729, 205.043
325.086, 265.444
326.443, 281.313
327.800, 317.931
329.156, 340.650
330.512, 401.189
331.868, 449.768
333.224, 614.280
334.579, 889.764
335.935, 1217.308
337.290, 1537.744
338.645, 1685.306
339.999, 1606.752
341.354, 1327.220
342.708, 1004.780
344.062, 823.334
345.416, 822.720
346.769, 860.268
348.123, 968.610
349.476, 956.982
350.829, 846.287
352.182, 591.690
353.534, 429.977
354.887, 376.336
356.239, 288.679
357.591, 268.121
358.942, 260.362
360.294, 234.558
361.645, 214.759
362.996, 191.026
364.347, 175.155
365.698, 160.364
367.048, 150.473
368.398, 155.839
369.748, 143.003
371.098, 149.163
372.448, 156.426
373.797, 196.500
375.146, 204.694
376.495, 251.706
377.844, 246.852
379.192, 220.074
380.540, 186.217
381.889, 148.345
383.236, 156.579
384.584, 148.713
385.932, 150.744
387.279, 139.486
388.626, 129.562
389.973, 186.201
391.319, 213.847
392.666, 225.457
394.012, 266.273
395.358, 313.011
396.704, 418.944
398.049, 664.109
399.394, 882.787
400.740, 1068.881
402.084, 1087.788
403.429, 881.860
404.774, 615.602
406.118, 423.362
407.462, 266.265
408.806, 189.126
410.150, 179.305
411.493, 128.153
412.836, 130.452
414.179, 91.246
415.522, 101.787
416.865, 94.843
418.207, 91.190
419.549, 97.024
420.891, 78.603
422.233, 76.581
423.575, 96.759
424.916, 66.292
426.257, 78.693
427.598, 61.361
428.939, 56.623
430.279, 80.282
431.619, 94.500
432.959, 70.012
434.299, 73.202
435.639, 78.285
436.978, 93.197
438.318, 68.634
439.657, 112.672
440.996, 101.967
442.334, 113.208
443.673, 80.068
445.011, 92.868
446.349, 130.148
447.687, 111.561
449.024, 121.758
450.361, 88.261
451.699, 120.062
453.036, 100.913
454.372, 88.520
455.709, 130.207
457.045, 123.398
458.381, 126.087
459.717, 113.151
461.053, 123.393
462.388, 122.340
463.724, 117.805
465.059, 107.763
466.394, 98.813
467.728, 128.503
469.063, 110.508
470.397, 117.228
471.731, 126.361
473.065, 116.377
474.398, 105.259
475.732, 116.049
477.065, 110.143
478.398, 110.988
479.731, 114.777
481.063, 111.633
482.396, 113.446
483.728, 116.456
485.060, 131.286
486.391, 55.994
487.723, 107.759
489.054, 79.790
490.385, 116.508
491.716, 105.072
493.047, 116.682
494.377, 117.352
495.708, 95.996
497.038, 122.556
498.368, 80.488
499.697, 104.010
501.027, 97.972
502.356, 72.807
503.685, 70.318
505.014, 107.229
506.342, 64.662
507.671, 110.078
508.999, 99.836
510.327, 112.216
511.655, 85.579
512.982, 109.949
514.310, 89.277
515.637, 89.587
516.964, 63.080
518.291, 71.354
519.617, 108.615
520.944, 80.183
522.270, 70.927
523.596, 120.132
524.921, 84.544
526.247, 96.714
527.572, 52.088
528.897, 75.233
530.222, 82.351
531.547, 50.451
532.871, 61.533
534.196, 56.168
535.520, 83.645
536.844, 60.676
538.167, 48.688
539.491, 55.683
540.814, 38.659
542.137, 36.618
543.460, 42.557
544.783, 64.479
546.105, 67.384
547.427, 43.273
548.749, 97.144
550.071, 56.000
551.393, 42.841
552.714, 45.666
554.035, 70.474
555.356, 34.267
556.677, 39.043
557.998, 48.805
559.318, 40.555
560.638, 34.292
561.958, 14.011
563.278, 26.711
564.597, 38.403
565.917, 13.078
567.236, 41.734
568.555, 3.618
569.874, 14.010
571.192, 32.625
572.511, 45.224
573.829, 41.743
575.147, 45.290
576.464, 22.796
577.782, 37.274
579.099, 12.782
580.416, 7.196
581.733, 20.588
583.050, 21.051
584.366, 26.380
585.683, 8.247
586.999, 8.024
588.315, 13.742
589.630, 30.560
590.946, 12.908
592.261, 0.863
593.576, 22.354
594.891, 5.411
596.206, 1.870
597.520, 33.030
598.834, 14.674
600.148, 5.585
601.462, 24.839
602.776, 3.012
604.089, 22.832
605.402, 8.363
606.715, 22.458
608.028, 4.689
609.341, 1.260
610.653, 20.149
611.965, 16.101
613.277, 20.542
614.589, 11.109
615.901, 20.104
617.212, 8.127
618.523, 13.178
619.834, 28.754
621.145, 16.326
622.456, 44.431
623.766, 10.377
625.076, 4.864
626.386, 6.961
627.696, 6.262
629.006, 2.523
630.315, 11.304
631.624, 29.061
632.933, 23.762
634.242, 1.499
635.551, 18.198
636.859, 46.892
638.167, 16.592
639.475, 21.269
640.783, 1.055
642.090, 15.379
643.398, 30.278
644.705, 10.664
646.012, 20.736
647.318, 10.722
648.625, 30.675
649.931, 25.849
651.237, 6.413
652.543, 6.972
653.849, 21.434
655.155, 7.026
656.460, 32.352
657.765, 26.178
659.070, 7.142
660.375, 5.725
661.679, 10.170
662.984, 28.258
664.288, 11.501
665.592, 9.071
666.895, 17.304
668.199, 14.725
669.502, 1.029
670.805, 11.430
672.108, 26.739
673.411, 6.956
674.713, 17.230
676.016, 0.447
677.318, 11.185
678.620, 15.945
679.921, 4.245
681.223, 9.405
682.524, 7.831
683.825, 9.885
685.126, 0.199
686.427, 23.386
687.727, 14.597
689.028, 30.667
690.328, 43.786
691.628, 12.879
692.927, 47.085
694.227, 42.193
695.526, 38.248
696.825, 45.332
698.124, 77.301
699.423, 83.246
700.721, 52.253
702.020, 38.369
703.318, 89.496
704.616, 54.513
705.913, 117.764
707.211, 67.843
708.508, 68.862
709.805, 77.898
711.102, 76.038
712.399, 86.991
713.695, 54.989
714.992, 77.040
716.288, 49.057
717.584, 53.026
718.879, 39.576
720.175, 60.457
721.470, 62.470
722.765, 20.023
724.060, 79.053
725.355, 99.771
726.649, 32.390
727.944, 87.377
729.238, 67.430
730.532, 86.471
731.825, 68.529
733.119, 84.426
734.412, 88.457
735.705, 61.127
736.998, 103.594
738.291, 85.494
739.584, 114.412
740.876, 96.407
742.168, 100.041
743.460, 111.630
744.752, 134.953
746.043, 122.002
747.334, 160.814
748.626, 133.002
749.916, 126.024
751.207, 200.963
752.498, 137.377
753.788, 200.469
755.078, 172.886
756.368, 208.553
757.658, 199.629
758.947, 196.842
760.237, 231.832
761.526, 202.694
762.815, 251.752
764.104, 215.504
765.392, 245.938
766.680, 282.210
767.969, 299.761
769.257, 299.061
770.544, 286.979
771.832, 292.360
773.119, 314.525
774.406, 347.401
775.693, 370.963
776.980, 379.348
778.267, 440.349
779.553, 472.512
780.839, 526.058
782.125, 598.229
783.411, 605.748
784.697, 698.840
785.982, 720.060
787.267, 846.365
788.552, 837.660
789.837, 989.805
791.122, 1003.099
792.406, 1150.486
793.690, 1308.796
794.974, 1312.137
796.258, 1449.271
797.542, 1466.574
798.825, 1529.989
800.108, 1572.333
801.391, 1613.104
802.674, 1708.775
803.957, 1730.292
805.239, 1818.751
806.522, 1937.153
807.804, 1990.572
809.085, 2069.067
810.367, 2134.182
811.649, 2313.696
812.930, 2375.762
814.211, 2404.946
815.492, 2797.449
816.772, 2886.544
818.053, 3261.109
819.333, 3554.683
820.613, 4027.906
821.893, 4698.498
823.173, 5175.100
824.452, 5713.686
825.732, 6656.305
827.011, 7239.936
828.290, 8193.376
829.568, 9169.025
830.847, 10474.682
832.125, 12680.025
833.403, 15295.190
834.681, 20150.896
835.959, 26256.391
837.236, 34052.137
838.514, 43327.684
839.791, 49373.469
841.068, 50899.281
842.345, 44715.117
843.621, 36940.953
844.898, 28106.797
846.174, 22342.672
847.450, 18318.570
848.726, 15324.485
850.001, 13770.421
851.277, 12816.371
852.552, 12262.338
853.827, 11998.319
855.102, 11654.315
856.376, 11017.200
857.651, 10696.337
858.925, 9552.367
860.199, 8788.406
861.473, 7550.460
862.746, 6662.631
864.020, 5761.717
865.293, 5155.822
866.566, 4802.930
867.839, 4373.053
869.112, 3986.189
870.384, 3765.337
871.656, 3490.497
872.928, 3192.671
874.200, 2991.859
875.472, 2770.058
876.744, 2549.272
878.015, 2378.498
879.286, 2263.741
880.557, 2153.998
881.828, 1997.269
883.098, 1904.550
884.369, 1745.844
885.639, 1711.150
886.909, 1672.470
888.178, 1576.248
889.448, 1500.594
890.717, 1424.973
891.987, 1384.346
893.256, 1312.604
894.524, 1243.755
895.793, 1209.173
897.061, 1142.604
898.330, 1114.061
899.598, 1059.524
900.865, 944.146
902.133, 936.641
903.401, 947.148
904.668, 768.776
905.935, 823.316
907.202, 787.867
908.468, 788.663
909.735, 653.248
911.001, 580.933
912.267, 654.546
913.533, 566.180
914.799, 543.827
916.064, 527.496
917.330, 456.178
918.595, 515.875
919.860, 437.593
921.124, 394.636
922.389, 442.864
923.653, 410.637
924.918, 394.594
926.182, 402.403
927.445, 342.531
928.709, 356.369
929.972, 350.225
931.236, 324.106
932.499, 293.062
933.761, 301.970
935.024, 259.889
936.286, 343.822
937.549, 198.768
938.811, 300.725
940.073, 218.693
941.334, 213.671
942.596, 227.662
943.857, 235.664
945.118, 206.676
946.379, 198.699
947.640, 178.732
948.900, 237.778
950.161, 156.839
951.421, 212.911
952.681, 105.994
953.940, 200.093
955.200, 172.202
956.459, 101.330
957.719, 111.645
958.978, 135.361
960.236, 135.703
961.495, 88.907
962.753, 97.100
964.012, 81.288
965.270, 92.492
966.527, 63.733
967.785, 88.093
969.043, 119.541
970.300, 111.821
971.557, 113.074
972.814, 124.767
974.071, 114.625
975.327, 125.894
976.583, 113.184
977.840, 95.484
979.095, 110.792
980.351, 115.151
981.607, 99.345
982.862, 67.537
984.117, 71.747
985.372, 71.710
986.627, 52.644
987.882, 99.591
989.136, 38.683
990.390, 80.160
991.644, 54.323
992.898, 67.789
994.152, 53.332
995.405, 76.790
996.659, 81.658
997.912, 110.817
999.165, 97.458
1000.417, 72.055
1001.670, 64.369
1002.922, 43.104
1004.174, 65.689
1005.426, 19.509
1006.678, 29.057
1007.930, 16.537
1009.181, 48.021
1010.432, 43.111
1011.683, 17.665
1012.934, 8.764
1014.185, 19.436
1015.435, 0.254
1016.685, 66.561
1017.935, 8.641
1019.185, 32.302
1020.435, 54.908
1021.684, 16.497
1022.934, 32.133
1024.183, 10.715
1025.432, 41.260
1026.680, 25.844
1027.929, 45.402
1029.177, 77.965
1030.425, 25.660
1031.673, 87.230
1032.921, 32.803
1034.169, 35.446
1035.416, 19.026
1036.663, 43.763
1037.911, 19.523
1039.157, 47.066
1040.404, 1.325
1041.650, 29.285
1042.897, 94.056
1044.143, 45.323
1045.389, 43.285
1046.634, 56.920
1047.880, 0.641
1049.125, 59.278
1050.371, 7.851
1051.615, 16.777
1052.860, 45.406
1054.105, 5.962
1055.349, 57.670
1056.593, 42.315
1057.837, 10.003
1059.081, 14.641
1060.325, 4.714
1061.568, 24.930
1062.812, 14.574
1064.055, 49.225
1065.298, 43.875
1066.540, 39.525
1067.783, 9.174
1069.025, 3.889
1070.267, 10.458
1071.509, 14.278
1072.751, 45.834
1073.993, 27.480
1075.234, 27.148
1076.475, 9.225
1077.716, 23.445
1078.957, 37.064
1080.198, 23.681
1081.438, 1.705
1082.679, 12.905
1083.919, 19.513
1085.159, 103.117
1086.398, 8.717
1087.638, 53.314
1088.877, 58.921
1090.116, 21.622
1091.355, 21.208
1092.594, 17.790
1093.833, 66.368
1095.071, 7.941
1096.309, 15.511
1097.547, 51.271
1098.785, 22.913
1100.023, 11.475
1101.260, 43.217
1102.498, 16.769
1103.735, 24.316
1104.972, 46.858
1106.208, 32.579
1107.445, 6.004
1108.681, 1.497
1109.918, 10.990
1111.154, 17.907
1112.389, 22.956
1113.625, 27.429
1114.860, 11.104
1116.096, 5.377
1117.331, 3.820
1118.566, 20.254
1119.800, 51.680
1121.035, 73.159
1122.269, 218.571
1123.503, 309.088
1124.737, 233.488
1125.971, 156.064
1127.205, 47.449
1128.438, 28.828
1129.671, 19.313
1130.904, 0.676
1132.137, 2.520
1133.370, 13.943
1134.602, 12.920
1135.834, 28.515
1137.066, 46.258
1138.298, 51.880
1139.530, 1.409
1140.762, 2.906
1141.993, 20.275
1143.224, 43.571
1144.455, 39.024
1145.686, 28.882
1146.917, 3.467
1148.147, 18.306
1149.377, 2.682
1150.607, 3.748
1151.837, 31.256
1153.067, 15.450
1154.296, 44.499
1155.526, 65.532
1156.755, 66.604
1157.984, 10.579
1159.213, 51.677
1160.441, 49.969
1161.670, 7.910
1162.898, 44.125
1164.126, 93.983
1165.354, 13.875
1166.581, 37.828
1167.809, 52.890
1169.036, 58.866
1170.263, 50.436
1171.490, 65.544
1172.717, 92.432
1173.943, 70.598
1175.170, 110.706
1176.396, 114.869
1177.622, 49.894
1178.848, 89.841
1180.073, 176.795
1181.299, 68.190
1182.524, 91.819
1183.749, 48.857
1184.974, 55.685
1186.199, 147.980
1187.423, 119.852
1188.648, 151.603
1189.872, 57.746
1191.096, 153.501
1192.320, 119.850
1193.543, 90.030
1194.767, 71.146
1195.990, 93.448
1197.213, 44.434
1198.436, 129.306
1199.659, 112.938
1200.881, 159.207
1202.104, 139.722
1203.326, 136.240
1204.548, 98.094
1205.770, 149.219
1206.991, 127.110
1208.213, 135.613
1209.434, 110.121
1210.655, 147.151
1211.876, 147.587
1213.096, 156.209
1214.317, 149.611
1215.537, 98.198
1216.757, 176.881
1217.977, 134.979
1219.197, 174.858
1220.417, 106.229
1221.636, 146.343
1222.855, 181.647
1224.074, 105.636
1225.293, 162.831
1226.512, 162.129
1227.731, 132.373
1228.949, 153.357
1230.167, 190.601
1231.385, 135.664
1232.603, 200.707
1233.820, 156.804
1235.038, 118.796
1236.255, 95.943
1237.472, 200.102
1238.689, 166.052
1239.906, 130.035
1241.122, 163.110
1242.338, 133.122
1243.555, 79.012
1244.771, 109.578
1245.986, 161.534
1247.202, 84.428
1248.417, 180.195
1249.633, 189.072
1250.848, 171.010
1252.063, 123.816
1253.277, 113.416
1254.492, 155.844
1255.706, 170.426
1256.920, 190.052
1258.134, 193.819
1259.348, 180.471
1260.562, 144.125
1261.775, 122.840
1262.988, 152.423
1264.201, 148.837
1265.414, 159.479
1266.627, 117.200
1267.839, 137.733
1269.052, 105.248
1270.264, 137.260
1271.476, 88.914
1272.688, 154.381
1273.899, 137.491
1275.111, 106.885
1276.322, 140.392
1277.533, 126.209
1278.744, 89.733
1279.955, 85.638
1281.165, 103.496
1282.376, 174.380
1283.586, 88.334
1284.796, 95.581
1286.006, 37.165
1287.215, 112.654
1288.425, 82.813
1289.634, 58.999
1290.843, 106.396
1292.052, 44.781
1293.261, 85.713
1294.469, 39.734
1295.678, 71.966
1296.886, 103.833
1298.094, 55.756
1299.302, 87.222
1300.509, 88.509
1301.717, 76.474
1302.924, 97.477
1304.131, 63.796
1305.338, 36.638
1306.545, 41.851
1307.752, 66.011
1308.958, 103.743
1310.164, 94.587
1311.370, 75.824
1312.576, 50.466
1313.782, 64.279
1314.987, 13.966
1316.193, 40.593
1317.398, 76.260
1318.603, 1.050
1319.807, 36.669
1321.012, 31.317
1322.216, 42.932
1323.421, 50.513
1324.625, 48.091
1325.829, 15.648
1327.032, 120.121
1328.236, 34.642
1329.439, 58.989
1330.642, 3.343
1331.845, 47.198
1333.048, 63.222
1334.251, 4.353
1335.453, 58.926
1336.656, 31.274
1337.858, 17.745
1339.060, 20.034
1340.261, 11.216
1341.463, 25.460
1342.664, 4.549
1343.866, 62.660
1345.067, 9.849
1346.267, 58.015
1347.468, 29.838
1348.669, 27.278
1349.869, 122.484
1351.069, 22.558
1352.269, 48.613
1353.469, 61.770
1354.668, 8.213
1355.868, 70.779
1357.067, 36.753
1358.266, 70.708
1359.465, 36.642
1360.664, 4.509
1361.862, 57.383
1363.061, 68.128
1364.259, 58.988
1365.457, 76.806
1366.655, 66.631
1367.852, 65.438
1369.050, 84.183
1370.247, 55.013
1371.444, 63.772
1372.641, 112.511
1373.838, 55.236
1375.035, 93.940
1376.231, 94.629
1377.427, 77.302
1378.623, 97.961
1379.819, 56.589
1381.015, 49.067
1382.211, 94.639
1383.406, 82.191
1384.601, 55.724
1385.796, 66.238
1386.991, 90.731
1388.185, 10.989
1389.380, 65.602
1390.574, 76.040
1391.768, 139.282
1392.962, 70.875
1394.156, 50.893
1395.350, 79.292
1396.543, 82.650
1397.736, 36.052
1398.929, 78.430
1400.122, 99.758
1401.315, 68.100
1402.507, 95.356
1403.700, 91.530
1404.892, 66.596
1406.084, 68.831
1407.276, 86.914
1408.467, 70.867
1409.659, 56.710
1410.850, 97.746
1412.041, 107.263
1413.232, 15.263
1414.423, 57.092
1415.614, 104.761
1416.804, 7.341
1417.994, 114.252
1419.184, 56.224
1420.374, 85.163
1421.564, 155.594
1422.753, 63.086
1423.943, 80.117
1425.132, 68.734
1426.321, 28.575
1427.510, 89.028
1428.698, 77.698
1429.887, 33.684
1431.075, 82.947
1432.263, 112.940
1433.451, 9.042
1434.639, 127.396
1435.827, 104.715
1437.014, 71.573
1438.201, 105.488
1439.388, 65.262
1440.575, 82.357
1441.762, 48.424
1442.949, 67.563
1444.135, 131.281
1445.321, 62.087
1446.507, 102.597
1447.693, 122.224
1448.879, 2.684
1450.064, 69.437
1451.250, 126.226
1452.435, 62.966
1453.620, 105.733
1454.805, 112.707
1455.989, 37.508
1457.174, 108.461
1458.358, 75.269
1459.542, 90.979
1460.726, 107.625
1461.910, 46.405
1463.093, 59.875
1464.277, 87.744
1465.460, 35.139
1466.643, 119.827
1467.826, 135.966
1469.009, 81.585
1470.191, 123.320
1471.373, 87.538
1472.556, 137.900
1473.738, 123.177
1474.919, 88.614
1476.101, 50.767
1477.283, 40.674
1478.464, 96.530
1479.645, 21.515
1480.826, 94.301
1482.007, 125.537
1483.187, 121.753
1484.368, 114.739
1485.548, 116.249
1486.728, 111.272
1487.908, 69.238
1489.088, 93.048
1490.268, 138.244
1491.447, 11.375
1492.626, 104.370
1493.805, 75.674
1494.984, 15.867
1496.163, 128.654
1497.341, 93.843
1498.520, 43.996
1499.698, 121.783
1500.876, 70.493
1502.054, 106.622
1503.232, 123.717
1504.409, 13.211
1505.586, 145.855
1506.763, 34.528
1507.940, 90.950
1509.117, 51.065
1510.294, 112.240
1511.470, 25.502
1512.647, 111.791
1513.823, 80.155
1514.999, 49.478
1516.174, 76.957
1517.350, 65.266
1518.526, 47.625
1519.701, 59.608
1520.876, 25.147
1522.051, 41.742
1523.226, 65.494
1524.400, 45.424
1525.574, 147.883
1526.749, 101.183
1527.923, 68.104
1529.097, 63.329
1530.270, 0.799
1531.444, 68.268
1532.617, 44.878
1533.790, 0.106
1534.963, 0.000
##END=



