##NAMES=Crocoite
##RRUFFID=R050044
##IDEAL CHEMISTRY=Pb^2+^Cr^6+^O_4_
##LOCALITY=Red Ledge mine, Dundas, Tasmania
##OWNER=RRUFF
##SOURCE=Eugene Schlepp
##DESCRIPTION=Red crystal fragment
##STATUS=The identification of this mineral has been confirmed by X-ray diffraction and chemical analysis
##URL=rruff.info/R050044
##MEASURED CHEMISTRY=Pb_1.02_Cr_0.99_O_4_
##PIN_ID=L00200
##ORIENTATION=Laser parallel to c* (0 0 1). Fiducial mark perpendicular to laser is parallel to -a [-1 0 0]
163.613, 0.000
165.002, 0.211
166.391, 40.099
167.780, 22.130
169.169, 2.810
170.557, 13.414
171.945, 14.247
173.333, 3.235
174.720, 27.361
176.108, 44.620
177.495, 37.926
178.881, 62.371
180.268, 79.888
181.654, 98.351
183.040, 76.837
184.426, 95.393
185.812, 89.283
187.197, 75.140
188.582, 82.746
189.967, 65.048
191.351, 78.009
192.736, 68.781
194.120, 56.779
195.504, 47.452
196.887, 33.773
198.271, 58.170
199.654, 41.760
201.036, 45.942
202.419, 31.550
203.801, 25.835
205.184, 30.715
206.565, 25.289
207.947, 18.987
209.328, 36.832
210.710, 10.110
212.090, 18.053
213.471, 28.896
214.851, 39.727
216.232, 23.767
217.611, 29.560
218.991, 12.810
220.370, 28.480
221.750, 27.995
223.129, 17.659
224.507, 2.767
225.886, 18.143
227.264, 23.826
228.642, 27.707
230.019, 19.088
231.397, 29.528
232.774, 14.972
234.151, 38.099
235.528, 29.991
236.904, 21.526
238.281, 11.028
239.656, 5.505
241.032, 11.961
242.408, 17.429
243.783, 25.897
245.158, 2.365
246.533, 20.839
247.907, 2.335
249.282, 25.851
250.656, 15.385
252.029, 10.938
253.403, 20.505
254.776, 1.088
256.149, 6.682
257.522, 7.286
258.895, 7.898
260.267, 10.517
261.639, 3.141
263.011, 17.769
264.382, 8.598
265.754, 14.037
267.125, 22.673
268.496, 15.308
269.866, 3.942
271.237, 5.573
272.607, 11.799
273.977, 9.174
275.346, 1.556
276.716, 6.933
278.085, 22.658
279.454, 1.746
280.823, 11.843
282.191, 17.425
283.559, 10.000
284.927, 2.560
286.295, 23.111
287.662, 2.343
289.030, 12.198
290.397, 8.733
291.763, 3.259
293.130, 9.775
294.496, 16.288
295.862, 13.792
297.228, 9.721
298.594, 10.835
299.959, 7.538
301.324, 15.099
302.689, 24.565
304.053, 14.050
305.418, 25.512
306.782, 29.975
308.146, 42.436
309.509, 51.900
310.873, 58.017
312.236, 45.892
313.599, 70.390
314.961, 65.845
316.324, 68.309
317.686, 78.838
319.048, 85.368
320.409, 118.861
321.771, 149.342
323.132, 204.818
324.493, 274.284
325.854, 386.773
327.214, 537.316
328.574, 650.570
329.934, 720.649
331.294, 675.792
332.654, 572.961
334.013, 550.070
335.372, 599.267
336.731, 718.367
338.089, 1029.498
339.448, 1464.576
340.806, 1943.657
342.164, 2076.736
343.521, 1646.865
344.879, 1166.867
346.236, 745.888
347.593, 636.838
348.949, 699.760
350.306, 887.719
351.662, 999.612
353.018, 864.493
354.373, 582.356
355.729, 403.194
357.084, 287.014
358.439, 242.821
359.794, 185.632
361.148, 201.419
362.503, 188.237
363.857, 177.980
365.210, 168.739
366.564, 144.488
367.917, 157.143
369.270, 151.864
370.623, 189.474
371.976, 202.005
373.328, 230.667
374.680, 332.207
376.032, 513.726
377.384, 846.308
378.735, 1417.880
380.086, 1930.417
381.437, 1805.908
382.788, 1242.301
384.138, 771.702
385.488, 451.077
386.838, 285.463
388.188, 198.667
389.538, 175.996
390.887, 146.362
392.236, 125.701
393.585, 117.567
394.933, 120.333
396.282, 112.562
397.630, 114.902
398.977, 121.202
400.325, 153.581
401.672, 151.814
403.020, 160.424
404.366, 196.556
405.713, 154.829
407.059, 123.037
408.406, 95.432
409.752, 96.828
411.097, 87.025
412.443, 97.454
413.788, 84.665
415.133, 84.852
416.478, 78.105
417.822, 61.093
419.167, 64.232
420.511, 78.325
421.854, 56.875
423.198, 60.045
424.541, 73.118
425.884, 67.227
427.227, 64.762
428.570, 78.934
429.912, 53.625
431.254, 46.438
432.596, 46.113
433.938, 26.945
435.280, 41.828
436.621, 59.193
437.962, 62.043
439.303, 57.564
440.643, 50.720
441.983, 81.749
443.323, 78.851
444.663, 91.625
446.003, 85.252
447.342, 82.695
448.681, 86.193
450.020, 68.814
451.359, 80.630
452.697, 71.707
454.035, 46.545
455.373, 92.790
456.711, 71.822
458.048, 72.912
459.386, 53.005
460.723, 64.919
462.059, 61.758
463.396, 77.513
464.732, 74.811
466.068, 63.089
467.404, 58.427
468.740, 57.073
470.075, 58.155
471.410, 61.687
472.745, 63.831
474.080, 78.322
475.414, 76.334
476.748, 77.653
478.082, 81.053
479.416, 70.974
480.749, 77.914
482.083, 73.820
483.416, 57.764
484.749, 81.683
486.081, 57.566
487.413, 49.464
488.745, 62.516
490.077, 73.372
491.409, 81.244
492.740, 56.698
494.072, 69.835
495.402, 44.274
496.733, 63.077
498.064, 48.951
499.394, 59.732
500.724, 54.524
502.054, 50.433
503.383, 34.182
504.712, 58.920
506.041, 49.648
507.370, 61.365
508.699, 72.071
510.027, 49.020
511.355, 59.706
512.683, 57.755
514.011, 57.421
515.338, 57.794
516.666, 56.748
517.993, 53.794
519.319, 49.189
520.646, 49.898
521.972, 37.505
523.298, 51.102
524.624, 42.836
525.950, 37.413
527.275, 52.981
528.600, 35.539
529.925, 52.088
531.250, 61.627
532.574, 37.158
533.898, 38.679
535.222, 47.191
536.546, 38.695
537.869, 41.189
539.193, 32.673
540.516, 45.149
541.839, 34.616
543.161, 44.074
544.484, 45.524
545.806, 28.966
547.128, 28.399
548.449, 34.824
549.771, 30.241
551.092, 37.649
552.413, 36.049
553.734, 31.441
555.054, 33.695
556.374, 34.201
557.694, 33.569
559.014, 17.928
560.334, 22.279
561.653, 28.621
562.972, 42.958
564.291, 21.288
565.610, 42.610
566.928, 6.924
568.247, 13.228
569.565, 12.522
570.882, 11.808
572.200, 21.084
573.517, 18.546
574.834, 18.613
576.151, 21.865
577.468, 16.110
578.784, 20.347
580.100, 2.577
581.416, 14.796
582.732, 14.006
584.047, 31.209
585.362, 24.405
586.677, 17.597
587.992, 4.219
589.307, 4.059
590.621, 0.054
591.935, 4.847
593.249, 3.846
594.563, 10.209
595.876, 9.324
597.189, 8.432
598.502, 11.072
599.815, 13.391
601.127, 8.687
602.440, 4.243
603.752, 3.187
605.064, 11.858
606.375, 9.105
607.686, 15.918
608.998, 7.065
610.308, 12.062
611.619, 13.925
612.930, 15.146
614.240, 11.182
615.550, 3.765
616.860, 10.296
618.169, 8.600
619.478, 14.522
620.787, 8.562
622.096, 16.659
623.405, 1.774
624.713, 17.899
626.021, 14.063
627.329, 6.252
628.637, 20.451
629.945, 1.340
631.252, 4.867
632.559, 4.924
633.866, 8.292
635.172, 1.480
636.479, 25.244
637.785, 12.004
639.091, 19.757
640.396, 5.505
641.702, 9.214
643.007, 21.951
644.312, 8.650
645.617, 1.689
646.921, 14.019
648.226, 5.733
649.530, 9.559
650.834, 4.895
652.137, 10.206
653.441, 11.386
654.744, 0.948
656.047, 19.654
657.350, 1.298
658.652, 3.084
659.954, 29.512
661.256, 6.033
662.558, 9.658
663.860, 29.240
665.161, 3.869
666.462, 6.498
667.763, 1.070
669.064, 9.320
670.365, 4.274
671.665, 1.136
672.965, 2.453
674.265, 10.965
675.564, 17.593
676.864, 4.100
678.163, 4.499
679.462, 8.415
680.760, 6.106
682.059, 3.213
683.357, 2.937
684.655, 2.332
685.953, 14.974
687.250, 3.134
688.548, 15.664
689.845, 18.381
691.142, 25.550
692.438, 21.134
693.735, 15.600
695.031, 26.076
696.327, 19.516
697.623, 28.008
698.918, 30.455
700.214, 29.942
701.509, 35.680
702.804, 34.856
704.098, 42.274
705.393, 41.722
706.687, 46.152
707.981, 50.613
709.275, 34.068
710.568, 39.504
711.861, 26.950
713.155, 41.399
714.447, 28.846
715.740, 24.175
717.032, 30.560
718.325, 56.989
719.617, 36.480
720.908, 37.865
722.200, 22.357
723.491, 38.429
724.782, 35.702
726.073, 26.964
727.364, 42.214
728.654, 30.616
729.944, 20.000
731.234, 64.389
732.524, 39.808
733.814, 29.175
735.103, 64.589
736.392, 55.550
737.681, 77.916
738.969, 49.275
740.258, 50.752
741.546, 64.203
742.834, 47.620
744.122, 52.228
745.409, 56.856
746.697, 56.753
747.984, 95.355
749.270, 63.031
750.557, 75.386
751.844, 73.728
753.130, 116.058
754.416, 84.456
755.701, 104.593
756.987, 109.959
758.272, 98.696
759.557, 94.514
760.842, 123.963
762.127, 90.437
763.411, 110.921
764.695, 92.552
765.979, 122.884
767.263, 136.374
768.547, 145.543
769.830, 130.977
771.113, 138.327
772.396, 145.848
773.679, 145.343
774.961, 141.870
776.243, 171.551
777.525, 161.740
778.807, 168.881
780.089, 202.029
781.370, 207.435
782.651, 226.352
783.932, 220.396
785.213, 246.824
786.493, 269.886
787.773, 249.441
789.053, 299.329
790.333, 329.845
791.613, 353.481
792.892, 360.273
794.171, 412.042
795.450, 452.857
796.729, 483.373
798.007, 487.631
799.285, 544.273
800.563, 578.759
801.841, 597.435
803.119, 620.090
804.396, 660.942
805.673, 714.542
806.950, 750.618
808.227, 801.326
809.504, 867.957
810.780, 892.676
812.056, 1003.380
813.332, 1067.961
814.607, 1128.697
815.883, 1286.443
817.158, 1443.194
818.433, 1542.952
819.708, 1834.717
820.982, 2074.235
822.256, 2393.013
823.531, 2639.425
824.804, 3096.218
826.078, 3489.994
827.352, 3809.802
828.625, 4244.214
829.898, 4479.276
831.170, 4825.023
832.443, 5124.871
833.715, 5688.727
834.988, 6545.449
836.259, 7634.325
837.531, 9177.221
838.803, 11406.130
840.074, 13435.052
841.345, 15673.987
842.616, 16062.935
843.886, 15251.893
845.157, 13850.858
846.427, 11849.833
847.697, 10648.819
848.966, 9867.813
850.236, 9286.814
851.505, 9565.825
852.774, 9654.847
854.043, 10203.869
855.312, 11192.908
856.580, 11121.948
857.849, 11490.998
859.117, 10840.058
860.384, 10009.128
861.652, 9128.203
862.919, 7861.288
864.186, 6922.380
865.453, 5934.481
866.720, 5363.586
867.986, 4801.702
869.253, 4237.826
870.519, 3820.958
871.784, 3483.099
873.050, 3146.246
874.315, 2932.403
875.581, 2634.569
876.846, 2552.743
878.110, 2351.926
879.375, 2160.118
880.639, 2077.719
881.903, 1870.927
883.167, 1870.144
884.431, 1761.369
885.694, 1643.603
886.957, 1565.844
888.220, 1438.100
889.483, 1403.620
890.746, 1318.888
892.008, 1233.165
893.270, 1190.449
894.532, 1118.394
895.794, 1086.042
897.056, 1018.355
898.317, 1000.679
899.578, 974.014
900.839, 908.360
902.099, 829.718
903.360, 850.085
904.620, 753.460
905.880, 762.844
907.140, 731.237
908.399, 684.643
909.659, 642.058
910.918, 630.680
912.177, 576.276
913.435, 568.721
914.694, 530.540
915.952, 472.768
917.210, 461.246
918.468, 456.738
919.726, 418.237
920.983, 381.764
922.240, 400.289
923.497, 378.824
924.754, 360.370
926.011, 323.925
927.267, 339.488
928.523, 322.062
929.779, 306.650
931.035, 293.256
932.290, 289.868
933.546, 247.492
934.801, 251.127
936.056, 247.777
937.310, 261.435
938.565, 220.104
939.819, 207.780
941.073, 216.467
942.327, 204.162
943.580, 196.865
944.833, 195.575
946.087, 177.151
947.340, 170.017
948.592, 147.989
949.845, 133.729
951.097, 124.476
952.349, 140.232
953.601, 117.995
954.853, 126.889
956.104, 132.616
957.355, 96.413
958.606, 123.212
959.857, 103.018
961.108, 96.831
962.358, 99.652
963.608, 78.479
964.858, 76.663
966.108, 73.654
967.357, 64.676
968.607, 54.532
969.856, 56.394
971.105, 89.385
972.353, 66.262
973.602, 82.539
974.850, 87.825
976.098, 55.724
977.346, 31.154
978.594, 43.349
979.841, 67.370
981.088, 69.300
982.335, 18.722
983.582, 46.345
984.828, 50.855
986.075, 19.630
987.321, 57.987
988.567, 10.107
989.812, 41.359
991.058, 40.072
992.303, 52.729
993.548, 53.716
994.793, 25.031
996.038, 60.034
997.282, 53.752
998.526, 17.787
999.770, 46.285
1001.014, 18.473
1002.258, 17.494
1003.501, 41.521
1004.744, 36.013
1005.987, 39.049
1007.230, 28.097
1008.473, 35.142
1009.715, 20.884
1010.957, 19.937
1012.199, 39.995
1013.441, 42.058
1014.682, 27.125
1015.923, 21.197
1017.164, 5.377
1018.405, 16.457
1019.646, 14.542
1020.886, 9.727
1022.127, 6.438
1023.367, 18.368
1024.606, 26.357
1025.846, 23.454
1027.085, 7.566
1028.325, 5.682
1029.564, 17.198
1030.802, 0.921
1032.041, 6.044
1033.279, 84.195
1034.517, 36.739
1035.755, 45.458
1036.993, 0.406
1038.230, 12.267
1039.468, 25.873
1040.705, 11.017
1041.942, 3.164
1043.178, 24.318
1044.415, 15.475
1045.651, 17.634
1046.887, 23.797
1048.123, 29.962
1049.358, 29.130
1050.594, 33.412
1051.829, 28.488
1053.064, 27.658
1054.299, 24.843
1055.533, 3.031
1056.768, 17.222
1058.002, 23.414
1059.236, 8.391
1060.469, 7.196
1061.703, 27.000
1062.936, 5.801
1064.169, 1.398
1065.402, 22.598
1066.635, 0.801
1067.867, 19.004
1069.100, 0.791
1070.332, 28.416
1071.564, 20.623
1072.795, 32.832
1074.027, 12.043
1075.258, 17.255
1076.489, 1.468
1077.720, 19.682
1078.950, 0.104
1080.181, 30.111
1081.411, 6.328
1082.641, 4.547
1083.871, 13.767
1085.100, 25.988
1086.330, 19.210
1087.559, 32.432
1088.788, 14.654
1090.016, 9.876
1091.245, 19.099
1092.473, 16.322
1093.701, 7.544
1094.929, 15.767
1096.157, 5.011
1097.384, 29.209
1098.612, 9.428
1099.839, 1.648
1101.066, 8.866
1102.292, 1.660
1103.519, 16.697
1104.745, 1.511
1105.971, 13.721
1107.197, 28.930
1108.423, 13.138
1109.648, 10.345
1110.873, 4.552
1112.098, 3.758
1113.323, 7.037
1114.548, 0.838
1115.772, 10.359
1116.996, 21.555
1118.220, 0.750
1119.444, 11.943
1120.667, 3.865
1121.891, 3.678
1123.114, 11.503
1124.337, 5.317
1125.560, 17.143
1126.782, 13.983
1128.004, 9.167
1129.227, 3.686
1130.448, 6.545
1131.670, 4.412
1132.892, 8.286
1134.113, 33.169
1135.334, 29.075
1136.555, 0.998
1137.776, 37.933
1138.996, 4.890
1140.216, 20.145
1141.436, 14.823
1142.656, 10.196
1143.876, 4.788
1145.095, 9.252
1146.315, 0.743
1147.534, 5.254
1148.753, 18.255
1149.971, 16.370
1151.190, 0.358
1152.408, 15.339
1153.626, 12.317
1154.844, 36.292
1156.061, 2.663
1157.279, 18.304
1158.496, 18.325
1159.713, 24.629
1160.930, 37.586
1162.146, 25.615
1163.363, 10.609
1164.579, 38.689
1165.795, 18.796
1167.010, 11.767
1168.226, 39.811
1169.441, 5.861
1170.657, 26.798
1171.871, 23.573
1173.086, 40.611
1174.301, 39.563
1175.515, 35.531
1176.729, 33.065
1177.943, 52.982
1179.157, 18.087
1180.370, 37.984
1181.584, 44.891
1182.797, 31.780
1184.010, 48.691
1185.222, 50.507
1186.435, 28.423
1187.647, 62.501
1188.859, 46.328
1190.071, 77.256
1191.283, 75.139
1192.494, 49.055
1193.706, 73.924
1194.917, 54.862
1196.128, 53.745
1197.338, 72.943
1198.549, 69.434
1199.759, 90.263
1200.969, 107.187
1202.179, 59.087
1203.389, 82.902
1204.598, 47.807
1205.807, 59.598
1207.016, 88.278
1208.225, 61.377
1209.434, 60.070
1210.642, 60.892
1211.850, 75.725
1213.058, 107.528
1214.266, 93.633
1215.474, 97.338
1216.681, 78.846
1217.889, 79.788
1219.096, 69.618
1220.302, 70.412
1221.509, 59.229
1222.715, 64.011
1223.922, 65.741
1225.128, 84.484
1226.334, 59.284
1227.539, 52.702
1228.745, 81.427
1229.950, 75.282
1231.155, 54.999
1232.360, 65.749
1233.564, 84.488
1234.769, 63.230
1235.973, 94.958
1237.177, 61.661
1238.381, 82.357
1239.584, 75.022
1240.787, 74.680
1241.991, 112.125
1243.194, 99.774
1244.396, 57.471
1245.599, 75.142
1246.801, 71.903
1248.004, 76.689
1249.206, 89.368
1250.407, 95.395
1251.609, 85.058
1252.810, 79.670
1254.012, 66.370
1255.212, 80.995
1256.413, 63.673
1257.614, 85.266
1258.814, 75.358
1260.014, 59.056
1261.214, 59.708
1262.414, 83.298
1263.614, 55.934
1264.813, 84.546
1266.012, 75.547
1267.211, 81.521
1268.410, 84.238
1269.609, 82.987
1270.807, 67.300
1272.005, 69.464
1273.203, 65.618
1274.401, 60.988
1275.598, 66.089
1276.796, 59.665
1277.993, 58.392
1279.190, 53.533
1280.387, 42.928
1281.583, 89.142
1282.780, 82.193
1283.976, 74.753
1285.172, 117.170
1286.368, 37.397
1287.563, 60.855
1288.759, 27.592
1289.954, 56.083
1291.149, 56.034
1292.343, 33.305
1293.538, 15.766
1294.732, 50.184
1295.927, 114.137
1297.121, 69.715
1298.314, 82.491
1299.508, 20.470
1300.701, 36.933
1301.895, 22.321
1303.087, 5.816
1304.280, 36.187
1305.473, 20.552
1306.665, 25.913
1307.857, 15.165
1309.049, 13.346
1310.241, 28.961
1311.433, 17.205
1312.624, 16.539
1313.815, 33.537
1315.006, 4.146
1316.197, 16.162
1317.388, 27.612
1318.578, 22.909
1319.768, 30.210
1320.958, 33.493
1322.148, 10.770
1323.338, 47.016
1324.527, 33.281
1325.716, 70.546
1326.906, 28.860
1328.094, 11.108
1329.283, 27.350
1330.471, 10.586
1331.660, 6.183
1332.848, 22.037
1334.035, 31.250
1335.223, 22.465
1336.411, 32.668
1337.598, 18.863
1338.785, 27.052
1339.972, 4.235
1341.158, 17.602
1342.345, 41.548
1343.531, 17.692
1344.717, 19.829
1345.903, 56.959
1347.089, 18.083
1348.274, 11.198
1349.459, 27.307
1350.644, 5.411
1351.829, 30.508
1353.014, 27.639
1354.198, 23.722
1355.383, 29.799
1356.567, 32.949
1357.751, 31.013
1358.934, 45.071
1360.118, 10.123
1361.301, 19.168
1362.484, 24.303
1363.667, 19.338
1364.850, 24.366
1366.032, 38.399
1367.215, 29.410
1368.397, 18.415
1369.579, 3.557
1370.760, 31.426
1371.942, 11.553
1373.123, 30.530
1374.304, 21.512
1375.485, 22.396
1376.666, 20.183
1377.847, 22.445
1379.027, 27.331
1380.207, 28.023
1381.387, 34.185
1382.567, 36.416
1383.747, 27.637
1384.926, 36.857
1386.105, 22.066
1387.284, 27.266
1388.463, 12.457
1389.641, 3.645
1390.820, 60.823
1391.998, 0.007
1393.176, 23.160
1394.354, 63.324
1395.532, 15.500
1396.709, 28.677
1397.886, 16.858
1399.063, 40.056
1400.240, 36.282
1401.417, 2.536
1402.593, 17.795
1403.769, 31.019
1404.945, 7.285
1406.121, 23.384
1407.297, 38.647
1408.472, 30.907
1409.648, 39.069
1410.823, 44.790
1411.998, 19.931
1413.172, 74.930
1414.347, 36.897
1415.521, 43.811
1416.695, 23.827
1417.869, 23.812
1419.043, 23.893
1420.216, 24.772
1421.390, 20.939
1422.563, 59.075
1423.736, 34.905
1424.909, 32.309
1426.081, 77.324
1427.254, 14.348
1428.426, 40.282
1429.598, 27.184
1430.770, 12.115
1431.941, 35.068
1433.113, 25.692
1434.284, 19.187
1435.455, 48.147
1436.626, 43.071
1437.796, 6.067
1438.967, 38.787
1440.137, 36.603
1441.307, 8.582
1442.477, 59.408
1443.646, 5.944
1444.816, 26.632
1445.985, 26.487
1447.154, 26.264
1448.323, 38.091
1449.492, 34.011
1450.660, 6.921
1451.829, 42.770
1452.997, 38.377
1454.165, 26.688
1455.332, 48.552
1456.500, 29.218
1457.667, 1.839
1458.834, 27.682
1460.001, 20.624
1461.168, 25.858
1462.335, 82.554
1463.501, 23.250
1464.667, 63.813
1465.833, 21.517
1466.999, 9.110
1468.165, 39.583
1469.330, 40.007
1470.495, 26.653
1471.660, 46.325
1472.825, 33.719
1473.990, 38.149
1475.154, 19.802
1476.318, 28.365
1477.482, 36.574
1478.646, 45.224
1479.810, 15.963
1480.974, 45.074
1482.137, 25.608
1483.300, 23.121
1484.463, 39.163
1485.626, 32.678
1486.788, 38.987
1487.950, 41.448
1489.113, 35.201
1490.275, 39.628
1491.436, 63.001
1492.598, 6.038
1493.759, 57.389
1494.920, 35.710
1496.081, 0.961
1497.242, 54.231
1498.403, 31.472
1499.563, 19.886
1500.724, 48.297
1501.884, 0.288
1503.043, 16.178
1504.203, 52.649
1505.363, 11.649
1506.522, 60.028
1507.681, 31.426
1508.840, 7.814
1509.999, 16.081
1511.157, 0.383
1512.315, 11.368
1513.474, 7.612
1514.632, 16.388
1515.789, 0.000
##END=



