##NAMES=Crocoite
##RRUFFID=R050044
##IDEAL CHEMISTRY=Pb^2+^Cr^6+^O_4_
##LOCALITY=Red Ledge mine, Dundas, Tasmania
##OWNER=RRUFF
##SOURCE=Eugene Schlepp
##DESCRIPTION=Red crystal fragment
##STATUS=The identification of this mineral has been confirmed by X-ray diffraction and chemical analysis
##URL=rruff.info/R050044
##MEASURED CHEMISTRY=Pb_1.02_Cr_0.99_O_4_
##PIN_ID=L00274
##ORIENTATION=Laser parallel to a* (1 0 0). Fiducial mark perpendicular to laser is parallel to b [0 1 0]
165.002, 0.000
166.391, 14.977
167.780, 9.677
169.169, 0.855
170.557, 30.024
171.945, 35.707
173.333, 28.750
174.720, 8.851
176.108, 0.900
177.495, 69.383
178.881, 39.515
180.268, 86.768
181.654, 62.157
183.040, 57.097
184.426, 73.410
185.812, 58.727
187.197, 56.833
188.582, 114.493
189.967, 42.414
191.351, 69.946
192.736, 64.380
194.120, 8.868
195.504, 58.252
196.887, 104.769
198.271, 86.042
199.654, 68.805
201.036, 20.062
202.419, 63.106
203.801, 38.436
205.184, 42.221
206.565, 63.819
207.947, 62.668
209.328, 106.173
210.710, 39.948
212.090, 43.390
213.471, 79.706
214.851, 33.682
216.232, 20.188
217.611, 41.991
218.991, 60.903
220.370, 22.914
221.750, 60.573
223.129, 75.417
224.507, 96.802
225.886, 86.819
227.264, 108.274
228.642, 35.018
230.019, 52.291
231.397, 84.035
232.774, 36.706
234.151, 63.611
235.528, 83.442
236.904, 64.326
238.281, 36.856
239.656, 49.802
241.032, 2.904
242.408, 38.294
243.783, 39.286
245.158, 19.367
246.533, 36.366
247.907, 4.615
249.282, 29.463
250.656, 73.585
252.029, 7.751
253.403, 22.950
254.776, 18.182
256.149, 18.441
257.522, 22.721
258.895, 14.279
260.267, 44.331
261.639, 0.653
263.011, 6.021
264.382, 14.689
265.754, 18.646
267.125, 15.974
268.496, 12.294
269.866, 9.610
271.237, 12.915
272.607, 26.204
273.977, 27.402
275.346, 34.635
276.716, 30.958
278.085, 39.174
279.454, 20.374
280.823, 7.552
282.191, 6.295
283.559, 15.838
284.927, 3.949
286.295, 11.034
287.662, 23.904
289.030, 29.125
290.397, 16.435
291.763, 70.844
293.130, 35.945
294.496, 14.214
295.862, 6.664
297.228, 10.216
298.594, 22.411
299.959, 39.681
301.324, 39.103
302.689, 57.373
304.053, 51.680
305.418, 44.634
306.782, 42.775
308.146, 48.960
309.509, 50.042
310.873, 61.806
312.236, 85.126
313.599, 81.418
314.961, 67.684
316.324, 59.777
317.686, 115.863
319.048, 133.077
320.409, 165.136
321.771, 143.339
323.132, 128.274
324.493, 149.636
325.854, 170.939
327.214, 178.008
328.574, 216.179
329.934, 237.272
331.294, 232.201
332.654, 253.990
334.013, 311.340
335.372, 370.958
336.731, 486.565
338.089, 640.049
339.448, 785.367
340.806, 788.544
342.164, 801.899
343.521, 724.223
344.879, 617.466
346.236, 561.664
347.593, 610.673
348.949, 604.623
350.306, 617.163
351.662, 730.503
353.018, 685.439
354.373, 719.088
355.729, 803.911
357.084, 922.554
358.439, 1090.080
359.794, 1260.650
361.148, 1347.139
362.503, 1373.998
363.857, 1362.448
365.210, 1203.663
366.564, 985.876
367.917, 879.946
369.270, 764.166
370.623, 689.133
371.976, 666.500
373.328, 667.702
374.680, 799.719
376.032, 1011.392
377.384, 1258.348
378.735, 1667.994
380.086, 1782.522
381.437, 1552.234
382.788, 1314.881
384.138, 985.296
385.488, 687.832
386.838, 526.437
388.188, 410.097
389.538, 369.859
390.887, 298.358
392.236, 279.780
393.585, 281.322
394.933, 294.719
396.282, 330.723
397.630, 384.042
398.977, 431.485
400.325, 517.782
401.672, 558.954
403.020, 579.321
404.366, 565.942
405.713, 560.508
407.059, 464.676
408.406, 371.390
409.752, 280.165
411.097, 189.424
412.443, 153.966
413.788, 124.427
415.133, 114.306
416.478, 138.336
417.822, 155.989
419.167, 147.713
420.511, 121.446
421.854, 143.712
423.198, 140.872
424.541, 148.653
425.884, 190.405
427.227, 180.277
428.570, 132.364
429.912, 150.162
431.254, 163.595
432.596, 119.679
433.938, 116.442
435.280, 137.012
436.621, 148.522
437.962, 155.248
439.303, 163.673
440.643, 144.275
441.983, 187.559
443.323, 182.441
444.663, 236.028
446.003, 150.594
447.342, 209.181
448.681, 148.216
450.020, 189.709
451.359, 188.407
452.697, 229.187
454.035, 197.301
455.373, 216.119
456.711, 216.301
458.048, 197.485
459.386, 176.853
460.723, 196.056
462.059, 189.105
463.396, 212.895
464.732, 220.764
466.068, 224.372
467.404, 215.572
468.740, 194.619
470.075, 213.276
471.410, 219.395
472.745, 218.023
474.080, 180.598
475.414, 217.226
476.748, 241.868
478.082, 221.771
479.416, 165.728
480.749, 185.843
482.083, 166.095
483.416, 196.082
484.749, 189.945
486.081, 217.150
487.413, 209.527
488.745, 165.484
490.077, 209.794
491.409, 189.582
492.740, 161.811
494.072, 209.242
495.402, 188.392
496.733, 177.502
498.064, 190.771
499.394, 194.802
500.724, 196.815
502.054, 181.770
503.383, 174.686
504.712, 177.563
506.041, 174.401
507.370, 204.201
508.699, 208.057
510.027, 184.783
511.355, 192.470
512.683, 167.121
514.011, 212.733
515.338, 163.310
516.666, 190.849
517.993, 151.352
519.319, 181.818
520.646, 188.249
521.972, 118.643
523.298, 169.998
524.624, 167.317
525.950, 195.602
527.275, 185.852
528.600, 140.068
529.925, 205.248
531.250, 116.396
532.574, 136.505
533.898, 130.580
535.222, 207.620
536.546, 150.627
537.869, 153.600
539.193, 144.540
540.516, 125.448
541.839, 142.323
543.161, 139.164
544.484, 146.974
545.806, 132.751
547.128, 125.495
548.449, 102.206
549.771, 141.883
551.092, 75.527
552.413, 156.135
553.734, 104.713
555.054, 138.257
556.374, 100.772
557.694, 93.255
559.014, 94.704
560.334, 90.121
561.653, 76.797
562.972, 78.983
564.291, 61.179
565.610, 78.465
566.928, 101.719
568.247, 111.943
569.565, 82.139
570.882, 93.307
572.200, 113.386
573.517, 130.313
574.834, 59.173
576.151, 76.100
577.468, 57.072
578.784, 82.977
580.100, 109.744
581.416, 48.579
582.732, 14.368
584.047, 25.855
585.362, 35.947
586.677, 9.720
587.992, 13.283
589.307, 32.124
590.621, 12.553
591.935, 32.773
593.249, 14.053
594.563, 35.623
595.876, 55.329
597.189, 12.899
598.502, 35.123
599.815, 10.235
601.127, 20.510
602.440, 10.338
603.752, 16.167
605.064, 21.232
606.375, 27.648
607.686, 32.353
608.998, 53.360
610.308, 42.585
611.619, 58.735
612.930, 27.015
614.240, 22.282
615.550, 35.596
616.860, 32.956
618.169, 41.595
619.478, 22.132
620.787, 19.749
622.096, 68.312
623.405, 26.072
624.713, 46.547
626.021, 1.733
627.329, 7.899
628.637, 17.878
629.945, 0.331
631.252, 5.022
632.559, 12.846
633.866, 0.621
635.172, 22.231
636.479, 21.154
637.785, 24.347
639.091, 28.097
640.396, 8.762
641.702, 8.927
643.007, 16.141
644.312, 24.734
645.617, 48.438
646.921, 27.158
648.226, 14.073
649.530, 29.589
650.834, 47.876
652.137, 47.814
653.441, 10.406
654.744, 8.059
656.047, 91.517
657.350, 0.099
658.652, 124.612
659.954, 338.188
661.256, 263.656
662.558, 115.129
663.860, 49.580
665.161, 57.853
666.462, 75.695
667.763, 41.138
669.064, 8.607
670.365, 79.964
671.665, 69.505
672.965, 66.834
674.265, 24.273
675.564, 71.543
676.864, 63.935
678.163, 88.351
679.462, 68.337
680.760, 116.671
682.059, 85.990
683.357, 81.426
684.655, 159.820
685.953, 150.016
687.250, 114.476
688.548, 135.477
689.845, 155.656
691.142, 196.792
692.438, 205.228
693.735, 199.475
695.031, 252.738
696.327, 221.965
697.623, 279.092
698.918, 309.316
700.214, 266.531
701.509, 327.782
702.804, 327.980
704.098, 329.152
705.393, 295.131
706.687, 318.384
707.981, 329.996
709.275, 291.323
710.568, 316.386
711.861, 331.654
713.155, 375.712
714.447, 400.703
715.740, 407.732
717.032, 355.725
718.325, 333.549
719.617, 415.436
720.908, 367.016
722.200, 385.947
723.491, 298.145
724.782, 383.407
726.073, 322.459
727.364, 351.645
728.654, 372.952
729.944, 404.345
731.234, 431.146
732.524, 466.254
733.814, 379.083
735.103, 410.314
736.392, 381.700
737.681, 491.455
738.969, 392.052
740.258, 433.281
741.546, 463.825
742.834, 452.349
744.122, 490.108
745.409, 488.168
746.697, 529.516
747.984, 501.216
749.270, 496.249
750.557, 566.335
751.844, 525.250
753.130, 607.419
754.416, 578.463
755.701, 605.635
756.987, 653.006
758.272, 635.452
759.557, 688.872
760.842, 669.414
762.127, 655.627
763.411, 727.621
764.695, 715.375
765.979, 720.884
767.263, 761.461
768.547, 739.112
769.830, 766.145
771.113, 841.428
772.396, 769.183
773.679, 853.266
774.961, 791.661
776.243, 803.298
777.525, 911.979
778.807, 918.879
780.089, 916.116
781.370, 929.480
782.651, 941.274
783.932, 961.990
785.213, 1032.177
786.493, 1031.513
787.773, 1096.461
789.053, 1170.327
790.333, 1205.890
791.613, 1306.625
792.892, 1358.986
794.171, 1410.778
795.450, 1485.550
796.729, 1511.400
798.007, 1556.943
799.285, 1645.311
800.563, 1615.093
801.841, 1737.517
803.119, 1768.451
804.396, 1791.933
805.673, 1839.203
806.950, 1916.126
808.227, 2050.331
809.504, 2086.741
810.780, 2198.383
812.056, 2263.035
813.332, 2416.738
814.607, 2557.474
815.883, 2595.239
817.158, 2866.037
818.433, 2960.868
819.708, 3412.636
820.982, 3789.533
822.256, 4142.462
823.531, 4460.424
824.804, 5011.420
826.078, 5745.451
827.352, 6254.520
828.625, 7118.624
829.898, 7972.765
831.170, 9156.951
832.443, 10511.176
833.715, 12565.456
834.988, 15069.776
836.259, 18634.135
837.531, 23428.541
838.803, 28892.998
840.074, 34167.477
841.345, 38032.012
842.616, 37516.582
843.886, 34771.215
845.157, 29855.865
846.427, 24350.561
847.697, 20375.330
848.966, 17050.133
850.236, 14234.988
851.505, 12799.907
852.774, 11344.873
854.043, 10419.913
855.312, 10474.996
856.580, 9490.118
857.849, 8815.302
859.117, 8130.523
860.384, 7305.804
861.652, 6641.129
862.919, 5707.541
864.186, 4977.947
865.453, 4444.404
866.720, 3990.899
867.986, 3563.448
869.253, 3241.035
870.519, 3023.669
871.784, 2772.345
873.050, 2630.062
874.315, 2500.836
875.581, 2252.652
876.846, 2190.535
878.110, 1987.443
879.375, 1958.396
880.639, 1872.393
881.903, 1681.433
883.167, 1684.512
884.431, 1642.636
885.694, 1566.801
886.957, 1531.234
888.220, 1511.280
889.483, 1408.568
890.746, 1385.899
892.008, 1332.329
893.270, 1320.767
894.532, 1301.249
895.794, 1259.779
897.056, 1239.358
898.317, 1215.997
899.578, 1223.689
900.839, 1161.425
902.099, 1231.209
903.360, 1099.052
904.620, 1165.959
905.880, 1163.914
907.140, 1173.912
908.399, 1135.956
909.659, 1076.055
910.918, 1082.205
912.177, 1075.408
913.435, 980.666
914.694, 966.979
915.952, 1004.349
917.210, 848.780
918.468, 948.270
919.726, 838.822
920.983, 777.429
922.240, 794.088
923.497, 755.802
924.754, 679.557
926.011, 662.368
927.267, 652.230
928.523, 616.143
929.779, 610.118
931.035, 569.133
932.290, 583.204
933.546, 468.318
934.801, 468.473
936.056, 467.676
937.310, 496.921
938.565, 440.209
939.819, 471.543
941.073, 387.917
942.327, 400.338
943.580, 404.804
944.833, 357.550
946.087, 307.110
947.340, 396.712
948.592, 318.355
949.845, 393.041
951.097, 240.765
952.349, 277.539
953.601, 279.351
954.853, 270.203
956.104, 279.093
957.355, 237.625
958.606, 234.601
959.857, 202.613
961.108, 236.865
962.358, 243.981
963.608, 204.106
964.858, 293.268
966.108, 250.466
967.357, 203.701
968.607, 115.971
969.856, 167.278
971.105, 226.115
972.353, 175.502
973.602, 217.926
974.850, 230.496
976.098, 245.989
977.346, 251.966
978.594, 230.530
979.841, 214.345
981.088, 300.239
982.335, 206.905
983.582, 245.120
984.828, 249.483
986.075, 161.741
987.321, 272.486
988.567, 94.032
989.812, 177.961
991.058, 62.750
992.303, 141.795
993.548, 128.047
994.793, 179.900
996.038, 71.948
997.282, 111.340
998.526, 83.434
999.770, 91.767
1001.014, 106.921
1002.258, 22.594
1003.501, 99.266
1004.744, 52.119
1005.987, 67.811
1007.230, 48.107
1008.473, 30.505
1009.715, 20.415
1010.957, 30.315
1012.199, 6.516
1013.441, 106.067
1014.682, 32.801
1015.923, 70.594
1017.164, 24.578
1018.405, 36.128
1019.646, 31.082
1020.886, 21.684
1022.127, 32.424
1023.367, 73.720
1024.606, 48.398
1025.846, 2.724
1027.085, 99.626
1028.325, 35.010
1029.564, 78.033
1030.802, 70.136
1032.041, 32.344
1033.279, 90.257
1034.517, 94.276
1035.755, 1.819
1036.993, 3.113
1038.230, 46.067
1039.468, 14.054
1040.705, 5.942
1041.942, 45.082
1043.178, 42.150
1044.415, 52.214
1045.651, 66.300
1046.887, 46.404
1048.123, 41.525
1049.358, 39.286
1050.594, 38.542
1051.829, 34.003
1053.064, 57.198
1054.299, 70.409
1055.533, 95.636
1056.768, 39.878
1058.002, 67.136
1059.236, 52.512
1060.469, 47.693
1061.703, 47.992
1062.936, 48.944
1064.169, 55.510
1065.402, 66.976
1066.635, 74.330
1067.867, 92.696
1069.100, 103.299
1070.332, 110.443
1071.564, 92.869
1072.795, 97.285
1074.027, 69.711
1075.258, 4.147
1076.489, 65.594
1077.720, 4.050
1078.950, 92.517
1080.181, 39.993
1081.411, 78.477
1082.641, 39.970
1083.871, 93.472
1085.100, 15.980
1086.330, 35.496
1087.559, 87.018
1088.788, 34.045
1090.016, 41.989
1091.245, 35.635
1092.473, 12.785
1093.701, 65.797
1094.929, 39.383
1096.157, 20.976
1097.384, 107.574
1098.612, 19.176
1099.839, 63.781
1101.066, 43.389
1102.292, 10.000
1103.519, 54.614
1104.745, 44.769
1105.971, 24.836
1107.197, 15.443
1108.423, 6.950
1109.648, 0.657
1110.873, 5.263
1112.098, 99.869
1113.323, 49.477
1114.548, 63.084
1115.772, 3.691
1116.996, 38.298
1118.220, 11.098
1119.444, 77.500
1120.667, 90.096
1121.891, 0.689
1123.114, 13.280
1124.337, 28.130
1125.560, 7.441
1126.782, 0.011
1128.004, 59.427
1129.227, 35.104
1130.448, 96.370
1131.670, 6.467
1132.892, 2.688
1134.113, 66.235
1135.334, 5.651
1136.555, 10.749
1137.776, 44.857
1138.996, 10.634
1140.216, 32.010
1141.436, 4.682
1142.656, 25.357
1143.876, 81.070
1145.095, 53.352
1146.315, 60.424
1147.534, 88.244
1148.753, 11.403
1149.971, 125.251
1151.190, 12.132
1152.408, 11.858
1153.626, 51.166
1154.844, 0.093
1156.061, 58.130
1157.279, 13.084
1158.496, 8.560
1159.713, 26.448
1160.930, 16.711
1162.146, 23.935
1163.363, 18.301
1164.579, 46.019
1165.795, 1.769
1167.010, 84.459
1168.226, 36.576
1169.441, 32.639
1170.657, 61.198
1171.871, 38.115
1173.086, 13.318
1174.301, 24.487
1175.515, 11.293
1176.729, 37.100
1177.943, 35.535
1179.157, 52.527
1180.370, 48.074
1181.584, 83.009
1182.797, 81.562
1184.010, 97.382
1185.222, 65.610
1186.435, 92.118
1187.647, 151.049
1188.859, 67.240
1190.071, 118.633
1191.283, 154.154
1192.494, 77.612
1193.706, 231.930
1194.917, 98.843
1196.128, 87.954
1197.338, 207.045
1198.549, 200.298
1199.759, 180.771
1200.969, 163.159
1202.179, 113.544
1203.389, 113.630
1204.598, 133.049
1205.807, 103.312
1207.016, 206.450
1208.225, 227.025
1209.434, 258.006
1210.642, 221.004
1211.850, 151.963
1213.058, 226.111
1214.266, 193.324
1215.474, 214.816
1216.681, 275.016
1217.889, 280.435
1219.096, 285.620
1220.302, 202.706
1221.509, 220.611
1222.715, 260.884
1223.922, 185.971
1225.128, 228.159
1226.334, 169.984
1227.539, 176.573
1228.745, 239.198
1229.950, 193.962
1231.155, 193.646
1232.360, 223.333
1233.564, 260.151
1234.769, 251.787
1235.973, 266.262
1237.177, 254.239
1238.381, 301.641
1239.584, 306.585
1240.787, 183.293
1241.991, 272.052
1243.194, 222.681
1244.396, 190.171
1245.599, 279.464
1246.801, 188.954
1248.004, 221.792
1249.206, 226.050
1250.407, 188.108
1251.609, 278.568
1252.810, 194.796
1254.012, 251.002
1255.212, 337.106
1256.413, 217.377
1257.614, 256.919
1258.814, 253.972
1260.014, 230.299
1261.214, 230.467
1262.414, 253.445
1263.614, 179.938
1264.813, 293.029
1266.012, 195.930
1267.211, 277.220
1268.410, 205.303
1269.609, 229.688
1270.807, 227.780
1272.005, 302.330
1273.203, 224.098
1274.401, 221.924
1275.598, 120.089
1276.796, 129.407
1277.993, 185.599
1279.190, 76.491
1280.387, 306.512
1281.583, 195.289
1282.780, 148.408
1283.976, 229.932
1285.172, 220.296
1286.368, 175.945
1287.563, 207.424
1288.759, 66.426
1289.954, 207.829
1291.149, 209.047
1292.343, 81.260
1293.538, 152.144
1294.732, 132.844
1295.927, 175.651
1297.121, 167.522
1298.314, 120.598
1299.508, 141.882
1300.701, 90.339
1301.895, 27.805
1303.087, 125.183
1304.280, 16.958
1305.473, 19.579
1306.665, 174.140
1307.857, 68.508
1309.049, 45.292
1310.241, 175.694
1311.433, 79.363
1312.624, 40.885
1313.815, 98.849
1315.006, 5.421
1316.197, 42.786
1317.388, 92.671
1318.578, 30.515
1319.768, 27.781
1320.958, 41.887
1322.148, 20.881
1323.338, 119.161
1324.527, 67.323
1325.716, 5.589
1326.906, 73.815
1328.094, 5.992
1329.283, 109.152
1330.471, 58.269
1331.660, 45.349
1332.848, 124.367
1334.035, 29.374
1335.223, 100.346
1336.411, 129.284
1337.598, 55.191
1338.785, 43.063
1339.972, 42.899
1341.158, 126.698
1342.345, 84.465
1343.531, 92.203
1344.717, 89.907
1345.903, 99.581
1347.089, 110.224
1348.274, 96.839
1349.459, 119.425
1350.644, 60.980
1351.829, 162.505
1353.014, 34.242
1354.198, 141.707
1355.383, 94.143
1356.567, 83.552
1357.751, 55.931
1358.934, 79.282
1360.118, 57.605
1361.301, 75.137
1362.484, 85.042
1363.667, 111.285
1364.850, 61.502
1366.032, 75.807
1367.215, 63.965
1368.397, 107.098
1369.579, 54.359
1370.760, 78.445
1371.942, 103.449
1373.123, 116.423
1374.304, 109.355
1375.485, 82.523
1376.666, 2.357
1377.847, 95.141
1379.027, 71.214
1380.207, 90.271
1381.387, 123.593
1382.567, 38.866
1383.747, 68.094
1384.926, 81.279
1386.105, 100.417
1387.284, 164.524
1388.463, 90.588
1389.641, 51.610
1390.820, 135.585
1391.998, 62.515
1393.176, 82.403
1394.354, 127.251
1395.532, 83.053
1396.709, 138.824
1397.886, 100.570
1399.063, 57.819
1400.240, 140.186
1401.417, 75.542
1402.593, 99.086
1403.769, 200.766
1404.945, 133.423
1406.121, 98.667
1407.297, 162.496
1408.472, 49.070
1409.648, 82.874
1410.823, 159.451
1411.998, 72.737
1413.172, 170.756
1414.347, 69.073
1415.521, 101.663
1416.695, 147.795
1417.869, 51.677
1419.043, 109.781
1420.216, 92.309
1421.390, 77.722
1422.563, 55.963
1423.736, 33.624
1424.909, 65.277
1426.081, 59.019
1427.254, 81.398
1428.426, 73.538
1429.598, 105.637
1430.770, 78.049
1431.941, 65.580
1433.113, 135.868
1434.284, 65.417
1435.455, 152.965
1436.626, 50.079
1437.796, 62.324
1438.967, 165.372
1440.137, 44.645
1441.307, 136.848
1442.477, 115.918
1443.646, 60.104
1444.816, 144.693
1445.985, 126.668
1447.154, 148.853
1448.323, 124.704
1449.492, 117.142
1450.660, 68.186
1451.829, 112.718
1452.997, 112.498
1454.165, 95.263
1455.332, 120.590
1456.500, 89.511
1457.667, 127.621
1458.834, 119.764
1460.001, 60.962
1461.168, 120.831
1462.335, 126.929
1463.501, 85.888
1464.667, 154.916
1465.833, 109.543
1466.999, 166.951
1468.165, 211.978
1469.330, 76.872
1470.495, 161.342
1471.660, 107.885
1472.825, 83.737
1473.990, 133.549
1475.154, 70.887
1476.318, 109.752
1477.482, 71.932
1478.646, 95.649
1479.810, 127.577
1480.974, 112.975
1482.137, 111.701
1483.300, 53.023
1484.463, 138.243
1485.626, 51.374
1486.788, 141.995
1487.950, 70.572
1489.113, 108.126
1490.275, 157.321
1491.436, 127.805
1492.598, 4.259
1493.759, 161.711
1494.920, 63.189
1496.081, 91.698
1497.242, 127.326
1498.403, 80.002
1499.563, 73.746
1500.724, 104.600
1501.884, 10.447
1503.043, 90.615
1504.203, 129.749
1505.363, 16.967
1506.522, 151.814
1507.681, 119.051
1508.840, 13.402
1509.999, 143.867
1511.157, 38.531
1512.315, 106.052
1513.474, 209.652
1514.632, 0.729
1515.789, 92.391
1516.947, 107.511
1518.104, 51.437
1519.261, 0.000
##END=



