##NAMES=Crocoite
##RRUFFID=R050044
##IDEAL CHEMISTRY=Pb^2+^Cr^6+^O_4_
##LOCALITY=Red Ledge mine, Dundas, Tasmania
##OWNER=RRUFF
##SOURCE=Eugene Schlepp
##DESCRIPTION=Red crystal fragment
##STATUS=The identification of this mineral has been confirmed by X-ray diffraction and chemical analysis
##URL=rruff.info/R050044
##MEASURED CHEMISTRY=Pb_1.02_Cr_0.99_O_4_
##PIN_ID=L00130
##ORIENTATION=Laser parallel to b* (0 1 0). Fiducial mark perpendicular to laser is parallel to -c [0 0 -1]
163.613, 0.000
165.002, 72.149
166.391, 71.248
167.780, 26.404
169.169, 11.045
170.557, 48.562
171.945, 3.944
173.333, 36.553
174.720, 41.297
176.108, 25.102
177.495, 108.405
178.881, 101.877
180.268, 92.340
181.654, 94.340
183.040, 85.814
184.426, 71.163
185.812, 82.796
187.197, 102.052
188.582, 117.090
189.967, 148.695
191.351, 183.163
192.736, 176.848
194.120, 205.009
195.504, 152.396
196.887, 193.153
198.271, 189.692
199.654, 107.884
201.036, 226.158
202.419, 171.399
203.801, 156.404
205.184, 153.678
206.565, 146.908
207.947, 153.202
209.328, 107.846
210.710, 120.314
212.090, 106.227
213.471, 158.765
214.851, 167.006
216.232, 107.512
217.611, 82.439
218.991, 75.702
220.370, 92.804
221.750, 85.035
223.129, 61.200
224.507, 55.103
225.886, 52.531
227.264, 58.237
228.642, 71.971
230.019, 84.920
231.397, 122.631
232.774, 80.792
234.151, 109.229
235.528, 27.311
236.904, 73.873
238.281, 71.479
239.656, 90.790
241.032, 45.195
242.408, 91.828
243.783, 66.088
245.158, 44.311
246.533, 95.546
247.907, 2.074
249.282, 45.418
250.656, 19.001
252.029, 54.662
253.403, 30.394
254.776, 52.191
256.149, 35.042
257.522, 9.935
258.895, 41.860
260.267, 13.812
261.639, 12.218
263.011, 15.238
264.382, 2.257
265.754, 27.719
267.125, 32.686
268.496, 36.636
269.866, 13.559
271.237, 32.449
272.607, 40.405
273.977, 28.680
275.346, 67.871
276.716, 25.576
278.085, 14.279
279.454, 30.405
280.823, 24.461
282.191, 32.412
283.559, 41.075
284.927, 14.049
286.295, 22.144
287.662, 24.299
289.030, 20.542
290.397, 21.177
291.763, 17.532
293.130, 10.274
294.496, 8.881
295.862, 21.044
297.228, 4.081
298.594, 22.272
299.959, 6.518
301.324, 5.282
302.689, 28.740
304.053, 37.060
305.418, 0.459
306.782, 25.578
308.146, 3.642
309.509, 55.353
310.873, 42.189
312.236, 65.755
313.599, 73.146
314.961, 91.473
316.324, 124.795
317.686, 204.114
319.048, 241.414
320.409, 295.700
321.771, 378.954
323.132, 434.195
324.493, 499.425
325.854, 547.639
327.214, 503.825
328.574, 494.993
329.934, 555.773
331.294, 528.157
332.654, 543.092
334.013, 631.711
335.372, 694.397
336.731, 1049.298
338.089, 1059.652
339.448, 1120.870
340.806, 1371.878
342.164, 1392.307
343.521, 1398.723
344.879, 1492.808
346.236, 1227.519
347.593, 1023.049
348.949, 757.371
350.306, 666.592
351.662, 595.737
353.018, 569.793
354.373, 613.719
355.729, 657.507
357.084, 678.274
358.439, 731.876
359.794, 671.262
361.148, 646.553
362.503, 574.694
363.857, 452.561
365.210, 463.479
366.564, 336.260
367.917, 407.021
369.270, 349.656
370.623, 342.087
371.976, 456.330
373.328, 520.266
374.680, 662.166
376.032, 851.825
377.384, 1144.511
378.735, 1409.112
380.086, 1525.384
381.437, 1547.531
382.788, 1428.553
384.138, 1166.486
385.488, 907.435
386.838, 649.003
388.188, 487.465
389.538, 379.792
390.887, 294.082
392.236, 258.353
393.585, 256.569
394.933, 242.842
396.282, 270.795
397.630, 237.866
398.977, 279.153
400.325, 284.824
401.672, 266.424
403.020, 269.143
404.366, 212.444
405.713, 235.109
407.059, 208.532
408.406, 190.816
409.752, 224.431
411.097, 195.638
412.443, 181.835
413.788, 208.620
415.133, 161.865
416.478, 217.770
417.822, 209.946
419.167, 189.044
420.511, 210.618
421.854, 185.743
423.198, 186.433
424.541, 181.032
425.884, 164.466
427.227, 145.783
428.570, 119.128
429.912, 167.108
431.254, 180.509
432.596, 155.507
433.938, 167.718
435.280, 151.929
436.621, 181.546
437.962, 184.362
439.303, 208.035
440.643, 211.131
441.983, 214.406
443.323, 189.019
444.663, 223.681
446.003, 207.874
447.342, 266.978
448.681, 270.399
450.020, 280.532
451.359, 248.273
452.697, 266.272
454.035, 268.288
455.373, 273.357
456.711, 282.674
458.048, 305.898
459.386, 311.937
460.723, 304.230
462.059, 334.934
463.396, 337.352
464.732, 346.805
466.068, 330.636
467.404, 343.662
468.740, 377.183
470.075, 397.566
471.410, 434.208
472.745, 417.034
474.080, 455.403
475.414, 490.848
476.748, 429.147
478.082, 490.199
479.416, 483.285
480.749, 544.111
482.083, 510.721
483.416, 500.803
484.749, 537.739
486.081, 500.998
487.413, 477.603
488.745, 470.633
490.077, 468.486
491.409, 459.392
492.740, 420.728
494.072, 425.981
495.402, 388.069
496.733, 388.090
498.064, 376.637
499.394, 360.557
500.724, 353.710
502.054, 341.327
503.383, 339.094
504.712, 340.810
506.041, 354.476
507.370, 356.092
508.699, 316.659
510.027, 351.179
511.355, 306.886
512.683, 328.311
514.011, 298.688
515.338, 302.018
516.666, 267.302
517.993, 272.540
519.319, 291.732
520.646, 281.880
521.972, 293.984
523.298, 270.044
524.624, 278.061
525.950, 286.036
527.275, 242.968
528.600, 239.858
529.925, 243.772
531.250, 263.512
532.574, 262.279
533.898, 252.006
535.222, 266.695
536.546, 287.346
537.869, 287.960
539.193, 259.537
540.516, 239.078
541.839, 239.583
543.161, 259.053
544.484, 221.488
545.806, 260.889
547.128, 243.257
548.449, 268.592
549.771, 338.895
551.092, 321.128
552.413, 391.180
553.734, 459.195
555.054, 488.121
556.374, 502.901
557.694, 504.984
559.014, 466.980
560.334, 390.973
561.653, 320.861
562.972, 295.734
564.291, 230.345
565.610, 320.023
566.928, 199.565
568.247, 222.008
569.565, 240.564
570.882, 195.984
572.200, 200.321
573.517, 183.750
574.834, 191.958
576.151, 175.378
577.468, 139.741
578.784, 159.992
580.100, 133.314
581.416, 130.509
582.732, 104.685
584.047, 87.760
585.362, 68.313
586.677, 45.852
587.992, 24.678
589.307, 3.332
590.621, 19.753
591.935, 19.868
593.249, 19.704
594.563, 14.023
595.876, 3.725
597.189, 2.562
598.502, 29.797
599.815, 30.084
601.127, 6.424
602.440, 38.917
603.752, 15.336
605.064, 21.875
606.375, 26.222
607.686, 38.611
608.998, 35.025
610.308, 40.635
611.619, 5.237
612.930, 36.853
614.240, 0.507
615.550, 33.145
616.860, 5.725
618.169, 25.318
619.478, 4.966
620.787, 34.624
622.096, 45.326
623.405, 35.510
624.713, 68.880
626.021, 20.738
627.329, 50.633
628.637, 36.574
629.945, 43.559
631.252, 18.590
632.559, 20.653
633.866, 17.750
635.172, 44.878
636.479, 26.051
637.785, 37.260
639.091, 33.193
640.396, 26.670
641.702, 26.125
643.007, 15.483
644.312, 23.867
645.617, 14.282
646.921, 12.577
648.226, 16.184
649.530, 1.671
650.834, 1.177
652.137, 13.301
653.441, 13.145
654.744, 18.792
656.047, 13.634
657.350, 18.955
658.652, 21.564
659.954, 5.808
661.256, 22.167
662.558, 35.513
663.860, 45.846
665.161, 7.169
666.462, 40.480
667.763, 15.221
669.064, 23.066
670.365, 64.342
671.665, 62.609
672.965, 63.866
674.265, 71.002
675.564, 72.104
676.864, 89.391
678.163, 85.585
679.462, 93.802
680.760, 110.947
682.059, 129.127
683.357, 112.324
684.655, 155.361
685.953, 115.387
687.250, 118.432
688.548, 172.563
689.845, 158.693
691.142, 177.784
692.438, 174.942
693.735, 192.020
695.031, 241.265
696.327, 224.409
697.623, 253.475
698.918, 255.549
700.214, 291.703
701.509, 282.716
702.804, 280.869
704.098, 336.991
705.393, 292.143
706.687, 384.296
707.981, 372.449
709.275, 364.605
710.568, 385.763
711.861, 353.924
713.155, 387.087
714.447, 360.253
715.740, 382.423
717.032, 335.595
718.325, 385.772
719.617, 392.952
720.908, 410.138
722.200, 391.329
723.491, 408.453
724.782, 421.657
726.073, 400.867
727.364, 479.025
728.654, 466.219
729.944, 484.361
731.234, 569.556
732.524, 539.699
733.814, 555.712
735.103, 608.828
736.392, 605.852
737.681, 634.884
738.969, 602.828
740.258, 610.722
741.546, 629.522
742.834, 636.027
744.122, 689.935
745.409, 608.448
746.697, 640.995
747.984, 704.599
749.270, 639.281
750.557, 703.387
751.844, 640.671
753.130, 663.637
754.416, 693.964
755.701, 717.347
756.987, 772.288
758.272, 727.267
759.557, 699.802
760.842, 773.006
762.127, 739.017
763.411, 734.330
764.695, 719.951
765.979, 761.305
767.263, 806.966
768.547, 721.729
769.830, 790.861
771.113, 748.034
772.396, 748.018
773.679, 855.863
774.961, 798.078
776.243, 825.524
777.525, 903.393
778.807, 908.973
780.089, 922.555
781.370, 887.258
782.651, 946.187
783.932, 1007.107
785.213, 978.699
786.493, 1057.965
787.773, 1141.207
789.053, 1164.741
790.333, 1187.685
791.613, 1298.920
792.892, 1276.562
794.171, 1336.578
795.450, 1490.125
796.729, 1543.818
798.007, 1561.187
799.285, 1698.205
800.563, 1837.802
801.841, 1888.546
803.119, 2003.219
804.396, 2121.999
805.673, 2204.732
806.950, 2369.172
808.227, 2499.655
809.504, 2632.601
810.780, 3059.151
812.056, 3253.226
813.332, 3709.278
814.607, 4211.937
815.883, 4875.643
817.158, 6088.391
818.433, 7265.184
819.708, 9381.015
820.982, 12577.879
822.256, 16404.539
823.531, 20621.486
824.804, 25078.477
826.078, 28145.510
827.352, 27992.592
828.625, 26289.711
829.898, 23706.877
831.170, 21764.086
832.443, 20901.334
833.715, 21758.623
834.988, 22875.953
836.259, 24863.340
837.531, 26090.775
838.803, 26368.248
840.074, 26265.771
841.345, 26883.336
842.616, 27590.949
843.886, 29958.600
845.157, 31766.295
846.427, 32554.027
847.697, 32561.799
848.966, 29439.615
850.236, 24697.480
851.505, 20215.385
852.774, 15823.326
854.043, 12321.314
855.312, 10389.339
856.580, 8127.399
857.849, 6691.494
859.117, 5666.625
860.384, 4873.791
861.652, 4331.991
862.919, 3795.227
864.186, 3523.498
865.453, 3135.805
866.720, 2883.147
867.986, 2680.524
869.253, 2497.936
870.519, 2326.316
871.784, 2233.868
873.050, 2063.387
874.315, 1967.941
875.581, 1892.532
876.846, 1786.158
878.110, 1655.820
879.375, 1664.518
880.639, 1605.252
881.903, 1468.022
883.167, 1445.828
884.431, 1403.670
885.694, 1372.549
886.957, 1352.178
888.220, 1290.417
889.483, 1289.406
890.746, 1262.432
892.008, 1182.495
893.270, 1200.597
894.532, 1137.736
895.794, 1173.915
897.056, 1149.137
898.317, 1117.407
899.578, 1178.730
900.839, 1083.106
902.099, 1143.533
903.360, 1062.011
904.620, 1120.535
905.880, 1078.106
907.140, 1102.731
908.399, 1121.410
909.659, 1078.135
910.918, 1106.917
912.177, 1034.746
913.435, 982.627
914.694, 1012.558
915.952, 1022.544
917.210, 899.582
918.468, 1041.676
919.726, 881.812
920.983, 927.001
922.240, 972.234
923.497, 931.516
924.754, 957.069
926.011, 943.443
927.267, 1008.896
928.523, 953.410
929.779, 926.927
931.035, 995.494
932.290, 990.117
933.546, 987.020
934.801, 988.550
936.056, 894.750
937.310, 931.959
938.565, 857.817
939.819, 800.385
941.073, 815.161
942.327, 786.414
943.580, 752.444
944.833, 826.085
946.087, 701.047
947.340, 782.272
948.592, 718.945
949.845, 733.807
951.097, 719.273
952.349, 693.605
953.601, 721.211
954.853, 726.386
956.104, 746.792
957.355, 707.181
958.606, 720.648
959.857, 681.964
961.108, 699.495
962.358, 691.131
963.608, 633.823
964.858, 687.000
966.108, 631.302
967.357, 609.608
968.607, 560.208
969.856, 633.557
971.105, 646.404
972.353, 583.720
973.602, 627.872
974.850, 546.949
976.098, 591.400
977.346, 526.664
978.594, 548.895
979.841, 531.338
981.088, 567.597
982.335, 525.088
983.582, 456.027
984.828, 490.154
986.075, 450.603
987.321, 466.803
988.567, 443.083
989.812, 414.506
991.058, 392.455
992.303, 310.980
993.548, 281.193
994.793, 262.677
996.038, 300.917
997.282, 258.018
998.526, 270.555
999.770, 268.740
1001.014, 249.463
1002.258, 221.360
1003.501, 209.315
1004.744, 190.169
1005.987, 172.917
1007.230, 165.894
1008.473, 145.328
1009.715, 146.780
1010.957, 137.250
1012.199, 152.736
1013.441, 146.239
1014.682, 128.759
1015.923, 111.295
1017.164, 67.847
1018.405, 114.416
1019.646, 90.000
1020.886, 50.599
1022.127, 138.213
1023.367, 87.844
1024.606, 65.488
1025.846, 89.148
1027.085, 68.822
1028.325, 56.510
1029.564, 27.211
1030.802, 207.927
1032.041, 110.420
1033.279, 322.397
1034.517, 68.152
1035.755, 62.919
1036.993, 99.699
1038.230, 105.491
1039.468, 74.295
1040.705, 68.111
1041.942, 89.938
1043.178, 78.776
1044.415, 104.625
1045.651, 71.485
1046.887, 71.355
1048.123, 77.235
1049.358, 64.767
1050.594, 131.024
1051.829, 66.933
1053.064, 98.850
1054.299, 110.776
1055.533, 46.710
1056.768, 16.653
1058.002, 33.603
1059.236, 78.560
1060.469, 92.524
1061.703, 90.578
1062.936, 16.474
1064.169, 75.458
1065.402, 18.449
1066.635, 17.446
1067.867, 49.447
1069.100, 108.454
1070.332, 58.145
1071.564, 66.485
1072.795, 14.493
1074.027, 13.529
1075.258, 2.442
1076.489, 3.411
1077.720, 27.623
1078.950, 7.660
1080.181, 34.699
1081.411, 12.259
1082.641, 49.217
1083.871, 42.190
1085.100, 16.177
1086.330, 10.833
1087.559, 22.156
1088.788, 25.148
1090.016, 10.148
1091.245, 2.848
1092.473, 37.156
1093.701, 41.176
1094.929, 44.215
1096.157, 12.276
1097.384, 14.778
1098.612, 43.423
1099.839, 1.476
1101.066, 42.629
1102.292, 50.760
1103.519, 6.082
1104.745, 51.081
1105.971, 18.728
1107.197, 29.465
1108.423, 8.323
1109.648, 13.893
1110.873, 31.123
1112.098, 2.375
1113.323, 54.638
1114.548, 36.938
1115.772, 40.267
1116.996, 17.627
1118.220, 13.992
1119.444, 3.604
1120.667, 58.795
1121.891, 24.240
1123.114, 28.711
1124.337, 40.212
1125.560, 5.745
1126.782, 24.298
1128.004, 35.880
1129.227, 12.508
1130.448, 12.119
1131.670, 13.770
1132.892, 49.445
1134.113, 44.167
1135.334, 2.934
1136.555, 22.725
1137.776, 4.550
1138.996, 3.521
1140.216, 22.273
1141.436, 6.820
1142.656, 12.892
1143.876, 1.056
1145.095, 35.969
1146.315, 32.018
1147.534, 8.951
1148.753, 28.896
1149.971, 9.175
1151.190, 47.720
1152.408, 75.603
1153.626, 44.478
1154.844, 87.339
1156.061, 91.189
1157.279, 127.027
1158.496, 139.833
1159.713, 131.668
1160.930, 149.471
1162.146, 174.261
1163.363, 146.039
1164.579, 163.803
1165.795, 162.556
1167.010, 212.296
1168.226, 185.023
1169.441, 182.792
1170.657, 234.492
1171.871, 204.233
1173.086, 180.905
1174.301, 220.563
1175.515, 209.254
1176.729, 180.884
1177.943, 218.499
1179.157, 194.100
1180.370, 199.685
1181.584, 205.256
1182.797, 229.832
1184.010, 218.372
1185.222, 205.997
1186.435, 263.506
1187.647, 255.999
1188.859, 221.475
1190.071, 305.987
1191.283, 286.431
1192.494, 276.734
1193.706, 329.269
1194.917, 255.678
1196.128, 288.123
1197.338, 324.524
1198.549, 320.927
1199.759, 342.252
1200.969, 384.656
1202.179, 346.061
1203.389, 449.333
1204.598, 361.595
1205.807, 413.884
1207.016, 413.258
1208.225, 338.792
1209.434, 392.972
1210.642, 392.291
1211.850, 442.554
1213.058, 418.729
1214.266, 399.310
1215.474, 345.733
1216.681, 429.886
1217.889, 408.054
1219.096, 382.898
1220.302, 353.698
1221.509, 379.912
1222.715, 390.904
1223.922, 421.372
1225.128, 366.418
1226.334, 315.597
1227.539, 404.647
1228.745, 344.968
1229.950, 346.421
1231.155, 400.337
1232.360, 363.544
1233.564, 302.423
1234.769, 330.986
1235.973, 309.567
1237.177, 310.740
1238.381, 343.999
1239.584, 253.889
1240.787, 259.625
1241.991, 368.816
1243.194, 294.911
1244.396, 270.438
1245.599, 281.058
1246.801, 280.485
1248.004, 261.437
1249.206, 260.113
1250.407, 308.429
1251.609, 281.488
1252.810, 310.894
1254.012, 309.824
1255.212, 263.715
1256.413, 268.595
1257.614, 313.892
1258.814, 301.098
1260.014, 258.140
1261.214, 310.003
1262.414, 277.925
1263.614, 263.695
1264.813, 305.810
1266.012, 276.831
1267.211, 252.396
1268.410, 264.428
1269.609, 242.532
1270.807, 268.016
1272.005, 235.966
1273.203, 226.631
1274.401, 253.495
1275.598, 231.277
1276.796, 248.199
1277.993, 226.177
1279.190, 197.478
1280.387, 230.238
1281.583, 190.696
1282.780, 196.154
1283.976, 166.541
1285.172, 197.004
1286.368, 168.153
1287.563, 165.285
1288.759, 151.770
1289.954, 170.831
1291.149, 174.155
1292.343, 203.878
1293.538, 135.754
1294.732, 134.374
1295.927, 153.324
1297.121, 173.129
1298.314, 133.914
1299.508, 136.133
1300.701, 114.206
1301.895, 106.439
1303.087, 103.144
1304.280, 99.188
1305.473, 126.104
1306.665, 127.592
1307.857, 204.921
1309.049, 125.907
1310.241, 166.989
1311.433, 94.896
1312.624, 78.665
1313.815, 129.419
1315.006, 79.154
1316.197, 130.879
1317.388, 114.644
1318.578, 81.312
1319.768, 147.084
1320.958, 117.715
1322.148, 113.371
1323.338, 118.967
1324.527, 94.531
1325.716, 88.228
1326.906, 117.735
1328.094, 69.213
1329.283, 116.670
1330.471, 98.108
1331.660, 105.565
1332.848, 80.973
1334.035, 119.342
1335.223, 94.689
1336.411, 96.106
1337.598, 89.407
1338.785, 76.694
1339.972, 82.938
1341.158, 78.160
1342.345, 117.370
1343.531, 69.550
1344.717, 64.746
1345.903, 107.873
1347.089, 89.980
1348.274, 79.090
1349.459, 57.149
1350.644, 39.185
1351.829, 105.291
1353.014, 56.410
1354.198, 62.376
1355.383, 80.393
1356.567, 29.313
1357.751, 38.208
1358.934, 71.134
1360.118, 62.984
1361.301, 80.813
1362.484, 13.622
1363.667, 42.406
1364.850, 73.169
1366.032, 23.956
1367.215, 61.609
1368.397, 40.394
1369.579, 29.987
1370.760, 44.549
1371.942, 70.082
1373.123, 23.583
1374.304, 28.028
1375.485, 10.634
1376.666, 15.010
1377.847, 61.111
1379.027, 23.410
1380.207, 56.702
1381.387, 73.996
1382.567, 53.281
1383.747, 81.267
1384.926, 63.501
1386.105, 59.131
1387.284, 73.393
1388.463, 57.940
1389.641, 42.895
1390.820, 53.175
1391.998, 5.457
1393.176, 12.739
1394.354, 5.050
1395.532, 17.377
1396.709, 13.877
1397.886, 12.067
1399.063, 18.436
1400.240, 16.855
1401.417, 31.304
1402.593, 21.769
1403.769, 44.249
1404.945, 12.739
1406.121, 27.262
1407.297, 76.796
1408.472, 13.328
1409.648, 25.843
1410.823, 5.657
1411.998, 10.827
1413.172, 40.298
1414.347, 14.244
1415.521, 53.198
1416.695, 12.552
1417.869, 0.104
1419.043, 43.237
1420.216, 34.634
1421.390, 42.021
1422.563, 40.371
1423.736, 56.594
1424.909, 4.958
1426.081, 20.241
1427.254, 24.597
1428.426, 72.926
1429.598, 32.105
1430.770, 31.357
1431.941, 45.363
1433.113, 61.697
1434.284, 15.698
1435.455, 36.483
1436.626, 61.358
1437.796, 2.208
1438.967, 64.390
1440.137, 28.444
1441.307, 46.880
1442.477, 63.126
1443.646, 39.738
1444.816, 69.897
1445.985, 68.162
1447.154, 43.220
1448.323, 93.081
1449.492, 36.248
1450.660, 23.184
1451.829, 49.270
1452.997, 81.246
1454.165, 100.893
1455.332, 81.251
1456.500, 73.607
1457.667, 58.587
1458.834, 79.480
1460.001, 45.855
1461.168, 80.571
1462.335, 63.540
1463.501, 73.129
1464.667, 84.036
1465.833, 33.846
1466.999, 102.437
1468.165, 65.292
1469.330, 71.462
1470.495, 95.645
1471.660, 53.616
1472.825, 58.537
1473.990, 73.493
1475.154, 66.923
1476.318, 38.896
1477.482, 73.390
1478.646, 54.589
1479.810, 60.312
1480.974, 63.512
1482.137, 54.466
1483.300, 66.531
1484.463, 44.443
1485.626, 70.538
1486.788, 71.015
1487.950, 47.047
1489.113, 75.831
1490.275, 76.860
1491.436, 29.042
1492.598, 20.437
1493.759, 78.761
1494.920, 11.236
1496.081, 72.893
1497.242, 64.467
1498.403, 35.563
1499.563, 58.862
1500.724, 72.049
1501.884, 55.996
1503.043, 79.064
1504.203, 97.416
1505.363, 34.267
1506.522, 61.968
1507.681, 6.618
1508.840, 36.017
1509.999, 92.513
1511.157, 56.006
1512.315, 54.355
1513.474, 50.046
1514.632, 0.230
1515.789, 20.155
1516.947, 0.000
##END=



