##NAMES=Crocoite
##RRUFFID=R050044
##IDEAL CHEMISTRY=Pb^2+^Cr^6+^O_4_
##LOCALITY=Red Ledge mine, Dundas, Tasmania
##OWNER=RRUFF
##SOURCE=Eugene Schlepp
##DESCRIPTION=Red crystal fragment
##STATUS=The identification of this mineral has been confirmed by X-ray diffraction and chemical analysis
##URL=rruff.info/R050044
##MEASURED CHEMISTRY=Pb_1.02_Cr_0.99_O_4_
##PIN_ID=L00130
##ORIENTATION=Laser parallel to b* (0 1 0). Fiducial mark perpendicular to laser is parallel to -c [0 0 -1]
159.444, 0.000
160.834, 8.574
162.224, 92.014
163.613, 72.831
165.002, 50.149
166.391, 94.313
167.780, 45.391
169.169, 40.861
170.557, 9.841
171.945, 42.553
173.333, 132.079
174.720, 77.929
176.108, 101.556
177.495, 50.010
178.881, 73.473
180.268, 78.126
181.654, 62.611
183.040, 158.411
184.426, 95.942
185.812, 120.094
187.197, 99.289
188.582, 176.171
189.967, 102.854
191.351, 157.888
192.736, 147.509
194.120, 160.155
195.504, 170.601
196.887, 105.601
198.271, 175.607
199.654, 163.500
201.036, 177.346
202.419, 121.980
203.801, 167.257
205.184, 101.763
206.565, 96.835
207.947, 117.322
209.328, 101.169
210.710, 93.306
212.090, 140.650
213.471, 113.633
214.851, 126.467
216.232, 49.736
217.611, 194.120
218.991, 86.609
220.370, 141.356
221.750, 69.559
223.129, 121.534
224.507, 78.765
225.886, 87.792
227.264, 109.247
228.642, 100.456
230.019, 130.684
231.397, 129.158
232.774, 120.540
234.151, 152.155
235.528, 129.521
236.904, 83.983
238.281, 39.915
239.656, 74.609
241.032, 20.066
242.408, 50.564
243.783, 62.193
245.158, 79.925
246.533, 98.739
247.907, 70.612
249.282, 35.538
250.656, 43.523
252.029, 66.554
253.403, 34.633
254.776, 68.750
256.149, 58.896
257.522, 48.068
258.895, 84.260
260.267, 74.466
261.639, 35.673
263.011, 12.876
264.382, 48.932
265.754, 34.747
267.125, 6.422
268.496, 19.739
269.866, 68.684
271.237, 15.239
272.607, 40.797
273.977, 39.785
275.346, 11.720
276.716, 41.602
278.085, 20.431
279.454, 5.208
280.823, 48.932
282.191, 52.592
283.559, 54.188
284.927, 13.733
286.295, 38.247
287.662, 77.723
289.030, 92.423
290.397, 30.934
291.763, 9.370
293.130, 44.500
294.496, 40.134
295.862, 35.200
297.228, 93.152
298.594, 52.601
299.959, 81.096
301.324, 104.533
302.689, 117.113
304.053, 89.916
305.418, 78.823
306.782, 104.603
308.146, 102.524
309.509, 160.365
310.873, 152.141
312.236, 178.986
313.599, 233.899
314.961, 237.968
316.324, 239.103
317.686, 240.129
319.048, 276.020
320.409, 409.921
321.771, 473.776
323.132, 515.489
324.493, 471.552
325.854, 560.192
327.214, 604.523
328.574, 672.666
329.934, 691.171
331.294, 767.740
332.654, 753.103
334.013, 923.190
335.372, 1029.204
336.731, 1166.171
338.089, 1518.293
339.448, 1618.322
340.806, 1729.373
342.164, 1703.867
343.521, 1665.548
344.879, 1522.643
346.236, 1373.148
347.593, 1293.779
348.949, 1158.213
350.306, 1291.439
351.662, 1256.889
353.018, 1380.239
354.373, 1605.921
355.729, 1797.157
357.084, 2039.254
358.439, 2514.113
359.794, 2660.808
361.148, 2718.068
362.503, 2517.551
363.857, 2326.786
365.210, 2107.782
366.564, 1714.605
367.917, 1542.936
369.270, 1377.114
370.623, 1344.661
371.976, 1305.654
373.328, 1531.162
374.680, 1866.623
376.032, 2241.728
377.384, 2528.040
378.735, 2643.095
380.086, 2664.447
381.437, 2241.516
382.788, 1901.985
384.138, 1456.415
385.488, 1104.642
386.838, 940.843
388.188, 805.760
389.538, 693.642
390.887, 582.571
392.236, 537.432
393.585, 529.973
394.933, 543.153
396.282, 601.913
397.630, 746.756
398.977, 816.463
400.325, 881.899
401.672, 922.905
403.020, 991.188
404.366, 775.856
405.713, 664.209
407.059, 564.569
408.406, 484.350
409.752, 423.907
411.097, 383.819
412.443, 349.253
413.788, 326.371
415.133, 323.562
416.478, 269.346
417.822, 341.421
419.167, 302.095
420.511, 366.116
421.854, 263.028
423.198, 245.547
424.541, 307.051
425.884, 325.943
427.227, 274.136
428.570, 293.010
429.912, 221.463
431.254, 253.274
432.596, 303.086
433.938, 192.246
435.280, 300.192
436.621, 240.854
437.962, 254.087
439.303, 253.733
440.643, 299.492
441.983, 371.060
443.323, 368.158
444.663, 446.688
446.003, 342.594
447.342, 433.407
448.681, 326.131
450.020, 381.624
451.359, 391.498
452.697, 437.452
454.035, 380.721
455.373, 489.126
456.711, 404.945
458.048, 478.662
459.386, 455.624
460.723, 429.692
462.059, 433.825
463.396, 451.441
464.732, 454.066
466.068, 420.550
467.404, 497.401
468.740, 427.307
470.075, 446.618
471.410, 506.819
472.745, 448.530
474.080, 534.664
475.414, 560.649
476.748, 490.062
478.082, 457.252
479.416, 450.892
480.749, 530.539
482.083, 546.339
483.416, 552.741
484.749, 525.138
486.081, 503.156
487.413, 467.099
488.745, 440.970
490.077, 518.771
491.409, 462.500
492.740, 423.157
494.072, 500.782
495.402, 367.300
496.733, 424.753
498.064, 417.138
499.394, 390.452
500.724, 380.698
502.054, 433.873
503.383, 382.981
504.712, 291.022
506.041, 356.989
507.370, 347.889
508.699, 345.720
510.027, 389.482
511.355, 297.179
512.683, 305.806
514.011, 403.364
515.338, 288.858
516.666, 290.284
517.993, 306.642
519.319, 320.934
520.646, 357.160
521.972, 323.323
523.298, 356.422
524.624, 403.458
525.950, 362.433
527.275, 273.347
528.600, 244.196
529.925, 324.980
531.250, 246.704
532.574, 291.365
533.898, 271.964
535.222, 353.503
536.546, 250.984
537.869, 275.405
539.193, 296.767
540.516, 284.074
541.839, 294.323
543.161, 342.517
544.484, 273.656
545.806, 370.740
547.128, 394.772
548.449, 401.751
549.771, 471.680
551.092, 472.555
552.413, 677.379
553.734, 625.152
555.054, 705.873
556.374, 613.543
557.694, 489.162
559.014, 487.731
560.334, 354.250
561.653, 384.722
562.972, 351.145
564.291, 197.522
565.610, 199.848
566.928, 164.125
568.247, 115.347
569.565, 136.509
570.882, 96.615
572.200, 163.661
573.517, 170.656
574.834, 42.603
576.151, 101.268
577.468, 72.083
578.784, 86.758
580.100, 63.451
581.416, 41.833
582.732, 54.066
584.047, 3.511
585.362, 37.890
586.677, 30.968
587.992, 10.156
589.307, 36.104
590.621, 51.335
591.935, 42.491
593.249, 17.709
594.563, 45.642
595.876, 112.363
597.189, 114.197
598.502, 12.202
599.815, 1.103
601.127, 32.785
602.440, 89.576
603.752, 18.459
605.064, 29.588
606.375, 24.628
607.686, 97.002
608.998, 72.288
610.308, 150.655
611.619, 83.123
612.930, 33.824
614.240, 60.458
615.550, 47.243
616.860, 29.040
618.169, 103.905
619.478, 119.878
620.787, 127.974
622.096, 146.168
623.405, 7.486
624.713, 129.985
626.021, 51.459
627.329, 14.145
628.637, 122.793
629.945, 71.480
631.252, 14.332
632.559, 46.134
633.866, 39.993
635.172, 19.904
636.479, 9.909
637.785, 32.969
639.091, 16.605
640.396, 7.494
641.702, 10.163
643.007, 22.708
644.312, 35.554
645.617, 43.374
646.921, 5.098
648.226, 5.869
649.530, 58.615
650.834, 0.220
652.137, 78.920
653.441, 135.265
654.744, 149.839
656.047, 165.371
657.350, 169.581
658.652, 123.142
659.954, 155.718
661.256, 91.073
662.558, 94.910
663.860, 154.145
665.161, 76.337
666.462, 208.516
667.763, 172.875
669.064, 140.785
670.365, 163.774
671.665, 237.188
672.965, 230.052
674.265, 235.343
675.564, 294.953
676.864, 209.030
678.163, 262.263
679.462, 267.360
680.760, 256.602
682.059, 316.975
683.357, 331.257
684.655, 405.123
685.953, 449.764
687.250, 343.920
688.548, 497.626
689.845, 409.667
691.142, 479.632
692.438, 470.962
693.735, 595.805
695.031, 589.840
696.327, 590.981
697.623, 668.089
698.918, 653.259
700.214, 703.629
701.509, 711.754
702.804, 660.136
704.098, 835.524
705.393, 722.920
706.687, 770.325
707.981, 811.739
709.275, 770.162
710.568, 731.597
711.861, 779.042
713.155, 846.498
714.447, 865.968
715.740, 983.450
717.032, 820.946
718.325, 840.456
719.617, 927.980
720.908, 886.176
722.200, 902.438
723.491, 902.405
724.782, 986.619
726.073, 812.317
727.364, 1096.251
728.654, 932.467
729.944, 1021.798
731.234, 1069.188
732.524, 1087.608
733.814, 1072.325
735.103, 1033.575
736.392, 1133.221
737.681, 1199.157
738.969, 1145.701
740.258, 1100.484
741.546, 1218.624
742.834, 1231.946
744.122, 1247.960
745.409, 1258.233
746.697, 1261.690
747.984, 1365.846
749.270, 1266.847
750.557, 1474.101
751.844, 1358.321
753.130, 1294.582
754.416, 1476.405
755.701, 1447.088
756.987, 1596.947
758.272, 1512.408
759.557, 1594.502
760.842, 1668.074
762.127, 1555.133
763.411, 1682.828
764.695, 1706.257
765.979, 1734.952
767.263, 1732.076
768.547, 1771.570
769.830, 1786.514
771.113, 1837.386
772.396, 1838.693
773.679, 1883.504
774.961, 1928.521
776.243, 1972.780
777.525, 2045.032
778.807, 2053.748
780.089, 2167.997
781.370, 2113.398
782.651, 2215.371
783.932, 2261.756
785.213, 2205.593
786.493, 2408.119
787.773, 2463.021
789.053, 2648.509
790.333, 2565.223
791.613, 2922.487
792.892, 2808.870
794.171, 3016.105
795.450, 3173.744
796.729, 3331.395
798.007, 3518.103
799.285, 3687.499
800.563, 3865.651
801.841, 3853.867
803.119, 4012.168
804.396, 4070.537
805.673, 4418.938
806.950, 4787.445
808.227, 4846.022
809.504, 5024.670
810.780, 5673.388
812.056, 5692.178
813.332, 6331.038
814.607, 7049.979
815.883, 7538.991
817.158, 8788.090
818.433, 9677.266
819.708, 11446.518
820.982, 13925.843
822.256, 16465.248
823.531, 18994.744
824.804, 22124.334
826.078, 24744.000
827.352, 26273.773
828.625, 27223.619
829.898, 27683.566
831.170, 29343.619
832.443, 31403.752
833.715, 35213.996
834.988, 39344.340
836.259, 44754.828
837.531, 50695.434
838.803, 55016.109
840.074, 57336.941
841.345, 57337.879
842.616, 54638.934
843.886, 50710.105
845.157, 46661.371
846.427, 40892.723
847.697, 37254.207
848.966, 32425.795
850.236, 27747.490
851.505, 24649.281
852.774, 21001.182
854.043, 18683.227
855.312, 17285.354
856.580, 14717.614
857.849, 13229.966
859.117, 11512.397
860.384, 10394.926
861.652, 9207.552
862.919, 8270.271
864.186, 7483.075
865.453, 6695.977
866.720, 6198.963
867.986, 5562.039
869.253, 5255.197
870.519, 4888.451
871.784, 4461.793
873.050, 4295.222
874.315, 4008.753
875.581, 3612.359
876.846, 3836.055
878.110, 3339.855
879.375, 3463.747
880.639, 3307.731
881.903, 3001.804
883.167, 3055.964
884.431, 2770.225
885.694, 2664.577
886.957, 2759.025
888.220, 2653.604
889.483, 2658.241
890.746, 2612.979
892.008, 2507.812
893.270, 2462.757
894.532, 2457.800
895.794, 2522.959
897.056, 2238.222
898.317, 2153.602
899.578, 2349.102
900.839, 2134.719
902.099, 2340.436
903.360, 2126.271
904.620, 2222.239
905.880, 2068.342
907.140, 2234.553
908.399, 2080.864
909.659, 1947.288
910.918, 2203.838
912.177, 2000.947
913.435, 1897.711
914.694, 1914.582
915.952, 1961.576
917.210, 1678.689
918.468, 1865.939
919.726, 1603.310
920.983, 1523.785
922.240, 1658.372
923.497, 1500.066
924.754, 1633.863
926.011, 1336.780
927.267, 1388.822
928.523, 1332.990
929.779, 1227.286
931.035, 1343.676
932.290, 1372.189
933.546, 1218.805
934.801, 1198.746
936.056, 1126.572
937.310, 1204.502
938.565, 1027.521
939.819, 891.636
941.073, 1150.846
942.327, 841.143
943.580, 860.524
944.833, 1069.996
946.087, 752.553
947.340, 1042.193
948.592, 734.917
949.845, 817.968
951.097, 699.853
952.349, 803.818
953.601, 797.146
954.853, 753.271
956.104, 761.475
957.355, 743.758
958.606, 720.353
959.857, 670.558
961.108, 689.074
962.358, 647.668
963.608, 647.339
964.858, 749.516
966.108, 602.340
967.357, 641.292
968.607, 481.022
969.856, 774.073
971.105, 604.432
972.353, 589.630
973.602, 663.048
974.850, 573.931
976.098, 545.349
977.346, 567.640
978.594, 454.201
979.841, 488.768
981.088, 526.968
982.335, 429.739
983.582, 519.857
984.828, 444.885
986.075, 359.923
987.321, 436.044
988.567, 265.586
989.812, 375.172
991.058, 168.611
992.303, 297.871
993.548, 233.324
994.793, 285.709
996.038, 183.709
997.282, 204.376
998.526, 238.686
999.770, 264.040
1001.014, 93.146
1002.258, 53.390
1003.501, 280.483
1004.744, 104.404
1005.987, 146.745
1007.230, 85.046
1008.473, 9.129
1009.715, 78.697
1010.957, 59.797
1012.199, 99.050
1013.441, 146.179
1014.682, 90.275
1015.923, 153.686
1017.164, 178.861
1018.405, 230.378
1019.646, 38.750
1020.886, 19.384
1022.127, 74.821
1023.367, 5.500
1024.606, 62.280
1025.846, 67.115
1027.085, 152.953
1028.325, 13.881
1029.564, 59.856
1030.802, 76.874
1032.041, 17.936
1033.279, 81.048
1034.517, 55.202
1035.755, 39.404
1036.993, 1.354
1038.230, 151.927
1039.468, 89.250
1040.705, 19.609
1041.942, 141.010
1043.178, 81.447
1044.415, 161.923
1045.651, 118.440
1046.887, 35.992
1048.123, 7.580
1049.358, 85.206
1050.594, 116.864
1051.829, 128.563
1053.064, 111.297
1054.299, 194.062
1055.533, 151.864
1056.768, 13.697
1058.002, 157.557
1059.236, 235.447
1060.469, 35.633
1061.703, 81.309
1062.936, 133.280
1064.169, 9.276
1065.402, 159.298
1066.635, 93.342
1067.867, 117.409
1069.100, 92.499
1070.332, 72.610
1071.564, 71.742
1072.795, 13.895
1074.027, 136.068
1075.258, 10.261
1076.489, 123.472
1077.720, 213.701
1078.950, 105.948
1080.181, 135.210
1081.411, 170.489
1082.641, 15.202
1083.871, 86.116
1085.100, 65.450
1086.330, 116.797
1087.559, 49.154
1088.788, 62.527
1090.016, 156.912
1091.245, 104.309
1092.473, 24.719
1093.701, 64.136
1094.929, 69.559
1096.157, 11.990
1097.384, 9.575
1098.612, 87.860
1099.839, 222.302
1101.066, 85.255
1102.292, 51.164
1103.519, 119.587
1104.745, 18.012
1105.971, 138.439
1107.197, 67.866
1108.423, 86.293
1109.648, 76.721
1110.873, 14.146
1112.098, 29.429
1113.323, 17.981
1114.548, 39.612
1115.772, 9.218
1116.996, 19.165
1118.220, 6.542
1119.444, 94.911
1120.667, 70.725
1121.891, 57.405
1123.114, 44.883
1124.337, 94.836
1125.560, 60.384
1126.782, 56.402
1128.004, 101.235
1129.227, 39.864
1130.448, 127.047
1131.670, 105.043
1132.892, 153.098
1134.113, 151.253
1135.334, 3.176
1136.555, 186.104
1137.776, 147.103
1138.996, 19.609
1140.216, 158.157
1141.436, 16.297
1142.656, 37.619
1143.876, 136.108
1145.095, 58.367
1146.315, 39.187
1147.534, 15.149
1148.753, 48.882
1149.971, 206.732
1151.190, 99.829
1152.408, 125.396
1153.626, 12.244
1154.844, 122.558
1156.061, 12.604
1157.279, 11.759
1158.496, 49.878
1159.713, 57.317
1160.930, 13.478
1162.146, 107.969
1163.363, 67.451
1164.579, 181.050
1165.795, 20.989
1167.010, 164.463
1168.226, 76.732
1169.441, 72.164
1170.657, 253.545
1171.871, 172.296
1173.086, 27.453
1174.301, 179.110
1175.515, 148.282
1176.729, 172.488
1177.943, 142.188
1179.157, 153.580
1180.370, 185.637
1181.584, 170.972
1182.797, 195.633
1184.010, 240.949
1185.222, 228.932
1186.435, 244.617
1187.647, 274.534
1188.859, 267.516
1190.071, 319.940
1191.283, 246.161
1192.494, 283.591
1193.706, 312.354
1194.917, 312.123
1196.128, 360.086
1197.338, 402.638
1198.549, 470.387
1199.759, 417.097
1200.969, 521.497
1202.179, 396.235
1203.389, 590.623
1204.598, 341.835
1205.807, 520.611
1207.016, 485.935
1208.225, 357.426
1209.434, 578.587
1210.642, 471.292
1211.850, 503.342
1213.058, 578.493
1214.266, 447.975
1215.474, 452.166
1216.681, 545.167
1217.889, 572.818
1219.096, 449.948
1220.302, 553.255
1221.509, 521.270
1222.715, 492.421
1223.922, 553.904
1225.128, 487.568
1226.334, 451.989
1227.539, 423.155
1228.745, 464.416
1229.950, 435.836
1231.155, 470.756
1232.360, 521.974
1233.564, 408.729
1234.769, 406.636
1235.973, 551.701
1237.177, 369.048
1238.381, 501.354
1239.584, 393.153
1240.787, 395.504
1241.991, 566.235
1243.194, 441.807
1244.396, 428.953
1245.599, 539.547
1246.801, 451.751
1248.004, 429.093
1249.206, 519.632
1250.407, 433.523
1251.609, 518.906
1252.810, 408.541
1254.012, 469.195
1255.212, 498.473
1256.413, 484.986
1257.614, 465.754
1258.814, 492.873
1260.014, 435.709
1261.214, 523.432
1262.414, 508.486
1263.614, 381.788
1264.813, 570.092
1266.012, 377.864
1267.211, 465.280
1268.410, 500.137
1269.609, 343.391
1270.807, 508.450
1272.005, 408.091
1273.203, 353.483
1274.401, 477.996
1275.598, 347.116
1276.796, 464.471
1277.993, 427.759
1279.190, 212.718
1280.387, 508.181
1281.583, 226.881
1282.780, 327.977
1283.976, 307.373
1285.172, 195.246
1286.368, 185.643
1287.563, 299.162
1288.759, 47.846
1289.954, 140.415
1291.149, 279.404
1292.343, 122.694
1293.538, 206.053
1294.732, 136.339
1295.927, 243.162
1297.121, 324.288
1298.314, 133.366
1299.508, 155.930
1300.701, 216.064
1301.895, 54.341
1303.087, 288.303
1304.280, 69.526
1305.473, 52.885
1306.665, 203.903
1307.857, 47.058
1309.049, 21.146
1310.241, 179.430
1311.433, 53.111
1312.624, 176.207
1313.815, 176.829
1315.006, 33.346
1316.197, 99.802
1317.388, 130.253
1318.578, 91.599
1319.768, 182.255
1320.958, 120.469
1322.148, 35.623
1323.338, 198.064
1324.527, 35.083
1325.716, 192.208
1326.906, 192.110
1328.094, 87.915
1329.283, 260.981
1330.471, 87.664
1331.660, 167.286
1332.848, 116.850
1334.035, 65.358
1335.223, 149.804
1336.411, 128.192
1337.598, 82.523
1338.785, 143.781
1339.972, 41.983
1341.158, 76.103
1342.345, 160.165
1343.531, 42.170
1344.717, 147.105
1345.903, 200.440
1347.089, 95.263
1348.274, 128.008
1349.459, 122.858
1350.644, 69.484
1351.829, 205.042
1353.014, 117.542
1354.198, 210.979
1355.383, 176.529
1356.567, 125.859
1357.751, 155.134
1358.934, 180.355
1360.118, 98.525
1361.301, 145.477
1362.484, 118.688
1363.667, 147.683
1364.850, 125.621
1366.032, 94.802
1367.215, 188.633
1368.397, 91.420
1369.579, 6.680
1370.760, 194.002
1371.942, 79.648
1373.123, 114.918
1374.304, 223.999
1375.485, 50.243
1376.666, 100.909
1377.847, 83.022
1379.027, 61.974
1380.207, 150.839
1381.387, 281.622
1382.567, 135.326
1383.747, 253.961
1384.926, 223.523
1386.105, 144.000
1387.284, 265.395
1388.463, 94.705
1389.641, 103.940
1390.820, 239.094
1391.998, 146.169
1393.176, 269.178
1394.354, 184.145
1395.532, 168.632
1396.709, 248.014
1397.886, 180.940
1399.063, 78.919
1400.240, 268.167
1401.417, 5.148
1402.593, 145.458
1403.769, 235.961
1404.945, 118.529
1406.121, 144.247
1407.297, 225.357
1408.472, 5.795
1409.648, 219.762
1410.823, 158.283
1411.998, 144.414
1413.172, 325.775
1414.347, 142.365
1415.521, 218.397
1416.695, 235.796
1417.869, 34.345
1419.043, 216.083
1420.216, 80.553
1421.390, 88.531
1422.563, 250.320
1423.736, 172.825
1424.909, 146.593
1426.081, 258.360
1427.254, 119.531
1428.426, 182.829
1429.598, 220.856
1430.770, 103.184
1431.941, 294.037
1433.113, 209.011
1434.284, 159.700
1435.455, 212.840
1436.626, 127.123
1437.796, 40.241
1438.967, 304.754
1440.137, 151.823
1441.307, 138.298
1442.477, 242.763
1443.646, 58.792
1444.816, 251.433
1445.985, 178.944
1447.154, 181.651
1448.323, 200.829
1449.492, 255.100
1450.660, 71.927
1451.829, 199.540
1452.997, 146.273
1454.165, 251.111
1455.332, 234.450
1456.500, 32.190
1457.667, 305.589
1458.834, 332.588
1460.001, 95.786
1461.168, 378.247
1462.335, 279.301
1463.501, 94.999
1464.667, 277.979
1465.833, 141.013
1466.999, 199.987
1468.165, 213.498
1469.330, 91.811
1470.495, 309.424
1471.660, 271.298
1472.825, 179.386
1473.990, 361.189
1475.154, 179.819
1476.318, 182.101
1477.482, 214.879
1478.646, 244.954
1479.810, 157.542
1480.974, 250.973
1482.137, 162.146
1483.300, 291.345
1484.463, 209.245
1485.626, 57.555
1486.788, 237.697
1487.950, 212.965
1489.113, 108.838
1490.275, 354.518
1491.436, 153.325
1492.598, 195.933
1493.759, 359.939
1494.920, 106.769
1496.081, 190.538
1497.242, 338.253
1498.403, 173.006
1499.563, 226.913
1500.724, 234.915
1501.884, 155.998
1503.043, 264.013
1504.203, 222.628
1505.363, 24.847
1506.522, 360.906
1507.681, 200.699
1508.840, 120.659
1509.999, 277.088
1511.157, 220.329
1512.315, 97.059
1513.474, 233.913
1514.632, 5.590
1515.789, 170.226
1516.947, 0.000
##END=



