##NAMES=Crocoite
##RRUFFID=R040053
##IDEAL CHEMISTRY=Pb^2+^Cr^6+^O_4_
##LOCALITY=Dundas, Tasmania
##OWNER=RRUFF
##SOURCE=Bob Downs
##DESCRIPTION=Reddish-orange prismatic crystal
##STATUS=The identification of this mineral has been confirmed by X-ray diffraction and chemical analysis
##URL=rruff.info/R040053
##MEASURED CHEMISTRY=(Pb_.995_Mn_.005_)CrO_4_
##PIN_ID=L00142
##ORIENTATION=Laser parallel to c* (0 0 1). Fiducial mark perpendicular to laser is parallel to a [1 0 0]
66.157, 0.000
67.554, 91.469
68.952, 66.762
70.349, 6.916
71.747, 5.815
73.144, 46.126
74.540, 67.411
75.937, 250.754
77.333, 196.090
78.729, 382.904
80.125, 166.547
81.521, 143.733
82.916, 128.337
84.311, 179.287
85.706, 238.531
87.101, 244.035
88.496, 260.865
89.890, 404.161
91.284, 397.842
92.678, 552.810
94.071, 660.911
95.465, 618.012
96.858, 781.039
98.251, 918.098
99.644, 1089.192
101.036, 1107.381
102.428, 962.595
103.820, 772.876
105.212, 507.255
106.604, 433.582
107.995, 302.230
109.387, 262.492
110.777, 256.308
112.168, 208.107
113.559, 356.747
114.949, 478.455
116.339, 645.934
117.729, 516.351
119.119, 284.099
120.508, 212.348
121.897, 175.593
123.286, 220.548
124.675, 201.018
126.063, 253.912
127.452, 269.906
128.840, 350.621
130.228, 458.019
131.615, 480.673
133.003, 613.173
134.390, 708.785
135.777, 728.406
137.164, 716.408
138.550, 735.107
139.937, 680.271
141.323, 580.899
142.709, 569.277
144.094, 503.393
145.480, 437.486
146.865, 409.719
148.250, 412.852
149.635, 373.412
151.019, 354.042
152.403, 378.132
153.788, 303.882
155.171, 386.142
156.555, 287.171
157.939, 327.474
159.322, 385.244
160.705, 335.527
162.088, 351.293
163.470, 340.736
164.853, 301.577
166.235, 309.382
167.617, 301.601
168.998, 353.584
170.380, 339.411
171.761, 332.289
173.142, 314.777
174.523, 356.356
175.904, 318.512
177.284, 311.125
178.664, 349.950
180.044, 338.780
181.424, 363.268
182.803, 321.923
184.183, 345.297
185.562, 346.125
186.940, 303.612
188.319, 244.278
189.698, 197.240
191.076, 230.367
192.454, 196.943
193.831, 199.865
195.209, 190.552
196.586, 140.181
197.963, 156.747
199.340, 134.245
200.717, 135.675
202.093, 73.038
203.470, 79.334
204.846, 90.565
206.221, 117.730
207.597, 98.252
208.972, 87.857
210.347, 66.818
211.722, 63.703
213.097, 49.512
214.472, 48.245
215.846, 29.900
217.220, 35.474
218.594, 9.958
219.967, 42.359
221.341, 36.676
222.714, 67.513
224.087, 35.518
225.460, 126.087
226.832, 7.962
228.204, 21.096
229.577, 13.683
230.948, 83.654
232.320, 7.148
233.692, 39.290
235.063, 20.987
236.434, 34.871
237.805, 51.165
239.175, 43.037
240.545, 28.986
241.916, 58.014
243.286, 6.132
244.655, 33.332
246.025, 24.622
247.394, 51.005
248.763, 22.489
250.132, 5.933
251.501, 14.715
252.869, 34.517
254.237, 32.342
255.605, 63.715
256.973, 16.656
258.340, 28.667
259.708, 50.412
261.075, 28.268
262.442, 71.854
263.808, 23.521
265.175, 74.211
266.541, 95.551
267.907, 64.863
269.273, 74.946
270.639, 40.911
272.004, 95.860
273.369, 70.624
274.734, 80.284
276.099, 73.844
277.463, 104.289
278.828, 136.625
280.192, 110.855
281.556, 113.975
282.919, 104.000
284.283, 144.918
285.646, 121.742
287.009, 161.466
288.372, 183.095
289.734, 162.641
291.097, 175.183
292.459, 158.546
293.821, 168.807
295.183, 194.978
296.544, 150.063
297.905, 188.046
299.266, 160.935
300.627, 196.716
301.988, 203.458
303.348, 222.067
304.709, 222.596
306.069, 245.989
307.428, 282.392
308.788, 315.847
310.147, 323.638
311.507, 386.894
312.865, 344.788
314.224, 323.783
315.583, 345.401
316.941, 409.880
318.299, 415.135
319.657, 463.394
321.015, 478.485
322.372, 549.376
323.729, 686.486
325.086, 744.363
326.443, 827.935
327.800, 928.480
329.156, 939.672
330.512, 1082.964
331.868, 1296.125
333.224, 1727.372
334.579, 2309.594
335.935, 3343.614
337.290, 4639.758
338.645, 5303.818
339.999, 5162.848
341.354, 3690.853
342.708, 2510.673
344.062, 1833.595
345.416, 1735.355
346.769, 2222.879
348.123, 2677.678
349.476, 3021.172
350.829, 2275.756
352.182, 1620.846
353.534, 1189.720
354.887, 908.833
356.239, 903.550
357.591, 746.497
358.942, 732.246
360.294, 737.835
361.645, 687.429
362.996, 682.771
364.347, 675.224
365.698, 702.855
367.048, 693.583
368.398, 750.254
369.748, 927.183
371.098, 1106.973
372.448, 1629.697
373.797, 2334.236
375.146, 4148.623
376.495, 5924.743
377.844, 6222.919
379.192, 4783.749
380.540, 2871.747
381.889, 1835.973
383.236, 1177.899
384.584, 916.671
385.932, 764.839
387.279, 619.544
388.626, 598.095
389.973, 557.281
391.319, 553.582
392.666, 554.645
394.012, 465.039
395.358, 501.648
396.704, 480.669
398.049, 538.760
399.394, 499.843
400.740, 508.045
402.084, 507.479
403.429, 413.847
404.774, 436.291
406.118, 392.982
407.462, 387.060
408.806, 355.340
410.150, 369.450
411.493, 379.946
412.836, 321.864
414.179, 374.650
415.522, 335.250
416.865, 311.777
418.207, 328.576
419.549, 272.650
420.891, 323.303
422.233, 259.783
423.575, 301.482
424.916, 257.073
426.257, 226.372
427.598, 285.125
428.939, 266.721
430.279, 296.108
431.619, 306.462
432.959, 276.441
434.299, 313.957
435.639, 314.169
436.978, 308.099
438.318, 315.176
439.657, 301.829
440.996, 322.039
442.334, 308.838
443.673, 332.680
445.011, 330.785
446.349, 313.393
447.687, 377.530
449.024, 308.727
450.361, 354.036
451.699, 267.150
453.036, 293.801
454.372, 296.234
455.709, 299.864
457.045, 305.916
458.381, 297.368
459.717, 292.612
461.053, 287.664
462.388, 269.191
463.724, 279.876
465.059, 273.457
466.394, 308.850
467.728, 255.059
469.063, 246.139
470.397, 312.816
471.731, 262.917
473.065, 294.422
474.398, 223.321
475.732, 283.406
477.065, 300.307
478.398, 288.554
479.731, 266.196
481.063, 213.995
482.396, 255.327
483.728, 217.246
485.060, 203.484
486.391, 288.906
487.723, 244.086
489.054, 277.240
490.385, 231.364
491.716, 235.434
493.047, 247.148
494.377, 220.116
495.708, 242.050
497.038, 178.509
498.368, 223.372
499.697, 181.616
501.027, 164.411
502.356, 232.169
503.685, 182.485
505.014, 231.175
506.342, 236.958
507.671, 179.582
508.999, 239.254
510.327, 162.384
511.655, 207.907
512.982, 201.079
514.310, 166.546
515.637, 216.340
516.964, 154.856
518.291, 181.224
519.617, 143.737
520.944, 164.044
522.270, 168.320
523.596, 135.368
524.921, 184.585
526.247, 169.817
527.572, 198.981
528.897, 180.609
530.222, 163.658
531.547, 148.316
532.871, 124.971
534.196, 142.003
535.520, 152.008
536.844, 125.084
538.167, 125.041
539.491, 96.974
540.814, 140.882
542.137, 121.771
543.460, 125.635
544.783, 123.476
546.105, 117.617
547.427, 142.086
548.749, 116.853
550.071, 122.605
551.393, 128.344
552.714, 101.064
554.035, 166.787
555.356, 102.494
556.677, 104.193
557.998, 119.881
559.318, 71.562
560.638, 120.239
561.958, 89.912
563.278, 96.576
564.597, 81.240
565.917, 40.891
567.236, 105.533
568.555, 23.167
569.874, 50.796
571.192, 96.415
572.511, 62.997
573.829, 52.591
575.147, 65.167
576.464, 72.716
577.782, 44.268
579.099, 16.634
580.416, 60.149
581.733, 6.562
583.050, 65.874
584.366, 14.113
585.683, 21.213
586.999, 77.545
588.315, 29.789
589.630, 94.147
590.946, 15.505
592.261, 36.763
593.576, 28.086
594.891, 11.607
596.206, 40.668
597.520, 11.928
598.834, 4.167
600.148, 6.383
601.462, 43.424
602.776, 36.723
604.089, 22.146
605.402, 3.052
606.715, 0.018
608.028, 32.937
609.341, 16.933
610.653, 7.955
611.965, 8.907
613.277, 28.159
614.589, 50.262
615.901, 17.587
617.212, 36.579
618.523, 77.215
619.834, 1.998
621.145, 34.299
622.456, 0.409
623.766, 30.925
625.076, 11.254
626.386, 7.724
627.696, 0.750
629.006, 61.354
630.315, 44.121
631.624, 38.573
632.933, 28.699
634.242, 24.803
635.551, 56.666
636.859, 17.879
638.167, 19.492
639.475, 35.651
640.783, 24.040
642.090, 35.084
643.398, 17.855
644.705, 26.468
646.012, 21.672
647.318, 16.030
648.625, 20.098
649.931, 10.761
651.237, 50.416
652.543, 27.477
653.849, 9.374
655.155, 62.499
656.460, 61.443
657.765, 65.396
659.070, 38.160
660.375, 12.794
661.679, 11.034
662.984, 59.935
664.288, 16.080
665.592, 2.146
666.895, 15.124
668.199, 97.567
669.502, 18.550
670.805, 25.705
672.108, 12.018
673.411, 29.126
674.713, 15.494
676.016, 67.774
677.318, 54.762
678.620, 14.386
679.921, 24.970
681.223, 42.528
682.524, 1.765
683.825, 60.882
685.126, 10.656
686.427, 21.356
687.727, 106.990
689.028, 22.435
690.328, 93.038
691.628, 49.587
692.927, 5.816
694.227, 98.672
695.526, 50.166
696.825, 120.548
698.124, 62.121
699.423, 55.620
700.721, 116.142
702.020, 25.662
703.318, 113.166
704.616, 123.779
705.913, 33.294
707.211, 150.843
708.508, 36.426
709.805, 162.904
711.102, 124.666
712.399, 93.167
713.695, 173.684
714.992, 65.277
716.288, 93.676
717.584, 124.289
718.879, 83.783
720.175, 139.316
721.470, 35.794
722.765, 124.113
724.060, 147.712
725.355, 290.762
726.649, 187.153
727.944, 51.744
729.238, 163.207
730.532, 195.636
731.825, 77.132
733.119, 149.670
734.412, 118.101
735.705, 135.152
736.998, 144.676
738.291, 141.572
739.584, 287.157
740.876, 148.241
742.168, 202.587
743.460, 265.262
744.752, 179.751
746.043, 257.523
747.334, 213.808
748.626, 247.367
749.916, 256.903
751.207, 250.795
752.498, 269.413
753.788, 242.718
755.078, 281.695
756.368, 335.824
757.658, 241.892
758.947, 355.575
760.237, 286.056
761.526, 276.773
762.815, 341.722
764.104, 272.641
765.392, 389.605
766.680, 322.072
767.969, 414.605
769.257, 444.990
770.544, 391.031
771.832, 496.811
773.119, 408.800
774.406, 397.869
775.693, 543.309
776.980, 473.586
778.267, 614.012
779.553, 555.597
780.839, 577.434
782.125, 749.520
783.411, 655.119
784.697, 781.297
785.982, 772.308
787.267, 785.720
788.552, 953.832
789.837, 926.193
791.122, 1095.452
792.406, 1101.318
793.690, 1125.139
794.974, 1338.404
796.258, 1245.059
797.542, 1490.372
798.825, 1503.479
800.108, 1539.809
801.391, 1799.145
802.674, 1816.504
803.957, 2040.898
805.239, 2054.629
806.522, 2084.106
807.804, 2509.600
809.085, 2409.551
810.367, 2743.080
811.649, 3040.209
812.930, 3080.780
814.211, 3626.368
815.492, 3868.384
816.772, 4397.016
818.053, 5080.542
819.333, 5387.210
820.613, 6614.815
821.893, 7160.949
823.173, 8315.674
824.452, 9589.735
825.732, 9933.496
827.011, 11437.912
828.290, 12211.599
829.568, 12876.434
830.847, 14868.117
832.125, 15762.996
833.403, 18857.932
834.681, 22312.086
835.959, 25747.080
837.236, 32852.070
838.514, 36717.102
839.791, 41592.180
841.068, 41907.289
842.345, 37612.402
843.621, 35716.973
844.898, 30492.154
846.174, 28607.363
847.450, 27992.500
848.726, 26407.752
850.001, 28613.039
851.277, 29108.350
852.552, 30873.684
853.827, 33079.062
855.102, 31764.457
856.376, 33169.895
857.651, 30145.361
858.925, 27050.842
860.199, 25116.367
861.473, 20642.553
862.746, 18968.129
864.020, 16233.747
865.293, 14089.387
866.566, 12965.062
867.839, 11020.765
869.112, 10336.487
870.384, 9452.250
871.656, 8088.030
872.928, 7973.838
874.200, 6849.671
875.472, 6582.529
876.744, 6285.410
878.015, 5307.315
879.286, 5379.246
880.557, 4757.202
881.828, 4486.180
883.098, 4443.182
884.369, 3894.721
885.639, 4004.774
886.909, 3728.854
888.178, 3494.584
889.448, 3472.712
890.717, 3090.777
891.987, 3151.961
893.256, 2953.169
894.524, 2714.491
895.793, 2897.750
897.061, 2476.032
898.330, 2559.338
899.598, 2453.667
900.865, 2155.020
902.133, 2302.399
903.401, 2058.800
904.668, 1923.233
905.935, 1889.691
907.202, 1655.621
908.468, 1738.131
909.735, 1535.667
911.001, 1355.020
912.267, 1507.619
913.533, 1201.251
914.799, 1253.912
916.064, 1259.600
917.330, 1090.323
918.595, 1195.079
919.860, 952.858
921.124, 1047.773
922.389, 898.612
923.653, 893.491
924.918, 1009.393
926.182, 792.331
927.445, 799.432
928.709, 839.417
929.972, 677.436
931.236, 756.481
932.499, 646.559
933.761, 571.664
935.024, 677.796
936.286, 565.953
937.549, 596.131
938.811, 553.345
940.073, 482.593
941.334, 534.863
942.596, 416.163
943.857, 483.182
945.118, 456.531
946.379, 273.908
947.640, 459.306
948.900, 313.732
950.161, 332.180
951.421, 399.762
952.681, 205.256
953.940, 257.596
955.200, 227.136
956.459, 243.696
957.719, 202.506
958.978, 111.109
960.236, 219.732
961.495, 266.496
962.753, 168.160
964.012, 300.224
965.270, 137.942
966.527, 209.679
967.785, 229.403
969.043, 125.180
970.300, 238.990
971.557, 93.818
972.814, 106.665
974.071, 170.533
975.327, 46.419
976.583, 191.327
977.840, 192.259
979.095, 69.211
980.351, 247.672
981.607, 142.691
982.862, 97.714
984.117, 218.307
985.372, 119.365
986.627, 147.682
987.882, 140.775
989.136, 127.884
990.390, 167.123
991.644, 63.263
992.898, 142.048
994.152, 178.187
995.405, 78.375
996.659, 218.577
997.912, 80.794
999.165, 132.027
1000.417, 120.340
1001.670, 41.601
1002.922, 154.372
1004.174, 81.368
1005.426, 81.670
1006.678, 210.778
1007.930, 27.127
1009.181, 172.467
1010.432, 112.206
1011.683, 35.431
1012.934, 223.996
1014.185, 42.245
1015.435, 88.637
1016.685, 134.334
1017.935, 11.014
1019.185, 153.439
1020.435, 73.812
1021.684, 132.260
1022.934, 136.182
1024.183, 202.177
1025.432, 78.664
1026.680, 131.306
1027.929, 16.820
1029.177, 138.375
1030.425, 21.202
1031.673, 44.774
1032.921, 62.392
1034.169, 25.228
1035.416, 49.369
1036.663, 64.153
1037.911, 28.236
1039.157, 107.388
1040.404, 79.865
1041.650, 109.746
1042.897, 80.387
1044.143, 5.967
1045.389, 134.685
1046.634, 102.345
1047.880, 60.012
1049.125, 119.684
1050.371, 17.390
1051.615, 75.084
1052.860, 82.786
1054.105, 33.492
1055.349, 152.203
1056.593, 18.066
1057.837, 91.664
1059.081, 156.398
1060.325, 25.854
1061.568, 105.888
1062.812, 92.635
1064.055, 46.385
1065.298, 90.138
1066.540, 6.894
1067.783, 104.653
1069.025, 72.413
1070.267, 3.761
1071.509, 135.010
1072.751, 79.785
1073.993, 47.614
1075.234, 154.392
1076.475, 27.827
1077.716, 136.942
1078.957, 72.712
1080.198, 11.484
1081.438, 132.255
1082.679, 39.026
1083.919, 90.799
1085.159, 146.570
1086.398, 61.343
1087.638, 104.114
1088.877, 94.884
1090.116, 110.851
1091.355, 181.618
1092.594, 11.618
1093.833, 109.238
1095.071, 103.990
1096.309, 35.851
1097.547, 130.600
1098.785, 36.345
1100.023, 4.095
1101.260, 37.831
1102.498, 44.437
1103.735, 63.268
1104.972, 61.968
1106.208, 64.336
1107.445, 109.320
1108.681, 39.971
1109.918, 8.617
1111.154, 134.258
1112.389, 14.108
1113.625, 103.721
1114.860, 18.333
1116.096, 22.062
1117.331, 126.520
1118.566, 42.095
1119.800, 77.753
1121.035, 195.316
1122.269, 241.872
1123.503, 242.252
1124.737, 222.115
1125.971, 141.880
1127.205, 165.648
1128.438, 38.833
1129.671, 26.646
1130.904, 53.118
1132.137, 117.420
1133.370, 54.304
1134.602, 47.321
1135.834, 46.007
1137.066, 59.375
1138.298, 59.312
1139.530, 131.061
1140.762, 15.594
1141.993, 39.171
1143.224, 202.019
1144.455, 60.199
1145.686, 438.368
1146.917, 120.010
1148.147, 21.832
1149.377, 61.492
1150.607, 25.645
1151.837, 46.264
1153.067, 144.345
1154.296, 30.577
1155.526, 64.405
1156.755, 138.646
1157.984, 54.397
1159.213, 110.500
1160.441, 61.947
1161.670, 45.179
1162.898, 140.053
1164.126, 19.142
1165.354, 43.621
1166.581, 92.000
1167.809, 12.106
1169.036, 134.220
1170.263, 63.217
1171.490, 28.976
1172.717, 204.156
1173.943, 64.020
1175.170, 149.785
1176.396, 185.739
1177.622, 59.819
1178.848, 133.380
1180.073, 103.372
1181.299, 41.901
1182.524, 220.033
1183.749, 71.861
1184.974, 147.338
1186.199, 212.909
1187.423, 92.570
1188.648, 233.085
1189.872, 130.935
1191.096, 178.351
1192.320, 325.766
1193.543, 188.018
1194.767, 259.418
1195.990, 347.872
1197.213, 131.141
1198.436, 357.441
1199.659, 222.280
1200.881, 229.587
1202.104, 272.940
1203.326, 278.940
1204.548, 284.688
1205.770, 284.116
1206.991, 189.489
1208.213, 314.850
1209.434, 250.333
1210.655, 207.524
1211.876, 317.658
1213.096, 237.126
1214.317, 258.168
1215.537, 275.190
1216.757, 146.434
1217.977, 279.462
1219.197, 241.991
1220.417, 150.240
1221.636, 324.161
1222.855, 199.694
1224.074, 308.438
1225.293, 352.298
1226.512, 169.764
1227.731, 301.583
1228.949, 262.382
1230.167, 204.898
1231.385, 389.655
1232.603, 248.935
1233.820, 236.794
1235.038, 347.489
1236.255, 127.462
1237.472, 273.129
1238.689, 261.759
1239.906, 153.157
1241.122, 314.744
1242.338, 152.336
1243.555, 223.536
1244.771, 371.060
1245.986, 179.812
1247.202, 304.187
1248.417, 222.462
1249.633, 327.516
1250.848, 388.822
1252.063, 406.712
1253.277, 247.715
1254.492, 316.075
1255.706, 294.971
1256.920, 318.147
1258.134, 233.461
1259.348, 131.704
1260.562, 328.266
1261.775, 237.525
1262.988, 234.232
1264.201, 310.460
1265.414, 162.675
1266.627, 193.125
1267.839, 186.295
1269.052, 149.541
1270.264, 294.855
1271.476, 131.971
1272.688, 130.093
1273.899, 317.168
1275.111, 206.737
1276.322, 237.110
1277.533, 284.131
1278.744, 99.583
1279.955, 269.267
1281.165, 211.995
1282.376, 166.519
1283.586, 303.818
1284.796, 146.597
1286.006, 106.887
1287.215, 302.242
1288.425, 177.051
1289.634, 227.115
1290.843, 219.856
1292.052, 74.564
1293.261, 310.715
1294.469, 123.286
1295.678, 161.899
1296.886, 275.112
1298.094, 62.959
1299.302, 156.791
1300.509, 240.491
1301.717, 100.928
1302.924, 238.520
1304.131, 161.552
1305.338, 115.951
1306.545, 207.028
1307.752, 67.503
1308.958, 181.833
1310.164, 210.050
1311.370, 44.062
1312.576, 117.322
1313.782, 41.620
1314.987, 5.169
1316.193, 131.129
1317.398, 48.432
1318.603, 4.429
1319.807, 116.576
1321.012, 86.338
1322.216, 51.698
1323.421, 194.447
1324.625, 8.434
1325.829, 213.362
1327.032, 121.515
1328.236, 72.433
1329.439, 219.302
1330.642, 13.823
1331.845, 102.021
1333.048, 182.727
1334.251, 57.458
1335.453, 148.315
1336.656, 123.064
1337.858, 22.786
1339.060, 139.477
1340.261, 122.143
1341.463, 19.219
1342.664, 150.367
1343.866, 41.950
1345.067, 139.480
1346.267, 124.049
1347.468, 33.466
1348.669, 272.983
1349.869, 92.415
1351.069, 9.185
1352.269, 250.186
1353.469, 64.540
1354.668, 129.873
1355.868, 138.184
1357.067, 57.476
1358.266, 170.745
1359.465, 198.148
1360.664, 11.619
1361.862, 112.531
1363.061, 36.694
1364.259, 75.835
1365.457, 184.904
1366.655, 30.207
1367.852, 147.288
1369.050, 156.383
1370.247, 29.433
1371.444, 180.464
1372.641, 184.609
1373.838, 19.609
1375.035, 249.593
1376.231, 35.635
1377.427, 111.583
1378.623, 215.519
1379.819, 73.588
1381.015, 141.295
1382.211, 194.191
1383.406, 40.251
1384.601, 148.030
1385.796, 138.112
1386.991, 21.871
1388.185, 269.726
1389.380, 84.182
1390.574, 165.987
1391.768, 269.796
1392.962, 19.573
1394.156, 237.836
1395.350, 142.678
1396.543, 13.524
1397.736, 179.338
1398.929, 75.912
1400.122, 76.675
1401.315, 197.427
1402.507, 68.054
1403.700, 74.582
1404.892, 165.991
1406.084, 43.355
1407.276, 140.983
1408.467, 139.242
1409.659, 78.906
1410.850, 304.505
1412.041, 118.724
1413.232, 98.391
1414.423, 251.051
1415.614, 135.107
1416.804, 143.427
1417.994, 205.362
1419.184, 54.937
1420.374, 196.239
1421.564, 140.671
1422.753, 11.823
1423.943, 209.517
1425.132, 24.201
1426.321, 47.094
1427.510, 192.923
1428.698, 38.407
1429.887, 85.511
1431.075, 262.028
1432.263, 55.286
1433.451, 163.242
1434.639, 178.511
1435.827, 36.843
1437.014, 278.176
1438.201, 191.014
1439.388, 82.667
1440.575, 304.923
1441.762, 42.754
1442.949, 199.073
1444.135, 159.267
1445.321, 69.633
1446.507, 228.319
1447.693, 184.566
1448.879, 12.201
1450.064, 307.424
1451.250, 100.698
1452.435, 51.388
1453.620, 334.052
1454.805, 105.763
1455.989, 105.158
1457.174, 327.594
1458.358, 43.686
1459.542, 231.278
1460.726, 223.967
1461.910, 89.246
1463.093, 329.305
1464.277, 158.821
1465.460, 103.959
1466.643, 232.889
1467.826, 104.680
1469.009, 180.407
1470.191, 360.376
1471.373, 25.389
1472.556, 309.690
1473.738, 203.146
1474.919, 101.490
1476.101, 211.337
1477.283, 240.191
1478.464, 132.091
1479.645, 281.021
1480.826, 108.130
1482.007, 252.688
1483.187, 330.711
1484.368, 107.579
1485.548, 294.239
1486.728, 277.871
1487.908, 65.144
1489.088, 277.904
1490.268, 201.671
1491.447, 125.956
1492.626, 245.210
1493.805, 174.917
1494.984, 125.905
1496.163, 377.569
1497.341, 106.380
1498.520, 118.976
1499.698, 368.430
1500.876, 40.979
1502.054, 243.548
1503.232, 209.112
1504.409, 127.476
1505.586, 309.837
1506.763, 145.161
1507.940, 26.515
1509.117, 353.966
1510.294, 68.510
1511.470, 91.229
1512.647, 264.803
1513.823, 45.773
1514.999, 159.919
1516.174, 232.146
1517.350, 62.485
1518.526, 231.668
1519.701, 225.111
1520.876, 50.111
