##NAMES=Crocoite
##RRUFFID=R050044
##IDEAL CHEMISTRY=Pb^2+^Cr^6+^O_4_
##LOCALITY=Red Ledge mine, Dundas, Tasmania
##OWNER=RRUFF
##SOURCE=Eugene Schlepp
##DESCRIPTION=Red crystal fragment
##STATUS=The identification of this mineral has been confirmed by X-ray diffraction and chemical analysis
##URL=rruff.info/R050044
##MEASURED CHEMISTRY=Pb_1.02_Cr_0.99_O_4_
##PIN_ID=L00274
##ORIENTATION=Laser parallel to a* (1 0 0). Fiducial mark perpendicular to laser is parallel to b [0 1 0]
163.613, 0.000
165.002, 16.823
166.391, 87.494
167.780, 64.947
169.169, 2.444
170.557, 12.962
171.945, 37.982
173.333, 78.393
174.720, 87.849
176.108, 120.475
177.495, 131.794
178.881, 139.233
180.268, 143.527
181.654, 146.758
183.040, 133.280
184.426, 135.435
185.812, 180.964
187.197, 215.086
188.582, 220.220
189.967, 159.943
191.351, 184.295
192.736, 157.284
194.120, 112.375
195.504, 116.476
196.887, 180.606
198.271, 145.534
199.654, 174.867
201.036, 130.560
202.419, 110.917
203.801, 141.969
205.184, 158.016
206.565, 147.987
207.947, 122.681
209.328, 139.377
210.710, 97.543
212.090, 89.539
213.471, 63.237
214.851, 60.544
216.232, 31.915
217.611, 60.495
218.991, 84.030
220.370, 82.816
221.750, 56.129
223.129, 58.087
224.507, 113.115
225.886, 31.258
227.264, 65.301
228.642, 22.294
230.019, 125.511
231.397, 72.266
232.774, 85.635
234.151, 108.116
235.528, 58.090
236.904, 148.121
238.281, 58.251
239.656, 116.546
241.032, 92.550
242.408, 203.256
243.783, 87.487
245.158, 98.057
246.533, 52.109
247.907, 70.186
249.282, 100.350
250.656, 66.113
252.029, 88.146
253.403, 33.294
254.776, 75.734
256.149, 58.224
257.522, 18.749
258.895, 56.301
260.267, 9.875
261.639, 19.466
263.011, 8.064
264.382, 12.667
265.754, 10.173
267.125, 45.858
268.496, 10.441
269.866, 12.014
271.237, 23.561
272.607, 2.928
273.977, 7.456
275.346, 4.023
276.716, 56.365
278.085, 38.711
279.454, 91.014
280.823, 38.268
282.191, 6.530
283.559, 26.375
284.927, 27.158
286.295, 30.181
287.662, 5.859
289.030, 13.848
290.397, 28.781
291.763, 30.434
293.130, 32.653
294.496, 20.352
295.862, 28.200
297.228, 28.535
298.594, 25.539
299.959, 0.240
301.324, 42.518
302.689, 0.952
304.053, 72.111
305.418, 54.953
306.782, 41.970
308.146, 62.654
309.509, 72.586
310.873, 29.298
312.236, 113.319
313.599, 98.675
314.961, 142.903
316.324, 116.250
317.686, 151.390
319.048, 193.804
320.409, 219.025
321.771, 274.051
323.132, 218.152
324.493, 176.935
325.854, 268.894
327.214, 242.730
328.574, 284.328
329.934, 313.053
331.294, 357.288
332.654, 364.439
334.013, 452.497
335.372, 548.201
336.731, 629.282
338.089, 950.190
339.448, 1072.164
340.806, 1145.481
342.164, 1128.120
343.521, 1092.301
344.879, 997.649
346.236, 867.837
347.593, 887.857
348.949, 937.660
350.306, 1144.244
351.662, 1070.944
353.018, 1203.331
354.373, 1357.692
355.729, 1458.257
357.084, 1670.582
358.439, 2119.508
359.794, 2480.576
361.148, 2869.462
362.503, 2886.292
363.857, 2786.212
365.210, 2439.906
366.564, 1985.123
367.917, 1723.506
369.270, 1472.055
370.623, 1432.117
371.976, 1278.965
373.328, 1308.095
374.680, 1507.290
376.032, 1808.717
377.384, 2348.192
378.735, 2639.599
380.086, 2730.475
381.437, 2482.754
382.788, 2001.641
384.138, 1374.745
385.488, 1030.557
386.838, 819.177
388.188, 683.034
389.538, 606.450
390.887, 498.513
392.236, 504.485
393.585, 555.854
394.933, 463.103
396.282, 478.209
397.630, 624.509
398.977, 591.486
400.325, 773.824
401.672, 828.237
403.020, 973.180
404.366, 969.210
405.713, 858.043
407.059, 818.271
408.406, 630.446
409.752, 537.973
411.097, 401.022
412.443, 383.657
413.788, 325.215
415.133, 309.773
416.478, 300.645
417.822, 281.745
419.167, 284.509
420.511, 281.207
421.854, 276.992
423.198, 287.848
424.541, 285.059
425.884, 263.498
427.227, 225.944
428.570, 246.535
429.912, 214.592
431.254, 280.965
432.596, 186.578
433.938, 199.484
435.280, 242.794
436.621, 238.133
437.962, 224.228
439.303, 225.845
440.643, 232.468
441.983, 273.692
443.323, 271.478
444.663, 306.105
446.003, 282.708
447.342, 264.266
448.681, 374.594
450.020, 321.536
451.359, 276.573
452.697, 344.976
454.035, 335.352
455.373, 357.284
456.711, 263.228
458.048, 352.418
459.386, 304.311
460.723, 240.075
462.059, 324.893
463.396, 287.974
464.732, 291.810
466.068, 311.414
467.404, 359.462
468.740, 294.843
470.075, 268.668
471.410, 320.084
472.745, 304.220
474.080, 327.599
475.414, 389.169
476.748, 303.329
478.082, 336.404
479.416, 308.928
480.749, 333.217
482.083, 368.914
483.416, 366.693
484.749, 270.635
486.081, 340.655
487.413, 307.576
488.745, 266.902
490.077, 300.228
491.409, 329.670
492.740, 275.048
494.072, 328.361
495.402, 256.615
496.733, 221.806
498.064, 249.073
499.394, 232.134
500.724, 348.329
502.054, 246.263
503.383, 327.134
504.712, 259.945
506.041, 271.694
507.370, 283.382
508.699, 312.169
510.027, 337.737
511.355, 283.248
512.683, 328.699
514.011, 304.093
515.338, 230.430
516.666, 255.707
517.993, 309.926
519.319, 245.089
520.646, 273.196
521.972, 260.246
523.298, 218.240
524.624, 227.177
525.950, 295.058
527.275, 262.886
528.600, 212.661
529.925, 295.379
531.250, 154.046
532.574, 221.653
533.898, 176.206
535.222, 287.704
536.546, 222.153
537.869, 208.550
539.193, 262.898
540.516, 194.198
541.839, 275.448
543.161, 197.650
544.484, 219.804
545.806, 241.910
547.128, 198.970
548.449, 164.981
549.771, 130.946
551.092, 109.859
552.413, 233.718
553.734, 184.533
555.054, 216.302
556.374, 173.027
557.694, 165.707
559.014, 171.342
560.334, 116.931
561.653, 204.473
562.972, 152.971
564.291, 46.425
565.610, 121.812
566.928, 123.151
568.247, 149.445
569.565, 111.697
570.882, 175.903
572.200, 137.069
573.517, 157.191
574.834, 87.273
576.151, 123.309
577.468, 127.292
578.784, 75.245
580.100, 49.142
581.416, 57.964
582.732, 83.769
584.047, 63.531
585.362, 34.164
586.677, 52.583
587.992, 24.042
589.307, 40.696
590.621, 14.262
591.935, 18.307
593.249, 3.386
594.563, 5.646
595.876, 11.282
597.189, 32.565
598.502, 32.184
599.815, 5.914
601.127, 22.229
602.440, 91.469
603.752, 17.671
605.064, 36.029
606.375, 101.533
607.686, 65.936
608.998, 51.425
610.308, 24.192
611.619, 25.822
612.930, 68.515
614.240, 26.709
615.550, 94.390
616.860, 44.296
618.169, 45.421
619.478, 152.892
620.787, 116.163
622.096, 94.717
623.405, 39.639
624.713, 105.945
626.021, 14.555
627.329, 43.237
628.637, 54.204
629.945, 44.028
631.252, 38.978
632.559, 77.888
633.866, 3.679
635.172, 25.804
636.479, 24.167
637.785, 28.994
639.091, 36.905
640.396, 20.934
641.702, 6.063
643.007, 14.487
644.312, 29.643
645.617, 19.973
646.921, 21.604
648.226, 9.083
649.530, 8.776
650.834, 7.227
652.137, 55.887
653.441, 37.234
654.744, 5.703
656.047, 71.580
657.350, 9.286
658.652, 48.396
659.954, 36.636
661.256, 65.211
662.558, 114.498
663.860, 99.827
665.161, 44.802
666.462, 113.667
667.763, 38.239
669.064, 115.578
670.365, 133.103
671.665, 138.521
672.965, 72.615
674.265, 181.827
675.564, 200.266
676.864, 64.433
678.163, 169.718
679.462, 150.949
680.760, 138.982
682.059, 192.079
683.357, 242.463
684.655, 293.717
685.953, 305.383
687.250, 327.807
688.548, 326.562
689.845, 331.666
691.142, 361.428
692.438, 357.825
693.735, 384.278
695.031, 439.041
696.327, 432.364
697.623, 437.390
698.918, 469.788
700.214, 450.874
701.509, 466.066
702.804, 596.366
704.098, 587.501
705.393, 585.420
706.687, 626.905
707.981, 608.021
709.275, 549.369
710.568, 590.529
711.861, 672.842
713.155, 593.995
714.447, 674.120
715.740, 741.307
717.032, 588.907
718.325, 585.278
719.617, 697.429
720.908, 576.213
722.200, 675.094
723.491, 601.045
724.782, 692.311
726.073, 573.182
727.364, 825.614
728.654, 677.893
729.944, 697.304
731.234, 675.942
732.524, 734.230
733.814, 760.596
735.103, 783.523
736.392, 798.283
737.681, 831.178
738.969, 821.148
740.258, 804.688
741.546, 851.273
742.834, 870.645
744.122, 856.967
745.409, 910.510
746.697, 937.813
747.984, 953.969
749.270, 953.170
750.557, 1024.038
751.844, 1007.086
753.130, 1071.039
754.416, 1016.561
755.701, 1094.901
756.987, 1126.214
758.272, 1086.688
759.557, 1157.915
760.842, 1202.114
762.127, 1135.328
763.411, 1213.905
764.695, 1205.524
765.979, 1279.987
767.263, 1372.485
768.547, 1377.441
769.830, 1348.204
771.113, 1434.821
772.396, 1339.728
773.679, 1449.711
774.961, 1456.102
776.243, 1298.954
777.525, 1505.309
778.807, 1412.882
780.089, 1452.857
781.370, 1499.348
782.651, 1480.498
783.932, 1616.318
785.213, 1548.854
786.493, 1597.880
787.773, 1696.639
789.053, 1796.991
790.333, 1680.310
791.613, 1940.319
792.892, 1883.734
794.171, 2062.838
795.450, 2172.988
796.729, 2111.833
798.007, 2235.422
799.285, 2437.428
800.563, 2419.978
801.841, 2350.558
803.119, 2507.006
804.396, 2659.504
805.673, 2631.055
806.950, 2920.655
808.227, 2870.310
809.504, 2944.876
810.780, 3319.640
812.056, 3283.257
813.332, 3493.127
814.607, 3619.052
815.883, 3798.030
817.158, 4257.064
818.433, 4370.152
819.708, 4932.136
820.982, 5545.336
822.256, 6028.592
823.531, 6391.902
824.804, 7445.268
826.078, 8438.700
827.352, 9312.188
828.625, 10595.733
829.898, 11839.337
831.170, 13603.009
832.443, 15776.737
833.715, 18850.555
834.988, 22504.439
836.259, 27958.395
837.531, 35162.430
838.803, 43686.531
840.074, 51620.719
841.345, 57255.004
842.616, 56149.348
843.886, 51493.793
845.157, 43888.316
846.427, 35492.898
847.697, 29437.578
848.966, 24332.340
850.236, 20097.184
851.505, 18132.127
852.774, 16077.137
854.043, 14862.256
855.312, 14987.447
856.580, 13602.729
857.849, 12798.095
859.117, 11523.520
860.384, 10269.037
861.652, 9204.631
862.919, 7890.306
864.186, 7016.051
865.453, 6321.883
866.720, 5337.779
867.986, 4823.761
869.253, 4439.827
870.519, 4045.988
871.784, 3691.222
873.050, 3418.527
874.315, 3225.917
875.581, 3025.377
876.846, 2886.913
878.110, 2610.522
879.375, 2599.206
880.639, 2369.958
881.903, 2272.788
883.167, 2206.684
884.431, 2146.674
885.694, 2203.713
886.957, 2177.824
888.220, 2073.021
889.483, 2088.293
890.746, 2031.641
892.008, 2001.432
893.270, 1912.550
894.532, 1968.119
895.794, 1938.761
897.056, 1946.817
898.317, 1932.917
899.578, 1887.196
900.839, 1877.187
902.099, 1854.259
903.360, 1820.412
904.620, 1797.083
905.880, 1772.966
907.140, 1747.362
908.399, 1727.836
909.659, 1733.385
910.918, 1703.039
912.177, 1708.776
913.435, 1576.602
914.694, 1480.532
915.952, 1568.558
917.210, 1376.676
918.468, 1526.877
919.726, 1265.161
920.983, 1131.540
922.240, 1242.988
923.497, 1223.536
924.754, 1076.171
926.011, 1058.891
927.267, 1062.725
928.523, 951.663
929.779, 985.697
931.035, 870.797
932.290, 872.997
933.546, 762.263
934.801, 765.610
936.056, 772.040
937.310, 746.550
938.565, 648.139
939.819, 595.815
941.073, 608.602
942.327, 523.417
943.580, 574.298
944.833, 561.251
946.087, 405.267
947.340, 538.346
948.592, 443.491
949.845, 498.703
951.097, 409.984
952.349, 395.333
953.601, 445.749
954.853, 339.225
956.104, 444.764
957.355, 317.366
958.606, 309.028
959.857, 261.752
961.108, 211.538
962.358, 389.384
963.608, 288.292
964.858, 436.261
966.108, 311.289
967.357, 395.378
968.607, 306.525
969.856, 386.732
971.105, 335.003
972.353, 318.334
973.602, 359.723
974.850, 308.169
976.098, 325.009
977.346, 352.570
978.594, 394.189
979.841, 361.865
981.088, 382.019
982.335, 331.108
983.582, 299.166
984.828, 297.995
986.075, 177.108
987.321, 323.000
988.567, 102.113
989.812, 337.831
991.058, 201.175
992.303, 130.224
993.548, 203.124
994.793, 195.855
996.038, 93.732
997.282, 74.759
998.526, 105.560
999.770, 112.523
1001.014, 105.919
1002.258, 102.480
1003.501, 108.144
1004.744, 104.430
1005.987, 114.946
1007.230, 98.731
1008.473, 86.373
1009.715, 63.326
1010.957, 46.000
1012.199, 69.640
1013.441, 12.812
1014.682, 2.986
1015.923, 37.642
1017.164, 83.210
1018.405, 109.712
1019.646, 2.847
1020.886, 13.929
1022.127, 41.265
1023.367, 17.065
1024.606, 30.098
1025.846, 91.069
1027.085, 105.864
1028.325, 63.817
1029.564, 47.058
1030.802, 106.592
1032.041, 30.346
1033.279, 0.239
1034.517, 93.621
1035.755, 104.544
1036.993, 47.435
1038.230, 64.540
1039.468, 113.769
1040.705, 25.732
1041.942, 73.919
1043.178, 91.002
1044.415, 25.023
1045.651, 122.078
1046.887, 57.660
1048.123, 22.773
1049.358, 146.919
1050.594, 105.092
1051.829, 121.294
1053.064, 83.522
1054.299, 58.778
1055.533, 65.061
1056.768, 79.371
1058.002, 112.707
1059.236, 105.056
1060.469, 65.454
1061.703, 105.863
1062.936, 96.294
1064.169, 100.749
1065.402, 133.224
1066.635, 100.720
1067.867, 177.235
1069.100, 67.769
1070.332, 87.321
1071.564, 175.891
1072.795, 55.479
1074.027, 165.082
1075.258, 152.701
1076.489, 60.334
1077.720, 166.982
1078.950, 176.643
1080.181, 120.320
1081.411, 55.009
1082.641, 31.715
1083.871, 131.433
1085.100, 38.161
1086.330, 151.903
1087.559, 138.655
1088.788, 2.584
1090.016, 123.188
1091.245, 84.967
1092.473, 48.757
1093.701, 97.554
1094.929, 93.358
1096.157, 63.170
1097.384, 90.988
1098.612, 170.811
1099.839, 113.023
1101.066, 337.472
1102.292, 26.309
1103.519, 129.149
1104.745, 39.993
1105.971, 149.839
1107.197, 51.687
1108.423, 150.536
1109.648, 113.387
1110.873, 94.238
1112.098, 142.088
1113.323, 150.940
1114.548, 72.790
1115.772, 14.639
1116.996, 34.489
1118.220, 33.336
1119.444, 80.180
1120.667, 47.021
1121.891, 20.858
1123.114, 31.307
1124.337, 33.510
1125.560, 66.323
1126.782, 21.132
1128.004, 28.065
1129.227, 1.283
1130.448, 114.512
1131.670, 13.639
1132.892, 55.901
1134.113, 86.033
1135.334, 12.356
1136.555, 77.730
1137.776, 137.199
1138.996, 23.728
1140.216, 90.306
1141.436, 49.886
1142.656, 6.511
1143.876, 136.188
1145.095, 25.726
1146.315, 113.057
1147.534, 83.954
1148.753, 18.305
1149.971, 146.222
1151.190, 20.645
1152.408, 79.779
1153.626, 46.921
1154.844, 54.122
1156.061, 55.635
1157.279, 2.482
1158.496, 34.346
1159.713, 11.385
1160.930, 5.076
1162.146, 11.351
1163.363, 41.989
1164.579, 38.941
1165.795, 13.339
1167.010, 44.363
1168.226, 24.618
1169.441, 16.989
1170.657, 38.547
1171.871, 18.355
1173.086, 24.651
1174.301, 23.327
1175.515, 44.912
1176.729, 15.500
1177.943, 74.082
1179.157, 69.672
1180.370, 52.187
1181.584, 39.144
1182.797, 1.544
1184.010, 73.628
1185.222, 71.331
1186.435, 92.398
1187.647, 80.728
1188.859, 92.945
1190.071, 163.317
1191.283, 247.309
1192.494, 76.918
1193.706, 249.700
1194.917, 209.791
1196.128, 210.718
1197.338, 242.945
1198.549, 212.070
1199.759, 196.192
1200.969, 234.488
1202.179, 168.823
1203.389, 371.968
1204.598, 243.098
1205.807, 282.071
1207.016, 376.928
1208.225, 272.846
1209.434, 309.527
1210.642, 294.152
1211.850, 255.863
1213.058, 297.188
1214.266, 313.618
1215.474, 291.970
1216.681, 358.376
1217.889, 340.636
1219.096, 318.766
1220.302, 332.827
1221.509, 273.856
1222.715, 287.891
1223.922, 304.861
1225.128, 284.436
1226.334, 317.332
1227.539, 292.919
1228.745, 280.134
1229.950, 252.878
1231.155, 257.504
1232.360, 234.239
1233.564, 310.967
1234.769, 194.132
1235.973, 310.716
1237.177, 202.825
1238.381, 383.506
1239.584, 339.121
1240.787, 256.941
1241.991, 311.318
1243.194, 275.525
1244.396, 216.070
1245.599, 341.274
1246.801, 263.571
1248.004, 259.169
1249.206, 318.212
1250.407, 232.479
1251.609, 338.453
1252.810, 342.392
1254.012, 240.754
1255.212, 285.623
1256.413, 324.456
1257.614, 322.579
1258.814, 332.338
1260.014, 305.417
1261.214, 383.661
1262.414, 370.308
1263.614, 243.939
1264.813, 382.710
1266.012, 325.244
1267.211, 311.402
1268.410, 349.524
1269.609, 261.015
1270.807, 271.084
1272.005, 260.417
1273.203, 286.425
1274.401, 264.793
1275.598, 218.381
1276.796, 243.454
1277.993, 211.370
1279.190, 231.815
1280.387, 239.749
1281.583, 264.303
1282.780, 235.015
1283.976, 270.271
1285.172, 221.422
1286.368, 215.455
1287.563, 257.681
1288.759, 107.739
1289.954, 153.874
1291.149, 235.079
1292.343, 132.758
1293.538, 196.549
1294.732, 118.168
1295.927, 223.137
1297.121, 186.937
1298.314, 142.150
1299.508, 121.400
1300.701, 121.892
1301.895, 119.327
1303.087, 160.794
1304.280, 40.732
1305.473, 144.664
1306.665, 84.828
1307.857, 109.772
1309.049, 20.372
1310.241, 90.423
1311.433, 35.437
1312.624, 22.197
1313.815, 111.558
1315.006, 9.615
1316.197, 39.791
1317.388, 81.317
1318.578, 20.445
1319.768, 89.406
1320.958, 84.937
1322.148, 32.253
1323.338, 84.407
1324.527, 19.057
1325.716, 34.158
1326.906, 114.285
1328.094, 59.181
1329.283, 108.938
1330.471, 28.955
1331.660, 5.737
1332.848, 71.606
1334.035, 37.516
1335.223, 53.384
1336.411, 124.706
1337.598, 29.482
1338.785, 97.216
1339.972, 67.877
1341.158, 73.498
1342.345, 71.078
1343.531, 57.615
1344.717, 53.072
1345.903, 62.177
1347.089, 60.853
1348.274, 69.173
1349.459, 75.521
1350.644, 67.677
1351.829, 83.576
1353.014, 86.060
1354.198, 75.163
1355.383, 113.223
1356.567, 96.243
1357.751, 101.221
1358.934, 90.158
1360.118, 103.143
1361.301, 116.913
1362.484, 124.734
1363.667, 123.521
1364.850, 113.273
1366.032, 120.102
1367.215, 51.787
1368.397, 119.438
1369.579, 27.062
1370.760, 115.656
1371.942, 128.214
1373.123, 36.278
1374.304, 112.792
1375.485, 105.316
1376.666, 52.259
1377.847, 122.511
1379.027, 54.693
1380.207, 93.807
1381.387, 156.853
1382.567, 47.833
1383.747, 134.744
1384.926, 193.588
1386.105, 89.366
1387.284, 152.076
1388.463, 121.718
1389.641, 69.291
1390.820, 180.791
1391.998, 103.224
1393.176, 174.585
1394.354, 186.892
1395.532, 73.124
1396.709, 194.305
1397.886, 164.243
1399.063, 86.079
1400.240, 184.199
1401.417, 81.403
1402.593, 56.492
1403.769, 207.212
1404.945, 152.901
1406.121, 109.383
1407.297, 192.952
1408.472, 41.967
1409.648, 180.139
1410.823, 138.773
1411.998, 36.314
1413.172, 192.942
1414.347, 114.269
1415.521, 128.414
1416.695, 182.624
1417.869, 13.883
1419.043, 164.423
1420.216, 65.472
1421.390, 78.783
1422.563, 169.271
1423.736, 165.549
1424.909, 66.352
1426.081, 200.156
1427.254, 13.187
1428.426, 112.959
1429.598, 117.498
1430.770, 0.645
1431.941, 95.385
1433.113, 128.436
1434.284, 26.726
1435.455, 161.506
1436.626, 120.450
1437.796, 34.536
1438.967, 148.519
1440.137, 194.048
1441.307, 23.495
1442.477, 168.740
1443.646, 118.007
1444.816, 173.364
1445.985, 155.840
1447.154, 163.763
1448.323, 71.781
1449.492, 101.771
1450.660, 27.535
1451.829, 176.260
1452.997, 122.204
1454.165, 80.434
1455.332, 170.135
1456.500, 80.270
1457.667, 37.365
1458.834, 152.592
1460.001, 59.260
1461.168, 193.007
1462.335, 86.212
1463.501, 106.095
1464.667, 148.553
1465.833, 130.596
1466.999, 100.910
1468.165, 224.934
1469.330, 161.877
1470.495, 169.368
1471.660, 210.156
1472.825, 104.348
1473.990, 147.980
1475.154, 108.123
1476.318, 151.945
1477.482, 109.936
1478.646, 109.215
1479.810, 130.753
1480.974, 193.725
1482.137, 134.686
1483.300, 173.080
1484.463, 179.884
1485.626, 82.042
1486.788, 134.131
1487.950, 196.231
1489.113, 71.718
1490.275, 212.709
1491.436, 105.764
1492.598, 34.749
1493.759, 169.711
1494.920, 103.598
1496.081, 44.528
1497.242, 200.413
1498.403, 97.398
1499.563, 130.494
1500.724, 129.833
1501.884, 60.525
1503.043, 183.408
1504.203, 161.453
1505.363, 12.067
1506.522, 203.489
1507.681, 126.256
1508.840, 46.450
1509.999, 159.095
1511.157, 120.375
1512.315, 2.354
1513.474, 204.307
1514.632, 2.685
1515.789, 0.000
##END=



