##NAMES=Crocoite
##RRUFFID=R040053
##IDEAL CHEMISTRY=Pb^2+^Cr^6+^O_4_
##LOCALITY=Dundas, Tasmania
##OWNER=RRUFF
##SOURCE=Bob Downs
##DESCRIPTION=Reddish-orange prismatic crystal
##STATUS=The identification of this mineral has been confirmed by X-ray diffraction and chemical analysis
##URL=rruff.info/R040053
##MEASURED CHEMISTRY=(Pb_.995_Mn_.005_)CrO_4_
##PIN_ID=L00142
##ORIENTATION=Laser parallel to c* (0 0 1). Fiducial mark perpendicular to laser is parallel to a [1 0 0]
66.157, 0.000
67.554, 110.840
68.952, 254.807
70.349, 116.422
71.747, 4.765
73.144, 31.764
74.540, 43.675
75.937, 185.733
77.333, 142.892
78.729, 125.405
80.125, 142.996
81.521, 39.063
82.916, 120.509
84.311, 174.242
85.706, 93.188
87.101, 45.322
88.496, 50.639
89.890, 150.175
91.284, 184.031
92.678, 222.134
94.071, 273.458
95.465, 239.947
96.858, 317.554
98.251, 235.236
99.644, 294.792
101.036, 272.012
102.428, 345.928
103.820, 252.315
105.212, 226.821
106.604, 243.414
107.995, 268.858
109.387, 325.600
110.777, 270.611
112.168, 418.604
113.559, 565.685
114.949, 817.204
116.339, 1059.225
117.729, 981.628
119.119, 819.971
120.508, 551.793
121.897, 452.507
123.286, 542.277
124.675, 445.605
126.063, 422.570
127.452, 403.804
128.840, 471.013
130.228, 556.562
131.615, 634.556
133.003, 783.610
134.390, 814.543
135.777, 969.080
137.164, 926.980
138.550, 902.102
139.937, 852.342
141.323, 766.131
142.709, 776.257
144.094, 661.078
145.480, 667.525
146.865, 549.599
148.250, 521.815
149.635, 508.356
151.019, 446.739
152.403, 514.960
153.788, 505.952
155.171, 513.215
156.555, 513.290
157.939, 437.681
159.322, 428.507
160.705, 379.405
162.088, 394.042
163.470, 346.516
164.853, 357.645
166.235, 301.634
167.617, 334.041
168.998, 314.441
170.380, 371.081
171.761, 301.590
173.142, 259.236
174.523, 238.357
175.904, 205.743
177.284, 233.342
178.664, 232.285
180.044, 213.372
181.424, 225.883
182.803, 139.467
184.183, 168.047
185.562, 150.516
186.940, 173.561
188.319, 138.351
189.698, 131.671
191.076, 96.119
192.454, 129.004
193.831, 131.826
195.209, 100.582
196.586, 145.269
197.963, 99.880
199.340, 102.410
200.717, 97.858
202.093, 74.227
203.470, 93.508
204.846, 62.698
206.221, 56.799
207.597, 55.808
208.972, 52.722
210.347, 58.542
211.722, 51.355
213.097, 31.891
214.472, 35.422
215.846, 36.858
217.220, 17.196
218.594, 32.563
219.967, 40.576
221.341, 0.615
222.714, 20.553
224.087, 50.611
225.460, 9.110
226.832, 24.717
228.204, 7.968
229.577, 6.796
230.948, 10.843
232.320, 36.519
233.692, 29.516
235.063, 28.155
236.434, 51.052
237.805, 52.386
239.175, 42.938
240.545, 31.516
241.916, 21.925
243.286, 17.193
244.655, 16.144
246.025, 7.943
247.394, 23.167
248.763, 16.167
250.132, 22.298
251.501, 2.379
252.869, 27.702
254.237, 7.922
255.605, 86.556
256.973, 53.948
258.340, 66.450
259.708, 27.499
261.075, 30.660
262.442, 69.495
263.808, 58.442
265.175, 89.263
266.541, 102.984
267.907, 104.492
269.273, 127.870
270.639, 69.114
272.004, 125.416
273.369, 82.284
274.734, 92.317
276.099, 111.942
277.463, 100.675
278.828, 159.326
280.192, 131.577
281.556, 158.819
282.919, 118.840
284.283, 139.869
285.646, 158.634
287.009, 152.381
288.372, 220.016
289.734, 172.419
291.097, 182.929
292.459, 167.143
293.821, 206.166
295.183, 219.176
296.544, 189.974
297.905, 203.910
299.266, 229.578
300.627, 210.262
301.988, 238.916
303.348, 269.309
304.709, 261.618
306.069, 310.714
307.428, 300.746
308.788, 327.594
310.147, 335.208
311.507, 358.941
312.865, 418.411
314.224, 416.071
315.583, 468.219
316.941, 557.373
318.299, 606.375
319.657, 770.261
321.015, 995.247
322.372, 1190.775
323.729, 2431.432
325.086, 2227.613
326.443, 2462.784
327.800, 2303.837
329.156, 1865.584
330.512, 1494.065
331.868, 1253.769
333.224, 1195.268
334.579, 1244.087
335.935, 1515.292
337.290, 1839.417
338.645, 1998.188
339.999, 1994.961
341.354, 1510.799
342.708, 1266.498
344.062, 1178.221
345.416, 1393.732
346.769, 1756.734
348.123, 1992.941
349.476, 1832.948
350.829, 1327.234
352.182, 1002.975
353.534, 745.707
354.887, 624.199
356.239, 645.972
357.591, 584.855
358.942, 576.164
360.294, 564.937
361.645, 545.169
362.996, 573.389
364.347, 512.708
365.698, 535.438
367.048, 488.690
368.398, 578.331
369.748, 555.025
371.098, 603.669
372.448, 728.059
373.797, 880.722
375.146, 1338.967
376.495, 1906.205
377.844, 2185.374
379.192, 1812.501
380.540, 1279.531
381.889, 1020.510
383.236, 717.615
384.584, 596.953
385.932, 513.672
387.279, 471.646
388.626, 491.969
389.973, 412.773
391.319, 447.122
392.666, 475.339
394.012, 463.018
395.358, 541.614
396.704, 574.605
398.049, 737.476
399.394, 851.947
400.740, 895.429
402.084, 842.234
403.429, 634.987
404.774, 512.090
406.118, 375.445
407.462, 377.912
408.806, 351.681
410.150, 315.661
411.493, 371.643
412.836, 295.182
414.179, 298.352
415.522, 257.998
416.865, 283.649
418.207, 275.105
419.549, 219.139
420.891, 309.294
422.233, 239.788
423.575, 286.351
424.916, 229.211
426.257, 220.096
427.598, 231.192
428.939, 243.224
430.279, 248.241
431.619, 250.421
432.959, 206.604
434.299, 280.748
435.639, 210.288
436.978, 294.233
438.318, 219.947
439.657, 208.082
440.996, 274.294
442.334, 241.054
443.673, 268.292
445.011, 234.825
446.349, 271.429
447.687, 242.336
449.024, 238.500
450.361, 267.530
451.699, 210.170
453.036, 249.831
454.372, 266.738
455.709, 236.390
457.045, 302.485
458.381, 199.935
459.717, 234.932
461.053, 201.669
462.388, 179.745
463.724, 213.896
465.059, 204.465
466.394, 231.569
467.728, 211.358
469.063, 229.577
470.397, 253.285
471.731, 195.923
473.065, 234.175
474.398, 157.253
475.732, 245.169
477.065, 208.008
478.398, 209.086
479.731, 211.773
481.063, 159.697
482.396, 233.726
483.728, 163.355
485.060, 189.176
486.391, 209.975
487.723, 157.739
489.054, 220.486
490.385, 210.668
491.716, 171.334
493.047, 183.776
494.377, 145.382
495.708, 205.154
497.038, 166.822
498.368, 214.340
499.697, 167.284
501.027, 163.749
502.356, 181.751
503.685, 142.218
505.014, 190.602
506.342, 177.885
507.671, 172.219
508.999, 171.529
510.327, 141.924
511.655, 189.185
512.982, 171.133
514.310, 146.462
515.637, 135.027
516.964, 106.708
518.291, 170.852
519.617, 139.370
520.944, 167.469
522.270, 166.152
523.596, 125.353
524.921, 205.388
526.247, 114.732
527.572, 168.996
528.897, 128.971
530.222, 129.560
531.547, 171.497
532.871, 116.405
534.196, 185.304
535.520, 107.188
536.844, 129.053
538.167, 135.902
539.491, 64.822
540.814, 162.636
542.137, 130.447
543.460, 82.241
544.783, 123.021
546.105, 103.786
547.427, 140.551
548.749, 98.303
550.071, 113.039
551.393, 129.761
552.714, 37.471
554.035, 115.165
555.356, 107.856
556.677, 140.545
557.998, 115.231
559.318, 80.920
560.638, 129.611
561.958, 58.305
563.278, 101.995
564.597, 96.682
565.917, 69.364
567.236, 104.039
568.555, 48.709
569.874, 170.362
571.192, 293.025
572.511, 95.621
573.829, 101.234
575.147, 38.676
576.464, 54.233
577.782, 52.747
579.099, 45.771
580.416, 59.911
581.733, 40.975
583.050, 80.525
584.366, 26.831
585.683, 40.097
586.999, 68.402
588.315, 19.246
589.630, 54.097
590.946, 3.443
592.261, 29.597
593.576, 74.053
594.891, 10.215
596.206, 64.648
597.520, 3.841
598.834, 14.975
600.148, 53.369
601.462, 42.369
602.776, 56.961
604.089, 36.851
605.402, 21.448
606.715, 3.623
608.028, 40.227
609.341, 62.003
610.653, 54.990
611.965, 6.140
613.277, 13.342
614.589, 43.575
615.901, 65.578
617.212, 2.465
618.523, 13.490
619.834, 0.626
621.145, 0.844
622.456, 59.072
623.766, 35.052
625.076, 25.903
626.386, 19.228
627.696, 9.305
629.006, 57.695
630.315, 18.538
631.624, 12.369
632.933, 37.950
634.242, 24.103
635.551, 24.664
636.859, 40.568
638.167, 44.175
639.475, 6.699
640.783, 25.471
642.090, 63.041
643.398, 30.340
644.705, 29.341
646.012, 23.801
647.318, 22.476
648.625, 25.782
649.931, 10.752
651.237, 50.224
652.543, 0.604
653.849, 17.769
655.155, 71.685
656.460, 24.662
657.765, 50.778
659.070, 8.796
660.375, 1.699
661.679, 83.030
662.984, 35.435
664.288, 36.024
665.592, 12.463
666.895, 40.098
668.199, 22.193
669.502, 51.316
670.805, 1.930
672.108, 8.647
673.411, 31.414
674.713, 38.687
676.016, 9.940
677.318, 45.300
678.620, 15.337
679.921, 26.984
681.223, 24.188
682.524, 31.328
683.825, 8.208
685.126, 6.141
686.427, 17.671
687.727, 49.516
689.028, 26.115
690.328, 70.016
691.628, 29.442
692.927, 70.548
694.227, 74.753
695.526, 4.007
696.825, 53.942
698.124, 29.307
699.423, 25.546
700.721, 98.590
702.020, 10.813
703.318, 126.964
704.616, 25.276
705.913, 79.419
707.211, 84.633
708.508, 38.926
709.805, 96.841
711.102, 69.090
712.399, 78.317
713.695, 102.690
714.992, 45.104
716.288, 120.435
717.584, 163.682
718.879, 176.070
720.175, 66.553
721.470, 114.691
722.765, 99.536
724.060, 81.945
725.355, 152.100
726.649, 60.528
727.944, 129.671
729.238, 122.751
730.532, 144.085
731.825, 71.167
733.119, 178.324
734.412, 115.486
735.705, 102.639
736.998, 128.862
738.291, 74.018
739.584, 182.350
740.876, 93.470
742.168, 184.657
743.460, 126.975
744.752, 144.272
746.043, 229.553
747.334, 180.268
748.626, 208.472
749.916, 182.875
751.207, 162.912
752.498, 278.302
753.788, 227.134
755.078, 271.339
756.368, 304.727
757.658, 250.823
758.947, 298.254
760.237, 208.749
761.526, 285.059
762.815, 310.025
764.104, 274.393
765.392, 343.916
766.680, 236.426
767.969, 295.588
769.257, 371.953
770.544, 347.261
771.832, 396.877
773.119, 316.971
774.406, 365.401
775.693, 450.382
776.980, 409.378
778.267, 537.053
779.553, 492.132
780.839, 505.703
782.125, 566.774
783.411, 589.443
784.697, 688.188
785.982, 639.393
787.267, 731.997
788.552, 834.727
789.837, 795.704
791.122, 882.415
792.406, 947.494
793.690, 951.313
794.974, 1135.001
796.258, 1009.070
797.542, 1259.923
798.825, 1243.335
800.108, 1334.650
801.391, 1379.519
802.674, 1362.950
803.957, 1566.881
805.239, 1592.018
806.522, 1649.992
807.804, 1960.782
809.085, 1913.661
810.367, 2123.675
811.649, 2343.249
812.930, 2335.303
814.211, 2844.806
815.492, 2932.837
816.772, 3386.939
818.053, 3819.130
819.333, 4039.279
820.613, 4848.441
821.893, 5061.509
823.173, 5638.700
824.452, 6456.197
825.732, 6517.303
827.011, 7527.167
828.290, 7791.147
829.568, 8836.439
830.847, 10071.350
832.125, 10386.672
833.403, 12471.420
834.681, 14565.649
835.959, 17161.043
837.236, 21395.129
838.514, 23790.293
839.791, 26675.754
841.068, 26350.598
842.345, 23286.098
843.621, 21240.623
844.898, 17486.158
846.174, 15781.718
847.450, 14407.294
848.726, 13062.889
850.001, 13248.433
851.277, 12964.086
852.552, 13199.754
853.827, 13625.449
855.102, 12951.159
856.376, 13446.890
857.651, 12062.638
858.925, 11128.398
860.199, 10434.194
861.473, 8900.008
862.746, 8345.842
864.020, 7311.701
865.293, 6647.581
866.566, 6296.477
867.839, 5297.391
869.112, 5138.320
870.384, 4694.290
871.656, 4185.273
872.928, 4264.278
874.200, 3600.786
875.472, 3607.826
876.744, 3442.885
878.015, 3091.961
879.286, 3295.055
880.557, 2822.169
881.828, 2822.299
883.098, 2837.448
884.369, 2517.615
885.639, 2545.800
886.909, 2327.003
888.178, 2112.073
889.448, 2195.314
890.717, 1839.750
891.987, 1907.028
893.256, 1665.324
894.524, 1554.639
895.793, 1618.972
897.061, 1302.324
898.330, 1458.702
899.598, 1337.098
900.865, 1096.516
902.133, 1275.953
903.401, 1003.407
904.668, 1035.881
905.935, 1055.372
907.202, 837.263
908.468, 965.795
909.735, 815.344
911.001, 727.925
912.267, 840.524
913.533, 577.154
914.799, 734.802
916.064, 678.470
917.330, 551.169
918.595, 665.886
919.860, 496.621
921.124, 574.375
922.389, 547.149
923.653, 454.954
924.918, 509.776
926.182, 398.617
927.445, 459.025
928.709, 526.905
929.972, 296.806
931.236, 471.724
932.499, 359.670
933.761, 356.634
935.024, 402.621
936.286, 274.631
937.549, 345.657
938.811, 311.707
940.073, 230.773
941.334, 330.858
942.596, 154.967
943.857, 269.094
945.118, 304.249
946.379, 154.419
947.640, 279.608
948.900, 143.820
950.161, 192.049
951.421, 312.356
952.681, 23.626
953.940, 156.407
955.200, 143.715
956.459, 128.039
957.719, 228.510
958.978, 110.868
960.236, 197.242
961.495, 126.639
962.753, 78.051
964.012, 196.510
965.270, 73.959
966.527, 144.741
967.785, 120.223
969.043, 76.719
970.300, 215.563
971.557, 174.322
972.814, 203.644
974.071, 222.216
975.327, 130.802
976.583, 168.414
977.840, 164.041
979.095, 21.316
980.351, 249.832
981.607, 50.507
982.862, 96.197
984.117, 119.583
985.372, 31.300
986.627, 132.339
987.882, 69.849
989.136, 83.616
990.390, 165.097
991.644, 45.890
992.898, 149.697
994.152, 88.561
995.405, 77.396
996.659, 202.292
997.912, 26.148
999.165, 122.016
1000.417, 148.301
1001.670, 56.191
1002.922, 210.099
1004.174, 87.730
1005.426, 91.655
1006.678, 161.737
1007.930, 22.680
1009.181, 217.635
1010.432, 134.238
1011.683, 51.210
1012.934, 170.235
1014.185, 43.799
1015.435, 30.800
1016.685, 138.960
1017.935, 52.976
1019.185, 95.001
1020.435, 52.466
1021.684, 59.506
1022.934, 149.964
1024.183, 23.966
1025.432, 101.109
1026.680, 111.226
1027.929, 62.321
1029.177, 125.456
1030.425, 92.039
1031.673, 59.188
1032.921, 124.354
1034.169, 31.592
1035.416, 93.770
1036.663, 33.015
1037.911, 54.792
1039.157, 148.398
1040.404, 10.315
1041.650, 58.884
1042.897, 132.107
1044.143, 35.336
1045.389, 165.569
1046.634, 45.810
1047.880, 70.057
1049.125, 97.309
1050.371, 11.568
1051.615, 140.831
1052.860, 38.098
1054.105, 54.369
1055.349, 143.644
1056.593, 39.075
1057.837, 29.196
1059.081, 138.470
1060.325, 36.756
1061.568, 175.043
1062.812, 68.335
1064.055, 9.631
1065.298, 118.928
1066.540, 8.229
1067.783, 88.530
1069.025, 175.833
1070.267, 15.406
1071.509, 119.724
1072.751, 70.051
1073.993, 77.379
1075.234, 216.708
1076.475, 14.960
1077.716, 134.366
1078.957, 77.691
1080.198, 40.195
1081.438, 123.521
1082.679, 4.847
1083.919, 58.173
1085.159, 137.498
1086.398, 36.828
1087.638, 161.157
1088.877, 16.484
1090.116, 47.135
1091.355, 134.461
1092.594, 44.785
1093.833, 131.216
1095.071, 81.539
1096.309, 29.909
1097.547, 144.229
1098.785, 7.545
1100.023, 2.948
1101.260, 82.265
1102.498, 56.420
1103.735, 67.861
1104.972, 45.138
1106.208, 64.589
1107.445, 84.645
1108.681, 28.874
1109.918, 71.603
1111.154, 166.826
1112.389, 43.956
1113.625, 186.654
1114.860, 15.164
1116.096, 31.000
1117.331, 155.163
1118.566, 61.681
1119.800, 165.718
1121.035, 200.824
1122.269, 286.094
1123.503, 508.493
1124.737, 276.581
1125.971, 107.926
1127.205, 144.275
1128.438, 75.896
1129.671, 86.412
1130.904, 40.435
1132.137, 45.550
1133.370, 103.506
1134.602, 22.522
1135.834, 2.568
1137.066, 101.746
1138.298, 27.333
1139.530, 139.812
1140.762, 66.694
1141.993, 15.433
1143.224, 162.597
1144.455, 14.565
1145.686, 86.244
1146.917, 111.598
1148.147, 66.611
1149.377, 117.279
1150.607, 55.750
1151.837, 6.534
1153.067, 149.606
1154.296, 30.286
1155.526, 111.955
1156.755, 114.365
1157.984, 34.988
1159.213, 114.617
1160.441, 58.610
1161.670, 16.808
1162.898, 181.116
1164.126, 37.653
1165.354, 102.176
1166.581, 102.812
1167.809, 44.538
1169.036, 188.984
1170.263, 30.818
1171.490, 90.366
1172.717, 194.371
1173.943, 80.131
1175.170, 135.620
1176.396, 209.843
1177.622, 38.456
1178.848, 191.222
1180.073, 104.886
1181.299, 87.201
1182.524, 197.720
1183.749, 91.982
1184.974, 139.254
1186.199, 232.697
1187.423, 87.144
1188.648, 256.194
1189.872, 131.225
1191.096, 186.424
1192.320, 294.793
1193.543, 127.872
1194.767, 238.193
1195.990, 279.859
1197.213, 152.652
1198.436, 296.786
1199.659, 210.200
1200.881, 184.274
1202.104, 334.518
1203.326, 163.430
1204.548, 183.077
1205.770, 251.281
1206.991, 137.148
1208.213, 253.124
1209.434, 189.720
1210.655, 181.956
1211.876, 319.026
1213.096, 261.215
1214.317, 192.106
1215.537, 223.980
1216.757, 82.979
1217.977, 238.815
1219.197, 200.431
1220.417, 148.505
1221.636, 316.288
1222.855, 184.693
1224.074, 280.904
1225.293, 296.644
1226.512, 108.692
1227.731, 289.394
1228.949, 239.116
1230.167, 174.044
1231.385, 311.691
1232.603, 218.871
1233.820, 267.481
1235.038, 295.072
1236.255, 89.198
1237.472, 294.750
1238.689, 231.281
1239.906, 136.649
1241.122, 323.142
1242.338, 151.614
1243.555, 212.523
1244.771, 311.956
1245.986, 148.571
1247.202, 281.912
1248.417, 245.287
1249.633, 173.559
1250.848, 341.895
1252.063, 204.210
1253.277, 251.571
1254.492, 302.851
1255.706, 76.560
1256.920, 290.113
1258.134, 206.342
1259.348, 81.786
1260.562, 301.982
1261.775, 183.847
1262.988, 175.825
1264.201, 252.973
1265.414, 95.801
1266.627, 173.917
1267.839, 125.017
1269.052, 95.101
1270.264, 236.167
1271.476, 104.218
1272.688, 102.487
1273.899, 254.504
1275.111, 94.016
1276.322, 251.551
1277.533, 217.517
1278.744, 145.791
1279.955, 180.558
1281.165, 129.169
1282.376, 104.585
1283.586, 303.586
1284.796, 101.736
1286.006, 234.949
1287.215, 303.755
1288.425, 118.456
1289.634, 206.257
1290.843, 168.905
1292.052, 63.583
1293.261, 325.335
1294.469, 120.534
1295.678, 46.218
1296.886, 262.792
1298.094, 67.611
1299.302, 211.556
1300.509, 194.909
1301.717, 45.389
1302.924, 215.883
1304.131, 181.673
1305.338, 72.082
1306.545, 248.430
1307.752, 73.210
1308.958, 165.532
1310.164, 164.805
1311.370, 125.088
1312.576, 119.651
1313.782, 134.465
1314.987, 23.307
1316.193, 121.702
1317.398, 21.866
1318.603, 12.011
1319.807, 127.420
1321.012, 94.484
1322.216, 91.595
1323.421, 65.163
1324.625, 6.851
1325.829, 168.107
1327.032, 99.978
1328.236, 25.894
1329.439, 223.728
1330.642, 2.405
1331.845, 103.443
1333.048, 218.181
1334.251, 47.007
1335.453, 204.763
1336.656, 107.515
1337.858, 28.211
1339.060, 111.874
1340.261, 53.513
1341.463, 42.127
1342.664, 144.781
1343.866, 76.347
1345.067, 174.893
1346.267, 106.496
1347.468, 29.000
1348.669, 243.475
1349.869, 103.938
1351.069, 1.619
1352.269, 249.795
1353.469, 43.192
1354.668, 79.564
1355.868, 114.914
1357.067, 82.239
1358.266, 243.545
1359.465, 199.956
1360.664, 22.782
1361.862, 193.193
1363.061, 1.595
1364.259, 82.590
1365.457, 190.756
1366.655, 43.473
1367.852, 210.599
1369.050, 195.713
1370.247, 73.809
1371.444, 226.710
1372.641, 138.834
1373.838, 84.880
1375.035, 293.911
1376.231, 2.006
1377.427, 152.002
1378.623, 250.982
1379.819, 46.950
1381.015, 153.582
1382.211, 220.421
1383.406, 25.241
1384.601, 237.934
1385.796, 192.709
1386.991, 54.407
1388.185, 276.130
1389.380, 9.542
1390.574, 211.046
1391.768, 278.698
1392.962, 58.507
1394.156, 229.023
1395.350, 173.397
1396.543, 93.651
1397.736, 263.551
1398.929, 52.909
1400.122, 69.327
1401.315, 194.168
1402.507, 78.983
1403.700, 190.513
1404.892, 202.814
1406.084, 24.305
1407.276, 186.754
1408.467, 135.185
1409.659, 242.822
1410.850, 251.197
1412.041, 153.812
1413.232, 158.235
1414.423, 329.719
1415.614, 84.411
1416.804, 141.446
1417.994, 213.092
1419.184, 32.758
1420.374, 249.911
1421.564, 137.650
1422.753, 22.824
1423.943, 204.013
1425.132, 73.663
1426.321, 111.950
1427.510, 231.182
1428.698, 57.229
1429.887, 217.887
1431.075, 179.722
1432.263, 103.446
1433.451, 154.503
1434.639, 164.505
1435.827, 96.071
1437.014, 381.242
1438.201, 92.140
1439.388, 110.739
1440.575, 353.111
1441.762, 32.669
1442.949, 209.447
1444.135, 170.175
1445.321, 100.032
1446.507, 235.003
1447.693, 201.246
1448.879, 164.800
1450.064, 257.554
1451.250, 132.443
1452.435, 74.750
1453.620, 234.399
1454.805, 38.518
1455.989, 179.104
1457.174, 255.283
1458.358, 47.151
1459.542, 279.717
1460.726, 168.253
1461.910, 32.192
1463.093, 326.824
1464.277, 81.083
1465.460, 198.462
1466.643, 291.013
1467.826, 98.967
1469.009, 198.356
1470.191, 280.956
1471.373, 92.588
1472.556, 260.952
1473.738, 211.938
1474.919, 92.910
1476.101, 235.822
1477.283, 258.124
1478.464, 144.906
1479.645, 307.049
1480.826, 110.456
1482.007, 236.120
1483.187, 294.119
1484.368, 57.405
1485.548, 282.652
1486.728, 214.101
1487.908, 52.333
1489.088, 349.548
1490.268, 265.817
1491.447, 109.260
1492.626, 275.590
1493.805, 197.015
1494.984, 81.546
1496.163, 315.667
1497.341, 98.108
1498.520, 104.751
1499.698, 303.155
1500.876, 33.327
1502.054, 315.555
1503.232, 194.946
1504.409, 84.318
1505.586, 308.689
1506.763, 169.038
1507.940, 34.654
1509.117, 135.739
1510.294, 124.528
1511.470, 151.984
1512.647, 275.839
1513.823, 46.284
1514.999, 249.263
1516.174, 300.293
1517.350, 43.380
1518.526, 256.624
1519.701, 204.042
1520.876, 116.542
1522.051, 270.184
1523.226, 150.447
1524.400, 81.325
