##NAMES=Cuprite
##RRUFFID=R050374
##IDEAL CHEMISTRY=Cu^1+^_2_O
##LOCALITY=unknown
##OWNER=RRUFF
##SOURCE=Eugene Schlepp
##DESCRIPTION=Aggregate of deep red cubes
##STATUS=The identification of this mineral has been confirmed by X-ray diffraction and chemical analysis
##URL=rruff.info/R050374
##MEASURED CHEMISTRY=Cu_2.00_O
##PIN_ID=M00318
##ORIENTATION=Laser parallel to -a* (-1 0 0). Fiducial mark perpendicular to laser is parallel to b [0 1 0]
88.54200, 0.0000000E+00
89.77700, 241.4922
91.01200, 1095.910
92.24600, 1736.070
93.48000, 2004.438
94.71400, 2183.672
95.94800, 2201.137
97.18200, 2697.023
98.41600, 3153.848
99.64900, 3174.359
100.8830, 2893.797
102.1160, 3216.375
103.3490, 3351.039
104.5820, 3306.055
105.8150, 2489.867
107.0470, 2701.289
108.2800, 2517.137
109.5120, 2325.980
110.7440, 2709.758
111.9760, 2058.488
113.2080, 2449.535
114.4400, 2434.891
115.6710, 2615.527
116.9030, 2392.477
118.1340, 2300.594
119.3650, 2622.355
120.5960, 2721.391
121.8270, 2467.863
123.0580, 2685.992
124.2880, 2313.305
125.5190, 1811.859
126.7490, 1928.613
127.9790, 2309.281
129.2090, 2831.645
130.4390, 3368.250
131.6680, 3565.207
132.8980, 3637.195
134.1270, 4093.109
135.3560, 4384.164
136.5850, 4858.176
137.8140, 5298.262
139.0430, 5524.480
140.2710, 5935.160
141.5000, 5763.133
142.7280, 5379.852
143.9560, 4924.328
145.1840, 5182.688
146.4120, 4879.734
147.6390, 4712.137
148.8670, 4076.938
150.0940, 3838.473
151.3210, 4112.789
152.5490, 3877.711
153.7750, 3712.582
155.0020, 4025.426
156.2290, 3540.234
157.4550, 3503.699
158.6810, 3301.625
159.9080, 2563.008
161.1340, 2787.863
162.3590, 2432.020
163.5850, 2677.168
164.8110, 2612.637
166.0360, 2563.621
167.2610, 2707.258
168.4860, 2812.629
169.7110, 2928.203
170.9360, 3163.004
172.1610, 3395.508
173.3850, 3626.766
174.6100, 4062.852
175.8340, 4194.383
177.0580, 4618.215
178.2820, 5397.992
179.5050, 5687.137
180.7290, 6331.301
181.9520, 7082.434
183.1760, 7679.465
184.3990, 8928.738
185.6220, 9406.117
186.8450, 9850.672
188.0670, 10087.86
189.2900, 10131.81
190.5120, 10289.93
191.7340, 10559.93
192.9560, 11443.18
194.1780, 12101.64
195.4000, 12552.61
196.6220, 13447.77
197.8430, 13428.85
199.0640, 13570.91
200.2860, 13626.57
201.5070, 13966.24
202.7270, 14468.94
203.9480, 14342.16
205.1690, 14392.02
206.3890, 16071.09
207.6090, 17222.03
208.8290, 19009.95
210.0490, 20545.05
211.2690, 22093.68
212.4890, 24069.80
213.7080, 24933.92
214.9280, 25636.01
216.1470, 25535.36
217.3660, 24387.06
218.5850, 21705.51
219.8030, 18619.95
221.0220, 15399.78
222.2400, 12725.12
223.4590, 10778.62
224.6770, 9175.539
225.8950, 8158.988
227.1120, 6840.355
228.3300, 6576.914
229.5480, 5822.410
230.7650, 5045.547
231.9820, 4792.613
233.1990, 4149.613
234.4160, 3683.539
235.6330, 3565.441
236.8490, 2970.918
238.0660, 2439.637
239.2820, 2041.473
240.4980, 1938.750
241.7140, 1449.004
242.9300, 1301.906
244.1460, 1144.195
245.3610, 766.6758
246.5770, 613.1875
247.7920, 384.5977
249.0070, 222.7969
250.2220, 147.6914
251.4370, 73.80469
252.6510, 132.2344
253.8660, 405.2422
255.0800, 282.3594
256.2940, 255.1289
257.5080, 273.4023
258.7220, 17.19922
259.9360, 796.3281
261.1490, 218.3438
262.3630, 559.8555
263.5760, 606.3047
264.7890, 632.7227
266.0020, 439.1445
267.2150, 376.5391
268.4270, 538.9180
269.6400, 529.3320
270.8520, 418.7969
272.0640, 340.3008
273.2760, 447.8359
274.4880, 484.4453
275.7000, 238.1406
276.9120, 639.8789
278.1230, 273.7734
279.3340, 575.7500
280.5450, 56.90625
281.7560, 318.1484
282.9670, 402.5547
284.1780, 112.1523
285.3880, 165.8828
286.5980, 78.76562
287.8090, 37.78125
289.0190, 130.9180
290.2290, 47.79688
291.4380, 87.59766
292.6480, 105.1328
293.8570, 185.1914
295.0670, 186.4102
296.2760, 145.5273
297.4850, 236.5312
298.6930, 8.429688
299.9020, 364.1758
301.1110, 319.8047
302.3190, 267.3164
303.5270, 141.7031
304.7350, 426.9688
305.9430, 125.1172
307.1510, 472.1367
308.3580, 208.0547
309.5660, 300.8594
310.7730, 46.56250
311.9800, 268.1328
313.1870, 474.6094
314.3940, 587.9844
315.6010, 539.5273
316.8070, 288.4336
318.0130, 295.3281
319.2200, 123.0625
320.4260, 11.31641
321.6310, 6.957031
322.8370, 270.6055
324.0430, 8.941406
325.2480, 167.7812
326.4540, 202.2734
327.6590, 134.3438
328.8640, 119.0039
330.0680, 33.74219
331.2730, 247.7734
332.4780, 131.8047
333.6820, 147.1758
334.8860, 6.644531
336.0900, 112.3398
337.2940, 8.832031
338.4980, 17.84375
339.7010, 80.49609
340.9050, 82.10156
342.1080, 225.2031
343.3110, 87.57422
344.5140, 3.496094
345.7170, 169.5898
346.9200, 9.156250
348.1220, 49.21484
349.3240, 163.7305
350.5270, 12.50000
351.7290, 210.5430
352.9310, 435.4219
354.1320, 69.18359
355.3340, 623.7305
356.5350, 113.0469
357.7370, 408.1680
358.9380, 250.1172
360.1390, 356.8828
361.3400, 397.4766
362.5400, 498.8555
363.7410, 657.0039
364.9410, 625.9023
366.1410, 473.6758
367.3410, 473.3477
368.5410, 533.9375
369.7410, 669.4688
370.9400, 858.9492
372.1400, 672.3945
373.3390, 1008.809
374.5380, 855.1875
375.7370, 998.5352
376.9360, 1063.852
378.1350, 1137.137
379.3330, 1302.395
380.5310, 1326.715
381.7300, 1508.562
382.9280, 1784.453
384.1260, 1771.832
385.3230, 1908.199
386.5210, 1905.551
387.7180, 2085.875
388.9160, 2175.168
390.1130, 2212.422
391.3100, 2406.637
392.5060, 2600.805
393.7030, 2733.918
394.9000, 2805.984
396.0960, 3124.762
397.2920, 3155.242
398.4880, 2905.957
399.6840, 3311.344
400.8800, 3304.574
402.0750, 3353.285
403.2710, 3772.926
404.4660, 3401.504
405.6610, 3938.062
406.8560, 3916.078
408.0510, 3905.047
409.2450, 3792.062
410.4400, 4024.098
411.6340, 3776.027
412.8280, 3789.629
414.0220, 3700.250
415.2160, 3522.398
416.4100, 3527.324
417.6030, 3367.922
418.7970, 3214.051
419.9900, 3138.109
421.1830, 2803.406
422.3760, 2799.609
423.5690, 2681.590
424.7610, 2686.230
425.9540, 2487.691
427.1460, 2354.129
428.3380, 2262.941
429.5300, 2187.422
430.7220, 2109.832
431.9140, 2046.535
433.1050, 2002.953
434.2970, 1916.945
435.4880, 1891.723
436.6790, 1803.180
437.8700, 1716.648
439.0610, 1519.367
440.2510, 1547.414
441.4420, 1468.426
442.6320, 1427.281
443.8220, 1496.234
445.0120, 1151.156
446.2020, 1376.055
447.3910, 1536.996
448.5810, 1225.844
449.7700, 1144.777
450.9600, 1387.574
452.1490, 1189.031
453.3370, 1285.805
454.5260, 1330.441
455.7150, 1178.164
456.9030, 1552.883
458.0910, 1322.590
459.2800, 1398.281
460.4670, 1299.789
461.6550, 1273.262
462.8430, 1376.250
464.0300, 1666.523
465.2180, 1185.586
466.4050, 1663.117
467.5920, 1661.793
468.7790, 1406.332
469.9650, 1806.766
471.1520, 1617.836
472.3380, 1742.191
473.5250, 1841.383
474.7110, 1874.883
475.8970, 1938.328
477.0820, 1576.289
478.2680, 1676.523
479.4540, 1797.789
480.6390, 2036.688
481.8240, 1834.047
483.0090, 1704.566
484.1940, 1950.891
485.3780, 2101.879
486.5630, 1834.711
487.7470, 1576.809
488.9320, 1785.695
490.1160, 1708.988
491.3000, 1498.805
492.4830, 1798.859
493.6670, 1473.195
494.8500, 1655.340
496.0340, 1879.156
497.2170, 1683.387
498.4000, 1825.020
499.5820, 1387.996
500.7650, 1778.531
501.9480, 1558.879
503.1300, 1476.652
504.3120, 1482.137
505.4940, 1606.750
506.6760, 1463.445
507.8580, 1354.199
509.0390, 1523.734
510.2210, 1556.316
511.4020, 1444.246
512.5830, 1495.242
513.7640, 1340.297
514.9450, 1255.410
516.1250, 1396.590
517.3060, 1357.832
518.4860, 1315.141
519.6660, 1693.516
520.8460, 1447.949
522.0260, 1504.457
523.2060, 1338.023
524.3850, 1303.840
525.5650, 1462.359
526.7440, 1295.125
527.9230, 1449.957
529.1020, 1559.859
530.2810, 1406.832
531.4590, 1248.895
532.6380, 1339.023
533.8160, 1219.227
534.9940, 1334.496
536.1720, 1349.840
537.3500, 1183.258
538.5270, 1608.750
539.7050, 1446.316
540.8820, 1342.020
542.0590, 1189.836
543.2360, 1630.770
544.4130, 1441.773
545.5900, 1425.859
546.7660, 1287.023
547.9430, 1214.293
549.1190, 1497.750
550.2950, 1385.414
551.4710, 1717.285
552.6470, 1653.258
553.8220, 1607.543
554.9980, 1560.941
556.1730, 1718.539
557.3480, 1599.309
558.5230, 1704.234
559.6980, 1680.348
560.8730, 1611.648
562.0470, 1583.098
563.2220, 1673.828
564.3960, 1395.711
565.5700, 1500.824
566.7440, 1910.059
567.9170, 1950.465
569.0910, 1936.570
570.2640, 2099.094
571.4380, 1731.770
572.6110, 1518.797
573.7840, 1407.887
574.9570, 1429.379
576.1290, 1356.910
577.3020, 1303.598
578.4740, 1412.691
579.6460, 1297.695
580.8180, 1468.812
581.9900, 1320.977
583.1620, 1118.348
584.3330, 1045.785
585.5040, 1097.516
586.6760, 902.1719
587.8470, 1176.059
589.0180, 962.9922
590.1880, 868.0586
591.3590, 903.3359
592.5290, 1063.578
593.7000, 1173.086
594.8700, 1006.777
596.0400, 1354.660
597.2090, 1285.707
598.3790, 1555.883
599.5490, 1207.168
600.7180, 1582.719
601.8870, 1571.215
603.0560, 1786.828
604.2250, 2093.559
605.3940, 2296.512
606.5620, 2293.625
607.7300, 2689.879
608.8990, 2539.312
610.0670, 2698.883
611.2350, 3052.605
612.4020, 3231.469
613.5700, 3639.051
614.7370, 3845.219
615.9050, 4207.609
617.0720, 4493.156
618.2390, 4478.867
619.4060, 4536.590
620.5720, 4820.297
621.7390, 4815.527
622.9050, 4786.934
624.0710, 4936.516
625.2370, 5057.262
626.4030, 5057.125
627.5690, 5107.176
628.7340, 5017.891
629.9000, 4701.824
631.0650, 4823.445
632.2300, 4597.316
633.3950, 4598.406
634.5600, 4224.664
635.7240, 4112.047
636.8890, 4361.543
638.0530, 3996.195
639.2170, 4143.941
640.3810, 3868.832
641.5450, 3804.820
642.7080, 3739.930
643.8720, 3193.145
645.0350, 3063.465
646.1980, 3154.883
647.3610, 2677.398
648.5240, 2600.027
649.6870, 2513.750
650.8490, 2336.574
652.0120, 1974.492
653.1740, 1888.504
654.3360, 1597.617
655.4980, 1720.820
656.6600, 1510.473
657.8210, 1316.879
658.9830, 1357.375
660.1440, 1558.969
661.3050, 1178.648
662.4660, 1082.426
663.6270, 1131.289
664.7870, 616.2539
665.9480, 1136.301
667.1080, 751.4375
668.2680, 996.6719
669.4280, 739.9922
670.5880, 850.0195
671.7480, 860.5234
672.9070, 960.1172
674.0670, 853.9062
675.2260, 537.5703
676.3850, 610.4531
677.5440, 595.4336
678.7030, 473.5039
679.8610, 615.6641
681.0200, 298.9062
682.1780, 484.2344
683.3360, 418.6445
684.4940, 411.1367
685.6520, 489.8047
686.8090, 314.3711
687.9670, 518.1133
689.1240, 293.9336
690.2810, 197.8438
691.4380, 173.9336
692.5950, 103.4648
693.7520, 105.7773
694.9080, 136.3477
696.0650, 144.6328
697.2210, 225.9961
698.3770, 279.4258
699.5330, 198.9297
700.6880, 125.5078
701.8440, 19.49609
702.9990, 92.20703
704.1550, 100.9844
705.3100, 165.3789
706.4650, 246.6680
707.6190, 237.3945
708.7740, 363.4219
709.9290, 114.6016
711.0830, 196.7578
712.2370, 9.222656
713.3910, 54.25391
714.5450, 126.5586
715.6980, 244.8828
716.8520, 27.11328
718.0050, 267.6055
719.1580, 70.16016
720.3110, 151.7461
721.4640, 168.8945
722.6170, 253.5859
723.7700, 27.68359
724.9220, 93.54297
726.0740, 5.335938
727.2260, 394.6445
728.3780, 301.9297
729.5300, 80.37500
730.6810, 218.6289
731.8330, 8.925781
732.9840, 50.32422
734.1350, 72.64453
735.2860, 129.2148
736.4370, 260.8906
737.5880, 155.0938
738.7380, 19.52344
739.8880, 110.4766
741.0390, 114.3398
742.1890, 35.33594
743.3380, 112.6484
744.4880, 98.19141
745.6380, 87.00781
746.7870, 128.6406
747.9360, 81.39453
749.0850, 65.10938
750.2340, 131.1016
751.3830, 50.46875
752.5310, 171.7812
753.6800, 154.6680
754.8280, 10.50391
755.9760, 2.597656
757.1240, 63.25391
758.2720, 166.6445
759.4190, 110.3359
760.5670, 444.0430
761.7140, 1.859375
762.8610, 185.6836
764.0080, 334.2578
765.1550, 29.54688
766.3020, 52.12891
767.4480, 236.1211
768.5950, 122.7422
769.7410, 109.9883
770.8870, 192.2422
772.0330, 128.1797
773.1780, 319.5859
774.3240, 217.6172
775.4690, 224.9102
776.6140, 462.4883
777.7590, 243.0508
778.9040, 518.8555
780.0490, 486.4102
781.1940, 362.9492
782.3380, 418.3086
783.4820, 302.8320
784.6260, 470.3398
785.7700, 431.3203
786.9140, 308.3359
788.0580, 557.8086
789.2010, 477.5586
790.3450, 248.0039
791.4880, 473.3320
792.6310, 300.7383
793.7730, 16.21484
794.9160, 278.1602
796.0590, 380.5156
797.2010, 224.8516
798.3430, 283.1680
799.4850, 489.4609
800.6270, 554.7305
801.7690, 428.9844
802.9100, 276.2148
804.0520, 321.4141
805.1930, 477.7969
806.3340, 175.9492
807.4750, 117.8203
808.6160, 83.63672
809.7560, 244.6719
810.8970, 246.8945
812.0370, 369.9844
813.1770, 390.3555
814.3170, 178.9141
815.4570, 406.0664
816.5960, 217.5938
817.7360, 191.4219
818.8750, 433.2188
820.0140, 322.9805
821.1530, 303.7109
822.2920, 512.5312
823.4310, 223.5859
824.5690, 115.2109
825.7070, 283.8008
826.8460, 369.2070
827.9840, 30.28125
829.1220, 225.1719
830.2590, 111.9336
831.3970, 25.30859
832.5340, 100.6367
833.6710, 302.0781
834.8080, 183.5508
835.9450, 214.7617
837.0820, 301.9258
838.2190, 146.9453
839.3550, 63.04297
840.4910, 98.98828
841.6270, 33.71094
842.7630, 78.71094
843.8990, 92.51562
845.0350, 109.1445
846.1700, 61.75391
847.3060, 147.3203
848.4410, 36.83594
849.5760, 182.7891
850.7100, 240.5039
851.8450, 46.42578
852.9800, 213.4492
854.1140, 18.14062
855.2480, 6.734375
856.3820, 171.4727
857.5160, 20.04688
858.6500, 253.5430
859.7830, 152.9922
860.9170, 5.812500
862.0500, 224.5117
863.1830, 128.5117
864.3160, 78.45312
865.4480, 301.5586
866.5810, 264.0820
867.7130, 47.19141
868.8460, 217.7344
869.9780, 182.4844
871.1100, 152.4297
872.2410, 24.56250
873.3730, 58.19531
874.5050, 148.8750
875.6360, 45.32812
876.7670, 75.86719
877.8980, 114.3281
879.0290, 135.2734
880.1590, 30.94531
881.2900, 34.92969
882.4200, 8.066406
883.5500, 44.75781
884.6800, 38.24219
885.8100, 54.42188
886.9400, 158.0000
888.0690, 136.6680
889.1990, 169.3984
890.3280, 2.226563
891.4570, 104.0391
892.5860, 20.78906
893.7140, 123.5703
894.8430, 223.6914
895.9710, 104.5273
897.1000, 81.27344
898.2280, 200.9102
899.3560, 616.5156
900.4830, 161.0586
901.6110, 415.5352
902.7380, 56.94531
903.8660, 6.265625
904.9930, 146.5273
906.1200, 53.48438
907.2460, 95.39844
908.3730, 368.2344
909.5000, 127.0078
910.6260, 115.7148
911.7520, 291.3477
912.8780, 472.9219
914.0040, 237.4297
915.1290, 316.3555
916.2550, 387.2695
917.3800, 179.6016
918.5050, 299.8633
919.6300, 326.0664
920.7550, 95.20312
921.8800, 217.2617
923.0040, 409.2539
924.1290, 249.1836
925.2530, 362.0508
926.3770, 183.8555
927.5010, 372.5859
928.6250, 93.26953
929.7480, 371.5352
930.8720, 570.0742
931.9950, 569.5508
933.1180, 411.9727
934.2410, 589.4062
935.3640, 364.6328
936.4860, 718.8711
937.6090, 409.0469
938.7310, 395.1602
939.8530, 287.2422
940.9750, 424.2656
942.0970, 314.2188
943.2180, 151.5156
944.3400, 385.3594
945.4610, 286.1445
946.5820, 175.8672
947.7030, 48.51172
948.8240, 85.08594
949.9450, 164.6172
951.0650, 225.9375
952.1860, 361.2695
953.3060, 547.5469
954.4260, 380.7695
955.5460, 601.9375
956.6650, 322.0430
957.7850, 261.0938
958.9040, 367.0781
960.0230, 437.0117
961.1420, 206.8828
962.2610, 382.6914
963.3800, 554.3359
964.4990, 274.0312
965.6170, 619.6680
966.7350, 510.2461
967.8530, 324.7773
968.9710, 306.2461
970.0890, 426.6641
971.2070, 727.0273
972.3240, 511.3359
973.4410, 533.2422
974.5580, 518.4414
975.6750, 502.5898
976.7920, 645.7539
977.9090, 440.7930
979.0250, 340.0273
980.1410, 550.9688
981.2580, 699.7695
982.3740, 593.6055
983.4890, 586.5820
984.6050, 637.1094
985.7200, 653.8164
986.8360, 839.5117
987.9510, 467.5391
989.0660, 460.8477
990.1810, 513.3359
991.2950, 790.7891
992.4100, 489.6914
993.5240, 694.0547
994.6390, 650.3750
995.7530, 501.2070
996.8660, 998.1445
997.9800, 742.2227
999.0940, 720.0039
1000.207, 701.6289
1001.320, 794.7070
1002.433, 950.2070
1003.546, 559.8672
1004.659, 678.6016
1005.772, 712.0898
1006.884, 908.4727
1007.996, 993.3242
1009.108, 720.9961
1010.220, 1095.047
1011.332, 739.2266
1012.444, 945.2773
1013.555, 873.0078
1014.666, 942.8984
1015.777, 917.7148
1016.888, 854.1172
1017.999, 1061.391
1019.110, 992.6992
1020.220, 833.2266
1021.331, 939.3047
1022.441, 1047.062
1023.551, 1105.168
1024.661, 929.3242
1025.770, 1239.211
1026.880, 1023.035
1027.989, 1070.383
1029.098, 1366.715
1030.207, 1234.531
1031.316, 1282.605
1032.425, 1126.664
1033.533, 1034.961
1034.642, 1136.527
1035.750, 1007.785
1036.858, 1142.625
1037.966, 1131.812
1039.073, 1098.473
1040.181, 1195.027
1041.288, 1339.055
1042.396, 1333.242
1043.503, 1041.070
1044.610, 1135.512
1045.716, 1326.648
1046.823, 1214.852
1047.929, 1539.723
1049.036, 1546.125
1050.142, 1393.219
1051.248, 1484.480
1052.353, 1427.668
1053.459, 1471.719
1054.564, 1373.277
1055.670, 1324.777
1056.775, 1438.793
1057.880, 1512.758
1058.985, 1202.750
1060.089, 1431.832
1061.194, 1194.152
1062.298, 1363.469
1063.402, 1298.430
1064.506, 1374.102
1065.610, 1493.047
1066.713, 1353.988
1067.817, 1305.918
1068.920, 1404.844
1070.023, 1324.758
1071.126, 1613.668
1072.229, 1393.496
1073.332, 1716.961
1074.435, 1129.844
1075.537, 1353.840
1076.639, 1406.336
1077.741, 1422.207
1078.843, 1257.867
1079.945, 1303.742
1081.046, 1088.270
1082.148, 1233.270
1083.249, 1108.852
1084.350, 1054.027
1085.451, 926.8750
1086.551, 1107.621
1087.652, 996.5859
1088.752, 1095.543
1089.853, 1135.488
1090.953, 1064.934
1092.053, 1187.961
1093.152, 1192.000
1094.252, 1155.199
1095.351, 1123.316
1096.451, 1104.328
1097.550, 1024.305
1098.649, 1078.035
1099.748, 991.2500
1100.846, 1038.797
1101.945, 1137.613
1103.043, 952.8242
1104.141, 1108.027
1105.239, 897.2266
1106.337, 1016.469
1107.434, 686.7031
1108.532, 866.9609
1109.629, 766.2305
1110.726, 1175.504
1111.823, 525.7969
1112.920, 838.5078
1114.017, 1718.391
1115.113, 1018.719
1116.210, 968.1016
1117.306, 1096.488
1118.402, 1352.957
1119.498, 1142.023
1120.593, 1257.641
1121.689, 1067.219
1122.784, 1024.812
1123.879, 1009.410
1124.974, 851.0156
1126.069, 835.6172
1127.164, 1023.223
1128.259, 484.7188
1129.353, 942.3398
1130.447, 1191.652
1131.541, 1244.277
1132.635, 512.2383
1133.729, 793.8906
1134.822, 669.5469
1135.916, 527.9336
1137.009, 953.0117
1138.102, 334.6094
1139.195, 750.4141
1140.288, 753.3242
1141.380, 945.2148
1142.473, 727.8984
1143.565, 636.9922
1144.657, 955.4375
1145.749, 1047.266
1146.841, 783.9961
1147.932, 989.4062
1149.024, 356.8789
1150.115, 458.4883
1151.206, 878.0234
1152.297, 634.9180
1153.388, 579.3320
1154.479, 359.4453
1155.569, 296.3594
1156.659, 401.3789
1157.750, 403.4180
1158.839, 388.0742
1159.929, 348.2500
1161.019, 459.0742
1162.108, 432.4375
1163.198, 571.6172
1164.287, 441.6680
1165.376, 239.2266
1166.465, 147.2695
1167.553, 305.0312
1168.642, 398.9414
1169.730, 5.503906
1170.818, 320.1680
1171.906, 256.6016
1172.994, 314.7734
1174.082, 86.91406
1175.170, 559.1406
1176.257, 171.9375
1177.344, 17.78516
1178.431, 266.1211
1179.518, 90.34375
1180.605, 421.4219
1181.691, 256.5234
1182.778, 16.98047
1183.864, 309.8125
1184.950, 69.00391
1186.036, 174.1406
1187.122, 186.0078
1188.207, 0.2109380
1189.292, 152.6133
1190.378, 251.0625
1191.463, 87.10547
1192.548, 134.8164
1193.632, 146.2422
1194.717, 27.56250
1195.801, 147.7109
1196.886, 222.5547
1197.970, 175.1953
1199.054, 259.8164
1200.137, 92.88281
1201.221, 197.3984
1202.305, 162.1836
1203.388, 173.1719
1204.471, 108.0352
1205.554, 128.0586
1206.637, 278.2148
1207.719, 107.6523
1208.802, 305.6055
1209.884, 638.2422
1210.966, 423.6445
1212.048, 1136.855
1213.130, 304.5000
1214.212, 301.2773
1215.293, 702.7539
1216.374, 62.11328
1217.456, 194.8125
1218.536, 449.1953
1219.617, 208.1133
1220.698, 279.6680
1221.778, 267.5781
1222.859, 364.2461
1223.939, 362.6602
1225.019, 425.1875
1226.099, 306.2812
1227.178, 383.4023
1228.258, 94.11328
1229.337, 559.6250
1230.417, 352.1953
1231.496, 150.5352
1232.574, 457.1875
1233.653, 418.2930
1234.732, 479.2617
1235.810, 414.8086
1236.888, 460.9844
1237.966, 446.2227
1239.044, 484.7383
1240.122, 474.5625
1241.199, 385.0508
1242.277, 509.8125
1243.354, 527.5430
1244.431, 521.7266
1245.508, 253.2812
1246.585, 472.9102
1247.661, 282.7266
1248.738, 136.2891
1249.814, 264.1406
1250.890, 368.5273
1251.966, 417.8477
1253.042, 409.5547
1254.117, 432.9297
1255.193, 489.3633
1256.268, 335.2891
1257.343, 238.9570
1258.418, 198.6289
1259.493, 364.0898
1260.567, 441.1562
1261.642, 33.50391
1262.716, 397.5508
1263.790, 154.1602
1264.864, 473.1133
1265.938, 224.9492
1267.011, 271.6758
1268.085, 525.0664
1269.158, 365.8164
1270.231, 342.2695
1271.304, 352.6836
1272.377, 442.2852
1273.450, 398.8789
1274.522, 440.3828
