##NAMES=Cuprite
##RRUFFID=R050384
##IDEAL CHEMISTRY=Cu^1+^_2_O
##LOCALITY=Lavender Pit, Bisbee, Warren District, Cochise County, Arizona, USA
##OWNER=RRUFF
##SOURCE=University of Arizona Mineral Museum
##DESCRIPTION=Deep red to nearly black cubes
##STATUS=The identification of this mineral has been confirmed by X-ray diffraction and chemical analysis
##URL=rruff.info/R050384
##MEASURED CHEMISTRY=Cu_2.00_O
##PIN_ID=M00339
##ORIENTATION=Laser parallel to b* (0 1 0). Fiducial mark perpendicular to laser is parallel to c [0 0 1]
53.91000, 0.0000000E+00
55.14900, 39.43347
56.38700, 70.30896
57.62600, 82.99927
58.86400, 155.9978
60.10300, 144.5717
61.34100, 46.68237
62.57900, 15.57983
63.81700, 39.32141
65.05400, 63.61780
66.29200, 34.86365
67.52900, 98.43701
68.76700, 365.8325
70.00400, 431.0710
71.24100, 647.3625
72.47700, 699.8459
73.71400, 881.1294
74.95100, 992.9968
76.18700, 1189.978
77.42300, 1369.702
78.65900, 1684.179
79.89500, 1999.527
81.13100, 2388.604
82.36700, 2800.282
83.60200, 3134.449
84.83700, 3193.001
86.07200, 3381.847
87.30800, 3550.902
88.54200, 3818.092
89.77700, 4043.357
91.01200, 4497.706
92.24600, 4730.116
93.48000, 4774.533
94.71400, 4899.893
95.94800, 5030.147
97.18200, 5218.172
98.41600, 5419.071
99.64900, 5642.623
100.8830, 5900.837
102.1160, 6062.670
103.3490, 6448.084
104.5820, 7385.049
105.8150, 8324.534
107.0470, 10024.51
108.2800, 11394.96
109.5120, 9631.861
110.7440, 7830.187
111.9760, 7341.921
113.2080, 7277.044
114.4400, 7328.544
115.6710, 7177.405
116.9030, 6694.607
118.1340, 6201.144
119.3650, 5761.997
120.5960, 5692.157
121.8270, 5832.613
123.0580, 5970.352
124.2880, 5854.477
125.5190, 5696.188
126.7490, 5986.773
127.9790, 6395.263
129.2090, 6715.082
130.4390, 7145.221
131.6680, 7329.630
132.8980, 7698.320
134.1270, 7883.203
135.3560, 8148.319
136.5850, 8505.638
137.8140, 9097.065
139.0430, 9548.509
140.2710, 9799.965
141.5000, 9881.451
142.7280, 10016.97
143.9560, 9890.532
145.1840, 9895.146
146.4120, 9724.814
147.6390, 9526.545
148.8670, 9048.341
150.0940, 8769.205
151.3210, 8518.141
152.5490, 8122.149
153.7750, 7825.234
155.0020, 7804.396
156.2290, 7702.638
157.4550, 7486.527
158.6810, 7342.357
159.9080, 7061.834
161.1340, 6668.392
162.3590, 6294.030
163.5850, 6175.746
164.8110, 6021.541
166.0360, 5679.411
167.2610, 5542.360
168.4860, 5648.382
169.7110, 5791.475
170.9360, 6011.645
172.1610, 6081.881
173.3850, 6448.188
174.6100, 6691.562
175.8340, 7116.005
177.0580, 7260.513
178.2820, 7631.084
179.5050, 7920.719
180.7290, 8308.414
181.9520, 8897.171
183.1760, 9376.988
184.3990, 10117.86
185.6220, 11273.79
186.8450, 11396.78
188.0670, 11422.82
189.2900, 11367.91
190.5120, 11064.06
191.7340, 10881.26
192.9560, 10898.99
194.1780, 11205.76
195.4000, 12058.85
196.6220, 12951.50
197.8430, 13493.24
199.0640, 13792.89
200.2860, 13791.70
201.5070, 13824.63
202.7270, 13956.37
203.9480, 13878.65
205.1690, 14406.46
206.3890, 15426.14
207.6090, 17125.03
208.8290, 18644.54
210.0490, 20484.29
211.2690, 22349.95
212.4890, 26017.67
213.7080, 26106.47
214.9280, 27704.79
216.1470, 28743.75
217.3660, 28832.67
218.5850, 27198.40
219.8030, 24152.03
221.0220, 20325.49
222.2400, 16398.13
223.4590, 13581.97
224.6770, 11730.00
225.8950, 10039.21
227.1120, 8901.594
228.3300, 7950.138
229.5480, 7493.839
230.7650, 6708.688
231.9820, 6201.679
233.1990, 5810.803
234.4160, 5415.056
235.6330, 4855.433
236.8490, 4382.927
238.0660, 4022.535
239.2820, 3556.251
240.4980, 3237.069
241.7140, 2928.984
242.9300, 2547.001
244.1460, 2341.114
245.3610, 2178.312
246.5770, 1939.609
247.7920, 1731.985
249.0070, 1629.436
250.2220, 1449.968
251.4370, 1322.573
252.6510, 1148.246
253.8660, 938.6177
255.0800, 1031.840
256.2940, 1060.093
257.5080, 1026.871
258.7220, 747.8486
259.9360, 786.3530
261.1490, 697.7222
262.3630, 603.8818
263.5760, 687.2588
264.7890, 585.3960
266.0020, 592.6958
267.2150, 464.0474
268.4270, 423.4399
269.6400, 357.8755
270.8520, 431.3491
272.0640, 392.8569
273.2760, 458.3950
274.4880, 382.9600
275.7000, 491.5488
276.9120, 441.1616
278.1230, 390.7954
279.3340, 358.4507
280.5450, 423.1245
281.7560, 391.8174
282.9670, 484.5278
284.1780, 431.2549
285.3880, 509.9980
286.5980, 463.7578
287.8090, 619.5337
289.0190, 522.3257
290.2290, 592.1328
291.4380, 594.9561
292.6480, 604.7935
293.8570, 532.6455
295.0670, 572.5117
296.2760, 593.3911
297.4850, 550.2842
298.6930, 596.1895
299.9020, 657.1074
301.1110, 705.0371
302.3190, 663.9775
303.5270, 624.9292
304.7350, 576.8911
305.9430, 545.8628
307.1510, 529.2734
308.3580, 509.1895
309.5660, 516.8330
310.7730, 483.8389
311.9800, 488.8525
313.1870, 455.8735
314.3940, 439.9009
315.6010, 434.9341
316.8070, 460.9736
318.0130, 387.0181
319.2200, 407.0674
320.4260, 345.1211
321.6310, 324.1787
322.8370, 246.2397
324.0430, 208.3042
325.2480, 176.3711
326.4540, 172.4409
327.6590, 210.5127
328.8640, 56.58594
330.0680, 20.33936
331.2730, 12.72754
332.4780, 105.2080
333.6820, 61.17334
334.8860, 36.15869
336.0900, 90.74658
337.2940, 82.33691
338.4980, 140.2529
339.7010, 131.3940
340.9050, 173.6113
342.1080, 177.9351
343.3110, 161.3916
344.5140, 240.9985
345.7170, 195.7900
346.9200, 178.6660
348.1220, 156.6162
349.3240, 186.6304
350.5270, 210.7236
351.7290, 126.9102
352.9310, 180.1479
354.1320, 151.4624
355.3340, 200.8433
356.5350, 129.3115
357.7370, 44.83350
358.9380, 139.3760
360.1390, 109.9907
361.3400, 103.6660
362.5400, 10.59961
363.7410, 54.14062
364.9410, 29.08154
366.1410, 78.30273
367.3410, 106.5356
368.5410, 95.77930
369.7410, 182.0332
370.9400, 207.2969
372.1400, 359.5698
373.3390, 362.8496
374.5380, 328.1362
375.7370, 484.4297
376.9360, 475.7275
378.1350, 570.0312
379.3330, 613.3389
380.5310, 635.6499
381.7300, 753.4746
382.9280, 859.7915
384.1260, 896.1099
385.3230, 969.4297
386.5210, 1111.763
387.7180, 1171.228
388.9160, 1330.549
390.1130, 1422.782
391.3100, 1538.250
392.5060, 1568.566
393.7030, 1658.454
394.9000, 1868.647
396.0960, 2005.956
397.2920, 2024.677
398.4880, 2238.807
399.6840, 2291.027
400.8800, 2523.740
402.0750, 2407.027
403.2710, 2668.593
404.4660, 2763.870
405.6610, 2821.141
406.8560, 2949.405
408.0510, 2886.664
409.2450, 2998.203
410.4400, 2961.229
411.6340, 2851.468
412.8280, 2868.294
414.0220, 2784.517
415.2160, 2720.732
416.4100, 2707.938
417.6030, 2593.029
418.7970, 2551.329
419.9900, 2403.510
421.1830, 2251.684
422.3760, 2156.848
423.5690, 2164.004
424.7610, 1970.152
425.9540, 1929.290
427.1460, 1769.420
428.3380, 1696.540
429.5300, 1582.651
430.7220, 1462.753
431.9140, 1442.846
433.1050, 1274.930
434.2970, 1239.003
435.4880, 1102.068
436.6790, 1002.124
437.8700, 984.1689
439.0610, 882.2046
440.2510, 931.2314
441.4420, 833.2485
442.6320, 818.2563
443.8220, 711.2544
445.0120, 645.2427
446.2020, 655.2217
447.3910, 703.1904
448.5810, 676.1499
449.7700, 626.0991
450.9600, 651.8979
452.1490, 657.9697
453.3370, 605.8906
454.5260, 628.8018
455.7150, 614.1104
456.9030, 571.5986
458.0910, 606.4834
459.2800, 607.3584
460.4670, 594.2256
461.6550, 565.0840
462.8430, 613.9346
464.0300, 660.7773
465.2180, 648.6133
466.4050, 695.4429
467.5920, 694.2656
468.7790, 813.0815
469.9650, 719.8906
471.1520, 775.6924
472.3380, 927.4873
473.5250, 921.8672
474.7110, 993.6509
475.8970, 955.2090
477.0820, 959.0557
478.2680, 939.1699
479.4540, 988.2119
480.6390, 1039.609
481.8240, 993.5518
483.0090, 919.8999
484.1940, 950.6655
485.3780, 859.0874
486.5630, 838.3784
487.7470, 675.7861
488.9320, 752.8779
490.1160, 739.8872
491.3000, 622.1055
492.4830, 640.4854
493.6670, 459.3105
494.8500, 530.0381
496.0340, 552.5791
497.2170, 452.7314
498.4000, 494.8535
499.5820, 373.1777
500.7650, 368.3877
501.9480, 380.0029
503.1300, 380.2852
504.3120, 335.8838
505.4940, 290.9233
506.6760, 279.3203
507.8580, 246.1113
509.0390, 258.9482
510.2210, 228.7959
511.4020, 177.6523
512.5830, 141.5127
513.7640, 268.3770
514.9450, 117.2471
516.1250, 221.1211
517.3060, 125.0015
518.4860, 70.88818
519.6660, 79.77881
520.8460, 27.67529
522.0260, 133.5801
523.2060, 11.51074
524.3850, 71.39648
525.5650, 32.31055
526.7440, 39.22949
527.9230, 44.84570
529.1020, 26.93408
530.2810, 55.97119
531.4590, 83.11475
532.6380, 2.232910
533.8160, 10.65039
534.9940, 37.46045
536.1720, 22.58203
537.3500, 6.291992
538.5270, 34.82764
539.7050, 43.95508
540.8820, 24.59717
542.0590, 35.79199
543.2360, 7.615234
544.4130, 8.528320
545.5900, 7.428711
546.7660, 38.19678
547.9430, 16.07080
549.1190, 51.95117
550.2950, 35.16162
551.4710, 46.28271
552.6470, 27.58691
553.8220, 19.53662
554.9980, 54.33838
556.1730, 122.2212
557.3480, 7.111816
558.5230, 146.0093
559.6980, 119.9116
560.8730, 70.81982
562.0470, 115.7349
563.2220, 150.6572
564.3960, 137.5859
565.5700, 197.5215
566.7440, 239.4639
567.9170, 371.4141
569.0910, 348.3701
570.2640, 360.3359
571.4380, 287.3081
572.6110, 410.2881
573.7840, 394.2856
574.9570, 299.2935
576.1290, 506.3071
577.3020, 431.3403
578.4740, 325.3989
579.6460, 483.4634
580.8180, 519.5327
581.9900, 588.6387
583.1620, 557.7549
584.3330, 561.8818
585.5040, 607.0146
586.6760, 669.1533
587.8470, 649.2988
589.0180, 697.4487
590.1880, 793.6055
591.3590, 760.8638
592.5290, 742.1401
593.7000, 847.4092
594.8700, 852.6152
596.0400, 896.2090
597.2090, 959.5547
598.3790, 996.0659
599.5490, 1125.358
600.7180, 1187.490
601.8870, 1267.644
603.0560, 1413.353
604.2250, 1436.034
605.3940, 1638.064
606.5620, 1749.114
607.7300, 1933.245
608.8990, 2193.322
610.0670, 2261.203
611.2350, 2509.200
612.4020, 2602.365
613.5700, 2840.727
614.7370, 3154.926
615.9050, 3296.347
617.0720, 3559.411
618.2390, 3857.327
619.4060, 4157.680
620.5720, 4142.291
621.7390, 4289.380
622.9050, 4307.940
624.0710, 4495.772
625.2370, 4545.675
626.4030, 4519.272
627.5690, 4370.551
628.7340, 4388.332
629.9000, 4278.063
631.0650, 4138.845
632.2300, 4063.657
633.3950, 4081.567
634.5600, 3995.429
635.7240, 3836.775
636.8890, 3914.611
638.0530, 3813.519
639.2170, 3711.618
640.3810, 3686.264
641.5450, 3601.396
642.7080, 3580.838
643.8720, 3375.738
645.0350, 3215.467
646.1980, 3094.365
647.3610, 3110.114
648.5240, 2823.238
649.6870, 2896.252
650.8490, 2541.650
652.0120, 2332.414
653.1740, 2165.166
654.3360, 1979.146
655.4980, 1878.857
656.6600, 1686.022
657.8210, 1597.310
658.9830, 1513.987
660.1440, 1478.224
661.3050, 1385.649
662.4660, 1289.673
663.6270, 1228.266
664.7870, 1169.360
665.9480, 1109.096
667.1080, 1062.754
668.2680, 1023.111
669.4280, 983.2197
670.5880, 967.0522
671.7480, 856.9824
672.9070, 854.6387
674.0670, 784.8193
675.2260, 757.3589
676.3850, 745.7900
677.5440, 615.0840
678.7030, 710.1343
679.8610, 731.9487
681.0200, 586.3872
682.1780, 598.1953
683.3360, 599.7144
684.4940, 577.7607
685.6520, 616.3486
686.8090, 603.9268
687.9670, 588.8638
689.1240, 521.6030
690.2810, 562.4438
691.4380, 492.1846
692.5950, 511.6851
693.7520, 783.1948
694.9080, 601.8320
696.0650, 867.3154
697.2210, 369.6729
698.3770, 488.6060
699.5330, 251.7310
700.6880, 282.0474
701.8440, 265.2896
702.9990, 292.6089
704.1550, 290.8345
705.3100, 254.1089
706.4650, 224.5459
707.6190, 196.0239
708.7740, 224.4580
709.9290, 173.8901
711.0830, 125.1274
712.2370, 222.8262
713.3910, 212.6387
714.5450, 210.6426
715.6980, 160.6709
716.8520, 138.9951
718.0050, 280.9307
719.1580, 174.7080
720.3110, 216.7861
721.4640, 139.4575
722.6170, 186.5322
723.7700, 207.3691
724.9220, 237.2432
726.0740, 138.1572
727.2260, 273.7881
728.3780, 160.9502
729.5300, 90.91553
730.6810, 92.56152
731.8330, 100.0547
732.9840, 153.7461
734.1350, 37.59863
735.2860, 107.4141
736.4370, 92.44873
737.5880, 152.1313
738.7380, 79.66846
739.8880, 132.0532
741.0390, 16.38037
742.1890, 94.65137
743.3380, 22.85010
744.4880, 34.39941
745.6380, 19.74707
746.7870, 54.20752
747.9360, 107.3042
749.0850, 85.08301
750.2340, 49.09912
751.3830, 6.109863
752.5310, 67.47314
753.6800, 34.44385
754.8280, 145.6978
755.9760, 36.92383
757.1240, 93.90186
758.2720, 42.48389
759.4190, 19.95215
760.5670, 77.47021
761.7140, 32.23584
762.8610, 45.41016
764.0080, 36.00830
765.1550, 54.86523
766.3020, 109.7466
767.4480, 137.7856
768.5950, 147.9370
769.7410, 156.3369
770.8870, 149.0381
772.0330, 182.6328
773.1780, 79.18750
774.3240, 224.7178
775.4690, 221.3618
776.6140, 200.3257
777.7590, 321.7583
778.9040, 212.4785
780.0490, 151.2646
781.1940, 292.1265
782.3380, 343.7319
783.4820, 307.1782
784.6260, 466.8115
785.7700, 264.4639
786.9140, 292.0200
788.0580, 203.3984
789.2010, 358.8882
790.3450, 363.5679
791.4880, 309.1655
792.6310, 381.0425
793.7730, 266.8013
794.9160, 237.0967
796.0590, 384.6729
797.2010, 249.8013
798.3430, 182.2026
799.4850, 323.2183
800.6270, 281.4746
801.7690, 283.4434
802.9100, 261.3262
804.0520, 255.2637
805.1930, 215.9263
806.3340, 243.3687
807.4750, 103.7217
808.6160, 338.8965
809.7560, 347.1719
810.8970, 256.3008
812.0370, 271.0913
813.1770, 221.9668
814.3170, 231.3125
815.4570, 189.1519
816.5960, 145.0259
817.7360, 210.5283
818.8750, 240.8042
820.0140, 168.8799
821.1530, 211.7603
822.2920, 148.0581
823.4310, 147.5933
824.5690, 183.6670
825.7070, 219.4429
826.8460, 248.1772
827.9840, 150.7646
829.1220, 152.8398
830.2590, 243.6587
831.3970, 130.5039
832.5340, 129.9272
833.6710, 173.8853
834.8080, 271.8179
835.9450, 221.8726
837.0820, 171.6919
838.2190, 185.4155
839.3550, 162.5835
840.4910, 180.0898
841.6270, 163.1631
842.7630, 119.3442
843.8990, 165.8608
845.0350, 48.90576
846.1700, 103.6865
847.3060, 144.4263
848.4410, 4.266602
849.5760, 36.70459
850.7100, 180.3481
851.8450, 10.46484
852.9800, 31.42969
854.1140, 176.1826
855.2480, 206.5107
856.3820, 76.50586
857.5160, 35.34570
858.6500, 22.53125
859.7830, 160.4922
860.9170, 142.9766
862.0500, 125.3525
863.1830, 184.1777
864.3160, 55.04004
865.4480, 20.29785
866.5810, 27.54297
867.7130, 30.89062
868.8460, 12.55762
869.9780, 74.08008
871.1100, 15.86328
872.2410, 131.5566
873.3730, 19.95898
874.5050, 106.5303
875.6360, 129.9453
876.7670, 91.75391
877.8980, 3.868164
879.0290, 27.84473
880.1590, 66.37207
881.2900, 72.72559
882.4200, 114.9473
883.5500, 20.75879
884.6800, 27.24414
885.8100, 92.81055
886.9400, 78.28613
888.0690, 103.4561
889.1990, 98.49023
890.3280, 88.36914
891.4570, 25.25586
892.5860, 48.46387
893.7140, 72.97168
894.8430, 61.90430
895.9710, 70.75781
897.1000, 27.90918
898.2280, 56.11621
899.3560, 32.50586
900.4830, 121.2588
901.6110, 95.41504
902.7380, 45.63672
903.8660, 29.19336
904.9930, 14.81250
906.1200, 60.18359
907.2460, 16.14551
908.3730, 150.9668
909.5000, 44.01465
910.6260, 79.39258
911.7520, 44.38379
912.8780, 26.88770
914.0040, 149.1357
915.1290, 111.7578
916.2550, 70.96094
917.3800, 110.5742
918.5050, 127.7383
919.6300, 61.07812
920.7550, 42.42969
921.8800, 42.25586
923.0040, 0.1025390
924.1290, 3.666016
925.2530, 8.013672
926.3770, 172.7227
927.5010, 82.84473
928.6250, 88.06836
929.7480, 175.1143
930.8720, 83.42578
931.9950, 167.1816
933.1180, 77.28516
934.2410, 143.8652
935.3640, 62.21680
936.4860, 107.0244
937.6090, 102.8037
938.7310, 64.94824
939.8530, 105.1494
940.9750, 134.3125
942.0970, 130.9590
943.2180, 146.2432
944.3400, 100.9385
945.4610, 111.3164
946.5820, 165.7148
947.7030, 82.59766
948.8240, 44.43652
949.9450, 76.91699
951.0650, 42.37891
952.1860, 106.5869
953.3060, 134.1738
954.4260, 157.2529
955.5460, 175.9062
956.6650, 48.43555
957.7850, 201.7930
958.9040, 44.09766
960.0230, 87.00391
961.1420, 68.09668
962.2610, 75.61328
963.3800, 170.5771
964.4990, 202.7061
965.6170, 169.4961
966.7350, 10.95312
967.8530, 83.71191
968.9710, 59.98438
970.0890, 219.0977
971.2070, 174.5986
972.3240, 137.5293
973.4410, 124.5703
974.5580, 252.5537
975.6750, 250.0625
976.7920, 223.5342
977.9090, 278.6992
979.0250, 240.1855
980.1410, 270.8174
981.2580, 249.5781
982.3740, 320.8906
983.4890, 362.1562
984.6050, 406.3037
985.7200, 243.9736
986.8360, 238.3379
987.9510, 293.2500
989.0660, 327.3105
990.1810, 376.3271
991.2950, 352.8438
992.4100, 236.9326
993.5240, 253.6738
994.6390, 333.3955
995.7530, 212.8291
996.8660, 295.5283
997.9800, 380.7461
999.0940, 251.9414
1000.207, 435.7412
1001.320, 373.3125
1002.433, 292.4766
1003.546, 248.9102
1004.659, 262.6426
1005.772, 214.4043
1006.884, 339.5000
1007.996, 336.1230
1009.108, 608.0107
1010.220, 446.7002
1011.332, 298.3428
1012.444, 357.3643
1013.555, 609.8330
1014.666, 445.6553
1015.777, 477.3770
1016.888, 486.8643
1017.999, 510.8906
1019.110, 455.7686
1020.220, 505.1572
1021.331, 649.4072
1022.441, 458.3252
1023.551, 318.3379
1024.661, 481.3838
1025.770, 585.3945
1026.880, 628.0703
1027.989, 424.6611
1029.098, 539.0039
1030.207, 527.7002
1031.316, 508.1973
1032.425, 666.1201
1033.533, 497.8037
1034.642, 653.2939
1035.750, 679.7549
1036.858, 764.4248
1037.966, 718.1592
1039.073, 499.2021
1040.181, 739.8271
1041.288, 499.8818
1042.396, 753.5078
1043.503, 816.0195
1044.610, 697.7070
1045.716, 529.6973
1046.823, 747.0439
1047.929, 681.8164
1049.036, 615.3535
1050.142, 686.7324
1051.248, 498.4102
1052.353, 785.4238
1053.459, 706.1396
1054.564, 741.6914
1055.670, 604.9551
1056.775, 619.1553
1057.880, 695.1143
1058.985, 578.4365
1060.089, 686.8633
1061.194, 641.0928
1062.298, 520.4180
1063.402, 650.8203
1064.506, 752.4365
1065.610, 613.4893
1066.713, 755.0576
1067.817, 547.7500
1068.920, 596.4248
1070.023, 515.1621
1071.126, 466.8984
1072.229, 596.1904
1073.332, 526.6416
1074.435, 646.0918
1075.537, 553.0420
1076.639, 636.0000
1077.741, 448.4355
1078.843, 551.6914
1079.945, 411.3838
1081.046, 541.2559
1082.148, 695.0977
1083.249, 535.1982
1084.350, 271.3701
1085.451, 445.3555
1086.551, 317.7881
1087.652, 368.0576
1088.752, 523.2109
1089.853, 519.6611
1090.953, 492.6523
1092.053, 342.9727
1093.152, 532.4785
1094.252, 722.3232
1095.351, 412.3506
1096.451, 334.8496
1097.550, 227.3027
1098.649, 153.4463
1099.748, 277.9297
1100.846, 397.5684
1101.945, 253.0566
1103.043, 310.0410
1104.141, 355.2461
1105.239, 302.8613
1106.337, 253.1855
1107.434, 345.3965
1108.532, 297.3203
1109.629, 287.0293
1110.726, 216.9121
1111.823, 353.4375
1112.920, 158.1035
1114.017, 357.6445
1115.113, 452.5547
1116.210, 407.6855
1117.306, 431.2832
1118.402, 712.8379
1119.498, 682.6973
1120.593, 728.6719
1121.689, 938.9648
1122.784, 840.0312
1123.879, 611.7734
1124.974, 551.1211
1126.069, 566.4883
1127.164, 579.0391
1128.259, 459.0156
1129.353, 355.9922
1130.447, 187.5645
1131.541, 281.4629
1132.635, 126.4805
1133.729, 213.3613
1134.822, 293.6562
1135.916, 137.4004
1137.009, 329.0586
1138.102, 148.6621
1139.195, 94.05859
1140.288, 184.4941
1141.380, 17.77930
1142.473, 232.8574
1143.565, 105.6465
1144.657, 206.4258
1145.749, 2.970703
1146.841, 252.5918
1147.932, 231.1875
1149.024, 139.6543
1150.115, 201.6426
1151.206, 212.2129
1152.297, 197.1211
1153.388, 67.64453
1154.479, 96.82422
1155.569, 19.63477
1156.659, 80.76172
1157.750, 125.7461
1158.839, 176.7012
1159.929, 62.37305
1161.019, 67.01953
1162.108, 85.72852
1163.198, 219.1738
1164.287, 98.31055
1165.376, 140.4355
1166.465, 35.34375
1167.553, 156.3848
1168.642, 69.42578
1169.730, 4.843750
1170.818, 18.05469
1171.906, 29.43750
1172.994, 41.14648
1174.082, 163.2402
1175.170, 128.8203
1176.257, 227.5020
1177.344, 302.6270
1178.431, 316.9668
1179.518, 302.9766
1180.605, 267.5410
1181.691, 201.8398
1182.778, 103.7637
1183.864, 75.02930
1184.950, 41.92188
1186.036, 90.93555
1187.122, 92.54688
1188.207, 306.0898
1189.292, 116.0430
1190.378, 291.9551
1191.463, 215.1758
1192.548, 163.2188
1193.632, 197.4844
1194.717, 22.89062
1195.801, 50.91211
1196.886, 202.0469
1197.970, 205.6895
1199.054, 93.69141
1200.137, 89.50586
1201.221, 50.09180
1202.305, 82.75781
1203.388, 51.13477
1204.471, 47.87109
1205.554, 131.7441
1206.637, 111.0195
1207.719, 156.2266
1208.802, 173.5625
1209.884, 89.38086
1210.966, 165.3301
1212.048, 315.9336
1213.130, 275.4570
1214.212, 189.0371
1215.293, 260.1855
1216.374, 143.5312
1217.456, 166.9355
1218.536, 45.91211
1219.617, 181.9727
1220.698, 168.5293
1221.778, 375.1699
1222.859, 335.6953
1223.939, 198.7559
1225.019, 366.7930
1226.099, 309.1348
1227.178, 315.2559
1228.258, 316.8184
1229.337, 266.5742
1230.417, 268.8555
1231.496, 240.3125
1232.574, 239.2637
1233.653, 344.3457
1234.732, 168.9199
1235.810, 184.2461
1236.888, 63.43945
1237.966, 324.2051
1239.044, 309.1777
1240.122, 288.8691
