##NAMES=Cuprite
##RRUFFID=R050384
##IDEAL CHEMISTRY=Cu^1+^_2_O
##LOCALITY=Lavender Pit, Bisbee, Warren District, Cochise County, Arizona, USA
##OWNER=RRUFF
##SOURCE=University of Arizona Mineral Museum
##DESCRIPTION=Deep red to nearly black cubes
##STATUS=The identification of this mineral has been confirmed by X-ray diffraction and chemical analysis
##URL=rruff.info/R050384
##MEASURED CHEMISTRY=Cu_2.00_O
##PIN_ID=M00339
##ORIENTATION=Laser parallel to b* (0 1 0). Fiducial mark perpendicular to laser is parallel to c [0 0 1]
53.91000, 0.0000000E+00
55.14900, 76.78137
56.38700, 75.48462
57.62600, 171.7295
58.86400, 235.0254
60.10300, 169.2452
61.34100, 34.65967
62.57900, 3.031494
63.81700, 74.41492
65.05400, 12.04651
66.29200, 5.574219
67.52900, 85.00232
68.76700, 265.8457
70.00400, 479.7622
71.24100, 388.4529
72.47700, 410.6633
73.71400, 532.1885
74.95100, 818.8469
76.18700, 975.4700
77.42300, 1120.901
78.65900, 1253.994
79.89500, 1609.620
81.13100, 1835.861
82.36700, 2077.015
83.60200, 2390.585
84.83700, 2413.288
86.07200, 2500.048
87.30800, 2734.795
88.54200, 2867.469
89.77700, 3103.025
91.01200, 3385.474
92.24600, 3553.804
93.48000, 3670.963
94.71400, 3713.893
95.94800, 3786.546
97.18200, 3925.865
98.41600, 4078.081
99.64900, 4234.651
100.8830, 4546.346
102.1160, 4706.889
103.3490, 5097.902
104.5820, 5567.361
105.8150, 6091.246
107.0470, 7155.527
108.2800, 6877.845
109.5120, 7246.223
110.7440, 6338.601
111.9760, 6173.311
113.2080, 5438.340
114.4400, 5682.675
115.6710, 5765.305
116.9030, 5337.215
118.1340, 5118.397
119.3650, 4666.838
120.5960, 4726.533
121.8270, 4702.469
123.0580, 4883.638
124.2880, 4905.119
125.5190, 4805.163
126.7490, 4800.041
127.9790, 5076.669
129.2090, 5386.577
130.4390, 5842.743
131.6680, 5938.092
132.8980, 6278.547
134.1270, 6486.144
135.3560, 6624.886
136.5850, 7372.740
137.8140, 7319.640
139.0430, 7685.552
140.2710, 7762.479
141.5000, 7751.432
142.7280, 7872.422
143.9560, 7807.451
145.1840, 7729.525
146.4120, 7722.652
147.6390, 7755.833
148.8670, 7168.072
150.0940, 6876.372
151.3210, 6841.734
152.5490, 6342.160
153.7750, 6109.651
155.0020, 6244.210
156.2290, 6139.836
157.4550, 5873.531
158.6810, 5879.293
159.9080, 5541.125
161.1340, 5377.025
162.3590, 5076.993
163.5850, 4980.029
164.8110, 4824.131
166.0360, 4592.301
167.2610, 4569.537
168.4860, 4534.835
169.7110, 4588.424
170.9360, 4786.622
172.1610, 4927.108
173.3850, 5179.655
174.6100, 5534.261
175.8340, 5661.925
177.0580, 5737.647
178.2820, 6113.426
179.5050, 6328.260
180.7290, 6567.149
181.9520, 7056.091
183.1760, 7336.085
184.3990, 7971.133
185.6220, 8505.230
186.8450, 8861.378
188.0670, 8957.575
189.2900, 8973.820
190.5120, 8710.112
191.7340, 8558.451
192.9560, 8719.832
194.1780, 8849.883
195.4000, 9623.486
196.6220, 10226.53
197.8430, 10739.14
199.0640, 10789.79
200.2860, 10659.19
201.5070, 10780.31
202.7270, 10944.88
203.9480, 11165.00
205.1690, 11416.03
206.3890, 12159.27
207.6090, 13164.40
208.8290, 14496.19
210.0490, 16038.34
211.2690, 17217.72
212.4890, 18689.92
213.7080, 20339.16
214.9280, 21259.65
216.1470, 22063.29
217.3660, 21982.98
218.5850, 20521.75
219.8030, 18193.27
221.0220, 15179.40
222.2400, 12541.67
223.4590, 10523.12
224.6770, 8934.722
225.8950, 7880.476
227.1120, 7098.372
228.3300, 6379.405
229.5480, 5922.566
230.7650, 5362.850
231.9820, 5068.252
233.1990, 4465.766
234.4160, 4120.386
235.6330, 3916.111
236.8490, 3500.934
238.0660, 3082.851
239.2820, 2906.857
240.4980, 2660.953
241.7140, 2417.139
242.9300, 2177.405
244.1460, 1972.747
245.3610, 1754.161
246.5770, 1649.646
247.7920, 1562.197
249.0070, 1375.813
250.2220, 1311.491
251.4370, 1106.229
252.6510, 1041.028
253.8660, 965.8833
255.0800, 901.7939
256.2940, 853.7720
257.5080, 1246.800
258.7220, 1011.008
259.9360, 1389.006
261.1490, 822.1787
262.3630, 616.3950
263.5760, 497.6528
264.7890, 483.9526
266.0020, 489.2920
267.2150, 443.6699
268.4270, 467.0859
269.6400, 471.5386
270.8520, 440.0259
272.0640, 419.5444
273.2760, 463.0908
274.4880, 425.6621
275.7000, 426.2559
276.9120, 474.8721
278.1230, 361.5093
279.3340, 385.1670
280.5450, 322.8452
281.7560, 299.5420
282.9670, 395.2578
284.1780, 421.9917
285.3880, 450.7441
286.5980, 436.5146
287.8090, 497.3037
289.0190, 476.1094
290.2290, 451.9336
291.4380, 532.7749
292.6480, 510.6333
293.8570, 524.5078
295.0670, 515.3989
296.2760, 597.3066
297.4850, 587.2295
298.6930, 513.1675
299.9020, 535.1211
301.1110, 478.0884
302.3190, 520.0703
303.5270, 497.7573
304.7350, 534.0762
305.9430, 487.0986
307.1510, 475.1338
308.3580, 479.1816
309.5660, 452.2412
310.7730, 452.3125
311.9800, 425.3955
313.1870, 412.4897
314.3940, 392.5942
315.6010, 306.7090
316.8070, 283.8330
318.0130, 295.9678
319.2200, 312.1118
320.4260, 289.2642
321.6310, 141.4263
322.8370, 287.5962
324.0430, 119.7749
325.2480, 55.96094
326.4540, 55.15527
327.6590, 84.35645
328.8640, 15.56494
330.0680, 17.77979
331.2730, 70.00000
332.4780, 50.79395
333.6820, 1.403320
334.8860, 72.39941
336.0900, 141.2173
337.2940, 147.0684
338.4980, 120.9561
339.7010, 141.9106
340.9050, 175.9268
342.1080, 154.0659
343.3110, 171.3169
344.5140, 205.7012
345.7170, 89.23828
346.9200, 172.8037
348.1220, 171.4365
349.3240, 186.1353
350.5270, 75.90625
351.7290, 153.6953
352.9310, 108.5420
354.1320, 95.42188
355.3340, 108.3281
356.5350, 97.25684
357.7370, 70.88232
358.9380, 69.75391
360.1390, 49.11621
361.3400, 45.28027
362.5400, 5.341797
363.7410, 3.593750
364.9410, 51.52930
366.1410, 66.52881
367.3410, 147.4478
368.5410, 95.43066
369.7410, 101.4297
370.9400, 91.44189
372.1400, 204.4688
373.3390, 127.5083
374.5380, 253.5601
375.7370, 312.6240
376.9360, 331.6987
378.1350, 389.7847
379.3330, 369.8809
380.5310, 430.9863
381.7300, 492.9258
382.9280, 617.2251
384.1260, 661.0820
385.3230, 758.0166
386.5210, 875.3882
387.7180, 848.5435
388.9160, 869.9102
390.1130, 1043.089
391.3100, 1247.263
392.5060, 1190.531
393.7030, 1292.761
394.9000, 1413.953
396.0960, 1462.825
397.2920, 1514.025
398.4880, 1761.585
399.6840, 1744.152
400.8800, 1865.364
402.0750, 1878.257
403.2710, 1987.476
404.4660, 2165.698
405.6610, 2056.923
406.8560, 2214.150
408.0510, 2167.380
409.2450, 2184.612
410.4400, 2151.846
411.6340, 2185.242
412.8280, 2074.479
414.0220, 2101.719
415.2160, 2070.959
416.4100, 1903.202
417.6030, 1950.445
418.7970, 1831.690
419.9900, 1778.936
421.1830, 1757.183
422.3760, 1671.430
423.5690, 1571.636
424.7610, 1558.927
425.9540, 1360.178
427.1460, 1319.428
428.3380, 1294.679
429.5300, 1074.931
430.7220, 1084.184
431.9140, 1009.437
433.1050, 858.6899
434.2970, 894.9443
435.4880, 759.1987
436.6790, 657.4536
437.8700, 690.7090
439.0610, 566.9639
440.2510, 561.2192
441.4420, 479.4746
442.6320, 494.7300
443.8220, 505.9854
445.0120, 510.2407
446.2020, 405.4966
447.3910, 454.7568
448.5810, 399.0176
449.7700, 369.2788
450.9600, 383.5400
452.1490, 405.8027
453.3370, 328.0645
454.5260, 512.3271
455.7150, 438.5903
456.9030, 484.8545
458.0910, 456.1201
459.2800, 397.4014
460.4670, 487.6841
461.6550, 451.9688
462.8430, 462.2583
464.0300, 499.5488
465.2180, 537.8413
466.4050, 558.0542
467.5920, 586.0752
468.7790, 608.7637
469.9650, 611.0781
471.1520, 625.4038
472.3380, 603.7305
473.5250, 628.5771
474.7110, 652.2871
475.8970, 678.4678
477.0820, 724.2891
478.2680, 801.1504
479.4540, 786.8989
480.6390, 631.6895
481.8240, 746.6987
483.0090, 663.4233
484.1940, 556.0815
485.3780, 629.9502
486.5630, 559.7554
487.7470, 421.4849
488.9320, 548.9141
490.1160, 458.4609
491.3000, 429.0376
492.4830, 462.7070
493.6670, 355.6943
494.8500, 412.1768
496.0340, 349.2651
497.2170, 336.0840
498.4000, 200.1108
499.5820, 356.7524
500.7650, 225.8267
501.9480, 217.9370
503.1300, 189.1440
504.3120, 233.5356
505.4940, 271.0747
506.6760, 93.07764
507.8580, 193.6626
509.0390, 144.2876
510.2210, 140.9238
511.4020, 143.5708
512.5830, 118.2271
513.7640, 95.89307
514.9450, 78.61279
516.1250, 66.26025
517.3060, 58.96094
518.4860, 8.673340
519.6660, 59.39502
520.8460, 84.12598
522.0260, 28.86768
523.2060, 58.62061
524.3850, 71.38379
525.5650, 24.84180
526.7440, 50.06299
527.9230, 9.291504
529.1020, 44.48926
530.2810, 8.719238
531.4590, 3.079590
532.6380, 14.01318
533.8160, 3.291992
534.9940, 0.4628910
536.1720, 42.37598
537.3500, 24.77441
538.5270, 71.07910
539.7050, 15.05566
540.8820, 84.18604
542.0590, 20.66357
543.2360, 25.47803
544.4130, 37.38379
545.5900, 28.25635
546.7660, 40.13965
547.9430, 44.03467
549.1190, 28.93896
550.2950, 57.85498
551.4710, 31.78174
552.6470, 8.280762
553.8220, 126.6641
554.9980, 19.62061
556.1730, 69.58789
557.3480, 67.56641
558.5230, 74.55518
559.6980, 169.5542
560.8730, 113.5649
562.0470, 148.5859
563.2220, 195.6172
564.3960, 298.6592
565.5700, 276.7407
566.7440, 312.7739
567.9170, 258.8608
569.0910, 288.9785
570.2640, 270.1064
571.4380, 304.2466
572.6110, 280.4009
573.7840, 363.5659
574.9570, 281.7412
576.1290, 369.9248
577.3020, 240.1172
578.4740, 218.3179
579.6460, 241.5293
580.8180, 373.7515
581.9900, 369.4175
583.1620, 389.9565
584.3330, 472.4795
585.5040, 372.7402
586.6760, 429.0093
587.8470, 423.2080
589.0180, 504.7188
590.1880, 456.1514
591.3590, 469.5244
592.5290, 603.0942
593.7000, 464.4927
594.8700, 656.8994
596.0400, 646.4644
597.2090, 668.3364
598.3790, 720.0435
599.5490, 770.9297
600.7180, 805.8042
601.8870, 848.7549
603.0560, 1014.148
604.2250, 1105.074
605.3940, 1172.965
606.5620, 1342.704
607.7300, 1451.309
608.8990, 1444.166
610.0670, 1688.089
611.2350, 1796.139
612.4020, 2061.099
613.5700, 2156.769
614.7370, 2250.749
615.9050, 2457.844
617.0720, 2591.943
618.2390, 2791.094
619.4060, 3051.490
620.5720, 3016.377
621.7390, 3090.842
622.9050, 3306.855
624.0710, 3293.512
625.2370, 3328.104
626.4030, 3275.324
627.5690, 3264.889
628.7340, 3171.781
629.9000, 3198.933
631.0650, 3185.767
632.2300, 3065.760
633.3950, 2993.323
634.5600, 2975.378
635.7240, 2844.512
636.8890, 2777.437
638.0530, 2761.593
639.2170, 2667.264
640.3810, 2670.632
641.5450, 2531.613
642.7080, 2538.562
643.8720, 2433.268
645.0350, 2393.844
646.1980, 2304.616
647.3610, 2212.561
648.5240, 2086.533
649.6870, 1885.186
650.8490, 1730.055
652.0120, 1588.635
653.1740, 1461.387
654.3360, 1336.246
655.4980, 1256.408
656.6600, 1201.326
657.8210, 1103.364
658.9830, 1031.066
660.1440, 1008.612
661.3050, 918.5029
662.4660, 850.5967
663.6270, 878.4336
664.7870, 800.5405
665.9480, 734.2759
667.1080, 779.3096
668.2680, 752.3789
669.4280, 652.4932
670.5880, 598.1201
671.7480, 577.1865
672.9070, 569.2944
674.0670, 492.2861
675.2260, 480.2896
676.3850, 470.2720
677.5440, 374.7808
678.7030, 485.1802
679.8610, 425.5986
681.0200, 460.1235
682.1780, 365.8989
683.3360, 392.2554
684.4940, 415.2715
685.6520, 406.5278
686.8090, 445.6553
687.9670, 390.5791
689.1240, 342.7881
690.2810, 296.0771
691.4380, 308.1328
692.5950, 235.9712
693.7520, 293.1953
694.9080, 252.3149
696.0650, 271.5483
697.2210, 314.5933
698.3770, 337.5713
699.5330, 273.9214
700.6880, 188.9497
701.8440, 109.9565
702.9990, 182.2148
704.1550, 200.2964
705.3100, 175.1646
706.4650, 238.3628
707.6190, 206.0928
708.7740, 113.2827
709.9290, 160.5835
711.0830, 128.7617
712.2370, 99.67285
713.3910, 171.5737
714.5450, 53.39014
715.6980, 119.8779
716.8520, 129.6357
718.0050, 80.54297
719.1580, 134.8135
720.3110, 74.02295
721.4640, 123.7178
722.6170, 138.5151
723.7700, 81.22168
724.9220, 180.7632
726.0740, 14.89746
727.2260, 31.28027
728.3780, 65.42627
729.5300, 85.03369
730.6810, 50.54541
731.8330, 108.5254
732.9840, 127.1675
734.1350, 75.76709
735.2860, 7.131348
736.4370, 51.37256
737.5880, 51.06787
738.7380, 33.47266
739.8880, 23.71143
741.0390, 1.938477
742.1890, 41.33301
743.3380, 54.14307
744.4880, 5.052246
745.6380, 36.66406
746.7870, 83.13672
747.9360, 84.79102
749.0850, 22.35547
750.2340, 84.38379
751.3830, 47.94824
752.5310, 87.48975
753.6800, 69.00244
754.8280, 75.47266
755.9760, 3.083496
757.1240, 20.50732
758.2720, 13.31055
759.4190, 40.18408
760.5670, 58.15967
761.7140, 30.77100
762.8610, 61.12402
764.0080, 23.81348
765.1550, 97.97607
766.3020, 35.44434
767.4480, 243.9277
768.5950, 80.76318
769.7410, 57.23975
770.8870, 177.0376
772.0330, 68.29980
773.1780, 62.55127
774.3240, 122.9375
775.4690, 77.13086
776.6140, 82.97070
777.7590, 167.6914
778.9040, 151.8569
780.0490, 167.6396
781.1940, 232.4375
782.3380, 283.0752
783.4820, 176.5913
784.6260, 243.0688
785.7700, 187.3799
786.9140, 268.5918
788.0580, 217.7988
789.2010, 315.8198
790.3450, 301.0444
791.4880, 187.7280
792.6310, 161.4512
793.7730, 220.3794
794.9160, 192.4790
796.0590, 272.9790
797.2010, 310.4775
798.3430, 227.9663
799.4850, 179.1890
800.6270, 240.4585
801.7690, 175.9873
802.9100, 91.30957
804.0520, 244.6724
805.1930, 132.7607
806.3340, 180.9004
807.4750, 247.8857
808.6160, 188.5430
809.7560, 180.1099
810.8970, 185.5215
812.0370, 191.9639
813.1770, 163.7661
814.3170, 198.6616
815.4570, 103.3813
816.5960, 251.2979
817.7360, 223.1245
818.8750, 246.6953
820.0140, 183.6899
821.1530, 185.3745
822.2920, 125.7715
823.4310, 154.1504
824.5690, 200.1362
825.7070, 129.1353
826.8460, 107.0996
827.9840, 159.8423
829.1220, 171.1362
830.2590, 114.1895
831.3970, 136.2593
832.5340, 105.9771
833.6710, 147.3047
834.8080, 159.6123
835.9450, 66.33398
837.0820, 138.9287
838.2190, 139.6787
839.3550, 75.95508
840.4910, 113.2183
841.6270, 159.8291
842.7630, 11.32080
843.8990, 39.91992
845.0350, 127.0908
846.1700, 54.67432
847.3060, 23.98730
848.4410, 118.5269
849.5760, 115.4893
850.7100, 129.5186
851.8450, 201.8164
852.9800, 130.5435
854.1140, 88.54346
855.2480, 46.35205
856.3820, 47.74561
857.5160, 118.8647
858.6500, 87.64404
859.7830, 102.3501
860.9170, 134.5156
862.0500, 68.86328
863.1830, 40.40186
864.3160, 51.60254
865.4480, 82.77295
866.5810, 26.92334
867.7130, 14.37939
868.8460, 60.52344
869.9780, 14.56445
871.1100, 96.16992
872.2410, 115.0967
873.3730, 52.08594
874.5050, 66.69727
875.6360, 0.9365230
876.7670, 16.55469
877.8980, 56.21680
879.0290, 141.5840
880.1590, 28.07520
881.2900, 36.22852
882.4200, 98.56934
883.5500, 78.48730
884.6800, 64.00879
885.8100, 70.33398
886.9400, 74.47949
888.0690, 105.2744
889.1990, 74.06738
890.3280, 70.30664
891.4570, 62.42090
892.5860, 5.428711
893.7140, 93.14648
894.8430, 60.41113
895.9710, 16.47168
897.1000, 40.75000
898.2280, 20.02930
899.3560, 2.166992
900.4830, 68.56445
901.6110, 129.4473
902.7380, 42.09570
903.8660, 28.84180
904.9930, 78.16797
906.1200, 3.713867
907.2460, 95.45605
908.3730, 80.27930
909.5000, 38.18945
910.6260, 58.85938
911.7520, 124.9951
912.8780, 4.172852
914.0040, 20.62012
915.1290, 83.45996
916.2550, 61.52637
917.3800, 81.52930
918.5050, 92.65039
919.6300, 17.86035
920.7550, 103.7451
921.8800, 17.02148
923.0040, 90.38867
924.1290, 115.4492
925.2530, 47.71875
926.3770, 79.19043
927.5010, 128.3848
928.6250, 58.58887
929.7480, 16.47070
930.8720, 121.0283
931.9950, 101.3223
933.1180, 83.59863
934.2410, 126.6377
935.3640, 94.01855
936.4860, 21.05469
937.6090, 39.44238
938.7310, 14.68848
939.8530, 55.14648
940.9750, 46.66504
942.0970, 36.63672
943.2180, 93.74805
944.3400, 93.82422
945.4610, 108.6406
946.5820, 79.00684
947.7030, 142.3408
948.8240, 62.19043
949.9450, 114.0215
951.0650, 113.8574
952.1860, 114.0557
953.3060, 156.1729
954.4260, 32.44922
955.5460, 83.79102
956.6650, 129.3984
957.7850, 109.6123
958.9040, 179.7861
960.0230, 153.1006
961.1420, 137.1914
962.2610, 165.1348
963.3800, 9.887695
964.4990, 42.59668
965.6170, 13.68750
966.7350, 73.68750
967.8530, 142.2480
968.9710, 122.3809
970.0890, 237.5918
971.2070, 242.2598
972.3240, 179.4785
973.4410, 27.74316
974.5580, 244.1953
975.6750, 135.2002
976.7920, 52.64062
977.9090, 124.3311
979.0250, 177.5752
980.1410, 253.7871
981.2580, 52.31055
982.3740, 208.0166
983.4890, 138.4658
984.6050, 215.2432
985.7200, 187.4980
986.8360, 293.8506
987.9510, 200.4268
989.0660, 217.7500
990.1810, 243.9395
991.2950, 127.8848
992.4100, 137.1982
993.5240, 126.1201
994.6390, 227.2461
995.7530, 330.6855
996.8660, 154.3223
997.9800, 356.7744
999.0940, 247.5576
1000.207, 252.7568
1001.320, 172.3057
1002.433, 221.2900
1003.546, 247.5879
1004.659, 219.8828
1005.772, 312.7900
1006.884, 310.6611
1007.996, 185.4824
1009.108, 288.8477
1010.220, 243.8818
1011.332, 337.5654
1012.444, 254.1660
1013.555, 241.5420
1014.666, 251.7158
1015.777, 246.7412
1016.888, 254.1865
1017.999, 304.6602
1019.110, 287.3564
1020.220, 324.1162
1021.331, 396.8984
1022.441, 400.1631
1023.551, 429.0469
1024.661, 433.7949
1025.770, 419.4502
1026.880, 404.2910
1027.989, 332.9082
1029.098, 285.8291
1030.207, 419.6816
1031.316, 463.6494
1032.425, 374.2949
1033.533, 379.8369
1034.642, 402.4902
1035.750, 409.3281
1036.858, 440.8086
1037.966, 405.1592
1039.073, 399.0029
1040.181, 469.4932
1041.288, 409.9258
1042.396, 351.0322
1043.503, 435.6836
1044.610, 484.1455
1045.716, 448.8242
1046.823, 490.9570
1047.929, 464.1533
1049.036, 450.8760
1050.142, 571.2568
1051.248, 474.7822
1052.353, 545.6748
1053.459, 619.2256
1054.564, 571.3975
1055.670, 557.5557
1056.775, 570.8115
1057.880, 488.5762
1058.985, 505.3730
1060.089, 465.9551
1061.194, 516.3115
1062.298, 363.1885
1063.402, 383.6992
1064.506, 494.9658
1065.610, 559.9404
1066.713, 445.5947
1067.817, 495.3506
1068.920, 423.3877
1070.023, 452.9707
1071.126, 412.5801
1072.229, 392.7607
1073.332, 354.8682
1074.435, 331.2529
1075.537, 410.2695
1076.639, 326.8359
1077.741, 347.1279
1078.843, 427.1865
1079.945, 407.7334
1081.046, 462.8604
1082.148, 456.1836
1083.249, 234.6621
1084.350, 245.1543
1085.451, 325.8496
1086.551, 277.1006
1087.652, 404.4854
1088.752, 309.7568
1089.853, 312.9678
1090.953, 317.0928
1092.053, 296.5244
1093.152, 244.7285
1094.252, 463.9658
1095.351, 289.4717
1096.451, 276.4561
1097.550, 333.4629
1098.649, 103.8779
1099.748, 145.2705
1100.846, 256.0352
1101.945, 216.7217
1103.043, 221.9697
1104.141, 369.7051
1105.239, 327.4932
1106.337, 184.8857
1107.434, 296.8213
1108.532, 206.8271
1109.629, 269.3721
1110.726, 153.0645
1111.823, 131.1016
1112.920, 172.8545
1114.017, 120.6836
1115.113, 207.5352
1116.210, 332.1465
1117.306, 439.5459
1118.402, 456.4834
1119.498, 539.8096
1120.593, 526.2363
1121.689, 432.0107
1122.784, 466.4609
1123.879, 462.3896
1124.974, 491.6680
1126.069, 185.9834
1127.164, 112.2812
1128.259, 313.0693
1129.353, 116.2334
1130.447, 232.1924
1131.541, 195.4365
1132.635, 183.7881
1133.729, 355.3535
1134.822, 320.3789
1135.916, 52.58691
1137.009, 160.8027
1138.102, 157.7617
1139.195, 292.2969
1140.288, 122.1680
1141.380, 1.267578
1142.473, 11.15234
1143.565, 8.218750
1144.657, 130.4414
1145.749, 138.7441
1146.841, 107.2188
1147.932, 21.53711
1149.024, 65.78320
1150.115, 71.82422
1151.206, 39.91211
1152.297, 10.34766
1153.388, 143.8164
1154.479, 164.4902
1155.569, 2.876953
1156.659, 123.8906
1157.750, 43.44922
1158.839, 154.7012
1159.929, 203.4551
1161.019, 138.2305
1162.108, 236.8555
1163.198, 169.8926
1164.287, 220.3672
1165.376, 166.3984
1166.465, 246.7891
1167.553, 238.9883
1168.642, 141.5352
1169.730, 65.03711
1170.818, 26.98047
1171.906, 363.7422
1172.994, 160.2031
1174.082, 191.3164
1175.170, 237.7871
1176.257, 8.197266
1177.344, 78.27930
1178.431, 172.2637
1179.518, 92.08789
1180.605, 124.7871
1181.691, 83.43750
1182.778, 218.0098
1183.864, 24.29297
1184.950, 108.5078
1186.036, 89.67578
1187.122, 22.14258
1188.207, 138.3125
1189.292, 34.98242
1190.378, 168.3711
1191.463, 58.67578
1192.548, 181.5293
1193.632, 83.92578
1194.717, 92.76172
1195.801, 114.3047
1196.886, 147.3301
1197.970, 26.13672
1199.054, 11.97852
1200.137, 10.77734
1201.221, 4.322266
1202.305, 47.25586
1203.388, 81.64258
1204.471, 88.86328
1205.554, 130.4219
1206.637, 163.3711
1207.719, 201.9238
1208.802, 244.0371
1209.884, 307.2168
1210.966, 202.1426
1212.048, 45.75000
1213.130, 510.8438
1214.212, 237.9336
1215.293, 159.1484
1216.374, 515.5488
1217.456, 90.27344
1218.536, 139.0098
1219.617, 12.58398
1220.698, 378.0195
1221.778, 344.9062
1222.859, 583.0254
1223.939, 291.4668
1225.019, 470.3477
1226.099, 407.8262
1227.178, 403.2207
1228.258, 244.8145
1229.337, 275.6016
1230.417, 221.8242
1231.496, 187.4219
1232.574, 135.0312
1233.653, 231.8027
1234.732, 126.0605
1235.810, 274.4688
1236.888, 332.6016
1237.966, 176.5723
1239.044, 170.2578
1240.122, 183.7070
