##NAMES=Danburite
##RRUFFID=R040013
##IDEAL CHEMISTRY=CaB_2_Si_2_O_8_
##LOCALITY=Charcas, San Luis Potosi, Mexico
##OWNER=RRUFF
##SOURCE=Marcus Origlieri
##DESCRIPTION=Colorless prismatic single crystal
##STATUS=The identification of this mineral has been confirmed by X-ray diffraction and chemical analysis
##URL=rruff.info/R040013
##MEASURED CHEMISTRY=Ca_1.00_B_2.00_Si_2.00_O_8_
##PIN_ID=M00010
##ORIENTATION=Laser parallel to a* (1 0 0). Fiducial mark perpendicular to laser is parallel to b [0 1 0]
110.209, 0.000
111.601, 1289.346
112.992, 610.241
114.384, 1164.185
115.775, 272.740
117.166, 415.231
118.556, 845.645
119.947, 1902.383
121.337, 3728.520
122.727, 5458.283
124.116, 5733.827
125.506, 5893.365
126.895, 7521.479
128.284, 7857.094
129.673, 5454.380
131.062, 2664.737
132.450, 1202.151
133.838, 594.635
135.226, 444.164
136.614, 544.717
138.001, 650.869
139.388, 433.483
140.775, 131.222
142.162, 12.536
143.549, 77.186
144.935, 64.210
146.321, 5.333
147.707, 103.456
149.093, 524.218
150.478, 661.068
151.863, 371.878
153.248, 106.619
154.633, 46.526
156.018, 60.555
157.402, 193.492
158.786, 713.343
160.170, 1397.119
161.554, 3077.825
162.937, 7014.468
164.320, 10020.291
165.703, 7527.673
167.086, 3514.762
168.469, 1323.652
169.851, 459.638
171.233, 94.005
172.615, 0.247
173.996, 57.620
175.378, 10.001
176.759, 70.609
178.140, 356.234
179.521, 722.888
180.901, 961.545
182.281, 780.188
183.662, 368.819
185.041, 204.440
186.421, 210.756
187.800, 460.521
189.180, 767.044
190.558, 883.404
191.937, 691.201
193.316, 433.807
194.694, 266.424
196.072, 249.367
197.450, 345.004
198.827, 549.715
200.205, 1112.689
201.582, 1867.119
202.959, 2194.520
204.336, 1759.929
205.712, 1254.345
207.088, 1236.769
208.465, 1696.203
209.840, 1899.650
211.216, 1512.101
212.591, 742.555
213.967, 343.007
215.341, 134.458
216.716, 26.890
218.091, 61.699
219.465, 111.494
220.839, 63.885
222.213, 65.482
223.586, 41.918
224.960, 180.313
226.333, 166.705
227.706, 69.091
229.079, 36.528
230.451, 50.154
231.823, 13.785
233.195, 37.578
234.567, 136.944
235.939, 302.323
237.310, 605.719
238.682, 1162.112
240.052, 2174.459
241.423, 3719.860
242.794, 6041.260
244.164, 6851.034
245.534, 5716.598
246.904, 3736.792
248.274, 2293.958
249.643, 1439.559
251.012, 930.823
252.381, 683.089
253.750, 519.354
255.118, 341.617
256.487, 284.875
257.855, 147.126
259.223, 105.747
260.590, 47.635
261.958, 5.650
263.325, 14.731
264.692, 3.843
266.059, 14.031
267.425, 11.910
268.791, 0.190
270.158, 0.272
271.523, 34.338
272.889, 85.390
274.255, 212.429
275.620, 425.370
276.985, 479.240
278.350, 330.104
279.714, 150.959
281.078, 24.807
282.443, 14.355
283.806, 41.530
285.170, 42.721
286.534, 68.931
287.897, 51.167
289.260, 8.575
290.623, 94.095
291.985, 184.084
293.348, 206.487
294.710, 236.022
296.072, 257.541
297.433, 242.153
298.795, 258.754
300.156, 282.343
301.517, 473.922
302.878, 793.654
304.239, 1064.368
305.599, 1234.118
306.959, 1511.921
308.319, 1977.755
309.679, 2524.263
311.038, 2506.760
312.398, 2113.221
313.757, 1549.609
315.116, 980.965
316.474, 606.313
317.833, 354.639
319.191, 213.929
320.549, 166.947
321.907, 123.622
323.264, 114.399
324.622, 94.663
325.979, 110.921
327.336, 106.172
328.692, 199.417
330.049, 150.655
331.405, 205.886
332.761, 241.110
334.117, 370.324
335.473, 404.525
336.828, 573.704
338.183, 870.867
339.538, 1351.023
340.893, 2295.172
342.247, 3804.313
343.602, 6213.446
344.956, 9745.552
346.310, 11884.621
347.663, 10683.666
349.017, 7452.708
350.370, 4579.740
351.723, 2767.897
353.076, 1778.918
354.428, 1258.154
355.780, 840.359
357.133, 611.334
358.484, 473.731
359.836, 380.505
361.188, 322.154
362.539, 252.448
363.890, 206.115
365.241, 151.401
366.591, 163.977
367.942, 76.421
369.292, 102.829
370.642, 62.181
371.992, 73.640
373.341, 66.979
374.691, 35.545
376.040, 31.384
377.388, 16.182
378.737, 11.220
380.086, 23.819
381.434, 0.656
382.782, 42.454
384.130, 3.529
385.477, 27.497
386.825, 59.558
388.172, 125.687
389.519, 128.860
390.865, 239.058
392.212, 396.406
393.558, 347.550
394.904, 332.703
396.250, 216.794
397.596, 140.756
398.941, 132.725
400.286, 124.593
401.631, 126.559
402.976, 170.277
404.321, 225.987
405.665, 225.689
407.009, 228.355
408.353, 114.705
409.697, 137.155
411.040, 187.437
412.384, 189.288
413.727, 271.170
415.070, 331.316
416.412, 450.445
417.755, 572.930
419.097, 857.517
420.439, 1138.091
421.781, 1491.655
423.122, 1607.208
424.464, 1504.750
425.805, 1181.281
427.146, 890.618
428.486, 551.262
429.827, 361.260
431.167, 228.214
432.507, 173.545
433.847, 133.273
435.187, 134.346
436.526, 220.794
437.865, 314.240
439.204, 362.683
440.543, 358.301
441.882, 333.540
443.220, 283.953
444.558, 165.357
445.896, 94.751
447.234, 37.135
448.572, 38.508
449.909, 27.870
451.246, 18.219
452.583, 13.557
453.919, 120.882
455.256, 123.197
456.592, 215.502
457.928, 241.798
459.264, 305.085
460.600, 297.363
461.935, 228.631
463.270, 198.891
464.605, 193.142
465.940, 159.385
467.274, 200.628
468.609, 247.865
469.943, 402.092
471.277, 547.311
472.610, 910.520
473.944, 1486.721
475.277, 2556.913
476.610, 4277.097
477.943, 5854.271
479.275, 5896.436
480.608, 4368.592
481.940, 2699.739
483.272, 1541.878
484.604, 962.008
485.935, 596.130
487.267, 419.243
488.598, 284.347
489.929, 247.442
491.260, 171.529
492.590, 143.608
493.920, 76.678
495.250, 42.740
496.580, 82.792
497.910, 22.835
499.239, 27.869
500.569, 21.108
501.898, 3.897
503.226, 56.110
504.555, 8.141
505.883, 36.188
507.212, 13.253
508.540, 33.667
509.867, 6.414
511.195, 39.492
512.522, 3.417
513.849, 41.676
515.176, 2.856
516.503, 2.006
517.829, 8.176
519.156, 25.481
520.482, 0.881
521.808, 0.638
523.133, 21.642
524.459, 8.785
525.784, 34.561
527.109, 30.075
528.434, 25.196
529.758, 16.744
531.083, 8.434
532.407, 4.118
533.731, 1.957
535.055, 5.163
536.378, 3.448
537.701, 2.179
539.025, 5.565
540.348, 18.608
541.670, 16.309
542.993, 35.361
544.315, 14.688
545.637, 66.364
546.959, 73.036
548.281, 79.703
549.602, 70.362
550.923, 111.019
552.244, 165.672
553.565, 186.319
554.886, 237.962
556.206, 282.602
557.526, 368.239
558.846, 544.870
560.166, 821.498
561.486, 933.120
562.805, 882.734
564.124, 667.342
565.443, 535.942
566.762, 423.534
568.080, 363.119
569.399, 340.697
570.717, 380.268
572.035, 381.837
573.352, 419.406
574.670, 424.974
575.987, 432.548
577.304, 516.122
578.621, 566.691
579.938, 601.254
581.254, 652.809
582.570, 712.356
583.886, 788.897
585.202, 824.431
586.518, 938.958
587.833, 1060.478
589.148, 1228.990
590.463, 1386.330
591.778, 1534.670
593.093, 1833.953
594.407, 2101.166
595.721, 2546.424
597.035, 3174.896
598.349, 4025.370
599.662, 5091.832
600.976, 6753.282
602.289, 9209.728
603.602, 12947.217
604.914, 18684.646
606.227, 26622.070
607.539, 33689.488
608.851, 36416.898
610.163, 33034.305
611.475, 25391.703
612.786, 19159.098
614.097, 13756.480
615.408, 9843.866
616.719, 7619.237
618.030, 5909.604
619.340, 4839.962
620.651, 4169.322
621.961, 3789.668
623.270, 3840.008
624.580, 3956.342
625.889, 4072.669
627.199, 3943.990
628.507, 3327.305
629.816, 2710.614
631.125, 2228.916
632.433, 1805.212
633.741, 1562.502
635.049, 1311.786
636.357, 1156.063
637.664, 1010.206
638.972, 893.742
640.279, 822.509
641.586, 753.565
642.893, 727.839
644.199, 688.678
645.505, 612.287
646.811, 566.848
648.117, 522.068
649.423, 479.719
650.728, 442.766
652.034, 407.465
653.339, 372.428
654.644, 345.618
655.948, 314.385
657.253, 291.738
658.557, 276.674
659.861, 258.578
661.165, 243.591
662.468, 242.011
663.772, 206.809
665.075, 185.842
666.378, 226.689
667.681, 185.735
668.983, 200.992
670.286, 187.352
671.588, 160.760
672.890, 198.346
674.192, 117.365
675.493, 155.138
676.795, 149.826
678.096, 116.414
679.397, 83.306
680.697, 154.083
681.998, 124.167
683.298, 105.562
684.598, 88.977
685.898, 45.831
687.198, 96.634
688.498, 140.157
689.797, 135.310
691.096, 119.644
692.395, 80.867
693.694, 112.108
694.992, 48.531
696.290, 113.586
697.589, 97.766
698.886, 84.812
700.184, 87.904
701.482, 85.299
702.779, 55.330
704.076, 88.355
705.373, 79.377
706.669, 102.394
707.966, 126.406
709.262, 89.413
710.558, 99.416
711.854, 130.414
713.150, 136.407
714.445, 218.396
715.740, 153.579
717.035, 176.558
718.330, 146.533
719.625, 89.503
720.919, 154.469
722.214, 86.430
723.508, 69.386
724.801, 83.338
726.095, 37.286
727.388, 72.229
728.682, 53.167
729.975, 75.101
731.267, 42.032
732.560, 35.959
733.852, 57.883
735.145, 11.804
736.437, 49.721
737.728, 29.634
739.020, 30.543
740.311, 58.448
741.603, 43.893
742.894, 19.244
744.184, 45.136
745.475, 65.025
746.765, 67.909
748.055, 41.789
749.345, 59.665
750.635, 39.538
751.925, 30.406
753.214, 71.271
754.503, 26.132
755.792, 37.990
757.081, 84.843
758.370, 56.693
759.658, 24.540
760.946, 79.383
762.234, 79.222
763.522, 56.058
764.809, 75.891
766.097, 107.719
767.384, 87.545
768.671, 123.368
769.958, 216.187
771.244, 191.003
772.530, 247.815
773.817, 238.625
775.102, 284.432
776.388, 263.235
777.674, 215.036
778.959, 139.834
780.244, 105.630
781.529, 40.424
782.814, 21.220
784.098, 2.109
785.383, 52.813
786.667, 13.387
787.951, 0.589
789.235, 20.210
790.518, 16.993
791.801, 3.798
793.084, 0.406
794.367, 13.388
795.650, 21.814
796.933, 9.022
798.215, 13.233
799.497, 6.552
800.779, 28.664
802.061, 0.113
803.342, 0.111
804.624, 12.338
805.905, 3.707
807.186, 9.496
808.466, 15.026
809.747, 19.263
811.027, 30.506
812.307, 51.757
813.587, 43.020
814.867, 3.293
816.146, 34.567
817.426, 5.849
818.705, 56.868
819.984, 7.416
821.263, 21.703
822.541, 18.996
823.819, 16.706
825.098, 30.593
826.375, 18.900
827.653, 2.214
828.931, 54.530
830.208, 6.859
831.485, 8.192
832.762, 16.528
834.039, 14.131
835.315, 6.211
836.592, 11.443
837.868, 1.904
839.144, 17.252
840.420, 41.395
841.695, 16.041
842.970, 60.685
844.246, 77.329
845.521, 23.972
846.795, 21.613
848.070, 47.254
849.344, 35.895
850.618, 39.535
851.892, 34.174
853.166, 12.188
854.440, 40.448
855.713, 47.083
856.986, 126.717
858.259, 72.352
859.532, 46.985
860.804, 64.619
862.077, 123.252
863.349, 36.885
864.621, 105.517
865.893, 137.150
867.164, 22.782
868.436, 46.415
869.707, 100.048
870.978, 103.680
872.248, 90.313
873.519, 138.850
874.789, 85.483
876.060, 132.106
877.330, 92.736
878.599, 72.370
879.869, 111.004
881.138, 119.587
882.408, 129.222
883.677, 135.518
884.945, 154.298
886.214, 124.131
887.482, 181.769
888.751, 172.408
890.019, 161.048
891.287, 219.689
892.554, 270.325
893.822, 296.968
895.089, 352.612
896.356, 432.257
897.623, 467.897
898.889, 530.544
900.156, 567.194
901.422, 608.844
902.688, 659.495
903.954, 669.149
905.220, 655.803
906.485, 682.460
907.750, 716.118
909.015, 788.777
910.280, 865.438
911.545, 973.101
912.809, 1068.766
914.074, 1145.433
915.338, 1179.218
916.602, 1159.771
917.865, 1174.444
919.129, 1156.119
920.392, 1076.795
921.655, 1066.315
922.918, 974.995
924.181, 860.263
925.443, 822.830
926.706, 727.517
927.968, 660.717
929.230, 587.346
930.491, 539.934
931.753, 616.615
933.014, 629.724
934.276, 692.136
935.536, 743.456
936.797, 900.122
938.058, 999.094
939.318, 1155.724
940.578, 1470.355
941.838, 1701.725
943.098, 2041.299
944.358, 2439.751
945.617, 2715.080
946.876, 2746.316
948.135, 2696.298
949.394, 2443.792
950.653, 2119.495
951.911, 1791.120
953.169, 1391.034
954.427, 1278.623
955.685, 1136.376
956.943, 1044.944
958.200, 983.186
959.458, 950.499
960.715, 1005.271
961.971, 1036.333
963.228, 1268.674
964.485, 1517.385
965.741, 1915.769
966.997, 2354.551
968.253, 3048.171
969.508, 3851.608
970.764, 4755.412
972.019, 4973.091
973.274, 4795.904
974.529, 4065.669
975.784, 3149.131
977.039, 2733.957
978.293, 2064.787
979.547, 1730.622
980.801, 1452.460
982.055, 1222.304
983.308, 1167.153
984.562, 950.007
985.815, 916.865
987.068, 907.728
988.321, 749.595
989.573, 756.268
990.826, 734.145
992.078, 696.027
993.330, 766.913
994.582, 724.804
995.833, 787.700
997.085, 856.600
998.336, 947.506
999.587, 1003.416
1000.838, 1186.331
1002.088, 1383.251
1003.339, 1820.177
1004.589, 2306.108
1005.839, 2975.044
1007.089, 3295.985
1008.339, 3096.931
1009.588, 2542.883
1010.838, 1760.841
1012.087, 1311.805
1013.336, 1006.775
1014.584, 763.750
1015.833, 663.736
1017.081, 546.729
1018.330, 526.728
1019.577, 447.733
1020.825, 449.746
1022.073, 447.876
1023.320, 432.907
1024.567, 434.190
1025.814, 437.998
1027.061, 424.058
1028.308, 429.123
1029.554, 422.193
1030.800, 275.268
1032.046, 281.348
1033.292, 229.436
1034.538, 171.529
1035.783, 183.629
1037.029, 195.739
1038.274, 151.854
1039.519, 174.977
1040.763, 140.105
1042.008, 135.244
1043.252, 146.390
1044.496, 106.542
1045.740, 133.698
1046.984, 129.860
1048.228, 95.026
1049.471, 113.764
1050.714, 129.378
1051.957, 108.562
1053.200, 120.751
1054.442, 108.946
1055.685, 76.145
1056.927, 57.350
1058.169, 110.560
1059.411, 53.777
1060.652, 60.999
1061.894, 84.227
1063.135, 42.461
1064.376, 120.701
1065.617, 75.947
1066.858, 22.199
1068.098, 160.458
1069.339, 171.729
1070.579, 111.006
1071.819, 200.289
1073.058, 175.580
1074.298, 244.876
1075.537, 227.177
1076.776, 229.484
1078.015, 306.604
1079.254, 274.923
1080.493, 266.251
1081.731, 313.587
1082.969, 266.931
1084.207, 280.285
1085.445, 315.654
1086.683, 347.027
1087.920, 397.410
1089.157, 415.801
1090.394, 466.196
1091.631, 500.597
1092.868, 494.005
1094.105, 661.203
1095.341, 676.626
1096.577, 842.064
1097.813, 873.503
1099.049, 1054.947
1100.284, 1226.401
1101.519, 1371.860
1102.755, 1471.088
1103.990, 1585.807
1105.224, 1585.287
1106.459, 1581.771
1107.693, 1546.259
1108.928, 1359.750
1110.162, 1260.253
1111.395, 1190.759
1112.629, 1050.268
1113.863, 939.781
1115.096, 811.298
1116.329, 689.013
1117.562, 692.540
1118.795, 533.069
1120.027, 566.627
1121.259, 529.163
1122.492, 459.703
1123.723, 434.247
1124.955, 318.794
1126.187, 278.344
1127.418, 354.897
1128.649, 268.455
1129.880, 220.013
1131.111, 212.574
1132.342, 184.138
1133.572, 134.706
1134.802, 112.498
1136.033, 163.071
1137.262, 117.655
1138.492, 74.292
1139.722, 127.874
1140.951, 57.498
1142.180, 93.252
1143.409, 120.071
1144.638, 36.662
1145.866, 48.620
1147.095, 59.214
1148.323, 3.078
1149.551, 55.843
1150.779, 8.871
1152.006, 18.515
1153.234, 10.799
1154.461, 13.895
1155.688, 128.689
1156.915, 35.549
1158.141, 41.391
1159.368, 130.326
1160.594, 49.014
1161.820, 97.658
1163.046, 137.267
1164.272, 75.875
1165.498, 123.951
1166.723, 104.639
1167.948, 118.694
1169.173, 199.287
1170.398, 227.917
1171.623, 244.234
1172.847, 313.844
1174.071, 323.677
1175.295, 304.652
1176.519, 274.459
1177.743, 220.067
1178.966, 253.675
1180.190, 177.281
1181.413, 214.341
1182.636, 115.049
1183.858, 114.720
1185.081, 142.323
1186.303, 116.005
1187.526, 89.682
1188.748, 130.299
1189.969, 93.897
1191.191, 122.500
1192.412, 74.123
1193.634, 46.787
1194.855, 101.378
1196.076, 56.968
1197.296, 82.875
1198.517, 81.557
1199.737, 56.141
1200.957, 8.688
1202.177, 49.452
1203.397, 58.101
1204.617, 75.727
1205.836, 40.299
1207.055, 47.868
1208.274, 34.464
1209.493, 37.819
1210.712, 60.764
1211.930, 83.740
1213.148, 8.518
1214.367, 83.062
1215.584, 74.602
1216.802, 69.280
1218.020, 71.829
1219.237, 54.524
1220.454, 54.757
1221.671, 17.281
1222.888, 17.904
1224.105, 40.522
1225.321, 33.169
1226.537, 22.585
1227.753, 11.501
1228.969, 23.993
1230.185, 14.773
1231.400, 77.291
1232.616, 47.844
1233.831, 93.771
1235.046, 47.334
1236.261, 81.799
1237.475, 109.259
1238.689, 57.713
1239.904, 53.218
1241.118, 55.806
1242.332, 49.245
1243.545, 53.730
1244.759, 26.160
1245.972, 46.045
1247.185, 3.089
1248.398, 44.359
1249.611, 42.773
1250.823, 18.224
1252.036, 43.688
1253.248, 91.201
1254.460, 68.783
1255.671, 110.249
1256.883, 82.645
1258.095, 84.038
1259.306, 26.427
1260.517, 29.812
1261.728, 54.191
1262.938, 28.560
1264.149, 65.273
1265.359, 1.373
1266.569, 78.069
1267.779, 28.665
1268.989, 18.097
1270.199, 76.598
1271.408, 22.922
1272.617, 2.302
1273.826, 0.413
1275.035, 33.861
1276.244, 5.879
1277.452, 46.372
1278.661, 44.381
1279.869, 3.851
1281.077, 7.923
1282.285, 25.295
1283.492, 18.493
1284.700, 19.289
1285.907, 31.107
1287.114, 42.763
1288.321, 1.244
1289.527, 45.602
1290.734, 19.539
1291.940, 29.674
1293.146, 72.010
1294.352, 61.861
1295.558, 7.761
1296.763, 22.333
1297.969, 6.582
1299.174, 29.510
1300.379, 35.548
1301.584, 17.409
1302.788, 41.621
1303.993, 39.359
1305.197, 2.365
1306.401, 6.619
1307.605, 57.595
1308.809, 65.553
1310.013, 74.503
1311.216, 5.559
1312.419, 20.365
1313.622, 28.279
1314.825, 74.183
1316.028, 26.075
1317.230, 26.959
1318.432, 39.833
1319.634, 60.698
1320.836, 42.550
1322.038, 38.388
1323.240, 29.214
1324.441, 46.028
1325.642, 67.833
1326.843, 1.629
1328.044, 24.414
1329.245, 80.189
1330.445, 26.046
1331.645, 11.703
1332.845, 30.442
1334.045, 35.169
1335.245, 50.883
1336.445, 56.586
1337.644, 40.279
1338.843, 15.961
1340.042, 39.826
1341.241, 2.513
1342.440, 8.135
1343.638, 60.772
1344.836, 64.399
1346.034, 32.983
1347.232, 43.619
1348.430, 15.210
1349.628, 14.208
1350.825, 59.360
1352.022, 25.019
1353.219, 25.566
1354.416, 17.896
1355.613, 6.949
1356.809, 1.844
1358.005, 64.961
1359.202, 4.455
1360.398, 39.990
1361.593, 31.464
1362.789, 46.070
1363.984, 27.375
1365.179, 76.810
1366.374, 50.230
1367.569, 70.643
1368.764, 36.039
1369.958, 32.578
1371.153, 64.811
1372.347, 37.377
1373.541, 76.766
1374.735, 3.177
1375.928, 2.355
1377.122, 41.647
1378.315, 57.613
1379.508, 40.594
1380.701, 37.563
1381.893, 26.521
1383.086, 16.471
1384.278, 36.410
1385.470, 54.094
1386.662, 105.934
1387.854, 88.326
1389.046, 99.226
1390.237, 67.683
1391.428, 70.728
1392.619, 3.223
1393.810, 59.185
1395.001, 26.979
1396.191, 6.951
1397.382, 21.971
1398.572, 12.998
1399.762, 42.740
1400.952, 28.755
1402.141, 50.134
1403.331, 55.852
1404.520, 63.247
1405.709, 51.697
1406.898, 83.253
1408.087, 76.046
1409.275, 68.479
1410.464, 46.775
1411.652, 61.250
1412.840, 44.689
1414.028, 24.064
1415.215, 47.063
1416.403, 59.368
1417.590, 69.076
1418.777, 44.291
1419.964, 75.680
1421.151, 8.773
1422.338, 120.425
1423.524, 136.410
1424.710, 127.881
1425.896, 114.885
1427.082, 113.735
1428.268, 103.512
1429.453, 98.290
1430.639, 107.757
1431.824, 112.356
1433.009, 157.718
1434.194, 133.650
1435.378, 96.743
1436.563, 134.502
1437.747, 112.427
1438.931, 134.505
1440.115, 192.490
1441.299, 164.309
1442.482, 241.817
1443.666, 205.091
1444.849, 171.841
1446.032, 176.548
1447.215, 199.233
1448.397, 276.079
1449.580, 234.865
1450.762, 260.778
1451.944, 271.141
1453.126, 183.763
1454.308, 225.403
1455.490, 180.008
1456.671, 296.579
1457.852, 240.099
1459.033, 205.292
1460.214, 201.743
1461.395, 172.167
1462.575, 195.887
1463.756, 179.243
1464.936, 176.596
1466.116, 177.950
1467.296, 165.666
1468.475, 164.106
1469.655, 157.143
1470.834, 145.573
1472.013, 154.020
1473.192, 130.460
1474.371, 82.882
1475.550, 118.298
1476.728, 97.770
1477.906, 161.253
1479.084, 4.721
1480.262, 64.176
1481.440, 76.642
1482.617, 4.132
1483.795, 66.658
1484.972, 94.206
1486.149, 40.771
1487.326, 10.355
1488.502, 30.960
1489.679, 29.594
1490.855, 97.118
1492.031, 26.685
1493.207, 65.812
1494.383, 20.163
1495.559, 21.389
1496.734, 21.344
1497.909, 16.271
1499.084, 1.843
1500.259, 10.700
1501.434, 0.000
##END=



