##NAMES=Danburite
##RRUFFID=R040013
##IDEAL CHEMISTRY=CaB_2_Si_2_O_8_
##LOCALITY=Charcas, San Luis Potosi, Mexico
##OWNER=RRUFF
##SOURCE=Marcus Origlieri
##DESCRIPTION=Colorless prismatic single crystal
##STATUS=The identification of this mineral has been confirmed by X-ray diffraction and chemical analysis
##URL=rruff.info/R040013
##MEASURED CHEMISTRY=Ca_1.00_B_2.00_Si_2.00_O_8_
##PIN_ID=M00009
##ORIENTATION=Laser parallel to b* (0 1 0). Fiducial mark perpendicular to laser is parallel to -c [0 0 -1]
106.032, 0.000
107.425, 116.044
108.817, 372.524
110.209, 1309.535
111.601, 1563.552
112.992, 1603.060
114.384, 2336.559
115.775, 1371.388
117.166, 957.764
118.556, 768.404
119.947, 1011.127
121.337, 1511.261
122.727, 2017.220
124.116, 2036.272
125.506, 1326.334
126.895, 714.859
128.284, 483.355
129.673, 275.458
131.062, 267.570
132.450, 151.144
133.838, 177.884
135.226, 98.726
136.614, 123.660
138.001, 56.674
139.388, 52.763
140.775, 30.939
142.162, 1.217
143.549, 31.589
144.935, 33.956
146.321, 45.424
147.707, 45.823
149.093, 10.838
150.478, 29.448
151.863, 34.686
153.248, 33.885
154.633, 88.052
156.018, 21.195
157.402, 16.680
158.786, 9.571
160.170, 173.476
161.554, 284.392
162.937, 730.318
164.320, 1107.251
165.703, 1130.191
167.086, 641.136
168.469, 424.086
169.851, 355.037
171.233, 459.001
172.615, 777.069
173.996, 1276.300
175.378, 2245.735
176.759, 4010.329
178.140, 7268.930
179.521, 12298.511
180.901, 15798.081
182.281, 14047.651
183.662, 8587.235
185.041, 4485.835
186.421, 2508.433
187.800, 2053.025
189.180, 2427.608
190.558, 3782.179
191.937, 4995.734
193.316, 4445.270
194.694, 2615.785
196.072, 1333.278
197.450, 658.752
198.827, 371.205
200.205, 297.629
201.582, 366.998
202.959, 413.333
204.336, 646.622
205.712, 920.853
207.088, 1401.063
208.465, 2289.262
209.840, 2757.449
211.216, 2415.625
212.591, 1546.790
213.967, 809.945
215.341, 455.088
216.716, 294.220
218.091, 273.341
219.465, 435.450
220.839, 681.549
222.213, 1257.636
223.586, 2482.711
224.960, 4047.775
226.333, 4495.827
227.706, 3095.868
229.079, 1519.896
230.451, 790.913
231.823, 487.917
233.195, 527.912
234.567, 588.898
235.939, 857.835
237.310, 1226.689
238.682, 2028.518
240.052, 3294.270
241.423, 5258.714
242.794, 8124.607
244.164, 9689.361
245.534, 8643.413
246.904, 6037.985
248.274, 3672.708
249.643, 2201.747
251.012, 1458.722
252.381, 1026.746
253.750, 817.908
255.118, 563.687
256.487, 480.126
257.855, 376.898
259.223, 307.629
260.590, 220.053
261.958, 220.834
263.325, 192.618
264.692, 211.069
266.059, 185.619
267.425, 144.981
268.791, 179.301
270.158, 188.584
271.523, 152.838
272.889, 181.054
274.255, 109.209
275.620, 117.257
276.985, 109.262
278.350, 146.196
279.714, 164.040
281.078, 218.879
282.443, 296.719
283.806, 391.559
285.170, 517.398
286.534, 794.236
287.897, 1166.072
289.260, 1760.902
290.623, 2679.489
291.985, 3860.317
293.348, 5093.089
294.710, 5354.596
296.072, 4482.092
297.433, 3010.812
298.795, 1882.686
300.156, 1202.434
301.517, 858.198
302.878, 639.698
304.239, 669.749
305.599, 771.462
306.959, 978.134
308.319, 1334.899
309.679, 1761.658
311.038, 1912.410
312.398, 1742.155
313.757, 1445.894
315.116, 878.626
316.474, 608.351
317.833, 527.069
319.191, 408.779
320.549, 316.482
321.907, 268.177
323.264, 291.861
324.622, 325.536
325.979, 457.199
327.336, 702.853
328.692, 879.495
330.049, 753.128
331.405, 668.750
332.761, 489.360
334.117, 373.960
335.473, 341.549
336.828, 392.127
338.183, 485.694
339.538, 673.250
340.893, 1049.796
342.247, 1603.331
343.602, 2697.854
344.956, 4141.367
346.310, 5305.870
347.663, 5098.361
349.017, 3712.841
350.370, 2209.312
351.723, 1325.773
353.076, 829.224
354.428, 550.665
355.780, 344.095
357.133, 274.758
358.484, 151.169
359.836, 136.768
361.188, 109.306
362.539, 22.828
363.890, 30.427
365.241, 1.031
366.591, 39.515
367.942, 56.183
369.292, 20.152
370.642, 75.399
371.992, 5.109
373.341, 105.854
374.691, 44.625
376.040, 57.199
377.388, 76.010
378.737, 77.660
380.086, 94.449
381.434, 65.396
382.782, 83.303
384.130, 35.239
385.477, 51.982
386.825, 8.023
388.172, 82.177
389.519, 33.344
390.865, 81.421
392.212, 94.390
393.558, 31.419
394.904, 39.309
396.250, 64.290
397.596, 44.164
398.941, 32.321
400.286, 15.079
401.631, 101.821
402.976, 46.615
404.321, 61.528
405.665, 3.614
407.009, 48.151
408.353, 42.821
409.697, 132.475
411.040, 78.119
412.384, 164.748
413.727, 197.364
415.070, 273.967
416.412, 388.563
417.755, 622.149
419.097, 822.724
420.439, 1035.292
421.781, 1336.848
423.122, 1531.394
424.464, 1440.933
425.805, 1241.464
427.146, 895.990
428.486, 555.511
429.827, 349.026
431.167, 216.538
432.507, 224.044
433.847, 256.545
435.187, 377.040
436.526, 738.529
437.865, 1110.013
439.204, 1509.494
440.543, 1709.977
441.882, 1419.454
443.220, 1001.925
444.558, 705.393
445.896, 425.855
447.234, 273.310
448.572, 241.765
449.909, 224.214
451.246, 246.654
452.583, 315.083
453.919, 454.501
455.256, 768.908
456.592, 1264.307
457.928, 1889.696
459.264, 1807.072
460.600, 1212.438
461.935, 691.793
463.270, 475.135
464.605, 368.468
465.940, 305.790
467.274, 350.100
468.609, 409.399
469.943, 491.687
471.277, 724.963
472.610, 1072.227
473.944, 1776.482
475.277, 3130.725
476.610, 5291.956
477.943, 7831.174
479.275, 8528.382
480.608, 7135.577
481.940, 4511.762
483.272, 2609.934
484.604, 1619.095
485.935, 1070.244
487.267, 674.381
488.598, 513.507
489.929, 358.621
491.260, 340.724
492.590, 237.815
493.920, 213.894
495.250, 139.962
496.580, 162.018
497.910, 166.062
499.239, 139.094
500.569, 50.115
501.898, 113.123
503.226, 59.118
504.555, 70.100
505.883, 71.069
507.212, 51.632
508.540, 61.125
509.867, 63.216
511.195, 97.398
512.522, 91.123
513.849, 63.583
515.176, 90.892
516.503, 131.822
517.829, 118.396
519.156, 44.383
520.482, 125.062
521.808, 48.292
523.133, 107.471
524.459, 106.248
525.784, 121.689
527.109, 77.703
528.434, 35.824
529.758, 90.322
531.083, 24.054
532.407, 23.670
533.731, 34.020
535.055, 49.609
536.378, 32.249
537.701, 58.549
539.025, 35.912
540.348, 56.381
541.670, 4.747
542.993, 98.013
544.315, 84.222
545.637, 61.448
546.959, 33.874
548.281, 42.793
549.602, 57.579
550.923, 84.894
552.244, 152.311
553.565, 239.501
554.886, 209.929
556.206, 303.490
557.526, 314.187
558.846, 450.626
560.166, 546.942
561.486, 722.602
562.805, 649.184
564.124, 496.784
565.443, 484.563
566.762, 333.709
568.080, 458.965
569.399, 567.606
570.717, 573.274
572.035, 535.027
573.352, 462.961
574.670, 407.332
575.987, 407.211
577.304, 353.574
578.621, 404.794
579.938, 463.639
581.254, 483.411
582.570, 564.717
583.886, 628.529
585.202, 709.850
586.518, 779.844
587.833, 856.188
589.148, 923.522
590.463, 1081.967
591.778, 1190.351
593.093, 1440.357
594.407, 1585.653
595.721, 1907.977
597.035, 2326.332
598.349, 2823.333
599.662, 3622.802
600.976, 4726.051
602.289, 6266.468
603.602, 8782.698
604.914, 12578.937
606.227, 17855.443
607.539, 23591.723
608.851, 26748.094
610.163, 25754.277
611.475, 20570.447
612.786, 15436.720
614.097, 11152.874
615.408, 7989.362
616.719, 6165.498
618.030, 4854.625
619.340, 4077.744
620.651, 3745.853
621.961, 3670.952
623.270, 4088.043
624.580, 4718.125
625.889, 5508.198
627.199, 5684.261
628.507, 5059.316
629.816, 4040.362
631.125, 3022.399
632.433, 2329.428
633.741, 1886.447
635.049, 1547.458
636.357, 1340.460
637.664, 1116.454
638.972, 1143.438
640.279, 1025.415
641.586, 983.384
642.893, 993.101
644.199, 996.052
645.505, 934.796
646.811, 922.584
648.117, 766.369
649.423, 810.059
650.728, 782.788
652.034, 654.524
653.339, 722.427
654.644, 594.309
655.948, 527.402
657.253, 508.293
658.557, 420.202
659.861, 309.118
661.165, 271.818
662.468, 233.738
663.772, 275.481
665.075, 239.411
666.378, 297.347
667.681, 284.288
668.983, 270.226
670.286, 345.976
671.588, 381.916
672.890, 337.607
674.192, 321.290
675.493, 332.018
676.795, 203.812
678.096, 112.519
679.397, 121.345
680.697, 83.062
681.998, 85.965
683.298, 104.470
684.598, 26.355
685.898, 12.766
687.198, 32.960
688.498, 5.302
689.797, 15.388
691.096, 97.146
692.395, 21.977
693.694, 13.199
694.992, 64.613
696.290, 64.419
697.589, 18.218
698.886, 25.991
700.184, 21.214
701.482, 19.547
702.779, 33.698
704.076, 28.040
705.373, 0.230
706.669, 16.509
707.966, 21.801
709.262, 38.885
710.558, 40.615
711.854, 44.771
713.150, 53.129
714.445, 29.509
715.740, 51.904
717.035, 30.319
718.330, 24.749
719.625, 52.192
720.919, 6.656
722.214, 49.128
723.508, 57.379
724.801, 32.118
726.095, 18.630
727.388, 96.846
728.682, 63.316
729.975, 12.781
731.267, 23.240
732.560, 22.308
733.852, 81.133
735.145, 28.568
736.437, 18.999
737.728, 24.578
739.020, 2.166
740.311, 83.239
741.603, 0.362
742.894, 37.031
744.184, 28.420
745.475, 7.197
746.765, 15.179
748.055, 1.450
749.345, 45.914
750.635, 75.273
751.925, 6.629
753.214, 64.979
754.503, 10.675
755.792, 30.663
757.081, 53.997
758.370, 38.328
759.658, 84.654
760.946, 86.976
762.234, 96.294
763.522, 147.609
764.809, 186.921
766.097, 205.229
767.384, 207.533
768.671, 275.833
769.958, 251.131
771.244, 350.425
772.530, 368.716
773.817, 339.004
775.102, 276.288
776.388, 220.570
777.674, 162.848
778.959, 105.124
780.244, 108.396
781.529, 31.666
782.814, 87.934
784.098, 37.199
785.383, 23.462
786.667, 59.724
787.951, 15.989
789.235, 33.253
790.518, 42.516
791.801, 12.777
793.084, 108.036
794.367, 17.708
795.650, 80.544
796.933, 49.793
798.215, 90.041
799.497, 46.285
800.779, 9.529
802.061, 56.771
803.342, 24.012
804.624, 39.064
805.905, 44.487
807.186, 47.722
808.466, 62.954
809.747, 46.186
811.027, 33.416
812.307, 54.644
813.587, 64.873
814.867, 26.100
816.146, 31.326
817.426, 113.551
818.705, 92.776
819.984, 7.000
821.263, 158.221
822.541, 57.442
823.819, 32.538
825.098, 107.136
826.375, 146.266
827.653, 87.042
828.931, 66.091
830.208, 145.309
831.485, 120.390
832.762, 147.993
834.039, 153.208
835.315, 154.423
836.592, 91.491
837.868, 258.808
839.144, 279.238
840.420, 204.317
841.695, 241.464
842.970, 245.585
844.246, 327.518
845.521, 276.076
846.795, 243.515
848.070, 321.561
849.344, 382.570
850.618, 368.487
851.892, 376.215
853.166, 384.497
854.440, 469.263
855.713, 470.538
856.986, 553.947
858.259, 675.725
859.532, 706.566
860.804, 676.428
862.077, 757.654
863.349, 682.924
864.621, 712.514
865.893, 758.746
867.164, 806.979
868.436, 748.097
869.707, 792.267
870.978, 743.808
872.248, 695.051
873.519, 729.261
874.789, 512.431
876.060, 573.949
877.330, 545.996
878.599, 488.256
879.869, 517.344
881.138, 491.611
882.408, 549.862
883.677, 515.839
884.945, 475.042
886.214, 597.147
887.482, 641.434
888.751, 672.726
890.019, 739.914
891.287, 876.213
892.554, 990.173
893.822, 1104.478
895.089, 1371.787
896.356, 1495.099
897.623, 1479.415
898.889, 1474.734
900.156, 1398.058
901.422, 1163.384
902.688, 1141.715
903.954, 983.049
905.220, 903.387
906.485, 807.729
907.750, 679.074
909.015, 745.424
910.280, 681.777
911.545, 660.135
912.809, 625.398
914.074, 509.862
915.338, 508.230
916.602, 422.604
917.865, 362.982
919.129, 389.364
920.392, 296.750
921.655, 242.140
922.918, 278.535
924.181, 235.012
925.443, 321.422
926.706, 200.839
927.968, 230.267
929.230, 206.701
930.491, 179.140
931.753, 172.244
933.014, 143.699
934.276, 149.822
935.536, 189.625
936.797, 179.096
938.058, 225.570
939.318, 278.052
940.578, 197.537
941.838, 293.035
943.098, 320.542
944.358, 414.059
945.617, 426.583
946.876, 387.111
948.135, 547.644
949.394, 498.182
950.653, 474.725
951.911, 427.272
953.169, 381.826
954.427, 429.384
955.685, 369.952
956.943, 327.434
958.200, 383.019
959.458, 373.609
960.715, 387.206
961.971, 480.810
963.228, 526.426
964.485, 733.048
965.741, 853.677
966.997, 1017.312
968.253, 1499.951
969.508, 1951.599
970.764, 2733.252
972.019, 3152.910
973.274, 2992.575
974.529, 2519.249
975.784, 1736.932
977.039, 1300.621
978.293, 934.320
979.547, 766.026
980.801, 672.737
982.055, 485.458
983.308, 558.188
984.562, 515.929
985.815, 487.681
987.068, 519.444
988.321, 571.221
989.573, 573.007
990.826, 639.805
992.078, 634.613
993.330, 743.431
994.582, 805.260
995.833, 767.097
997.085, 835.946
998.336, 917.800
999.587, 936.664
1000.838, 937.751
1002.088, 1002.413
1003.339, 815.295
1004.589, 644.184
1005.839, 429.077
1007.089, 411.979
1008.339, 317.887
1009.588, 268.799
1010.838, 185.717
1012.087, 197.373
1013.336, 276.468
1014.584, 195.553
1015.833, 172.497
1017.081, 294.445
1018.330, 283.418
1019.577, 363.112
1020.825, 315.077
1022.073, 354.047
1023.320, 362.341
1024.567, 305.321
1025.814, 266.403
1027.061, 300.392
1028.308, 252.388
1029.554, 254.387
1030.800, 207.392
1032.046, 209.401
1033.292, 214.415
1034.538, 292.432
1035.783, 333.454
1037.029, 552.480
1038.274, 649.511
1039.519, 644.002
1040.763, 728.586
1042.008, 526.628
1043.252, 477.710
1044.496, 249.761
1045.740, 251.817
1046.984, 157.876
1048.228, 172.939
1049.471, 140.006
1050.714, 96.077
1051.957, 108.152
1053.200, 117.230
1054.442, 8.312
1055.685, 58.397
1056.927, 123.486
1058.169, 67.421
1059.411, 9.180
1060.652, 62.764
1061.894, 64.054
1063.135, 62.769
1064.376, 13.867
1065.617, 92.901
1066.858, 31.384
1068.098, 102.920
1069.339, 181.046
1070.579, 15.266
1071.819, 184.384
1073.058, 126.808
1074.298, 182.937
1075.537, 210.782
1076.776, 265.781
1078.015, 378.904
1079.254, 365.427
1080.493, 348.590
1081.731, 470.740
1082.969, 542.962
1084.207, 525.123
1085.445, 580.284
1086.683, 494.718
1087.920, 480.898
1089.157, 544.758
1090.394, 599.681
1091.631, 689.921
1092.868, 688.115
1094.105, 793.382
1095.341, 799.589
1096.577, 983.906
1097.813, 1135.121
1099.049, 1313.341
1100.284, 1462.562
1101.519, 1704.785
1102.755, 1785.009
1103.990, 2023.250
1105.224, 2044.495
1106.459, 2076.740
1107.693, 2058.990
1108.928, 1891.240
1110.162, 1655.491
1111.395, 1627.742
1112.629, 1353.993
1113.863, 1231.246
1115.096, 1083.497
1116.329, 894.749
1117.562, 857.000
1118.795, 760.250
1120.027, 641.500
1121.259, 701.750
1122.492, 629.999
1123.723, 477.247
1124.955, 431.494
1126.187, 450.740
1127.418, 415.985
1128.649, 368.287
1129.880, 293.532
1131.111, 307.774
1132.342, 290.016
1133.572, 235.256
1134.802, 164.496
1136.033, 129.733
1137.262, 128.969
1138.492, 61.204
1139.722, 70.436
1140.951, 76.670
1142.180, 46.902
1143.409, 27.133
1144.638, 32.633
1145.866, 7.409
1147.095, 6.385
1148.323, 32.029
1149.551, 24.243
1150.779, 6.456
1152.006, 31.335
1153.234, 54.865
1154.461, 18.075
1155.688, 12.730
1156.915, 51.458
1158.141, 1.355
1159.368, 90.827
1160.594, 55.006
1161.820, 16.182
1163.046, 59.355
1164.272, 16.525
1165.498, 67.692
1166.723, 46.856
1167.948, 35.017
1169.173, 105.235
1170.398, 64.388
1171.623, 164.584
1172.847, 104.730
1174.071, 80.872
1175.295, 14.009
1176.519, 134.142
1177.743, 84.271
1178.966, 120.395
1180.190, 89.514
1181.413, 25.629
1182.636, 42.740
1183.858, 71.845
1185.081, 34.945
1186.303, 78.042
1187.526, 57.132
1188.748, 75.218
1189.969, 87.298
1191.191, 57.704
1192.412, 13.648
1193.634, 43.603
1194.855, 18.574
1196.076, 38.443
1197.296, 31.546
1198.517, 7.438
1199.737, 9.423
1200.957, 27.554
1202.177, 8.638
1203.397, 79.721
1204.617, 3.254
1205.836, 45.857
1207.055, 63.201
1208.274, 25.737
1209.493, 30.760
1210.712, 4.655
1211.930, 33.223
1213.148, 43.157
1214.367, 22.148
1215.584, 91.005
1216.802, 156.856
1218.020, 1.639
1219.237, 37.750
1220.454, 15.957
1221.671, 60.660
1222.888, 30.236
1224.105, 57.866
1225.321, 30.727
1226.537, 64.588
1227.753, 24.287
1228.969, 115.357
1230.185, 56.985
1231.400, 110.791
1232.616, 131.723
1233.831, 148.584
1235.046, 136.770
1236.261, 204.140
1237.475, 276.835
1238.689, 266.647
1239.904, 134.326
1241.118, 261.995
1242.332, 186.765
1243.545, 161.420
1244.759, 165.288
1245.972, 233.927
1247.185, 229.558
1248.398, 255.183
1249.611, 253.802
1250.823, 187.417
1252.036, 118.024
1253.248, 135.629
1254.460, 94.225
1255.671, 184.814
1256.883, 115.397
1258.095, 193.974
1259.306, 46.879
1260.517, 142.443
1261.728, 226.001
1262.938, 144.552
1264.149, 225.096
1265.359, 231.634
1266.569, 217.165
1267.779, 311.769
1268.989, 218.287
1270.199, 335.797
1271.408, 291.951
1272.617, 217.520
1273.826, 236.009
1275.035, 267.645
1276.244, 271.390
1277.452, 266.697
1278.661, 206.080
1279.869, 152.535
1281.077, 155.066
1282.285, 126.486
1283.492, 110.185
1284.700, 60.610
1285.907, 93.029
1287.114, 70.121
1288.321, 88.549
1289.527, 174.849
1290.734, 144.237
1291.940, 147.609
1293.146, 220.964
1294.352, 291.309
1295.558, 194.646
1296.763, 196.968
1297.969, 117.276
1299.174, 51.570
1300.379, 113.844
1301.584, 55.087
1302.788, 168.306
1303.993, 188.505
1305.197, 70.695
1306.401, 212.811
1307.605, 214.946
1308.809, 202.063
1310.013, 385.171
1311.216, 231.267
1312.419, 220.354
1313.622, 261.432
1314.825, 305.500
1316.028, 346.560
1317.230, 337.610
1318.432, 337.961
1319.634, 309.674
1320.836, 310.690
1322.038, 248.188
1323.240, 276.693
1324.441, 179.478
1325.642, 172.829
1326.843, 193.775
1328.044, 37.776
1329.245, 55.320
1330.445, 69.801
1331.645, 36.683
1332.845, 35.461
1334.045, 46.330
1335.245, 27.116
1336.445, 69.722
1337.644, 44.167
1338.843, 42.780
1340.042, 18.594
1341.241, 62.999
1342.440, 43.754
1343.638, 29.515
1344.836, 21.805
1346.034, 85.930
1347.232, 19.346
1348.430, 12.098
1349.628, 0.787
1350.825, 43.212
1352.022, 30.717
1353.219, 59.677
1354.416, 27.034
1355.613, 27.469
1356.809, 20.851
1358.005, 6.651
1359.202, 18.750
1360.398, 36.840
1361.593, 15.424
1362.789, 22.004
1363.984, 130.421
1365.179, 9.863
1366.374, 64.690
1367.569, 29.755
1368.764, 60.796
1369.958, 83.354
1371.153, 26.919
1372.347, 153.560
1373.541, 12.153
1374.735, 66.845
1375.928, 110.342
1377.122, 82.393
1378.315, 100.431
1379.508, 169.458
1380.701, 51.474
1381.893, 48.478
1383.086, 103.407
1384.278, 87.382
1385.470, 185.346
1386.662, 96.297
1387.854, 4.236
1389.046, 175.155
1390.237, 81.055
1391.428, 135.946
1392.619, 140.827
1393.810, 122.693
1395.001, 71.541
1396.191, 31.392
1397.382, 52.233
1398.572, 52.062
1399.762, 10.121
1400.952, 32.683
1402.141, 83.396
1403.331, 31.884
1404.520, 81.882
1405.709, 58.639
1406.898, 32.387
1408.087, 82.125
1409.275, 28.855
1410.464, 94.575
1411.652, 88.287
1412.840, 68.990
1414.028, 81.709
1415.215, 115.445
1416.403, 41.024
1417.590, 188.732
1418.777, 170.134
1419.964, 129.003
1421.151, 144.347
1422.338, 232.620
1423.524, 148.253
1424.710, 196.162
1425.896, 118.323
1427.082, 213.766
1428.268, 282.760
1429.453, 258.371
1430.639, 316.279
1431.824, 305.770
1433.009, 367.752
1434.194, 403.575
1435.378, 469.678
1436.563, 514.857
1437.747, 684.923
1438.931, 662.745
1440.115, 855.979
1441.299, 1047.187
1442.482, 1011.363
1443.666, 1048.498
1444.849, 1142.607
1446.032, 1060.938
1447.215, 1272.960
1448.397, 1204.945
1449.580, 1193.891
1450.762, 1426.603
1451.944, 1313.856
1453.126, 1357.451
1454.308, 1386.190
1455.490, 1258.604
1456.671, 1341.911
1457.852, 1296.380
1459.033, 1256.782
1460.214, 1265.042
1461.395, 1133.299
1462.575, 956.565
1463.756, 960.795
1464.936, 908.017
1466.116, 912.255
1467.296, 655.675
1468.475, 701.168
1469.655, 533.861
1470.834, 611.617
1472.013, 426.356
1473.192, 524.058
1474.371, 399.723
1475.550, 431.389
1476.728, 445.025
1477.906, 480.684
1479.084, 374.456
1480.262, 452.340
1481.440, 333.275
1482.617, 360.285
1483.795, 362.386
1484.972, 360.599
1486.149, 343.707
1487.326, 320.609
1488.502, 267.863
1489.679, 234.523
1490.855, 158.366
1492.031, 67.416
1493.207, 91.705
1494.383, 61.274
1495.559, 92.178
1496.734, 21.507
1497.909, 30.379
1499.084, 2.044
1500.259, 103.495
1501.434, 1.153
1502.608, 0.000
##END=



