##NAMES=Danburite
##RRUFFID=R040013
##IDEAL CHEMISTRY=CaB_2_Si_2_O_8_
##LOCALITY=Charcas, San Luis Potosi, Mexico
##OWNER=RRUFF
##SOURCE=Marcus Origlieri
##DESCRIPTION=Colorless prismatic single crystal
##STATUS=The identification of this mineral has been confirmed by X-ray diffraction and chemical analysis
##URL=rruff.info/R040013
##MEASURED CHEMISTRY=Ca_1.00_B_2.00_Si_2.00_O_8_
##PIN_ID=M00012
##ORIENTATION=Laser parallel to c* (0 0 1). Fiducial mark perpendicular to laser is parallel to a [1 0 0]
103.247, 0.000
104.640, 259.236
106.032, 88.531
107.425, 294.260
108.817, 380.184
110.209, 775.360
111.601, 1165.840
112.992, 1348.449
114.384, 2403.815
115.775, 1771.466
117.166, 2814.256
118.556, 2906.104
119.947, 2827.105
121.337, 3748.724
122.727, 5175.567
124.116, 6593.509
125.506, 5607.735
126.895, 4374.498
128.284, 3843.812
129.673, 3308.589
131.062, 2536.457
132.450, 1615.673
133.838, 1520.057
135.226, 1595.577
136.614, 2556.211
138.001, 3676.956
139.388, 3973.041
140.775, 3021.595
142.162, 1587.500
143.549, 901.488
144.935, 395.550
146.321, 223.681
147.707, 91.871
149.093, 69.889
150.478, 28.502
151.863, 152.798
153.248, 71.791
154.633, 173.761
156.018, 52.776
157.402, 58.833
158.786, 117.130
160.170, 646.207
161.554, 956.312
162.937, 2186.364
164.320, 4124.362
165.703, 5530.308
167.086, 4073.204
168.469, 2017.062
169.851, 990.944
171.233, 289.928
172.615, 157.040
173.996, 72.229
175.378, 47.412
176.759, 29.542
178.140, 13.379
179.521, 235.687
180.901, 350.750
182.281, 467.814
183.662, 433.878
185.041, 614.938
186.421, 985.992
187.800, 1677.035
189.180, 2967.066
190.558, 3983.080
191.937, 3699.065
193.316, 2465.022
194.694, 1358.950
196.072, 782.544
197.450, 407.585
198.827, 327.777
200.205, 212.198
201.582, 376.589
202.959, 460.081
204.336, 816.426
205.712, 1327.556
207.088, 1954.673
208.465, 3413.777
209.840, 5105.867
211.216, 5808.942
212.591, 4712.654
213.967, 2851.015
215.341, 1719.363
216.716, 927.605
218.091, 626.473
219.465, 330.619
220.839, 273.430
222.213, 253.225
223.586, 134.004
224.960, 241.768
226.333, 133.520
227.706, 285.264
229.079, 243.002
230.451, 346.736
231.823, 525.470
233.195, 606.881
234.567, 984.456
235.939, 1322.091
237.310, 2151.012
238.682, 3392.447
240.052, 5476.039
241.423, 8779.464
242.794, 13704.532
244.164, 19378.572
245.534, 20741.330
246.904, 16873.432
248.274, 11655.068
249.643, 7486.422
251.012, 5006.943
252.381, 3366.398
253.750, 2427.153
255.118, 1857.034
256.487, 1544.986
257.855, 1271.969
259.223, 1014.955
260.590, 846.924
261.958, 651.866
263.325, 534.781
264.692, 402.645
266.059, 403.439
267.425, 420.171
268.791, 373.849
270.158, 507.480
271.523, 629.068
272.889, 1027.616
274.255, 1473.128
275.620, 2317.510
276.985, 3193.694
278.350, 3146.697
279.714, 2408.645
281.078, 1472.585
282.443, 837.517
283.806, 453.439
285.170, 207.351
286.534, 138.252
287.897, 2.140
289.260, 23.991
290.623, 11.173
291.985, 22.356
293.348, 34.560
294.710, 50.787
296.072, 17.038
297.433, 71.348
298.795, 31.722
300.156, 20.988
301.517, 16.558
302.878, 66.734
304.239, 50.701
305.599, 188.506
306.959, 286.077
308.319, 495.630
309.679, 769.164
311.038, 983.678
312.398, 1038.174
313.757, 863.650
315.116, 665.108
316.474, 432.547
317.833, 281.968
319.191, 165.369
320.549, 44.749
321.907, 16.106
323.264, 30.616
324.622, 13.456
325.979, 7.959
327.336, 12.291
328.692, 2.516
330.049, 9.284
331.405, 87.888
332.761, 99.037
334.117, 165.165
335.473, 240.271
336.828, 170.356
338.183, 241.419
339.538, 328.462
340.893, 449.482
342.247, 879.482
343.602, 1352.452
344.956, 2307.534
346.310, 3325.627
347.663, 4064.875
349.017, 3617.371
350.370, 2550.556
351.723, 1701.955
353.076, 1060.436
354.428, 726.644
355.780, 431.604
357.133, 341.197
358.484, 184.400
359.836, 76.843
361.188, 118.520
362.539, 17.722
363.890, 15.673
365.241, 27.674
366.591, 3.453
367.942, 12.226
369.292, 58.432
370.642, 0.382
371.992, 55.607
373.341, 34.276
374.691, 70.527
376.040, 12.967
377.388, 49.592
378.737, 39.953
380.086, 11.773
381.434, 15.165
382.782, 2.186
384.130, 21.327
385.477, 43.465
386.825, 79.431
388.172, 83.124
389.519, 104.012
390.865, 149.159
392.212, 140.361
393.558, 178.421
394.904, 106.663
396.250, 161.814
397.596, 162.186
398.941, 164.381
400.286, 260.475
401.631, 338.373
402.976, 611.177
404.321, 794.967
405.665, 1066.647
407.009, 1018.231
408.353, 795.008
409.697, 680.543
411.040, 518.165
412.384, 500.657
413.727, 560.123
415.070, 657.571
416.412, 808.998
417.755, 1061.401
419.097, 1407.781
420.439, 1808.142
421.781, 2385.487
423.122, 2901.816
424.464, 3012.129
425.805, 2902.420
427.146, 2296.697
428.486, 1618.956
429.827, 1219.193
431.167, 819.421
432.507, 719.597
433.847, 634.765
435.187, 805.253
436.526, 1009.072
437.865, 1518.611
439.204, 2206.840
440.543, 2700.670
441.882, 2933.260
443.220, 2410.588
444.558, 1686.825
445.896, 1289.170
447.234, 854.461
448.572, 665.142
449.909, 474.737
451.246, 443.746
452.583, 439.732
453.919, 408.698
455.256, 521.640
456.592, 539.559
457.928, 792.455
459.264, 936.327
460.600, 1041.177
461.935, 1137.003
463.270, 907.805
464.605, 819.584
465.940, 570.856
467.274, 479.838
468.609, 349.806
469.943, 298.146
471.277, 314.595
472.610, 251.424
473.944, 434.063
475.277, 599.402
476.610, 837.675
477.943, 1306.975
479.275, 1603.501
480.608, 1641.003
481.940, 1310.482
483.272, 765.937
484.604, 527.369
485.935, 334.777
487.267, 245.161
488.598, 126.522
489.929, 113.859
491.260, 70.170
492.590, 22.454
493.920, 65.709
495.250, 26.936
496.580, 16.135
497.910, 47.303
499.239, 11.556
500.569, 3.549
501.898, 37.622
503.226, 10.667
504.555, 3.713
505.883, 27.063
507.212, 61.204
508.540, 43.288
509.867, 85.463
511.195, 5.302
512.522, 70.744
513.849, 58.083
515.176, 23.763
516.503, 148.111
517.829, 50.931
519.156, 82.880
520.482, 116.142
521.808, 51.528
523.133, 142.111
524.459, 41.327
525.784, 88.438
527.109, 122.927
528.434, 114.670
529.758, 174.597
531.083, 5.689
532.407, 142.770
533.731, 78.253
535.055, 60.599
536.378, 85.886
537.701, 42.490
539.025, 57.565
540.348, 18.471
541.670, 38.881
542.993, 54.895
544.315, 92.439
545.637, 106.912
546.959, 104.986
548.281, 122.523
549.602, 167.348
550.923, 90.789
552.244, 164.878
553.565, 115.656
554.886, 199.339
556.206, 237.707
557.526, 195.511
558.846, 279.589
560.166, 370.359
561.486, 445.729
562.805, 462.465
564.124, 437.243
565.443, 414.250
566.762, 304.579
568.080, 278.069
569.399, 346.905
570.717, 329.180
572.035, 359.331
573.352, 350.349
574.670, 375.063
575.987, 401.035
577.304, 443.872
578.621, 534.737
579.938, 603.238
581.254, 687.743
582.570, 756.888
583.886, 823.375
585.202, 887.607
586.518, 947.557
587.833, 1004.469
589.148, 1058.207
590.463, 1135.916
591.778, 1244.644
593.093, 1328.480
594.407, 1558.070
595.721, 1766.339
597.035, 2063.919
598.349, 2613.564
599.662, 3178.227
600.976, 3980.756
602.289, 5268.316
603.602, 7062.854
604.914, 10009.233
606.227, 14015.588
607.539, 19671.922
608.851, 24268.240
610.163, 26094.541
611.475, 23760.824
612.786, 19187.098
614.097, 14673.356
615.408, 10609.598
616.719, 8056.017
618.030, 6298.227
619.340, 4979.792
620.651, 4412.964
621.961, 4038.116
623.270, 4324.248
624.580, 4781.358
625.889, 5538.449
627.199, 6241.520
628.507, 6046.570
629.816, 5289.600
631.125, 4266.461
632.433, 3291.243
633.741, 2780.803
635.049, 2226.041
636.357, 2025.542
637.664, 1736.784
638.972, 1473.907
640.279, 1365.265
641.586, 1314.833
642.893, 1231.730
644.199, 1184.979
645.505, 1078.947
646.811, 1088.628
648.117, 924.729
649.423, 1006.033
650.728, 922.241
652.034, 835.631
653.339, 916.443
654.644, 687.746
655.948, 664.992
657.253, 606.005
658.557, 490.661
659.861, 434.862
661.165, 327.216
662.468, 315.719
663.772, 267.921
665.075, 255.542
666.378, 252.720
667.681, 163.080
668.983, 242.591
670.286, 193.052
671.588, 129.625
672.890, 150.436
674.192, 38.979
675.493, 141.897
676.795, 107.034
678.096, 61.275
679.397, 119.297
680.697, 5.375
681.998, 78.192
683.298, 77.572
684.598, 8.415
685.898, 54.747
687.198, 7.040
688.498, 30.140
689.797, 1.384
691.096, 40.679
692.395, 12.263
693.694, 43.011
694.992, 3.103
696.290, 35.303
697.589, 47.515
698.886, 17.365
700.184, 5.241
701.482, 17.861
702.779, 49.055
704.076, 52.003
705.373, 62.983
706.669, 34.998
707.966, 0.041
709.262, 59.104
710.558, 36.201
711.854, 19.675
713.150, 113.467
714.445, 58.653
715.740, 27.872
717.035, 66.116
718.330, 25.394
719.625, 53.697
720.919, 24.970
722.214, 38.380
723.508, 2.243
724.801, 0.848
726.095, 16.435
727.388, 21.005
728.682, 53.560
729.975, 55.100
731.267, 45.626
732.560, 17.138
733.852, 64.635
735.145, 12.882
736.437, 55.581
737.728, 36.031
739.020, 26.467
740.311, 49.888
741.603, 37.296
742.894, 36.691
744.184, 74.073
745.475, 78.443
746.765, 96.802
748.055, 191.148
749.345, 155.484
750.635, 165.808
751.925, 97.121
753.214, 128.422
754.503, 139.713
755.792, 14.993
757.081, 162.260
758.370, 3.484
759.658, 79.757
760.946, 108.988
762.234, 128.208
763.522, 172.843
764.809, 128.617
766.097, 200.807
767.384, 211.986
768.671, 178.156
769.958, 338.316
771.244, 328.467
772.530, 441.610
773.817, 419.745
775.102, 409.874
776.388, 375.996
777.674, 261.112
778.959, 219.223
780.244, 156.328
781.529, 120.430
782.814, 106.842
784.098, 114.620
785.383, 95.708
786.667, 112.793
787.951, 103.875
789.235, 193.951
790.518, 159.022
791.801, 138.087
793.084, 177.149
794.367, 135.206
795.650, 115.257
796.933, 107.303
798.215, 45.343
799.497, 102.379
800.779, 28.408
802.061, 86.431
803.342, 78.448
804.624, 10.459
805.905, 61.465
807.186, 30.465
808.466, 69.458
809.747, 22.446
811.027, 7.427
812.307, 67.404
813.587, 32.951
814.867, 29.008
816.146, 26.957
817.426, 37.690
818.705, 84.636
819.984, 17.980
821.263, 24.208
822.541, 46.593
823.819, 12.628
825.098, 102.322
826.375, 81.390
827.653, 20.967
828.931, 71.233
830.208, 80.857
831.485, 153.807
832.762, 79.043
834.039, 60.350
835.315, 203.947
836.592, 131.083
837.868, 156.923
839.144, 172.048
840.420, 182.548
841.695, 288.659
842.970, 215.705
844.246, 256.499
845.521, 302.947
846.795, 238.212
848.070, 424.109
849.344, 309.544
850.618, 309.082
851.892, 412.729
853.166, 309.659
854.440, 481.311
855.713, 406.080
856.986, 476.803
858.259, 601.875
859.532, 614.463
860.804, 645.908
862.077, 682.306
863.349, 527.680
864.621, 606.249
865.893, 412.844
867.164, 417.597
868.436, 456.362
869.707, 313.089
870.978, 412.690
872.248, 274.518
873.519, 328.647
874.789, 299.446
876.060, 321.163
877.330, 427.845
878.599, 358.648
879.869, 348.401
881.138, 378.158
882.408, 318.061
883.677, 325.966
884.945, 344.876
886.214, 289.790
887.482, 421.706
888.751, 344.626
890.019, 388.550
891.287, 436.477
892.554, 429.408
893.822, 528.148
895.089, 588.086
896.356, 652.654
897.623, 819.600
898.889, 806.549
900.156, 900.502
901.422, 888.461
902.688, 958.423
903.954, 1015.390
905.220, 909.361
906.485, 1020.338
907.750, 907.318
909.015, 832.304
910.280, 907.294
911.545, 687.290
912.809, 798.291
914.074, 776.296
915.338, 725.308
916.602, 742.324
917.865, 544.346
919.129, 590.373
920.392, 513.417
921.655, 286.455
922.918, 407.499
924.181, 267.833
925.443, 258.889
926.706, 256.951
927.968, 157.269
929.230, 252.342
930.491, 279.422
931.753, 210.507
933.014, 354.599
934.276, 278.890
935.536, 322.994
936.797, 404.105
938.058, 339.222
939.318, 454.351
940.578, 470.485
941.838, 649.595
943.098, 769.746
944.358, 771.903
945.617, 1058.068
946.876, 1071.239
948.135, 1160.398
949.394, 1202.583
950.653, 982.097
951.911, 1009.299
953.169, 884.509
954.427, 676.728
955.685, 710.955
956.943, 539.195
958.200, 495.018
959.458, 529.277
960.715, 396.549
961.971, 566.831
963.228, 499.127
964.485, 544.433
965.741, 790.751
966.997, 836.079
968.253, 1226.419
969.508, 1414.777
970.764, 1820.146
972.019, 2281.526
973.274, 2394.923
974.529, 2359.333
975.784, 1995.757
977.039, 1574.191
978.293, 1289.644
979.547, 978.113
980.801, 835.603
982.055, 714.108
983.308, 570.626
984.562, 643.163
985.815, 504.717
987.068, 521.281
988.321, 584.870
989.573, 325.479
990.826, 376.102
992.078, 292.746
993.330, 228.404
994.582, 350.081
995.833, 392.769
997.085, 416.474
998.336, 608.191
999.587, 774.920
1000.838, 906.342
1002.088, 1298.414
1003.339, 1138.177
1004.589, 1282.950
1005.839, 1162.734
1007.089, 1416.530
1008.339, 1368.336
1009.588, 1217.156
1010.838, 1178.608
1012.087, 797.627
1013.336, 694.987
1014.584, 587.850
1015.833, 395.725
1017.081, 590.292
1018.330, 569.187
1019.577, 642.478
1020.825, 916.427
1022.073, 871.353
1023.320, 1028.361
1024.567, 1120.307
1025.814, 1066.264
1027.061, 1235.230
1028.308, 1100.208
1029.554, 971.195
1030.800, 959.194
1032.046, 734.204
1033.292, 637.226
1034.538, 411.256
1035.783, 267.298
1037.029, 329.350
1038.274, 124.413
1039.519, 164.485
1040.763, 82.568
1042.008, 53.662
1043.252, 82.765
1044.496, 22.879
1045.740, 7.003
1046.984, 107.138
1048.228, 11.282
1049.471, 87.438
1050.714, 47.603
1051.957, 24.779
1053.200, 86.965
1054.442, 1.162
1055.685, 106.369
1056.927, 42.586
1058.169, 34.187
1059.411, 30.047
1060.652, 58.292
1061.894, 30.453
1063.135, 49.810
1064.376, 18.082
1065.617, 120.365
1066.858, 96.659
1068.098, 24.038
1069.339, 245.273
1070.579, 143.595
1071.819, 277.928
1073.058, 428.987
1074.298, 409.348
1075.537, 616.720
1076.776, 698.524
1078.015, 804.923
1079.254, 964.332
1080.493, 916.752
1081.731, 1039.186
1082.969, 1066.629
1084.207, 865.083
1085.445, 856.552
1086.683, 791.030
1087.920, 634.527
1089.157, 755.034
1090.394, 760.003
1091.631, 867.533
1092.868, 842.481
1094.105, 871.036
1095.341, 1056.600
1096.577, 1058.699
1097.813, 1196.291
1099.049, 1471.892
1100.284, 1622.506
1101.519, 1841.133
1102.755, 2070.770
1103.990, 2260.428
1105.224, 2563.095
1106.459, 2503.771
1107.693, 2602.468
1108.928, 2492.174
1110.162, 2291.889
1111.395, 2180.622
1112.629, 1870.362
1113.863, 1575.112
1115.096, 1473.871
1116.329, 1196.638
1117.562, 1101.413
1118.795, 1040.197
1120.027, 851.989
1121.259, 908.790
1122.492, 785.598
1123.723, 581.416
1124.955, 633.241
1126.187, 498.073
1127.418, 520.915
1128.649, 498.763
1129.880, 339.620
1131.111, 395.485
1132.342, 293.357
1133.572, 230.237
1134.802, 307.124
1136.033, 180.019
1137.262, 152.921
1138.492, 108.842
1139.722, 15.771
1140.951, 104.707
1142.180, 74.651
1143.409, 51.398
1144.638, 19.447
1145.866, 99.490
1147.095, 46.459
1148.323, 87.419
1149.551, 54.614
1150.779, 44.352
1152.006, 33.674
1153.234, 3.698
1154.461, 72.286
1155.688, 7.725
1156.915, 127.271
1158.141, 154.273
1159.368, 181.282
1160.594, 309.298
1161.820, 248.320
1163.046, 283.349
1164.272, 422.385
1165.498, 377.427
1166.723, 578.475
1167.948, 607.530
1169.173, 666.590
1170.398, 931.657
1171.623, 918.729
1172.847, 1081.808
1174.071, 1167.892
1175.295, 1044.982
1176.519, 1162.078
1177.743, 1073.179
1178.966, 924.285
1180.190, 853.396
1181.413, 737.513
1182.636, 609.635
1183.858, 608.763
1185.081, 350.895
1186.303, 418.031
1187.526, 400.163
1188.748, 236.309
1189.969, 338.461
1191.191, 101.333
1192.412, 141.494
1193.634, 202.660
1194.855, 111.579
1196.076, 110.753
1197.296, 68.933
1198.517, 9.115
1199.737, 83.303
1200.957, 133.302
1202.177, 21.497
1203.397, 134.697
1204.617, 49.100
1205.836, 75.015
1207.055, 27.218
1208.274, 31.574
1209.493, 37.010
1210.712, 51.220
1211.930, 15.644
1213.148, 149.535
1214.367, 76.755
1215.584, 73.219
1216.802, 168.444
1218.020, 28.673
1219.237, 154.851
1220.454, 11.085
1221.671, 30.317
1222.888, 31.262
1224.105, 27.500
1225.321, 70.154
1226.537, 35.392
1227.753, 33.367
1228.969, 111.794
1230.185, 18.070
1231.400, 78.883
1232.616, 163.765
1233.831, 25.012
1235.046, 253.895
1236.261, 288.147
1237.475, 173.401
1238.689, 333.166
1239.904, 257.424
1241.118, 237.684
1242.332, 281.655
1243.545, 172.920
1244.759, 165.188
1245.972, 299.461
1247.185, 180.736
1248.398, 408.013
1249.611, 279.293
1250.823, 205.577
1252.036, 352.863
1253.248, 165.151
1254.460, 211.442
1255.671, 291.736
1256.883, 51.033
1258.095, 256.333
1259.306, 185.635
1260.517, 136.939
1261.728, 345.246
1262.938, 213.555
1264.149, 275.866
1265.359, 422.180
1266.569, 331.496
1267.779, 538.814
1268.989, 492.485
1270.199, 353.808
1271.408, 564.133
1272.617, 514.478
1273.826, 402.807
1275.035, 562.516
1276.244, 409.672
1277.452, 422.500
1278.661, 374.533
1279.869, 149.873
1281.077, 375.533
1282.285, 204.877
1283.492, 152.838
1284.700, 297.152
1285.907, 125.502
1287.114, 232.783
1288.321, 241.137
1289.527, 144.494
1290.734, 314.852
1291.940, 285.198
1293.146, 243.546
1294.352, 537.886
1295.558, 269.219
1296.763, 317.553
1297.969, 346.889
1299.174, 140.210
1300.379, 309.526
1301.584, 247.840
1302.788, 145.156
1303.993, 336.456
1305.197, 249.746
1306.401, 298.013
1307.605, 460.282
1308.809, 317.527
1310.013, 513.758
1311.216, 518.988
1312.419, 427.217
1313.622, 516.446
1314.825, 509.676
1316.028, 460.903
1317.230, 631.131
1318.432, 449.358
1319.634, 511.584
1320.836, 645.810
1322.038, 402.036
1323.240, 530.234
1324.441, 420.430
1325.642, 247.624
1326.843, 405.816
1328.044, 190.996
1329.245, 141.173
1330.445, 202.347
1331.645, 68.519
1332.845, 76.687
1334.045, 62.851
1335.245, 81.708
1336.445, 46.439
1337.644, 13.583
1338.843, 58.701
1340.042, 80.427
1341.241, 5.447
1342.440, 28.326
1343.638, 54.792
1344.836, 7.093
1346.034, 42.021
1347.232, 65.132
1348.430, 82.757
1349.628, 16.342
1350.825, 13.559
1352.022, 12.911
1353.219, 31.187
1354.416, 17.121
1355.613, 30.978
1356.809, 36.079
1358.005, 82.342
1359.202, 3.758
1360.398, 24.136
1361.593, 27.026
1362.789, 24.089
1363.984, 112.787
1365.179, 15.337
1366.374, 74.475
1367.569, 107.370
1368.764, 22.792
1369.958, 107.979
1371.153, 72.805
1372.347, 88.439
1373.541, 21.732
1374.735, 35.257
1375.928, 213.522
1377.122, 137.907
1378.315, 73.292
1379.508, 230.678
1380.701, 132.065
1381.893, 172.453
1383.086, 183.841
1384.278, 90.230
1385.470, 182.620
1386.662, 117.010
1387.854, 106.376
1389.046, 234.742
1390.237, 91.110
1391.428, 127.493
1392.619, 210.875
1393.810, 68.266
1395.001, 31.662
1396.191, 19.059
1397.382, 97.544
1398.572, 33.853
1399.762, 15.250
1400.952, 6.647
1402.141, 141.044
1403.331, 13.444
1404.520, 28.843
1405.709, 123.245
1406.898, 25.351
1408.087, 95.056
1409.275, 159.467
1410.464, 44.881
1411.652, 127.299
1412.840, 201.723
1414.028, 95.149
1415.215, 225.582
1416.403, 37.019
1417.590, 152.462
1418.777, 242.913
1419.964, 75.456
1421.151, 206.890
1422.338, 125.177
1423.524, 112.193
1424.710, 222.217
1425.896, 128.632
1427.082, 220.813
1428.268, 377.007
1429.453, 317.671
1430.639, 357.056
1431.824, 363.979
1433.009, 393.149
1434.194, 581.632
1435.378, 641.875
1436.563, 596.346
1437.747, 913.199
1438.931, 1012.291
1440.115, 1204.368
1441.299, 1437.433
1442.482, 1301.483
1443.666, 1552.519
1444.849, 1709.538
1446.032, 1525.540
1447.215, 1862.524
1448.397, 1810.491
1449.580, 1668.436
1450.762, 2177.684
1451.944, 1912.452
1453.126, 1830.146
1454.308, 2191.847
1455.490, 1861.667
1456.671, 1923.244
1457.852, 2030.776
1459.033, 1729.257
1460.214, 1802.683
1461.395, 1700.049
1462.575, 1388.437
1463.756, 1499.850
1464.936, 1250.238
1466.116, 1109.686
1467.296, 1139.119
1468.475, 947.651
1469.655, 897.342
1470.834, 909.233
1472.013, 681.170
1473.192, 748.095
1474.371, 620.006
1475.550, 599.908
1476.728, 676.801
1477.906, 620.962
1479.084, 513.170
1480.262, 642.535
1481.440, 575.989
1482.617, 589.559
1483.795, 694.271
1484.972, 477.146
1486.149, 414.214
1487.326, 497.476
1488.502, 330.939
1489.679, 337.658
1490.855, 232.693
1492.031, 142.083
1493.207, 134.888
1494.383, 84.200
1495.559, 101.126
1496.734, 116.833
1497.909, 40.548
1499.084, 7.621
1500.259, 97.619
1501.434, 3.447
1502.608, 0.000
##END=



