##NAMES=Danburite
##RRUFFID=R040013
##IDEAL CHEMISTRY=CaB_2_Si_2_O_8_
##LOCALITY=Charcas, San Luis Potosi, Mexico
##OWNER=RRUFF
##SOURCE=Marcus Origlieri
##DESCRIPTION=Colorless prismatic single crystal
##STATUS=The identification of this mineral has been confirmed by X-ray diffraction and chemical analysis
##URL=rruff.info/R040013
##MEASURED CHEMISTRY=Ca_1.00_B_2.00_Si_2.00_O_8_
##PIN_ID=M00010
##ORIENTATION=Laser parallel to a* (1 0 0). Fiducial mark perpendicular to laser is parallel to b [0 1 0]
115.775, 0.000
117.166, 9.345
118.556, 204.211
119.947, 719.007
121.337, 1655.687
122.727, 2522.176
124.116, 2690.143
125.506, 2542.545
126.895, 3018.581
128.284, 2993.580
129.673, 2078.391
131.062, 1010.547
132.450, 450.509
133.838, 170.560
135.226, 142.724
136.614, 241.356
138.001, 309.373
139.388, 164.487
140.775, 29.671
142.162, 76.802
143.549, 72.133
144.935, 22.376
146.321, 100.376
147.707, 451.077
149.093, 1017.733
150.478, 1308.352
151.863, 790.936
153.248, 283.595
154.633, 75.359
156.018, 29.114
157.402, 14.827
158.786, 282.740
160.170, 605.695
161.554, 1282.578
162.937, 2907.396
164.320, 4255.153
165.703, 3259.855
167.086, 1483.892
168.469, 562.756
169.851, 190.944
171.233, 92.320
172.615, 122.280
173.996, 249.213
175.378, 566.529
176.759, 1063.711
178.140, 1949.872
179.521, 3066.023
180.901, 3295.184
182.281, 2376.370
183.662, 1266.559
185.041, 706.730
186.421, 447.878
187.800, 506.005
189.180, 585.658
190.558, 708.413
191.937, 667.480
193.316, 503.847
194.694, 407.373
196.072, 445.402
197.450, 679.439
198.827, 1141.893
200.205, 2039.633
201.582, 3215.667
202.959, 3687.338
204.336, 2827.128
205.712, 1878.883
207.088, 1472.640
208.465, 1706.400
209.840, 1855.161
211.216, 1456.916
212.591, 844.671
213.967, 431.427
215.341, 188.183
216.716, 64.937
218.091, 18.312
219.465, 5.132
220.839, 4.743
222.213, 29.274
223.586, 146.038
224.960, 223.740
226.333, 229.439
227.706, 121.134
229.079, 0.824
230.451, 31.509
231.823, 14.188
233.195, 74.860
234.567, 163.526
235.939, 337.188
237.310, 619.848
238.682, 1123.508
240.052, 1953.258
241.423, 3400.191
242.794, 5328.352
244.164, 6102.752
245.534, 5365.120
246.904, 3614.090
248.274, 2139.673
249.643, 1271.781
251.012, 825.835
252.381, 562.464
253.750, 413.047
255.118, 289.625
256.487, 182.204
257.855, 152.780
259.223, 85.352
260.590, 53.914
261.958, 1.531
263.325, 5.009
264.692, 11.276
266.059, 10.301
267.425, 40.193
268.791, 8.864
270.158, 30.477
271.523, 31.014
272.889, 80.467
274.255, 169.858
275.620, 242.198
276.985, 280.481
278.350, 215.496
279.714, 89.449
281.078, 34.397
282.443, 3.659
283.806, 59.725
285.170, 39.827
286.534, 34.942
287.897, 20.932
289.260, 53.526
290.623, 144.904
291.985, 220.388
293.348, 321.027
294.710, 366.860
296.072, 311.686
297.433, 229.503
298.795, 224.312
300.156, 327.113
301.517, 529.905
302.878, 885.684
304.239, 1096.211
305.599, 1054.620
306.959, 1031.436
308.319, 1138.286
309.679, 1432.022
311.038, 1474.748
312.398, 1199.465
313.757, 826.173
315.116, 519.856
316.474, 326.509
317.833, 216.150
319.191, 115.783
320.549, 65.401
321.907, 29.004
323.264, 9.597
324.622, 10.818
325.979, 36.756
327.336, 75.323
328.692, 96.882
330.049, 70.434
331.405, 113.979
332.761, 103.516
334.117, 166.046
335.473, 210.570
336.828, 267.079
338.183, 435.568
339.538, 691.040
340.893, 1125.499
342.247, 1966.950
343.602, 3133.393
344.956, 4916.830
346.310, 5780.257
347.663, 5092.655
349.017, 3538.023
350.370, 2155.381
351.723, 1333.733
353.076, 843.157
354.428, 527.703
355.780, 354.231
357.133, 265.059
358.484, 198.485
359.836, 119.182
361.188, 120.711
362.539, 61.698
363.890, 81.177
365.241, 25.487
366.591, 26.272
367.942, 28.397
369.292, 0.612
370.642, 32.163
371.992, 16.486
373.341, 8.931
374.691, 5.185
376.040, 4.189
377.388, 4.875
378.737, 1.259
380.086, 26.608
381.434, 26.055
382.782, 35.426
384.130, 27.153
385.477, 68.964
386.825, 99.993
388.172, 152.242
389.519, 247.594
390.865, 405.940
392.212, 549.261
393.558, 630.853
394.904, 548.683
396.250, 338.018
397.596, 227.176
398.941, 137.543
400.286, 101.740
401.631, 110.798
402.976, 129.978
404.321, 147.047
405.665, 151.086
407.009, 145.985
408.353, 112.374
409.697, 139.895
411.040, 144.039
412.384, 153.191
413.727, 217.974
415.070, 250.492
416.412, 367.203
417.755, 493.905
419.097, 660.823
420.439, 875.752
421.781, 1087.670
423.122, 1175.578
424.464, 1146.477
425.805, 937.368
427.146, 637.014
428.486, 430.190
429.827, 286.055
431.167, 233.375
432.507, 178.803
433.847, 161.311
435.187, 198.998
436.526, 358.835
437.865, 598.675
439.204, 764.513
440.543, 838.342
441.882, 706.163
443.220, 516.977
444.558, 311.782
445.896, 241.579
447.234, 155.368
448.572, 121.148
449.909, 59.922
451.246, 53.864
452.583, 44.449
453.919, 82.199
455.256, 129.941
456.592, 187.675
457.928, 251.401
459.264, 272.119
460.600, 207.830
461.935, 174.534
463.270, 175.230
464.605, 125.918
465.940, 104.532
467.274, 157.970
468.609, 205.247
469.943, 267.120
471.277, 388.572
472.610, 669.196
473.944, 1090.832
475.277, 1839.419
476.610, 3047.041
477.943, 4157.655
479.275, 4062.261
480.608, 2923.861
481.940, 1826.453
483.272, 1050.037
484.604, 631.615
485.935, 427.185
487.267, 280.748
488.598, 172.304
489.929, 122.853
491.260, 111.395
492.590, 105.930
493.920, 65.458
495.250, 62.979
496.580, 43.494
497.910, 16.001
499.239, 18.500
500.569, 6.011
501.898, 37.467
503.226, 1.063
504.555, 12.397
505.883, 14.152
507.212, 5.211
508.540, 36.640
509.867, 4.828
511.195, 11.984
512.522, 9.206
513.849, 2.136
515.176, 31.666
516.503, 12.422
517.829, 13.566
519.156, 2.819
520.482, 33.053
521.808, 11.124
523.133, 12.738
524.459, 40.167
525.784, 13.904
527.109, 9.988
528.434, 13.932
529.758, 23.694
531.083, 32.570
532.407, 8.828
533.731, 8.077
535.055, 10.320
536.378, 7.444
537.701, 18.219
539.025, 3.995
540.348, 35.201
541.670, 0.405
542.993, 23.601
544.315, 59.796
545.637, 23.985
546.959, 46.167
548.281, 56.344
549.602, 73.515
550.923, 128.685
552.244, 134.852
553.565, 128.021
554.886, 133.187
556.206, 195.352
557.526, 247.513
558.846, 359.671
560.166, 492.827
561.486, 590.977
562.805, 491.123
564.124, 369.289
565.443, 247.423
566.762, 238.552
568.080, 222.677
569.399, 226.795
570.717, 214.910
572.035, 221.680
573.352, 250.140
574.670, 246.259
575.987, 240.380
577.304, 270.498
578.621, 328.611
579.938, 351.718
581.254, 337.821
582.570, 426.918
583.886, 484.010
585.202, 495.097
586.518, 575.178
587.833, 663.255
589.148, 698.326
590.463, 819.393
591.778, 909.454
593.093, 1100.477
594.407, 1288.468
595.721, 1579.411
597.035, 1888.453
598.349, 2369.489
599.662, 3075.521
600.976, 4111.548
602.289, 5562.695
603.602, 7908.713
604.914, 11471.745
606.227, 15949.754
607.539, 20227.824
608.851, 21805.824
610.163, 19833.816
611.475, 15201.810
612.786, 11429.801
614.097, 8298.790
615.408, 5885.772
616.719, 4590.752
618.030, 3665.728
619.340, 3039.698
620.651, 2789.664
621.961, 2840.626
623.270, 3057.583
624.580, 3399.536
625.889, 3621.484
627.199, 3379.428
628.507, 2848.368
629.816, 2312.303
631.125, 1701.234
632.433, 1341.161
633.741, 1123.084
635.049, 902.003
636.357, 802.917
637.664, 693.828
638.972, 628.655
640.279, 584.352
641.586, 516.057
642.893, 488.453
644.199, 453.240
645.505, 403.746
646.811, 355.410
648.117, 314.607
649.423, 286.759
650.728, 277.053
652.034, 235.727
653.339, 227.967
654.644, 188.116
655.948, 212.271
657.253, 211.053
658.557, 202.958
659.861, 154.159
661.165, 157.949
662.468, 160.765
663.772, 108.516
665.075, 123.522
666.378, 128.112
667.681, 117.770
668.983, 136.061
670.286, 114.260
671.588, 108.232
672.890, 85.971
674.192, 82.186
675.493, 63.633
676.795, 72.264
678.096, 50.940
679.397, 42.050
680.697, 79.084
681.998, 64.591
683.298, 91.262
684.598, 38.188
685.898, 30.001
687.198, 68.807
688.498, 82.683
689.797, 26.511
691.096, 63.047
692.395, 35.989
693.694, 60.578
694.992, 56.373
696.290, 62.166
697.589, 71.965
698.886, 40.885
700.184, 73.023
701.482, 74.805
702.779, 51.585
704.076, 17.362
705.373, 63.136
706.669, 101.908
707.966, 108.740
709.262, 135.582
710.558, 149.688
711.854, 159.048
713.150, 175.808
714.445, 190.566
715.740, 209.321
717.035, 182.074
718.330, 107.824
719.625, 116.572
720.919, 80.318
722.214, 57.061
723.508, 86.802
724.801, 47.541
726.095, 27.277
727.388, 38.012
728.682, 45.744
729.975, 33.474
731.267, 44.202
732.560, 52.928
733.852, 27.652
735.145, 28.374
736.437, 44.095
737.728, 18.814
739.020, 38.531
740.311, 30.246
741.603, 2.041
742.894, 59.669
744.184, 10.377
745.475, 26.083
746.765, 0.787
748.055, 52.489
749.345, 31.189
750.635, 37.887
751.925, 38.584
753.214, 42.279
754.503, 47.972
755.792, 15.664
757.081, 11.354
758.370, 47.043
759.658, 15.730
760.946, 33.416
762.234, 60.100
763.522, 36.783
764.809, 73.465
766.097, 128.145
767.384, 104.824
768.671, 192.502
769.958, 140.178
771.244, 241.854
772.530, 256.527
773.817, 261.200
775.102, 294.872
776.388, 297.543
777.674, 188.212
778.959, 197.881
780.244, 90.550
781.529, 116.219
782.814, 62.890
784.098, 41.559
785.383, 45.230
786.667, 35.901
787.951, 42.575
789.235, 2.751
790.518, 3.078
791.801, 26.595
793.084, 22.730
794.367, 26.060
795.650, 15.605
796.933, 11.725
798.215, 3.942
799.497, 15.388
800.779, 2.720
802.061, 22.048
803.342, 16.379
804.624, 13.287
805.905, 11.958
807.186, 5.631
808.466, 20.305
809.747, 3.672
811.027, 4.493
812.307, 6.656
813.587, 14.976
814.867, 8.702
816.146, 16.619
817.426, 0.942
818.705, 22.262
819.984, 35.585
821.263, 8.916
822.541, 56.247
823.819, 16.411
825.098, 7.931
826.375, 6.274
827.653, 1.619
828.931, 34.963
830.208, 9.315
831.485, 37.668
832.762, 2.971
834.039, 1.611
835.315, 9.750
836.592, 11.888
837.868, 19.474
839.144, 12.161
840.420, 39.796
841.695, 7.432
842.970, 38.042
844.246, 29.678
845.521, 5.685
846.795, 1.049
848.070, 28.587
849.344, 30.224
850.618, 59.862
851.892, 15.500
853.166, 42.138
854.440, 20.778
855.713, 58.418
856.986, 67.058
858.259, 45.700
859.532, 67.342
860.804, 105.985
862.077, 32.629
863.349, 71.273
864.621, 41.919
865.893, 122.565
867.164, 103.212
868.436, 53.861
869.707, 64.510
870.978, 73.160
872.248, 85.812
873.519, 58.465
874.789, 66.119
876.060, 107.774
877.330, 75.430
878.599, 60.088
879.869, 106.622
881.138, 51.282
882.408, 127.925
883.677, 88.588
884.945, 79.186
886.214, 114.852
887.482, 101.520
888.751, 118.190
890.019, 135.861
891.287, 179.534
892.554, 211.208
893.822, 228.885
895.089, 308.562
896.356, 318.242
897.623, 342.924
898.889, 401.608
900.156, 441.293
901.422, 413.981
902.688, 452.670
903.954, 420.362
905.220, 496.055
906.485, 490.751
907.750, 469.448
909.015, 478.148
910.280, 507.850
911.545, 592.554
912.809, 648.260
914.074, 658.969
915.338, 814.680
916.602, 783.393
917.865, 805.108
919.129, 873.826
920.392, 846.546
921.655, 864.269
922.918, 831.994
924.181, 742.721
925.443, 671.452
926.706, 580.106
927.968, 543.760
929.230, 445.497
930.491, 419.454
931.753, 358.868
933.014, 374.613
934.276, 362.106
935.536, 369.857
936.797, 456.275
938.058, 470.970
939.318, 596.243
940.578, 646.654
941.838, 796.418
943.098, 934.186
944.358, 1112.956
945.617, 1203.730
946.876, 1234.507
948.135, 1207.287
949.394, 1091.951
950.653, 970.437
951.911, 829.225
953.169, 683.684
954.427, 641.461
955.685, 572.800
956.943, 526.834
958.200, 483.490
959.458, 485.055
960.715, 538.865
961.971, 553.555
963.228, 675.280
964.485, 821.078
965.741, 962.168
966.997, 1229.854
968.253, 1590.894
969.508, 1957.728
970.764, 2496.566
972.019, 2587.266
973.274, 2450.110
974.529, 2051.605
975.784, 1586.458
977.039, 1360.313
978.293, 1037.172
979.547, 881.036
980.801, 750.902
982.055, 593.710
983.308, 565.571
984.562, 488.448
985.815, 442.330
987.068, 399.215
988.321, 381.371
989.573, 398.998
990.826, 392.894
992.078, 382.795
993.330, 424.699
994.582, 425.702
995.833, 373.519
997.085, 464.435
998.336, 492.355
999.587, 508.279
1000.838, 648.208
1002.088, 670.147
1003.339, 852.090
1004.589, 1075.037
1005.839, 1329.990
1007.089, 1446.949
1008.339, 1354.911
1009.588, 1061.878
1010.838, 804.849
1012.087, 523.823
1013.336, 417.804
1014.584, 310.801
1015.833, 299.800
1017.081, 298.807
1018.330, 247.821
1019.577, 243.842
1020.825, 221.868
1022.073, 261.899
1023.320, 231.934
1024.567, 237.973
1025.814, 244.016
1027.061, 213.064
1028.308, 216.115
1029.554, 173.171
1030.800, 169.231
1032.046, 165.294
1033.292, 94.362
1034.538, 108.434
1035.783, 101.511
1037.029, 123.592
1038.274, 125.676
1039.519, 167.766
1040.763, 77.863
1042.008, 132.964
1043.252, 88.070
1044.496, 59.181
1045.740, 54.295
1046.984, 49.417
1048.228, 52.543
1049.471, 78.678
1050.714, 32.820
1051.957, 107.966
1053.200, 45.117
1054.442, 52.271
1055.685, 79.429
1056.927, 8.591
1058.169, 45.756
1059.411, 49.926
1060.652, 101.101
1061.894, 95.281
1063.135, 71.465
1064.376, 105.655
1065.617, 96.853
1066.858, 108.059
1068.098, 120.083
1069.339, 122.935
1070.579, 127.699
1071.819, 137.922
1073.058, 125.149
1074.298, 125.383
1075.537, 146.622
1076.776, 176.864
1078.015, 211.110
1079.254, 208.530
1080.493, 194.782
1081.731, 213.038
1082.969, 168.297
1084.207, 236.560
1085.445, 203.828
1086.683, 244.100
1087.920, 246.377
1089.157, 281.657
1090.394, 319.943
1091.631, 433.236
1092.868, 410.534
1094.105, 521.840
1095.341, 551.149
1096.577, 657.462
1097.813, 752.780
1099.049, 858.101
1100.284, 982.428
1101.519, 1048.835
1102.755, 1137.173
1103.990, 1261.514
1105.224, 1237.857
1106.459, 1246.204
1107.693, 1248.554
1108.928, 1120.908
1110.162, 993.266
1111.395, 932.626
1112.629, 784.989
1113.863, 749.355
1115.096, 626.724
1116.329, 555.096
1117.562, 525.471
1118.795, 453.848
1120.027, 440.229
1121.259, 458.611
1122.492, 336.996
1123.723, 352.383
1124.955, 288.773
1126.187, 263.165
1127.418, 241.560
1128.649, 179.966
1129.880, 191.365
1131.111, 151.766
1132.342, 113.323
1133.572, 142.728
1134.802, 142.699
1136.033, 126.123
1137.262, 113.533
1138.492, 96.399
1139.722, 93.161
1140.951, 63.580
1142.180, 56.009
1143.409, 58.436
1144.638, 39.861
1145.866, 26.783
1147.095, 0.052
1148.323, 23.691
1149.551, 39.841
1150.779, 21.956
1152.006, 4.104
1153.234, 27.555
1154.461, 25.283
1155.688, 45.727
1156.915, 36.164
1158.141, 16.750
1159.368, 52.216
1160.594, 92.655
1161.820, 97.151
1163.046, 94.612
1164.272, 61.052
1165.498, 64.551
1166.723, 125.041
1167.948, 97.667
1169.173, 141.167
1170.398, 178.610
1171.623, 186.328
1172.847, 201.193
1174.071, 205.860
1175.295, 184.786
1176.519, 162.230
1177.743, 123.673
1178.966, 132.785
1180.190, 145.432
1181.413, 58.940
1182.636, 137.153
1183.858, 129.595
1185.081, 37.172
1186.303, 84.614
1187.526, 38.055
1188.748, 81.557
1189.969, 115.997
1191.191, 73.437
1192.412, 32.460
1193.634, 31.898
1194.855, 19.336
1196.076, 60.315
1197.296, 55.202
1198.517, 48.772
1199.737, 17.226
1200.957, 42.658
1202.177, 33.134
1203.397, 23.564
1204.617, 54.034
1205.836, 28.608
1207.055, 45.044
1208.274, 64.469
1209.493, 20.895
1210.712, 8.683
1211.930, 53.735
1213.148, 11.152
1214.367, 72.567
1215.584, 69.034
1216.802, 70.471
1218.020, 47.985
1219.237, 53.412
1220.454, 17.819
1221.671, 11.343
1222.888, 23.746
1224.105, 12.206
1225.321, 52.624
1226.537, 9.020
1227.753, 21.414
1228.969, 42.005
1230.185, 13.395
1231.400, 75.783
1232.616, 1.832
1233.831, 15.550
1235.046, 50.929
1236.261, 57.306
1237.475, 19.682
1238.689, 83.054
1239.904, 9.446
1241.118, 53.813
1242.332, 51.266
1243.545, 42.710
1244.759, 30.123
1245.972, 20.479
1247.185, 42.879
1248.398, 33.247
1249.611, 30.690
1250.823, 46.039
1252.036, 44.387
1253.248, 63.734
1254.460, 70.078
1255.671, 48.421
1256.883, 77.754
1258.095, 99.086
1259.306, 11.412
1260.517, 73.736
1261.728, 50.058
1262.938, 1.629
1264.149, 81.730
1265.359, 61.980
1266.569, 12.298
1267.779, 23.573
1268.989, 2.154
1270.199, 20.885
1271.408, 47.924
1272.617, 15.412
1273.826, 16.772
1275.035, 25.024
1276.244, 14.731
1277.452, 29.494
1278.661, 45.276
1279.869, 24.067
1281.077, 22.406
1282.285, 23.679
1283.492, 15.505
1284.700, 5.315
1285.907, 17.856
1287.114, 31.021
1288.321, 1.177
1289.527, 14.329
1290.734, 22.577
1291.940, 8.720
1293.146, 16.586
1294.352, 21.994
1295.558, 9.125
1296.763, 11.252
1297.969, 0.373
1299.174, 9.490
1300.379, 48.601
1301.584, 3.293
1302.788, 19.192
1303.993, 22.900
1305.197, 12.012
1306.401, 61.070
1307.605, 35.146
1308.809, 19.781
1310.013, 0.283
1311.216, 36.660
1312.419, 23.940
1313.622, 38.425
1314.825, 4.458
1316.028, 34.485
1317.230, 43.507
1318.432, 11.525
1319.634, 57.537
1320.836, 81.543
1322.038, 15.456
1323.240, 55.538
1324.441, 58.521
1325.642, 13.505
1326.843, 9.540
1328.044, 5.419
1329.245, 21.372
1330.445, 37.320
1331.645, 16.262
1332.845, 68.200
1334.045, 17.132
1335.245, 5.058
1336.445, 23.979
1337.644, 62.895
1338.843, 25.805
1340.042, 45.710
1341.241, 36.440
1342.440, 27.340
1343.638, 28.225
1344.836, 15.110
1346.034, 20.989
1347.232, 8.931
1348.430, 22.800
1349.628, 35.663
1350.825, 7.521
1352.022, 39.373
1353.219, 14.221
1354.416, 23.063
1355.613, 41.901
1356.809, 75.735
1358.005, 2.563
1359.202, 71.386
1360.398, 29.205
1361.593, 32.019
1362.789, 34.750
1363.984, 45.553
1365.179, 44.557
1366.374, 46.364
1367.569, 56.152
1368.764, 22.936
1369.958, 34.716
1371.153, 11.489
1372.347, 12.152
1373.541, 15.953
1374.735, 31.656
1375.928, 17.338
1377.122, 62.453
1378.315, 9.563
1379.508, 77.667
1380.701, 68.765
1381.893, 84.857
1383.086, 43.933
1384.278, 59.850
1385.470, 78.234
1386.662, 52.270
1387.854, 60.316
1389.046, 41.449
1390.237, 35.461
1391.428, 43.952
1392.619, 12.722
1393.810, 52.055
1395.001, 62.625
1396.191, 34.540
1397.382, 40.246
1398.572, 26.086
1399.762, 14.037
1400.952, 0.274
1402.141, 7.310
1403.331, 32.839
1404.520, 73.875
1405.709, 30.097
1406.898, 71.052
1408.087, 22.179
1409.275, 58.929
1410.464, 105.516
1411.652, 56.193
1412.840, 32.947
1414.028, 26.860
1415.215, 73.804
1416.403, 23.655
1417.590, 74.314
1418.777, 3.928
1419.964, 36.315
1421.151, 28.958
1422.338, 30.605
1423.524, 23.251
1424.710, 126.802
1425.896, 49.217
1427.082, 101.801
1428.268, 97.203
1429.453, 19.662
1430.639, 129.245
1431.824, 77.464
1433.009, 61.022
1434.194, 155.573
1435.378, 104.110
1436.563, 91.596
1437.747, 128.942
1438.931, 81.177
1440.115, 80.571
1441.299, 92.814
1442.482, 133.251
1443.666, 124.660
1444.849, 148.062
1446.032, 94.462
1447.215, 200.845
1448.397, 132.121
1449.580, 141.572
1450.762, 161.007
1451.944, 101.073
1453.126, 148.604
1454.308, 144.950
1455.490, 143.307
1456.671, 188.709
1457.852, 131.109
1459.033, 111.503
1460.214, 153.922
1461.395, 93.037
1462.575, 119.439
1463.756, 132.825
1464.936, 132.201
1466.116, 134.568
1467.296, 92.927
1468.475, 57.282
1469.655, 80.623
1470.834, 104.954
1472.013, 47.285
1473.192, 62.616
1474.371, 0.938
1475.550, 78.254
1476.728, 19.565
1477.906, 59.895
1479.084, 10.295
1480.262, 71.697
1481.440, 57.097
1482.617, 37.502
1483.795, 44.916
1484.972, 76.332
1486.149, 79.754
1487.326, 41.185
1488.502, 31.629
1489.679, 19.455
1490.855, 8.505
1492.031, 5.690
1493.207, 5.741
1494.383, 43.170
1495.559, 48.593
1496.734, 53.057
1497.909, 1.631
1499.084, 20.391
1500.259, 7.334
1501.434, 10.260
1502.608, 0.000
##END=



