##NAMES=Danburite
##RRUFFID=R040013
##IDEAL CHEMISTRY=CaB_2_Si_2_O_8_
##LOCALITY=Charcas, San Luis Potosi, Mexico
##OWNER=RRUFF
##SOURCE=Marcus Origlieri
##DESCRIPTION=Colorless prismatic single crystal
##STATUS=The identification of this mineral has been confirmed by X-ray diffraction and chemical analysis
##URL=rruff.info/R040013
##MEASURED CHEMISTRY=Ca_1.00_B_2.00_Si_2.00_O_8_
##PIN_ID=M00009
##ORIENTATION=Laser parallel to b* (0 1 0). Fiducial mark perpendicular to laser is parallel to -c [0 0 -1]
97.673, 0.000
99.067, 34.484
100.461, 335.040
101.854, 262.005
103.247, 351.584
104.640, 574.199
106.032, 446.329
107.425, 763.481
108.817, 778.835
110.209, 1641.965
111.601, 4260.045
112.992, 4976.373
114.384, 3094.664
115.775, 1854.533
117.166, 1516.309
118.556, 1334.256
119.947, 1882.545
121.337, 2901.063
122.727, 4034.246
124.116, 4013.123
125.506, 2557.442
126.895, 1570.154
128.284, 816.742
129.673, 587.469
131.062, 393.281
132.450, 334.183
133.838, 342.196
135.226, 152.321
136.614, 278.549
138.001, 57.870
139.388, 175.274
140.775, 66.755
142.162, 57.322
143.549, 54.964
144.935, 46.345
146.321, 72.382
147.707, 92.861
149.093, 57.917
150.478, 89.292
151.863, 47.495
153.248, 12.693
154.633, 73.886
156.018, 9.075
157.402, 124.267
158.786, 63.539
160.170, 221.339
161.554, 371.133
162.937, 1088.919
164.320, 952.993
165.703, 1828.740
167.086, 934.929
168.469, 490.336
169.851, 249.857
171.233, 225.451
172.615, 431.035
173.996, 664.619
175.378, 1312.212
176.759, 2335.811
178.140, 4472.416
179.521, 8024.013
180.901, 10785.600
182.281, 10237.170
183.662, 6343.840
185.041, 3324.505
186.421, 1896.881
187.800, 1615.480
189.180, 2259.158
190.558, 3686.549
191.937, 5141.912
193.316, 4493.244
194.694, 2734.549
196.072, 1222.815
197.450, 566.024
198.827, 331.171
200.205, 200.247
201.582, 335.259
202.959, 468.199
204.336, 802.119
205.712, 1256.020
207.088, 2271.901
208.465, 3937.764
209.840, 4956.606
211.216, 4455.678
212.591, 2670.477
213.967, 1428.257
215.341, 719.016
216.716, 483.755
218.091, 355.473
219.465, 402.169
220.839, 757.845
222.213, 1205.500
223.586, 2700.134
224.960, 4528.749
226.333, 4803.349
227.706, 3317.932
229.079, 1643.752
230.451, 1041.996
231.823, 679.544
233.195, 826.122
234.567, 1043.548
235.939, 1448.788
237.310, 2310.263
238.682, 3625.583
240.052, 5992.152
241.423, 9729.801
242.794, 15073.173
244.164, 18056.189
245.534, 15696.520
246.904, 10717.944
248.274, 6407.578
249.643, 3836.413
251.012, 2426.013
252.381, 1671.174
253.750, 1266.712
255.118, 885.565
256.487, 799.308
257.855, 513.777
259.223, 491.167
260.590, 329.358
261.958, 294.722
263.325, 319.824
264.692, 237.865
266.059, 308.865
267.425, 133.830
268.791, 176.762
270.158, 151.615
271.523, 133.369
272.889, 189.033
274.255, 49.617
275.620, 184.114
276.985, 134.524
278.350, 119.926
279.714, 183.321
281.078, 203.709
282.443, 275.088
283.806, 312.459
285.170, 539.821
286.534, 728.168
287.897, 1168.510
289.260, 1810.840
290.623, 2701.151
291.985, 4040.439
293.348, 5339.155
294.710, 5689.437
296.072, 4664.047
297.433, 3098.294
298.795, 1920.962
300.156, 1129.589
301.517, 831.011
302.878, 589.997
304.239, 534.476
305.599, 583.262
306.959, 671.425
308.319, 911.575
309.679, 1101.711
311.038, 1289.833
312.398, 1218.941
313.757, 899.034
315.116, 633.112
316.474, 312.172
317.833, 289.214
319.191, 200.238
320.549, 173.244
321.907, 146.231
323.264, 132.199
324.622, 248.148
325.979, 310.078
327.336, 626.989
328.692, 795.881
330.049, 795.755
331.405, 668.608
332.761, 308.442
334.117, 325.253
335.473, 174.044
336.828, 274.815
338.183, 320.568
339.538, 343.302
340.893, 666.017
342.247, 1045.713
343.602, 1725.391
344.956, 2681.050
346.310, 3466.692
347.663, 3339.491
349.017, 2332.097
350.370, 1475.019
351.723, 785.936
353.076, 516.508
354.428, 333.363
355.780, 174.193
357.133, 78.245
358.484, 12.678
359.836, 13.927
361.188, 6.195
362.539, 29.311
363.890, 11.220
365.241, 112.748
366.591, 32.692
367.942, 84.342
369.292, 44.838
370.642, 57.258
371.992, 109.787
373.341, 50.612
374.691, 132.109
376.040, 0.012
377.388, 59.712
378.737, 78.337
380.086, 4.625
381.434, 68.216
382.782, 49.726
384.130, 61.407
385.477, 52.574
386.825, 2.591
388.172, 17.930
389.519, 151.711
390.865, 98.894
392.212, 94.548
393.558, 89.422
394.904, 65.048
396.250, 122.739
397.596, 32.780
398.941, 136.448
400.286, 64.098
401.631, 82.029
402.976, 134.513
404.321, 143.171
405.665, 177.481
407.009, 125.961
408.353, 171.247
409.697, 283.501
411.040, 252.960
412.384, 354.173
413.727, 360.305
415.070, 489.483
416.412, 700.641
417.755, 981.709
419.097, 1297.836
420.439, 1717.427
421.781, 2262.529
423.122, 2505.526
424.464, 2457.440
425.805, 2039.497
427.146, 1432.546
428.486, 984.582
429.827, 566.599
431.167, 551.606
432.507, 440.595
433.847, 542.573
435.187, 789.532
436.526, 1130.477
437.865, 1849.407
439.204, 2497.325
440.543, 2761.228
441.882, 2395.122
443.220, 1595.997
444.558, 1075.866
445.896, 732.720
447.234, 506.560
448.572, 384.389
449.909, 250.201
451.246, 358.015
452.583, 280.808
453.919, 543.581
455.256, 831.333
456.592, 1429.065
457.928, 2004.780
459.264, 1936.473
460.600, 1313.147
461.935, 684.800
463.270, 419.432
464.605, 355.042
465.940, 227.632
467.274, 361.145
468.609, 271.568
469.943, 363.101
471.277, 496.614
472.610, 600.105
473.944, 1133.576
475.277, 1716.027
476.610, 3084.457
477.943, 4409.866
479.275, 4924.255
480.608, 4104.623
481.940, 2551.970
483.272, 1512.297
484.604, 925.603
485.935, 603.888
487.267, 431.153
488.598, 246.398
489.929, 281.621
491.260, 126.824
492.590, 231.006
493.920, 92.166
495.250, 89.303
496.580, 159.416
497.910, 94.508
499.239, 95.577
500.569, 56.623
501.898, 36.216
503.226, 128.640
504.555, 64.602
505.883, 138.127
507.212, 48.243
508.540, 32.088
509.867, 131.056
511.195, 30.125
512.522, 102.702
513.849, 78.174
515.176, 93.333
516.503, 192.247
517.829, 67.517
519.156, 168.868
520.482, 88.271
521.808, 61.264
523.133, 147.802
524.459, 81.246
525.784, 111.980
527.109, 115.943
528.434, 78.799
529.758, 100.751
531.083, 128.938
532.407, 122.753
533.731, 15.157
535.055, 108.294
536.378, 55.393
537.701, 12.551
539.025, 82.363
540.348, 15.528
541.670, 74.120
542.993, 72.566
544.315, 17.437
545.637, 95.782
546.959, 53.181
548.281, 146.330
549.602, 81.608
550.923, 117.775
552.244, 179.950
553.565, 73.635
554.886, 197.102
556.206, 216.913
557.526, 240.565
558.846, 393.011
560.166, 400.462
561.486, 547.847
562.805, 428.658
564.124, 367.268
565.443, 393.745
566.762, 354.251
568.080, 528.556
569.399, 478.495
570.717, 585.837
572.035, 556.121
573.352, 384.386
574.670, 481.592
575.987, 395.851
577.304, 465.917
578.621, 495.125
579.938, 479.296
581.254, 605.194
582.570, 573.176
583.886, 706.054
585.202, 792.134
586.518, 827.171
587.833, 938.987
589.148, 986.895
590.463, 1180.679
591.778, 1215.447
593.093, 1335.427
594.407, 1630.162
595.721, 1817.060
597.035, 2326.762
598.349, 2757.537
599.662, 3407.976
600.976, 4480.631
602.289, 5817.381
603.602, 8297.004
604.914, 11822.611
606.227, 16838.205
607.539, 22373.779
608.851, 25310.270
610.163, 24345.814
611.475, 19231.342
612.786, 14497.071
614.097, 10612.570
615.408, 7508.053
616.719, 6030.521
618.030, 4790.974
619.340, 4116.477
620.651, 3887.899
621.961, 3843.307
623.270, 4567.700
624.580, 5244.079
625.889, 6431.442
627.199, 6566.791
628.507, 5616.124
629.816, 4609.444
631.125, 3398.750
632.433, 2602.041
633.741, 2135.141
635.049, 1644.403
636.357, 1628.317
637.664, 1297.205
638.972, 1234.407
640.279, 1216.294
641.586, 1128.175
642.893, 1290.861
644.199, 1099.373
645.505, 1173.384
646.811, 1128.092
648.117, 847.139
649.423, 1046.754
650.728, 789.216
652.034, 918.238
653.339, 787.703
654.644, 608.602
655.948, 734.392
657.253, 435.263
658.557, 483.398
659.861, 378.176
661.165, 355.319
662.468, 429.247
663.772, 208.028
665.075, 349.170
666.378, 232.057
667.681, 215.098
668.983, 421.152
670.286, 242.044
671.588, 421.032
672.890, 350.150
674.192, 343.243
675.493, 363.754
676.795, 136.763
678.096, 166.520
679.397, 134.489
680.697, 76.358
681.998, 97.863
683.298, 19.682
684.598, 66.484
685.898, 0.031
687.198, 13.862
688.498, 71.547
689.797, 24.455
691.096, 42.334
692.395, 65.716
693.694, 1.776
694.992, 13.923
696.290, 52.165
697.589, 3.277
698.886, 6.596
700.184, 82.543
701.482, 11.286
702.779, 56.896
704.076, 49.104
705.373, 1.335
706.669, 46.580
707.966, 38.848
709.262, 110.137
710.558, 42.461
711.854, 2.192
713.150, 84.166
714.445, 8.446
715.740, 85.953
717.035, 29.618
718.330, 42.821
719.625, 42.280
720.919, 78.240
722.214, 36.247
723.508, 48.246
724.801, 1.732
726.095, 5.208
727.388, 81.674
728.682, 24.133
729.975, 142.583
731.267, 104.027
732.560, 44.537
733.852, 195.880
735.145, 4.291
736.437, 44.692
737.728, 22.087
739.020, 26.525
740.311, 83.848
741.603, 14.214
742.894, 43.574
744.184, 58.927
745.475, 39.275
746.765, 113.616
748.055, 36.048
749.345, 74.272
750.635, 112.587
751.925, 4.103
753.214, 137.199
754.503, 75.496
755.792, 71.788
757.081, 140.074
758.370, 12.356
759.658, 136.632
760.946, 124.905
762.234, 126.172
763.522, 212.435
764.809, 130.694
766.097, 229.949
767.384, 206.199
768.671, 292.446
769.958, 446.688
771.244, 405.928
772.530, 533.163
773.817, 435.396
775.102, 357.625
776.388, 394.853
777.674, 148.079
778.959, 190.302
780.244, 111.524
781.529, 68.744
782.814, 109.963
784.098, 10.183
785.383, 157.401
786.667, 43.620
787.951, 58.835
789.235, 163.051
790.518, 46.271
791.801, 140.490
793.084, 109.709
794.367, 69.928
795.650, 214.146
796.933, 50.364
798.215, 124.580
799.497, 159.794
800.779, 2.992
802.061, 159.220
803.342, 90.432
804.624, 118.642
805.905, 156.852
807.186, 54.060
808.466, 120.267
809.747, 85.475
811.027, 109.680
812.307, 158.885
813.587, 88.088
814.867, 181.294
816.146, 154.498
817.426, 193.703
818.705, 167.912
819.984, 0.879
821.263, 203.332
822.541, 195.285
823.819, 128.460
825.098, 289.226
826.375, 164.165
827.653, 311.377
828.931, 268.594
830.208, 202.677
831.485, 351.947
832.762, 193.710
834.039, 302.673
835.315, 248.279
836.592, 265.028
837.868, 297.969
839.144, 354.890
840.420, 389.863
841.695, 469.396
842.970, 361.118
844.246, 572.960
845.521, 548.758
846.795, 473.745
848.070, 633.083
849.344, 485.005
850.618, 624.973
851.892, 634.946
853.166, 622.966
854.440, 853.918
855.713, 679.052
856.986, 997.030
858.259, 1089.032
859.532, 1020.297
860.804, 1205.464
862.077, 1020.724
863.349, 1126.769
864.621, 1054.846
865.893, 881.131
867.164, 1116.313
868.436, 944.608
869.707, 997.907
870.978, 1060.983
872.248, 810.292
873.519, 929.427
874.789, 687.751
876.060, 804.993
877.330, 847.559
878.599, 596.900
879.869, 798.136
881.138, 681.491
882.408, 674.850
883.677, 891.215
884.945, 685.596
886.214, 821.051
887.482, 808.443
888.751, 797.844
890.019, 1104.038
891.287, 1021.456
892.554, 1377.881
893.822, 1497.312
895.089, 1598.757
896.356, 1857.145
897.623, 1852.605
898.889, 1801.073
900.156, 1778.548
901.422, 1419.032
902.688, 1541.523
903.954, 1362.021
905.220, 1149.526
906.485, 1244.038
907.750, 862.557
909.015, 913.083
910.280, 908.617
911.545, 715.158
912.809, 838.706
914.074, 567.261
915.338, 659.823
916.602, 614.393
917.865, 367.970
919.129, 550.558
920.392, 334.154
921.655, 237.760
922.918, 405.373
924.181, 209.994
925.443, 407.627
926.706, 328.889
927.968, 230.543
929.230, 413.207
930.491, 199.923
931.753, 315.606
933.014, 257.298
934.276, 248.999
935.536, 301.708
936.797, 196.424
938.058, 245.118
939.318, 307.851
940.578, 242.592
941.838, 415.354
943.098, 222.124
944.358, 266.902
945.617, 421.689
946.876, 241.483
948.135, 485.287
949.394, 456.099
950.653, 380.919
951.911, 547.749
953.169, 298.586
954.427, 469.432
955.685, 403.292
956.943, 314.142
958.200, 457.020
959.458, 332.909
960.715, 421.806
961.971, 540.715
963.228, 490.635
964.485, 688.564
965.741, 875.508
966.997, 1096.462
968.253, 1704.435
969.508, 2103.418
970.764, 3042.411
972.019, 3440.422
973.274, 3176.443
974.529, 2735.476
975.784, 1862.528
977.039, 1428.591
978.293, 1088.671
979.547, 837.768
980.801, 794.875
982.055, 602.999
983.308, 564.138
984.562, 615.300
985.815, 509.478
987.068, 690.667
988.321, 609.875
989.573, 596.093
990.826, 773.332
992.078, 658.580
993.330, 755.844
994.582, 935.123
995.833, 806.411
997.085, 1109.714
998.336, 1161.026
999.587, 1413.348
1000.838, 1392.951
1002.088, 1441.022
1003.339, 1224.373
1004.589, 820.733
1005.839, 512.102
1007.089, 523.486
1008.339, 313.879
1009.588, 299.124
1010.838, 247.536
1012.087, 154.957
1013.336, 343.793
1014.584, 131.237
1015.833, 163.825
1017.081, 399.286
1018.330, 292.756
1019.577, 527.118
1020.825, 546.605
1022.073, 407.105
1023.320, 621.048
1024.567, 421.565
1025.814, 458.094
1027.061, 452.630
1028.308, 233.173
1029.554, 430.255
1030.800, 295.814
1032.046, 224.970
1033.292, 352.546
1034.538, 232.130
1035.783, 362.234
1037.029, 521.834
1038.274, 581.442
1039.519, 650.179
1040.763, 712.680
1042.008, 616.311
1043.252, 463.949
1044.496, 229.595
1045.740, 269.249
1046.984, 252.910
1048.228, 112.578
1049.471, 229.254
1050.714, 29.937
1051.957, 99.627
1053.200, 269.963
1054.442, 17.667
1055.685, 152.842
1056.927, 104.562
1058.169, 20.288
1059.411, 103.991
1060.652, 56.270
1061.894, 148.504
1063.135, 81.477
1064.376, 5.770
1065.617, 161.763
1066.858, 29.529
1068.098, 3.301
1069.339, 236.361
1070.579, 24.146
1071.819, 288.936
1073.058, 237.789
1074.298, 164.597
1075.537, 409.037
1076.776, 328.860
1078.015, 481.689
1079.254, 546.524
1080.493, 518.370
1081.731, 714.222
1082.969, 670.183
1084.207, 612.050
1085.445, 782.924
1086.683, 635.804
1087.920, 664.689
1089.157, 749.953
1090.394, 622.862
1091.631, 911.776
1092.868, 795.695
1094.105, 887.629
1095.341, 1134.815
1096.577, 1119.762
1097.813, 1563.720
1099.049, 1535.969
1100.284, 1688.944
1101.519, 2096.925
1102.755, 2069.909
1103.990, 2411.912
1105.224, 2557.919
1106.459, 2431.930
1107.693, 2576.953
1108.928, 2274.979
1110.162, 2014.010
1111.395, 1993.044
1112.629, 1631.082
1113.863, 1456.123
1115.096, 1368.167
1116.329, 985.214
1117.562, 1050.265
1118.795, 863.318
1120.027, 748.375
1121.259, 892.435
1122.492, 672.498
1123.723, 662.562
1124.955, 540.629
1126.187, 371.699
1127.418, 604.771
1128.649, 347.846
1129.880, 369.923
1131.111, 459.002
1132.342, 239.083
1133.572, 341.167
1134.802, 229.253
1136.033, 106.341
1137.262, 273.438
1138.492, 124.536
1139.722, 112.636
1140.951, 107.742
1142.180, 48.150
1143.409, 120.951
1144.638, 30.052
1145.866, 27.844
1147.095, 120.256
1148.323, 10.643
1149.551, 40.458
1150.779, 108.559
1152.006, 90.339
1153.234, 60.746
1154.461, 53.832
1155.688, 27.082
1156.915, 75.001
1158.141, 50.916
1159.368, 46.158
1160.594, 94.232
1161.820, 72.693
1163.046, 121.367
1164.272, 31.573
1165.498, 16.481
1166.723, 164.536
1167.948, 27.410
1169.173, 82.638
1170.398, 271.687
1171.623, 54.734
1172.847, 213.781
1174.071, 221.828
1175.295, 110.875
1176.519, 185.919
1177.743, 50.964
1178.966, 99.007
1180.190, 125.049
1181.413, 59.090
1182.636, 166.130
1183.858, 72.168
1185.081, 28.795
1186.303, 187.233
1187.526, 20.739
1188.748, 38.281
1189.969, 144.300
1191.191, 41.683
1192.412, 153.323
1193.634, 44.292
1194.855, 9.302
1196.076, 115.685
1197.296, 32.377
1198.517, 29.597
1199.737, 78.569
1200.957, 10.464
1202.177, 109.499
1203.397, 18.461
1204.617, 0.426
1205.836, 148.242
1207.055, 109.806
1208.274, 92.981
1209.493, 77.903
1210.712, 8.821
1211.930, 181.837
1213.148, 155.750
1214.367, 0.659
1215.584, 193.765
1216.802, 103.665
1218.020, 99.756
1219.237, 219.650
1220.454, 52.459
1221.671, 129.309
1222.888, 64.178
1224.105, 28.051
1225.321, 220.072
1226.537, 1.069
1227.753, 110.403
1228.969, 236.494
1230.185, 1.663
1231.400, 238.018
1232.616, 268.064
1233.831, 132.892
1235.046, 350.618
1236.261, 236.437
1237.475, 320.252
1238.689, 431.744
1239.904, 221.550
1241.118, 352.354
1242.332, 308.152
1243.545, 147.948
1244.759, 256.740
1245.972, 307.526
1247.185, 288.311
1248.398, 438.091
1249.611, 257.869
1250.823, 315.643
1252.036, 299.415
1253.248, 143.183
1254.460, 384.948
1255.671, 315.709
1256.883, 170.468
1258.095, 307.223
1259.306, 177.974
1260.517, 257.721
1261.728, 369.465
1262.938, 184.205
1264.149, 518.941
1265.359, 368.890
1266.569, 420.618
1267.779, 652.729
1268.989, 493.450
1270.199, 456.167
1271.408, 723.778
1272.617, 386.488
1273.826, 627.353
1275.035, 473.055
1276.244, 369.753
1277.452, 603.046
1278.661, 234.737
1279.869, 335.288
1281.077, 464.989
1282.285, 176.668
1283.492, 237.460
1284.700, 351.132
1285.907, 139.800
1287.114, 395.031
1288.321, 209.692
1289.527, 170.347
1290.734, 352.001
1291.940, 265.645
1293.146, 436.748
1294.352, 491.370
1295.558, 262.400
1296.763, 447.006
1297.969, 318.606
1299.174, 203.668
1300.379, 339.238
1301.584, 273.786
1302.788, 302.314
1303.993, 460.821
1305.197, 256.323
1306.401, 463.793
1307.605, 502.245
1308.809, 430.690
1310.013, 699.130
1311.216, 493.565
1312.419, 468.995
1313.622, 661.419
1314.825, 441.838
1316.028, 558.614
1317.230, 653.021
1318.432, 490.959
1319.634, 683.355
1320.836, 565.742
1322.038, 472.138
1323.240, 623.496
1324.441, 351.807
1325.642, 412.917
1326.843, 424.246
1328.044, 196.794
1329.245, 282.108
1330.445, 217.414
1331.645, 152.430
1332.845, 224.720
1334.045, 36.000
1335.245, 18.783
1336.445, 123.476
1337.644, 19.899
1338.843, 68.339
1340.042, 189.570
1341.241, 30.204
1342.440, 174.010
1343.638, 56.219
1344.836, 34.682
1346.034, 106.510
1347.232, 10.696
1348.430, 52.875
1349.628, 120.049
1350.825, 108.155
1352.022, 87.998
1353.219, 32.146
1354.416, 76.708
1355.613, 135.426
1356.809, 10.688
1358.005, 37.560
1359.202, 92.562
1360.398, 63.603
1361.593, 7.513
1362.789, 83.630
1363.984, 109.249
1365.179, 116.865
1366.374, 38.986
1367.569, 56.883
1368.764, 110.252
1369.958, 79.540
1371.153, 96.811
1372.347, 224.005
1373.541, 45.142
1374.735, 108.224
1375.928, 200.669
1377.122, 34.107
1378.315, 260.539
1379.508, 233.962
1380.701, 93.378
1381.893, 195.788
1383.086, 135.189
1384.278, 159.583
1385.470, 242.966
1386.662, 101.327
1387.854, 178.674
1389.046, 213.013
1390.237, 187.348
1391.428, 201.680
1392.619, 143.004
1393.810, 7.332
1395.001, 156.662
1396.191, 44.012
1397.382, 100.319
1398.572, 100.651
1399.762, 23.011
1400.952, 91.324
1402.141, 130.659
1403.331, 63.988
1404.520, 122.312
1405.709, 51.632
1406.898, 114.947
1408.087, 113.259
1409.275, 30.567
1410.464, 115.881
1411.652, 160.200
1412.840, 69.522
1414.028, 119.858
1415.215, 109.205
1416.403, 98.563
1417.590, 213.925
1418.777, 149.281
1419.964, 66.318
1421.151, 156.357
1422.338, 89.981
1423.524, 161.334
1424.710, 320.722
1425.896, 77.734
1427.082, 304.180
1428.268, 365.451
1429.453, 154.964
1430.639, 465.887
1431.824, 408.737
1433.009, 425.475
1434.194, 515.171
1435.378, 414.998
1436.563, 635.958
1437.747, 936.905
1438.931, 727.843
1440.115, 982.763
1441.299, 1136.661
1442.482, 1141.539
1443.666, 1377.394
1444.849, 1331.227
1446.032, 1265.036
1447.215, 1480.821
1448.397, 1445.071
1449.580, 1473.446
1450.762, 1774.062
1451.944, 1359.371
1453.126, 1711.858
1454.308, 1679.303
1455.490, 1433.701
1456.671, 1621.000
1457.852, 1516.294
1459.033, 1418.529
1460.214, 1521.699
1461.395, 1261.817
1462.575, 1201.950
1463.756, 1291.064
1464.936, 956.222
1466.116, 987.448
1467.296, 902.846
1468.475, 735.363
1469.655, 805.059
1470.834, 750.734
1472.013, 527.387
1473.192, 721.017
1474.371, 429.627
1475.550, 604.231
1476.728, 602.999
1477.906, 523.899
1479.084, 566.842
1480.262, 553.850
1481.440, 507.941
1482.617, 571.144
1483.795, 494.479
1484.972, 449.954
1486.149, 557.558
1487.326, 268.294
1488.502, 285.205
1489.679, 339.333
1490.855, 84.691
1492.031, 203.325
1493.207, 194.280
1494.383, 60.610
1495.559, 135.401
1496.734, 4.245
1497.909, 1.198
1499.084, 95.698
1500.259, 121.471
1501.434, 0.000
##END=



