##NAMES=Danburite
##RRUFFID=R040013
##IDEAL CHEMISTRY=CaB_2_Si_2_O_8_
##LOCALITY=Charcas, San Luis Potosi, Mexico
##OWNER=RRUFF
##SOURCE=Marcus Origlieri
##DESCRIPTION=Colorless prismatic single crystal
##STATUS=The identification of this mineral has been confirmed by X-ray diffraction and chemical analysis
##URL=rruff.info/R040013
##MEASURED CHEMISTRY=Ca_1.00_B_2.00_Si_2.00_O_8_
##PIN_ID=M00009
##ORIENTATION=Laser parallel to b* (0 1 0). Fiducial mark perpendicular to laser is parallel to -c [0 0 -1]
99.067, 0.000
100.461, 188.601
101.854, 201.340
103.247, 318.716
104.640, 519.448
106.032, 413.989
107.425, 698.629
108.817, 550.634
110.209, 1145.559
111.601, 1349.383
112.992, 1025.308
114.384, 959.040
115.775, 789.857
117.166, 1137.750
118.556, 1247.711
119.947, 1387.734
121.337, 1115.813
122.727, 975.964
124.116, 776.138
125.506, 499.898
126.895, 535.480
128.284, 339.168
129.673, 318.400
131.062, 235.744
132.450, 195.101
133.838, 205.469
135.226, 98.856
136.614, 232.272
138.001, 61.712
139.388, 167.171
140.775, 64.651
142.162, 39.149
143.549, 28.687
144.935, 13.343
146.321, 32.290
147.707, 47.709
149.093, 41.253
150.478, 15.177
151.863, 13.937
153.248, 122.914
154.633, 77.273
156.018, 58.506
157.402, 39.750
158.786, 47.668
160.170, 172.163
161.554, 204.587
162.937, 441.972
164.320, 605.332
165.703, 714.093
167.086, 512.421
168.469, 571.833
169.851, 634.441
171.233, 841.191
172.615, 1477.971
173.996, 2622.710
175.378, 4783.421
176.759, 8124.119
178.140, 14534.812
179.521, 23175.520
180.901, 26986.254
182.281, 22006.996
183.662, 12467.736
185.041, 6388.462
186.421, 3221.657
187.800, 1882.823
189.180, 1276.271
190.558, 1145.797
191.937, 1069.615
193.316, 856.235
194.694, 568.384
196.072, 329.673
197.450, 225.942
198.827, 193.181
200.205, 80.399
201.582, 216.586
202.959, 189.752
204.336, 335.904
205.712, 396.037
207.088, 565.148
208.465, 830.238
209.840, 966.306
211.216, 871.353
212.591, 523.377
213.967, 235.380
215.341, 66.361
216.716, 25.681
218.091, 73.744
219.465, 53.830
220.839, 2.060
222.213, 36.926
223.586, 275.768
224.960, 445.585
226.333, 460.378
227.706, 317.147
229.079, 83.892
230.451, 76.613
231.823, 5.357
233.195, 60.558
234.567, 80.616
235.939, 106.015
237.310, 335.555
238.682, 442.732
240.052, 952.966
241.423, 1580.359
242.794, 2707.264
244.164, 3294.848
245.534, 3031.538
246.904, 2262.112
248.274, 1418.859
249.643, 976.854
251.012, 586.031
252.381, 503.447
253.750, 419.819
255.118, 287.399
256.487, 349.963
257.855, 210.824
259.223, 250.364
260.590, 224.821
261.958, 150.237
263.325, 109.215
264.692, 115.632
266.059, 195.062
267.425, 137.774
268.791, 139.037
270.158, 154.944
271.523, 69.838
272.889, 51.697
274.255, 74.540
275.620, 49.333
276.985, 49.099
278.350, 36.215
279.714, 54.413
281.078, 12.699
282.443, 14.004
283.806, 64.329
285.170, 17.350
286.534, 61.804
287.897, 14.022
289.260, 105.613
290.623, 248.189
291.985, 415.750
293.348, 550.295
294.710, 582.822
296.072, 509.656
297.433, 335.148
298.795, 279.623
300.156, 252.963
301.517, 303.404
302.878, 452.411
304.239, 649.497
305.599, 1146.862
306.959, 1633.640
308.319, 2477.224
309.679, 3258.511
311.038, 3716.782
312.398, 3471.038
313.757, 2610.275
315.116, 1889.497
316.474, 1224.703
317.833, 909.891
319.191, 603.062
320.549, 493.214
321.907, 374.348
323.264, 326.464
324.622, 301.562
325.979, 251.643
327.336, 268.705
328.692, 266.870
330.049, 266.773
331.405, 333.779
332.761, 376.767
334.117, 466.733
335.473, 484.678
336.828, 680.601
338.183, 976.481
339.538, 1405.317
340.893, 2244.116
342.247, 3515.893
343.602, 5726.653
344.956, 8788.396
346.310, 10897.121
347.663, 10655.828
349.017, 7674.521
350.370, 4730.194
351.723, 2826.851
353.076, 1788.490
354.428, 1084.112
355.780, 674.718
357.133, 540.306
358.484, 338.877
359.836, 209.431
361.188, 176.968
362.539, 129.488
363.890, 117.195
365.241, 52.891
366.591, 33.893
367.942, 13.914
369.292, 10.197
370.642, 12.793
371.992, 32.413
373.341, 39.058
374.691, 104.729
376.040, 77.433
377.388, 61.167
378.737, 88.123
380.086, 23.920
381.434, 95.748
382.782, 24.562
384.130, 37.478
385.477, 11.548
386.825, 19.472
388.172, 54.460
389.519, 108.358
390.865, 124.229
392.212, 57.082
393.558, 85.917
394.904, 76.757
396.250, 61.744
397.596, 38.633
398.941, 48.500
400.286, 29.381
401.631, 33.388
402.976, 10.078
404.321, 20.255
405.665, 16.622
407.009, 15.020
408.353, 3.550
409.697, 49.095
411.040, 46.618
412.384, 18.124
413.727, 72.604
415.070, 169.063
416.412, 188.511
417.755, 289.839
419.097, 407.062
420.439, 539.376
421.781, 763.557
423.122, 804.724
424.464, 817.818
425.805, 593.179
427.146, 429.491
428.486, 263.750
429.827, 137.820
431.167, 98.660
432.507, 95.748
433.847, 150.501
435.187, 229.777
436.526, 412.042
437.865, 757.295
439.204, 931.532
440.543, 1006.755
441.882, 837.963
443.220, 528.159
444.558, 308.337
445.896, 157.496
447.234, 150.638
448.572, 22.769
449.909, 37.874
451.246, 48.959
452.583, 83.021
453.919, 168.064
455.256, 206.090
456.592, 314.097
457.928, 337.640
459.264, 347.058
460.600, 388.016
461.935, 379.955
463.270, 372.881
464.605, 400.789
465.940, 470.679
467.274, 625.551
468.609, 788.405
469.943, 1065.240
471.277, 1522.058
472.610, 2487.858
473.944, 4162.640
475.277, 7048.404
476.610, 11825.150
477.943, 17271.881
479.275, 18838.588
480.608, 15455.281
481.940, 9901.956
483.272, 5736.614
484.604, 3480.253
485.935, 2199.875
487.267, 1581.480
488.598, 1049.067
489.929, 913.638
491.260, 677.190
492.590, 527.726
493.920, 380.244
495.250, 344.745
496.580, 360.229
497.910, 230.695
499.239, 234.145
500.569, 175.577
501.898, 201.992
503.226, 185.390
504.555, 155.771
505.883, 209.135
507.212, 146.438
508.540, 111.672
509.867, 210.602
511.195, 91.365
512.522, 223.877
513.849, 145.877
515.176, 154.796
516.503, 217.239
517.829, 147.507
519.156, 153.228
520.482, 169.564
521.808, 145.260
523.133, 190.311
524.459, 136.836
525.784, 109.673
527.109, 189.147
528.434, 130.303
529.758, 134.539
531.083, 141.080
532.407, 154.726
533.731, 149.509
535.055, 175.547
536.378, 130.159
537.701, 112.092
539.025, 75.826
540.348, 93.179
541.670, 92.705
542.993, 84.499
544.315, 52.010
545.637, 170.049
546.959, 135.022
548.281, 249.406
549.602, 176.276
550.923, 274.768
552.244, 318.845
553.565, 320.445
554.886, 394.236
556.206, 436.285
557.526, 684.222
558.846, 897.819
560.166, 1231.789
561.486, 1427.994
562.805, 1202.748
564.124, 900.889
565.443, 663.836
566.762, 462.892
568.080, 467.917
569.399, 446.107
570.717, 487.598
572.035, 540.900
573.352, 536.074
574.670, 531.617
575.987, 570.473
577.304, 595.407
578.621, 623.542
579.938, 710.274
581.254, 954.590
582.570, 903.991
583.886, 1086.799
585.202, 1219.495
586.518, 1316.094
587.833, 1518.614
589.148, 1570.300
590.463, 1817.792
591.778, 2048.591
593.093, 2261.516
594.407, 2731.526
595.721, 3168.127
597.035, 3927.550
598.349, 4777.958
599.662, 6054.453
600.976, 7919.835
602.289, 10576.196
603.602, 14801.551
604.914, 20997.748
606.227, 29883.076
607.539, 38978.391
608.851, 44003.766
610.163, 41739.047
611.475, 33514.324
612.786, 25279.643
614.097, 18384.889
615.408, 12930.158
616.719, 10225.377
618.030, 8040.584
619.340, 6585.778
620.651, 5990.959
621.961, 5736.128
623.270, 6271.283
624.580, 6636.426
625.889, 7541.555
627.199, 7556.672
628.507, 6541.777
629.816, 5419.869
631.125, 4066.948
632.433, 3295.016
633.741, 2704.070
635.049, 2197.113
636.357, 2150.143
637.664, 1806.162
638.972, 1812.167
640.279, 1652.162
641.586, 1715.144
642.893, 1869.114
644.199, 1630.072
645.505, 1766.019
646.811, 1704.953
648.117, 1536.876
649.423, 1635.788
650.728, 1403.559
652.034, 1428.450
653.339, 1264.109
654.644, 1058.983
655.948, 1117.854
657.253, 780.718
658.557, 659.581
659.861, 616.441
661.165, 494.308
662.468, 486.177
663.772, 359.046
665.075, 386.920
666.378, 266.791
667.681, 267.607
668.983, 280.480
670.286, 180.352
671.588, 263.217
672.890, 201.079
674.192, 173.934
675.493, 174.777
676.795, 94.611
678.096, 41.438
679.397, 71.230
680.697, 9.153
681.998, 56.528
683.298, 16.200
684.598, 32.824
685.898, 8.710
687.198, 18.962
688.498, 65.770
689.797, 1.500
691.096, 61.223
692.395, 32.059
693.694, 26.644
694.992, 41.664
696.290, 70.008
697.589, 0.326
698.886, 57.673
700.184, 29.953
701.482, 0.568
702.779, 66.831
704.076, 41.258
705.373, 76.708
706.669, 82.188
707.966, 81.700
709.262, 46.243
710.558, 16.809
711.854, 52.392
713.150, 28.999
714.445, 49.625
715.740, 44.274
717.035, 39.040
718.330, 48.636
719.625, 38.351
720.919, 9.086
722.214, 19.835
723.508, 8.399
724.801, 34.377
726.095, 45.828
727.388, 94.023
728.682, 19.211
729.975, 194.391
731.267, 104.562
732.560, 90.730
733.852, 139.894
735.145, 6.949
736.437, 105.199
737.728, 70.339
739.020, 29.472
740.311, 144.598
741.603, 32.283
742.894, 79.819
744.184, 27.085
745.475, 74.996
746.765, 170.070
748.055, 29.139
749.345, 108.200
750.635, 128.255
751.925, 29.305
753.214, 156.348
754.503, 33.386
755.792, 45.418
757.081, 72.445
758.370, 93.466
759.658, 174.481
760.946, 138.493
762.234, 174.499
763.522, 203.499
764.809, 170.496
766.097, 288.487
767.384, 243.473
768.671, 276.456
769.958, 428.434
771.244, 370.407
772.530, 616.376
773.817, 386.340
775.102, 400.301
776.388, 380.258
777.674, 147.211
778.959, 266.160
780.244, 159.105
781.529, 142.047
782.814, 142.985
784.098, 65.920
785.383, 168.852
786.667, 213.779
787.951, 153.705
789.235, 202.627
790.518, 110.549
791.801, 288.469
793.084, 235.388
794.367, 175.308
795.650, 283.225
796.933, 124.139
798.215, 293.051
799.497, 230.960
800.779, 150.867
802.061, 235.771
803.342, 103.673
804.624, 204.573
805.905, 210.470
807.186, 161.365
808.466, 224.257
809.747, 87.147
811.027, 171.035
812.307, 224.922
813.587, 142.806
814.867, 205.687
816.146, 151.567
817.426, 277.244
818.705, 352.060
819.984, 190.167
821.263, 295.919
822.541, 273.476
823.819, 266.121
825.098, 309.258
826.375, 274.161
827.653, 319.762
828.931, 356.353
830.208, 350.140
831.485, 357.755
832.762, 291.387
834.039, 406.788
835.315, 315.626
836.592, 367.000
837.868, 500.046
839.144, 458.706
840.420, 539.117
841.695, 644.968
842.970, 577.419
844.246, 682.053
845.521, 540.566
846.795, 694.099
848.070, 890.463
849.344, 715.522
850.618, 803.761
851.892, 814.553
853.166, 869.875
854.440, 1119.331
855.713, 941.917
856.986, 1219.291
858.259, 1294.915
859.532, 1276.229
860.804, 1460.305
862.077, 1293.961
863.349, 1278.721
864.621, 1171.566
865.893, 898.479
867.164, 952.215
868.436, 744.135
869.707, 873.060
870.978, 851.990
872.248, 604.924
873.519, 828.417
874.789, 572.367
876.060, 738.322
877.330, 662.182
878.599, 649.155
879.869, 785.138
881.138, 536.130
882.408, 646.269
883.677, 751.270
884.945, 500.286
886.214, 644.233
887.482, 656.260
888.751, 602.298
890.019, 740.281
891.287, 729.336
892.554, 852.364
893.822, 865.430
895.089, 859.503
896.356, 1078.582
897.623, 949.667
898.889, 974.757
900.156, 1037.853
901.422, 848.958
902.688, 930.068
903.954, 805.186
905.220, 826.308
906.485, 793.437
907.750, 736.571
909.015, 778.713
910.280, 745.861
911.545, 764.016
912.809, 862.177
914.074, 588.343
915.338, 702.517
916.602, 523.696
917.865, 471.882
919.129, 545.075
920.392, 321.283
921.655, 296.488
922.918, 341.700
924.181, 217.025
925.443, 400.251
926.706, 316.940
927.968, 303.180
929.230, 331.543
930.491, 244.574
931.753, 385.834
933.014, 295.102
934.276, 289.376
935.536, 370.657
936.797, 311.945
938.058, 374.240
939.318, 410.550
940.578, 357.867
941.838, 586.196
943.098, 478.532
944.358, 598.875
945.617, 742.232
946.876, 733.596
948.135, 896.967
949.394, 812.346
950.653, 747.732
951.911, 817.125
953.169, 487.526
954.427, 666.936
955.685, 558.360
956.943, 347.794
958.200, 505.238
959.458, 335.690
960.715, 399.152
961.971, 376.625
963.228, 344.109
964.485, 582.603
965.741, 430.112
966.997, 467.629
968.253, 711.161
969.508, 759.702
970.764, 1073.258
972.019, 1079.822
973.274, 963.397
974.529, 1038.989
975.784, 502.590
977.039, 510.202
978.293, 294.832
979.547, 181.478
980.801, 310.141
982.055, 290.825
983.308, 347.527
984.562, 346.246
985.815, 308.977
987.068, 404.724
988.321, 319.484
989.573, 353.262
990.826, 398.053
992.078, 375.859
993.330, 416.682
994.582, 440.518
995.833, 444.366
997.085, 771.226
998.336, 893.096
999.587, 1350.979
1000.838, 1298.813
1002.088, 1555.771
1003.339, 1178.680
1004.589, 773.597
1005.839, 501.756
1007.089, 399.690
1008.339, 112.631
1009.588, 264.205
1010.838, 192.165
1012.087, 102.365
1013.336, 329.989
1014.584, 119.973
1015.833, 207.907
1017.081, 461.911
1018.330, 401.928
1019.577, 642.939
1020.825, 593.971
1022.073, 515.010
1023.320, 624.397
1024.567, 476.451
1025.814, 497.957
1027.061, 483.026
1028.308, 325.102
1029.554, 383.404
1030.800, 268.494
1032.046, 176.591
1033.292, 290.694
1034.538, 180.805
1035.783, 252.574
1037.029, 261.698
1038.274, 262.829
1039.519, 290.224
1040.763, 291.111
1042.008, 247.262
1043.252, 273.629
1044.496, 135.793
1045.740, 169.964
1046.984, 228.141
1048.228, 123.325
1049.471, 194.514
1050.714, 115.710
1051.957, 128.913
1053.200, 166.121
1054.442, 2.336
1055.685, 186.557
1056.927, 19.783
1058.169, 12.984
1059.411, 110.253
1060.652, 41.503
1061.894, 81.742
1063.135, 14.008
1064.376, 59.753
1065.617, 157.656
1066.858, 10.914
1068.098, 78.178
1069.339, 185.448
1070.579, 63.723
1071.819, 358.003
1073.058, 248.845
1074.298, 232.139
1075.537, 425.439
1076.776, 358.744
1078.015, 532.054
1079.254, 635.657
1080.493, 524.987
1081.731, 814.322
1082.969, 805.662
1084.207, 750.007
1085.445, 883.356
1086.683, 633.710
1087.920, 757.072
1089.157, 819.715
1090.394, 715.092
1091.631, 835.474
1092.868, 850.860
1094.105, 932.261
1095.341, 1088.667
1096.577, 1137.083
1097.813, 1403.517
1099.049, 1551.987
1100.284, 1574.441
1101.519, 2026.899
1102.755, 1984.360
1103.990, 2264.840
1105.224, 2301.322
1106.459, 2311.809
1107.693, 2379.304
1108.928, 2073.803
1110.162, 1942.304
1111.395, 1799.809
1112.629, 1458.316
1113.863, 1346.827
1115.096, 1156.340
1116.329, 873.856
1117.562, 1056.375
1118.795, 757.896
1120.027, 653.419
1121.259, 855.946
1122.492, 603.474
1123.723, 593.005
1124.955, 508.538
1126.187, 364.072
1127.418, 563.608
1128.649, 304.147
1129.880, 350.687
1131.111, 370.229
1132.342, 230.773
1133.572, 321.317
1134.802, 226.864
1136.033, 193.412
1137.262, 291.961
1138.492, 16.483
1139.722, 15.072
1140.951, 101.639
1142.180, 78.793
1143.409, 50.759
1144.638, 15.676
1145.866, 79.113
1147.095, 11.435
1148.323, 91.017
1149.551, 23.514
1150.779, 35.045
1152.006, 92.424
1153.234, 116.089
1154.461, 8.603
1155.688, 63.884
1156.915, 20.618
1158.141, 67.881
1159.368, 124.607
1160.594, 184.095
1161.820, 12.416
1163.046, 147.069
1164.272, 87.555
1165.498, 8.041
1166.723, 150.527
1167.948, 31.987
1169.173, 179.491
1170.398, 192.969
1171.623, 15.447
1172.847, 211.924
1174.071, 153.400
1175.295, 10.124
1176.519, 241.348
1177.743, 70.818
1178.966, 132.288
1180.190, 203.757
1181.413, 21.224
1182.636, 212.690
1183.858, 150.155
1185.081, 46.619
1186.303, 201.081
1187.526, 70.533
1188.748, 114.992
1189.969, 134.450
1191.191, 25.800
1192.412, 20.254
1193.634, 38.250
1194.855, 40.700
1196.076, 62.032
1197.296, 5.300
1198.517, 75.143
1199.737, 186.582
1200.957, 18.021
1202.177, 148.455
1203.397, 31.889
1204.617, 65.681
1205.836, 124.214
1207.055, 41.376
1208.274, 36.021
1209.493, 39.417
1210.712, 53.191
1211.930, 167.359
1213.148, 124.732
1214.367, 30.104
1215.584, 286.471
1216.802, 54.836
1218.020, 108.198
1219.237, 182.186
1220.454, 50.458
1221.671, 85.208
1222.888, 29.544
1224.105, 35.877
1225.321, 94.448
1226.537, 36.775
1227.753, 90.437
1228.969, 143.981
1230.185, 35.702
1231.400, 218.682
1232.616, 257.181
1233.831, 157.478
1235.046, 367.717
1236.261, 340.007
1237.475, 304.294
1238.689, 519.642
1239.904, 248.923
1241.118, 388.203
1242.332, 351.482
1243.545, 226.759
1244.759, 497.033
1245.972, 353.306
1247.185, 314.576
1248.398, 552.843
1249.611, 344.108
1250.823, 409.370
1252.036, 359.630
1253.248, 178.888
1254.460, 357.143
1255.671, 307.395
1256.883, 250.644
1258.095, 447.891
1259.306, 182.135
1260.517, 399.376
1261.728, 520.614
1262.938, 221.849
1264.149, 534.081
1265.359, 440.311
1266.569, 459.538
1267.779, 723.763
1268.989, 530.121
1270.199, 591.105
1271.408, 751.479
1272.617, 428.693
1273.826, 730.283
1275.035, 558.806
1276.244, 501.779
1277.452, 626.335
1278.661, 290.536
1279.869, 281.798
1281.077, 409.994
1282.285, 170.188
1283.492, 283.393
1284.700, 320.582
1285.907, 196.768
1287.114, 386.612
1288.321, 248.795
1289.527, 300.531
1290.734, 476.706
1291.940, 370.879
1293.146, 488.814
1294.352, 547.967
1295.558, 285.117
1296.763, 449.261
1297.969, 421.393
1299.174, 315.870
1300.379, 433.979
1301.584, 290.045
1302.788, 349.091
1303.993, 522.132
1305.197, 361.143
1306.401, 562.931
1307.605, 558.926
1308.809, 451.918
1310.013, 790.905
1311.216, 568.890
1312.419, 516.872
1313.622, 781.850
1314.825, 518.824
1316.028, 677.794
1317.230, 696.762
1318.432, 602.726
1319.634, 817.685
1320.836, 699.641
1322.038, 536.580
1323.240, 665.486
1324.441, 466.362
1325.642, 462.230
1326.843, 382.094
1328.044, 239.799
1329.245, 303.653
1330.445, 187.501
1331.645, 111.343
1332.845, 248.177
1334.045, 58.003
1335.245, 10.732
1336.445, 144.077
1337.644, 23.880
1338.843, 20.678
1340.042, 15.473
1341.241, 85.023
1342.440, 80.754
1343.638, 101.528
1344.836, 51.298
1346.034, 106.064
1347.232, 120.827
1348.430, 19.413
1349.628, 121.345
1350.825, 50.173
1352.022, 106.581
1353.219, 74.338
1354.416, 89.902
1355.613, 72.854
1356.809, 51.383
1358.005, 132.618
1359.202, 38.142
1360.398, 84.115
1361.593, 3.335
1362.789, 68.464
1363.984, 121.713
1365.179, 83.125
1366.374, 83.998
1367.569, 41.084
1368.764, 159.883
1369.958, 175.922
1371.153, 64.269
1372.347, 148.321
1373.541, 70.387
1374.735, 79.450
1375.928, 266.508
1377.122, 86.562
1378.315, 250.611
1379.508, 245.657
1380.701, 113.698
1381.893, 234.735
1383.086, 285.768
1384.278, 151.797
1385.470, 271.814
1386.662, 64.813
1387.854, 131.805
1389.046, 226.776
1390.237, 109.763
1391.428, 200.766
1392.619, 115.778
1393.810, 15.796
1395.001, 142.828
1396.191, 61.873
1397.382, 45.083
1398.572, 138.960
1399.762, 88.999
1400.952, 115.049
1402.141, 127.097
1403.331, 95.856
1404.520, 45.197
1405.709, 92.252
1406.898, 143.308
1408.087, 133.367
1409.275, 43.428
1410.464, 104.492
1411.652, 195.559
1412.840, 66.632
1414.028, 53.711
1415.215, 143.799
1416.403, 19.895
1417.590, 141.998
1418.777, 118.379
1419.964, 55.530
1421.151, 191.188
1422.338, 156.330
1423.524, 88.483
1424.710, 250.585
1425.896, 125.477
1427.082, 235.639
1428.268, 431.832
1429.453, 252.711
1430.639, 463.891
1431.824, 407.473
1433.009, 443.819
1434.194, 690.611
1435.378, 592.420
1436.563, 918.211
1437.747, 1221.993
1438.931, 1141.763
1440.115, 1380.522
1441.299, 1685.270
1442.482, 1515.006
1443.666, 1839.731
1444.849, 1798.445
1446.032, 1656.147
1447.215, 2068.835
1448.397, 1980.508
1449.580, 1985.287
1450.762, 2354.266
1451.944, 1997.528
1453.126, 2296.744
1454.308, 2340.916
1455.490, 1929.040
1456.671, 2289.112
1457.852, 2093.128
1459.033, 1992.079
1460.214, 2110.986
1461.395, 1717.928
1462.575, 1595.810
1463.756, 1726.707
1464.936, 1327.802
1466.116, 1311.130
1467.296, 1198.675
1468.475, 980.240
1469.655, 984.788
1470.834, 1016.318
1472.013, 666.831
1473.192, 945.324
1474.371, 653.797
1475.550, 714.548
1476.728, 732.810
1477.906, 694.190
1479.084, 660.720
1480.262, 764.440
1481.440, 575.391
1482.617, 657.616
1483.795, 707.115
1484.972, 456.912
1486.149, 509.087
1487.326, 297.751
1488.502, 309.985
1489.679, 309.838
1490.855, 182.452
1492.031, 163.004
1493.207, 119.757
1494.383, 72.065
1495.559, 80.469
1496.734, 120.878
1497.909, 5.074
1499.084, 0.000
##END=



