##NAMES=Danburite
##RRUFFID=R040013
##IDEAL CHEMISTRY=CaB_2_Si_2_O_8_
##LOCALITY=Charcas, San Luis Potosi, Mexico
##OWNER=RRUFF
##SOURCE=Marcus Origlieri
##DESCRIPTION=Colorless prismatic single crystal
##STATUS=The identification of this mineral has been confirmed by X-ray diffraction and chemical analysis
##URL=rruff.info/R040013
##MEASURED CHEMISTRY=Ca_1.00_B_2.00_Si_2.00_O_8_
##PIN_ID=M00012
##ORIENTATION=Laser parallel to c* (0 0 1). Fiducial mark perpendicular to laser is parallel to a [1 0 0]
100.461, 0.000
101.854, 220.852
103.247, 98.909
104.640, 417.578
106.032, 298.701
107.425, 489.031
108.817, 609.676
110.209, 969.931
111.601, 1267.703
112.992, 1377.198
114.384, 2584.829
115.775, 2010.176
117.166, 3751.549
118.556, 4969.210
119.947, 5857.345
121.337, 7716.083
122.727, 9779.518
124.116, 11712.715
125.506, 9592.186
126.895, 5926.167
128.284, 3461.627
129.673, 1942.723
131.062, 1327.017
132.450, 679.468
133.838, 700.054
135.226, 466.773
136.614, 637.625
138.001, 745.592
139.388, 746.656
140.775, 562.807
142.162, 247.033
143.549, 216.328
144.935, 88.682
146.321, 39.089
147.707, 23.598
149.093, 91.737
150.478, 37.961
151.863, 182.107
153.248, 1.745
154.633, 106.413
156.018, 44.571
157.402, 19.648
158.786, 11.396
160.170, 511.539
161.554, 732.672
162.937, 1865.769
164.320, 3992.834
165.703, 5324.871
167.086, 4219.958
168.469, 2103.194
169.851, 1076.534
171.233, 461.951
172.615, 239.376
173.996, 53.747
175.378, 118.066
176.759, 135.356
178.140, 198.631
179.521, 626.894
180.901, 842.147
182.281, 986.391
183.662, 679.624
185.041, 483.844
186.421, 375.051
187.800, 375.244
189.180, 598.417
190.558, 623.566
191.937, 705.693
193.316, 428.146
194.694, 354.336
196.072, 316.516
197.450, 202.296
198.827, 339.927
200.205, 276.851
201.582, 630.033
202.959, 953.104
204.336, 1647.744
205.712, 2748.372
207.088, 4448.986
208.465, 7912.588
209.840, 11944.175
211.216, 13556.374
212.591, 11020.020
213.967, 6822.025
215.341, 4147.056
216.716, 2544.173
218.091, 1646.240
219.465, 1086.862
220.839, 850.582
222.213, 815.860
223.586, 642.133
224.960, 731.405
226.333, 664.672
227.706, 918.939
229.079, 967.322
230.451, 1178.735
231.823, 1475.100
233.195, 1759.353
234.567, 2520.811
235.939, 3372.004
237.310, 5162.539
238.682, 8029.017
240.052, 12593.414
241.423, 20016.785
242.794, 31439.547
244.164, 44120.742
245.534, 47091.570
246.904, 38642.375
248.274, 26603.160
249.643, 16684.439
251.012, 11066.007
252.381, 7297.728
253.750, 5295.533
255.118, 3713.389
256.487, 2847.272
257.855, 2314.165
259.223, 1743.059
260.590, 1535.948
261.958, 1204.825
263.325, 1037.670
264.692, 866.482
266.059, 744.267
267.425, 705.026
268.791, 587.764
270.158, 542.046
271.523, 437.179
272.889, 468.859
274.255, 521.438
275.620, 540.894
276.985, 755.254
278.350, 666.599
279.714, 587.940
281.078, 324.276
282.443, 238.606
283.806, 227.930
285.170, 53.247
286.534, 84.554
287.897, 49.148
289.260, 56.132
290.623, 17.598
291.985, 30.656
293.348, 67.897
294.710, 2.873
296.072, 48.342
297.433, 13.497
298.795, 41.896
300.156, 18.919
301.517, 13.060
302.878, 115.807
304.239, 42.976
305.599, 198.706
306.959, 234.800
308.319, 391.878
309.679, 629.941
311.038, 705.990
312.398, 860.023
313.757, 634.041
315.116, 530.043
316.474, 389.030
317.833, 218.000
319.191, 202.951
320.549, 22.886
321.907, 100.801
323.264, 31.301
324.622, 15.428
325.979, 3.422
327.336, 35.749
328.692, 43.055
330.049, 60.160
331.405, 8.596
332.761, 15.667
334.117, 3.955
335.473, 70.736
336.828, 1.408
338.183, 118.058
339.538, 46.816
340.893, 263.427
342.247, 364.632
343.602, 536.453
344.956, 1115.610
346.310, 1510.912
347.663, 1830.700
349.017, 1673.782
350.370, 1209.731
351.723, 814.041
353.076, 487.139
354.428, 295.905
355.780, 110.117
357.133, 140.285
358.484, 106.689
359.836, 21.957
361.188, 50.759
362.539, 47.118
363.890, 21.563
365.241, 39.488
366.591, 81.029
367.942, 3.671
369.292, 71.234
370.642, 26.185
371.992, 25.951
373.341, 55.950
374.691, 3.068
376.040, 60.980
377.388, 9.943
378.737, 37.956
380.086, 44.896
381.434, 9.146
382.782, 30.783
384.130, 113.514
385.477, 93.350
386.825, 180.014
388.172, 147.857
389.519, 190.469
390.865, 261.156
392.212, 184.939
393.558, 336.502
394.904, 233.238
396.250, 297.768
397.596, 270.281
398.941, 232.023
400.286, 370.495
401.631, 335.003
402.976, 416.530
404.321, 447.085
405.665, 565.479
407.009, 620.854
408.353, 584.209
409.697, 769.545
411.040, 776.865
412.384, 925.171
413.727, 1054.456
415.070, 1352.729
416.412, 1769.981
417.755, 2207.220
419.097, 3018.441
420.439, 3865.645
421.781, 5064.836
423.122, 6171.013
424.464, 6429.179
425.805, 6092.334
427.146, 4765.477
428.486, 3507.612
429.827, 2526.732
431.167, 1723.627
432.507, 1490.652
433.847, 1413.834
435.187, 1678.700
436.526, 2363.579
437.865, 3564.263
439.204, 5250.127
440.543, 6643.289
441.882, 6828.025
443.220, 5553.921
444.558, 3998.606
445.896, 2798.129
447.234, 1919.565
448.572, 1410.517
449.909, 929.177
451.246, 716.096
452.583, 590.995
453.919, 485.873
455.256, 530.731
456.592, 395.569
457.928, 465.386
459.264, 473.183
460.600, 437.959
461.935, 484.716
463.270, 367.451
464.605, 385.167
465.940, 236.393
467.274, 289.017
468.609, 247.135
469.943, 196.595
471.277, 191.468
472.610, 179.405
473.944, 208.643
475.277, 222.962
476.610, 214.824
477.943, 305.128
479.275, 259.679
480.608, 273.930
481.940, 205.557
483.272, 114.982
484.604, 150.053
485.935, 26.445
487.267, 83.811
488.598, 26.155
489.929, 11.473
491.260, 74.764
492.590, 26.033
493.920, 38.276
495.250, 5.495
496.580, 18.685
497.910, 16.150
499.239, 36.019
500.569, 9.986
501.898, 2.947
503.226, 2.023
504.555, 44.517
505.883, 5.121
507.212, 39.016
508.540, 10.320
509.867, 66.334
511.195, 79.358
512.522, 57.156
513.849, 137.358
515.176, 86.586
516.503, 163.797
517.829, 119.289
519.156, 165.131
520.482, 214.463
521.808, 81.385
523.133, 156.211
524.459, 92.461
525.784, 88.915
527.109, 158.992
528.434, 93.509
529.758, 131.913
531.083, 78.517
532.407, 140.103
533.731, 102.671
535.055, 78.222
536.378, 155.754
537.701, 81.270
539.025, 134.767
540.348, 160.381
541.670, 66.905
542.993, 138.350
544.315, 107.963
545.637, 99.374
546.959, 89.871
548.281, 143.493
549.602, 162.192
550.923, 125.069
552.244, 196.638
553.565, 161.334
554.886, 185.825
556.206, 238.366
557.526, 207.493
558.846, 279.960
560.166, 283.724
561.486, 333.703
562.805, 351.502
564.124, 288.330
565.443, 391.769
566.762, 293.773
568.080, 305.690
569.399, 400.337
570.717, 353.014
572.035, 464.188
573.352, 447.000
574.670, 451.751
575.987, 518.652
577.304, 506.060
578.621, 620.736
579.938, 599.684
581.254, 796.203
582.570, 886.152
583.886, 1012.258
585.202, 1164.188
586.518, 1085.291
587.833, 1285.264
589.148, 1376.151
590.463, 1530.175
591.778, 1723.029
593.093, 1870.956
594.407, 2295.775
595.721, 2585.578
597.035, 3020.402
598.349, 3828.170
599.662, 4492.921
600.976, 5849.707
602.289, 7474.424
603.602, 10171.123
604.914, 14367.807
606.227, 20104.482
607.539, 28301.131
608.851, 34687.770
610.163, 36874.383
611.475, 33670.996
612.786, 27217.592
614.097, 20754.178
615.408, 14990.754
616.719, 11507.316
618.030, 9103.874
619.340, 7190.418
620.651, 6851.952
621.961, 6395.474
623.270, 7119.982
624.580, 8576.477
625.889, 10362.832
627.199, 12049.299
628.507, 11375.124
629.816, 9871.289
631.125, 7787.081
632.433, 5694.687
633.741, 4710.765
635.049, 3497.510
636.357, 3069.355
637.664, 2624.808
638.972, 2229.442
640.279, 2206.376
641.586, 1992.835
642.893, 2039.306
644.199, 1994.507
645.505, 1854.717
646.811, 2039.523
648.117, 1645.879
649.423, 1691.629
650.728, 1621.069
652.034, 1430.962
653.339, 1536.925
654.644, 1196.780
655.948, 1219.993
657.253, 1004.993
658.557, 729.196
659.861, 782.353
661.165, 534.545
662.468, 503.737
663.772, 464.712
665.075, 339.892
666.378, 428.912
667.681, 302.912
668.983, 306.066
670.286, 260.069
671.588, 163.201
672.890, 304.114
674.192, 174.221
675.493, 137.225
676.795, 179.104
678.096, 107.177
679.397, 148.050
680.697, 55.099
681.998, 70.135
683.298, 90.910
684.598, 41.923
685.898, 114.867
687.198, 22.240
688.498, 26.587
689.797, 14.541
691.096, 1.481
692.395, 25.404
693.694, 35.686
694.992, 27.799
696.290, 20.065
697.589, 57.084
698.886, 25.738
700.184, 43.452
701.482, 10.667
702.779, 3.901
704.076, 49.150
705.373, 33.426
706.669, 58.724
707.966, 56.049
709.262, 45.402
710.558, 90.779
711.854, 27.190
713.150, 98.622
714.445, 54.089
715.740, 61.582
717.035, 84.103
718.330, 10.655
719.625, 23.223
720.919, 48.809
722.214, 25.420
723.508, 33.049
724.801, 78.302
726.095, 14.645
727.388, 37.977
728.682, 59.300
729.975, 18.615
731.267, 118.920
732.560, 30.218
733.852, 150.506
735.145, 142.787
736.437, 38.060
737.728, 66.325
739.020, 60.583
740.311, 31.833
741.603, 136.076
742.894, 69.312
744.184, 119.541
745.475, 36.762
746.765, 207.978
748.055, 197.186
749.345, 142.388
750.635, 265.584
751.925, 183.773
753.214, 170.957
754.503, 203.134
755.792, 105.305
757.081, 160.470
758.370, 156.630
759.658, 241.784
760.946, 288.932
762.234, 235.074
763.522, 292.212
764.809, 376.344
766.097, 429.471
767.384, 554.593
768.671, 575.713
769.958, 760.830
771.244, 865.947
772.530, 949.063
773.817, 1050.177
775.102, 962.293
776.388, 880.408
777.674, 695.523
778.959, 505.638
780.244, 510.755
781.529, 332.878
782.814, 405.002
784.098, 303.132
785.383, 311.264
786.667, 408.394
787.951, 276.533
789.235, 373.671
790.518, 362.810
791.801, 270.948
793.084, 352.084
794.367, 256.218
795.650, 346.350
796.933, 319.479
798.215, 234.606
799.497, 429.730
800.779, 475.851
802.061, 205.970
803.342, 196.087
804.624, 117.202
805.905, 293.314
807.186, 187.426
808.466, 132.535
809.747, 182.643
811.027, 72.748
812.307, 209.853
813.587, 112.956
814.867, 152.058
816.146, 169.159
817.426, 75.259
818.705, 276.358
819.984, 127.323
821.263, 174.359
822.541, 292.456
823.819, 156.367
825.098, 259.463
826.375, 310.455
827.653, 218.304
828.931, 358.059
830.208, 220.620
831.485, 342.473
832.762, 354.182
834.039, 202.080
835.315, 409.911
836.592, 256.141
837.868, 358.015
839.144, 471.576
840.420, 326.907
841.695, 604.403
842.970, 479.855
844.246, 546.680
845.521, 719.927
846.795, 471.244
848.070, 801.818
849.344, 620.346
850.618, 617.364
851.892, 863.731
853.166, 652.144
854.440, 921.395
855.713, 906.134
856.986, 930.593
858.259, 1346.772
859.532, 1194.369
860.804, 1316.523
862.077, 1305.513
863.349, 1002.667
864.621, 1218.641
865.893, 813.732
867.164, 816.902
868.436, 747.924
869.707, 603.104
870.978, 690.200
872.248, 526.390
873.519, 602.587
874.789, 689.750
876.060, 509.958
877.330, 760.172
878.599, 664.341
879.869, 611.568
881.138, 743.802
882.408, 582.042
883.677, 727.279
884.945, 744.534
886.214, 608.805
887.482, 895.082
888.751, 724.366
890.019, 857.656
891.287, 891.954
892.554, 898.259
893.822, 1100.570
895.089, 1150.889
896.356, 1302.215
897.623, 1573.548
898.889, 1513.889
900.156, 1770.236
901.422, 1726.592
902.688, 1783.955
903.954, 1893.325
905.220, 1648.704
906.485, 1637.090
907.750, 1450.954
909.015, 1175.356
910.280, 1257.765
911.545, 988.025
912.809, 908.451
914.074, 874.032
915.338, 668.474
916.602, 697.924
917.865, 492.565
919.129, 473.032
920.392, 488.509
921.655, 268.992
922.918, 323.483
924.181, 283.544
925.443, 228.110
926.706, 356.626
927.968, 113.181
929.230, 305.714
930.491, 266.255
931.753, 175.805
933.014, 268.364
934.276, 186.931
935.536, 206.507
936.797, 309.092
938.058, 130.686
939.318, 304.291
940.578, 162.905
941.838, 163.528
943.098, 248.169
944.358, 90.819
945.617, 243.481
946.876, 150.153
948.135, 157.834
949.394, 296.524
950.653, 162.224
951.911, 342.933
953.169, 313.652
954.427, 139.380
955.685, 330.119
956.943, 200.869
958.200, 225.629
959.458, 348.401
960.715, 112.184
961.971, 306.977
963.228, 304.789
964.485, 311.612
965.741, 520.448
966.997, 487.296
968.253, 873.155
969.508, 1000.032
970.764, 1279.926
972.019, 1665.831
973.274, 1649.756
974.529, 1648.692
975.784, 1468.647
977.039, 1107.617
978.293, 949.600
979.547, 710.602
980.801, 523.621
982.055, 499.661
983.308, 353.719
984.562, 401.796
985.815, 504.896
987.068, 360.013
988.321, 421.154
989.573, 251.314
990.826, 297.495
992.078, 299.698
993.330, 129.915
994.582, 335.148
995.833, 271.400
997.085, 330.668
998.336, 660.953
999.587, 798.249
1000.838, 1653.557
1002.088, 1585.875
1003.339, 1225.207
1004.589, 1059.549
1005.839, 591.902
1007.089, 509.268
1008.339, 445.644
1009.588, 267.031
1010.838, 365.431
1012.087, 140.841
1013.336, 193.494
1014.584, 250.927
1015.833, 178.371
1017.081, 386.000
1018.330, 499.466
1019.577, 405.204
1020.825, 716.578
1022.073, 622.078
1023.320, 827.589
1024.567, 879.110
1025.814, 684.644
1027.061, 918.188
1028.308, 710.743
1029.554, 632.309
1030.800, 678.886
1032.046, 393.474
1033.292, 400.072
1034.538, 288.682
1035.783, 85.303
1037.029, 204.934
1038.274, 42.577
1039.519, 67.230
1040.763, 69.895
1042.008, 45.430
1043.252, 110.250
1044.496, 25.942
1045.740, 71.355
1046.984, 97.349
1048.228, 17.937
1049.471, 93.788
1050.714, 13.523
1051.957, 21.731
1053.200, 129.022
1054.442, 79.213
1055.685, 88.552
1056.927, 29.328
1058.169, 108.886
1059.411, 8.105
1060.652, 47.686
1061.894, 2.513
1063.135, 130.298
1064.376, 30.148
1065.617, 110.980
1066.858, 162.829
1068.098, 77.682
1069.339, 317.545
1070.579, 254.418
1071.819, 252.302
1073.058, 405.657
1074.298, 385.567
1075.537, 542.487
1076.776, 709.182
1078.015, 701.132
1079.254, 968.650
1080.493, 928.621
1081.731, 991.602
1082.969, 1177.592
1084.207, 1019.598
1085.445, 1123.612
1086.683, 1036.636
1087.920, 963.677
1089.157, 1126.728
1090.394, 1049.089
1091.631, 1146.166
1092.868, 1429.502
1094.105, 1431.601
1095.341, 1741.710
1096.577, 1839.569
1097.813, 2022.705
1099.049, 2543.848
1100.284, 2727.010
1101.519, 3128.185
1102.755, 3438.369
1103.990, 3834.574
1105.224, 4254.793
1106.459, 4367.022
1107.693, 4280.265
1108.928, 4297.517
1110.162, 3798.777
1111.395, 3639.048
1112.629, 3219.327
1113.863, 2674.613
1115.096, 2483.911
1116.329, 2118.217
1117.562, 1873.531
1118.795, 1752.853
1120.027, 1497.183
1121.259, 1385.520
1122.492, 1289.864
1123.723, 1114.217
1124.955, 1110.577
1126.187, 914.943
1127.418, 823.318
1128.649, 829.700
1129.880, 605.089
1131.111, 664.484
1132.342, 643.887
1133.572, 450.296
1134.802, 558.713
1136.033, 365.136
1137.262, 369.566
1138.492, 276.008
1139.722, 185.457
1140.951, 210.915
1142.180, 119.385
1143.409, 16.861
1144.638, 159.345
1145.866, 19.165
1147.095, 10.329
1148.323, 40.830
1149.551, 14.665
1150.779, 100.846
1152.006, 20.632
1153.234, 110.107
1154.461, 49.405
1155.688, 5.923
1156.915, 130.448
1158.141, 177.979
1159.368, 71.514
1160.594, 260.056
1161.820, 240.605
1163.046, 229.160
1164.272, 345.720
1165.498, 224.286
1166.723, 436.857
1167.948, 406.433
1169.173, 404.014
1170.398, 692.601
1171.623, 659.192
1172.847, 693.788
1174.071, 903.389
1175.295, 742.525
1176.519, 805.134
1177.743, 833.748
1178.966, 599.525
1180.190, 611.147
1181.413, 506.628
1182.636, 429.259
1183.858, 428.895
1185.081, 248.352
1186.303, 282.995
1187.526, 351.639
1188.748, 207.290
1189.969, 358.945
1191.191, 151.043
1192.412, 128.648
1193.634, 180.315
1194.855, 44.955
1196.076, 0.372
1197.296, 39.305
1198.517, 1.984
1199.737, 130.668
1200.957, 64.353
1202.177, 43.042
1203.397, 104.734
1204.617, 30.571
1205.836, 67.289
1207.055, 3.984
1208.274, 95.315
1209.493, 56.311
1210.712, 34.004
1211.930, 20.983
1213.148, 160.672
1214.367, 50.358
1215.584, 203.958
1216.802, 130.648
1218.020, 69.340
1219.237, 170.537
1220.454, 25.233
1221.671, 18.069
1222.888, 134.980
1224.105, 14.323
1225.321, 44.008
1226.537, 138.101
1227.753, 40.200
1228.969, 155.051
1230.185, 75.745
1231.400, 121.044
1232.616, 286.842
1233.831, 111.542
1235.046, 227.804
1236.261, 425.543
1237.475, 195.246
1238.689, 358.400
1239.904, 350.106
1241.118, 288.815
1242.332, 312.832
1243.545, 159.547
1244.759, 251.264
1245.972, 388.484
1247.185, 178.206
1248.398, 427.930
1249.611, 318.656
1250.823, 216.384
1252.036, 427.114
1253.248, 239.847
1254.460, 249.581
1255.671, 379.317
1256.883, 167.055
1258.095, 330.795
1259.306, 237.537
1260.517, 190.280
1261.728, 427.025
1262.938, 299.771
1264.149, 300.520
1265.359, 543.270
1266.569, 340.021
1267.779, 570.774
1268.989, 564.514
1270.199, 421.270
1271.408, 772.722
1272.617, 498.485
1273.826, 581.245
1275.035, 620.071
1276.244, 472.833
1277.452, 472.365
1278.661, 461.130
1279.869, 212.896
1281.077, 289.490
1282.285, 319.312
1283.492, 141.822
1284.700, 405.708
1285.907, 164.480
1287.114, 313.254
1288.321, 363.029
1289.527, 177.805
1290.734, 398.573
1291.940, 400.597
1293.146, 251.349
1294.352, 583.103
1295.558, 346.850
1296.763, 366.585
1297.969, 433.323
1299.174, 258.049
1300.379, 350.766
1301.584, 339.471
1302.788, 239.162
1303.993, 394.843
1305.197, 373.491
1306.401, 340.127
1307.605, 590.763
1308.809, 415.394
1310.013, 671.024
1311.216, 626.653
1312.419, 457.281
1313.622, 658.908
1314.825, 612.534
1316.028, 515.159
1317.230, 724.782
1318.432, 595.409
1319.634, 663.034
1320.836, 739.657
1322.038, 469.273
1323.240, 592.865
1324.441, 535.452
1325.642, 316.036
1326.843, 375.587
1328.044, 215.148
1329.245, 197.697
1330.445, 334.249
1331.645, 74.794
1332.845, 141.330
1334.045, 126.860
1335.245, 48.077
1336.445, 166.437
1337.644, 41.054
1338.843, 39.315
1340.042, 56.177
1341.241, 8.893
1342.440, 11.593
1343.638, 111.076
1344.836, 38.444
1346.034, 38.029
1347.232, 34.500
1348.430, 64.031
1349.628, 65.430
1350.825, 75.892
1352.022, 57.948
1353.219, 91.510
1354.416, 27.280
1355.613, 14.817
1356.809, 60.650
1358.005, 67.617
1359.202, 60.860
1360.398, 69.652
1361.593, 48.159
1362.789, 11.346
1363.984, 111.128
1365.179, 45.589
1366.374, 63.975
1367.569, 63.422
1368.764, 28.225
1369.958, 22.937
1371.153, 11.260
1372.347, 57.685
1373.541, 95.489
1374.735, 21.710
1375.928, 224.090
1377.122, 98.891
1378.315, 198.692
1379.508, 207.494
1380.701, 45.295
1381.893, 187.097
1383.086, 229.899
1384.278, 40.701
1385.470, 213.498
1386.662, 92.285
1387.854, 45.056
1389.046, 256.825
1390.237, 118.595
1391.428, 149.367
1392.619, 204.127
1393.810, 22.911
1395.001, 41.694
1396.191, 50.476
1397.382, 41.746
1398.572, 93.032
1399.762, 29.190
1400.952, 42.414
1402.141, 53.366
1403.331, 2.146
1404.520, 9.929
1405.709, 130.716
1406.898, 41.505
1408.087, 45.298
1409.275, 54.094
1410.464, 44.106
1411.652, 105.698
1412.840, 124.506
1414.028, 20.321
1415.215, 192.143
1416.403, 20.972
1417.590, 129.809
1418.777, 188.830
1419.964, 10.420
1421.151, 157.917
1422.338, 143.749
1423.524, 74.081
1424.710, 249.374
1425.896, 175.183
1427.082, 193.642
1428.268, 332.617
1429.453, 243.591
1430.639, 336.404
1431.824, 526.060
1433.009, 341.896
1434.194, 576.653
1435.378, 627.160
1436.563, 650.040
1437.747, 1091.479
1438.931, 1037.910
1440.115, 1259.325
1441.299, 1546.724
1442.482, 1427.104
1443.666, 1657.463
1444.849, 1812.805
1446.032, 1576.125
1447.215, 1843.424
1448.397, 1927.699
1449.580, 1719.456
1450.762, 2191.214
1451.944, 2049.062
1453.126, 1937.038
1454.308, 2374.970
1455.490, 1929.835
1456.671, 2061.583
1457.852, 2160.270
1459.033, 1854.888
1460.214, 1953.672
1461.395, 1804.291
1462.575, 1379.923
1463.756, 1630.560
1464.936, 1427.276
1466.116, 1113.118
1467.296, 1252.250
1468.475, 983.420
1469.655, 917.625
1470.834, 958.812
1472.013, 673.980
1473.192, 757.131
1474.371, 743.268
1475.550, 583.641
1476.728, 667.187
1477.906, 670.888
1479.084, 516.790
1480.262, 693.880
1481.440, 585.193
1482.617, 565.738
1483.795, 738.529
1484.972, 529.576
1486.149, 511.941
1487.326, 462.721
1488.502, 266.998
1489.679, 381.852
1490.855, 250.398
1492.031, 79.797
1493.207, 214.302
1494.383, 102.274
1495.559, 8.264
1496.734, 82.245
1497.909, 4.155
1499.084, 0.000
##END=



