##NAMES=Danburite
##RRUFFID=R040013
##IDEAL CHEMISTRY=CaB_2_Si_2_O_8_
##LOCALITY=Charcas, San Luis Potosi, Mexico
##OWNER=RRUFF
##SOURCE=Marcus Origlieri
##DESCRIPTION=Colorless prismatic single crystal
##STATUS=The identification of this mineral has been confirmed by X-ray diffraction and chemical analysis
##URL=rruff.info/R040013
##MEASURED CHEMISTRY=Ca_1.00_B_2.00_Si_2.00_O_8_
##PIN_ID=M00009
##ORIENTATION=Laser parallel to b* (0 1 0). Fiducial mark perpendicular to laser is parallel to -c [0 0 -1]
104.640, 0.000
106.032, 2.780
107.425, 160.511
108.817, 304.433
110.209, 802.313
111.601, 2243.890
112.992, 2831.448
114.384, 2318.054
115.775, 1631.451
117.166, 1601.703
118.556, 2103.116
119.947, 3447.817
121.337, 5960.249
122.727, 8599.726
124.116, 8462.601
125.506, 5262.771
126.895, 2847.952
128.284, 1418.836
129.673, 807.053
131.062, 516.066
132.450, 335.888
133.838, 279.808
135.226, 170.818
136.614, 180.907
138.001, 156.078
139.388, 117.346
140.775, 54.714
142.162, 53.171
143.549, 20.706
144.935, 0.311
146.321, 19.019
147.707, 48.292
149.093, 14.514
150.478, 91.691
151.863, 18.829
153.248, 6.933
154.633, 80.012
156.018, 7.072
157.402, 95.886
158.786, 332.859
160.170, 683.854
161.554, 1059.865
162.937, 2592.888
164.320, 4264.925
165.703, 3985.969
167.086, 2154.020
168.469, 875.080
169.851, 418.253
171.233, 201.558
172.615, 241.024
173.996, 272.641
175.378, 475.321
176.759, 756.976
178.140, 1346.603
179.521, 2430.208
180.901, 3465.814
182.281, 3580.425
183.662, 2452.039
185.041, 1350.656
186.421, 874.273
187.800, 883.887
189.180, 1119.497
190.558, 2012.099
191.937, 2691.688
193.316, 2359.261
194.694, 1452.818
196.072, 838.362
197.450, 472.892
198.827, 448.407
200.205, 482.895
201.582, 835.335
202.959, 1221.715
204.336, 2101.055
205.712, 3363.363
207.088, 5561.664
208.465, 9215.957
209.840, 11454.244
211.216, 10012.523
212.591, 6386.796
213.967, 3523.240
215.341, 1976.842
216.716, 1231.087
218.091, 921.323
219.465, 892.552
220.839, 1034.907
222.213, 1198.341
223.586, 1856.542
224.960, 2784.735
226.333, 2919.926
227.706, 2237.116
229.079, 1511.323
230.451, 1385.542
231.823, 1473.967
233.195, 1862.524
234.567, 2488.441
235.939, 3649.201
237.310, 5702.460
238.682, 9054.416
240.052, 14516.755
241.423, 22778.545
242.794, 34141.195
244.164, 40611.008
245.534, 34969.281
246.904, 23997.221
248.274, 14525.097
249.643, 8853.041
251.012, 5664.909
252.381, 3975.766
253.750, 2924.385
255.118, 2176.042
256.487, 1753.777
257.855, 1358.527
259.223, 1102.276
260.590, 897.008
261.958, 739.717
263.325, 695.403
264.692, 554.054
266.059, 551.657
267.425, 508.217
268.791, 391.740
270.158, 438.233
271.523, 291.701
272.889, 287.140
274.255, 210.514
275.620, 251.799
276.985, 231.974
278.350, 164.065
279.714, 157.141
281.078, 187.219
282.443, 271.297
283.806, 241.376
285.170, 281.456
286.534, 398.534
287.897, 687.612
289.260, 943.688
290.623, 1491.762
291.985, 2126.681
293.348, 2698.319
294.710, 2826.509
296.072, 2370.020
297.433, 1571.316
298.795, 961.819
300.156, 630.015
301.517, 454.487
302.878, 366.257
304.239, 256.722
305.599, 377.749
306.959, 452.771
308.319, 611.788
309.679, 761.798
311.038, 769.803
312.398, 712.801
313.757, 513.793
315.116, 368.779
316.474, 237.759
317.833, 149.731
319.191, 145.695
320.549, 101.651
321.907, 72.597
323.264, 45.532
324.622, 138.457
325.979, 138.371
327.336, 282.276
328.692, 393.171
330.049, 341.056
331.405, 292.931
332.761, 106.796
334.117, 144.650
335.473, 81.495
336.828, 66.328
338.183, 159.150
339.538, 164.962
340.893, 337.763
342.247, 502.594
343.602, 889.656
344.956, 1450.602
346.310, 1841.640
347.663, 1783.688
349.017, 1308.088
350.370, 800.037
351.723, 444.250
353.076, 273.775
354.428, 209.097
355.780, 110.078
357.133, 75.658
358.484, 17.206
359.836, 35.489
361.188, 3.470
362.539, 32.540
363.890, 20.634
365.241, 4.386
366.591, 70.306
367.942, 14.183
369.292, 7.327
370.642, 68.543
371.992, 28.785
373.341, 65.209
374.691, 52.602
376.040, 23.044
377.388, 72.534
378.737, 41.012
380.086, 104.460
381.434, 37.030
382.782, 91.433
384.130, 66.929
385.477, 107.476
386.825, 119.018
388.172, 118.602
389.519, 147.268
390.865, 103.811
392.212, 138.428
393.558, 241.094
394.904, 146.461
396.250, 224.684
397.596, 216.863
398.941, 237.899
400.286, 295.022
401.631, 266.212
402.976, 285.204
404.321, 339.239
405.665, 368.223
407.009, 445.171
408.353, 456.103
409.697, 602.020
411.040, 650.922
412.384, 804.808
413.727, 1047.683
415.070, 1354.542
416.412, 1759.389
417.755, 2234.220
419.097, 3005.037
420.439, 3950.842
421.781, 4830.638
423.122, 5485.425
424.464, 5243.201
425.805, 4433.966
427.146, 3075.725
428.486, 2061.472
429.827, 1456.211
431.167, 1110.946
432.507, 1018.673
433.847, 1254.389
435.187, 1679.098
436.526, 2522.795
437.865, 3993.480
439.204, 5455.158
440.543, 5978.830
441.882, 5095.496
443.220, 3552.156
444.558, 2286.814
445.896, 1548.463
447.234, 1131.100
448.572, 776.734
449.909, 614.357
451.246, 493.966
452.583, 507.561
453.919, 507.145
455.256, 624.714
456.592, 892.278
457.928, 1088.831
459.264, 1100.370
460.600, 771.896
461.935, 487.408
463.270, 278.905
464.605, 298.394
465.940, 185.868
467.274, 184.195
468.609, 171.381
469.943, 151.811
471.277, 133.226
472.610, 157.627
473.944, 330.013
475.277, 384.384
476.610, 560.741
477.943, 729.083
479.275, 794.410
480.608, 588.617
481.940, 395.737
483.272, 248.020
484.604, 158.166
485.935, 108.541
487.267, 56.780
488.598, 79.000
489.929, 57.031
491.260, 52.391
492.590, 9.561
493.920, 16.292
495.250, 28.170
496.580, 0.922
497.910, 11.991
499.239, 53.040
500.569, 45.932
501.898, 25.897
503.226, 53.347
504.555, 22.067
505.883, 34.084
507.212, 45.377
508.540, 5.928
509.867, 16.833
511.195, 10.184
512.522, 35.817
513.849, 47.172
515.176, 45.923
516.503, 80.161
517.829, 66.537
519.156, 71.188
520.482, 76.511
521.808, 66.672
523.133, 68.022
524.459, 54.157
525.784, 56.091
527.109, 41.615
528.434, 24.165
529.758, 21.039
531.083, 13.179
532.407, 3.764
533.731, 11.333
535.055, 4.314
536.378, 1.346
537.701, 27.861
539.025, 56.360
540.348, 62.846
541.670, 91.317
542.993, 68.865
544.315, 51.312
545.637, 107.743
546.959, 77.258
548.281, 84.676
549.602, 105.361
550.923, 102.742
552.244, 172.112
553.565, 103.469
554.886, 126.814
556.206, 217.720
557.526, 176.129
558.846, 203.601
560.166, 196.898
561.486, 298.291
562.805, 182.935
564.124, 215.206
565.443, 300.530
566.762, 285.034
568.080, 405.910
569.399, 448.321
570.717, 426.988
572.035, 427.157
573.352, 399.198
574.670, 412.729
575.987, 425.400
577.304, 425.609
578.621, 437.214
579.938, 511.659
581.254, 659.640
582.570, 642.229
583.886, 774.385
585.202, 815.328
586.518, 958.415
587.833, 1079.454
589.148, 1137.480
590.463, 1270.494
591.778, 1498.496
593.093, 1656.485
594.407, 2078.461
595.721, 2358.105
597.035, 2846.057
598.349, 3550.826
599.662, 4436.529
600.976, 5787.444
602.289, 7803.785
603.602, 10998.674
604.914, 15743.553
606.227, 22329.559
607.539, 29194.412
608.851, 32659.254
610.163, 31004.082
611.475, 24678.902
612.786, 18473.721
614.097, 13338.516
615.408, 9493.298
616.719, 7498.067
618.030, 6082.826
619.340, 5193.572
620.651, 5060.307
621.961, 5288.030
623.270, 6361.742
624.580, 7886.444
625.889, 9511.134
627.199, 9935.811
628.507, 8460.437
629.816, 6774.812
631.125, 4953.280
632.433, 3670.635
633.741, 2898.958
635.049, 2323.907
636.357, 2036.288
637.664, 1727.382
638.972, 1587.144
640.279, 1424.089
641.586, 1329.354
642.893, 1343.000
644.199, 1215.069
645.505, 1253.537
646.811, 1143.741
648.117, 1043.941
649.423, 976.157
650.728, 915.009
652.034, 922.010
653.339, 850.948
654.644, 666.130
655.948, 711.365
657.253, 556.606
658.557, 511.078
659.861, 457.429
661.165, 315.810
662.468, 280.218
663.772, 279.595
665.075, 217.983
666.378, 228.300
667.681, 188.632
668.983, 298.891
670.286, 285.061
671.588, 277.195
672.890, 290.366
674.192, 220.298
675.493, 254.325
676.795, 103.256
678.096, 132.121
679.397, 102.121
680.697, 78.536
681.998, 98.831
683.298, 27.252
684.598, 54.562
685.898, 51.786
687.198, 24.184
688.498, 41.516
689.797, 1.124
691.096, 283.250
692.395, 296.616
693.694, 530.975
694.992, 66.328
696.290, 14.327
697.589, 21.007
698.886, 4.333
700.184, 54.651
701.482, 14.962
702.779, 6.733
704.076, 34.439
705.373, 37.430
706.669, 2.901
707.966, 19.649
709.262, 43.410
710.558, 12.188
711.854, 34.534
713.150, 72.780
714.445, 51.608
715.740, 15.455
717.035, 39.312
718.330, 14.186
719.625, 8.069
720.919, 31.962
722.214, 15.869
723.508, 10.214
724.801, 32.709
726.095, 18.354
727.388, 57.412
728.682, 38.465
729.975, 44.514
731.267, 103.557
732.560, 37.596
733.852, 74.631
735.145, 26.339
736.437, 71.680
737.728, 76.305
739.020, 31.312
740.311, 31.669
741.603, 17.354
742.894, 24.615
744.184, 21.580
745.475, 48.459
746.765, 70.486
748.055, 22.429
749.345, 77.369
750.635, 46.304
751.925, 8.237
753.214, 94.166
754.503, 59.092
755.792, 62.015
757.081, 118.935
758.370, 155.853
759.658, 121.767
760.946, 92.679
762.234, 168.588
763.522, 225.496
764.809, 224.400
766.097, 290.302
767.384, 372.203
768.671, 527.101
769.958, 579.999
771.244, 713.896
772.530, 709.133
773.817, 763.687
775.102, 617.584
776.388, 504.486
777.674, 323.393
778.959, 238.303
780.244, 185.214
781.529, 120.126
782.814, 113.046
784.098, 3.967
785.383, 83.897
786.667, 5.167
787.951, 3.772
789.235, 85.712
790.518, 6.655
791.801, 57.600
793.084, 88.546
794.367, 40.494
795.650, 71.442
796.933, 7.609
798.215, 39.339
799.497, 89.288
800.779, 34.236
802.061, 110.185
803.342, 17.133
804.624, 30.082
805.905, 42.032
807.186, 7.982
808.466, 78.934
809.747, 75.886
811.027, 13.159
812.307, 41.796
813.587, 9.755
814.867, 12.715
816.146, 75.679
817.426, 93.646
818.705, 71.615
819.984, 93.585
821.263, 58.557
822.541, 87.440
823.819, 105.414
825.098, 123.389
826.375, 131.775
827.653, 128.236
828.931, 148.924
830.208, 154.905
831.485, 185.736
832.762, 147.752
834.039, 223.853
835.315, 97.266
836.592, 144.165
837.868, 187.990
839.144, 190.981
840.420, 195.865
841.695, 330.488
842.970, 185.473
844.246, 340.396
845.521, 322.130
846.795, 300.482
848.070, 403.290
849.344, 283.832
850.618, 406.861
851.892, 425.011
853.166, 449.661
854.440, 625.161
855.713, 558.116
856.986, 660.665
858.259, 796.366
859.532, 760.521
860.804, 874.061
862.077, 810.025
863.349, 762.193
864.621, 799.210
865.893, 641.267
867.164, 744.327
868.436, 631.392
869.707, 655.462
870.978, 601.536
872.248, 543.614
873.519, 636.017
874.789, 527.105
876.060, 598.369
877.330, 568.690
878.599, 516.793
879.869, 608.464
881.138, 519.577
882.408, 541.696
883.677, 566.679
884.945, 589.810
886.214, 634.949
887.482, 757.094
888.751, 768.245
890.019, 825.388
891.287, 948.554
892.554, 1135.727
893.822, 1236.905
895.089, 1468.096
896.356, 1665.292
897.623, 1757.495
898.889, 1846.704
900.156, 1889.919
901.422, 1805.141
902.688, 1754.368
903.954, 1659.603
905.220, 1418.844
906.485, 1254.091
907.750, 1074.345
909.015, 933.633
910.280, 834.473
911.545, 712.147
912.809, 694.428
914.074, 622.715
915.338, 594.009
916.602, 537.310
917.865, 400.617
919.129, 415.932
920.392, 303.308
921.655, 288.637
922.918, 271.973
924.181, 202.027
925.443, 296.376
926.706, 141.733
927.968, 248.127
929.230, 199.498
930.491, 51.876
931.753, 257.264
933.014, 136.658
934.276, 223.992
935.536, 193.402
936.797, 193.818
938.058, 172.243
939.318, 150.677
940.578, 115.119
941.838, 201.568
943.098, 153.031
944.358, 88.503
945.617, 209.986
946.876, 222.476
948.135, 217.857
949.394, 137.362
950.653, 161.875
951.911, 262.394
953.169, 186.921
954.427, 200.456
955.685, 273.000
956.943, 209.551
958.200, 246.110
959.458, 273.678
960.715, 297.252
961.971, 348.835
963.228, 470.427
964.485, 660.026
965.741, 737.638
966.997, 976.259
968.253, 1600.887
969.508, 2041.523
970.764, 2814.168
972.019, 3172.824
973.274, 2957.487
974.529, 2575.160
975.784, 1931.842
977.039, 1447.532
978.293, 1088.231
979.547, 849.944
980.801, 729.671
982.055, 626.408
983.308, 573.157
984.562, 526.919
985.815, 486.692
987.068, 616.478
988.321, 547.281
989.573, 502.099
990.826, 578.929
992.078, 524.771
993.330, 583.624
994.582, 658.488
995.833, 584.363
997.085, 770.250
998.336, 873.146
999.587, 1021.054
1000.838, 1038.996
1002.088, 1194.896
1003.339, 979.829
1004.589, 713.770
1005.839, 551.719
1007.089, 476.677
1008.339, 349.643
1009.588, 255.621
1010.838, 243.606
1012.087, 148.609
1013.336, 190.624
1014.584, 212.647
1015.833, 92.680
1017.081, 295.721
1018.330, 282.771
1019.577, 380.834
1020.825, 345.665
1022.073, 439.743
1023.320, 401.830
1024.567, 286.925
1025.814, 354.725
1027.061, 301.836
1028.308, 263.955
1029.554, 290.331
1030.800, 244.002
1032.046, 166.606
1033.292, 213.755
1034.538, 257.912
1035.783, 265.076
1037.029, 358.248
1038.274, 394.427
1039.519, 607.666
1040.763, 501.859
1042.008, 353.061
1043.252, 358.269
1044.496, 134.485
1045.740, 147.708
1046.984, 109.938
1048.228, 64.174
1049.471, 70.419
1050.714, 40.670
1051.957, 77.928
1053.200, 76.428
1054.442, 8.300
1055.685, 178.979
1056.927, 34.264
1058.169, 65.444
1059.411, 59.847
1060.652, 40.145
1061.894, 3.551
1063.135, 52.760
1064.376, 103.285
1065.617, 112.064
1066.858, 66.395
1068.098, 136.959
1069.339, 195.303
1070.579, 80.654
1071.819, 227.066
1073.058, 200.128
1074.298, 224.508
1075.537, 324.894
1076.776, 421.735
1078.015, 396.318
1079.254, 444.433
1080.493, 436.858
1081.731, 609.290
1082.969, 609.729
1084.207, 701.177
1085.445, 691.630
1086.683, 775.090
1087.920, 750.557
1089.157, 900.354
1090.394, 960.842
1091.631, 1105.336
1092.868, 1202.835
1094.105, 1367.344
1095.341, 1536.868
1096.577, 1732.441
1097.813, 2051.991
1099.049, 2364.255
1100.284, 2613.829
1101.519, 3022.418
1102.755, 3111.012
1103.990, 3601.617
1105.224, 3737.227
1106.459, 3714.840
1107.693, 3738.462
1108.928, 3374.092
1110.162, 3101.727
1111.395, 2845.375
1112.629, 2453.026
1113.863, 2190.681
1115.096, 1890.340
1116.329, 1675.520
1117.562, 1575.668
1118.795, 1356.337
1120.027, 1258.009
1121.259, 1190.684
1122.492, 1016.363
1123.723, 846.043
1124.955, 799.728
1126.187, 632.415
1127.418, 600.221
1128.649, 596.797
1129.880, 550.493
1131.111, 470.189
1132.342, 479.890
1133.572, 392.592
1134.802, 374.296
1136.033, 297.003
1137.262, 264.712
1138.492, 187.428
1139.722, 169.149
1140.951, 194.871
1142.180, 117.595
1143.409, 42.322
1144.638, 118.051
1145.866, 31.782
1147.095, 71.514
1148.323, 104.248
1149.551, 54.985
1150.779, 39.724
1152.006, 71.464
1153.234, 44.795
1154.461, 45.939
1155.688, 29.674
1156.915, 75.410
1158.141, 40.853
1159.368, 18.878
1160.594, 40.609
1161.820, 63.660
1163.046, 68.060
1164.272, 65.780
1165.498, 41.500
1166.723, 92.220
1167.948, 46.940
1169.173, 16.660
1170.398, 115.380
1171.623, 4.901
1172.847, 125.816
1174.071, 157.533
1175.295, 79.250
1176.519, 149.964
1177.743, 50.677
1178.966, 8.389
1180.190, 87.100
1181.413, 35.809
1182.636, 106.516
1183.858, 106.221
1185.081, 14.076
1186.303, 99.623
1187.526, 67.265
1188.748, 52.959
1189.969, 49.651
1191.191, 2.581
1192.412, 19.268
1193.634, 30.952
1194.855, 14.603
1196.076, 10.718
1197.296, 21.044
1198.517, 61.622
1199.737, 10.715
1200.957, 6.942
1202.177, 145.998
1203.397, 1.353
1204.617, 29.707
1205.836, 118.116
1207.055, 13.748
1208.274, 60.346
1209.493, 4.449
1210.712, 26.832
1211.930, 92.503
1213.148, 88.644
1214.367, 106.259
1215.584, 138.688
1216.802, 184.266
1218.020, 68.935
1219.237, 130.029
1220.454, 7.889
1221.671, 96.329
1222.888, 28.990
1224.105, 52.822
1225.321, 80.417
1226.537, 73.021
1227.753, 18.472
1228.969, 65.607
1230.185, 18.478
1231.400, 144.961
1232.616, 216.436
1233.831, 61.917
1235.046, 220.135
1236.261, 237.604
1237.475, 191.065
1238.689, 291.409
1239.904, 143.623
1241.118, 234.405
1242.332, 230.757
1243.545, 101.186
1244.759, 140.690
1245.972, 168.130
1247.185, 181.541
1248.398, 184.597
1249.611, 192.350
1250.823, 156.749
1252.036, 177.144
1253.248, 145.535
1254.460, 255.922
1255.671, 285.453
1256.883, 156.832
1258.095, 260.207
1259.306, 187.632
1260.517, 238.998
1261.728, 250.360
1262.938, 146.717
1264.149, 341.068
1265.359, 368.416
1266.569, 299.758
1267.779, 406.184
1268.989, 286.689
1270.199, 344.442
1271.408, 484.765
1272.617, 338.199
1273.826, 270.663
1275.035, 325.985
1276.244, 314.420
1277.452, 357.722
1278.661, 216.035
1279.869, 156.740
1281.077, 201.056
1282.285, 132.332
1283.492, 127.600
1284.700, 206.104
1285.907, 134.362
1287.114, 181.614
1288.321, 109.861
1289.527, 109.401
1290.734, 100.634
1291.940, 150.845
1293.146, 241.781
1294.352, 270.956
1295.558, 209.120
1296.763, 231.271
1297.969, 173.411
1299.174, 158.527
1300.379, 198.633
1301.584, 213.706
1302.788, 128.690
1303.993, 204.691
1305.197, 188.667
1306.401, 261.619
1307.605, 315.555
1308.809, 265.471
1310.013, 457.360
1311.216, 383.240
1312.419, 296.109
1313.622, 417.969
1314.825, 347.820
1316.028, 382.424
1317.230, 328.253
1318.432, 319.070
1319.634, 365.876
1320.836, 349.672
1322.038, 341.591
1323.240, 247.215
1324.441, 297.958
1325.642, 237.685
1326.843, 203.190
1328.044, 217.427
1329.245, 145.105
1330.445, 90.540
1331.645, 13.188
1332.845, 111.818
1334.045, 77.378
1335.245, 66.723
1336.445, 86.849
1337.644, 22.405
1338.843, 71.506
1340.042, 64.834
1341.241, 5.367
1342.440, 3.115
1343.638, 60.582
1344.836, 9.964
1346.034, 66.473
1347.232, 45.896
1348.430, 4.304
1349.628, 4.697
1350.825, 45.250
1352.022, 42.107
1353.219, 19.451
1354.416, 19.219
1355.613, 62.904
1356.809, 56.612
1358.005, 43.373
1359.202, 77.118
1360.398, 14.580
1361.593, 59.358
1362.789, 81.845
1363.984, 48.958
1365.179, 88.224
1366.374, 67.401
1367.569, 12.426
1368.764, 7.258
1369.958, 14.956
1371.153, 56.879
1372.347, 152.384
1373.541, 47.597
1374.735, 59.580
1375.928, 135.487
1377.122, 85.386
1378.315, 137.273
1379.508, 90.150
1380.701, 120.015
1381.893, 90.867
1383.086, 250.709
1384.278, 35.539
1385.470, 146.357
1386.662, 164.156
1387.854, 55.933
1389.046, 107.695
1390.237, 99.443
1391.428, 148.177
1392.619, 87.894
1393.810, 98.596
1395.001, 150.294
1396.191, 49.979
1397.382, 23.340
1398.572, 11.334
1399.762, 80.003
1400.952, 44.660
1402.141, 37.305
1403.331, 66.924
1404.520, 41.564
1405.709, 69.181
1406.898, 65.789
1408.087, 12.387
1409.275, 62.980
1410.464, 158.568
1411.652, 167.150
1412.840, 131.726
1414.028, 122.295
1415.215, 159.862
1416.403, 137.432
1417.590, 138.399
1418.777, 159.960
1419.964, 120.146
1421.151, 116.649
1422.338, 90.933
1423.524, 183.464
1424.710, 222.523
1425.896, 77.912
1427.082, 148.630
1428.268, 304.298
1429.453, 241.175
1430.639, 325.140
1431.824, 223.263
1433.009, 300.690
1434.194, 428.442
1435.378, 362.696
1436.563, 447.456
1437.747, 621.521
1438.931, 751.068
1440.115, 760.793
1441.299, 940.471
1442.482, 856.101
1443.666, 1006.359
1444.849, 933.879
1446.032, 994.219
1447.215, 1099.625
1448.397, 1121.972
1449.580, 1047.041
1450.762, 1313.305
1451.944, 1170.061
1453.126, 1234.595
1454.308, 1247.097
1455.490, 1094.666
1456.671, 1241.210
1457.852, 1107.746
1459.033, 1169.169
1460.214, 1217.479
1461.395, 1049.714
1462.575, 838.003
1463.756, 895.228
1464.936, 746.429
1466.116, 793.663
1467.296, 713.174
1468.475, 633.871
1469.655, 525.639
1470.834, 551.516
1472.013, 416.329
1473.192, 557.081
1474.371, 364.775
1475.550, 431.407
1476.728, 364.082
1477.906, 451.841
1479.084, 324.652
1480.262, 421.519
1481.440, 426.436
1482.617, 370.431
1483.795, 323.523
1484.972, 280.722
1486.149, 219.772
1487.326, 168.332
1488.502, 131.762
1489.679, 118.328
1490.855, 139.051
1492.031, 64.954
1493.207, 43.066
1494.383, 15.419
1495.559, 61.072
1496.734, 0.896
1497.909, 100.607
1499.084, 1.296
1500.259, 1.843
1501.434, 0.000
##END=



