##NAMES=Danburite
##RRUFFID=R040013
##IDEAL CHEMISTRY=CaB_2_Si_2_O_8_
##LOCALITY=Charcas, San Luis Potosi, Mexico
##OWNER=RRUFF
##SOURCE=Marcus Origlieri
##DESCRIPTION=Colorless prismatic single crystal
##STATUS=The identification of this mineral has been confirmed by X-ray diffraction and chemical analysis
##URL=rruff.info/R040013
##MEASURED CHEMISTRY=Ca_1.00_B_2.00_Si_2.00_O_8_
##PIN_ID=M00012
##ORIENTATION=Laser parallel to c* (0 0 1). Fiducial mark perpendicular to laser is parallel to a [1 0 0]
115.775, 0.000
117.166, 556.896
118.556, 474.731
119.947, 464.497
121.337, 1542.340
122.727, 3278.361
124.116, 5098.521
125.506, 5199.898
126.895, 5540.374
128.284, 7127.278
129.673, 7174.438
131.062, 5088.763
132.450, 2910.331
133.838, 1909.684
135.226, 1625.980
136.614, 2130.380
138.001, 3002.727
139.388, 3174.732
140.775, 2317.332
142.162, 1183.000
143.549, 609.777
144.935, 225.026
146.321, 2.896
147.707, 5.200
149.093, 33.484
150.478, 161.520
151.863, 195.045
153.248, 80.816
154.633, 135.732
156.018, 35.825
157.402, 11.586
158.786, 318.265
160.170, 950.965
161.554, 1552.459
162.937, 3617.926
164.320, 7382.236
165.703, 9724.394
167.086, 7478.484
168.469, 3749.800
169.851, 1770.163
171.233, 799.375
172.615, 394.917
173.996, 138.785
175.378, 50.430
176.759, 69.313
178.140, 30.166
179.521, 106.993
180.901, 153.828
182.281, 339.694
183.662, 333.579
185.041, 435.471
186.421, 817.358
187.800, 1289.229
189.180, 2418.058
190.558, 3197.003
191.937, 3003.404
193.316, 1999.440
194.694, 1128.694
196.072, 674.053
197.450, 328.493
198.827, 164.987
200.205, 113.500
201.582, 151.649
202.959, 241.792
204.336, 403.175
205.712, 544.427
207.088, 766.899
208.465, 1323.060
209.840, 1932.294
211.216, 2213.849
212.591, 1753.381
213.967, 1035.909
215.341, 671.432
216.716, 281.949
218.091, 186.454
219.465, 24.972
220.839, 27.627
222.213, 19.304
223.586, 67.657
224.960, 2.369
226.333, 51.094
227.706, 42.167
229.079, 33.585
230.451, 31.648
231.823, 73.863
233.195, 144.042
234.567, 217.200
235.939, 337.349
237.310, 683.496
238.682, 1091.657
240.052, 1903.815
241.423, 3223.966
242.794, 5198.415
244.164, 7628.465
245.534, 8098.980
246.904, 6820.591
248.274, 4750.096
249.643, 3064.455
251.012, 2070.497
252.381, 1473.662
253.750, 1127.411
255.118, 850.208
256.487, 842.810
257.855, 698.439
259.223, 554.367
260.590, 485.053
261.958, 307.724
263.325, 250.381
264.692, 173.097
266.059, 207.907
267.425, 183.590
268.791, 173.061
270.158, 321.259
271.523, 458.180
272.889, 704.801
274.255, 1103.054
275.620, 1756.963
276.985, 2583.594
278.350, 2557.992
279.714, 2002.034
281.078, 1170.642
282.443, 770.594
283.806, 411.093
285.170, 175.339
286.534, 168.537
287.897, 40.693
289.260, 67.805
290.623, 65.875
291.985, 15.895
293.348, 25.245
294.710, 50.339
296.072, 45.374
297.433, 60.473
298.795, 102.577
300.156, 100.888
301.517, 172.842
302.878, 283.510
304.239, 410.492
305.599, 629.527
306.959, 899.793
308.319, 1391.163
309.679, 2043.507
311.038, 2459.827
312.398, 2611.124
313.757, 2215.397
315.116, 1600.638
316.474, 1104.796
317.833, 738.853
319.191, 470.824
320.549, 371.726
321.907, 223.576
323.264, 144.605
324.622, 159.820
325.979, 159.572
327.336, 138.138
328.692, 182.704
330.049, 208.205
331.405, 267.448
332.761, 302.178
334.117, 363.894
335.473, 406.597
336.828, 545.287
338.183, 733.957
339.538, 854.607
340.893, 1488.237
342.247, 2269.852
343.602, 3654.450
344.956, 6098.030
346.310, 8885.839
347.663, 10783.396
349.017, 9681.181
350.370, 6877.498
351.723, 4594.048
353.076, 2948.728
354.428, 2008.581
355.780, 1294.505
357.133, 903.739
358.484, 651.673
359.836, 484.276
361.188, 404.118
362.539, 347.890
363.890, 298.705
365.241, 248.140
366.591, 177.609
367.942, 158.376
369.292, 133.883
370.642, 68.956
371.992, 52.698
373.341, 38.014
374.691, 11.170
376.040, 46.997
377.388, 21.739
378.737, 27.229
380.086, 37.003
381.434, 28.404
382.782, 53.890
384.130, 65.225
385.477, 45.960
386.825, 40.229
388.172, 72.760
389.519, 91.860
390.865, 95.227
392.212, 52.543
393.558, 103.748
394.904, 74.848
396.250, 67.942
397.596, 96.016
398.941, 127.208
400.286, 203.312
401.631, 272.484
402.976, 367.469
404.321, 632.393
405.665, 782.214
407.009, 759.941
408.353, 564.887
409.697, 499.493
411.040, 316.697
412.384, 346.019
413.727, 312.185
415.070, 326.259
416.412, 480.768
417.755, 599.241
419.097, 750.679
420.439, 1035.084
421.781, 1327.458
423.122, 1714.801
424.464, 1740.116
425.805, 1701.403
427.146, 1355.664
428.486, 1007.904
429.827, 720.128
431.167, 466.873
432.507, 345.572
433.847, 245.531
435.187, 278.733
436.526, 302.905
437.865, 375.600
439.204, 571.375
440.543, 718.402
441.882, 751.394
443.220, 640.545
444.558, 472.943
445.896, 398.377
447.234, 263.166
448.572, 197.319
449.909, 162.472
451.246, 155.622
452.583, 148.754
453.919, 219.869
455.256, 284.967
456.592, 369.048
457.928, 535.118
459.264, 683.170
460.600, 741.213
461.935, 833.243
463.270, 706.257
464.605, 605.254
465.940, 406.235
467.274, 401.181
468.609, 367.759
469.943, 298.405
471.277, 415.051
472.610, 515.592
473.944, 898.333
475.277, 1313.182
476.610, 2196.078
477.943, 3641.959
479.275, 4639.824
480.608, 4731.673
481.940, 3575.506
483.272, 2262.324
484.604, 1369.127
485.935, 838.915
487.267, 591.687
488.598, 390.443
489.929, 213.183
491.260, 184.911
492.590, 113.627
493.920, 82.331
495.250, 107.020
496.580, 70.691
497.910, 26.345
499.239, 4.979
500.569, 16.043
501.898, 46.818
503.226, 33.260
504.555, 8.273
505.883, 19.786
507.212, 6.722
508.540, 5.250
509.867, 22.798
511.195, 34.464
512.522, 15.228
513.849, 3.891
515.176, 8.282
516.503, 32.463
517.829, 21.149
519.156, 7.660
520.482, 85.382
521.808, 6.990
523.133, 29.611
524.459, 52.732
525.784, 21.861
527.109, 50.558
528.434, 10.701
529.758, 56.933
531.083, 46.474
532.407, 28.757
533.731, 23.033
535.055, 28.822
536.378, 47.404
537.701, 64.500
539.025, 60.995
540.348, 60.766
541.670, 30.604
542.993, 45.301
544.315, 27.028
545.637, 63.379
546.959, 72.703
548.281, 91.944
549.602, 117.008
550.923, 59.219
552.244, 128.320
553.565, 121.556
554.886, 112.802
556.206, 231.256
557.526, 225.285
558.846, 397.209
560.166, 548.384
561.486, 852.467
562.805, 921.893
564.124, 856.040
565.443, 690.098
566.762, 559.371
568.080, 424.430
569.399, 446.602
570.717, 374.933
572.035, 388.889
573.352, 416.098
574.670, 362.098
575.987, 448.657
577.304, 439.988
578.621, 594.840
579.938, 614.224
581.254, 739.942
582.570, 756.804
583.886, 856.299
585.202, 948.193
586.518, 968.606
587.833, 1065.357
589.148, 1151.359
590.463, 1283.168
591.778, 1431.954
593.093, 1626.125
594.407, 1842.730
595.721, 2132.457
597.035, 2598.134
598.349, 3227.849
599.662, 3909.613
600.976, 5166.171
602.289, 6708.382
603.602, 9214.785
604.914, 13150.273
606.227, 18435.750
607.539, 26021.273
608.851, 31876.723
610.163, 34102.152
611.475, 31007.570
612.786, 25082.979
614.097, 19208.371
615.408, 13693.832
616.719, 10419.291
618.030, 7924.643
619.340, 6034.040
620.651, 5038.363
621.961, 4372.707
623.270, 3942.006
624.580, 3907.423
625.889, 4100.950
627.199, 4326.201
628.507, 4126.438
629.816, 3708.661
631.125, 3073.869
632.433, 2532.063
633.741, 2204.244
635.049, 1771.337
636.357, 1699.274
637.664, 1470.313
638.972, 1343.172
640.279, 1176.812
641.586, 1097.342
642.893, 1017.609
644.199, 939.071
645.505, 973.197
646.811, 851.731
648.117, 756.273
649.423, 771.680
650.728, 619.036
652.034, 633.990
653.339, 653.663
654.644, 458.772
655.948, 509.207
657.253, 408.449
658.557, 362.971
659.861, 370.432
661.165, 262.824
662.468, 298.834
663.772, 173.208
665.075, 194.876
666.378, 178.454
667.681, 202.019
668.983, 186.188
670.286, 193.033
671.588, 157.619
672.890, 155.410
674.192, 144.584
675.493, 128.960
676.795, 96.420
678.096, 86.482
679.397, 50.393
680.697, 42.910
681.998, 53.417
683.298, 14.474
684.598, 33.164
685.898, 13.225
687.198, 14.696
688.498, 29.687
689.797, 64.542
691.096, 29.189
692.395, 48.592
693.694, 16.212
694.992, 10.817
696.290, 4.593
697.589, 50.980
698.886, 70.674
700.184, 13.221
701.482, 29.755
702.779, 6.726
704.076, 8.777
705.373, 24.264
706.669, 2.262
707.966, 17.196
709.262, 0.640
710.558, 6.932
711.854, 34.520
713.150, 46.131
714.445, 13.231
715.740, 19.419
717.035, 10.088
718.330, 37.224
719.625, 13.475
720.919, 61.807
722.214, 77.922
723.508, 19.683
724.801, 16.538
726.095, 17.254
727.388, 41.934
728.682, 0.889
729.975, 23.273
731.267, 24.422
732.560, 10.441
733.852, 62.680
735.145, 25.790
736.437, 32.888
737.728, 20.974
739.020, 39.952
740.311, 47.100
741.603, 60.859
742.894, 26.845
744.184, 57.151
745.475, 55.136
746.765, 35.110
748.055, 58.074
749.345, 51.028
750.635, 96.973
751.925, 68.907
753.214, 60.831
754.503, 27.746
755.792, 24.649
757.081, 62.543
758.370, 30.427
759.658, 61.301
760.946, 34.166
762.234, 40.021
763.522, 10.867
764.809, 2.298
766.097, 67.525
767.384, 115.339
768.671, 140.145
769.958, 152.941
771.244, 155.729
772.530, 147.508
773.817, 192.278
775.102, 215.041
776.388, 176.796
777.674, 134.543
778.959, 67.284
780.244, 72.018
781.529, 13.746
782.814, 33.471
784.098, 10.805
785.383, 20.914
786.667, 79.627
787.951, 10.335
789.235, 24.038
790.518, 64.737
791.801, 59.433
793.084, 49.128
794.367, 16.820
795.650, 45.507
796.933, 73.190
798.215, 99.869
799.497, 89.717
800.779, 52.788
802.061, 44.863
803.342, 5.491
804.624, 59.852
805.905, 3.225
807.186, 40.604
808.466, 16.997
809.747, 8.603
811.027, 22.803
812.307, 65.213
813.587, 12.362
814.867, 47.068
816.146, 13.512
817.426, 29.964
818.705, 19.452
819.984, 8.830
821.263, 32.746
822.541, 13.513
823.819, 35.199
825.098, 54.011
826.375, 24.775
827.653, 14.500
828.931, 70.932
830.208, 9.196
831.485, 61.550
832.762, 27.750
834.039, 36.924
835.315, 64.871
836.592, 8.773
837.868, 82.670
839.144, 138.845
840.420, 77.095
841.695, 134.983
842.970, 146.132
844.246, 216.353
845.521, 216.078
846.795, 179.528
848.070, 219.584
849.344, 218.464
850.618, 206.703
851.892, 225.672
853.166, 178.836
854.440, 290.428
855.713, 223.238
856.986, 345.515
858.259, 352.248
859.532, 360.641
860.804, 475.878
862.077, 374.474
863.349, 306.659
864.621, 329.315
865.893, 297.622
867.164, 263.664
868.436, 274.466
869.707, 129.118
870.978, 255.948
872.248, 179.329
873.519, 137.573
874.789, 246.853
876.060, 216.081
877.330, 222.244
878.599, 125.601
879.869, 297.289
881.138, 228.773
882.408, 196.156
883.677, 258.540
884.945, 246.860
886.214, 140.246
887.482, 253.633
888.751, 242.021
890.019, 257.410
891.287, 352.801
892.554, 306.111
893.822, 387.412
895.089, 362.806
896.356, 452.143
897.623, 549.540
898.889, 529.903
900.156, 626.299
901.422, 670.564
902.688, 765.708
903.954, 801.196
905.220, 810.522
906.485, 837.933
907.750, 875.346
909.015, 818.763
910.280, 994.181
911.545, 941.602
912.809, 1042.026
914.074, 1048.452
915.338, 1029.881
916.602, 1194.313
917.865, 1057.749
919.129, 962.109
920.392, 813.551
921.655, 622.636
922.918, 648.049
924.181, 471.500
925.443, 579.879
926.706, 578.327
927.968, 475.789
929.230, 466.254
930.491, 432.725
931.753, 499.169
933.014, 569.646
934.276, 623.128
935.536, 650.614
936.797, 747.104
938.058, 781.333
939.318, 1039.831
940.578, 1112.136
941.838, 1413.231
943.098, 1726.598
944.358, 1930.163
945.617, 2390.288
946.876, 2466.789
948.135, 2716.802
949.394, 2633.840
950.653, 2347.384
951.911, 2082.867
953.169, 1789.121
954.427, 1438.025
955.685, 1315.593
956.943, 1081.167
958.200, 972.046
959.458, 996.359
960.715, 916.213
961.971, 886.821
963.228, 1015.947
964.485, 1118.294
965.741, 1347.924
966.997, 1590.562
968.253, 2260.208
969.508, 2802.863
970.764, 3554.525
972.019, 4286.197
973.274, 4574.743
974.529, 4362.430
975.784, 3753.127
977.039, 3097.831
978.293, 2538.545
979.547, 2010.268
980.801, 1697.000
982.055, 1545.742
983.308, 1169.492
984.562, 1129.252
985.815, 996.023
987.068, 928.808
988.321, 887.607
989.573, 794.416
990.826, 745.235
992.078, 738.067
993.330, 591.908
994.582, 695.760
995.833, 704.621
997.085, 807.499
998.336, 959.391
999.587, 1062.291
1000.838, 1276.384
1002.088, 1690.125
1003.339, 1728.057
1004.589, 2135.997
1005.839, 2401.947
1007.089, 2972.014
1008.339, 3261.984
1009.588, 2927.978
1010.838, 2557.966
1012.087, 1917.964
1013.336, 1473.319
1014.584, 1196.366
1015.833, 802.404
1017.081, 862.576
1018.330, 734.636
1019.577, 819.963
1020.825, 873.041
1022.073, 839.128
1023.320, 992.229
1024.567, 1033.337
1025.814, 993.455
1027.061, 1179.584
1028.308, 1074.723
1029.554, 949.871
1030.800, 916.026
1032.046, 721.192
1033.292, 637.368
1034.538, 496.552
1035.783, 299.745
1037.029, 334.948
1038.274, 194.162
1039.519, 211.384
1040.763, 151.616
1042.008, 148.857
1043.252, 132.107
1044.496, 116.755
1045.740, 84.635
1046.984, 116.912
1048.228, 84.198
1049.471, 95.494
1050.714, 90.798
1051.957, 92.112
1053.200, 110.434
1054.442, 100.766
1055.685, 97.188
1056.927, 99.458
1058.169, 62.818
1059.411, 62.188
1060.652, 19.567
1061.894, 60.955
1063.135, 79.352
1064.376, 85.905
1065.617, 70.320
1066.858, 154.744
1068.098, 162.180
1069.339, 235.624
1070.579, 200.076
1071.819, 246.540
1073.058, 272.025
1074.298, 381.519
1075.537, 478.118
1076.776, 633.759
1078.015, 639.309
1079.254, 762.866
1080.493, 741.542
1081.731, 752.134
1082.969, 729.740
1084.207, 684.370
1085.445, 635.013
1086.683, 609.669
1087.920, 579.404
1089.157, 593.040
1090.394, 569.748
1091.631, 624.463
1092.868, 692.603
1094.105, 653.654
1095.341, 751.414
1096.577, 854.254
1097.813, 977.047
1099.049, 1141.910
1100.284, 1161.728
1101.519, 1337.554
1102.755, 1517.390
1103.990, 1727.236
1105.224, 1776.094
1106.459, 1893.961
1107.693, 1874.841
1108.928, 1807.736
1110.162, 1581.640
1111.395, 1540.558
1112.629, 1335.484
1113.863, 1126.419
1115.096, 1023.362
1116.329, 816.312
1117.562, 761.269
1118.795, 678.233
1120.027, 651.204
1121.259, 629.182
1122.492, 586.167
1123.723, 524.196
1124.955, 418.158
1126.187, 399.236
1127.418, 315.248
1128.649, 297.267
1129.880, 290.291
1131.111, 304.322
1132.342, 229.360
1133.572, 162.404
1134.802, 106.454
1136.033, 108.510
1137.262, 146.572
1138.492, 103.641
1139.722, 14.285
1140.951, 129.794
1142.180, 0.120
1143.409, 22.971
1144.638, 79.068
1145.866, 34.830
1147.095, 2.726
1148.323, 22.384
1149.551, 15.501
1150.779, 9.617
1152.006, 28.258
1153.234, 19.916
1154.461, 67.048
1155.688, 12.031
1156.915, 99.174
1158.141, 88.322
1159.368, 125.984
1160.594, 119.142
1161.820, 150.303
1163.046, 252.469
1164.272, 430.640
1165.498, 323.817
1166.723, 455.998
1167.948, 530.183
1169.173, 512.404
1170.398, 770.596
1171.623, 904.792
1172.847, 886.091
1174.071, 1069.293
1175.295, 1017.499
1176.519, 1007.707
1177.743, 907.918
1178.966, 759.132
1180.190, 793.348
1181.413, 594.567
1182.636, 486.788
1183.858, 495.011
1185.081, 362.236
1186.303, 415.463
1187.526, 314.692
1188.748, 232.923
1189.969, 249.156
1191.191, 198.391
1192.412, 183.627
1193.634, 197.864
1194.855, 58.104
1196.076, 15.656
1197.296, 63.583
1198.517, 105.824
1199.737, 113.504
1200.957, 37.746
1202.177, 85.989
1203.397, 41.543
1204.617, 13.206
1205.836, 39.475
1207.055, 10.280
1208.274, 11.854
1209.493, 1.491
1210.712, 24.732
1211.930, 10.033
1213.148, 127.215
1214.367, 61.777
1215.584, 149.055
1216.802, 105.068
1218.020, 24.302
1219.237, 128.020
1220.454, 9.603
1221.671, 47.444
1222.888, 8.672
1224.105, 24.103
1225.321, 19.332
1226.537, 69.384
1227.753, 4.094
1228.969, 93.886
1230.185, 2.374
1231.400, 87.938
1232.616, 87.137
1233.831, 100.580
1235.046, 117.500
1236.261, 193.608
1237.475, 119.794
1238.689, 211.228
1239.904, 105.793
1241.118, 165.282
1242.332, 179.973
1243.545, 108.373
1244.759, 69.548
1245.972, 174.011
1247.185, 110.173
1248.398, 212.335
1249.611, 112.496
1250.823, 142.657
1252.036, 159.815
1253.248, 124.023
1254.460, 105.181
1255.671, 152.337
1256.883, 2.493
1258.095, 226.647
1259.306, 146.799
1260.517, 90.951
1261.728, 206.102
1262.938, 79.251
1264.149, 171.398
1265.359, 169.544
1266.569, 203.683
1267.779, 318.820
1268.989, 273.983
1270.199, 214.114
1271.408, 261.284
1272.617, 165.410
1273.826, 213.520
1275.035, 293.659
1276.244, 189.779
1277.452, 193.552
1278.661, 172.640
1279.869, 102.752
1281.077, 186.740
1282.285, 60.957
1283.492, 12.802
1284.700, 74.903
1285.907, 24.852
1287.114, 105.240
1288.321, 72.326
1289.527, 9.591
1290.734, 87.474
1291.940, 124.536
1293.146, 79.600
1294.352, 251.622
1295.558, 102.024
1296.763, 125.000
1297.969, 166.952
1299.174, 23.883
1300.379, 155.809
1301.584, 47.712
1302.788, 14.584
1303.993, 97.437
1305.197, 102.281
1306.401, 109.104
1307.605, 222.909
1308.809, 190.692
1310.013, 269.452
1311.216, 224.201
1312.419, 202.941
1313.622, 227.675
1314.825, 243.400
1316.028, 280.117
1317.230, 284.825
1318.432, 208.523
1319.634, 275.213
1320.836, 386.894
1322.038, 164.564
1323.240, 231.224
1324.441, 299.872
1325.642, 132.508
1326.843, 172.988
1328.044, 75.602
1329.245, 0.797
1330.445, 160.788
1331.645, 53.358
1332.845, 5.915
1334.045, 42.544
1335.245, 35.976
1336.445, 45.477
1337.644, 32.131
1338.843, 71.778
1340.042, 51.665
1341.241, 23.899
1342.440, 67.581
1343.638, 5.819
1344.836, 68.792
1346.034, 14.423
1347.232, 47.932
1348.430, 87.725
1349.628, 4.596
1350.825, 50.095
1352.022, 86.196
1353.219, 57.476
1354.416, 4.665
1355.613, 45.716
1356.809, 37.473
1358.005, 57.311
1359.202, 47.097
1360.398, 22.049
1361.593, 43.242
1362.789, 10.429
1363.984, 12.390
1365.179, 20.685
1366.374, 43.953
1367.569, 34.878
1368.764, 40.714
1369.958, 6.448
1371.153, 46.383
1372.347, 11.853
1373.541, 41.045
1374.735, 7.198
1375.928, 77.051
1377.122, 93.896
1378.315, 83.733
1379.508, 96.563
1380.701, 112.309
1381.893, 35.122
1383.086, 152.927
1384.278, 91.723
1385.470, 158.511
1386.662, 123.290
1387.854, 51.060
1389.046, 118.820
1390.237, 157.573
1391.428, 70.319
1392.619, 62.058
1393.810, 59.732
1395.001, 120.448
1396.191, 107.146
1397.382, 43.216
1398.572, 50.887
1399.762, 24.546
1400.952, 78.193
1402.141, 68.792
1403.331, 47.294
1404.520, 66.917
1405.709, 76.533
1406.898, 55.144
1408.087, 101.749
1409.275, 82.350
1410.464, 30.946
1411.652, 119.538
1412.840, 173.126
1414.028, 27.711
1415.215, 212.294
1416.403, 102.227
1417.590, 126.799
1418.777, 167.733
1419.964, 97.229
1421.151, 43.608
1422.338, 170.487
1423.524, 3.155
1424.710, 196.914
1425.896, 117.084
1427.082, 252.005
1428.268, 336.192
1429.453, 241.796
1430.639, 258.453
1431.824, 298.521
1433.009, 274.049
1434.194, 396.936
1435.378, 403.461
1436.563, 456.021
1437.747, 617.347
1438.931, 624.417
1440.115, 668.057
1441.299, 895.650
1442.482, 779.088
1443.666, 901.577
1444.849, 941.010
1446.032, 823.383
1447.215, 1055.695
1448.397, 1054.942
1449.580, 870.146
1450.762, 1147.220
1451.944, 1042.920
1453.126, 1057.860
1454.308, 1124.768
1455.490, 1100.585
1456.671, 1130.001
1457.852, 1157.613
1459.033, 1068.681
1460.214, 1005.070
1461.395, 1003.411
1462.575, 815.706
1463.756, 817.858
1464.936, 781.439
1466.116, 719.027
1467.296, 621.815
1468.475, 544.643
1469.655, 510.601
1470.834, 459.993
1472.013, 444.783
1473.192, 413.824
1474.371, 400.829
1475.550, 385.806
1476.728, 309.763
1477.906, 425.730
1479.084, 295.705
1480.262, 330.725
1481.440, 274.831
1482.617, 343.030
1483.795, 306.415
1484.972, 262.903
1486.149, 242.481
1487.326, 240.136
1488.502, 126.890
1489.679, 175.781
1490.855, 136.854
1492.031, 124.153
1493.207, 138.711
1494.383, 101.558
1495.559, 4.771
1496.734, 26.469
1497.909, 25.791
1499.084, 2.040
1500.259, 36.298
1501.434, 0.000
##END=



