##NAMES=Danburite
##RRUFFID=R040013
##IDEAL CHEMISTRY=CaB_2_Si_2_O_8_
##LOCALITY=Charcas, San Luis Potosi, Mexico
##OWNER=RRUFF
##SOURCE=Marcus Origlieri
##DESCRIPTION=Colorless prismatic single crystal
##STATUS=The identification of this mineral has been confirmed by X-ray diffraction and chemical analysis
##URL=rruff.info/R040013
##MEASURED CHEMISTRY=Ca_1.00_B_2.00_Si_2.00_O_8_
##PIN_ID=M00012
##ORIENTATION=Laser parallel to c* (0 0 1). Fiducial mark perpendicular to laser is parallel to a [1 0 0]
115.775, 0.000
117.166, 2979.138
118.556, 5127.980
119.947, 5139.913
121.337, 5559.945
122.727, 7158.368
124.116, 5915.114
125.506, 6872.096
126.895, 4103.875
128.284, 1972.854
129.673, 920.343
131.062, 462.575
132.450, 133.853
133.838, 326.174
135.226, 438.850
136.614, 1006.206
138.001, 1469.899
139.388, 1620.802
140.775, 1182.092
142.162, 533.858
143.549, 304.879
144.935, 23.880
146.321, 7.683
147.707, 95.177
149.093, 135.551
150.478, 157.630
151.863, 218.706
153.248, 132.160
154.633, 167.570
156.018, 38.551
157.402, 120.904
158.786, 0.872
160.170, 473.567
161.554, 768.647
162.937, 1891.988
164.320, 3745.413
165.703, 5021.756
167.086, 3851.044
168.469, 1892.414
169.851, 957.891
171.233, 309.416
172.615, 162.928
173.996, 34.670
175.378, 35.615
176.759, 83.804
178.140, 195.987
179.521, 411.202
180.901, 621.449
182.281, 812.706
183.662, 492.933
185.041, 475.079
186.421, 567.120
187.800, 769.056
189.180, 1371.891
190.558, 1677.741
191.937, 1682.940
193.316, 1112.437
194.694, 667.164
196.072, 429.051
197.450, 308.046
198.827, 273.077
200.205, 244.002
201.582, 482.839
202.959, 833.050
204.336, 1397.494
205.712, 2366.936
207.088, 3817.668
208.465, 6628.188
209.840, 10120.535
211.216, 11575.626
212.591, 9428.294
213.967, 5843.968
215.341, 3469.622
216.716, 2080.597
218.091, 1414.206
219.465, 910.999
220.839, 696.958
222.213, 594.304
223.586, 561.126
224.960, 620.695
226.333, 547.360
227.706, 691.904
229.079, 770.983
230.451, 989.841
231.823, 1239.672
233.195, 1517.472
234.567, 2062.266
235.939, 2830.057
237.310, 4299.212
238.682, 6771.209
240.052, 10694.977
241.423, 16838.594
242.794, 26712.691
244.164, 37726.398
245.534, 40520.145
246.904, 32963.273
248.274, 22716.633
249.643, 14328.973
251.012, 9420.753
252.381, 6382.864
253.750, 4479.434
255.118, 3237.685
256.487, 2532.114
257.855, 2002.319
259.223, 1593.501
260.590, 1346.661
261.958, 985.794
263.325, 896.903
264.692, 771.604
266.059, 667.206
267.425, 638.313
268.791, 620.778
270.158, 637.500
271.523, 598.529
272.889, 756.666
274.255, 884.879
275.620, 1209.400
276.985, 1629.354
278.350, 1589.715
279.714, 1299.179
281.078, 870.802
282.443, 610.123
283.806, 327.888
285.170, 251.164
286.534, 264.197
287.897, 110.177
289.260, 202.104
290.623, 124.213
291.985, 120.195
293.348, 71.908
294.710, 35.190
296.072, 46.790
297.433, 58.992
298.795, 78.431
300.156, 57.475
301.517, 100.555
302.878, 99.837
304.239, 104.129
305.599, 198.486
306.959, 230.667
308.319, 407.762
309.679, 574.677
311.038, 697.568
312.398, 779.434
313.757, 672.275
315.116, 550.092
316.474, 299.883
317.833, 237.647
319.191, 156.917
320.549, 88.262
321.907, 93.771
323.264, 1.254
324.622, 17.341
325.979, 38.974
327.336, 4.624
328.692, 79.135
330.049, 9.616
331.405, 53.593
332.761, 30.471
334.117, 76.759
335.473, 128.113
336.828, 20.438
338.183, 185.733
339.538, 147.998
340.893, 277.495
342.247, 427.231
343.602, 625.267
344.956, 1120.996
346.310, 1521.284
347.663, 1944.249
349.017, 1710.555
350.370, 1268.035
351.723, 815.732
353.076, 504.073
354.428, 376.723
355.780, 139.485
357.133, 198.705
358.484, 79.093
359.836, 94.492
361.188, 64.662
362.539, 11.920
363.890, 33.048
365.241, 0.148
366.591, 26.114
367.942, 28.923
369.292, 0.169
370.642, 7.432
371.992, 25.837
373.341, 28.587
374.691, 32.208
376.040, 0.414
377.388, 40.721
378.737, 22.825
380.086, 79.305
381.434, 56.640
382.782, 94.907
384.130, 133.231
385.477, 163.621
386.825, 181.812
388.172, 216.968
389.519, 222.876
390.865, 283.979
392.212, 268.117
393.558, 319.017
394.904, 201.233
396.250, 297.314
397.596, 286.072
398.941, 302.104
400.286, 381.001
401.631, 350.037
402.976, 535.695
404.321, 640.483
405.665, 758.115
407.009, 840.822
408.353, 680.714
409.697, 760.301
411.040, 705.816
412.384, 836.259
413.727, 961.635
415.070, 1167.989
416.412, 1532.234
417.755, 2023.425
419.097, 2608.556
420.439, 3348.635
421.781, 4384.671
423.122, 5398.660
424.464, 5611.607
425.805, 5245.519
427.146, 4142.408
428.486, 3064.284
429.827, 2137.596
431.167, 1583.548
432.507, 1304.547
433.847, 1212.823
435.187, 1431.520
436.526, 1961.846
437.865, 2953.155
439.204, 4478.220
440.543, 5723.982
441.882, 5912.909
443.220, 4820.014
444.558, 3514.327
445.896, 2377.574
447.234, 1669.096
448.572, 1191.666
449.909, 885.281
451.246, 671.376
452.583, 568.638
453.919, 479.506
455.256, 575.350
456.592, 513.171
457.928, 618.967
459.264, 570.740
460.600, 665.490
461.935, 655.981
463.270, 578.170
464.605, 506.976
465.940, 370.461
467.274, 310.992
468.609, 303.891
469.943, 192.010
471.277, 250.293
472.610, 231.278
473.944, 232.725
475.277, 244.750
476.610, 193.053
477.943, 368.238
479.275, 382.625
480.608, 382.238
481.940, 286.325
483.272, 158.179
484.604, 99.844
485.935, 41.108
487.267, 45.476
488.598, 5.168
489.929, 40.165
491.260, 74.477
492.590, 16.771
493.920, 43.040
495.250, 5.717
496.580, 47.497
497.910, 13.315
499.239, 25.155
500.569, 39.270
501.898, 1.047
503.226, 5.938
504.555, 27.222
505.883, 13.773
507.212, 56.688
508.540, 19.511
509.867, 38.115
511.195, 27.872
512.522, 60.963
513.849, 54.528
515.176, 74.980
516.503, 102.108
517.829, 50.804
519.156, 158.503
520.482, 105.017
521.808, 67.733
523.133, 130.873
524.459, 80.744
525.784, 89.497
527.109, 70.416
528.434, 48.500
529.758, 82.711
531.083, 83.995
532.407, 158.430
533.731, 76.923
535.055, 61.476
536.378, 105.008
537.701, 29.546
539.025, 51.910
540.348, 115.606
541.670, 51.073
542.993, 75.609
544.315, 41.263
545.637, 127.858
546.959, 87.578
548.281, 125.416
549.602, 96.911
550.923, 54.292
552.244, 135.185
553.565, 141.157
554.886, 152.134
556.206, 205.696
557.526, 106.495
558.846, 218.070
560.166, 167.370
561.486, 325.825
562.805, 286.906
564.124, 274.251
565.443, 286.092
566.762, 234.570
568.080, 355.104
569.399, 260.158
570.717, 276.340
572.035, 376.717
573.352, 356.876
574.670, 425.725
575.987, 419.589
577.304, 471.728
578.621, 574.932
579.938, 655.690
581.254, 785.924
582.570, 797.979
583.886, 898.461
585.202, 1057.618
586.518, 1031.625
587.833, 1167.734
589.148, 1184.705
590.463, 1339.638
591.778, 1482.561
593.093, 1636.510
594.407, 1984.408
595.721, 2250.292
597.035, 2649.159
598.349, 3258.010
599.662, 3956.844
600.976, 5145.661
602.289, 6512.461
603.602, 8858.246
604.914, 12574.014
606.227, 17539.768
607.539, 24765.508
608.851, 30531.238
610.163, 32966.957
611.475, 29952.668
612.786, 24198.373
614.097, 18484.064
615.408, 13209.746
616.719, 10125.420
618.030, 8101.083
619.340, 6406.736
620.651, 5910.379
621.961, 5580.012
623.270, 6313.634
624.580, 7369.245
625.889, 8854.845
627.199, 10420.167
628.507, 9785.206
629.816, 8580.255
631.125, 6785.012
632.433, 5011.013
633.741, 4038.163
635.049, 3125.033
636.357, 2820.014
637.664, 2279.712
638.972, 1988.693
640.279, 1929.297
641.586, 1747.725
642.893, 1706.639
644.199, 1660.333
645.505, 1552.977
646.811, 1680.814
648.117, 1369.367
649.423, 1475.335
650.728, 1321.125
652.034, 1231.000
653.339, 1243.822
654.644, 946.800
655.948, 1000.745
657.253, 823.783
658.557, 679.947
659.861, 620.869
661.165, 461.171
662.468, 447.338
663.772, 363.327
665.075, 323.609
666.378, 316.655
667.681, 192.736
668.983, 267.723
670.286, 227.603
671.588, 179.634
672.890, 223.665
674.192, 68.880
675.493, 142.862
676.795, 90.763
678.096, 70.859
679.397, 61.595
680.697, 26.427
681.998, 71.546
683.298, 51.356
684.598, 21.271
685.898, 29.016
687.198, 44.892
688.498, 5.965
689.797, 37.087
691.096, 32.965
692.395, 12.237
693.694, 17.235
694.992, 18.251
696.290, 44.285
697.589, 55.342
698.886, 0.468
700.184, 78.565
701.482, 6.308
702.779, 27.833
704.076, 82.992
705.373, 19.182
706.669, 47.390
707.966, 50.621
709.262, 73.875
710.558, 123.158
711.854, 46.481
713.150, 123.826
714.445, 25.209
715.740, 69.611
717.035, 82.040
718.330, 42.498
719.625, 66.977
720.919, 45.061
722.214, 81.009
723.508, 12.565
724.801, 7.865
726.095, 37.284
727.388, 12.694
728.682, 39.094
729.975, 70.485
731.267, 115.867
732.560, 34.241
733.852, 83.605
735.145, 65.962
736.437, 63.310
737.728, 108.650
739.020, 36.982
740.311, 111.306
741.603, 38.622
742.894, 33.931
744.184, 108.232
745.475, 82.525
746.765, 76.811
748.055, 127.090
749.345, 113.361
750.635, 183.625
751.925, 143.883
753.214, 164.134
754.503, 121.377
755.792, 81.614
757.081, 167.845
758.370, 106.068
759.658, 212.286
760.946, 319.497
762.234, 159.700
763.522, 263.898
764.809, 302.090
766.097, 272.276
767.384, 394.457
768.671, 447.635
769.958, 682.809
771.244, 670.983
772.530, 769.154
773.817, 913.326
775.102, 726.494
776.388, 711.660
777.674, 592.825
778.959, 415.987
780.244, 468.147
781.529, 261.311
782.814, 387.472
784.098, 236.636
785.383, 200.801
786.667, 375.964
787.951, 208.134
789.235, 292.301
790.518, 266.467
791.801, 262.633
793.084, 305.797
794.367, 165.959
795.650, 300.119
796.933, 261.276
798.215, 178.430
799.497, 249.583
800.779, 150.731
802.061, 180.877
803.342, 135.021
804.624, 78.161
805.905, 208.299
807.186, 103.435
808.466, 90.569
809.747, 94.702
811.027, 29.833
812.307, 153.962
813.587, 87.048
814.867, 114.173
816.146, 238.297
817.426, 112.396
818.705, 196.455
819.984, 168.354
821.263, 165.463
822.541, 264.480
823.819, 72.360
825.098, 250.280
826.375, 195.056
827.653, 163.694
828.931, 286.657
830.208, 206.715
831.485, 339.244
832.762, 236.673
834.039, 203.082
835.315, 312.887
836.592, 251.439
837.868, 398.198
839.144, 411.217
840.420, 281.065
841.695, 558.271
842.970, 385.200
844.246, 517.616
845.521, 696.382
846.795, 427.078
848.070, 689.239
849.344, 517.260
850.618, 646.071
851.892, 711.091
853.166, 565.411
854.440, 837.707
855.713, 791.722
856.986, 1001.666
858.259, 1192.049
859.532, 1061.952
860.804, 1224.027
862.077, 1181.675
863.349, 919.644
864.621, 1035.759
865.893, 676.768
867.164, 762.909
868.436, 747.081
869.707, 455.258
870.978, 679.403
872.248, 499.590
873.519, 606.782
874.789, 618.979
876.060, 554.180
877.330, 721.387
878.599, 571.600
879.869, 662.817
881.138, 704.040
882.408, 493.273
883.677, 666.513
884.945, 618.760
886.214, 617.013
887.482, 760.272
888.751, 613.539
890.019, 765.812
891.287, 899.092
892.554, 846.378
893.822, 981.671
895.089, 977.969
896.356, 1227.275
897.623, 1340.586
898.889, 1262.905
900.156, 1678.230
901.422, 1514.562
902.688, 1571.902
903.954, 1695.248
905.220, 1378.601
906.485, 1478.962
907.750, 1258.670
909.015, 1085.045
910.280, 1094.185
911.545, 836.575
912.809, 872.972
914.074, 764.376
915.338, 600.789
916.602, 605.208
917.865, 436.035
919.129, 514.470
920.392, 409.881
921.655, 218.546
922.918, 347.004
924.181, 231.920
925.443, 236.394
926.706, 278.961
927.968, 185.651
929.230, 244.148
930.491, 214.653
931.753, 228.167
933.014, 271.688
934.276, 156.217
935.536, 224.755
936.797, 188.301
938.058, 80.855
939.318, 165.424
940.578, 117.002
941.838, 184.590
943.098, 301.194
944.358, 183.808
945.617, 327.430
946.876, 212.062
948.135, 317.702
949.394, 414.352
950.653, 286.012
951.911, 348.680
953.169, 338.358
954.427, 246.044
955.685, 346.740
956.943, 193.447
958.200, 226.163
959.458, 242.891
960.715, 199.629
961.971, 257.378
963.228, 237.147
964.485, 265.928
965.741, 464.720
966.997, 448.526
968.253, 808.346
969.508, 935.179
970.764, 1223.026
972.019, 1667.889
973.274, 1705.770
974.529, 1693.663
975.784, 1401.577
977.039, 1069.502
978.293, 925.442
979.547, 691.402
980.801, 549.377
982.055, 516.370
983.308, 379.379
984.562, 393.408
985.815, 423.463
987.068, 408.535
988.321, 385.977
989.573, 189.744
990.826, 305.875
992.078, 220.028
993.330, 178.196
994.582, 374.384
995.833, 237.589
997.085, 401.815
998.336, 649.055
999.587, 801.305
1000.838, 1005.567
1002.088, 1014.750
1003.339, 1171.125
1004.589, 1012.420
1005.839, 600.726
1007.089, 653.042
1008.339, 568.370
1009.588, 410.709
1010.838, 454.067
1012.087, 259.427
1013.336, 316.846
1014.584, 381.228
1015.833, 212.621
1017.081, 423.029
1018.330, 423.444
1019.577, 515.109
1020.825, 718.547
1022.073, 690.995
1023.320, 814.943
1024.567, 961.412
1025.814, 827.892
1027.061, 1022.382
1028.308, 893.884
1029.554, 788.396
1030.800, 731.919
1032.046, 477.453
1033.292, 478.997
1034.538, 387.552
1035.783, 199.118
1037.029, 191.694
1038.274, 83.281
1039.519, 143.879
1040.763, 117.488
1042.008, 35.893
1043.252, 121.733
1044.496, 65.630
1045.740, 48.009
1046.984, 38.660
1048.228, 26.321
1049.471, 40.992
1050.714, 71.675
1051.957, 39.632
1053.200, 120.066
1054.442, 80.225
1055.685, 24.515
1056.927, 108.203
1058.169, 106.069
1059.411, 28.656
1060.652, 10.610
1061.894, 22.866
1063.135, 91.886
1064.376, 67.648
1065.617, 119.420
1066.858, 160.204
1068.098, 33.997
1069.339, 359.800
1070.579, 174.613
1071.819, 292.437
1073.058, 443.617
1074.298, 342.466
1075.537, 623.479
1076.776, 678.024
1078.015, 621.905
1079.254, 956.007
1080.493, 902.908
1081.731, 1023.821
1082.969, 1142.827
1084.207, 882.760
1085.445, 1003.702
1086.683, 928.654
1087.920, 862.619
1089.157, 1069.593
1090.394, 897.583
1091.631, 1112.583
1092.868, 1193.965
1094.105, 1205.998
1095.341, 1546.038
1096.577, 1568.798
1097.813, 1785.869
1099.049, 2341.949
1100.284, 2353.039
1101.519, 2795.145
1102.755, 3126.260
1103.990, 3377.392
1105.224, 3760.544
1106.459, 3774.704
1107.693, 3770.883
1108.928, 3803.069
1110.162, 3459.265
1111.395, 3180.468
1112.629, 2821.680
1113.863, 2338.900
1115.096, 2321.128
1116.329, 1914.365
1117.562, 1711.608
1118.795, 1585.860
1120.027, 1329.120
1121.259, 1370.387
1122.492, 1180.662
1123.723, 909.944
1124.955, 937.234
1126.187, 714.531
1127.418, 742.835
1128.649, 731.146
1129.880, 559.464
1131.111, 645.789
1132.342, 529.121
1133.572, 383.460
1134.802, 426.806
1136.033, 227.158
1137.262, 365.517
1138.492, 223.888
1139.722, 78.264
1140.951, 170.649
1142.180, 156.046
1143.409, 1.451
1144.638, 123.870
1145.866, 3.705
1147.095, 39.727
1148.323, 72.164
1149.551, 69.392
1150.779, 36.048
1152.006, 20.505
1153.234, 2.944
1154.461, 96.399
1155.688, 38.138
1156.915, 169.326
1158.141, 148.796
1159.368, 120.271
1160.594, 296.752
1161.820, 149.239
1163.046, 187.731
1164.272, 337.229
1165.498, 281.733
1166.723, 445.242
1167.948, 522.756
1169.173, 522.275
1170.398, 789.800
1171.623, 815.330
1172.847, 802.865
1174.071, 1054.404
1175.295, 804.608
1176.519, 938.157
1177.743, 778.953
1178.966, 629.511
1180.190, 650.073
1181.413, 527.639
1182.636, 444.209
1183.858, 496.784
1185.081, 262.963
1186.303, 347.545
1187.526, 378.164
1188.748, 83.541
1189.969, 304.135
1191.191, 122.283
1192.412, 13.886
1193.634, 205.406
1194.855, 26.816
1196.076, 111.430
1197.296, 79.047
1198.517, 28.667
1199.737, 128.291
1200.957, 55.918
1202.177, 99.548
1203.397, 146.182
1204.617, 78.181
1205.836, 119.645
1207.055, 11.682
1208.274, 91.052
1209.493, 125.727
1210.712, 15.655
1211.930, 56.015
1213.148, 149.287
1214.367, 6.090
1215.584, 137.534
1216.802, 165.160
1218.020, 11.788
1219.237, 184.042
1220.454, 47.674
1221.671, 35.733
1222.888, 143.511
1224.105, 25.852
1225.321, 67.499
1226.537, 95.136
1227.753, 43.185
1228.969, 108.668
1230.185, 84.301
1231.400, 43.378
1232.616, 181.314
1233.831, 33.950
1235.046, 268.459
1236.261, 369.151
1237.475, 234.790
1238.689, 377.591
1239.904, 308.232
1241.118, 215.875
1242.332, 357.518
1243.545, 200.163
1244.759, 255.809
1245.972, 378.459
1247.185, 206.114
1248.398, 407.775
1249.611, 293.425
1250.823, 237.077
1252.036, 393.731
1253.248, 234.387
1254.460, 194.045
1255.671, 382.705
1256.883, 167.367
1258.095, 300.030
1259.306, 255.696
1260.517, 209.363
1261.728, 387.032
1262.938, 257.703
1264.149, 386.374
1265.359, 374.048
1266.569, 306.722
1267.779, 516.397
1268.989, 415.993
1270.199, 384.701
1271.408, 605.508
1272.617, 538.658
1273.826, 556.340
1275.035, 638.883
1276.244, 363.567
1277.452, 474.205
1278.661, 397.002
1279.869, 181.689
1281.077, 304.374
1282.285, 285.062
1283.492, 201.512
1284.700, 349.201
1285.907, 90.229
1287.114, 247.431
1288.321, 223.124
1289.527, 124.818
1290.734, 302.512
1291.940, 258.208
1293.146, 322.895
1294.352, 571.582
1295.558, 379.268
1296.763, 324.950
1297.969, 447.633
1299.174, 124.312
1300.379, 375.980
1301.584, 301.647
1302.788, 143.293
1303.993, 414.920
1305.197, 288.542
1306.401, 318.155
1307.605, 500.734
1308.809, 355.296
1310.013, 703.857
1311.216, 547.417
1312.419, 401.976
1313.622, 598.533
1314.825, 501.088
1316.028, 487.645
1317.230, 665.199
1318.432, 499.758
1319.634, 574.315
1320.836, 658.871
1322.038, 472.432
1323.240, 556.990
1324.441, 550.536
1325.642, 342.061
1326.843, 399.560
1328.044, 188.055
1329.245, 239.544
1330.445, 224.029
1331.645, 108.509
1332.845, 91.978
1334.045, 120.442
1335.245, 40.446
1336.445, 15.000
1337.644, 41.287
1338.843, 4.044
1340.042, 76.471
1341.241, 13.679
1342.440, 16.906
1343.638, 70.502
1344.836, 35.823
1346.034, 27.224
1347.232, 62.620
1348.430, 14.989
1349.628, 164.395
1350.825, 49.226
1352.022, 7.142
1353.219, 58.507
1354.416, 104.501
1355.613, 90.847
1356.809, 22.194
1358.005, 83.168
1359.202, 63.167
1360.398, 6.497
1361.593, 43.161
1362.789, 85.171
1363.984, 67.494
1365.179, 75.162
1366.374, 86.167
1367.569, 79.498
1368.764, 44.010
1369.958, 53.359
1371.153, 39.915
1372.347, 180.309
1373.541, 60.815
1374.735, 83.100
1375.928, 213.842
1377.122, 36.782
1378.315, 149.484
1379.508, 249.187
1380.701, 86.890
1381.893, 212.592
1383.086, 133.293
1384.278, 108.994
1385.470, 263.694
1386.662, 125.394
1387.854, 93.088
1389.046, 241.775
1390.237, 69.445
1391.428, 149.093
1392.619, 166.739
1393.810, 74.389
1395.001, 86.042
1396.191, 107.695
1397.382, 20.651
1398.572, 46.000
1399.762, 25.650
1400.952, 43.703
1402.141, 152.942
1403.331, 60.415
1404.520, 92.227
1405.709, 61.867
1406.898, 33.506
1408.087, 159.147
1409.275, 100.789
1410.464, 86.431
1411.652, 163.074
1412.840, 159.718
1414.028, 9.363
1415.215, 251.008
1416.403, 186.656
1417.590, 112.306
1418.777, 279.959
1419.964, 160.617
1421.151, 267.401
1422.338, 199.826
1423.524, 128.438
1424.710, 323.101
1425.896, 228.796
1427.082, 227.477
1428.268, 477.796
1429.453, 340.223
1430.639, 367.230
1431.824, 443.893
1433.009, 405.670
1434.194, 630.882
1435.378, 751.194
1436.563, 731.559
1437.747, 1145.890
1438.931, 1050.213
1440.115, 1293.521
1441.299, 1683.794
1442.482, 1389.093
1443.666, 1722.373
1444.849, 1729.634
1446.032, 1547.875
1447.215, 1982.095
1448.397, 2019.294
1449.580, 1767.471
1450.762, 2189.625
1451.944, 2034.465
1453.126, 2080.568
1454.308, 2418.768
1455.490, 1997.542
1456.671, 2106.977
1457.852, 2196.649
1459.033, 1834.266
1460.214, 2056.861
1461.395, 1809.332
1462.575, 1507.731
1463.756, 1742.117
1464.936, 1455.446
1466.116, 1286.723
1467.296, 1259.007
1468.475, 1061.427
1469.655, 1047.906
1470.834, 1038.688
1472.013, 741.500
1473.192, 906.270
1474.371, 699.996
1475.550, 694.674
1476.728, 701.301
1477.906, 706.875
1479.084, 549.603
1480.262, 781.646
1481.440, 598.735
1482.617, 565.899
1483.795, 676.168
1484.972, 525.542
1486.149, 515.049
1487.326, 484.702
1488.502, 369.482
1489.679, 387.411
1490.855, 325.541
1492.031, 187.939
1493.207, 236.608
1494.383, 109.590
1495.559, 34.946
1496.734, 217.751
1497.909, 37.125
1499.084, 80.208
1500.259, 60.948
1501.434, 9.140
1502.608, 26.653
1503.783, 0.000
##END=



