##NAMES=Danburite
##RRUFFID=R040013
##IDEAL CHEMISTRY=CaB_2_Si_2_O_8_
##LOCALITY=Charcas, San Luis Potosi, Mexico
##OWNER=RRUFF
##SOURCE=Marcus Origlieri
##DESCRIPTION=Colorless prismatic single crystal
##STATUS=The identification of this mineral has been confirmed by X-ray diffraction and chemical analysis
##URL=rruff.info/R040013
##MEASURED CHEMISTRY=Ca_1.00_B_2.00_Si_2.00_O_8_
##PIN_ID=M00009
##ORIENTATION=Laser parallel to b* (0 1 0). Fiducial mark perpendicular to laser is parallel to -c [0 0 -1]
103.247, 0.000
104.640, 1.021
106.032, 10.881
107.425, 121.463
108.817, 111.852
110.209, 231.151
111.601, 384.843
112.992, 581.504
114.384, 916.903
115.775, 1351.990
117.166, 1636.925
118.556, 1992.110
119.947, 3205.526
121.337, 5673.156
122.727, 8786.981
124.116, 9992.987
125.506, 7169.285
126.895, 4132.592
128.284, 2186.812
129.673, 1270.446
131.062, 831.884
132.450, 491.449
133.838, 361.132
135.226, 236.924
136.614, 222.815
138.001, 231.801
139.388, 138.881
140.775, 119.046
142.162, 56.286
143.549, 94.593
144.935, 34.960
146.321, 39.383
147.707, 2.144
149.093, 12.375
150.478, 16.938
151.863, 28.459
153.248, 4.819
154.633, 48.145
156.018, 14.562
157.402, 77.299
158.786, 306.069
160.170, 585.885
161.554, 882.745
162.937, 2198.673
164.320, 4048.618
165.703, 4759.581
167.086, 3085.559
168.469, 1489.556
169.851, 685.579
171.233, 319.673
172.615, 243.853
173.996, 172.067
175.378, 218.290
176.759, 243.519
178.140, 426.747
179.521, 775.961
180.901, 1038.168
182.281, 1085.372
183.662, 736.576
185.041, 534.781
186.421, 295.988
187.800, 296.199
189.180, 272.414
190.558, 369.633
191.937, 492.856
193.316, 425.083
194.694, 408.315
196.072, 305.552
197.450, 327.793
198.827, 448.039
200.205, 495.290
201.582, 701.545
202.959, 1079.801
204.336, 1843.052
205.712, 2893.308
207.088, 5024.569
208.465, 8489.834
209.840, 11628.104
211.216, 11776.377
212.591, 8224.655
213.967, 4885.261
215.341, 2834.625
216.716, 1747.662
218.091, 1211.939
219.465, 913.147
220.839, 760.881
222.213, 749.138
223.586, 718.410
224.960, 793.694
226.333, 829.991
227.706, 925.297
229.079, 967.617
230.451, 1138.948
231.823, 1335.292
233.195, 1756.691
234.567, 2451.181
235.939, 3382.856
237.310, 5280.849
238.682, 8219.793
240.052, 13139.998
241.423, 20930.146
242.794, 32808.840
244.164, 42327.211
245.534, 40435.570
246.904, 30173.928
248.274, 19352.291
249.643, 12100.646
251.012, 7859.002
252.381, 5367.719
253.750, 3908.578
255.118, 2692.530
256.487, 2170.547
257.855, 1607.616
259.223, 1312.726
260.590, 997.870
261.958, 841.041
263.325, 777.238
264.692, 572.455
266.059, 511.688
267.425, 378.936
268.791, 390.198
270.158, 341.472
271.523, 280.758
272.889, 239.055
274.255, 220.360
275.620, 211.674
276.985, 181.987
278.350, 183.291
279.714, 171.604
281.078, 92.924
282.443, 113.250
283.806, 51.583
285.170, 55.922
286.534, 62.266
287.897, 40.615
289.260, 91.967
290.623, 156.323
291.985, 193.683
293.348, 214.046
294.710, 252.411
296.072, 294.760
297.433, 180.129
298.795, 111.501
300.156, 76.601
301.517, 74.943
302.878, 69.746
304.239, 127.123
305.599, 157.501
306.959, 266.879
308.319, 413.258
309.679, 615.637
311.038, 695.016
312.398, 666.394
313.757, 522.771
315.116, 369.148
316.474, 214.524
317.833, 118.899
319.191, 77.273
320.549, 12.645
321.907, 12.985
323.264, 2.381
324.622, 4.255
325.979, 6.106
327.336, 26.535
328.692, 48.819
330.049, 6.170
331.405, 8.519
332.761, 32.134
334.117, 41.207
335.473, 5.546
336.828, 50.118
338.183, 94.209
339.538, 81.535
340.893, 143.809
342.247, 342.129
343.602, 597.139
344.956, 1044.819
346.310, 1479.752
347.663, 1583.268
349.017, 1227.670
350.370, 818.953
351.723, 477.732
353.076, 346.272
354.428, 163.302
355.780, 85.746
357.133, 121.677
358.484, 32.965
359.836, 5.938
361.188, 27.639
362.539, 6.396
363.890, 5.053
365.241, 1.767
366.591, 8.519
367.942, 10.228
369.292, 34.621
370.642, 12.312
371.992, 31.047
373.341, 32.737
374.691, 21.546
376.040, 43.153
377.388, 9.342
378.737, 3.584
380.086, 36.728
381.434, 23.442
382.782, 70.670
384.130, 47.800
385.477, 49.463
386.825, 71.619
388.172, 38.867
389.519, 104.088
390.865, 109.548
392.212, 143.753
393.558, 161.051
394.904, 163.109
396.250, 183.227
397.596, 194.274
398.941, 205.335
400.286, 211.434
401.631, 227.473
402.976, 264.614
404.321, 295.195
405.665, 403.670
407.009, 412.691
408.353, 468.707
409.697, 593.719
411.040, 659.725
412.384, 868.725
413.727, 1043.720
415.070, 1355.710
416.412, 1668.695
417.755, 2266.674
419.097, 2914.649
420.439, 3940.618
421.781, 4982.582
423.122, 5807.540
424.464, 5733.492
425.805, 5004.438
427.146, 3632.378
428.486, 2596.312
429.827, 1819.239
431.167, 1309.162
432.507, 1137.078
433.847, 1186.987
435.187, 1622.890
436.526, 2396.791
437.865, 3830.684
439.204, 5432.570
440.543, 6389.453
441.882, 5931.328
443.220, 4356.197
444.558, 3008.058
445.896, 1995.915
447.234, 1400.764
448.572, 994.610
449.909, 774.448
451.246, 529.280
452.583, 425.105
453.919, 369.927
455.256, 343.742
456.592, 312.550
457.928, 264.351
459.264, 236.041
460.600, 253.931
461.935, 167.710
463.270, 196.481
464.605, 175.246
465.940, 114.003
467.274, 142.509
468.609, 59.251
469.943, 97.923
471.277, 104.650
472.610, 120.791
473.944, 132.503
475.277, 67.207
476.610, 185.904
477.943, 183.865
479.275, 147.547
480.608, 100.221
481.940, 93.725
483.272, 89.385
484.604, 21.963
485.935, 88.672
487.267, 10.701
488.598, 3.913
489.929, 7.485
491.260, 15.103
492.590, 29.682
493.920, 22.748
495.250, 1.195
496.580, 12.346
497.910, 12.123
499.239, 21.393
500.569, 8.101
501.898, 23.608
503.226, 10.133
504.555, 1.294
505.883, 44.257
507.212, 3.128
508.540, 14.513
509.867, 73.312
511.195, 23.990
512.522, 3.937
513.849, 31.279
515.176, 36.129
516.503, 29.531
517.829, 55.881
519.156, 13.480
520.482, 9.437
521.808, 7.590
523.133, 18.372
524.459, 6.358
525.784, 29.886
527.109, 62.135
528.434, 5.622
529.758, 36.610
531.083, 17.837
532.407, 20.055
533.731, 1.268
535.055, 20.474
536.378, 10.670
537.701, 63.862
539.025, 34.046
540.348, 72.223
541.670, 44.396
542.993, 35.561
544.315, 67.723
545.637, 24.878
546.959, 76.031
548.281, 64.178
549.602, 66.317
550.923, 104.450
552.244, 90.576
553.565, 81.695
554.886, 116.810
556.206, 152.953
557.526, 126.054
558.846, 142.148
560.166, 188.250
561.486, 143.772
562.805, 186.966
564.124, 168.032
565.443, 144.091
566.762, 157.144
568.080, 227.189
569.399, 194.228
570.717, 278.298
572.035, 304.323
573.352, 274.624
574.670, 324.635
575.987, 325.639
577.304, 366.636
578.621, 410.339
579.938, 488.331
581.254, 502.307
582.570, 646.645
583.886, 705.608
585.202, 670.564
586.518, 793.517
587.833, 964.468
589.148, 975.404
590.463, 1181.333
591.778, 1294.255
593.093, 1583.188
594.407, 1810.097
595.721, 2116.018
597.035, 2584.913
598.349, 3208.837
599.662, 4153.719
600.976, 5343.595
602.289, 7144.463
603.602, 10061.326
604.914, 14348.181
606.227, 20595.029
607.539, 27771.875
608.851, 32588.707
610.163, 32405.537
611.475, 26992.363
612.786, 20689.184
614.097, 15185.994
615.408, 10862.802
616.719, 8369.605
618.030, 6506.400
619.340, 5436.191
620.651, 4959.978
621.961, 5011.759
623.270, 5919.534
624.580, 7150.308
625.889, 9107.074
627.199, 9842.885
628.507, 8789.642
629.816, 7295.698
631.125, 5294.075
632.433, 3978.191
633.741, 3061.716
635.049, 2303.345
636.357, 1976.085
637.664, 1631.319
638.972, 1473.783
640.279, 1260.750
641.586, 1286.292
642.893, 1127.340
644.199, 1046.020
645.505, 1009.007
646.811, 832.255
648.117, 778.437
649.423, 806.707
650.728, 692.570
652.034, 625.063
653.339, 570.698
654.644, 503.019
655.948, 486.857
657.253, 438.441
658.557, 405.088
659.861, 312.741
661.165, 307.183
662.468, 260.198
663.772, 215.257
665.075, 228.165
666.378, 201.248
667.681, 184.806
668.983, 163.508
670.286, 187.001
671.588, 177.111
672.890, 174.577
674.192, 169.728
675.493, 192.569
676.795, 146.049
678.096, 131.147
679.397, 87.755
680.697, 123.452
681.998, 75.499
683.298, 105.080
684.598, 127.501
685.898, 54.090
687.198, 90.776
688.498, 89.404
689.797, 49.006
691.096, 79.654
692.395, 28.225
693.694, 94.792
694.992, 88.950
696.290, 16.510
697.589, 51.066
698.886, 58.624
700.184, 20.173
701.482, 10.281
702.779, 3.910
704.076, 39.791
705.373, 31.321
706.669, 44.848
707.966, 81.372
709.262, 55.892
710.558, 12.410
711.854, 23.924
713.150, 4.565
714.445, 21.939
715.740, 22.441
717.035, 72.940
718.330, 23.563
719.625, 16.924
720.919, 51.407
722.214, 9.113
723.508, 55.362
724.801, 37.833
726.095, 16.302
727.388, 14.768
728.682, 33.232
729.975, 108.693
731.267, 21.151
732.560, 11.608
733.852, 101.061
735.145, 38.488
736.437, 33.951
737.728, 6.388
739.020, 59.822
740.311, 83.255
741.603, 12.685
742.894, 83.112
744.184, 38.538
745.475, 93.961
746.765, 108.383
748.055, 26.803
749.345, 82.221
750.635, 113.637
751.925, 102.052
753.214, 167.465
754.503, 72.875
755.792, 128.285
757.081, 143.692
758.370, 68.099
759.658, 133.503
760.946, 130.906
762.234, 249.307
763.522, 247.708
764.809, 270.107
766.097, 344.504
767.384, 400.905
768.671, 541.304
769.958, 680.706
771.244, 707.109
772.530, 917.513
773.817, 718.917
775.102, 728.321
776.388, 608.728
777.674, 381.137
778.959, 323.546
780.244, 231.958
781.529, 175.370
782.814, 110.784
784.098, 82.203
785.383, 67.624
786.667, 38.046
787.951, 11.475
789.235, 25.906
790.518, 19.339
791.801, 11.783
793.084, 2.769
794.367, 13.321
795.650, 11.125
796.933, 5.429
798.215, 53.015
799.497, 28.459
800.779, 13.904
802.061, 67.352
803.342, 20.198
804.624, 35.249
805.905, 32.698
807.186, 4.852
808.466, 20.404
809.747, 25.957
811.027, 23.484
812.307, 32.073
813.587, 29.637
814.867, 21.796
816.146, 34.771
817.426, 29.656
818.705, 10.917
819.984, 23.491
821.263, 30.931
822.541, 42.646
823.819, 50.768
825.098, 56.818
826.375, 4.414
827.653, 2.011
828.931, 6.607
830.208, 2.796
831.485, 2.200
832.762, 31.396
834.039, 43.003
835.315, 21.367
836.592, 0.768
837.868, 49.169
839.144, 74.556
840.420, 81.518
841.695, 45.800
842.970, 32.204
844.246, 102.610
845.521, 116.017
846.795, 165.425
848.070, 159.834
849.344, 165.402
850.618, 148.616
851.892, 161.746
853.166, 163.160
854.440, 190.576
855.713, 164.992
856.986, 254.698
858.259, 241.109
859.532, 253.531
860.804, 375.586
862.077, 251.011
863.349, 279.438
864.621, 269.863
865.893, 199.283
867.164, 230.716
868.436, 224.149
869.707, 279.585
870.978, 261.006
872.248, 257.445
873.519, 253.868
874.789, 229.312
876.060, 233.723
877.330, 214.171
878.599, 207.622
879.869, 229.590
881.138, 262.529
882.408, 272.987
883.677, 307.160
884.945, 382.910
886.214, 382.375
887.482, 445.842
888.751, 520.312
890.019, 555.786
891.287, 589.261
892.554, 710.740
893.822, 752.221
895.089, 869.708
896.356, 1080.198
897.623, 1199.692
898.889, 1257.188
900.156, 1427.688
901.422, 1413.190
902.688, 1436.695
903.954, 1369.203
905.220, 1276.715
906.485, 1121.229
907.750, 940.746
909.015, 824.267
910.280, 697.791
911.545, 638.317
912.809, 515.847
914.074, 482.380
915.338, 436.917
916.602, 407.457
917.865, 336.999
919.129, 313.545
920.392, 272.094
921.655, 211.647
922.918, 240.203
924.181, 170.762
925.443, 202.326
926.706, 158.893
927.968, 131.465
929.230, 97.041
930.491, 95.571
931.753, 119.877
933.014, 112.463
934.276, 54.961
935.536, 37.554
936.797, 91.150
938.058, 53.750
939.318, 122.354
940.578, 68.546
941.838, 35.158
943.098, 55.774
944.358, 68.329
945.617, 65.546
946.876, 44.641
948.135, 101.271
949.394, 124.238
950.653, 76.269
951.911, 100.910
953.169, 59.837
954.427, 96.486
955.685, 165.983
956.943, 114.194
958.200, 108.856
959.458, 130.638
960.715, 203.309
961.971, 202.777
963.228, 205.411
964.485, 391.072
965.741, 500.687
966.997, 638.381
968.253, 981.079
969.508, 1358.188
970.764, 1885.896
972.019, 2131.608
973.274, 2162.321
974.529, 2084.042
975.784, 1514.769
977.039, 1212.503
978.293, 996.242
979.547, 786.986
980.801, 645.735
982.055, 517.489
983.308, 488.248
984.562, 393.011
985.815, 352.780
987.068, 305.553
988.321, 291.643
989.573, 343.118
990.826, 306.908
992.078, 354.703
993.330, 376.506
994.582, 364.314
995.833, 392.739
997.085, 403.947
998.336, 446.773
999.587, 507.604
1000.838, 485.281
1002.088, 487.281
1003.339, 451.127
1004.589, 399.978
1005.839, 363.834
1007.089, 403.696
1008.339, 298.562
1009.588, 256.438
1010.838, 218.318
1012.087, 117.204
1013.336, 152.095
1014.584, 92.994
1015.833, 86.900
1017.081, 199.816
1018.330, 139.742
1019.577, 121.671
1020.825, 149.606
1022.073, 116.546
1023.320, 194.497
1024.567, 149.452
1025.814, 94.432
1027.061, 170.397
1028.308, 70.368
1029.554, 106.892
1030.800, 76.872
1032.046, 50.000
1033.292, 126.990
1034.538, 62.984
1035.783, 136.984
1037.029, 109.988
1038.274, 206.998
1039.519, 225.013
1040.763, 187.031
1042.008, 193.055
1043.252, 199.084
1044.496, 59.118
1045.740, 85.157
1046.984, 70.202
1048.228, 99.251
1049.471, 89.308
1050.714, 88.901
1051.957, 89.434
1053.200, 74.504
1054.442, 63.579
1055.685, 41.658
1056.927, 81.741
1058.169, 24.829
1059.411, 116.149
1060.652, 59.246
1061.894, 127.680
1063.135, 38.785
1064.376, 29.894
1065.617, 156.110
1066.858, 129.230
1068.098, 153.354
1069.339, 181.484
1070.579, 89.620
1071.819, 214.760
1073.058, 174.908
1074.298, 205.062
1075.537, 284.471
1076.776, 271.640
1078.015, 344.813
1079.254, 338.992
1080.493, 386.181
1081.731, 410.378
1082.969, 484.584
1084.207, 500.799
1085.445, 565.797
1086.683, 626.249
1087.920, 685.484
1089.157, 767.756
1090.394, 833.011
1091.631, 1008.273
1092.868, 1125.542
1094.105, 1303.825
1095.341, 1501.113
1096.577, 1708.419
1097.813, 1995.726
1099.049, 2292.036
1100.284, 2581.356
1101.519, 2997.681
1102.755, 3180.014
1103.990, 3519.357
1105.224, 3695.704
1106.459, 3730.054
1107.693, 3715.407
1108.928, 3446.763
1110.162, 3218.126
1111.395, 2879.492
1112.629, 2508.860
1113.863, 2300.233
1115.096, 2048.647
1116.329, 1705.025
1117.562, 1573.407
1118.795, 1309.790
1120.027, 1173.177
1121.259, 1155.566
1122.492, 968.957
1123.723, 882.351
1124.955, 779.748
1126.187, 708.147
1127.418, 714.549
1128.649, 554.071
1129.880, 532.479
1131.111, 529.890
1132.342, 434.477
1133.572, 403.891
1134.802, 355.308
1136.033, 263.728
1137.262, 238.985
1138.492, 229.572
1139.722, 160.998
1140.951, 147.424
1142.180, 130.854
1143.409, 145.286
1144.638, 159.719
1145.866, 67.209
1147.095, 103.015
1148.323, 71.249
1149.551, 123.579
1150.779, 99.840
1152.006, 16.288
1153.234, 62.731
1154.461, 61.175
1155.688, 65.882
1156.915, 63.328
1158.141, 2.209
1159.368, 39.237
1160.594, 79.686
1161.820, 33.867
1163.046, 51.576
1164.272, 14.980
1165.498, 20.505
1166.723, 44.947
1167.948, 32.507
1169.173, 107.997
1170.398, 62.440
1171.623, 22.882
1172.847, 109.330
1174.071, 121.772
1175.295, 9.374
1176.519, 103.815
1177.743, 38.571
1178.966, 96.010
1180.190, 66.448
1181.413, 67.467
1182.636, 87.904
1183.858, 46.339
1185.081, 22.774
1186.303, 54.207
1187.526, 65.639
1188.748, 37.069
1189.969, 71.499
1191.191, 15.073
1192.412, 43.350
1193.634, 19.228
1194.855, 42.189
1196.076, 51.604
1197.296, 7.982
1198.517, 10.446
1199.737, 39.854
1200.957, 47.527
1202.177, 73.271
1203.397, 3.672
1204.617, 55.071
1205.836, 51.509
1207.055, 13.096
1208.274, 20.606
1209.493, 39.042
1210.712, 22.650
1211.930, 83.982
1213.148, 33.655
1214.367, 76.122
1215.584, 94.860
1216.802, 61.364
1218.020, 12.042
1219.237, 74.559
1220.454, 2.988
1221.671, 57.744
1222.888, 72.239
1224.105, 60.317
1225.321, 94.173
1226.537, 68.886
1227.753, 14.201
1228.969, 44.599
1230.185, 22.000
1231.400, 39.388
1232.616, 73.147
1233.831, 39.588
1235.046, 62.832
1236.261, 70.183
1237.475, 105.479
1238.689, 133.771
1239.904, 88.058
1241.118, 115.263
1242.332, 63.541
1243.545, 43.873
1244.759, 134.294
1245.972, 17.556
1247.185, 101.812
1248.398, 147.327
1249.611, 79.578
1250.823, 142.827
1252.036, 75.073
1253.248, 44.317
1254.460, 102.702
1255.671, 78.943
1256.883, 50.283
1258.095, 82.515
1259.306, 8.009
1260.517, 63.345
1261.728, 135.641
1262.938, 3.857
1264.149, 127.069
1265.359, 116.264
1266.569, 103.803
1267.779, 95.984
1268.989, 53.161
1270.199, 90.334
1271.408, 149.503
1272.617, 115.957
1273.826, 85.118
1275.035, 54.305
1276.244, 24.625
1277.452, 3.040
1278.661, 21.255
1279.869, 25.127
1281.077, 21.984
1282.285, 37.407
1283.492, 55.514
1284.700, 39.616
1285.907, 40.286
1287.114, 94.802
1288.321, 36.885
1289.527, 41.942
1290.734, 86.012
1291.940, 71.070
1293.146, 113.565
1294.352, 88.602
1295.558, 32.480
1296.763, 59.486
1297.969, 17.483
1299.174, 32.473
1300.379, 55.437
1301.584, 43.377
1302.788, 42.308
1303.993, 46.223
1305.197, 14.119
1306.401, 133.989
1307.605, 2.853
1308.809, 95.708
1310.013, 112.547
1311.216, 8.623
1312.419, 99.198
1313.622, 112.008
1314.825, 76.811
1316.028, 133.604
1317.230, 135.389
1318.432, 104.161
1319.634, 139.924
1320.836, 118.677
1322.038, 84.190
1323.240, 118.923
1324.441, 88.312
1325.642, 111.023
1326.843, 65.723
1328.044, 43.312
1329.245, 78.991
1330.445, 7.658
1331.645, 3.312
1332.845, 58.953
1334.045, 25.417
1335.245, 39.197
1336.445, 54.799
1337.644, 38.860
1338.843, 37.713
1340.042, 11.276
1341.241, 23.173
1342.440, 6.365
1343.638, 29.110
1344.836, 2.402
1346.034, 20.901
1347.232, 5.390
1348.430, 18.868
1349.628, 33.335
1350.825, 85.240
1352.022, 20.196
1353.219, 13.379
1354.416, 46.966
1355.613, 10.430
1356.809, 24.817
1358.005, 27.815
1359.202, 32.548
1360.398, 40.097
1361.593, 19.243
1362.789, 30.426
1363.984, 22.104
1365.179, 38.203
1366.374, 51.503
1367.569, 53.804
1368.764, 67.092
1369.958, 21.374
1371.153, 94.901
1372.347, 36.173
1373.541, 19.392
1374.735, 66.574
1375.928, 96.690
1377.122, 9.565
1378.315, 59.431
1379.508, 67.288
1380.701, 57.135
1381.893, 76.974
1383.086, 21.676
1384.278, 49.304
1385.470, 27.646
1386.662, 51.901
1387.854, 10.684
1389.046, 27.457
1390.237, 35.219
1391.428, 100.487
1392.619, 48.284
1393.810, 70.029
1395.001, 4.714
1396.191, 50.889
1397.382, 54.518
1398.572, 84.155
1399.762, 50.789
1400.952, 8.362
1402.141, 87.771
1403.331, 43.376
1404.520, 101.965
1405.709, 95.342
1406.898, 73.504
1408.087, 89.293
1409.275, 44.841
1410.464, 9.382
1411.652, 141.915
1412.840, 74.442
1414.028, 133.966
1415.215, 136.488
1416.403, 120.980
1417.590, 119.097
1418.777, 87.090
1419.964, 120.994
1421.151, 165.428
1422.338, 155.434
1423.524, 126.872
1424.710, 148.903
1425.896, 112.517
1427.082, 50.471
1428.268, 123.482
1429.453, 108.871
1430.639, 152.429
1431.824, 125.559
1433.009, 156.954
1434.194, 245.224
1435.378, 188.124
1436.563, 290.104
1437.747, 280.282
1438.931, 286.779
1440.115, 361.679
1441.299, 449.013
1442.482, 378.831
1443.666, 431.300
1444.849, 428.793
1446.032, 374.886
1447.215, 462.091
1448.397, 385.667
1449.580, 504.436
1450.762, 526.993
1451.944, 489.500
1453.126, 486.226
1454.308, 519.531
1455.490, 435.863
1456.671, 422.094
1457.852, 449.538
1459.033, 454.673
1460.214, 428.731
1461.395, 381.725
1462.575, 379.715
1463.756, 329.691
1464.936, 354.697
1466.116, 362.710
1467.296, 294.852
1468.475, 247.051
1469.655, 232.375
1470.834, 256.683
1472.013, 210.994
1473.192, 217.283
1474.371, 136.548
1475.550, 231.816
1476.728, 152.084
1477.906, 154.343
1479.084, 169.620
1480.262, 219.895
1481.440, 127.219
1482.617, 155.572
1483.795, 170.968
1484.972, 97.415
1486.149, 65.902
1487.326, 31.416
1488.502, 123.960
1489.679, 120.546
1490.855, 10.187
1492.031, 124.898
1493.207, 56.691
1494.383, 9.574
1495.559, 51.559
1496.734, 6.324
1497.909, 51.876
1499.084, 28.149
1500.259, 18.039
1501.434, 6.817
1502.608, 0.000
##END=



