##NAMES=Danburite
##RRUFFID=R040013
##IDEAL CHEMISTRY=CaB_2_Si_2_O_8_
##LOCALITY=Charcas, San Luis Potosi, Mexico
##OWNER=RRUFF
##SOURCE=Marcus Origlieri
##DESCRIPTION=Colorless prismatic single crystal
##STATUS=The identification of this mineral has been confirmed by X-ray diffraction and chemical analysis
##URL=rruff.info/R040013
##MEASURED CHEMISTRY=Ca_1.00_B_2.00_Si_2.00_O_8_
##PIN_ID=M00012
##ORIENTATION=Laser parallel to c* (0 0 1). Fiducial mark perpendicular to laser is parallel to a [1 0 0]
104.640, 0.000
106.032, 4.920
107.425, 74.589
108.817, 157.013
110.209, 402.702
111.601, 849.281
112.992, 545.012
114.384, 581.043
115.775, 1454.874
117.166, 2441.763
118.556, 1744.439
119.947, 1717.725
121.337, 3095.082
122.727, 5194.860
124.116, 7853.519
125.506, 8249.938
126.895, 9231.851
128.284, 11723.312
129.673, 12049.063
131.062, 9158.290
132.450, 5145.938
133.838, 2944.473
135.226, 1669.699
136.614, 1247.337
138.001, 1107.725
139.388, 948.586
140.775, 774.094
142.162, 348.888
143.549, 203.785
144.935, 70.309
146.321, 20.601
147.707, 8.175
149.093, 62.156
150.478, 10.576
151.863, 69.909
153.248, 65.126
154.633, 3.312
156.018, 85.348
157.402, 177.246
158.786, 484.016
160.170, 1457.664
161.554, 2251.326
162.937, 4905.783
164.320, 10100.935
165.703, 13888.382
167.086, 11480.627
168.469, 5999.087
169.851, 2955.461
171.233, 1347.192
172.615, 685.889
173.996, 236.574
175.378, 57.258
176.759, 16.931
178.140, 5.577
179.521, 79.214
180.901, 98.908
182.281, 129.652
183.662, 72.439
185.041, 94.265
186.421, 113.122
187.800, 180.057
189.180, 421.019
190.558, 548.934
191.937, 547.853
193.316, 368.772
194.694, 102.781
196.072, 56.894
197.450, 39.799
198.827, 22.016
200.205, 75.135
201.582, 17.737
202.959, 101.471
204.336, 243.873
205.712, 429.271
207.088, 631.678
208.465, 1058.078
209.840, 1516.462
211.216, 1794.826
212.591, 1436.169
213.967, 910.492
215.341, 524.780
216.716, 212.026
218.091, 77.244
219.465, 37.565
220.839, 6.398
222.213, 4.249
223.586, 96.120
224.960, 44.017
226.333, 108.974
227.706, 5.002
229.079, 67.059
230.451, 43.132
231.823, 17.782
233.195, 13.314
234.567, 169.582
235.939, 244.465
237.310, 412.301
238.682, 848.097
240.052, 1406.154
241.423, 2429.664
242.794, 4117.163
244.164, 6131.932
245.534, 6801.607
246.904, 5921.974
248.274, 4302.073
249.643, 2752.939
251.012, 1925.816
252.381, 1298.508
253.750, 988.990
255.118, 696.157
256.487, 530.331
257.855, 523.393
259.223, 363.426
260.590, 384.412
261.958, 247.346
263.325, 215.224
264.692, 185.037
266.059, 171.770
267.425, 178.427
268.791, 165.014
270.158, 204.537
271.523, 164.998
272.889, 209.396
274.255, 273.713
275.620, 371.875
276.985, 564.883
278.350, 531.812
279.714, 430.696
281.078, 277.540
282.443, 166.346
283.806, 50.109
285.170, 30.174
286.534, 0.509
287.897, 45.892
289.260, 21.353
290.623, 27.886
291.985, 30.470
293.348, 3.748
294.710, 18.597
296.072, 80.914
297.433, 76.935
298.795, 131.103
300.156, 243.727
301.517, 289.799
302.878, 510.356
304.239, 649.592
305.599, 1020.625
306.959, 1478.169
308.319, 2239.671
309.679, 3101.737
311.038, 3644.573
312.398, 4050.370
313.757, 3440.043
315.116, 2594.652
316.474, 1840.212
317.833, 1201.741
319.191, 864.257
320.549, 594.760
321.907, 492.250
323.264, 365.188
324.622, 293.683
325.979, 260.979
327.336, 255.024
328.692, 285.150
330.049, 227.404
331.405, 312.379
332.761, 362.442
334.117, 383.578
335.473, 603.932
336.828, 674.270
338.183, 958.593
339.538, 1330.902
340.893, 2168.195
342.247, 3512.188
343.602, 5653.881
344.956, 9384.852
346.310, 13603.165
347.663, 16700.213
349.017, 15279.302
350.370, 11029.052
351.723, 7490.121
353.076, 4768.333
354.428, 3106.612
355.780, 2095.953
357.133, 1494.299
358.484, 1063.744
359.836, 802.233
361.188, 677.523
362.539, 511.345
363.890, 463.527
365.241, 316.367
366.591, 279.378
367.942, 256.231
369.292, 149.939
370.642, 180.756
371.992, 123.129
373.341, 103.539
374.691, 73.341
376.040, 43.697
377.388, 58.472
378.737, 40.560
380.086, 34.265
381.434, 16.306
382.782, 27.378
384.130, 28.231
385.477, 34.363
386.825, 64.311
388.172, 43.465
389.519, 104.502
390.865, 126.371
392.212, 65.796
393.558, 113.527
394.904, 71.432
396.250, 97.271
397.596, 121.923
398.941, 72.498
400.286, 65.061
401.631, 112.774
402.976, 143.299
404.321, 135.797
405.665, 169.452
407.009, 164.880
408.353, 193.209
409.697, 167.619
411.040, 166.007
412.384, 180.374
413.727, 226.721
415.070, 295.018
416.412, 400.326
417.755, 520.583
419.097, 770.856
420.439, 1032.114
421.781, 1406.358
423.122, 1766.585
424.464, 1916.802
425.805, 1889.007
427.146, 1529.195
428.486, 1083.333
429.827, 755.871
431.167, 487.069
432.507, 325.943
433.847, 203.752
435.187, 184.119
436.526, 139.318
437.865, 115.446
439.204, 180.353
440.543, 223.479
441.882, 256.107
443.220, 170.723
444.558, 127.586
445.896, 48.645
447.234, 23.688
448.572, 20.719
449.909, 17.268
451.246, 3.721
452.583, 5.689
453.919, 77.637
455.256, 117.571
456.592, 104.491
457.928, 188.400
459.264, 199.296
460.600, 235.177
461.935, 283.047
463.270, 225.903
464.605, 290.747
465.940, 254.577
467.274, 274.395
468.609, 349.201
469.943, 361.000
471.277, 538.791
472.610, 744.569
473.944, 1219.337
475.277, 2017.093
476.610, 3370.838
477.943, 5594.575
479.275, 7145.300
480.608, 7464.012
481.940, 5755.711
483.272, 3628.397
484.604, 2255.069
485.935, 1358.729
487.267, 906.377
488.598, 578.014
489.929, 348.650
491.260, 256.281
492.590, 198.915
493.920, 104.540
495.250, 105.155
496.580, 66.758
497.910, 49.346
499.239, 32.920
500.569, 28.478
501.898, 10.021
503.226, 3.547
504.555, 31.055
505.883, 13.451
507.212, 48.022
508.540, 24.480
509.867, 44.925
511.195, 17.365
512.522, 56.797
513.849, 8.209
515.176, 11.367
516.503, 19.930
517.829, 23.152
519.156, 21.228
520.482, 48.175
521.808, 45.193
523.133, 3.122
524.459, 37.014
525.784, 26.727
527.109, 70.530
528.434, 10.331
529.758, 43.174
531.083, 4.144
532.407, 16.005
533.731, 48.137
535.055, 11.641
536.378, 70.279
537.701, 29.411
539.025, 40.333
540.348, 77.364
541.670, 21.501
542.993, 94.381
544.315, 51.024
545.637, 86.187
546.959, 102.516
548.281, 74.642
549.602, 116.757
550.923, 102.069
552.244, 161.430
553.565, 129.673
554.886, 216.939
556.206, 283.189
557.526, 338.507
558.846, 545.935
560.166, 844.549
561.486, 1224.380
562.805, 1491.221
564.124, 1300.583
565.443, 1082.000
566.762, 789.521
568.080, 670.772
569.399, 674.128
570.717, 502.401
572.035, 593.500
573.352, 563.590
574.670, 547.421
575.987, 634.783
577.304, 612.750
578.621, 758.690
579.938, 774.862
581.254, 881.183
582.570, 954.583
583.886, 1006.210
585.202, 1210.993
586.518, 1307.675
587.833, 1456.838
589.148, 1598.430
590.463, 1750.453
591.778, 1997.900
593.093, 2188.737
594.407, 2651.949
595.721, 3049.158
597.035, 3613.191
598.349, 4544.046
599.662, 5521.379
600.976, 7219.147
602.289, 9160.875
603.602, 12548.758
604.914, 18046.496
606.227, 24974.270
607.539, 35752.020
608.851, 44229.688
610.163, 47387.340
611.475, 44344.992
612.786, 35792.621
614.097, 27640.246
615.408, 19927.857
616.719, 14705.640
618.030, 11313.252
619.340, 8581.553
620.651, 7267.121
621.961, 6042.677
623.270, 5522.291
624.580, 5367.824
625.889, 5336.348
627.199, 5608.859
628.507, 5132.360
629.816, 4585.850
631.125, 3947.329
632.433, 3144.796
633.741, 2745.253
635.049, 2258.699
636.357, 2025.134
637.664, 1854.559
638.972, 1665.814
640.279, 1691.979
641.586, 1520.060
642.893, 1518.111
644.199, 1579.040
645.505, 1534.900
646.811, 1477.936
648.117, 1252.417
649.423, 1297.516
650.728, 1255.496
652.034, 1126.563
653.339, 1177.494
654.644, 911.599
655.948, 896.440
657.253, 751.917
658.557, 637.826
659.861, 551.743
661.165, 447.644
662.468, 437.665
663.772, 347.665
665.075, 334.412
666.378, 303.362
667.681, 253.260
668.983, 249.355
670.286, 254.150
671.588, 161.107
672.890, 184.589
674.192, 132.408
675.493, 153.369
676.795, 168.749
678.096, 67.799
679.397, 119.652
680.697, 85.550
681.998, 69.613
683.298, 57.733
684.598, 19.170
685.898, 28.742
687.198, 11.810
688.498, 72.873
689.797, 75.871
691.096, 7.916
692.395, 2.950
693.694, 14.973
694.992, 7.985
696.290, 7.987
697.589, 1.979
698.886, 3.458
700.184, 12.072
701.482, 22.118
702.779, 23.180
704.076, 46.259
705.373, 6.359
706.669, 54.471
707.966, 43.606
709.262, 5.762
710.558, 45.930
711.854, 39.118
713.150, 82.325
714.445, 28.561
715.740, 51.813
717.035, 35.087
718.330, 29.621
719.625, 44.678
720.919, 8.998
722.214, 12.329
723.508, 65.674
724.801, 30.042
726.095, 26.426
727.388, 4.826
728.682, 18.764
729.975, 18.652
731.267, 14.920
732.560, 9.487
733.852, 26.051
735.145, 34.611
736.437, 11.832
737.728, 5.713
739.020, 20.748
740.311, 17.778
741.603, 36.297
742.894, 2.190
744.184, 14.315
745.475, 3.813
746.765, 6.305
748.055, 19.791
749.345, 63.270
750.635, 46.743
751.925, 36.211
753.214, 52.674
754.503, 17.132
755.792, 5.416
757.081, 9.028
758.370, 29.532
759.658, 16.894
760.946, 62.316
762.234, 0.267
763.522, 98.145
764.809, 44.552
766.097, 107.954
767.384, 95.352
768.671, 60.745
769.958, 157.134
771.244, 157.521
772.530, 228.904
773.817, 218.282
775.102, 146.657
776.388, 164.029
777.674, 99.396
778.959, 54.761
780.244, 127.123
781.529, 93.484
782.814, 56.843
784.098, 81.202
785.383, 63.559
786.667, 80.915
787.951, 95.272
789.235, 142.627
790.518, 185.981
791.801, 95.335
793.084, 161.687
794.367, 113.037
795.650, 130.388
796.933, 121.739
798.215, 65.090
799.497, 133.440
800.779, 64.790
802.061, 101.138
803.342, 71.486
804.624, 30.834
805.905, 71.181
807.186, 25.528
808.466, 62.875
809.747, 59.221
811.027, 43.433
812.307, 76.906
813.587, 16.245
814.867, 54.584
816.146, 82.925
817.426, 24.266
818.705, 104.607
819.984, 61.948
821.263, 42.289
822.541, 73.634
823.819, 50.174
825.098, 139.403
826.375, 98.556
827.653, 62.900
828.931, 178.244
830.208, 94.379
831.485, 125.453
832.762, 153.634
834.039, 103.781
835.315, 179.933
836.592, 108.006
837.868, 143.958
839.144, 233.715
840.420, 182.242
841.695, 343.751
842.970, 279.729
844.246, 317.641
845.521, 420.439
846.795, 284.497
848.070, 430.442
849.344, 348.459
850.618, 360.643
851.892, 523.828
853.166, 427.272
854.440, 562.184
855.713, 564.492
856.986, 635.827
858.259, 858.930
859.532, 762.873
860.804, 817.747
862.077, 854.390
863.349, 667.871
864.621, 702.447
865.893, 442.536
867.164, 451.877
868.436, 515.665
869.707, 318.004
870.978, 397.326
872.248, 371.733
873.519, 372.156
874.789, 390.157
876.060, 307.497
877.330, 443.317
878.599, 341.740
879.869, 342.199
881.138, 364.495
882.408, 331.933
883.677, 371.332
884.945, 316.756
886.214, 320.255
887.482, 430.759
888.751, 340.272
890.019, 331.791
891.287, 478.316
892.554, 407.848
893.822, 532.205
895.089, 502.726
896.356, 592.552
897.623, 705.108
898.889, 648.669
900.156, 909.168
901.422, 901.742
902.688, 933.323
903.954, 1098.910
905.220, 960.503
906.485, 1103.104
907.750, 1136.118
909.015, 1160.732
910.280, 1300.353
911.545, 1249.027
912.809, 1404.661
914.074, 1521.303
915.338, 1433.951
916.602, 1658.607
917.865, 1456.442
919.129, 1346.112
920.392, 1209.838
921.655, 907.523
922.918, 871.215
924.181, 758.943
925.443, 665.650
926.706, 684.365
927.968, 580.247
929.230, 688.976
930.491, 699.714
931.753, 575.459
933.014, 819.219
934.276, 751.986
935.536, 850.762
936.797, 1015.548
938.058, 978.342
939.318, 1471.147
940.578, 1590.960
941.838, 1993.784
943.098, 2552.619
944.358, 2786.462
945.617, 3474.314
946.876, 3661.174
948.135, 3983.286
949.394, 3995.162
950.653, 3473.048
951.911, 3236.941
953.169, 2696.844
954.427, 2162.755
955.685, 1933.674
956.943, 1563.603
958.200, 1449.540
959.458, 1355.486
960.715, 1281.445
961.971, 1333.413
963.228, 1383.393
964.485, 1507.382
965.741, 1984.379
966.997, 2229.387
968.253, 3025.405
969.508, 3960.434
970.764, 4925.472
972.019, 6199.521
973.274, 6534.581
974.529, 6341.653
975.784, 5518.736
977.039, 4393.833
978.293, 3632.944
979.547, 2930.071
980.801, 2332.210
982.055, 2047.366
983.308, 1625.538
984.562, 1579.722
985.815, 1441.921
987.068, 1252.137
988.321, 1210.372
989.573, 1016.622
990.826, 1004.888
992.078, 1006.169
993.330, 859.460
994.582, 984.768
995.833, 965.087
997.085, 1110.419
998.336, 1353.769
999.587, 1600.133
1000.838, 1890.432
1002.088, 2498.901
1003.339, 2562.301
1004.589, 3024.714
1005.839, 3397.137
1007.089, 4300.570
1008.339, 4786.014
1009.588, 4238.467
1010.838, 3799.419
1012.087, 2764.896
1013.336, 2053.326
1014.584, 1649.980
1015.833, 1121.489
1017.081, 1050.791
1018.330, 1000.449
1019.577, 890.818
1020.825, 985.062
1022.073, 884.621
1023.320, 998.726
1024.567, 1050.551
1025.814, 942.139
1027.061, 1008.735
1028.308, 920.341
1029.554, 767.958
1030.800, 755.584
1032.046, 547.223
1033.292, 467.872
1034.538, 368.530
1035.783, 188.198
1037.029, 319.875
1038.274, 108.561
1039.519, 174.257
1040.763, 148.962
1042.008, 39.324
1043.252, 75.395
1044.496, 74.123
1045.740, 6.140
1046.984, 114.606
1048.228, 64.361
1049.471, 76.125
1050.714, 92.898
1051.957, 20.320
1053.200, 54.469
1054.442, 6.733
1055.685, 19.074
1056.927, 64.889
1058.169, 2.287
1059.411, 10.546
1060.652, 58.387
1061.894, 18.762
1063.135, 67.095
1064.376, 48.961
1065.617, 96.836
1066.858, 91.102
1068.098, 64.994
1069.339, 143.894
1070.579, 112.355
1071.819, 101.273
1073.058, 301.850
1074.298, 292.789
1075.537, 438.175
1076.776, 524.842
1078.015, 458.805
1079.254, 686.777
1080.493, 735.765
1081.731, 745.765
1082.969, 825.778
1084.207, 622.809
1085.445, 715.847
1086.683, 647.893
1087.920, 512.949
1089.157, 591.012
1090.394, 539.088
1091.631, 580.171
1092.868, 641.262
1094.105, 639.370
1095.341, 860.485
1096.577, 885.848
1097.813, 976.986
1099.049, 1213.132
1100.284, 1221.287
1101.519, 1441.458
1102.755, 1612.638
1103.990, 1655.827
1105.224, 1920.025
1106.459, 1849.230
1107.693, 1895.452
1108.928, 1930.683
1110.162, 1653.921
1111.395, 1633.168
1112.629, 1433.422
1113.863, 1119.683
1115.096, 1076.953
1116.329, 895.230
1117.562, 742.513
1118.795, 760.802
1120.027, 597.098
1121.259, 599.399
1122.492, 576.707
1123.723, 469.021
1124.955, 498.340
1126.187, 375.665
1127.418, 295.996
1128.649, 287.332
1129.880, 193.674
1131.111, 282.022
1132.342, 251.375
1133.572, 176.733
1134.802, 168.099
1136.033, 99.470
1137.262, 79.846
1138.492, 124.229
1139.722, 33.617
1140.951, 64.014
1142.180, 58.421
1143.409, 34.168
1144.638, 6.246
1145.866, 104.336
1147.095, 11.932
1148.323, 34.475
1149.551, 49.114
1150.779, 9.705
1152.006, 51.292
1153.234, 43.883
1154.461, 13.523
1155.688, 35.065
1156.915, 17.655
1158.141, 88.756
1159.368, 57.172
1160.594, 154.592
1161.820, 158.016
1163.046, 227.443
1164.272, 249.875
1165.498, 243.310
1166.723, 320.749
1167.948, 407.192
1169.173, 353.638
1170.398, 585.087
1171.623, 629.540
1172.847, 732.995
1174.071, 897.455
1175.295, 773.508
1176.519, 810.973
1177.743, 765.440
1178.966, 637.864
1180.190, 574.337
1181.413, 492.812
1182.636, 386.289
1183.858, 382.769
1185.081, 261.079
1186.303, 246.563
1187.526, 276.001
1188.748, 163.489
1189.969, 179.980
1191.191, 147.445
1192.412, 51.939
1193.634, 126.436
1194.855, 35.773
1196.076, 36.273
1197.296, 100.774
1198.517, 70.724
1199.737, 136.767
1200.957, 68.258
1202.177, 30.250
1203.397, 91.238
1204.617, 35.273
1205.836, 57.187
1207.055, 23.329
1208.274, 37.849
1209.493, 34.625
1210.712, 56.099
1211.930, 36.332
1213.148, 68.817
1214.367, 39.293
1215.584, 95.864
1216.802, 145.339
1218.020, 73.815
1219.237, 134.529
1220.454, 28.004
1221.671, 11.556
1222.888, 89.031
1224.105, 38.505
1225.321, 60.719
1226.537, 82.321
1227.753, 8.206
1228.969, 32.927
1230.185, 75.555
1231.400, 15.274
1232.616, 130.834
1233.831, 116.302
1235.046, 111.318
1236.261, 253.121
1237.475, 142.586
1238.689, 291.238
1239.904, 254.047
1241.118, 129.510
1242.332, 244.540
1243.545, 158.002
1244.759, 164.466
1245.972, 272.633
1247.185, 182.098
1248.398, 268.563
1249.611, 224.028
1250.823, 206.493
1252.036, 269.959
1253.248, 189.425
1254.460, 198.891
1255.671, 253.357
1256.883, 144.823
1258.095, 182.289
1259.306, 225.754
1260.517, 139.220
1261.728, 246.685
1262.938, 164.150
1264.149, 226.615
1265.359, 347.564
1266.569, 265.029
1267.779, 394.493
1268.989, 359.149
1270.199, 329.613
1271.408, 476.102
1272.617, 379.327
1273.826, 371.790
1275.035, 431.255
1276.244, 285.716
1277.452, 315.235
1278.661, 298.603
1279.869, 155.062
1281.077, 276.740
1282.285, 208.442
1283.492, 138.071
1284.700, 208.834
1285.907, 135.443
1287.114, 132.362
1288.321, 241.571
1289.527, 90.027
1290.734, 224.483
1291.940, 270.930
1293.146, 175.378
1294.352, 387.812
1295.558, 228.238
1296.763, 246.646
1297.969, 237.052
1299.174, 140.448
1300.379, 198.844
1301.584, 199.222
1302.788, 144.585
1303.993, 244.942
1305.197, 184.280
1306.401, 232.610
1307.605, 369.918
1308.809, 287.220
1310.013, 418.515
1311.216, 454.800
1312.419, 362.083
1313.622, 412.362
1314.825, 451.639
1316.028, 321.913
1317.230, 468.185
1318.432, 322.454
1319.634, 388.720
1320.836, 515.976
1322.038, 307.229
1323.240, 389.476
1324.441, 409.696
1325.642, 250.905
1326.843, 260.110
1328.044, 214.308
1329.245, 132.112
1330.445, 175.292
1331.645, 97.464
1332.845, 76.077
1334.045, 117.235
1335.245, 36.264
1336.445, 51.876
1337.644, 56.570
1338.843, 21.986
1340.042, 22.108
1341.241, 70.776
1342.440, 38.672
1343.638, 100.423
1344.836, 85.486
1346.034, 35.591
1347.232, 28.663
1348.430, 5.269
1349.628, 71.794
1350.825, 42.145
1352.022, 43.908
1353.219, 36.960
1354.416, 70.989
1355.613, 0.054
1356.809, 32.098
1358.005, 68.096
1359.202, 2.055
1360.398, 7.010
1361.593, 86.960
1362.789, 21.088
1363.984, 20.854
1365.179, 11.785
1366.374, 92.298
1367.569, 91.600
1368.764, 12.482
1369.958, 71.667
1371.153, 22.144
1372.347, 73.099
1373.541, 19.421
1374.735, 28.126
1375.928, 62.254
1377.122, 69.633
1378.315, 89.009
1379.508, 158.382
1380.701, 105.752
1381.893, 87.119
1383.086, 156.483
1384.278, 71.844
1385.470, 199.198
1386.662, 135.546
1387.854, 49.884
1389.046, 212.204
1390.237, 38.520
1391.428, 19.854
1392.619, 85.190
1393.810, 18.470
1395.001, 18.877
1396.191, 63.229
1397.382, 5.421
1398.572, 19.926
1399.762, 41.730
1400.952, 30.390
1402.141, 44.950
1403.331, 18.713
1404.520, 75.623
1405.709, 85.958
1406.898, 1.292
1408.087, 68.629
1409.275, 74.965
1410.464, 13.698
1411.652, 100.640
1412.840, 66.979
1414.028, 3.679
1415.215, 113.665
1416.403, 46.023
1417.590, 63.396
1418.777, 121.782
1419.964, 33.675
1421.151, 99.077
1422.338, 155.692
1423.524, 102.440
1424.710, 176.368
1425.896, 77.292
1427.082, 94.792
1428.268, 241.093
1429.453, 220.138
1430.639, 247.451
1431.824, 340.938
1433.009, 261.312
1434.194, 373.811
1435.378, 486.778
1436.563, 456.163
1437.747, 742.081
1438.931, 734.667
1440.115, 819.625
1441.299, 1072.564
1442.482, 1030.485
1443.666, 1133.387
1444.849, 1216.269
1446.032, 1088.130
1447.215, 1341.970
1448.397, 1312.642
1449.580, 1229.408
1450.762, 1509.669
1451.944, 1410.842
1453.126, 1340.125
1454.308, 1547.608
1455.490, 1355.875
1456.671, 1400.220
1457.852, 1582.525
1459.033, 1228.326
1460.214, 1318.497
1461.395, 1310.618
1462.575, 985.728
1463.756, 1038.910
1464.936, 958.117
1466.116, 808.339
1467.296, 837.667
1468.475, 632.118
1469.655, 679.724
1470.834, 672.387
1472.013, 513.056
1473.192, 530.703
1474.371, 522.328
1475.550, 481.962
1476.728, 505.626
1477.906, 445.575
1479.084, 445.616
1480.262, 517.804
1481.440, 428.136
1482.617, 394.619
1483.795, 458.275
1484.972, 324.131
1486.149, 385.195
1487.326, 341.486
1488.502, 157.062
1489.679, 186.005
1490.855, 165.371
1492.031, 98.229
1493.207, 165.688
1494.383, 139.536
1495.559, 150.074
1496.734, 156.541
1497.909, 49.793
1499.084, 27.717
1500.259, 111.095
1501.434, 0.000
##END=



