##NAMES=Danburite
##RRUFFID=R040013
##IDEAL CHEMISTRY=CaB_2_Si_2_O_8_
##LOCALITY=Charcas, San Luis Potosi, Mexico
##OWNER=RRUFF
##SOURCE=Marcus Origlieri
##DESCRIPTION=Colorless prismatic single crystal
##STATUS=The identification of this mineral has been confirmed by X-ray diffraction and chemical analysis
##URL=rruff.info/R040013
##MEASURED CHEMISTRY=Ca_1.00_B_2.00_Si_2.00_O_8_
##PIN_ID=M00009
##ORIENTATION=Laser parallel to b* (0 1 0). Fiducial mark perpendicular to laser is parallel to -c [0 0 -1]
107.425, 0.000
108.817, 27.794
110.209, 398.107
111.601, 558.875
112.992, 881.680
114.384, 1222.156
115.775, 1348.384
117.166, 1640.254
118.556, 2198.201
119.947, 3828.970
121.337, 6742.013
122.727, 9877.661
124.116, 10454.530
125.506, 7139.892
126.895, 4003.797
128.284, 2111.650
129.673, 1195.701
131.062, 689.779
132.450, 451.333
133.838, 295.676
135.226, 208.153
136.614, 205.755
138.001, 127.469
139.388, 144.285
140.775, 73.200
142.162, 22.219
143.549, 1.662
144.935, 33.454
146.321, 5.165
147.707, 26.800
149.093, 48.364
150.478, 27.863
151.863, 62.303
153.248, 35.690
154.633, 109.031
156.018, 44.335
157.402, 109.391
158.786, 352.140
160.170, 734.911
161.554, 1262.722
162.937, 2887.592
164.320, 4753.480
165.703, 5089.404
167.086, 2973.340
168.469, 1437.286
169.851, 659.242
171.233, 326.216
172.615, 264.290
173.996, 137.466
175.378, 269.736
176.759, 404.087
178.140, 745.453
179.521, 1272.812
180.901, 1838.159
182.281, 1920.501
183.662, 1292.865
185.041, 810.255
186.421, 506.668
187.800, 510.102
189.180, 656.550
190.558, 912.008
191.937, 1222.471
193.316, 1128.932
194.694, 814.384
196.072, 568.825
197.450, 454.257
198.827, 508.680
200.205, 517.086
201.582, 831.453
202.959, 1332.778
204.336, 2311.053
205.712, 3778.269
207.088, 6301.439
208.465, 10399.608
209.840, 13408.777
211.216, 12747.946
212.591, 8557.115
213.967, 5017.313
215.341, 2967.749
216.716, 1897.727
218.091, 1218.952
219.465, 1024.085
220.839, 1000.479
222.213, 988.356
223.586, 1185.653
224.960, 1582.767
226.333, 1727.882
227.706, 1561.008
229.079, 1375.152
230.451, 1424.305
231.823, 1664.472
233.195, 2033.651
234.567, 2862.485
235.939, 4092.216
237.310, 6402.758
238.682, 10222.391
240.052, 16353.301
241.423, 25854.770
242.794, 39386.328
244.164, 48077.680
245.534, 43878.043
246.904, 31947.658
248.274, 20156.695
249.643, 12715.971
251.012, 8364.980
252.381, 5682.986
253.750, 4039.983
255.118, 2998.972
256.487, 2245.772
257.855, 1761.766
259.223, 1438.828
260.590, 1125.905
261.958, 921.968
263.325, 853.998
264.692, 615.988
266.059, 634.930
267.425, 530.808
268.791, 463.612
270.158, 397.356
271.523, 313.052
272.889, 293.708
274.255, 258.293
275.620, 251.778
276.985, 242.147
278.350, 172.407
279.714, 147.533
281.078, 126.620
282.443, 116.200
283.806, 116.811
285.170, 140.913
286.534, 204.018
287.897, 240.127
289.260, 423.238
290.623, 538.103
291.985, 863.606
293.348, 993.383
294.710, 1208.828
296.072, 1017.780
297.433, 676.239
298.795, 518.182
300.156, 305.331
301.517, 241.105
302.878, 187.179
304.239, 200.763
305.599, 281.868
306.959, 350.970
308.319, 519.071
309.679, 728.168
311.038, 749.262
312.398, 737.353
313.757, 597.440
315.116, 378.523
316.474, 282.603
317.833, 173.679
319.191, 66.750
320.549, 59.817
321.907, 17.122
323.264, 4.071
324.622, 62.971
325.979, 58.006
327.336, 142.035
328.692, 116.057
330.049, 116.072
331.405, 121.081
332.761, 30.083
334.117, 28.078
335.473, 6.064
336.828, 43.040
338.183, 93.009
339.538, 154.971
340.893, 251.303
342.247, 407.409
343.602, 876.503
344.956, 1378.164
346.310, 1741.561
347.663, 1797.916
349.017, 1346.148
350.370, 890.302
351.723, 506.677
353.076, 312.168
354.428, 198.614
355.780, 94.317
357.133, 96.951
358.484, 42.198
359.836, 10.281
361.188, 43.721
362.539, 3.519
363.890, 15.897
365.241, 50.995
366.591, 32.050
367.942, 60.804
369.292, 8.743
370.642, 26.421
371.992, 11.069
373.341, 31.015
374.691, 31.201
376.040, 16.350
377.388, 25.671
378.737, 15.848
380.086, 10.905
381.434, 10.634
382.782, 23.328
384.130, 25.047
385.477, 90.426
386.825, 81.408
388.172, 31.211
389.519, 108.903
390.865, 147.202
392.212, 112.873
393.558, 125.587
394.904, 188.071
396.250, 215.562
397.596, 217.140
398.941, 277.633
400.286, 296.046
401.631, 323.495
402.976, 396.884
404.321, 424.259
405.665, 450.808
407.009, 539.156
408.353, 574.490
409.697, 727.811
411.040, 802.117
412.384, 982.411
413.727, 1239.692
415.070, 1570.960
416.412, 1976.216
417.755, 2694.459
419.097, 3525.690
420.439, 4606.910
421.781, 5778.117
423.122, 6664.319
424.464, 6399.512
425.805, 5516.695
427.146, 4027.871
428.486, 2832.037
429.827, 1942.193
431.167, 1431.346
432.507, 1298.490
433.847, 1483.626
435.187, 1946.755
436.526, 2945.876
437.865, 4582.989
439.204, 6365.101
440.543, 7257.205
441.882, 6490.308
443.220, 4665.410
444.558, 3196.509
445.896, 2240.607
447.234, 1534.704
448.572, 1026.805
449.909, 774.902
451.246, 595.989
452.583, 490.064
453.919, 446.129
455.256, 470.184
456.592, 530.227
457.928, 643.262
459.264, 665.287
460.600, 521.301
461.935, 351.304
463.270, 251.295
464.605, 228.253
465.940, 122.168
467.274, 201.253
468.609, 120.629
469.943, 98.522
471.277, 96.380
472.610, 99.294
473.944, 193.197
475.277, 172.088
476.610, 259.968
477.943, 285.636
479.275, 312.284
480.608, 259.758
481.940, 165.451
483.272, 101.276
484.604, 13.089
485.935, 49.887
487.267, 50.673
488.598, 6.554
489.929, 5.200
491.260, 37.061
492.590, 18.653
493.920, 29.352
495.250, 38.962
496.580, 1.302
497.910, 0.342
499.239, 11.032
500.569, 8.426
501.898, 11.163
503.226, 28.438
504.555, 25.269
505.883, 10.691
507.212, 2.432
508.540, 17.727
509.867, 22.466
511.195, 9.701
512.522, 11.818
513.849, 24.792
515.176, 4.895
516.503, 11.002
517.829, 50.092
519.156, 38.165
520.482, 71.570
521.808, 36.749
523.133, 116.144
524.459, 25.646
525.784, 51.564
527.109, 41.588
528.434, 15.388
529.758, 0.896
531.083, 13.147
532.407, 29.154
533.731, 15.598
535.055, 25.631
536.378, 14.850
537.701, 61.055
539.025, 57.251
540.348, 36.437
541.670, 52.612
542.993, 67.777
544.315, 57.937
545.637, 85.093
546.959, 68.240
548.281, 27.379
549.602, 99.508
550.923, 90.627
552.244, 137.737
553.565, 154.797
554.886, 167.025
556.206, 184.107
557.526, 140.277
558.846, 152.341
560.166, 163.633
561.486, 267.440
562.805, 200.570
564.124, 226.612
565.443, 245.468
566.762, 194.932
568.080, 321.059
569.399, 334.390
570.717, 378.384
572.035, 404.412
573.352, 368.849
574.670, 389.885
575.987, 394.609
577.304, 430.757
578.621, 523.073
579.938, 547.021
581.254, 620.935
582.570, 641.102
583.886, 742.677
585.202, 835.171
586.518, 956.009
587.833, 1084.872
589.148, 1215.206
590.463, 1390.050
591.778, 1535.885
593.093, 1824.710
594.407, 2184.526
595.721, 2548.333
597.035, 3075.130
598.349, 3818.918
599.662, 4934.463
600.976, 6574.232
602.289, 8613.994
603.602, 12110.777
604.914, 17397.520
606.227, 24844.254
607.539, 32890.980
608.851, 37137.691
610.163, 36634.402
611.475, 29731.109
612.786, 22827.809
614.097, 16864.498
615.408, 11951.177
616.719, 9247.848
618.030, 7314.511
619.340, 6151.164
620.651, 5771.810
621.961, 5813.449
623.270, 7091.081
624.580, 8577.706
625.889, 10564.322
627.199, 11270.552
628.507, 9866.991
629.816, 7973.427
631.125, 5797.280
632.433, 4438.382
633.741, 3479.510
635.049, 2663.744
636.357, 2274.043
637.664, 1841.104
638.972, 1671.036
640.279, 1475.998
641.586, 1369.689
642.893, 1312.435
644.199, 1198.552
645.505, 1121.820
646.811, 1076.157
648.117, 948.270
649.423, 931.150
650.728, 835.323
652.034, 725.595
653.339, 715.701
654.644, 625.388
655.948, 583.771
657.253, 470.623
658.557, 408.278
659.861, 388.640
661.165, 337.951
662.468, 319.752
663.772, 246.062
665.075, 295.323
666.378, 281.656
667.681, 234.064
668.983, 230.759
670.286, 257.401
671.588, 222.417
672.890, 274.978
674.192, 201.233
675.493, 216.854
676.795, 140.084
678.096, 76.254
679.397, 85.640
680.697, 36.004
681.998, 125.267
683.298, 106.631
684.598, 92.100
685.898, 83.745
687.198, 68.362
688.498, 49.081
689.797, 53.277
691.096, 53.656
692.395, 66.030
693.694, 45.399
694.992, 10.763
696.290, 57.121
697.589, 9.510
698.886, 35.858
700.184, 41.201
701.482, 30.539
702.779, 8.873
704.076, 25.201
705.373, 28.476
706.669, 12.165
707.966, 2.137
709.262, 7.567
710.558, 23.721
711.854, 14.004
713.150, 56.717
714.445, 7.544
715.740, 27.200
717.035, 2.956
718.330, 10.719
719.625, 16.511
720.919, 21.736
722.214, 6.042
723.508, 12.828
724.801, 13.621
726.095, 12.422
727.388, 57.769
728.682, 16.044
729.975, 59.135
731.267, 113.310
732.560, 21.482
733.852, 58.651
735.145, 42.816
736.437, 42.979
737.728, 45.138
739.020, 29.707
740.311, 75.439
741.603, 26.581
742.894, 7.720
744.184, 80.856
745.475, 52.990
746.765, 82.121
748.055, 50.249
749.345, 66.374
750.635, 136.497
751.925, 14.617
753.214, 112.735
754.503, 67.850
755.792, 62.963
757.081, 121.073
758.370, 97.182
759.658, 162.288
760.946, 152.392
762.234, 190.494
763.522, 300.594
764.809, 261.692
766.097, 367.788
767.384, 421.884
768.671, 594.978
769.958, 674.073
771.244, 812.168
772.530, 977.265
773.817, 907.367
775.102, 794.469
776.388, 645.571
777.674, 411.678
778.959, 308.787
780.244, 273.898
781.529, 155.011
782.814, 140.128
784.098, 29.245
785.383, 64.366
786.667, 2.493
787.951, 23.620
789.235, 74.749
790.518, 4.121
791.801, 77.009
793.084, 17.139
794.367, 7.273
795.650, 96.411
796.933, 27.448
798.215, 29.688
799.497, 62.825
800.779, 20.039
802.061, 10.093
803.342, 39.774
804.624, 6.650
805.905, 2.526
807.186, 22.402
808.466, 20.718
809.747, 4.871
811.027, 24.032
812.307, 2.091
813.587, 18.214
814.867, 12.342
816.146, 18.233
817.426, 23.318
818.705, 1.730
819.984, 9.861
821.263, 3.008
822.541, 54.876
823.819, 64.755
825.098, 1.646
826.375, 32.536
827.653, 2.568
828.931, 23.674
830.208, 32.781
831.485, 82.888
832.762, 94.996
834.039, 24.008
835.315, 3.883
836.592, 53.129
837.868, 59.239
839.144, 99.351
840.420, 129.463
841.695, 166.484
842.970, 166.583
844.246, 116.861
845.521, 135.523
846.795, 153.514
848.070, 176.293
849.344, 156.402
850.618, 202.469
851.892, 208.121
853.166, 250.166
854.440, 266.514
855.713, 301.432
856.986, 411.176
858.259, 488.279
859.532, 362.410
860.804, 465.280
862.077, 426.999
863.349, 379.705
864.621, 394.446
865.893, 357.594
867.164, 383.263
868.436, 381.417
869.707, 336.573
870.978, 394.731
872.248, 323.893
873.519, 406.057
874.789, 287.224
876.060, 331.395
877.330, 416.802
878.599, 322.978
879.869, 395.157
881.138, 383.308
882.408, 395.494
883.677, 469.683
884.945, 408.875
886.214, 474.070
887.482, 545.269
888.751, 632.472
890.019, 700.678
891.287, 763.890
892.554, 870.105
893.822, 1041.324
895.089, 1224.547
896.356, 1422.773
897.623, 1541.003
898.889, 1646.238
900.156, 1767.476
901.422, 1722.717
902.688, 1729.963
903.954, 1604.212
905.220, 1462.466
906.485, 1305.724
907.750, 1137.985
909.015, 1030.251
910.280, 869.521
911.545, 777.795
912.809, 617.073
914.074, 507.355
915.338, 487.642
916.602, 511.933
917.865, 351.227
919.129, 367.527
920.392, 293.830
921.655, 266.138
922.918, 229.450
924.181, 157.766
925.443, 250.087
926.706, 125.412
927.968, 138.692
929.230, 138.026
930.491, 49.364
931.753, 164.712
933.014, 107.065
934.276, 86.904
935.536, 81.269
936.797, 75.639
938.058, 7.686
939.318, 41.075
940.578, 49.686
941.838, 101.017
943.098, 66.399
944.358, 65.448
945.617, 103.869
946.876, 62.294
948.135, 112.334
949.394, 106.769
950.653, 49.210
951.911, 124.656
953.169, 127.109
954.427, 162.567
955.685, 133.031
956.943, 119.500
958.200, 200.944
959.458, 191.355
960.715, 207.547
961.971, 296.021
963.228, 359.982
964.485, 520.484
965.741, 684.992
966.997, 934.505
968.253, 1384.024
969.508, 1785.550
970.764, 2488.081
972.019, 2901.583
973.274, 2813.126
974.529, 2444.676
975.784, 1937.230
977.039, 1588.792
978.293, 1138.359
979.547, 930.934
980.801, 799.517
982.055, 647.108
983.308, 600.708
984.562, 548.314
985.815, 430.927
987.068, 535.545
988.321, 500.177
989.573, 427.815
990.826, 395.463
992.078, 452.119
993.330, 469.782
994.582, 534.452
995.833, 487.127
997.085, 581.811
998.336, 628.502
999.587, 699.202
1000.838, 664.092
1002.088, 640.624
1003.339, 560.346
1004.589, 479.075
1005.839, 427.810
1007.089, 431.551
1008.339, 357.298
1009.588, 302.052
1010.838, 258.812
1012.087, 142.577
1013.336, 235.353
1014.584, 159.135
1015.833, 137.923
1017.081, 188.718
1018.330, 177.519
1019.577, 221.325
1020.825, 238.138
1022.073, 199.958
1023.320, 220.785
1024.567, 171.618
1025.814, 199.881
1027.061, 183.729
1028.308, 69.583
1029.554, 151.444
1030.800, 129.311
1032.046, 44.184
1033.292, 127.062
1034.538, 119.947
1035.783, 149.838
1037.029, 249.735
1038.274, 251.637
1039.519, 324.546
1040.763, 359.460
1042.008, 202.381
1043.252, 199.308
1044.496, 80.240
1045.740, 110.178
1046.984, 66.122
1048.228, 74.072
1049.471, 79.027
1050.714, 48.989
1051.957, 64.956
1053.200, 70.929
1054.442, 58.908
1055.685, 43.893
1056.927, 25.883
1058.169, 32.256
1059.411, 80.880
1060.652, 53.888
1061.894, 57.900
1063.135, 84.919
1064.376, 38.943
1065.617, 98.130
1066.858, 137.166
1068.098, 143.206
1069.339, 155.979
1070.579, 135.034
1071.819, 260.133
1073.058, 159.274
1074.298, 233.352
1075.537, 302.022
1076.776, 299.929
1078.015, 418.030
1079.254, 440.145
1080.493, 425.268
1081.731, 572.396
1082.969, 543.536
1084.207, 628.681
1085.445, 642.831
1086.683, 695.422
1087.920, 779.589
1089.157, 812.841
1090.394, 997.021
1091.631, 1184.210
1092.868, 1282.407
1094.105, 1504.618
1095.341, 1747.839
1096.577, 1963.064
1097.813, 2383.297
1099.049, 2636.584
1100.284, 2970.841
1101.519, 3489.104
1102.755, 3701.373
1103.990, 4192.650
1105.224, 4290.933
1106.459, 4261.219
1107.693, 4396.510
1108.928, 3959.805
1110.162, 3620.104
1111.395, 3331.407
1112.629, 2847.713
1113.863, 2521.023
1115.096, 2253.337
1116.329, 1919.656
1117.562, 1831.979
1118.795, 1496.307
1120.027, 1420.638
1121.259, 1364.972
1122.492, 1104.310
1123.723, 1072.650
1124.955, 933.994
1126.187, 863.340
1127.418, 809.691
1128.649, 637.044
1129.880, 644.400
1131.111, 639.762
1132.342, 533.126
1133.572, 456.496
1134.802, 398.868
1136.033, 276.244
1137.262, 370.629
1138.492, 217.017
1139.722, 249.407
1140.951, 214.800
1142.180, 176.200
1143.409, 161.603
1144.638, 166.009
1145.866, 113.417
1147.095, 126.829
1148.323, 53.243
1149.551, 103.660
1150.779, 90.102
1152.006, 70.522
1153.234, 33.945
1154.461, 5.421
1155.688, 74.127
1156.915, 65.555
1158.141, 32.387
1159.368, 55.040
1160.594, 97.469
1161.820, 19.899
1163.046, 62.332
1164.272, 38.766
1165.498, 79.200
1166.723, 46.636
1167.948, 41.073
1169.173, 60.511
1170.398, 51.950
1171.623, 76.389
1172.847, 90.831
1174.071, 85.271
1175.295, 32.712
1176.519, 109.153
1177.743, 52.594
1178.966, 23.036
1180.190, 52.478
1181.413, 55.919
1182.636, 113.360
1183.858, 55.801
1185.081, 3.243
1186.303, 61.683
1187.526, 72.124
1188.748, 47.563
1189.969, 78.003
1191.191, 68.342
1192.412, 41.880
1193.634, 63.318
1194.855, 35.754
1196.076, 16.190
1197.296, 56.375
1198.517, 54.046
1199.737, 36.467
1200.957, 37.061
1202.177, 23.350
1203.397, 50.079
1204.617, 51.316
1205.836, 31.680
1207.055, 29.713
1208.274, 39.338
1209.493, 38.969
1210.712, 23.681
1211.930, 57.774
1213.148, 11.157
1214.367, 26.619
1215.584, 65.097
1216.802, 113.447
1218.020, 20.180
1219.237, 135.859
1220.454, 1.678
1221.671, 33.314
1222.888, 43.760
1224.105, 43.705
1225.321, 60.847
1226.537, 54.200
1227.753, 36.516
1228.969, 36.009
1230.185, 9.361
1231.400, 44.913
1232.616, 85.708
1233.831, 77.252
1235.046, 53.444
1236.261, 152.087
1237.475, 137.380
1238.689, 147.840
1239.904, 57.143
1241.118, 136.447
1242.332, 127.762
1243.545, 146.036
1244.759, 126.436
1245.972, 136.732
1247.185, 58.295
1248.398, 164.726
1249.611, 103.154
1250.823, 38.517
1252.036, 136.754
1253.248, 91.998
1254.460, 101.246
1255.671, 131.509
1256.883, 97.738
1258.095, 153.095
1259.306, 75.406
1260.517, 131.628
1261.728, 153.229
1262.938, 96.573
1264.149, 176.325
1265.359, 100.637
1266.569, 103.846
1267.779, 214.600
1268.989, 166.797
1270.199, 223.107
1271.408, 222.315
1272.617, 136.501
1273.826, 171.765
1275.035, 120.323
1276.244, 131.500
1277.452, 178.772
1278.661, 81.960
1279.869, 75.307
1281.077, 39.471
1282.285, 51.742
1283.492, 73.898
1284.700, 35.052
1285.907, 2.200
1287.114, 86.342
1288.321, 12.519
1289.527, 60.213
1290.734, 88.533
1291.940, 82.746
1293.146, 138.855
1294.352, 107.954
1295.558, 86.033
1296.763, 85.100
1297.969, 117.162
1299.174, 78.657
1300.379, 111.238
1301.584, 62.252
1302.788, 53.255
1303.993, 114.251
1305.197, 56.214
1306.401, 162.166
1307.605, 108.101
1308.809, 113.028
1310.013, 201.949
1311.216, 131.864
1312.419, 151.771
1313.622, 219.667
1314.825, 136.554
1316.028, 132.435
1317.230, 193.308
1318.432, 146.174
1319.634, 263.031
1320.836, 240.877
1322.038, 118.708
1323.240, 149.513
1324.441, 148.309
1325.642, 152.085
1326.843, 148.846
1328.044, 122.229
1329.245, 108.178
1330.445, 50.906
1331.645, 81.897
1332.845, 27.604
1334.045, 4.259
1335.245, 7.138
1336.445, 16.524
1337.644, 63.590
1338.843, 21.585
1340.042, 38.962
1341.241, 12.356
1342.440, 57.236
1343.638, 28.182
1344.836, 36.384
1346.034, 106.939
1347.232, 58.483
1348.430, 53.420
1349.628, 37.093
1350.825, 8.483
1352.022, 27.995
1353.219, 6.521
1354.416, 15.060
1355.613, 58.388
1356.809, 69.825
1358.005, 27.254
1359.202, 67.326
1360.398, 32.966
1361.593, 0.580
1362.789, 17.797
1363.984, 17.732
1365.179, 7.623
1366.374, 65.970
1367.569, 29.688
1368.764, 63.040
1369.958, 61.954
1371.153, 58.871
1372.347, 67.184
1373.541, 39.633
1374.735, 61.036
1375.928, 13.857
1377.122, 29.840
1378.315, 30.768
1379.508, 44.687
1380.701, 78.599
1381.893, 70.503
1383.086, 69.398
1384.278, 66.285
1385.470, 146.156
1386.662, 46.017
1387.854, 55.853
1389.046, 129.679
1390.237, 10.486
1391.428, 48.280
1392.619, 1.063
1393.810, 54.808
1395.001, 94.569
1396.191, 42.069
1397.382, 104.922
1398.572, 52.646
1399.762, 74.357
1400.952, 17.941
1402.141, 61.750
1403.331, 13.433
1404.520, 104.105
1405.709, 58.770
1406.898, 76.427
1408.087, 42.076
1409.275, 90.717
1410.464, 57.352
1411.652, 116.978
1412.840, 81.597
1414.028, 156.210
1415.215, 109.817
1416.403, 106.417
1417.590, 79.028
1418.777, 42.563
1419.964, 64.391
1421.151, 97.750
1422.338, 97.920
1423.524, 149.264
1424.710, 133.025
1425.896, 128.357
1427.082, 117.061
1428.268, 204.246
1429.453, 134.784
1430.639, 192.742
1431.824, 212.827
1433.009, 204.374
1434.194, 307.324
1435.378, 243.284
1436.563, 378.151
1437.747, 496.246
1438.931, 395.327
1440.115, 487.153
1441.299, 536.324
1442.482, 521.827
1443.666, 614.904
1444.849, 622.865
1446.032, 627.605
1447.215, 668.396
1448.397, 648.187
1449.580, 684.589
1450.762, 778.736
1451.944, 669.163
1453.126, 698.305
1454.308, 723.692
1455.490, 606.896
1456.671, 813.762
1457.852, 644.770
1459.033, 626.997
1460.214, 694.156
1461.395, 553.169
1462.575, 441.306
1463.756, 602.258
1464.936, 518.260
1466.116, 483.243
1467.296, 370.266
1468.475, 372.298
1469.655, 362.468
1470.834, 307.674
1472.013, 222.817
1473.192, 315.916
1474.371, 212.975
1475.550, 249.961
1476.728, 258.900
1477.906, 245.930
1479.084, 253.770
1480.262, 241.346
1481.440, 218.484
1482.617, 230.716
1483.795, 180.992
1484.972, 201.329
1486.149, 165.708
1487.326, 112.126
1488.502, 204.574
1489.679, 154.073
1490.855, 47.653
1492.031, 80.331
1493.207, 121.098
1494.383, 7.975
1495.559, 68.977
1496.734, 80.131
1497.909, 35.461
1499.084, 76.601
1500.259, 32.706
1501.434, 31.494
1502.608, 6.026
1503.783, 0.000
##END=



