##NAMES=Danburite
##RRUFFID=R040013
##IDEAL CHEMISTRY=CaB_2_Si_2_O_8_
##LOCALITY=Charcas, San Luis Potosi, Mexico
##OWNER=RRUFF
##SOURCE=Marcus Origlieri
##DESCRIPTION=Colorless prismatic single crystal
##STATUS=The identification of this mineral has been confirmed by X-ray diffraction and chemical analysis
##URL=rruff.info/R040013
##MEASURED CHEMISTRY=Ca_1.00_B_2.00_Si_2.00_O_8_
##PIN_ID=M00010
##ORIENTATION=Laser parallel to a* (1 0 0). Fiducial mark perpendicular to laser is parallel to b [0 1 0]
117.166, 0.000
118.556, 90.814
119.947, 283.301
121.337, 606.114
122.727, 777.509
124.116, 629.724
125.506, 376.513
126.895, 261.872
128.284, 152.212
129.673, 80.810
131.062, 52.589
132.450, 4.770
133.838, 20.006
135.226, 116.299
136.614, 186.141
138.001, 245.839
139.388, 116.142
140.775, 18.517
142.162, 21.046
143.549, 60.556
144.935, 12.981
146.321, 29.560
147.707, 120.175
149.093, 329.823
150.478, 417.510
151.863, 240.248
153.248, 105.031
154.633, 7.857
156.018, 1.255
157.402, 12.661
158.786, 132.607
160.170, 298.589
161.554, 473.583
162.937, 884.587
164.320, 1155.599
165.703, 950.618
167.086, 582.642
168.469, 518.672
169.851, 599.705
171.233, 769.743
172.615, 1390.783
173.996, 2438.825
175.378, 4250.870
176.759, 7112.916
178.140, 12035.963
179.521, 18014.010
180.901, 19292.084
182.281, 14100.273
183.662, 7860.569
185.041, 4278.945
186.421, 2486.333
187.800, 1761.702
189.180, 1499.054
190.558, 1398.387
191.937, 1229.918
193.316, 922.842
194.694, 668.290
196.072, 478.592
197.450, 559.890
198.827, 694.181
200.205, 924.866
201.582, 1288.428
202.959, 1486.675
204.336, 1425.909
205.712, 1308.103
207.088, 1409.290
208.465, 1753.473
209.840, 1740.651
211.216, 1359.820
212.591, 772.982
213.967, 456.140
215.341, 230.293
216.716, 158.443
218.091, 102.588
219.465, 107.729
220.839, 213.867
222.213, 258.000
223.586, 410.130
224.960, 365.541
226.333, 518.378
227.706, 290.496
229.079, 122.610
230.451, 69.720
231.823, 54.073
233.195, 182.927
234.567, 292.025
235.939, 500.118
237.310, 857.206
238.682, 1547.290
240.052, 2653.370
241.423, 3966.447
242.794, 5425.589
244.164, 5802.066
245.534, 4736.503
246.904, 3305.629
248.274, 2071.079
249.643, 1313.979
251.012, 914.852
252.381, 648.166
253.750, 462.372
255.118, 352.303
256.487, 284.199
257.855, 219.099
259.223, 133.050
260.590, 116.942
261.958, 79.826
263.325, 73.704
264.692, 23.577
266.059, 39.965
267.425, 1.360
268.791, 60.735
270.158, 28.078
271.523, 57.391
272.889, 98.663
274.255, 151.878
275.620, 199.072
276.985, 194.248
278.350, 133.368
279.714, 75.398
281.078, 25.201
282.443, 16.170
283.806, 24.720
285.170, 28.231
286.534, 117.255
287.897, 166.280
289.260, 267.249
290.623, 448.529
291.985, 586.899
293.348, 696.853
294.710, 681.883
296.072, 521.914
297.433, 370.945
298.795, 329.975
300.156, 317.005
301.517, 426.034
302.878, 597.962
304.239, 824.754
305.599, 1042.715
306.959, 1471.739
308.319, 2029.760
309.679, 2541.781
311.038, 2686.798
312.398, 2493.813
313.757, 1902.827
315.116, 1280.839
316.474, 816.847
317.833, 542.854
319.191, 409.858
320.549, 298.860
321.907, 216.859
323.264, 208.857
324.622, 151.851
325.979, 228.843
327.336, 215.832
328.692, 262.819
330.049, 281.802
331.405, 280.782
332.761, 237.757
334.117, 346.728
335.473, 415.695
336.828, 518.657
338.183, 770.616
339.538, 1180.569
340.893, 1868.515
342.247, 3047.457
343.602, 4779.394
344.956, 7127.327
346.310, 8567.257
347.663, 7647.179
349.017, 5405.097
350.370, 3309.011
351.723, 2003.921
353.076, 1226.827
354.428, 817.730
355.780, 534.629
357.133, 420.525
358.484, 251.417
359.836, 180.305
361.188, 130.190
362.539, 110.167
363.890, 72.060
365.241, 39.981
366.591, 41.804
367.942, 19.329
369.292, 38.378
370.642, 64.414
371.992, 8.630
373.341, 34.538
374.691, 51.536
376.040, 18.962
377.388, 43.158
378.737, 26.141
380.086, 55.303
381.434, 5.411
382.782, 38.231
384.130, 73.445
385.477, 22.299
386.825, 14.646
388.172, 24.054
389.519, 41.909
390.865, 85.588
392.212, 194.318
393.558, 167.098
394.904, 184.473
396.250, 82.124
397.596, 57.761
398.941, 38.384
400.286, 49.003
401.631, 83.618
402.976, 66.230
404.321, 110.840
405.665, 76.446
407.009, 99.050
408.353, 86.651
409.697, 108.249
411.040, 125.753
412.384, 173.327
413.727, 230.600
415.070, 330.567
416.412, 419.681
417.755, 581.251
419.097, 741.816
420.439, 892.377
421.781, 1094.934
423.122, 1151.488
424.464, 1059.037
425.805, 799.582
427.146, 595.034
428.486, 366.436
429.827, 232.878
431.167, 188.333
432.507, 188.863
433.847, 262.388
435.187, 397.911
436.526, 710.433
437.865, 965.959
439.204, 1254.483
440.543, 1270.002
441.882, 988.518
443.220, 667.031
444.558, 417.539
445.896, 282.044
447.234, 194.546
448.572, 89.044
449.909, 99.539
451.246, 101.032
452.583, 128.521
453.919, 151.007
455.256, 233.489
456.592, 319.967
457.928, 387.442
459.264, 381.912
460.600, 357.379
461.935, 232.843
463.270, 252.302
464.605, 266.757
465.940, 320.209
467.274, 457.660
468.609, 621.107
469.943, 805.550
471.277, 1256.990
472.610, 2065.425
473.944, 3470.858
475.277, 5895.286
476.610, 9532.711
477.943, 13010.133
479.275, 13287.551
480.608, 10114.965
481.940, 6307.375
483.272, 3608.781
484.604, 2239.183
485.935, 1515.583
487.267, 1013.978
488.598, 765.370
489.929, 544.758
491.260, 426.143
492.590, 320.523
493.920, 280.901
495.250, 211.275
496.580, 198.645
497.910, 169.012
499.239, 139.375
500.569, 82.735
501.898, 94.091
503.226, 56.443
504.555, 67.792
505.883, 20.138
507.212, 37.481
508.540, 42.821
509.867, 81.123
511.195, 45.430
512.522, 19.945
513.849, 14.014
515.176, 2.472
516.503, 44.571
517.829, 3.716
519.156, 22.536
520.482, 39.956
521.808, 0.120
523.133, 21.196
524.459, 5.829
525.784, 9.381
527.109, 23.641
528.434, 30.841
529.758, 18.998
531.083, 21.892
532.407, 2.261
533.731, 34.504
535.055, 20.755
536.378, 6.015
537.701, 23.725
539.025, 26.529
540.348, 33.787
541.670, 54.046
542.993, 27.253
544.315, 71.509
545.637, 84.770
546.959, 54.028
548.281, 64.286
549.602, 102.544
550.923, 152.801
552.244, 230.056
553.565, 212.310
554.886, 240.563
556.206, 331.814
557.526, 450.065
558.846, 692.313
560.166, 900.561
561.486, 961.805
562.805, 791.051
564.124, 590.333
565.443, 370.625
566.762, 264.865
568.080, 231.103
569.399, 282.339
570.717, 310.574
572.035, 306.807
573.352, 338.507
574.670, 321.269
575.987, 365.497
577.304, 425.723
578.621, 446.947
579.938, 548.169
581.254, 580.389
582.570, 601.608
583.886, 706.824
585.202, 768.064
586.518, 896.284
587.833, 973.494
589.148, 1155.702
590.463, 1311.909
591.778, 1519.113
593.093, 1778.488
594.407, 2177.694
595.721, 2644.892
597.035, 3218.089
598.349, 3984.284
599.662, 5264.476
600.976, 6896.667
602.289, 9558.855
603.602, 13466.043
604.914, 19353.229
606.227, 26790.410
607.539, 33717.590
608.851, 36285.309
610.163, 33132.488
611.475, 25739.660
612.786, 19376.834
614.097, 13894.007
615.408, 9921.242
616.719, 7648.410
618.030, 6023.576
619.340, 5015.739
620.651, 4485.902
621.961, 4326.062
623.270, 4728.220
624.580, 5264.378
625.889, 5908.532
627.199, 5752.685
628.507, 4879.837
629.816, 3849.986
631.125, 2902.133
632.433, 2280.279
633.741, 1868.423
635.049, 1576.565
636.357, 1326.706
637.664, 1143.844
638.972, 1019.981
640.279, 952.117
641.586, 880.250
642.893, 754.382
644.199, 675.512
645.505, 590.640
646.811, 552.767
648.117, 519.187
649.423, 472.366
650.728, 407.488
652.034, 388.615
653.339, 335.734
654.644, 308.219
655.948, 324.229
657.253, 330.398
658.557, 282.530
659.861, 218.218
661.165, 265.769
662.468, 180.913
663.772, 127.859
665.075, 180.959
666.378, 224.010
667.681, 155.622
668.983, 227.758
670.286, 172.491
671.588, 161.199
672.890, 155.697
674.192, 129.139
675.493, 121.881
676.795, 113.577
678.096, 101.247
679.397, 90.767
680.697, 90.021
681.998, 84.847
683.298, 70.852
684.598, 84.359
685.898, 93.915
687.198, 95.130
688.498, 71.423
689.797, 81.179
691.096, 51.409
692.395, 76.553
693.694, 67.027
694.992, 44.167
696.290, 83.355
697.589, 51.491
698.886, 74.625
700.184, 46.757
701.482, 21.887
702.779, 81.656
704.076, 9.782
705.373, 6.906
706.669, 62.026
707.966, 41.145
709.262, 79.262
710.558, 70.377
711.854, 70.490
713.150, 114.601
714.445, 83.710
715.740, 119.816
717.035, 103.921
718.330, 68.024
719.625, 96.125
720.919, 51.223
722.214, 28.320
723.508, 36.415
724.801, 10.508
726.095, 14.330
727.388, 52.687
728.682, 18.773
729.975, 28.858
731.267, 36.940
732.560, 2.979
733.852, 14.098
735.145, 17.173
736.437, 50.246
737.728, 53.317
739.020, 46.386
740.311, 50.453
741.603, 19.518
742.894, 25.581
744.184, 43.643
745.475, 14.703
746.765, 28.760
748.055, 19.184
749.345, 20.865
750.635, 43.913
751.925, 20.958
753.214, 50.001
754.503, 1.043
755.792, 53.082
757.081, 31.119
758.370, 61.154
759.658, 45.188
760.946, 71.220
762.234, 107.250
763.522, 87.279
764.809, 157.306
766.097, 151.331
767.384, 190.354
768.671, 241.376
769.958, 278.396
771.244, 349.415
772.530, 403.432
773.817, 345.447
775.102, 364.461
776.388, 293.473
777.674, 252.484
778.959, 192.493
780.244, 149.883
781.529, 88.507
782.814, 80.511
784.098, 47.514
785.383, 35.516
786.667, 14.484
787.951, 0.489
789.235, 71.503
790.518, 7.495
791.801, 32.485
793.084, 17.527
794.367, 67.456
795.650, 8.562
796.933, 11.417
798.215, 29.605
799.497, 5.635
800.779, 33.335
802.061, 3.304
803.342, 27.273
804.624, 5.240
805.905, 35.794
807.186, 37.164
808.466, 22.879
809.747, 47.929
811.027, 15.011
812.307, 16.047
813.587, 22.109
814.867, 23.174
816.146, 35.922
817.426, 34.327
818.705, 46.414
819.984, 26.513
821.263, 37.619
822.541, 14.735
823.819, 17.080
825.098, 1.984
826.375, 6.113
827.653, 26.244
828.931, 3.384
830.208, 6.474
831.485, 14.669
832.762, 6.067
834.039, 1.965
835.315, 10.885
836.592, 18.734
837.868, 4.581
839.144, 67.427
840.420, 28.727
841.695, 38.111
842.970, 8.910
844.246, 60.697
845.521, 45.531
846.795, 72.366
848.070, 23.199
849.344, 20.032
850.618, 59.864
851.892, 30.695
853.166, 33.525
854.440, 52.355
855.713, 66.183
856.986, 42.011
858.259, 131.839
859.532, 71.666
860.804, 37.492
862.077, 124.318
863.349, 99.117
864.621, 99.935
865.893, 136.759
867.164, 128.583
868.436, 156.406
869.707, 156.229
870.978, 162.879
872.248, 165.641
873.519, 168.052
874.789, 155.341
876.060, 163.162
877.330, 152.356
878.599, 126.805
879.869, 118.626
881.138, 102.447
882.408, 95.269
883.677, 128.089
884.945, 89.911
886.214, 117.194
887.482, 179.015
888.751, 187.837
890.019, 179.659
891.287, 229.481
892.554, 246.238
893.822, 240.061
895.089, 333.884
896.356, 359.708
897.623, 346.532
898.889, 389.357
900.156, 404.183
901.422, 368.009
902.688, 389.836
903.954, 363.664
905.220, 378.492
906.485, 331.321
907.750, 398.151
909.015, 313.982
910.280, 323.813
911.545, 396.646
912.809, 355.479
914.074, 426.313
915.338, 451.149
916.602, 416.985
917.865, 428.822
919.129, 471.660
920.392, 460.499
921.655, 434.340
922.918, 392.181
924.181, 401.631
925.443, 403.404
926.706, 342.249
927.968, 303.087
929.230, 201.935
930.491, 189.328
931.753, 155.177
933.014, 154.784
934.276, 175.637
935.536, 249.761
936.797, 178.445
938.058, 232.303
939.318, 257.142
940.578, 260.003
941.838, 400.855
943.098, 405.854
944.358, 515.722
945.617, 576.030
946.876, 556.760
948.135, 556.633
949.394, 482.111
950.653, 513.452
951.911, 417.772
953.169, 364.799
954.427, 317.868
955.685, 314.660
956.943, 220.919
958.200, 269.925
959.458, 241.468
960.715, 221.961
961.971, 247.796
963.228, 306.554
964.485, 387.850
965.741, 436.674
966.997, 549.584
968.253, 714.165
969.508, 801.081
970.764, 1154.950
972.019, 1103.871
973.274, 1080.796
974.529, 918.723
975.784, 620.653
977.039, 520.946
978.293, 457.882
979.547, 343.822
980.801, 314.765
982.055, 266.711
983.308, 293.660
984.562, 239.612
985.815, 234.567
987.068, 271.525
988.321, 226.487
989.573, 216.451
990.826, 262.419
992.078, 238.391
993.330, 253.365
994.582, 214.343
995.833, 259.324
997.085, 266.308
998.336, 274.296
999.587, 246.287
1000.838, 247.281
1002.088, 267.281
1003.339, 294.286
1004.589, 250.295
1005.839, 287.308
1007.089, 261.325
1008.339, 283.346
1009.588, 208.371
1010.838, 201.400
1012.087, 140.436
1013.336, 170.477
1014.584, 130.668
1015.833, 132.674
1017.081, 108.625
1018.330, 127.686
1019.577, 164.750
1020.825, 141.819
1022.073, 180.900
1023.320, 195.990
1024.567, 219.089
1025.814, 209.195
1027.061, 197.311
1028.308, 206.433
1029.554, 219.562
1030.800, 174.695
1032.046, 156.832
1033.292, 162.976
1034.538, 153.125
1035.783, 109.276
1037.029, 158.435
1038.274, 158.598
1039.519, 245.766
1040.763, 234.938
1042.008, 189.114
1043.252, 111.294
1044.496, 57.477
1045.740, 136.663
1046.984, 95.853
1048.228, 71.046
1049.471, 56.242
1050.714, 51.442
1051.957, 82.645
1053.200, 78.852
1054.442, 119.062
1055.685, 93.277
1056.927, 141.496
1058.169, 96.718
1059.411, 97.945
1060.652, 72.176
1061.894, 122.409
1063.135, 46.646
1064.376, 93.886
1065.617, 79.132
1066.858, 80.383
1068.098, 134.639
1069.339, 112.984
1070.579, 101.250
1071.819, 150.520
1073.058, 168.794
1074.298, 211.070
1075.537, 196.349
1076.776, 251.631
1078.015, 311.389
1079.254, 294.682
1080.493, 257.980
1081.731, 349.294
1082.969, 297.610
1084.207, 370.931
1085.445, 354.257
1086.683, 442.589
1087.920, 427.927
1089.157, 477.287
1090.394, 495.644
1091.631, 588.030
1092.868, 667.399
1094.105, 860.786
1095.341, 922.164
1096.577, 1009.545
1097.813, 1277.932
1099.049, 1314.542
1100.284, 1616.940
1101.519, 1763.347
1102.755, 1829.751
1103.990, 2093.160
1105.224, 2149.572
1106.459, 2038.985
1107.693, 2060.400
1108.928, 1795.843
1110.162, 1690.264
1111.395, 1544.688
1112.629, 1260.116
1113.863, 1188.548
1115.096, 1024.981
1116.329, 892.441
1117.562, 816.879
1118.795, 720.318
1120.027, 681.759
1121.259, 621.202
1122.492, 600.647
1123.723, 497.093
1124.955, 438.590
1126.187, 350.039
1127.418, 325.004
1128.649, 288.006
1129.880, 295.460
1131.111, 234.916
1132.342, 225.414
1133.572, 245.872
1134.802, 175.781
1136.033, 142.690
1137.262, 186.152
1138.492, 137.828
1139.722, 88.291
1140.951, 116.756
1142.180, 32.524
1143.409, 139.990
1144.638, 17.411
1145.866, 72.962
1147.095, 123.430
1148.323, 48.010
1149.551, 77.877
1150.779, 63.346
1152.006, 87.879
1153.234, 39.436
1154.461, 48.419
1155.688, 99.916
1156.915, 92.751
1158.141, 27.924
1159.368, 101.634
1160.594, 35.765
1161.820, 53.944
1163.046, 140.625
1164.272, 63.119
1165.498, 103.423
1166.723, 146.978
1167.948, 73.588
1169.173, 139.877
1170.398, 136.362
1171.623, 174.332
1172.847, 171.919
1174.071, 193.488
1175.295, 202.054
1176.519, 156.511
1177.743, 167.967
1178.966, 177.422
1180.190, 131.875
1181.413, 117.460
1182.636, 147.909
1183.858, 107.370
1185.081, 103.967
1186.303, 122.411
1187.526, 62.292
1188.748, 141.806
1189.969, 123.244
1191.191, 28.680
1192.412, 39.114
1193.634, 8.545
1194.855, 54.975
1196.076, 101.457
1197.296, 27.961
1198.517, 89.910
1199.737, 35.371
1200.957, 3.103
1202.177, 90.310
1203.397, 21.865
1204.617, 19.289
1205.836, 64.693
1207.055, 30.095
1208.274, 56.520
1209.493, 19.020
1210.712, 55.519
1211.930, 21.048
1213.148, 29.609
1214.367, 26.113
1215.584, 31.487
1216.802, 28.508
1218.020, 24.090
1219.237, 25.624
1220.454, 12.021
1221.671, 18.086
1222.888, 11.579
1224.105, 33.866
1225.321, 14.302
1226.537, 29.642
1227.753, 25.981
1228.969, 70.009
1230.185, 4.664
1231.400, 80.173
1232.616, 18.489
1233.831, 31.800
1235.046, 66.708
1236.261, 106.011
1237.475, 91.310
1238.689, 97.604
1239.904, 17.033
1241.118, 72.317
1242.332, 43.597
1243.545, 78.872
1244.759, 40.732
1245.972, 45.003
1247.185, 19.305
1248.398, 55.562
1249.611, 42.898
1250.823, 63.191
1252.036, 74.441
1253.248, 52.687
1254.460, 98.930
1255.671, 16.199
1256.883, 131.433
1258.095, 27.682
1259.306, 14.012
1260.517, 91.232
1261.728, 65.443
1262.938, 19.650
1264.149, 129.846
1265.359, 9.962
1266.569, 9.785
1267.779, 105.414
1268.989, 0.556
1270.199, 56.686
1271.408, 34.045
1272.617, 2.841
1273.826, 77.261
1275.035, 30.645
1276.244, 13.439
1277.452, 76.576
1278.661, 9.649
1279.869, 49.284
1281.077, 36.771
1282.285, 18.821
1283.492, 13.862
1284.700, 53.649
1285.907, 32.626
1287.114, 47.077
1288.321, 18.503
1289.527, 41.516
1290.734, 16.542
1291.940, 18.576
1293.146, 3.381
1294.352, 29.329
1295.558, 23.738
1296.763, 16.184
1297.969, 9.100
1299.174, 22.992
1300.379, 30.901
1301.584, 9.213
1302.788, 11.664
1303.993, 13.528
1305.197, 13.973
1306.401, 79.222
1307.605, 48.056
1308.809, 53.883
1310.013, 95.702
1311.216, 11.510
1312.419, 40.309
1313.622, 34.101
1314.825, 9.884
1316.028, 98.660
1317.230, 5.572
1318.432, 21.184
1319.634, 80.933
1320.836, 61.673
1322.038, 48.406
1323.240, 65.131
1324.441, 75.846
1325.642, 25.553
1326.843, 20.254
1328.044, 9.055
1329.245, 28.627
1330.445, 15.301
1331.645, 66.875
1332.845, 11.524
1334.045, 34.166
1335.245, 43.800
1336.445, 68.425
1337.644, 32.042
1338.843, 23.652
1340.042, 10.785
1341.241, 11.378
1342.440, 37.038
1343.638, 13.534
1344.836, 86.096
1346.034, 78.652
1347.232, 44.200
1348.430, 29.740
1349.628, 29.273
1350.825, 20.218
1352.022, 56.297
1353.219, 45.780
1354.416, 17.303
1355.613, 75.781
1356.809, 36.267
1358.005, 16.254
1359.202, 99.215
1360.398, 8.539
1361.593, 73.916
1362.789, 62.357
1363.984, 12.201
1365.179, 65.347
1366.374, 81.774
1367.569, 50.197
1368.764, 11.615
1369.958, 102.004
1371.153, 78.401
1372.347, 66.791
1373.541, 11.826
1374.735, 34.551
1375.928, 26.930
1377.122, 50.783
1378.315, 18.652
1379.508, 27.513
1380.701, 77.313
1381.893, 124.157
1383.086, 91.923
1384.278, 30.703
1385.470, 76.031
1386.662, 32.344
1387.854, 15.896
1389.046, 94.335
1390.237, 38.025
1391.428, 40.675
1392.619, 40.675
1393.810, 48.310
1395.001, 92.127
1396.191, 22.955
1397.382, 42.250
1398.572, 68.176
1399.762, 0.446
1400.952, 42.848
1402.141, 54.156
1403.331, 27.987
1404.520, 113.169
1405.709, 14.501
1406.898, 85.960
1408.087, 97.231
1409.275, 90.652
1410.464, 72.873
1411.652, 62.577
1412.840, 10.026
1414.028, 95.360
1415.215, 131.658
1416.403, 6.135
1417.590, 113.257
1418.777, 62.372
1419.964, 105.668
1421.151, 101.938
1422.338, 56.904
1423.524, 112.087
1424.710, 107.137
1425.896, 77.376
1427.082, 110.485
1428.268, 141.365
1429.453, 112.393
1430.639, 143.560
1431.824, 107.483
1433.009, 116.684
1434.194, 122.687
1435.378, 101.759
1436.563, 174.552
1437.747, 208.593
1438.931, 109.458
1440.115, 193.352
1441.299, 158.145
1442.482, 166.980
1443.666, 218.862
1444.849, 159.648
1446.032, 162.198
1447.215, 240.999
1448.397, 225.790
1449.580, 195.582
1450.762, 267.347
1451.944, 216.663
1453.126, 234.562
1454.308, 221.467
1455.490, 165.195
1456.671, 172.049
1457.852, 180.887
1459.033, 129.401
1460.214, 175.830
1461.395, 110.573
1462.575, 140.287
1463.756, 186.006
1464.936, 80.731
1466.116, 228.448
1467.296, 130.161
1468.475, 149.901
1469.655, 122.671
1470.834, 175.429
1472.013, 81.212
1473.192, 139.991
1474.371, 44.763
1475.550, 156.543
1476.728, 34.322
1477.906, 145.111
1479.084, 79.903
1480.262, 109.691
1481.440, 0.490
1482.617, 43.391
1483.795, 93.289
1484.972, 71.208
1486.149, 114.151
1487.326, 66.119
1488.502, 84.115
1489.679, 106.146
1490.855, 20.218
1492.031, 4.657
1493.207, 8.239
1494.383, 23.455
1495.559, 108.740
1496.734, 23.108
1497.909, 64.876
1499.084, 70.810
1500.259, 29.390
1501.434, 42.775
1502.608, 0.000
##END=



