##NAMES=Danburite
##RRUFFID=R040013
##IDEAL CHEMISTRY=CaB_2_Si_2_O_8_
##LOCALITY=Charcas, San Luis Potosi, Mexico
##OWNER=RRUFF
##SOURCE=Marcus Origlieri
##DESCRIPTION=Colorless prismatic single crystal
##STATUS=The identification of this mineral has been confirmed by X-ray diffraction and chemical analysis
##URL=rruff.info/R040013
##MEASURED CHEMISTRY=Ca_1.00_B_2.00_Si_2.00_O_8_
##PIN_ID=M00009
##ORIENTATION=Laser parallel to b* (0 1 0). Fiducial mark perpendicular to laser is parallel to -c [0 0 -1]
106.032, 0.000
107.425, 138.096
108.817, 296.188
110.209, 1295.027
111.601, 3518.255
112.992, 2917.645
114.384, 2176.107
115.775, 1453.483
117.166, 1256.567
118.556, 1466.401
119.947, 2190.884
121.337, 3880.943
122.727, 5472.733
124.116, 5533.421
125.506, 3702.972
126.895, 1975.132
128.284, 995.597
129.673, 561.009
131.062, 344.309
132.450, 227.318
133.838, 134.514
135.226, 128.880
136.614, 111.400
138.001, 107.058
139.388, 37.851
140.775, 36.788
142.162, 34.135
143.549, 19.931
144.935, 3.615
146.321, 71.200
147.707, 32.694
149.093, 37.105
150.478, 53.442
151.863, 37.710
153.248, 31.083
154.633, 43.070
156.018, 8.174
157.402, 16.765
158.786, 126.746
160.170, 357.764
161.554, 623.819
162.937, 1629.907
164.320, 2708.026
165.703, 2675.176
167.086, 1559.352
168.469, 694.555
169.851, 319.791
171.233, 218.107
172.615, 234.574
173.996, 319.203
175.378, 663.978
176.759, 1282.790
178.140, 2276.601
179.521, 4004.405
180.901, 5740.197
182.281, 5958.970
183.662, 4054.740
185.041, 2297.511
186.421, 1374.286
187.800, 1308.062
189.180, 1656.840
190.558, 2902.620
191.937, 3948.398
193.316, 3504.174
194.694, 2242.948
196.072, 1123.719
197.450, 689.489
198.827, 454.254
200.205, 409.009
201.582, 542.740
202.959, 768.453
204.336, 1303.153
205.712, 2065.845
207.088, 3523.538
208.465, 5817.234
209.840, 7330.933
211.216, 6621.635
212.591, 4338.340
213.967, 2433.048
215.341, 1304.757
216.716, 877.470
218.091, 612.184
219.465, 692.899
220.839, 896.616
222.213, 1373.334
223.586, 2192.053
224.960, 3590.772
226.333, 3963.493
227.706, 2853.213
229.079, 1690.934
230.451, 1155.662
231.823, 1064.400
233.195, 1242.843
234.567, 1628.849
235.939, 2261.135
237.310, 3573.569
238.682, 5587.487
240.052, 9004.786
241.423, 14346.223
242.794, 21567.717
244.164, 26087.678
245.534, 23295.945
246.904, 16243.787
248.274, 9911.463
249.643, 5873.028
251.012, 3821.581
252.381, 2684.134
253.750, 1930.684
255.118, 1452.747
256.487, 1076.129
257.855, 932.672
259.223, 711.311
260.590, 601.011
261.958, 479.749
263.325, 466.512
264.692, 475.290
266.059, 552.069
267.425, 488.501
268.791, 509.617
270.158, 390.391
271.523, 310.167
272.889, 219.924
274.255, 159.672
275.620, 193.362
276.985, 189.014
278.350, 177.659
279.714, 197.292
281.078, 188.936
282.443, 279.591
283.806, 326.255
285.170, 415.929
286.534, 588.611
287.897, 949.300
289.260, 1451.996
290.623, 2118.188
291.985, 3091.636
293.348, 4041.297
294.710, 4313.741
296.072, 3582.995
297.433, 2431.174
298.795, 1514.054
300.156, 954.232
301.517, 701.961
302.878, 516.048
304.239, 431.692
305.599, 437.425
306.959, 450.159
308.319, 604.894
309.679, 806.628
311.038, 841.364
312.398, 766.099
313.757, 619.834
315.116, 421.568
316.474, 214.302
317.833, 185.035
319.191, 105.767
320.549, 139.496
321.907, 99.223
323.264, 94.946
324.622, 153.665
325.979, 257.380
327.336, 408.090
328.692, 597.797
330.049, 537.500
331.405, 455.199
332.761, 279.894
334.117, 194.585
335.473, 152.271
336.828, 126.954
338.183, 172.632
339.538, 172.306
340.893, 358.975
342.247, 549.640
343.602, 1001.300
344.956, 1479.957
346.310, 2012.608
347.663, 1899.255
349.017, 1394.899
350.370, 886.685
351.723, 531.469
353.076, 293.745
354.428, 181.656
355.780, 143.891
357.133, 46.735
358.484, 12.485
359.836, 15.814
361.188, 29.275
362.539, 0.598
363.890, 28.953
365.241, 55.887
366.591, 55.869
367.942, 62.932
369.292, 30.404
370.642, 23.675
371.992, 85.799
373.341, 85.297
374.691, 31.822
376.040, 73.240
377.388, 48.675
378.737, 51.141
380.086, 11.569
381.434, 1.693
382.782, 7.714
384.130, 14.510
385.477, 19.858
386.825, 29.258
388.172, 35.194
389.519, 42.576
390.865, 54.059
392.212, 57.343
393.558, 78.036
394.904, 75.521
396.250, 97.798
397.596, 125.165
398.941, 87.417
400.286, 132.619
401.631, 144.819
402.976, 165.035
404.321, 184.365
405.665, 204.672
407.009, 196.954
408.353, 256.157
409.697, 334.323
411.040, 432.482
412.384, 505.634
413.727, 626.779
415.070, 781.916
416.412, 1038.048
417.755, 1419.173
419.097, 1924.292
420.439, 2521.405
421.781, 3182.511
423.122, 3641.611
424.464, 3453.705
425.805, 2919.798
427.146, 2101.887
428.486, 1365.972
429.827, 931.051
431.167, 649.071
432.507, 672.198
433.847, 717.262
435.187, 1039.320
436.526, 1621.385
437.865, 2495.443
439.204, 3414.496
440.543, 3848.547
441.882, 3353.594
443.220, 2507.637
444.558, 1611.677
445.896, 1063.712
447.234, 742.740
448.572, 550.763
449.909, 459.779
451.246, 358.789
452.583, 357.791
453.919, 466.785
455.256, 658.772
456.592, 1104.751
457.928, 1510.721
459.264, 1474.684
460.600, 1046.642
461.935, 605.593
463.270, 363.535
464.605, 251.469
465.940, 163.394
467.274, 134.314
468.609, 116.871
469.943, 234.130
471.277, 196.024
472.610, 289.911
473.944, 413.789
475.277, 699.657
476.610, 1242.518
477.943, 1736.370
479.275, 1905.213
480.608, 1606.047
481.940, 1111.873
483.272, 592.689
484.604, 358.497
485.935, 289.296
487.267, 175.086
488.598, 120.868
489.929, 79.640
491.260, 77.404
492.590, 63.158
493.920, 31.904
495.250, 31.639
496.580, 4.636
497.910, 15.073
499.239, 3.229
500.569, 29.547
501.898, 28.115
503.226, 6.826
504.555, 33.271
505.883, 44.340
507.212, 49.603
508.540, 1.193
509.867, 2.137
511.195, 5.062
512.522, 22.193
513.849, 18.279
515.176, 4.893
516.503, 54.044
517.829, 61.200
519.156, 28.592
520.482, 27.013
521.808, 29.999
523.133, 16.917
524.459, 4.254
525.784, 10.789
527.109, 43.013
528.434, 8.313
529.758, 15.347
531.083, 25.024
532.407, 48.412
533.731, 7.826
535.055, 17.243
536.378, 0.651
537.701, 6.048
539.025, 37.435
540.348, 16.813
541.670, 40.184
542.993, 72.546
544.315, 60.022
545.637, 45.369
546.959, 19.708
548.281, 23.196
549.602, 27.360
550.923, 42.673
552.244, 71.439
553.565, 120.890
554.886, 117.179
556.206, 186.461
557.526, 196.529
558.846, 187.240
560.166, 233.663
561.486, 227.992
562.805, 232.594
564.124, 256.830
565.443, 280.112
566.762, 250.382
568.080, 295.894
569.399, 432.896
570.717, 470.411
572.035, 445.687
573.352, 383.111
574.670, 338.285
575.987, 318.900
577.304, 311.000
578.621, 324.583
579.938, 357.873
581.254, 396.405
582.570, 463.200
583.886, 515.317
585.202, 548.741
586.518, 646.901
587.833, 692.050
589.148, 814.177
590.463, 950.254
591.778, 1033.322
593.093, 1261.720
594.407, 1433.772
595.721, 1792.084
597.035, 2080.120
598.349, 2463.178
599.662, 3252.275
600.976, 4319.286
602.289, 5656.178
603.602, 7883.173
604.914, 11439.260
606.227, 16405.238
607.539, 21611.205
608.851, 24577.984
610.163, 23623.939
611.475, 19109.885
612.786, 14415.822
614.097, 10501.753
615.408, 7407.698
616.719, 5657.611
618.030, 4559.517
619.340, 3788.414
620.651, 3644.304
621.961, 3718.185
623.270, 4415.058
624.580, 5296.923
625.889, 6624.781
627.199, 6960.631
628.507, 5997.473
629.816, 4845.307
631.125, 3594.133
632.433, 2675.951
633.741, 2041.761
635.049, 1557.562
636.357, 1338.210
637.664, 1226.848
638.972, 1023.981
640.279, 931.468
641.586, 873.618
642.893, 746.147
644.199, 726.728
645.505, 729.777
646.811, 648.204
648.117, 626.852
649.423, 594.563
650.728, 543.801
652.034, 514.097
653.339, 471.436
654.644, 426.172
655.948, 400.694
657.253, 367.639
658.557, 286.651
659.861, 299.205
661.165, 281.075
662.468, 204.048
663.772, 219.926
665.075, 217.394
666.378, 205.253
667.681, 208.996
668.983, 316.299
670.286, 228.391
671.588, 335.226
672.890, 350.823
674.192, 236.798
675.493, 299.289
676.795, 167.832
678.096, 171.237
679.397, 110.655
680.697, 109.269
681.998, 113.863
683.298, 81.477
684.598, 17.129
685.898, 74.775
687.198, 69.392
688.498, 150.884
689.797, 84.385
691.096, 160.900
692.395, 6.520
693.694, 10.083
694.992, 79.677
696.290, 94.266
697.589, 38.848
698.886, 3.424
700.184, 7.992
701.482, 23.552
702.779, 2.895
704.076, 59.648
705.373, 28.186
706.669, 28.717
707.966, 43.758
709.262, 22.252
710.558, 1.759
711.854, 19.724
713.150, 41.799
714.445, 70.661
715.740, 7.885
717.035, 27.558
718.330, 89.004
719.625, 6.406
720.919, 21.809
722.214, 52.205
723.508, 86.597
724.801, 3.017
726.095, 22.360
727.388, 22.731
728.682, 25.097
729.975, 55.457
731.267, 77.812
732.560, 4.838
733.852, 139.503
735.145, 2.162
736.437, 100.167
737.728, 25.490
739.020, 14.808
740.311, 110.120
741.603, 29.572
742.894, 119.722
744.184, 9.011
745.475, 48.295
746.765, 53.574
748.055, 27.151
749.345, 33.111
750.635, 116.368
751.925, 47.622
753.214, 83.871
754.503, 22.115
755.792, 100.355
757.081, 130.590
758.370, 104.822
759.658, 156.050
760.946, 100.273
762.234, 100.493
763.522, 143.708
764.809, 167.919
766.097, 204.127
767.384, 260.331
768.671, 393.531
769.958, 465.728
771.244, 464.921
772.530, 558.110
773.817, 506.295
775.102, 402.478
776.388, 374.658
777.674, 287.041
778.959, 203.011
780.244, 154.186
781.529, 89.361
782.814, 59.538
784.098, 46.713
785.383, 35.889
786.667, 48.068
787.951, 8.244
789.235, 72.417
790.518, 10.590
791.801, 77.762
793.084, 78.933
794.367, 33.105
795.650, 27.276
796.933, 35.554
798.215, 33.395
799.497, 52.247
800.779, 56.735
802.061, 8.996
803.342, 36.882
804.624, 24.780
805.905, 8.684
807.186, 25.591
808.466, 25.507
809.747, 36.432
811.027, 22.638
812.307, 12.295
813.587, 3.767
814.867, 8.827
816.146, 2.115
817.426, 33.942
818.705, 17.998
819.984, 2.947
821.263, 57.105
822.541, 29.156
823.819, 7.083
825.098, 13.129
826.375, 61.174
827.653, 85.218
828.931, 55.261
830.208, 26.302
831.485, 80.882
832.762, 46.767
834.039, 96.804
835.315, 8.840
836.592, 54.865
837.868, 144.672
839.144, 149.540
840.420, 99.493
841.695, 107.165
842.970, 150.194
844.246, 161.169
845.521, 181.148
846.795, 175.875
848.070, 243.104
849.344, 142.812
850.618, 185.751
851.892, 248.533
853.166, 201.557
854.440, 284.133
855.713, 237.112
856.986, 336.807
858.259, 337.683
859.532, 376.640
860.804, 401.665
862.077, 386.690
863.349, 420.401
864.621, 489.368
865.893, 500.339
867.164, 592.322
868.436, 555.350
869.707, 543.378
870.978, 563.069
872.248, 511.100
873.519, 548.861
874.789, 448.893
876.060, 492.895
877.330, 399.850
878.599, 375.884
879.869, 469.031
881.138, 323.067
882.408, 460.007
883.677, 424.046
884.945, 416.087
886.214, 467.314
887.482, 500.357
888.751, 594.403
890.019, 732.450
891.287, 833.505
892.554, 991.538
893.822, 1121.597
895.089, 1282.657
896.356, 1521.720
897.623, 1488.785
898.889, 1475.852
900.156, 1542.920
901.422, 1416.990
902.688, 1277.063
903.954, 1260.139
905.220, 1118.216
906.485, 998.295
907.750, 861.377
909.015, 811.461
910.280, 686.548
911.545, 593.637
912.809, 572.729
914.074, 508.823
915.338, 474.919
916.602, 444.020
917.865, 402.123
919.129, 414.233
920.392, 309.345
921.655, 259.461
922.918, 293.578
924.181, 214.699
925.443, 215.779
926.706, 247.904
927.968, 170.004
929.230, 168.139
930.491, 196.280
931.753, 198.423
933.014, 123.570
934.276, 162.852
935.536, 162.190
936.797, 107.101
938.058, 131.915
939.318, 172.848
940.578, 130.140
941.838, 223.722
943.098, 184.686
944.358, 173.265
945.617, 232.854
946.876, 234.206
948.135, 215.410
949.394, 207.345
950.653, 235.533
951.911, 280.751
953.169, 252.897
954.427, 278.125
955.685, 341.358
956.943, 258.513
958.200, 304.754
959.458, 329.001
960.715, 360.252
961.971, 445.509
963.228, 474.773
964.485, 615.043
965.741, 788.320
966.997, 1098.602
968.253, 1514.890
969.508, 1985.185
970.764, 2772.483
972.019, 3262.786
973.274, 3155.095
974.529, 2676.409
975.784, 1869.728
977.039, 1431.053
978.293, 1077.384
979.547, 795.720
980.801, 793.061
982.055, 581.406
983.308, 611.763
984.562, 576.129
985.815, 529.500
987.068, 629.878
988.321, 582.042
989.573, 538.659
990.826, 613.059
992.078, 630.464
993.330, 701.885
994.582, 772.311
995.833, 744.743
997.085, 729.180
998.336, 801.622
999.587, 747.070
1000.838, 857.524
1002.088, 702.982
1003.339, 625.447
1004.589, 534.915
1005.839, 364.389
1007.089, 435.869
1008.339, 335.354
1009.588, 218.846
1010.838, 251.342
1012.087, 170.843
1013.336, 185.350
1014.584, 123.861
1015.833, 143.381
1017.081, 180.907
1018.330, 210.438
1019.577, 234.974
1020.825, 209.515
1022.073, 222.065
1023.320, 212.626
1024.567, 251.194
1025.814, 203.087
1027.061, 249.664
1028.308, 224.245
1029.554, 152.832
1030.800, 114.422
1032.046, 151.018
1033.292, 206.618
1034.538, 218.223
1035.783, 287.833
1037.029, 435.453
1038.274, 570.077
1039.519, 695.706
1040.763, 671.339
1042.008, 509.978
1043.252, 423.622
1044.496, 231.271
1045.740, 168.923
1046.984, 164.579
1048.228, 143.240
1049.471, 104.905
1050.714, 97.838
1051.957, 91.512
1053.200, 110.980
1054.442, 97.862
1055.685, 81.348
1056.927, 87.038
1058.169, 52.731
1059.411, 40.430
1060.652, 24.131
1061.894, 64.837
1063.135, 98.263
1064.376, 28.468
1065.617, 126.186
1066.858, 66.907
1068.098, 81.784
1069.339, 171.518
1070.579, 48.603
1071.819, 131.878
1073.058, 134.646
1074.298, 187.496
1075.537, 232.419
1076.776, 265.215
1078.015, 307.040
1079.254, 363.953
1080.493, 386.900
1081.731, 424.543
1082.969, 452.108
1084.207, 508.941
1085.445, 562.835
1086.683, 508.674
1087.920, 534.521
1089.157, 702.489
1090.394, 670.349
1091.631, 813.237
1092.868, 826.330
1094.105, 1026.203
1095.341, 1117.083
1096.577, 1162.875
1097.813, 1473.799
1099.049, 1659.402
1100.284, 1960.314
1101.519, 2311.229
1102.755, 2287.258
1103.990, 2564.186
1105.224, 2735.115
1106.459, 2781.049
1107.693, 2805.992
1108.928, 2552.939
1110.162, 2321.888
1111.395, 2219.840
1112.629, 1737.792
1113.863, 1585.747
1115.096, 1409.703
1116.329, 1247.660
1117.562, 1149.618
1118.795, 1011.579
1120.027, 898.540
1121.259, 820.767
1122.492, 765.465
1123.723, 680.429
1124.955, 591.394
1126.187, 537.359
1127.418, 535.325
1128.649, 458.283
1129.880, 327.417
1131.111, 354.385
1132.342, 300.384
1133.572, 236.354
1134.802, 279.324
1136.033, 190.295
1137.262, 277.267
1138.492, 112.238
1139.722, 87.210
1140.951, 124.183
1142.180, 61.155
1143.409, 90.128
1144.638, 61.103
1145.866, 15.077
1147.095, 78.051
1148.323, 55.025
1149.551, 101.999
1150.779, 93.971
1152.006, 73.166
1153.234, 111.138
1154.461, 34.150
1155.688, 46.614
1156.915, 86.721
1158.141, 62.309
1159.368, 8.659
1160.594, 106.614
1161.820, 34.608
1163.046, 18.560
1164.272, 68.511
1165.498, 19.459
1166.723, 64.407
1167.948, 40.441
1169.173, 67.583
1170.398, 134.524
1171.623, 36.568
1172.847, 54.591
1174.071, 90.552
1175.295, 10.631
1176.519, 70.561
1177.743, 72.487
1178.966, 56.411
1180.190, 38.332
1181.413, 38.250
1182.636, 11.836
1183.858, 35.073
1185.081, 34.022
1186.303, 22.871
1187.526, 59.761
1188.748, 51.647
1189.969, 73.531
1191.191, 49.410
1192.412, 36.285
1193.634, 42.157
1194.855, 28.975
1196.076, 19.118
1197.296, 29.729
1198.517, 72.837
1199.737, 3.324
1200.957, 66.509
1202.177, 11.663
1203.397, 18.515
1204.617, 62.370
1205.836, 9.736
1207.055, 0.331
1208.274, 40.916
1209.493, 22.223
1210.712, 5.004
1211.930, 57.032
1213.148, 14.904
1214.367, 25.463
1215.584, 47.715
1216.802, 17.465
1218.020, 32.185
1219.237, 61.122
1220.454, 6.939
1221.671, 41.121
1222.888, 28.896
1224.105, 0.749
1225.321, 38.197
1226.537, 82.844
1227.753, 29.394
1228.969, 32.480
1230.185, 19.244
1231.400, 79.298
1232.616, 70.090
1233.831, 18.047
1235.046, 193.519
1236.261, 177.116
1237.475, 172.206
1238.689, 223.396
1239.904, 107.612
1241.118, 170.250
1242.332, 101.945
1243.545, 71.571
1244.759, 80.120
1245.972, 136.823
1247.185, 134.360
1248.398, 231.890
1249.611, 80.560
1250.823, 122.080
1252.036, 96.595
1253.248, 140.244
1254.460, 157.749
1255.671, 56.249
1256.883, 80.743
1258.095, 180.231
1259.306, 19.938
1260.517, 110.416
1261.728, 129.958
1262.938, 48.451
1264.149, 164.912
1265.359, 110.517
1266.569, 116.080
1267.779, 202.578
1268.989, 134.114
1270.199, 105.535
1271.408, 166.100
1272.617, 163.571
1273.826, 167.966
1275.035, 153.914
1276.244, 188.293
1277.452, 101.749
1278.661, 77.116
1279.869, 77.497
1281.077, 94.851
1282.285, 17.504
1283.492, 80.844
1284.700, 53.177
1285.907, 43.340
1287.114, 32.973
1288.321, 70.328
1289.527, 59.409
1290.734, 76.689
1291.940, 53.950
1293.146, 141.196
1294.352, 144.434
1295.558, 83.664
1296.763, 143.883
1297.969, 45.086
1299.174, 29.732
1300.379, 97.431
1301.584, 42.576
1302.788, 46.694
1303.993, 59.781
1305.197, 33.856
1306.401, 168.906
1307.605, 109.928
1308.809, 158.934
1310.013, 230.929
1311.216, 103.913
1312.419, 135.888
1313.622, 167.589
1314.825, 184.541
1316.028, 203.693
1317.230, 213.096
1318.432, 119.546
1319.634, 201.455
1320.836, 195.351
1322.038, 144.233
1323.240, 184.104
1324.441, 126.959
1325.642, 105.082
1326.843, 85.415
1328.044, 18.227
1329.245, 90.022
1330.445, 75.654
1331.645, 70.420
1332.845, 34.174
1334.045, 51.038
1335.245, 44.246
1336.445, 38.378
1337.644, 3.924
1338.843, 0.588
1340.042, 69.216
1341.241, 26.749
1342.440, 61.911
1343.638, 102.036
1344.836, 0.898
1346.034, 60.484
1347.232, 107.001
1348.430, 30.436
1349.628, 42.111
1350.825, 41.473
1352.022, 48.042
1353.219, 6.478
1354.416, 16.789
1355.613, 19.733
1356.809, 44.731
1358.005, 73.724
1359.202, 5.318
1360.398, 60.597
1361.593, 27.810
1362.789, 9.208
1363.984, 58.514
1365.179, 86.861
1366.374, 0.232
1367.569, 47.403
1368.764, 5.827
1369.958, 49.525
1371.153, 35.877
1372.347, 49.251
1373.541, 72.804
1374.735, 28.735
1375.928, 63.723
1377.122, 71.699
1378.315, 33.664
1379.508, 137.615
1380.701, 159.556
1381.893, 35.317
1383.086, 167.230
1384.278, 66.098
1385.470, 121.983
1386.662, 134.855
1387.854, 22.713
1389.046, 130.557
1390.237, 51.383
1391.428, 61.195
1392.619, 109.995
1393.810, 34.516
1395.001, 39.462
1396.191, 52.030
1397.382, 42.746
1398.572, 142.414
1399.762, 34.118
1400.952, 52.698
1402.141, 71.849
1403.331, 1.749
1404.520, 75.658
1405.709, 48.276
1406.898, 85.884
1408.087, 61.482
1409.275, 96.074
1410.464, 13.667
1411.652, 80.250
1412.840, 144.825
1414.028, 32.391
1415.215, 176.963
1416.403, 55.140
1417.590, 43.699
1418.777, 102.122
1419.964, 149.031
1421.151, 104.992
1422.338, 103.156
1423.524, 110.604
1424.710, 68.245
1425.896, 79.682
1427.082, 130.431
1428.268, 127.026
1429.453, 204.742
1430.639, 169.962
1431.824, 260.646
1433.009, 270.911
1434.194, 300.613
1435.378, 315.727
1436.563, 404.388
1437.747, 545.981
1438.931, 440.623
1440.115, 504.553
1441.299, 683.147
1442.482, 641.698
1443.666, 679.500
1444.849, 729.256
1446.032, 659.463
1447.215, 823.890
1448.397, 756.127
1449.580, 797.253
1450.762, 896.503
1451.944, 768.420
1453.126, 853.398
1454.308, 936.521
1455.490, 801.733
1456.671, 870.076
1457.852, 907.174
1459.033, 797.728
1460.214, 780.178
1461.395, 734.096
1462.575, 599.011
1463.756, 654.848
1464.936, 536.704
1466.116, 565.582
1467.296, 487.619
1468.475, 452.750
1469.655, 399.047
1470.834, 454.339
1472.013, 312.592
1473.192, 420.813
1474.371, 308.999
1475.550, 356.172
1476.728, 268.342
1477.906, 318.554
1479.084, 221.801
1480.262, 322.103
1481.440, 205.477
1482.617, 273.919
1483.795, 311.435
1484.972, 254.031
1486.149, 251.688
1487.326, 205.398
1488.502, 218.187
1489.679, 122.081
1490.855, 120.105
1492.031, 100.279
1493.207, 74.621
1494.383, 40.156
1495.559, 0.067
1496.734, 77.012
1497.909, 86.464
1499.084, 3.144
1500.259, 57.938
1501.434, 0.000
##END=



