##NAMES=Danburite
##RRUFFID=R040013
##IDEAL CHEMISTRY=CaB_2_Si_2_O_8_
##LOCALITY=Charcas, San Luis Potosi, Mexico
##OWNER=RRUFF
##SOURCE=Marcus Origlieri
##DESCRIPTION=Colorless prismatic single crystal
##STATUS=The identification of this mineral has been confirmed by X-ray diffraction and chemical analysis
##URL=rruff.info/R040013
##MEASURED CHEMISTRY=Ca_1.00_B_2.00_Si_2.00_O_8_
##PIN_ID=M00010
##ORIENTATION=Laser parallel to a* (1 0 0). Fiducial mark perpendicular to laser is parallel to b [0 1 0]
110.209, 0.000
111.601, 1316.635
112.992, 615.395
114.384, 1236.090
115.775, 193.374
117.166, 313.416
118.556, 719.248
119.947, 1440.724
121.337, 2873.585
122.727, 4279.808
124.116, 4693.352
125.506, 5040.452
126.895, 6497.181
128.284, 7023.965
129.673, 5157.054
131.062, 2743.378
132.450, 1282.901
133.838, 669.614
135.226, 296.469
136.614, 170.426
138.001, 117.619
139.388, 96.624
140.775, 0.139
142.162, 53.414
143.549, 42.124
144.935, 7.025
146.321, 140.047
147.707, 411.955
149.093, 981.809
150.478, 1205.642
151.863, 850.498
153.248, 377.311
154.633, 199.316
156.018, 126.441
157.402, 273.475
158.786, 686.403
160.170, 1286.235
161.554, 2536.979
162.937, 5661.642
164.320, 8066.485
165.703, 6654.745
167.086, 3453.022
168.469, 1557.166
169.851, 661.715
171.233, 261.891
172.615, 196.646
173.996, 141.143
175.378, 197.625
176.759, 405.091
178.140, 799.544
179.521, 1268.987
180.901, 1356.416
182.281, 984.830
183.662, 534.230
185.041, 269.617
186.421, 181.404
187.800, 120.488
189.180, 130.233
190.558, 102.400
191.937, 202.777
193.316, 163.473
194.694, 195.934
196.072, 310.578
197.450, 504.413
198.827, 947.875
200.205, 1860.671
201.582, 2874.907
202.959, 3295.200
204.336, 2607.308
205.712, 1715.425
207.088, 1311.553
208.465, 1272.692
209.840, 1217.841
211.216, 956.996
212.591, 571.156
213.967, 273.317
215.341, 134.477
216.716, 45.635
218.091, 11.791
219.465, 31.056
220.839, 36.906
222.213, 51.758
223.586, 71.614
224.960, 53.474
226.333, 75.339
227.706, 39.208
229.079, 52.083
230.451, 34.964
231.823, 1.853
233.195, 13.251
234.567, 48.352
235.939, 222.450
237.310, 382.550
238.682, 758.650
240.052, 1343.738
241.423, 2327.799
242.794, 3544.828
244.164, 4097.876
245.534, 3520.078
246.904, 2461.239
248.274, 1587.399
249.643, 991.394
251.012, 659.390
252.381, 445.382
253.750, 312.377
255.118, 207.374
256.487, 173.368
257.855, 128.357
259.223, 56.484
260.590, 59.850
261.958, 7.339
263.325, 4.099
264.692, 3.493
266.059, 15.141
267.425, 24.790
268.791, 9.446
270.158, 8.895
271.523, 21.236
272.889, 0.580
274.255, 18.070
275.620, 28.657
276.985, 48.242
278.350, 29.940
279.714, 1.594
281.078, 19.022
282.443, 32.458
283.806, 69.907
285.170, 17.374
286.534, 52.852
287.897, 62.351
289.260, 18.889
290.623, 2.203
291.985, 16.687
293.348, 25.114
294.710, 49.527
296.072, 86.928
297.433, 139.316
298.795, 203.692
300.156, 316.056
301.517, 556.547
302.878, 956.009
304.239, 1267.438
305.599, 1335.893
306.959, 1440.274
308.319, 1786.678
309.679, 2290.980
311.038, 2282.242
312.398, 1971.531
313.757, 1412.765
315.116, 939.920
316.474, 644.022
317.833, 420.083
319.191, 273.119
320.549, 206.147
321.907, 160.169
323.264, 155.184
324.622, 116.193
325.979, 125.195
327.336, 118.190
328.692, 147.180
330.049, 112.163
331.405, 166.140
332.761, 199.111
334.117, 294.073
335.473, 399.019
336.828, 553.958
338.183, 796.882
339.538, 1174.788
340.893, 1985.686
342.247, 3295.577
343.602, 5460.450
344.956, 8277.289
346.310, 10015.104
347.663, 9332.890
349.017, 6793.665
350.370, 4386.434
351.723, 2725.196
353.076, 1819.957
354.428, 1173.735
355.780, 809.535
357.133, 621.636
358.484, 455.371
359.836, 350.737
361.188, 284.586
362.539, 250.731
363.890, 235.784
365.241, 177.988
366.591, 158.267
367.942, 145.403
369.292, 117.174
370.642, 111.792
371.992, 113.499
373.341, 86.789
374.691, 87.788
376.040, 52.462
377.388, 45.623
378.737, 34.711
380.086, 67.485
381.434, 28.363
382.782, 67.007
384.130, 30.719
385.477, 112.471
386.825, 136.644
388.172, 240.421
389.519, 252.542
390.865, 430.214
392.212, 515.947
393.558, 589.199
394.904, 518.170
396.250, 347.256
397.596, 245.294
398.941, 133.944
400.286, 142.709
401.631, 116.424
402.976, 101.953
404.321, 120.476
405.665, 102.992
407.009, 115.500
408.353, 138.793
409.697, 141.833
411.040, 143.872
412.384, 137.212
413.727, 248.604
415.070, 274.851
416.412, 352.701
417.755, 443.249
419.097, 660.261
420.439, 878.542
421.781, 1051.875
423.122, 1067.551
424.464, 1178.586
425.805, 935.500
427.146, 671.994
428.486, 416.160
429.827, 317.441
431.167, 233.930
432.507, 102.579
433.847, 136.994
435.187, 84.405
436.526, 133.205
437.865, 171.319
439.204, 236.496
440.543, 204.776
441.882, 237.053
443.220, 138.321
444.558, 58.581
445.896, 27.832
447.234, 31.073
448.572, 35.305
449.909, 26.613
451.246, 39.729
452.583, 31.945
453.919, 51.139
455.256, 60.325
456.592, 48.503
457.928, 51.672
459.264, 87.833
460.600, 115.987
461.935, 103.133
463.270, 156.271
464.605, 163.403
465.940, 130.528
467.274, 190.645
468.609, 230.755
469.943, 363.858
471.277, 480.954
472.610, 843.043
473.944, 1382.125
475.277, 2325.200
476.610, 3857.268
477.943, 5236.328
479.275, 5269.382
480.608, 4035.429
481.940, 2548.468
483.272, 1546.501
484.604, 945.528
485.935, 638.547
487.267, 413.559
488.598, 295.565
489.929, 250.564
491.260, 190.557
492.590, 133.543
493.920, 84.523
495.250, 62.497
496.580, 53.465
497.910, 48.426
499.239, 42.381
500.569, 2.329
501.898, 70.267
503.226, 9.802
504.555, 26.118
505.883, 0.971
507.212, 2.930
508.540, 8.178
509.867, 8.298
511.195, 8.423
512.522, 7.994
513.849, 21.687
515.176, 7.826
516.503, 0.968
517.829, 18.111
519.156, 6.262
520.482, 10.451
521.808, 17.677
523.133, 9.035
524.459, 37.135
525.784, 27.481
527.109, 30.322
528.434, 19.968
529.758, 8.242
531.083, 14.541
532.407, 6.684
533.731, 31.082
535.055, 16.844
536.378, 13.400
537.701, 1.656
539.025, 6.922
540.348, 5.198
541.670, 26.519
542.993, 8.229
544.315, 12.931
545.637, 64.626
546.959, 69.315
548.281, 78.998
549.602, 93.676
550.923, 132.349
552.244, 148.019
553.565, 151.687
554.886, 187.353
556.206, 263.013
557.526, 362.671
558.846, 439.324
560.166, 741.980
561.486, 833.636
562.805, 783.288
564.124, 637.936
565.443, 493.578
566.762, 384.216
568.080, 326.849
569.399, 267.480
570.717, 304.109
572.035, 336.740
573.352, 316.375
574.670, 285.011
575.987, 376.650
577.304, 353.294
578.621, 430.938
579.938, 473.580
581.254, 498.217
582.570, 548.851
583.886, 604.399
585.202, 679.104
586.518, 747.723
587.833, 860.338
589.148, 972.809
590.463, 1092.290
591.778, 1307.787
593.093, 1498.239
594.407, 1731.748
595.721, 2200.215
597.035, 2624.769
598.349, 3311.346
599.662, 4282.879
600.976, 5635.423
602.289, 7786.987
603.602, 10853.549
604.914, 15600.104
606.227, 21836.656
607.539, 27373.205
608.851, 29779.748
610.163, 27336.285
611.475, 21512.820
612.786, 16179.352
614.097, 11855.878
615.408, 8512.401
616.719, 6585.920
618.030, 5050.435
619.340, 4247.945
620.651, 3636.452
621.961, 3283.955
623.270, 3441.454
624.580, 3490.948
625.889, 3552.440
627.199, 3235.927
628.507, 2749.410
629.816, 2324.890
631.125, 1869.366
632.433, 1527.838
633.741, 1227.307
635.049, 1099.771
636.357, 993.233
637.664, 908.690
638.972, 762.141
640.279, 673.565
641.586, 660.959
642.893, 583.042
644.199, 575.482
645.505, 524.833
646.811, 480.026
648.117, 439.591
649.423, 408.676
650.728, 366.508
652.034, 358.504
653.339, 312.675
654.644, 329.729
655.948, 268.304
657.253, 283.136
658.557, 266.127
659.861, 206.718
661.165, 228.018
662.468, 166.783
663.772, 211.845
665.075, 200.293
666.378, 159.435
667.681, 167.309
668.983, 162.626
670.286, 111.125
671.588, 167.652
672.890, 158.850
674.192, 166.091
675.493, 140.042
676.795, 130.258
678.096, 127.152
679.397, 125.109
680.697, 115.088
681.998, 91.656
683.298, 81.909
684.598, 29.038
685.898, 78.209
687.198, 126.558
688.498, 60.904
689.797, 81.283
691.096, 113.863
692.395, 48.256
693.694, 72.977
694.992, 69.339
696.290, 72.671
697.589, 138.359
698.886, 73.688
700.184, 112.168
701.482, 83.492
702.779, 130.813
704.076, 154.133
705.373, 100.459
706.669, 135.774
707.966, 52.128
709.262, 55.438
710.558, 138.747
711.854, 176.054
713.150, 181.489
714.445, 187.862
715.740, 225.256
717.035, 177.554
718.330, 180.687
719.625, 182.328
720.919, 136.620
722.214, 104.910
723.508, 84.198
724.801, 55.483
726.095, 49.632
727.388, 68.048
728.682, 48.328
729.975, 65.606
731.267, 77.883
732.560, 66.158
733.852, 69.433
735.145, 75.839
736.437, 73.978
737.728, 68.248
739.020, 75.516
740.311, 66.871
741.603, 22.049
742.894, 57.313
744.184, 51.575
745.475, 49.836
746.765, 82.095
748.055, 52.353
749.345, 66.610
750.635, 100.865
751.925, 78.118
753.214, 93.370
754.503, 88.028
755.792, 34.871
757.081, 64.119
758.370, 77.366
759.658, 50.612
760.946, 81.856
762.234, 76.100
763.522, 17.343
764.809, 92.584
766.097, 55.824
767.384, 106.064
768.671, 142.302
769.958, 153.540
771.244, 160.777
772.530, 234.012
773.817, 244.248
775.102, 270.482
776.388, 251.715
777.674, 166.948
778.959, 160.180
780.244, 82.412
781.529, 96.643
782.814, 20.875
784.098, 21.107
785.383, 47.342
786.667, 16.577
787.951, 18.813
789.235, 36.051
790.518, 7.709
791.801, 15.469
793.084, 10.229
794.367, 2.990
795.650, 42.253
796.933, 32.499
798.215, 43.746
799.497, 63.003
800.779, 19.237
802.061, 21.520
803.342, 14.278
804.624, 22.962
805.905, 66.792
807.186, 1.556
808.466, 13.320
809.747, 33.085
811.027, 8.145
812.307, 19.624
813.587, 31.395
814.867, 10.830
816.146, 11.946
817.426, 6.281
818.705, 9.491
819.984, 33.261
821.263, 8.964
822.541, 13.190
823.819, 32.419
825.098, 23.019
826.375, 2.878
827.653, 2.892
828.931, 14.661
830.208, 4.432
831.485, 21.204
832.762, 1.979
834.039, 16.247
835.315, 20.527
836.592, 43.696
837.868, 55.080
839.144, 10.134
840.420, 13.349
841.695, 21.564
842.970, 0.219
844.246, 31.999
845.521, 3.783
846.795, 30.436
848.070, 10.656
849.344, 44.878
850.618, 10.900
851.892, 6.677
853.166, 8.455
854.440, 94.768
855.713, 15.008
856.986, 32.215
858.259, 16.440
859.532, 1.666
860.804, 26.894
862.077, 13.616
863.349, 63.354
864.621, 37.586
865.893, 47.821
867.164, 103.057
868.436, 20.294
869.707, 56.533
870.978, 60.774
872.248, 68.017
873.519, 62.262
874.789, 32.509
876.060, 64.757
877.330, 62.008
878.599, 78.260
879.869, 114.515
881.138, 48.772
882.408, 106.031
883.677, 87.292
884.945, 155.556
886.214, 105.822
887.482, 132.094
888.751, 168.369
890.019, 136.645
891.287, 170.925
892.554, 246.206
893.822, 224.490
895.089, 265.777
896.356, 274.066
897.623, 370.358
898.889, 356.653
900.156, 418.951
901.422, 533.251
902.688, 517.554
903.954, 523.860
905.220, 608.169
906.485, 606.481
907.750, 597.796
909.015, 657.114
910.280, 727.435
911.545, 857.759
912.809, 871.086
914.074, 1028.417
915.338, 1095.750
916.602, 1123.087
917.865, 1169.427
919.129, 1142.771
920.392, 1101.117
921.655, 1067.050
922.918, 959.820
924.181, 928.177
925.443, 795.537
926.706, 700.901
927.968, 662.098
929.230, 621.122
930.491, 584.273
931.753, 621.587
933.014, 585.968
934.276, 604.353
935.536, 609.741
936.797, 718.698
938.058, 900.094
939.318, 989.028
940.578, 1196.138
941.838, 1497.545
943.098, 1743.447
944.358, 2038.835
945.617, 2211.996
946.876, 2255.703
948.135, 2326.132
949.394, 1982.168
950.653, 1832.937
951.911, 1494.377
953.169, 1284.614
954.427, 1043.063
955.685, 981.372
956.943, 901.135
958.200, 848.596
959.458, 866.062
960.715, 889.533
961.971, 908.007
963.228, 1103.486
964.485, 1281.934
965.741, 1582.183
966.997, 1975.621
968.253, 2511.736
969.508, 3262.213
970.764, 3887.721
972.019, 4100.876
973.274, 3922.393
974.529, 3340.760
975.784, 2714.287
977.039, 2236.818
978.293, 1758.354
979.547, 1568.885
980.801, 1310.431
982.055, 1103.940
983.308, 947.495
984.562, 839.054
985.815, 777.619
987.068, 753.058
988.321, 727.562
989.573, 691.048
990.826, 656.991
992.078, 630.040
993.330, 591.634
994.582, 651.234
995.833, 656.838
997.085, 724.447
998.336, 715.062
999.587, 858.684
1000.838, 1021.311
1002.088, 1271.947
1003.339, 1536.589
1004.589, 1847.236
1005.839, 2368.888
1007.089, 2772.547
1008.339, 2567.209
1009.588, 2085.880
1010.838, 1549.557
1012.087, 1160.238
1013.336, 924.924
1014.584, 697.616
1015.833, 504.312
1017.081, 525.013
1018.330, 395.720
1019.577, 371.566
1020.825, 389.285
1022.073, 418.666
1023.320, 439.402
1024.567, 389.143
1025.814, 385.899
1027.061, 391.663
1028.308, 318.431
1029.554, 318.211
1030.800, 274.995
1032.046, 229.784
1033.292, 161.584
1034.538, 201.389
1035.783, 241.202
1037.029, 153.021
1038.274, 174.845
1039.519, 125.682
1040.763, 47.525
1042.008, 139.373
1043.252, 160.229
1044.496, 109.090
1045.740, 119.955
1046.984, 95.825
1048.228, 89.700
1049.471, 84.581
1050.714, 108.466
1051.957, 119.355
1053.200, 107.256
1054.442, 55.162
1055.685, 139.076
1056.927, 87.999
1058.169, 65.927
1059.411, 167.859
1060.652, 109.796
1061.894, 145.738
1063.135, 147.684
1064.376, 89.636
1065.617, 210.595
1066.858, 75.559
1068.098, 152.527
1069.339, 174.499
1070.579, 87.476
1071.819, 287.472
1073.058, 181.465
1074.298, 188.464
1075.537, 269.469
1076.776, 201.478
1078.015, 233.498
1079.254, 214.669
1080.493, 240.726
1081.731, 281.829
1082.969, 222.874
1084.207, 341.925
1085.445, 249.983
1086.683, 286.044
1087.920, 361.110
1089.157, 310.182
1090.394, 350.256
1091.631, 443.336
1092.868, 447.420
1094.105, 564.509
1095.341, 589.602
1096.577, 637.697
1097.813, 783.795
1099.049, 759.897
1100.284, 942.006
1101.519, 1055.603
1102.755, 1125.720
1103.990, 1227.847
1105.224, 1214.977
1106.459, 1278.111
1107.693, 1227.249
1108.928, 1118.394
1110.162, 1048.543
1111.395, 991.694
1112.629, 800.847
1113.863, 787.003
1115.096, 660.162
1116.329, 564.375
1117.562, 567.540
1118.795, 464.706
1120.027, 491.874
1121.259, 460.175
1122.492, 404.472
1123.723, 409.648
1124.955, 298.828
1126.187, 231.014
1127.418, 334.199
1128.649, 209.385
1129.880, 238.574
1131.111, 148.764
1132.342, 169.551
1133.572, 202.744
1134.802, 117.850
1136.033, 129.151
1137.262, 123.349
1138.492, 135.852
1139.722, 74.113
1140.951, 113.316
1142.180, 63.164
1143.409, 86.428
1144.638, 74.695
1145.866, 41.960
1147.095, 103.167
1148.323, 49.383
1149.551, 52.611
1150.779, 45.917
1152.006, 15.640
1153.234, 32.967
1154.461, 40.043
1155.688, 118.725
1156.915, 86.146
1158.141, 58.423
1159.368, 92.224
1160.594, 119.590
1161.820, 59.970
1163.046, 106.218
1164.272, 73.417
1165.498, 66.039
1166.723, 119.237
1167.948, 65.207
1169.173, 234.527
1170.398, 220.906
1171.623, 202.028
1172.847, 211.419
1174.071, 235.617
1175.295, 224.658
1176.519, 264.846
1177.743, 177.033
1178.966, 195.346
1180.190, 204.636
1181.413, 144.012
1182.636, 200.218
1183.858, 110.439
1185.081, 101.071
1186.303, 121.382
1187.526, 111.343
1188.748, 154.736
1189.969, 86.903
1191.191, 90.068
1192.412, 112.375
1193.634, 78.535
1194.855, 86.690
1196.076, 30.844
1197.296, 7.317
1198.517, 118.638
1199.737, 61.783
1200.957, 34.925
1202.177, 130.241
1203.397, 7.376
1204.617, 114.692
1205.836, 65.031
1207.055, 53.156
1208.274, 79.331
1209.493, 13.449
1210.712, 4.708
1211.930, 7.963
1213.148, 0.937
1214.367, 25.121
1215.584, 57.217
1216.802, 64.309
1218.020, 118.397
1219.237, 80.512
1220.454, 15.591
1221.671, 72.701
1222.888, 78.772
1224.105, 31.065
1225.321, 72.395
1226.537, 19.463
1227.753, 50.536
1228.969, 61.604
1230.185, 44.646
1231.400, 36.258
1232.616, 15.708
1233.831, 33.316
1235.046, 46.867
1236.261, 115.880
1237.475, 78.918
1238.689, 60.922
1239.904, 29.921
1241.118, 152.000
1242.332, 36.050
1243.545, 46.035
1244.759, 100.029
1245.972, 36.001
1247.185, 15.970
1248.398, 92.066
1249.611, 43.028
1250.823, 63.987
1252.036, 4.032
1253.248, 5.022
1254.460, 59.969
1255.671, 80.989
1256.883, 29.922
1258.095, 114.976
1259.306, 35.898
1260.517, 49.814
1261.728, 80.725
1262.938, 15.368
1264.149, 71.533
1265.359, 28.576
1266.569, 11.300
1267.779, 95.158
1268.989, 1.993
1270.199, 21.928
1271.408, 51.091
1272.617, 16.096
1273.826, 23.708
1275.035, 23.493
1276.244, 24.268
1277.452, 55.036
1278.661, 36.113
1279.869, 33.729
1281.077, 17.294
1282.285, 3.021
1283.492, 4.399
1284.700, 20.695
1285.907, 11.654
1287.114, 4.028
1288.321, 76.297
1289.527, 12.640
1290.734, 9.006
1291.940, 37.356
1293.146, 30.270
1294.352, 50.882
1295.558, 47.516
1296.763, 75.074
1297.969, 19.343
1299.174, 15.228
1300.379, 8.791
1301.584, 68.658
1302.788, 7.877
1303.993, 41.400
1305.197, 22.084
1306.401, 56.406
1307.605, 43.888
1308.809, 16.362
1310.013, 20.827
1311.216, 9.284
1312.419, 38.730
1313.622, 35.168
1314.825, 47.404
1316.028, 16.008
1317.230, 18.591
1318.432, 37.202
1319.634, 45.172
1320.836, 59.537
1322.038, 15.892
1323.240, 64.238
1324.441, 53.570
1325.642, 65.894
1326.843, 2.208
1328.044, 13.514
1329.245, 55.809
1330.445, 94.096
1331.645, 13.374
1332.845, 47.644
1334.045, 12.896
1335.245, 10.146
1336.445, 85.388
1337.644, 35.621
1338.843, 48.844
1340.042, 14.940
1341.241, 16.119
1342.440, 24.737
1343.638, 7.413
1344.836, 72.589
1346.034, 81.757
1347.232, 89.917
1348.430, 41.069
1349.628, 63.213
1350.825, 40.371
1352.022, 67.500
1353.219, 9.621
1354.416, 6.733
1355.613, 45.838
1356.809, 43.936
1358.005, 44.026
1359.202, 81.110
1360.398, 7.812
1361.593, 80.256
1362.789, 95.833
1363.984, 49.111
1365.179, 52.932
1366.374, 41.970
1367.569, 51.003
1368.764, 84.032
1369.958, 30.341
1371.153, 35.365
1372.347, 59.549
1373.541, 45.505
1374.735, 109.141
1375.928, 60.625
1377.122, 21.152
1378.315, 93.536
1379.508, 54.914
1380.701, 30.404
1381.893, 41.888
1383.086, 77.361
1384.278, 33.182
1385.470, 123.521
1386.662, 22.611
1387.854, 92.954
1389.046, 118.562
1390.237, 64.806
1391.428, 98.167
1392.619, 96.391
1393.810, 60.999
1395.001, 101.735
1396.191, 50.294
1397.382, 47.641
1398.572, 28.389
1399.762, 0.849
1400.952, 74.076
1402.141, 98.861
1403.331, 93.288
1404.520, 90.290
1405.709, 97.370
1406.898, 101.160
1408.087, 81.933
1409.275, 108.938
1410.464, 73.672
1411.652, 50.945
1412.840, 88.697
1414.028, 118.643
1415.215, 81.105
1416.403, 65.765
1417.590, 142.398
1418.777, 132.004
1419.964, 133.550
1421.151, 137.320
1422.338, 121.752
1423.524, 63.985
1424.710, 101.777
1425.896, 88.504
1427.082, 86.210
1428.268, 121.572
1429.453, 108.345
1430.639, 131.458
1431.824, 129.118
1433.009, 102.788
1434.194, 139.583
1435.378, 136.767
1436.563, 121.532
1437.747, 158.960
1438.931, 174.461
1440.115, 163.696
1441.299, 164.154
1442.482, 143.297
1443.666, 230.500
1444.849, 168.579
1446.032, 76.899
1447.215, 245.185
1448.397, 154.434
1449.580, 145.710
1450.762, 238.803
1451.944, 173.266
1453.126, 221.582
1454.308, 190.919
1455.490, 165.229
1456.671, 190.574
1457.852, 161.951
1459.033, 157.305
1460.214, 144.644
1461.395, 72.967
1462.575, 139.286
1463.756, 188.613
1464.936, 131.914
1466.116, 131.206
1467.296, 118.498
1468.475, 73.830
1469.655, 158.199
1470.834, 142.562
1472.013, 122.924
1473.192, 131.294
1474.371, 63.682
1475.550, 157.076
1476.728, 108.486
1477.906, 18.952
1479.084, 61.431
1480.262, 118.921
1481.440, 27.426
1482.617, 55.950
1483.795, 86.497
1484.972, 77.076
1486.149, 91.687
1487.326, 44.333
1488.502, 96.021
1489.679, 104.757
1490.855, 58.267
1492.031, 31.080
1493.207, 67.956
1494.383, 51.904
1495.559, 103.935
1496.734, 3.910
1497.909, 156.414
1499.084, 2.930
1500.259, 12.362
1501.434, 0.000
##END=



