##NAMES=Danburite
##RRUFFID=R040013
##IDEAL CHEMISTRY=CaB_2_Si_2_O_8_
##LOCALITY=Charcas, San Luis Potosi, Mexico
##OWNER=RRUFF
##SOURCE=Marcus Origlieri
##DESCRIPTION=Colorless prismatic single crystal
##STATUS=The identification of this mineral has been confirmed by X-ray diffraction and chemical analysis
##URL=rruff.info/R040013
##MEASURED CHEMISTRY=Ca_1.00_B_2.00_Si_2.00_O_8_
##PIN_ID=M00010
##ORIENTATION=Laser parallel to a* (1 0 0). Fiducial mark perpendicular to laser is parallel to b [0 1 0]
107.425, 0.000
108.817, 36.158
110.209, 329.434
111.601, 510.323
112.992, 418.128
114.384, 1101.463
115.775, 458.009
117.166, 701.708
118.556, 1293.228
119.947, 2522.796
121.337, 4705.469
122.727, 6604.354
124.116, 6916.520
125.506, 7507.082
126.895, 9725.640
128.284, 9904.107
129.673, 6642.795
131.062, 3283.686
132.450, 1443.744
133.838, 690.933
135.226, 458.305
136.614, 455.331
138.001, 402.535
139.388, 264.898
140.775, 67.104
142.162, 5.414
143.549, 62.442
144.935, 64.343
146.321, 20.285
147.707, 90.803
149.093, 284.053
150.478, 330.290
151.863, 189.539
153.248, 57.001
154.633, 70.436
156.018, 130.808
157.402, 382.124
158.786, 987.389
160.170, 1903.609
161.554, 4204.786
162.937, 9197.840
164.320, 12316.730
165.703, 8879.853
167.086, 3909.552
168.469, 1436.435
169.851, 512.814
171.233, 184.328
172.615, 35.837
173.996, 11.658
175.378, 0.159
176.759, 119.344
178.140, 309.847
179.521, 636.347
180.901, 723.844
182.281, 533.336
183.662, 224.826
185.041, 70.325
186.421, 60.881
187.800, 217.724
189.180, 335.051
190.558, 392.687
191.937, 385.109
193.316, 185.542
194.694, 71.987
196.072, 61.993
197.450, 118.769
198.827, 325.539
200.205, 650.845
201.582, 1027.136
202.959, 1130.435
204.336, 977.745
205.712, 782.065
207.088, 1045.397
208.465, 1544.740
209.840, 1664.089
211.216, 1210.443
212.591, 651.802
213.967, 328.163
215.341, 88.526
216.716, 0.112
218.091, 35.749
219.465, 34.383
220.839, 101.015
222.213, 50.646
223.586, 14.723
224.960, 38.093
226.333, 61.462
227.706, 35.171
229.079, 44.805
230.451, 25.441
231.823, 5.921
233.195, 101.283
234.567, 155.650
235.939, 373.024
237.310, 666.402
238.682, 1268.752
240.052, 2255.083
241.423, 4019.426
242.794, 6031.769
244.164, 6602.452
245.534, 5240.896
246.904, 3334.285
248.274, 2050.759
249.643, 1281.129
251.012, 849.508
252.381, 611.898
253.750, 442.287
255.118, 345.671
256.487, 234.884
257.855, 187.357
259.223, 128.966
260.590, 76.660
261.958, 61.407
263.325, 22.190
264.692, 15.001
266.059, 11.813
267.425, 20.369
268.791, 21.551
270.158, 49.734
271.523, 34.922
272.889, 2.885
274.255, 84.647
275.620, 242.360
276.985, 211.076
278.350, 143.794
279.714, 30.514
281.078, 38.234
282.443, 21.047
283.806, 46.333
285.170, 55.630
286.534, 59.941
287.897, 29.267
289.260, 9.610
290.623, 57.037
291.985, 160.653
293.348, 162.211
294.710, 246.621
296.072, 195.246
297.433, 187.865
298.795, 219.478
300.156, 294.084
301.517, 455.683
302.878, 737.318
304.239, 1020.966
305.599, 1330.754
306.959, 1838.329
308.319, 2513.893
309.679, 3091.450
311.038, 3197.987
312.398, 2608.474
313.757, 1877.940
315.116, 1225.402
316.474, 771.834
317.833, 526.253
319.191, 360.668
320.549, 265.080
321.907, 196.281
323.264, 196.660
324.622, 137.062
325.979, 153.461
327.336, 167.856
328.692, 196.248
330.049, 225.637
331.405, 289.022
332.761, 333.403
334.117, 440.776
335.473, 499.138
336.828, 733.477
338.183, 1077.802
339.538, 1733.123
340.893, 2845.441
342.247, 4870.755
343.602, 8063.048
344.956, 12157.312
346.310, 14476.562
347.663, 12575.808
349.017, 8504.051
350.370, 5286.291
351.723, 3140.528
353.076, 1996.762
354.428, 1404.038
355.780, 994.280
357.133, 754.773
358.484, 601.025
359.836, 461.099
361.188, 389.554
362.539, 340.067
363.890, 259.231
365.241, 183.615
366.591, 169.169
367.942, 131.923
369.292, 122.555
370.642, 98.158
371.992, 102.163
373.341, 50.057
374.691, 59.041
376.040, 52.293
377.388, 16.466
378.737, 15.473
380.086, 42.217
381.434, 28.828
382.782, 45.657
384.130, 40.063
385.477, 23.402
386.825, 58.580
388.172, 74.370
389.519, 91.645
390.865, 165.821
392.212, 195.492
393.558, 177.683
394.904, 153.974
396.250, 132.293
397.596, 106.437
398.941, 80.532
400.286, 100.727
401.631, 63.813
402.976, 105.901
404.321, 169.979
405.665, 184.050
407.009, 157.115
408.353, 201.174
409.697, 178.225
411.040, 213.711
412.384, 224.717
413.727, 292.051
415.070, 396.345
416.412, 532.971
417.755, 737.928
419.097, 954.750
420.439, 1383.746
421.781, 1643.736
423.122, 1792.719
424.464, 1683.695
425.805, 1309.664
427.146, 882.627
428.486, 560.815
429.827, 377.403
431.167, 242.764
432.507, 198.013
433.847, 119.965
435.187, 146.364
436.526, 195.281
437.865, 280.198
439.204, 379.114
440.543, 390.025
441.882, 298.929
443.220, 251.827
444.558, 103.719
445.896, 56.605
447.234, 37.484
448.572, 33.357
449.909, 11.223
451.246, 46.080
452.583, 48.931
453.919, 62.776
455.256, 62.615
456.592, 147.448
457.928, 181.275
459.264, 197.096
460.600, 208.911
461.935, 157.721
463.270, 143.525
464.605, 168.323
465.940, 202.116
467.274, 242.904
468.609, 302.687
469.943, 449.465
471.277, 658.237
472.610, 1033.003
473.944, 1807.763
475.277, 3081.518
476.610, 5095.268
477.943, 6741.010
479.275, 6505.748
480.608, 4655.480
481.940, 2793.207
483.272, 1571.928
484.604, 962.644
485.935, 584.354
487.267, 416.058
488.598, 289.757
489.929, 221.451
491.260, 151.140
492.590, 134.823
493.920, 92.501
495.250, 76.174
496.580, 57.841
497.910, 38.503
499.239, 45.160
500.569, 6.811
501.898, 41.453
503.226, 19.909
504.555, 8.714
505.883, 4.330
507.212, 30.062
508.540, 18.530
509.867, 5.121
511.195, 38.713
512.522, 15.688
513.849, 1.096
515.176, 18.513
516.503, 13.942
517.829, 16.381
519.156, 37.826
520.482, 15.283
521.808, 20.897
523.133, 8.538
524.459, 3.039
525.784, 12.614
527.109, 6.877
528.434, 12.333
529.758, 28.293
531.083, 11.823
532.407, 17.634
533.731, 28.911
535.055, 7.470
536.378, 30.038
537.701, 13.382
539.025, 9.795
540.348, 37.205
541.670, 46.610
542.993, 24.017
544.315, 63.417
545.637, 44.812
546.959, 76.202
548.281, 64.588
549.602, 120.970
550.923, 90.348
552.244, 149.722
553.565, 177.091
554.886, 235.460
556.206, 307.826
557.526, 431.193
558.846, 672.560
560.166, 1061.929
561.486, 1179.298
562.805, 980.664
564.124, 777.028
565.443, 630.388
566.762, 479.742
568.080, 485.094
569.399, 450.439
570.717, 416.781
572.035, 428.121
573.352, 453.463
574.670, 504.808
575.987, 504.157
577.304, 541.506
578.621, 600.852
579.938, 671.194
581.254, 742.179
582.570, 816.003
583.886, 903.544
585.202, 983.513
586.518, 1092.831
587.833, 1203.144
589.148, 1315.452
590.463, 1598.711
591.778, 1776.946
593.093, 2130.030
594.407, 2425.314
595.721, 2983.598
597.035, 3726.878
598.349, 4602.154
599.662, 6079.424
600.976, 7923.690
602.289, 11021.952
603.602, 15600.209
604.914, 22348.459
606.227, 31486.711
607.539, 38984.973
608.851, 41353.219
610.163, 36921.453
611.475, 27839.680
612.786, 20637.902
614.097, 14766.125
615.408, 10634.341
616.719, 8233.552
618.030, 6304.760
619.340, 5229.963
620.651, 4448.162
621.961, 4065.356
623.270, 4002.545
624.580, 4038.731
625.889, 4316.913
627.199, 4028.089
628.507, 3423.262
629.816, 2881.430
631.125, 2274.594
632.433, 1898.753
633.741, 1553.908
635.049, 1344.060
636.357, 1223.207
637.664, 1140.349
638.972, 991.488
640.279, 862.577
641.586, 847.693
642.893, 774.551
644.199, 700.642
645.505, 676.904
646.811, 598.776
648.117, 561.584
649.423, 497.599
650.728, 483.557
652.034, 473.365
653.339, 406.416
654.644, 389.752
655.948, 350.683
657.253, 337.946
658.557, 322.877
659.861, 293.518
661.165, 253.323
662.468, 274.917
663.772, 249.148
665.075, 251.626
666.378, 224.229
667.681, 264.045
668.983, 236.839
670.286, 194.389
671.588, 211.257
672.890, 157.644
674.192, 162.381
675.493, 184.558
676.795, 117.373
678.096, 184.104
679.397, 129.949
680.697, 176.680
681.998, 99.859
683.298, 109.104
684.598, 97.014
685.898, 116.024
687.198, 114.190
688.498, 131.409
689.797, 104.411
691.096, 153.837
692.395, 76.937
693.694, 126.928
694.992, 47.353
696.290, 120.846
697.589, 93.176
698.886, 78.435
700.184, 72.411
701.482, 76.394
702.779, 77.575
704.076, 76.179
705.373, 97.142
706.669, 84.102
707.966, 94.312
709.262, 74.265
710.558, 141.233
711.854, 83.180
713.150, 149.124
714.445, 156.064
715.740, 155.054
717.035, 134.987
718.330, 102.918
719.625, 120.845
720.919, 61.770
722.214, 77.691
723.508, 62.609
724.801, 54.523
726.095, 41.435
727.388, 60.343
728.682, 56.249
729.975, 52.151
731.267, 38.051
732.560, 59.948
733.852, 34.843
735.145, 27.736
736.437, 68.625
737.728, 23.511
739.020, 86.395
740.311, 76.276
741.603, 30.154
742.894, 43.029
744.184, 42.902
745.475, 26.772
746.765, 14.639
748.055, 33.503
749.345, 20.130
750.635, 32.603
751.925, 22.080
753.214, 51.934
754.503, 62.786
755.792, 70.803
757.081, 30.481
758.370, 63.325
759.658, 62.167
760.946, 53.006
762.234, 71.843
763.522, 79.677
764.809, 66.510
766.097, 92.339
767.384, 116.167
768.671, 143.993
769.958, 180.816
771.244, 200.638
772.530, 237.457
773.817, 208.274
775.102, 208.089
776.388, 149.903
777.674, 114.714
778.959, 91.523
780.244, 61.331
781.529, 47.136
782.814, 40.941
784.098, 28.161
785.383, 23.551
786.667, 18.357
787.951, 17.162
789.235, 9.971
790.518, 39.221
791.801, 42.577
793.084, 14.373
794.367, 7.828
795.650, 29.969
796.933, 21.232
798.215, 11.437
799.497, 17.357
800.779, 8.844
802.061, 0.954
803.342, 11.755
804.624, 38.557
805.905, 16.640
807.186, 14.161
808.466, 28.039
809.747, 35.245
811.027, 9.544
812.307, 34.665
813.587, 6.882
814.867, 13.098
816.146, 32.316
817.426, 9.464
818.705, 38.757
819.984, 7.987
821.263, 52.220
822.541, 10.534
823.819, 17.289
825.098, 6.958
826.375, 9.207
827.653, 1.540
828.931, 18.713
830.208, 4.972
831.485, 4.768
832.762, 19.493
834.039, 22.759
835.315, 16.030
836.592, 13.306
837.868, 4.415
839.144, 0.135
840.420, 8.854
841.695, 38.427
842.970, 30.284
844.246, 33.995
845.521, 13.295
846.795, 73.412
848.070, 0.881
849.344, 51.825
850.618, 7.532
851.892, 27.239
853.166, 4.055
854.440, 31.651
855.713, 53.357
856.986, 95.063
858.259, 91.769
859.532, 100.476
860.804, 65.182
862.077, 68.889
863.349, 65.596
864.621, 22.304
865.893, 49.012
867.164, 29.721
868.436, 57.430
869.707, 55.139
870.978, 66.850
872.248, 55.561
873.519, 57.272
874.789, 63.984
876.060, 131.697
877.330, 82.411
878.599, 92.125
879.869, 89.840
881.138, 56.557
882.408, 122.274
883.677, 106.992
884.945, 116.688
886.214, 122.408
887.482, 163.130
888.751, 192.853
890.019, 207.577
891.287, 210.303
892.554, 284.030
893.822, 255.759
895.089, 386.489
896.356, 447.221
897.623, 436.954
898.889, 528.689
900.156, 593.426
901.422, 680.165
902.688, 657.905
903.954, 720.647
905.220, 815.391
906.485, 771.137
907.750, 810.885
909.015, 927.635
910.280, 880.386
911.545, 1111.140
912.809, 1174.896
914.074, 1260.654
915.338, 1301.415
916.602, 1270.177
917.865, 1238.942
919.129, 1199.709
920.392, 1060.478
921.655, 958.250
922.918, 868.024
924.181, 801.800
925.443, 781.579
926.706, 660.360
927.968, 609.146
929.230, 616.933
930.491, 633.722
931.753, 649.254
933.014, 659.049
934.276, 757.281
935.536, 806.746
936.797, 961.548
938.058, 1149.085
939.318, 1349.854
940.578, 1747.666
941.838, 2038.480
943.098, 2421.859
944.358, 2879.679
945.617, 3143.804
946.876, 3236.769
948.135, 3124.598
949.394, 2792.588
950.653, 2343.230
951.911, 1979.734
953.169, 1626.798
954.427, 1486.643
955.685, 1211.570
956.943, 1196.219
958.200, 1115.847
959.458, 1097.706
960.715, 1185.569
961.971, 1256.270
963.228, 1412.926
964.485, 1691.800
965.741, 2112.249
966.997, 2714.026
968.253, 3609.912
969.508, 4493.366
970.764, 5395.751
972.019, 5711.302
973.274, 5458.923
974.529, 4521.828
975.784, 3533.728
977.039, 2959.642
978.293, 2399.711
979.547, 2026.634
980.801, 1684.562
982.055, 1426.239
983.308, 1326.176
984.562, 1092.098
985.815, 1002.043
987.068, 943.993
988.321, 851.947
989.573, 845.854
990.826, 785.817
992.078, 764.785
993.330, 873.758
994.582, 812.735
995.833, 870.717
997.085, 972.704
998.336, 1004.696
999.587, 1251.692
1000.838, 1435.693
1002.088, 1648.699
1003.339, 2189.710
1004.589, 2754.725
1005.839, 3609.746
1007.089, 3885.771
1008.339, 3633.801
1009.588, 2821.836
1010.838, 2063.875
1012.087, 1487.921
1013.336, 1091.972
1014.584, 812.027
1015.833, 689.109
1017.081, 631.184
1018.330, 486.261
1019.577, 506.346
1020.825, 421.437
1022.073, 425.535
1023.320, 401.644
1024.567, 379.758
1025.814, 402.928
1027.061, 351.069
1028.308, 330.249
1029.554, 287.403
1030.800, 256.311
1032.046, 204.731
1033.292, 190.905
1034.538, 180.084
1035.783, 138.271
1037.029, 145.465
1038.274, 141.666
1039.519, 173.872
1040.763, 95.084
1042.008, 95.302
1043.252, 100.526
1044.496, 47.755
1045.740, 29.989
1046.984, 117.229
1048.228, 84.474
1049.471, 99.725
1050.714, 47.980
1051.957, 105.240
1053.200, 55.506
1054.442, 51.777
1055.685, 96.054
1056.927, 102.337
1058.169, 99.625
1059.411, 108.918
1060.652, 123.217
1061.894, 121.552
1063.135, 119.820
1064.376, 101.184
1065.617, 116.507
1066.858, 93.836
1068.098, 118.171
1069.339, 123.515
1070.579, 107.866
1071.819, 141.222
1073.058, 162.625
1074.298, 166.992
1075.537, 172.365
1076.776, 205.742
1078.015, 205.501
1079.254, 200.516
1080.493, 225.914
1081.731, 250.322
1082.969, 263.734
1084.207, 286.155
1085.445, 260.582
1086.683, 329.016
1087.920, 409.458
1089.157, 399.905
1090.394, 468.361
1091.631, 530.826
1092.868, 542.301
1094.105, 721.783
1095.341, 793.270
1096.577, 826.763
1097.813, 1025.263
1099.049, 1063.767
1100.284, 1256.277
1101.519, 1407.793
1102.755, 1479.315
1103.990, 1659.844
1105.224, 1694.379
1106.459, 1636.921
1107.693, 1619.471
1108.928, 1470.025
1110.162, 1354.583
1111.395, 1205.147
1112.629, 1041.719
1113.863, 962.300
1115.096, 800.885
1116.329, 671.475
1117.562, 667.070
1118.795, 556.669
1120.027, 659.273
1121.259, 605.881
1122.492, 518.492
1123.723, 400.108
1124.955, 332.728
1126.187, 309.352
1127.418, 336.980
1128.649, 229.612
1129.880, 276.248
1131.111, 196.887
1132.342, 158.531
1133.572, 167.178
1134.802, 130.829
1136.033, 100.484
1137.262, 95.498
1138.492, 37.805
1139.722, 83.470
1140.951, 62.140
1142.180, 88.813
1143.409, 81.490
1144.638, 49.354
1145.866, 80.037
1147.095, 33.725
1148.323, 2.418
1149.551, 0.802
1150.779, 40.245
1152.006, 17.494
1153.234, 69.196
1154.461, 35.590
1155.688, 13.324
1156.915, 27.034
1158.141, 5.924
1159.368, 59.179
1160.594, 4.797
1161.820, 34.219
1163.046, 36.319
1164.272, 19.094
1165.498, 73.130
1166.723, 102.127
1167.948, 76.239
1169.173, 134.390
1170.398, 108.492
1171.623, 170.267
1172.847, 165.276
1174.071, 148.161
1175.295, 152.993
1176.519, 163.735
1177.743, 100.508
1178.966, 180.453
1180.190, 102.200
1181.413, 84.948
1182.636, 144.698
1183.858, 58.448
1185.081, 78.200
1186.303, 58.167
1187.526, 39.922
1188.748, 79.013
1189.969, 49.769
1191.191, 29.551
1192.412, 80.310
1193.634, 3.931
1194.855, 24.850
1196.076, 32.610
1197.296, 12.371
1198.517, 34.132
1199.737, 24.894
1200.957, 33.094
1202.177, 77.858
1203.397, 16.621
1204.617, 4.615
1205.836, 3.148
1207.055, 31.912
1208.274, 79.747
1209.493, 10.511
1210.712, 27.275
1211.930, 66.201
1213.148, 36.965
1214.367, 52.729
1215.584, 59.492
1216.802, 25.256
1218.020, 75.070
1219.237, 21.873
1220.454, 61.635
1221.671, 59.397
1222.888, 67.653
1224.105, 66.415
1225.321, 34.773
1226.537, 16.533
1227.753, 19.461
1228.969, 10.267
1230.185, 16.025
1231.400, 17.786
1232.616, 18.546
1233.831, 29.530
1235.046, 51.385
1236.261, 63.138
1237.475, 31.922
1238.689, 49.995
1239.904, 2.785
1241.118, 66.592
1242.332, 45.477
1243.545, 40.224
1244.759, 71.888
1245.972, 52.633
1247.185, 80.375
1248.398, 77.217
1249.611, 42.959
1250.823, 63.701
1252.036, 97.443
1253.248, 33.185
1254.460, 94.974
1255.671, 39.716
1256.883, 100.457
1258.095, 84.198
1259.306, 72.938
1260.517, 78.678
1261.728, 36.417
1262.938, 21.155
1264.149, 58.909
1265.359, 16.635
1266.569, 32.356
1267.779, 34.105
1268.989, 40.798
1270.199, 20.485
1271.408, 6.320
1272.617, 51.000
1273.826, 41.672
1275.035, 5.661
1276.244, 39.001
1277.452, 56.008
1278.661, 4.336
1279.869, 19.683
1281.077, 29.040
1282.285, 20.398
1283.492, 28.237
1284.700, 26.130
1285.907, 40.503
1287.114, 18.116
1288.321, 96.266
1289.527, 55.705
1290.734, 9.113
1291.940, 8.556
1293.146, 11.972
1294.352, 2.607
1295.558, 8.817
1296.763, 6.893
1297.969, 11.679
1299.174, 13.117
1300.379, 10.843
1301.584, 4.980
1302.788, 6.481
1303.993, 0.946
1305.197, 1.584
1306.401, 37.108
1307.605, 8.628
1308.809, 2.858
1310.013, 38.649
1311.216, 21.145
1312.419, 42.636
1313.622, 45.124
1314.825, 41.607
1316.028, 2.915
1317.230, 16.558
1318.432, 7.973
1319.634, 77.490
1320.836, 11.948
1322.038, 47.401
1323.240, 22.850
1324.441, 13.260
1325.642, 38.699
1326.843, 44.133
1328.044, 76.560
1329.245, 22.982
1330.445, 11.600
1331.645, 30.812
1332.845, 71.219
1334.045, 54.622
1335.245, 69.980
1336.445, 73.374
1337.644, 6.763
1338.843, 27.148
1340.042, 30.529
1341.241, 0.905
1342.440, 34.275
1343.638, 27.641
1344.836, 35.003
1346.034, 41.361
1347.232, 10.715
1348.430, 13.064
1349.628, 30.410
1350.825, 31.751
1352.022, 12.911
1353.219, 23.421
1354.416, 17.251
1355.613, 71.071
1356.809, 1.390
1358.005, 12.704
1359.202, 46.016
1360.398, 21.324
1361.593, 51.630
1362.789, 1.067
1363.984, 6.234
1365.179, 58.532
1366.374, 16.828
1367.569, 4.848
1368.764, 15.445
1369.958, 11.739
1371.153, 4.033
1372.347, 43.454
1373.541, 30.253
1374.735, 33.210
1375.928, 74.203
1377.122, 7.789
1378.315, 77.371
1379.508, 67.949
1380.701, 53.521
1381.893, 77.090
1383.086, 16.654
1384.278, 81.213
1385.470, 48.767
1386.662, 34.317
1387.854, 36.862
1389.046, 48.401
1390.237, 58.728
1391.428, 33.256
1392.619, 23.981
1393.810, 30.984
1395.001, 66.664
1396.191, 18.921
1397.382, 34.915
1398.572, 57.586
1399.762, 1.449
1400.952, 22.109
1402.141, 50.467
1403.331, 39.297
1404.520, 63.096
1405.709, 7.700
1406.898, 101.316
1408.087, 17.624
1409.275, 71.926
1410.464, 41.929
1411.652, 107.749
1412.840, 61.988
1414.028, 47.256
1415.215, 34.488
1416.403, 55.744
1417.590, 115.346
1418.777, 47.583
1419.964, 80.814
1421.151, 50.930
1422.338, 103.148
1423.524, 52.104
1424.710, 66.307
1425.896, 72.422
1427.082, 48.545
1428.268, 81.892
1429.453, 110.027
1430.639, 145.872
1431.824, 85.917
1433.009, 151.021
1434.194, 139.526
1435.378, 76.559
1436.563, 107.953
1437.747, 156.635
1438.931, 100.866
1440.115, 183.864
1441.299, 210.640
1442.482, 209.591
1443.666, 179.414
1444.849, 179.308
1446.032, 181.174
1447.215, 236.012
1448.397, 176.782
1449.580, 152.621
1450.762, 277.431
1451.944, 208.003
1453.126, 196.951
1454.308, 244.917
1455.490, 202.958
1456.671, 183.827
1457.852, 180.744
1459.033, 175.648
1460.214, 228.532
1461.395, 205.413
1462.575, 170.273
1463.756, 239.117
1464.936, 213.942
1466.116, 154.760
1467.296, 171.608
1468.475, 106.444
1469.655, 130.284
1470.834, 106.140
1472.013, 91.058
1473.192, 155.978
1474.371, 85.901
1475.550, 132.829
1476.728, 81.766
1477.906, 157.720
1479.084, 104.683
1480.262, 118.696
1481.440, 91.719
1482.617, 131.756
1483.795, 89.812
1484.972, 49.896
1486.149, 121.011
1487.326, 28.165
1488.502, 103.354
1489.679, 126.585
1490.855, 35.867
1492.031, 62.207
1493.207, 37.612
1494.383, 13.096
1495.559, 50.676
1496.734, 79.374
1497.909, 56.219
1499.084, 1.399
1500.259, 52.352
1501.434, 1.832
1502.608, 0.000
##END=



