##NAMES=Danburite
##RRUFFID=R040013
##IDEAL CHEMISTRY=CaB_2_Si_2_O_8_
##LOCALITY=Charcas, San Luis Potosi, Mexico
##OWNER=RRUFF
##SOURCE=Marcus Origlieri
##DESCRIPTION=Colorless prismatic single crystal
##STATUS=The identification of this mineral has been confirmed by X-ray diffraction and chemical analysis
##URL=rruff.info/R040013
##MEASURED CHEMISTRY=Ca_1.00_B_2.00_Si_2.00_O_8_
##PIN_ID=M00012
##ORIENTATION=Laser parallel to c* (0 0 1). Fiducial mark perpendicular to laser is parallel to a [1 0 0]
103.247, 0.000
104.640, 96.431
106.032, 32.189
107.425, 184.292
108.817, 143.834
110.209, 253.997
111.601, 276.990
112.992, 465.498
114.384, 439.654
115.775, 547.414
117.166, 895.431
118.556, 1234.025
119.947, 1758.401
121.337, 3222.573
122.727, 5437.201
124.116, 7987.330
125.506, 8440.470
126.895, 9444.807
128.284, 11709.688
129.673, 12098.733
131.062, 9105.426
132.450, 5072.833
133.838, 2927.661
135.226, 1546.006
136.614, 1185.277
138.001, 908.096
139.388, 841.972
140.775, 624.640
142.162, 284.430
143.549, 177.425
144.935, 17.923
146.321, 34.508
147.707, 20.088
149.093, 18.692
150.478, 1.040
151.863, 26.377
153.248, 47.590
154.633, 10.095
156.018, 124.482
157.402, 189.761
158.786, 505.937
160.170, 1425.015
161.554, 2258.028
162.937, 5075.381
164.320, 10173.433
165.703, 14064.710
167.086, 11456.905
168.469, 5931.629
169.851, 2903.198
171.233, 1327.735
172.615, 693.249
173.996, 287.758
175.378, 81.262
176.759, 41.258
178.140, 10.212
179.521, 61.717
180.901, 70.258
182.281, 150.828
183.662, 52.423
185.041, 78.131
186.421, 38.765
187.800, 153.897
189.180, 366.548
190.558, 467.205
191.937, 517.864
193.316, 289.741
194.694, 104.103
196.072, 6.096
197.450, 70.929
198.827, 70.184
200.205, 39.452
201.582, 20.747
202.959, 84.010
204.336, 186.263
205.712, 300.522
207.088, 543.778
208.465, 986.027
209.840, 1418.260
211.216, 1778.476
212.591, 1472.673
213.967, 818.852
215.341, 474.985
216.716, 204.094
218.091, 92.183
219.465, 16.250
220.839, 23.701
222.213, 42.669
223.586, 77.654
224.960, 80.684
226.333, 66.787
227.706, 16.925
229.079, 92.080
230.451, 17.246
231.823, 8.424
233.195, 17.388
234.567, 124.191
235.939, 206.977
237.310, 442.728
238.682, 809.486
240.052, 1422.408
241.423, 2418.651
242.794, 3992.946
244.164, 6098.572
245.534, 6694.010
246.904, 5741.998
248.274, 4134.812
249.643, 2707.526
251.012, 1883.363
252.381, 1217.819
253.750, 936.356
255.118, 675.795
256.487, 583.343
257.855, 460.696
259.223, 338.033
260.590, 346.346
261.958, 252.630
263.325, 188.879
264.692, 116.086
266.059, 150.249
267.425, 132.369
268.791, 163.448
270.158, 109.486
271.523, 90.481
272.889, 136.429
274.255, 227.311
275.620, 327.120
276.985, 492.854
278.350, 446.544
279.714, 406.198
281.078, 234.821
282.443, 105.408
283.806, 40.958
285.170, 33.532
286.534, 1.066
287.897, 50.641
289.260, 69.304
290.623, 3.985
291.985, 7.317
293.348, 29.418
294.710, 31.440
296.072, 48.954
297.433, 30.340
298.795, 175.021
300.156, 166.876
301.517, 280.870
302.878, 487.646
304.239, 625.821
305.599, 1021.400
306.959, 1482.625
308.319, 2154.761
309.679, 3128.859
311.038, 3729.934
312.398, 4038.601
313.757, 3437.210
315.116, 2574.756
316.474, 1760.271
317.833, 1127.774
319.191, 828.266
320.549, 566.745
321.907, 449.213
323.264, 309.557
324.622, 294.193
325.979, 235.972
327.336, 220.188
328.692, 254.431
330.049, 210.828
331.405, 330.962
332.761, 305.200
334.117, 424.218
335.473, 570.562
336.828, 642.893
338.183, 985.211
339.538, 1307.517
340.893, 2215.808
342.247, 3488.039
343.602, 5614.219
344.956, 9432.819
346.310, 13450.413
347.663, 16658.676
349.017, 15178.187
350.370, 10888.127
351.723, 7261.264
353.076, 4689.346
354.428, 3149.797
355.780, 1993.031
357.133, 1441.276
358.484, 1051.603
359.836, 787.991
361.188, 626.340
362.539, 505.745
363.890, 404.003
365.241, 310.070
366.591, 300.540
367.942, 243.450
369.292, 190.506
370.642, 154.876
371.992, 108.879
373.341, 92.488
374.691, 90.271
376.040, 40.348
377.388, 59.129
378.737, 37.107
380.086, 40.591
381.434, 6.175
382.782, 34.126
384.130, 12.337
385.477, 47.417
386.825, 57.451
388.172, 67.622
389.519, 83.985
390.865, 73.707
392.212, 84.778
393.558, 90.976
394.904, 55.020
396.250, 91.020
397.596, 47.969
398.941, 58.867
400.286, 90.729
401.631, 70.632
402.976, 148.436
404.321, 117.272
405.665, 192.946
407.009, 199.496
408.353, 192.028
409.697, 157.542
411.040, 120.988
412.384, 253.469
413.727, 228.933
415.070, 281.379
416.412, 411.716
417.755, 545.950
419.097, 823.355
420.439, 1005.746
421.781, 1426.125
423.122, 1811.492
424.464, 1931.847
425.805, 1870.190
427.146, 1483.523
428.486, 1096.715
429.827, 748.543
431.167, 440.037
432.507, 285.273
433.847, 146.339
435.187, 170.960
436.526, 84.267
437.865, 140.624
439.204, 157.258
440.543, 191.710
441.882, 250.506
443.220, 184.121
444.558, 149.324
445.896, 63.519
447.234, 52.699
448.572, 35.866
449.909, 3.982
451.246, 20.148
452.583, 31.262
453.919, 33.359
455.256, 25.441
456.592, 95.507
457.928, 121.563
459.264, 200.610
460.600, 242.644
461.935, 265.667
463.270, 253.677
464.605, 224.676
465.940, 241.662
467.274, 301.636
468.609, 277.598
469.943, 352.557
471.277, 540.508
472.610, 730.447
473.944, 1283.374
475.277, 2041.295
476.610, 3362.207
477.943, 5518.105
479.275, 7076.994
480.608, 7295.871
481.940, 5674.736
483.272, 3581.588
484.604, 2239.429
485.935, 1360.257
487.267, 915.074
488.598, 616.883
489.929, 388.694
491.260, 333.504
492.590, 174.312
493.920, 120.112
495.250, 77.900
496.580, 114.677
497.910, 12.442
499.239, 49.192
500.569, 43.929
501.898, 23.652
503.226, 13.361
504.555, 16.241
505.883, 8.734
507.212, 27.398
508.540, 37.048
509.867, 47.685
511.195, 3.312
512.522, 23.069
513.849, 42.537
515.176, 16.858
516.503, 40.681
517.829, 35.151
519.156, 23.607
520.482, 28.843
521.808, 28.162
523.133, 22.374
524.459, 10.408
525.784, 54.472
527.109, 6.629
528.434, 20.570
529.758, 27.765
531.083, 5.993
532.407, 17.255
533.731, 17.579
535.055, 11.440
536.378, 0.144
537.701, 11.459
539.025, 14.595
540.348, 20.888
541.670, 26.965
542.993, 30.081
544.315, 18.083
545.637, 34.710
546.959, 23.587
548.281, 53.901
549.602, 93.312
550.923, 96.737
552.244, 145.157
553.565, 147.643
554.886, 216.471
556.206, 278.783
557.526, 333.294
558.846, 581.768
560.166, 804.215
561.486, 1217.248
562.805, 1431.261
564.124, 1272.302
565.443, 1095.627
566.762, 795.678
568.080, 648.757
569.399, 589.121
570.717, 584.096
572.035, 569.891
573.352, 537.485
574.670, 593.769
575.987, 598.990
577.304, 636.607
578.621, 731.033
579.938, 743.278
581.254, 868.868
582.570, 1015.354
583.886, 1123.857
585.202, 1173.347
586.518, 1256.035
587.833, 1370.136
589.148, 1609.035
590.463, 1642.956
591.778, 2014.689
593.093, 2165.992
594.407, 2662.615
595.721, 2998.363
597.035, 3607.098
598.349, 4489.799
599.662, 5475.116
600.976, 7179.865
602.289, 9222.798
603.602, 12810.759
604.914, 17988.670
606.227, 25136.633
607.539, 35864.520
608.851, 43872.398
610.163, 47330.266
611.475, 44018.125
612.786, 35086.020
614.097, 27103.852
615.408, 19461.680
616.719, 14580.751
618.030, 11188.556
619.340, 8356.388
620.651, 7021.170
621.961, 5901.943
623.270, 5441.705
624.580, 5225.455
625.889, 5155.196
627.199, 5442.927
628.507, 4886.647
629.816, 4491.356
631.125, 3748.055
632.433, 2978.744
633.741, 2676.423
635.049, 2146.091
636.357, 2045.749
637.664, 1746.351
638.972, 1627.988
640.279, 1581.234
641.586, 1435.676
642.893, 1488.085
644.199, 1412.390
645.505, 1343.612
646.811, 1307.853
648.117, 1245.016
649.423, 1221.305
650.728, 1119.630
652.034, 1079.996
653.339, 996.117
654.644, 878.535
655.948, 818.853
657.253, 707.448
658.557, 600.741
659.861, 531.000
661.165, 461.084
662.468, 408.415
663.772, 368.621
665.075, 346.793
666.378, 319.886
667.681, 214.197
668.983, 291.229
670.286, 167.423
671.588, 194.592
672.890, 183.602
674.192, 99.709
675.493, 146.812
676.795, 143.853
678.096, 89.746
679.397, 80.032
680.697, 51.085
681.998, 127.169
683.298, 77.275
684.598, 16.609
685.898, 81.434
687.198, 42.549
688.498, 67.604
689.797, 24.794
691.096, 19.080
692.395, 17.357
693.694, 6.625
694.992, 10.118
696.290, 32.126
697.589, 2.362
698.886, 3.586
700.184, 39.199
701.482, 22.005
702.779, 21.826
704.076, 23.663
705.373, 36.515
706.669, 25.386
707.966, 27.274
709.262, 40.177
710.558, 67.100
711.854, 17.047
713.150, 52.008
714.445, 38.991
715.740, 12.008
717.035, 54.001
718.330, 46.032
719.625, 42.083
720.919, 11.152
722.214, 7.233
723.508, 8.348
724.801, 8.429
726.095, 17.543
727.388, 20.329
728.682, 26.194
729.975, 8.053
731.267, 47.906
732.560, 26.856
733.852, 46.598
735.145, 12.439
736.437, 14.273
737.728, 11.103
739.020, 9.073
740.311, 28.259
741.603, 30.541
742.894, 13.336
744.184, 23.125
745.475, 6.907
746.765, 28.684
748.055, 41.455
749.345, 31.221
750.635, 93.981
751.925, 6.737
753.214, 20.487
754.503, 44.231
755.792, 51.029
757.081, 33.694
758.370, 4.412
759.658, 69.125
760.946, 44.833
762.234, 64.536
763.522, 132.235
764.809, 99.930
766.097, 54.620
767.384, 100.307
768.671, 108.989
769.958, 176.667
771.244, 112.341
772.530, 170.011
773.817, 177.678
775.102, 150.340
776.388, 205.999
777.674, 80.655
778.959, 68.307
780.244, 92.958
781.529, 11.606
782.814, 102.252
784.098, 84.897
785.383, 73.540
786.667, 150.182
787.951, 74.825
789.235, 100.467
790.518, 114.106
791.801, 99.745
793.084, 150.382
794.367, 23.023
795.650, 148.661
796.933, 48.302
798.215, 40.942
799.497, 79.580
800.779, 47.218
802.061, 89.855
803.342, 60.491
804.624, 24.873
805.905, 43.760
807.186, 40.392
808.466, 4.975
809.747, 8.656
811.027, 6.288
812.307, 32.920
813.587, 36.552
814.867, 26.184
816.146, 32.817
817.426, 21.548
818.705, 16.084
819.984, 3.712
821.263, 29.345
822.541, 26.979
823.819, 29.861
825.098, 68.496
826.375, 63.099
827.653, 81.735
828.931, 147.261
830.208, 60.763
831.485, 156.260
832.762, 114.680
834.039, 83.747
835.315, 98.320
836.592, 112.684
837.868, 195.074
839.144, 175.482
840.420, 135.296
841.695, 279.119
842.970, 243.904
844.246, 273.396
845.521, 271.153
846.795, 272.872
848.070, 348.298
849.344, 289.104
850.618, 355.081
851.892, 344.252
853.166, 347.733
854.440, 546.274
855.713, 466.423
856.986, 516.765
858.259, 686.207
859.532, 607.377
860.804, 790.648
862.077, 635.901
863.349, 577.163
864.621, 572.221
865.893, 435.859
867.164, 374.531
868.436, 331.125
869.707, 288.823
870.978, 353.520
872.248, 239.227
873.519, 337.872
874.789, 318.534
876.060, 295.191
877.330, 385.551
878.599, 295.481
879.869, 306.225
881.138, 353.933
882.408, 281.690
883.677, 338.390
884.945, 226.159
886.214, 242.935
887.482, 374.718
888.751, 269.507
890.019, 369.255
891.287, 354.054
892.554, 369.859
893.822, 473.411
895.089, 443.227
896.356, 565.008
897.623, 653.835
898.889, 622.668
900.156, 776.507
901.422, 758.351
902.688, 917.202
903.954, 1049.059
905.220, 981.921
906.485, 1081.790
907.750, 998.666
909.015, 1074.547
910.280, 1186.435
911.545, 1159.329
912.809, 1337.230
914.074, 1421.137
915.338, 1497.051
916.602, 1590.972
917.865, 1402.899
919.129, 1344.833
920.392, 1134.840
921.655, 855.788
922.918, 871.743
924.181, 749.084
925.443, 670.075
926.706, 640.051
927.968, 571.034
929.230, 639.024
930.491, 590.021
931.753, 620.026
933.014, 799.037
934.276, 702.056
935.536, 897.083
936.797, 969.116
938.058, 1059.157
939.318, 1388.211
940.578, 1592.274
941.838, 1967.951
943.098, 2412.034
944.358, 2829.125
945.617, 3416.173
946.876, 3756.281
948.135, 3918.396
949.394, 4008.519
950.653, 3445.650
951.911, 3055.788
953.169, 2586.935
954.427, 2136.833
955.685, 1914.998
956.943, 1548.171
958.200, 1361.352
959.458, 1366.542
960.715, 1200.743
961.971, 1362.954
963.228, 1376.172
964.485, 1523.399
965.741, 1930.635
966.997, 2278.881
968.253, 3080.135
969.508, 3853.399
970.764, 4957.676
972.019, 6160.961
973.274, 6323.256
974.529, 6186.562
975.784, 5419.882
977.039, 4358.216
978.293, 3611.563
979.547, 2896.923
980.801, 2341.298
982.055, 2063.686
983.308, 1656.087
984.562, 1513.504
985.815, 1355.939
987.068, 1241.386
988.321, 1191.850
989.573, 1029.328
990.826, 970.816
992.078, 960.321
993.330, 878.842
994.582, 1034.377
995.833, 974.925
997.085, 1072.484
998.336, 1359.055
999.587, 1533.636
1000.838, 1807.724
1002.088, 2304.835
1003.339, 2475.449
1004.589, 2809.073
1005.839, 3316.706
1007.089, 4210.562
1008.339, 4721.214
1009.588, 4348.875
1010.838, 3680.880
1012.087, 2723.592
1013.336, 1993.280
1014.584, 1600.758
1015.833, 1181.473
1017.081, 1082.112
1018.330, 910.916
1019.577, 864.804
1020.825, 999.834
1022.073, 890.235
1023.320, 963.020
1024.567, 926.799
1025.814, 892.588
1027.061, 885.531
1028.308, 875.192
1029.554, 776.015
1030.800, 716.845
1032.046, 592.686
1033.292, 500.535
1034.538, 348.393
1035.783, 242.260
1037.029, 277.137
1038.274, 151.022
1039.519, 138.916
1040.763, 86.819
1042.008, 33.731
1043.252, 70.652
1044.496, 33.582
1045.740, 30.521
1046.984, 72.468
1048.228, 35.424
1049.471, 67.389
1050.714, 75.364
1051.957, 38.346
1053.200, 93.338
1054.442, 9.662
1055.685, 40.346
1056.927, 83.363
1058.169, 37.612
1059.411, 1.582
1060.652, 16.456
1061.894, 15.503
1063.135, 26.558
1064.376, 18.622
1065.617, 105.695
1066.858, 58.775
1068.098, 81.865
1069.339, 196.962
1070.579, 89.068
1071.819, 132.183
1073.058, 262.325
1074.298, 285.844
1075.537, 379.983
1076.776, 521.082
1078.015, 532.246
1079.254, 620.535
1080.493, 608.721
1081.731, 728.916
1082.969, 769.121
1084.207, 608.336
1085.445, 654.560
1086.683, 572.792
1087.920, 520.031
1089.157, 586.599
1090.394, 514.857
1091.631, 572.123
1092.868, 663.401
1094.105, 621.691
1095.341, 818.989
1096.577, 819.294
1097.813, 984.617
1099.049, 1139.951
1100.284, 1184.292
1101.519, 1409.651
1102.755, 1593.020
1103.990, 1678.404
1105.224, 1937.796
1106.459, 1860.196
1107.693, 1829.607
1108.928, 1858.026
1110.162, 1659.455
1111.395, 1653.895
1112.629, 1418.343
1113.863, 1174.798
1115.096, 1085.258
1116.329, 846.726
1117.562, 810.199
1118.795, 702.679
1120.027, 643.166
1121.259, 665.658
1122.492, 581.156
1123.723, 475.661
1124.955, 464.171
1126.187, 342.687
1127.418, 371.209
1128.649, 272.737
1129.880, 253.270
1131.111, 320.809
1132.342, 199.354
1133.572, 136.904
1134.802, 206.459
1136.033, 86.020
1137.262, 118.586
1138.492, 85.158
1139.722, 19.264
1140.951, 68.318
1142.180, 5.905
1143.409, 27.503
1144.638, 2.902
1145.866, 64.297
1147.095, 52.174
1148.323, 15.900
1149.551, 59.497
1150.779, 6.899
1152.006, 13.298
1153.234, 22.693
1154.461, 44.087
1155.688, 0.482
1156.915, 17.126
1158.141, 40.739
1159.368, 40.356
1160.594, 86.528
1161.820, 117.924
1163.046, 182.234
1164.272, 204.868
1165.498, 275.506
1166.723, 316.148
1167.948, 361.795
1169.173, 403.445
1170.398, 608.099
1171.623, 656.756
1172.847, 717.417
1174.071, 775.082
1175.295, 732.750
1176.519, 751.421
1177.743, 666.094
1178.966, 544.771
1180.190, 590.451
1181.413, 427.133
1182.636, 379.818
1183.858, 382.506
1185.081, 311.197
1186.303, 246.889
1187.526, 173.519
1188.748, 180.217
1189.969, 191.917
1191.191, 139.240
1192.412, 68.922
1193.634, 85.629
1194.855, 26.338
1196.076, 25.049
1197.296, 102.762
1198.517, 63.477
1199.737, 93.193
1200.957, 40.911
1202.177, 45.631
1203.397, 61.353
1204.617, 55.925
1205.836, 24.211
1207.055, 23.500
1208.274, 51.364
1209.493, 10.341
1210.712, 6.954
1211.930, 47.905
1213.148, 106.739
1214.367, 87.528
1215.584, 114.188
1216.802, 88.896
1218.020, 44.604
1219.237, 57.312
1220.454, 17.979
1221.671, 45.147
1222.888, 88.903
1224.105, 29.479
1225.321, 10.188
1226.537, 14.931
1227.753, 9.637
1228.969, 53.510
1230.185, 10.886
1231.400, 98.724
1232.616, 91.644
1233.831, 76.882
1235.046, 194.229
1236.261, 220.006
1237.475, 165.152
1238.689, 228.406
1239.904, 136.466
1241.118, 198.844
1242.332, 192.400
1243.545, 110.231
1244.759, 188.934
1245.972, 236.635
1247.185, 118.336
1248.398, 246.038
1249.611, 159.740
1250.823, 200.442
1252.036, 207.146
1253.248, 178.849
1254.460, 193.552
1255.671, 160.256
1256.883, 129.960
1258.095, 140.230
1259.306, 155.150
1260.517, 105.075
1261.728, 252.780
1262.938, 168.484
1264.149, 259.189
1265.359, 252.894
1266.569, 229.599
1267.779, 315.303
1268.989, 208.270
1270.199, 292.975
1271.408, 427.602
1272.617, 280.366
1273.826, 279.070
1275.035, 334.901
1276.244, 252.574
1277.452, 262.282
1278.661, 253.273
1279.869, 123.976
1281.077, 203.763
1282.285, 103.394
1283.492, 171.951
1284.700, 152.374
1285.907, 80.435
1287.114, 166.122
1288.321, 110.822
1289.527, 133.521
1290.734, 203.221
1291.940, 162.920
1293.146, 201.609
1294.352, 305.297
1295.558, 128.974
1296.763, 174.643
1297.969, 216.311
1299.174, 154.978
1300.379, 241.640
1301.584, 198.286
1302.788, 178.931
1303.993, 209.551
1305.197, 163.149
1306.401, 215.726
1307.605, 317.295
1308.809, 223.854
1310.013, 378.397
1311.216, 360.934
1312.419, 303.470
1313.622, 325.002
1314.825, 339.531
1316.028, 295.058
1317.230, 404.582
1318.432, 323.103
1319.634, 383.620
1320.836, 422.134
1322.038, 310.646
1323.240, 342.151
1324.441, 287.650
1325.642, 217.145
1326.843, 285.616
1328.044, 123.082
1329.245, 169.542
1330.445, 179.997
1331.645, 99.446
1332.845, 87.889
1334.045, 96.325
1335.245, 53.734
1336.445, 58.770
1337.644, 52.814
1338.843, 44.647
1340.042, 38.043
1341.241, 41.683
1342.440, 2.698
1343.638, 7.927
1344.836, 20.558
1346.034, 19.804
1347.232, 31.162
1348.430, 20.846
1349.628, 16.865
1350.825, 10.111
1352.022, 7.228
1353.219, 29.436
1354.416, 35.107
1355.613, 8.216
1356.809, 26.536
1358.005, 85.145
1359.202, 20.836
1360.398, 2.469
1361.593, 87.224
1362.789, 14.927
1363.984, 62.628
1365.179, 5.667
1366.374, 11.033
1367.569, 15.726
1368.764, 7.412
1369.958, 21.086
1371.153, 28.747
1372.347, 2.611
1373.541, 11.999
1374.735, 19.886
1375.928, 67.910
1377.122, 43.521
1378.315, 99.130
1379.508, 124.736
1380.701, 81.338
1381.893, 136.938
1383.086, 71.534
1384.278, 57.127
1385.470, 138.717
1386.662, 102.302
1387.854, 124.882
1389.046, 132.458
1390.237, 86.024
1391.428, 139.586
1392.619, 105.157
1393.810, 95.736
1395.001, 100.315
1396.191, 33.900
1397.382, 1.519
1398.572, 70.060
1399.762, 4.634
1400.952, 10.204
1402.141, 56.770
1403.331, 52.666
1404.520, 29.895
1405.709, 38.453
1406.898, 11.010
1408.087, 92.567
1409.275, 95.123
1410.464, 49.678
1411.652, 116.234
1412.840, 79.789
1414.028, 26.345
1415.215, 80.901
1416.403, 51.458
1417.590, 81.017
1418.777, 87.559
1419.964, 98.149
1421.151, 88.536
1422.338, 74.113
1423.524, 57.653
1424.710, 175.536
1425.896, 91.073
1427.082, 194.615
1428.268, 234.374
1429.453, 247.700
1430.639, 252.138
1431.824, 242.602
1433.009, 284.789
1434.194, 382.150
1435.378, 371.475
1436.563, 492.016
1437.747, 642.288
1438.931, 666.202
1440.115, 844.357
1441.299, 939.497
1442.482, 882.617
1443.666, 1071.715
1444.849, 958.792
1446.032, 956.847
1447.215, 1212.878
1448.397, 1144.884
1449.580, 1119.863
1450.762, 1332.181
1451.944, 1185.747
1453.126, 1274.460
1454.308, 1396.499
1455.490, 1163.029
1456.671, 1269.672
1457.852, 1243.265
1459.033, 1108.804
1460.214, 1211.285
1461.395, 1047.703
1462.575, 945.085
1463.756, 968.459
1464.936, 811.847
1466.116, 763.174
1467.296, 723.547
1468.475, 650.094
1469.655, 621.825
1470.834, 584.662
1472.013, 454.544
1473.192, 512.404
1474.371, 444.243
1475.550, 432.063
1476.728, 458.864
1477.906, 403.695
1479.084, 353.637
1480.262, 452.713
1481.440, 275.843
1482.617, 371.048
1483.795, 433.354
1484.972, 376.782
1486.149, 318.353
1487.326, 278.050
1488.502, 225.875
1489.679, 214.865
1490.855, 156.073
1492.031, 94.531
1493.207, 37.281
1494.383, 90.385
1495.559, 62.916
1496.734, 53.992
1497.909, 98.782
1499.084, 52.531
1500.259, 62.646
1501.434, 3.152
1502.608, 0.000
##END=



