##NAMES=Danburite
##RRUFFID=R040013
##IDEAL CHEMISTRY=CaB_2_Si_2_O_8_
##LOCALITY=Charcas, San Luis Potosi, Mexico
##OWNER=RRUFF
##SOURCE=Marcus Origlieri
##DESCRIPTION=Colorless prismatic single crystal
##STATUS=The identification of this mineral has been confirmed by X-ray diffraction and chemical analysis
##URL=rruff.info/R040013
##MEASURED CHEMISTRY=Ca_1.00_B_2.00_Si_2.00_O_8_
##PIN_ID=M00010
##ORIENTATION=Laser parallel to a* (1 0 0). Fiducial mark perpendicular to laser is parallel to b [0 1 0]
117.166, 0.000
118.556, 62.059
119.947, 239.183
121.337, 700.266
122.727, 1063.000
124.116, 980.012
125.506, 685.968
126.895, 617.310
128.284, 521.258
129.673, 386.025
131.062, 163.182
132.450, 16.342
133.838, 8.471
135.226, 103.579
136.614, 301.642
138.001, 371.648
139.388, 281.309
140.775, 53.055
142.162, 33.136
143.549, 44.211
144.935, 21.762
146.321, 81.811
147.707, 335.862
149.093, 743.909
150.478, 916.957
151.863, 665.015
153.248, 271.083
154.633, 54.194
156.018, 16.370
157.402, 28.451
158.786, 56.754
160.170, 215.237
161.554, 416.724
162.937, 971.167
164.320, 1510.568
165.703, 1241.932
167.086, 679.259
168.469, 453.342
169.851, 461.583
171.233, 618.771
172.615, 1044.933
173.996, 1798.239
175.378, 3210.516
176.759, 5515.579
178.140, 9744.621
179.521, 14764.644
180.901, 15854.661
182.281, 11704.731
183.662, 6400.897
185.041, 3362.124
186.421, 1906.331
187.800, 1403.507
189.180, 1293.725
190.558, 1195.325
191.937, 978.532
193.316, 703.566
194.694, 561.344
196.072, 526.390
197.450, 670.433
198.827, 969.470
200.205, 1591.662
201.582, 2423.108
202.959, 2776.968
204.336, 2291.771
205.712, 1615.537
207.088, 1426.300
208.465, 1490.059
209.840, 1565.814
211.216, 1197.565
212.591, 727.296
213.967, 371.023
215.341, 179.747
216.716, 95.466
218.091, 34.181
219.465, 22.891
220.839, 4.596
222.213, 81.297
223.586, 171.991
224.960, 232.681
226.333, 212.365
227.706, 79.043
229.079, 38.716
230.451, 4.382
231.823, 53.042
233.195, 47.696
234.567, 183.342
235.939, 263.981
237.310, 479.612
238.682, 910.235
240.052, 1671.851
241.423, 2819.460
242.794, 4416.158
244.164, 5082.646
245.534, 4251.062
246.904, 2887.703
248.274, 1735.019
249.643, 1110.943
251.012, 699.497
252.381, 563.960
253.750, 367.449
255.118, 279.871
256.487, 205.292
257.855, 133.707
259.223, 126.116
260.590, 58.520
261.958, 52.916
263.325, 27.305
264.692, 36.684
266.059, 3.911
267.425, 10.147
268.791, 33.357
270.158, 16.527
271.523, 45.656
272.889, 67.734
274.255, 152.742
275.620, 288.720
276.985, 343.671
278.350, 268.538
279.714, 111.320
281.078, 36.963
282.443, 23.477
283.806, 66.716
285.170, 46.975
286.534, 35.279
287.897, 7.407
289.260, 73.088
290.623, 164.621
291.985, 232.896
293.348, 295.463
294.710, 299.126
296.072, 232.783
297.433, 195.436
298.795, 235.083
300.156, 298.725
301.517, 474.361
302.878, 797.992
304.239, 1016.486
305.599, 1143.101
306.959, 1306.713
308.319, 1690.318
309.679, 2137.915
311.038, 2339.504
312.398, 2054.087
313.757, 1545.662
315.116, 1047.230
316.474, 687.787
317.833, 435.333
319.191, 311.873
320.549, 254.406
321.907, 193.927
323.264, 142.441
324.622, 155.949
325.979, 139.451
327.336, 152.947
328.692, 180.438
330.049, 205.923
331.405, 205.401
332.761, 206.871
334.117, 264.336
335.473, 297.793
336.828, 445.244
338.183, 660.685
339.538, 969.115
340.893, 1575.534
342.247, 2613.943
343.602, 4270.347
344.956, 6355.743
346.310, 7765.133
347.663, 7058.508
349.017, 4978.844
350.370, 3107.162
351.723, 1797.474
353.076, 1102.781
354.428, 714.083
355.780, 505.380
357.133, 349.672
358.484, 278.959
359.836, 201.241
361.188, 135.518
362.539, 105.914
363.890, 101.237
365.241, 54.509
366.591, 60.640
367.942, 1.533
369.292, 8.946
370.642, 35.713
371.992, 13.089
373.341, 2.288
374.691, 34.903
376.040, 40.622
377.388, 24.357
378.737, 33.082
380.086, 57.964
381.434, 9.516
382.782, 30.938
384.130, 9.758
385.477, 18.552
386.825, 52.912
388.172, 125.181
389.519, 184.316
390.865, 317.985
392.212, 390.179
393.558, 444.372
394.904, 404.521
396.250, 258.632
397.596, 195.720
398.941, 84.872
400.286, 102.005
401.631, 79.008
402.976, 155.056
404.321, 126.051
405.665, 172.042
407.009, 161.995
408.353, 77.917
409.697, 101.717
411.040, 103.556
412.384, 102.092
413.727, 200.711
415.070, 226.508
416.412, 313.174
417.755, 410.011
419.097, 539.941
420.439, 683.864
421.781, 871.781
423.122, 973.691
424.464, 944.595
425.805, 718.493
427.146, 506.240
428.486, 337.054
429.827, 218.856
431.167, 166.112
432.507, 170.634
433.847, 202.108
435.187, 305.969
436.526, 493.830
437.865, 711.692
439.204, 899.550
440.543, 974.402
441.882, 797.250
443.220, 541.091
444.558, 344.928
445.896, 207.760
447.234, 139.586
448.572, 87.407
449.909, 78.224
451.246, 69.041
452.583, 82.853
453.919, 114.661
455.256, 143.464
456.592, 224.261
457.928, 266.054
459.264, 287.842
460.600, 285.625
461.935, 274.403
463.270, 244.176
464.605, 270.944
465.940, 341.708
467.274, 380.466
468.609, 506.220
469.943, 704.970
471.277, 1065.714
472.610, 1764.454
473.944, 2950.189
475.277, 5021.920
476.610, 8318.646
477.943, 11420.365
479.275, 11749.083
480.608, 8967.795
481.940, 5546.501
483.272, 3197.205
484.604, 1944.903
485.935, 1308.596
487.267, 892.286
488.598, 633.971
489.929, 508.651
491.260, 398.328
492.590, 329.000
493.920, 268.668
495.250, 218.331
496.580, 164.991
497.910, 121.647
499.239, 101.299
500.569, 78.947
501.898, 92.591
503.226, 93.231
504.555, 61.867
505.883, 17.499
507.212, 32.126
508.540, 17.750
509.867, 35.314
511.195, 50.903
512.522, 7.071
513.849, 20.355
515.176, 14.343
516.503, 7.029
517.829, 5.031
519.156, 4.328
520.482, 9.511
521.808, 12.021
523.133, 37.347
524.459, 4.905
525.784, 11.036
527.109, 24.328
528.434, 0.816
529.758, 3.493
531.083, 0.998
532.407, 27.547
533.731, 17.905
535.055, 9.638
536.378, 6.183
537.701, 11.727
539.025, 15.270
540.348, 16.810
541.670, 1.349
542.993, 3.888
544.315, 39.429
545.637, 19.970
546.959, 47.509
548.281, 73.048
549.602, 69.586
550.923, 142.126
552.244, 173.663
553.565, 202.199
554.886, 249.733
556.206, 290.268
557.526, 386.803
558.846, 530.335
560.166, 763.867
561.486, 826.396
562.805, 699.923
564.124, 510.448
565.443, 393.971
566.762, 242.491
568.080, 227.009
569.399, 211.525
570.717, 245.039
572.035, 265.558
573.352, 250.085
574.670, 257.617
575.987, 290.154
577.304, 320.691
578.621, 389.226
579.938, 464.759
581.254, 491.289
582.570, 521.817
583.886, 632.343
585.202, 708.867
586.518, 793.411
587.833, 882.931
589.148, 959.449
590.463, 1163.964
591.778, 1286.495
593.093, 1568.007
594.407, 1806.516
595.721, 2221.332
597.035, 2848.837
598.349, 3450.340
599.662, 4457.840
600.976, 5972.339
602.289, 8142.836
603.602, 11432.329
604.914, 16460.822
606.227, 23109.312
607.539, 29297.803
608.851, 32076.287
610.163, 29404.809
611.475, 22843.289
612.786, 17271.775
614.097, 12350.251
615.408, 8848.727
616.719, 6764.203
618.030, 5349.676
619.340, 4377.146
620.651, 4012.616
621.961, 3898.083
623.270, 4267.549
624.580, 4673.013
625.889, 5230.475
627.199, 4940.935
628.507, 4177.393
629.816, 3366.849
631.125, 2595.304
632.433, 1991.757
633.741, 1594.208
635.049, 1328.658
636.357, 1210.105
637.664, 977.551
638.972, 925.995
640.279, 836.438
641.586, 726.879
642.893, 645.318
644.199, 606.755
645.505, 558.191
646.811, 498.625
648.117, 442.932
649.423, 410.535
650.728, 366.843
652.034, 378.232
653.339, 305.658
654.644, 328.580
655.948, 279.046
657.253, 214.903
658.557, 238.985
659.861, 216.245
661.165, 176.560
662.468, 178.583
663.772, 155.940
665.075, 180.902
666.378, 135.066
667.681, 112.640
668.983, 155.248
670.286, 132.563
671.588, 143.878
672.890, 134.661
674.192, 106.611
675.493, 116.151
676.795, 79.748
678.096, 108.577
679.397, 59.635
680.697, 81.068
681.998, 72.833
683.298, 35.193
684.598, 57.396
685.898, 56.486
687.198, 84.240
688.498, 102.012
689.797, 59.893
691.096, 107.977
692.395, 72.413
693.694, 78.933
694.992, 52.413
696.290, 58.027
697.589, 79.455
698.886, 25.881
700.184, 61.306
701.482, 65.728
702.779, 62.148
704.076, 21.566
705.373, 28.982
706.669, 63.396
707.966, 92.808
709.262, 80.218
710.558, 118.626
711.854, 125.436
713.150, 106.839
714.445, 145.241
715.740, 126.757
717.035, 149.155
718.330, 112.550
719.625, 74.943
720.919, 79.333
722.214, 72.722
723.508, 48.108
724.801, 29.493
726.095, 14.875
727.388, 31.254
728.682, 34.632
729.975, 55.007
731.267, 15.380
732.560, 20.751
733.852, 32.120
735.145, 8.514
736.437, 51.848
737.728, 39.206
739.020, 29.563
740.311, 36.918
741.603, 46.271
742.894, 53.622
744.184, 59.971
745.475, 42.317
746.765, 29.662
748.055, 28.004
749.345, 10.344
750.635, 17.546
751.925, 54.018
753.214, 34.352
754.503, 27.684
755.792, 45.014
757.081, 21.341
758.370, 50.667
759.658, 27.991
760.946, 54.313
762.234, 77.633
763.522, 74.950
764.809, 84.266
766.097, 163.580
767.384, 136.892
768.671, 194.203
769.958, 255.511
771.244, 276.817
772.530, 380.121
773.817, 357.423
775.102, 372.724
776.388, 324.023
777.674, 263.319
778.959, 218.614
780.244, 127.907
781.529, 118.198
782.814, 68.488
784.098, 44.775
785.383, 41.061
786.667, 15.345
787.951, 6.373
789.235, 44.906
790.518, 15.184
791.801, 47.460
793.084, 25.266
794.367, 46.000
795.650, 19.255
796.933, 1.511
798.215, 48.766
799.497, 2.020
800.779, 9.273
802.061, 5.526
803.342, 19.223
804.624, 31.022
805.905, 20.734
807.186, 5.495
808.466, 4.740
809.747, 1.026
811.027, 17.793
812.307, 19.567
813.587, 25.481
814.867, 51.133
816.146, 18.931
817.426, 27.736
818.705, 0.451
819.984, 14.365
821.263, 43.185
822.541, 36.017
823.819, 25.858
825.098, 13.707
826.375, 12.562
827.653, 17.421
828.931, 26.286
830.208, 24.840
831.485, 2.035
832.762, 0.088
834.039, 6.792
835.315, 52.324
836.592, 15.440
837.868, 26.553
839.144, 37.666
840.420, 27.776
841.695, 34.886
842.970, 21.994
844.246, 30.100
845.521, 14.205
846.795, 18.309
848.070, 38.412
849.344, 17.487
850.618, 50.609
851.892, 12.704
853.166, 5.202
854.440, 70.889
855.713, 47.979
856.986, 56.067
858.259, 85.155
859.532, 72.241
860.804, 30.327
862.077, 28.411
863.349, 34.495
864.621, 36.962
865.893, 57.636
867.164, 76.717
868.436, 94.796
869.707, 116.857
870.978, 114.935
872.248, 119.012
873.519, 90.779
874.789, 92.854
876.060, 83.929
877.330, 66.003
878.599, 68.077
879.869, 77.149
881.138, 88.221
882.408, 78.292
883.677, 87.363
884.945, 98.434
886.214, 114.504
887.482, 98.539
888.751, 102.607
890.019, 140.676
891.287, 145.744
892.554, 180.812
893.822, 176.880
895.089, 220.947
896.356, 239.014
897.623, 255.080
898.889, 282.147
900.156, 292.213
901.422, 307.280
902.688, 309.868
903.954, 302.412
905.220, 296.478
906.485, 307.544
907.750, 282.610
909.015, 360.676
910.280, 360.742
911.545, 443.808
912.809, 437.875
914.074, 471.941
915.338, 552.008
916.602, 560.074
917.865, 591.142
919.129, 681.209
920.392, 727.277
921.655, 728.345
922.918, 701.413
924.181, 609.481
925.443, 523.323
926.706, 442.393
927.968, 406.463
929.230, 312.533
930.491, 277.942
931.753, 293.869
933.014, 257.942
934.276, 240.960
935.536, 263.036
936.797, 208.063
938.058, 255.125
939.318, 268.171
940.578, 371.737
941.838, 436.817
943.098, 503.352
944.358, 564.243
945.617, 714.295
946.876, 687.291
948.135, 722.905
949.394, 629.480
950.653, 633.920
951.911, 545.766
953.169, 384.365
954.427, 375.761
955.685, 315.802
956.943, 338.518
958.200, 290.567
959.458, 300.786
960.715, 290.245
961.971, 311.991
963.228, 343.767
964.485, 421.435
965.741, 523.617
966.997, 602.015
968.253, 804.045
969.508, 1008.116
970.764, 1189.053
972.019, 1238.175
973.274, 1151.300
974.529, 1027.427
975.784, 780.556
977.039, 693.687
978.293, 503.821
979.547, 407.957
980.801, 352.095
982.055, 314.236
983.308, 300.379
984.562, 292.525
985.815, 231.268
987.068, 208.419
988.321, 184.572
989.573, 202.610
990.826, 198.768
992.078, 200.929
993.330, 173.092
994.582, 193.258
995.833, 176.426
997.085, 244.597
998.336, 284.771
999.587, 317.947
1000.838, 338.126
1002.088, 311.308
1003.339, 346.492
1004.589, 320.680
1005.839, 457.870
1007.089, 463.062
1008.339, 403.258
1009.588, 381.458
1010.838, 291.661
1012.087, 211.867
1013.336, 186.075
1014.584, 100.287
1015.833, 117.502
1017.081, 180.723
1018.330, 117.948
1019.577, 157.178
1020.825, 124.413
1022.073, 165.650
1023.320, 171.895
1024.567, 203.143
1025.814, 183.394
1027.061, 199.650
1028.308, 163.910
1029.554, 152.173
1030.800, 103.438
1032.046, 111.707
1033.292, 130.979
1034.538, 94.256
1035.783, 78.536
1037.029, 89.821
1038.274, 81.110
1039.519, 126.403
1040.763, 76.700
1042.008, 107.000
1043.252, 46.303
1044.496, 64.610
1045.740, 76.920
1046.984, 51.235
1048.228, 9.555
1049.471, 57.878
1050.714, 30.204
1051.957, 62.532
1053.200, 34.866
1054.442, 93.203
1055.685, 77.543
1056.927, 52.886
1058.169, 86.233
1059.411, 77.583
1060.652, 64.941
1061.894, 81.302
1063.135, 29.667
1064.376, 96.034
1065.617, 77.408
1066.858, 79.792
1068.098, 139.181
1069.339, 147.970
1070.579, 95.365
1071.819, 163.764
1073.058, 129.167
1074.298, 214.573
1075.537, 233.985
1076.776, 249.400
1078.015, 265.822
1079.254, 250.420
1080.493, 243.852
1081.731, 274.287
1082.969, 240.730
1084.207, 339.182
1085.445, 324.640
1086.683, 353.108
1087.920, 355.582
1089.157, 379.453
1090.394, 449.938
1091.631, 501.713
1092.868, 576.926
1094.105, 675.430
1095.341, 757.941
1096.577, 875.513
1097.813, 1056.034
1099.049, 1140.777
1100.284, 1288.309
1101.519, 1521.842
1102.755, 1582.380
1103.990, 1723.921
1105.224, 1800.467
1106.459, 1766.017
1107.693, 1726.569
1108.928, 1565.123
1110.162, 1435.680
1111.395, 1291.239
1112.629, 1074.801
1113.863, 1029.366
1115.096, 863.934
1116.329, 746.503
1117.562, 724.076
1118.795, 620.650
1120.027, 627.229
1121.259, 605.810
1122.492, 489.393
1123.723, 440.979
1124.955, 374.567
1126.187, 331.157
1127.418, 289.065
1128.649, 253.222
1129.880, 232.942
1131.111, 202.542
1132.342, 211.143
1133.572, 194.746
1134.802, 164.351
1136.033, 133.958
1137.262, 152.567
1138.492, 84.177
1139.722, 100.790
1140.951, 131.403
1142.180, 71.047
1143.409, 61.664
1144.638, 65.283
1145.866, 28.905
1147.095, 56.528
1148.323, 40.338
1149.551, 49.700
1150.779, 42.352
1152.006, 46.700
1153.234, 24.484
1154.461, 64.115
1155.688, 67.721
1156.915, 26.365
1158.141, 9.000
1159.368, 44.192
1160.594, 61.864
1161.820, 26.532
1163.046, 39.170
1164.272, 70.897
1165.498, 110.584
1166.723, 115.415
1167.948, 113.192
1169.173, 164.476
1170.398, 143.177
1171.623, 174.031
1172.847, 177.769
1174.071, 185.427
1175.295, 126.335
1176.519, 151.991
1177.743, 113.635
1178.966, 136.737
1180.190, 165.695
1181.413, 114.435
1182.636, 131.084
1183.858, 100.729
1185.081, 60.690
1186.303, 90.404
1187.526, 46.047
1188.748, 48.809
1189.969, 41.549
1191.191, 40.335
1192.412, 75.643
1193.634, 65.397
1194.855, 84.041
1196.076, 73.186
1197.296, 17.542
1198.517, 35.434
1199.737, 14.485
1200.957, 21.815
1202.177, 35.817
1203.397, 31.483
1204.617, 45.358
1205.836, 30.989
1207.055, 16.707
1208.274, 45.335
1209.493, 26.406
1210.712, 10.917
1211.930, 5.265
1213.148, 49.886
1214.367, 27.969
1215.584, 30.399
1216.802, 34.155
1218.020, 32.886
1219.237, 56.625
1220.454, 18.763
1221.671, 32.352
1222.888, 5.031
1224.105, 15.634
1225.321, 34.254
1226.537, 23.952
1227.753, 2.452
1228.969, 22.349
1230.185, 10.060
1231.400, 32.601
1232.616, 79.188
1233.831, 15.892
1235.046, 87.883
1236.261, 64.464
1237.475, 8.451
1238.689, 36.049
1239.904, 41.621
1241.118, 45.214
1242.332, 36.786
1243.545, 37.350
1244.759, 50.192
1245.972, 41.817
1247.185, 45.755
1248.398, 53.992
1249.611, 47.544
1250.823, 47.147
1252.036, 55.767
1253.248, 59.400
1254.460, 41.863
1255.671, 86.436
1256.883, 57.980
1258.095, 85.644
1259.306, 16.186
1260.517, 40.725
1261.728, 35.372
1262.938, 28.909
1264.149, 33.490
1265.359, 33.014
1266.569, 34.536
1267.779, 50.052
1268.989, 19.586
1270.199, 43.093
1271.408, 36.598
1272.617, 10.098
1273.826, 40.592
1275.035, 31.153
1276.244, 38.834
1277.452, 35.316
1278.661, 3.206
1279.869, 26.735
1281.077, 12.730
1282.285, 25.779
1283.492, 1.326
1284.700, 26.122
1285.907, 36.376
1287.114, 17.056
1288.321, 28.482
1289.527, 18.098
1290.734, 12.315
1291.940, 13.724
1293.146, 43.129
1294.352, 3.527
1295.558, 10.917
1296.763, 1.706
1297.969, 0.665
1299.174, 20.970
1300.379, 9.384
1301.584, 2.267
1302.788, 4.078
1303.993, 19.416
1305.197, 4.251
1306.401, 20.073
1307.605, 37.389
1308.809, 12.299
1310.013, 5.994
1311.216, 5.302
1312.419, 22.594
1313.622, 54.880
1314.825, 5.840
1316.028, 9.435
1317.230, 37.704
1318.432, 3.967
1319.634, 6.223
1320.836, 2.472
1322.038, 20.284
1323.240, 4.951
1324.441, 25.181
1325.642, 23.405
1326.843, 0.380
1328.044, 2.171
1329.245, 8.969
1330.445, 13.226
1331.645, 39.017
1332.845, 19.199
1334.045, 1.625
1335.245, 38.545
1336.445, 8.708
1337.644, 33.865
1338.843, 9.982
1340.042, 16.163
1341.241, 14.869
1342.440, 42.262
1343.638, 10.612
1344.836, 25.494
1346.034, 4.615
1347.232, 6.718
1348.430, 5.816
1349.628, 58.907
1350.825, 12.399
1352.022, 11.680
1353.219, 49.753
1354.416, 23.821
1355.613, 8.885
1356.809, 61.942
1358.005, 0.939
1359.202, 28.987
1360.398, 13.368
1361.593, 77.406
1362.789, 7.440
1363.984, 7.411
1365.179, 42.613
1366.374, 7.368
1367.569, 24.646
1368.764, 31.613
1369.958, 24.569
1371.153, 28.520
1372.347, 38.424
1373.541, 1.694
1374.735, 15.206
1375.928, 32.981
1377.122, 15.316
1378.315, 33.646
1379.508, 18.969
1380.701, 15.288
1381.893, 46.600
1383.086, 30.907
1384.278, 25.207
1385.470, 92.500
1386.662, 9.789
1387.854, 46.072
1389.046, 64.318
1390.237, 11.589
1391.428, 34.853
1392.619, 21.051
1393.810, 31.427
1395.001, 66.472
1396.191, 30.521
1397.382, 25.051
1398.572, 70.156
1399.762, 31.227
1400.952, 76.104
1402.141, 104.287
1403.331, 15.090
1404.520, 3.086
1405.709, 55.853
1406.898, 57.367
1408.087, 73.928
1409.275, 45.014
1410.464, 23.572
1411.652, 74.484
1412.840, 78.215
1414.028, 16.166
1415.215, 63.186
1416.403, 46.542
1417.590, 58.857
1418.777, 74.815
1419.964, 57.445
1421.151, 75.298
1422.338, 60.503
1423.524, 52.581
1424.710, 103.471
1425.896, 39.966
1427.082, 52.657
1428.268, 109.564
1429.453, 108.405
1430.639, 136.098
1431.824, 91.587
1433.009, 88.298
1434.194, 108.157
1435.378, 107.195
1436.563, 99.936
1437.747, 123.657
1438.931, 95.869
1440.115, 152.487
1441.299, 154.081
1442.482, 159.529
1443.666, 105.203
1444.849, 186.792
1446.032, 138.144
1447.215, 187.484
1448.397, 205.928
1449.580, 156.489
1450.762, 217.991
1451.944, 152.537
1453.126, 166.074
1454.308, 218.915
1455.490, 169.415
1456.671, 166.906
1457.852, 174.296
1459.033, 168.583
1460.214, 167.162
1461.395, 174.493
1462.575, 140.928
1463.756, 142.369
1464.936, 90.864
1466.116, 124.361
1467.296, 131.852
1468.475, 85.336
1469.655, 153.845
1470.834, 115.351
1472.013, 89.860
1473.192, 123.365
1474.371, 70.861
1475.550, 96.365
1476.728, 67.872
1477.906, 80.377
1479.084, 66.896
1480.262, 66.432
1481.440, 43.984
1482.617, 78.550
1483.795, 82.131
1484.972, 22.722
1486.149, 97.325
1487.326, 16.059
1488.502, 49.572
1489.679, 37.223
1490.855, 3.897
1492.031, 61.600
1493.207, 66.333
1494.383, 42.098
1495.559, 37.703
1496.734, 27.884
1497.909, 7.497
1499.084, 10.854
1500.259, 11.638
1501.434, 0.156
1502.608, 0.000
##END=



