##NAMES=Danburite
##RRUFFID=R040013
##IDEAL CHEMISTRY=CaB_2_Si_2_O_8_
##LOCALITY=Charcas, San Luis Potosi, Mexico
##OWNER=RRUFF
##SOURCE=Marcus Origlieri
##DESCRIPTION=Colorless prismatic single crystal
##STATUS=The identification of this mineral has been confirmed by X-ray diffraction and chemical analysis
##URL=rruff.info/R040013
##MEASURED CHEMISTRY=Ca_1.00_B_2.00_Si_2.00_O_8_
##PIN_ID=M00010
##ORIENTATION=Laser parallel to a* (1 0 0). Fiducial mark perpendicular to laser is parallel to b [0 1 0]
115.775, 0.000
117.166, 38.059
118.556, 136.484
119.947, 379.915
121.337, 674.122
122.727, 811.474
124.116, 618.609
125.506, 352.625
126.895, 176.502
128.284, 79.166
129.673, 44.741
131.062, 15.326
132.450, 12.049
133.838, 49.833
135.226, 90.117
136.614, 161.044
138.001, 169.920
139.388, 78.859
140.775, 1.146
142.162, 24.103
143.549, 43.017
144.935, 20.893
146.321, 30.264
147.707, 99.452
149.093, 262.672
150.478, 285.934
151.863, 195.239
153.248, 96.580
154.633, 32.959
156.018, 15.372
157.402, 60.815
158.786, 104.303
160.170, 286.806
161.554, 495.320
162.937, 935.842
164.320, 1154.372
165.703, 1018.908
167.086, 686.450
168.469, 567.997
169.851, 700.548
171.233, 927.104
172.615, 1473.662
173.996, 2647.224
175.378, 5266.789
176.759, 8227.354
178.140, 14289.922
179.521, 21178.496
180.901, 23047.135
182.281, 17095.846
183.662, 9284.656
185.041, 4828.519
186.421, 2728.377
187.800, 1898.222
189.180, 1734.055
190.558, 1730.880
191.937, 1588.755
193.316, 1145.820
194.694, 722.666
196.072, 506.505
197.450, 525.338
198.827, 536.432
200.205, 749.798
201.582, 1024.582
202.959, 1137.355
204.336, 1127.092
205.712, 1156.797
207.088, 1553.498
208.465, 1974.195
209.840, 2025.888
211.216, 1542.575
212.591, 891.258
213.967, 455.938
215.341, 262.616
216.716, 172.290
218.091, 79.962
219.465, 129.631
220.839, 207.297
222.213, 380.960
223.586, 697.621
224.960, 965.279
226.333, 775.934
227.706, 400.587
229.079, 203.237
230.451, 167.884
231.823, 162.528
233.195, 187.169
234.567, 322.807
235.939, 504.442
237.310, 836.074
238.682, 1527.704
240.052, 2783.330
241.423, 4445.954
242.794, 6337.863
244.164, 6589.189
245.534, 5349.732
246.904, 3842.891
248.274, 2294.271
249.643, 1424.048
251.012, 912.832
252.381, 714.737
253.750, 517.202
255.118, 388.735
256.487, 296.204
257.855, 241.671
259.223, 205.379
260.590, 141.837
261.958, 116.291
263.325, 83.742
264.692, 71.943
266.059, 47.115
267.425, 42.237
268.791, 36.299
270.158, 32.306
271.523, 46.253
272.889, 54.101
274.255, 118.915
275.620, 154.703
276.985, 127.447
278.350, 97.023
279.714, 66.338
281.078, 14.628
282.443, 4.180
283.806, 33.757
285.170, 68.332
286.534, 112.909
287.897, 212.488
289.260, 386.620
290.623, 570.229
291.985, 920.407
293.348, 1049.109
294.710, 1031.610
296.072, 723.198
297.433, 532.786
298.795, 369.374
300.156, 373.963
301.517, 424.552
302.878, 585.082
304.239, 877.519
305.599, 1138.106
306.959, 1634.693
308.319, 2289.279
309.679, 2940.865
311.038, 3197.448
312.398, 2880.031
313.757, 2193.614
315.116, 1483.194
316.474, 985.774
317.833, 679.352
319.191, 482.929
320.549, 318.505
321.907, 266.079
323.264, 234.652
324.622, 210.223
325.979, 260.793
327.336, 310.362
328.692, 348.929
330.049, 288.493
331.405, 305.055
332.761, 307.614
334.117, 376.170
335.473, 470.724
336.828, 634.274
338.183, 842.821
339.538, 1254.366
340.893, 2032.906
342.247, 3381.443
343.602, 5456.978
344.956, 8059.509
346.310, 9686.035
347.663, 8864.559
349.017, 6232.078
350.370, 3804.594
351.723, 2256.108
353.076, 1913.619
354.428, 1049.129
355.780, 607.636
357.133, 464.140
358.484, 344.643
359.836, 188.143
361.188, 208.640
362.539, 127.136
363.890, 66.656
365.241, 50.147
366.591, 45.635
367.942, 1.219
369.292, 19.298
370.642, 20.946
371.992, 20.265
373.341, 29.800
374.691, 9.309
376.040, 27.856
377.388, 32.265
378.737, 14.825
380.086, 52.391
381.434, 50.948
382.782, 24.939
384.130, 41.414
385.477, 35.511
386.825, 2.961
388.172, 26.995
389.519, 35.460
390.865, 25.868
392.212, 87.353
393.558, 119.737
394.904, 84.237
396.250, 53.559
397.596, 41.868
398.941, 32.168
400.286, 2.463
401.631, 37.754
402.976, 49.044
404.321, 72.333
405.665, 53.618
407.009, 117.903
408.353, 89.186
409.697, 116.468
411.040, 168.745
412.384, 130.018
413.727, 228.265
415.070, 319.481
416.412, 415.674
417.755, 588.927
419.097, 776.181
420.439, 1012.432
421.781, 1276.681
423.122, 1310.927
424.464, 1217.171
425.805, 948.414
427.146, 602.501
428.486, 394.478
429.827, 271.660
431.167, 219.898
432.507, 221.134
433.847, 272.368
435.187, 441.603
436.526, 710.840
437.865, 1184.083
439.204, 1428.328
440.543, 1420.571
441.882, 1172.812
443.220, 752.051
444.558, 442.289
445.896, 311.525
447.234, 181.758
448.572, 133.991
449.909, 133.222
451.246, 105.451
452.583, 87.678
453.919, 172.903
455.256, 274.127
456.592, 427.348
457.928, 473.568
459.264, 404.785
460.600, 358.001
461.935, 306.215
463.270, 288.427
464.605, 301.637
465.940, 388.846
467.274, 477.053
468.609, 612.258
469.943, 936.462
471.277, 1346.663
472.610, 2219.863
473.944, 3771.061
475.277, 6588.257
476.610, 10785.451
477.943, 14873.644
479.275, 15301.833
480.608, 11830.021
481.940, 7296.208
483.272, 4280.393
484.604, 2605.576
485.935, 1710.757
487.267, 1158.936
488.598, 886.114
489.929, 669.289
491.260, 535.463
492.590, 436.635
493.920, 327.806
495.250, 272.975
496.580, 258.142
497.910, 176.307
499.239, 156.470
500.569, 122.632
501.898, 102.792
503.226, 87.951
504.555, 45.108
505.883, 100.263
507.212, 18.416
508.540, 56.568
509.867, 35.718
511.195, 2.866
512.522, 29.764
513.849, 12.184
515.176, 14.565
516.503, 29.963
517.829, 13.786
519.156, 26.792
520.482, 1.984
521.808, 28.136
523.133, 18.662
524.459, 13.316
525.784, 22.997
527.109, 2.711
528.434, 19.807
529.758, 0.775
531.083, 26.851
532.407, 0.631
533.731, 4.486
535.055, 4.436
536.378, 4.698
537.701, 6.162
539.025, 14.975
540.348, 26.118
541.670, 20.263
542.993, 52.381
544.315, 56.318
545.637, 64.468
546.959, 91.618
548.281, 99.768
549.602, 113.919
550.923, 174.073
552.244, 194.227
553.565, 222.383
554.886, 303.540
556.206, 365.696
557.526, 484.854
558.846, 735.014
560.166, 1000.175
561.486, 1184.337
562.805, 942.500
564.124, 692.664
565.443, 397.827
566.762, 329.990
568.080, 333.153
569.399, 316.315
570.717, 354.478
572.035, 333.641
573.352, 330.804
574.670, 351.967
575.987, 394.130
577.304, 459.291
578.621, 508.453
579.938, 543.614
581.254, 595.774
582.570, 681.934
583.886, 764.739
585.202, 866.252
586.518, 987.410
587.833, 1132.568
589.148, 1274.724
590.463, 1530.881
591.778, 1685.037
593.093, 1980.197
594.407, 2332.352
595.721, 2918.506
597.035, 3558.660
598.349, 4424.825
599.662, 5782.977
600.976, 7733.128
602.289, 10446.280
603.602, 14804.431
604.914, 21152.600
606.227, 30080.793
607.539, 37938.941
608.851, 41357.215
610.163, 38175.363
611.475, 29493.510
612.786, 22031.658
614.097, 15899.803
615.408, 11267.947
616.719, 8636.092
618.030, 6830.235
619.340, 5716.378
620.651, 4990.521
621.961, 4809.663
623.270, 5195.804
624.580, 5742.944
625.889, 6513.084
627.199, 6385.223
628.507, 5465.362
629.816, 4428.500
631.125, 3273.637
632.433, 2631.773
633.741, 2054.909
635.049, 1667.044
636.357, 1452.179
637.664, 1244.313
638.972, 1192.446
640.279, 993.578
641.586, 954.710
642.893, 853.578
644.199, 791.972
645.505, 693.102
646.811, 633.231
648.117, 547.359
649.423, 488.489
650.728, 437.445
652.034, 384.773
653.339, 367.802
654.644, 333.987
655.948, 345.193
657.253, 324.554
658.557, 253.955
659.861, 273.268
661.165, 257.115
662.468, 221.215
663.772, 212.535
665.075, 239.065
666.378, 209.204
667.681, 204.758
668.983, 228.490
670.286, 161.160
671.588, 191.800
672.890, 196.322
674.192, 197.112
675.493, 189.403
676.795, 174.375
678.096, 143.864
679.397, 142.921
680.697, 128.503
681.998, 136.132
683.298, 111.303
684.598, 104.304
685.898, 94.120
687.198, 80.288
688.498, 78.634
689.797, 80.946
691.096, 71.787
692.395, 78.093
693.694, 69.632
694.992, 46.173
696.290, 98.330
697.589, 89.847
698.886, 95.411
700.184, 74.651
701.482, 77.335
702.779, 49.484
704.076, 46.004
705.373, 50.160
706.669, 35.015
707.966, 66.443
709.262, 35.582
710.558, 48.719
711.854, 75.853
713.150, 90.986
714.445, 98.158
715.740, 87.246
717.035, 98.373
718.330, 72.498
719.625, 49.621
720.919, 35.741
722.214, 63.860
723.508, 80.977
724.801, 44.092
726.095, 32.205
727.388, 22.316
728.682, 42.425
729.975, 41.532
731.267, 36.636
732.560, 12.739
733.852, 43.840
735.145, 34.938
736.437, 46.035
737.728, 11.129
739.020, 49.222
740.311, 34.312
741.603, 34.401
742.894, 60.487
744.184, 9.571
745.475, 3.653
746.765, 18.732
748.055, 1.190
749.345, 13.883
750.635, 38.955
751.925, 39.024
753.214, 67.092
754.503, 44.157
755.792, 94.221
757.081, 87.282
758.370, 47.341
759.658, 32.398
760.946, 74.454
762.234, 103.507
763.522, 113.558
764.809, 143.607
766.097, 182.654
767.384, 226.698
768.671, 251.741
769.958, 313.782
771.244, 389.821
772.530, 444.858
773.817, 389.892
775.102, 373.925
776.388, 294.956
777.674, 231.984
778.959, 177.011
780.244, 114.035
781.529, 112.058
782.814, 111.079
784.098, 38.097
785.383, 61.114
786.667, 44.128
787.951, 93.141
789.235, 42.152
790.518, 1.161
791.801, 15.167
793.084, 1.171
794.367, 1.828
795.650, 7.829
796.933, 7.835
798.215, 5.388
799.497, 26.862
800.779, 0.886
802.061, 3.913
803.342, 12.944
804.624, 19.019
805.905, 39.019
807.186, 26.067
808.466, 14.878
809.747, 20.177
811.027, 31.760
812.307, 69.301
813.587, 46.379
814.867, 23.529
816.146, 51.564
817.426, 1.328
818.705, 57.781
819.984, 16.905
821.263, 26.963
822.541, 33.170
823.819, 25.314
825.098, 9.534
826.375, 22.380
827.653, 11.776
828.931, 26.938
830.208, 4.108
831.485, 14.282
832.762, 14.567
834.039, 9.353
835.315, 13.834
836.592, 16.027
837.868, 2.227
839.144, 21.566
840.420, 6.362
841.695, 14.849
842.970, 2.935
844.246, 59.716
845.521, 38.496
846.795, 42.274
848.070, 71.050
849.344, 61.825
850.618, 47.598
851.892, 42.370
853.166, 44.329
854.440, 48.556
855.713, 53.675
856.986, 75.440
858.259, 77.205
859.532, 99.967
860.804, 101.728
862.077, 110.488
863.349, 98.246
864.621, 97.003
865.893, 112.615
867.164, 149.513
868.436, 131.267
869.707, 158.018
870.978, 138.764
872.248, 117.513
873.519, 153.262
874.789, 89.009
876.060, 130.744
877.330, 148.489
878.599, 120.233
879.869, 121.976
881.138, 124.718
882.408, 114.067
883.677, 114.136
884.945, 124.875
886.214, 137.488
887.482, 175.226
888.751, 171.963
890.019, 186.699
891.287, 235.435
892.554, 344.170
893.822, 302.905
895.089, 369.639
896.356, 386.373
897.623, 406.106
898.889, 490.838
900.156, 452.571
901.422, 351.302
902.688, 426.034
903.954, 339.766
905.220, 395.496
906.485, 319.227
907.750, 325.958
909.015, 374.688
910.280, 409.419
911.545, 383.149
912.809, 387.880
914.074, 402.610
915.338, 435.340
916.602, 408.071
917.865, 432.801
919.129, 432.531
920.392, 483.262
921.655, 406.993
922.918, 404.724
924.181, 405.455
925.443, 331.187
926.706, 241.918
927.968, 241.590
929.230, 211.323
930.491, 185.997
931.753, 227.603
933.014, 134.071
934.276, 205.540
935.536, 185.068
936.797, 166.097
938.058, 195.732
939.318, 215.298
940.578, 254.655
941.838, 335.393
943.098, 342.148
944.358, 491.206
945.617, 543.947
946.876, 564.147
948.135, 633.890
949.394, 569.952
950.653, 510.549
951.911, 423.296
953.169, 367.778
954.427, 291.485
955.685, 283.829
956.943, 222.127
958.200, 261.883
959.458, 230.809
960.715, 239.922
961.971, 269.686
963.228, 287.451
964.485, 373.893
965.741, 410.986
966.997, 539.614
968.253, 704.010
969.508, 906.403
970.764, 1157.181
972.019, 1179.600
973.274, 1050.972
974.529, 919.671
975.784, 610.923
977.039, 545.714
978.293, 430.133
979.547, 347.916
980.801, 356.714
982.055, 288.515
983.308, 267.318
984.562, 246.124
985.815, 228.934
987.068, 215.016
988.321, 233.561
989.573, 209.379
990.826, 226.199
992.078, 263.022
993.330, 213.848
994.582, 256.677
995.833, 217.509
997.085, 272.343
998.336, 268.181
999.587, 226.021
1000.838, 270.865
1002.088, 215.712
1003.339, 237.563
1004.589, 220.416
1005.839, 191.273
1007.089, 230.133
1008.339, 152.995
1009.588, 164.861
1010.838, 124.732
1012.087, 118.606
1013.336, 128.484
1014.584, 108.366
1015.833, 136.257
1017.081, 118.151
1018.330, 150.049
1019.577, 111.952
1020.825, 147.858
1022.073, 162.768
1023.320, 159.684
1024.567, 126.605
1025.814, 177.535
1027.061, 139.468
1028.308, 130.410
1029.554, 150.359
1030.800, 77.311
1032.046, 159.267
1033.292, 163.226
1034.538, 116.188
1035.783, 182.162
1037.029, 139.140
1038.274, 130.124
1039.519, 249.115
1040.763, 186.109
1042.008, 195.107
1043.252, 90.110
1044.496, 145.117
1045.740, 104.128
1046.984, 72.142
1048.228, 76.159
1049.471, 48.180
1050.714, 77.205
1051.957, 77.235
1053.200, 24.270
1054.442, 37.307
1055.685, 138.348
1056.927, 56.393
1058.169, 77.442
1059.411, 124.494
1060.652, 42.550
1061.894, 127.609
1063.135, 84.673
1064.376, 82.739
1065.617, 149.810
1066.858, 81.884
1068.098, 163.964
1069.339, 118.048
1070.579, 135.138
1071.819, 159.237
1073.058, 183.340
1074.298, 214.448
1075.537, 212.561
1076.776, 201.677
1078.015, 251.802
1079.254, 277.018
1080.493, 228.153
1081.731, 309.293
1082.969, 230.436
1084.207, 359.594
1085.445, 380.761
1086.683, 429.931
1087.920, 493.109
1089.157, 518.291
1090.394, 601.620
1091.631, 676.820
1092.868, 766.028
1094.105, 936.243
1095.341, 1031.942
1096.577, 1079.167
1097.813, 1379.395
1099.049, 1488.628
1100.284, 1707.870
1101.519, 1991.116
1102.755, 2003.367
1103.990, 2273.622
1105.224, 2308.879
1106.459, 2267.141
1107.693, 2271.408
1108.928, 1996.677
1110.162, 1824.952
1111.395, 1626.229
1112.629, 1467.511
1113.863, 1307.797
1115.096, 1102.084
1116.329, 1003.374
1117.562, 944.667
1118.795, 762.133
1120.027, 817.429
1121.259, 731.728
1122.492, 651.029
1123.723, 571.331
1124.955, 516.636
1126.187, 461.656
1127.418, 432.252
1128.649, 375.563
1129.880, 317.876
1131.111, 270.192
1132.342, 287.509
1133.572, 273.866
1134.802, 178.457
1136.033, 203.779
1137.262, 170.103
1138.492, 141.428
1139.722, 182.756
1140.951, 131.085
1142.180, 101.416
1143.409, 83.246
1144.638, 81.579
1145.866, 57.156
1147.095, 113.493
1148.323, 68.213
1149.551, 81.601
1150.779, 27.945
1152.006, 67.671
1153.234, 87.027
1154.461, 33.369
1155.688, 35.358
1156.915, 58.023
1158.141, 59.574
1159.368, 58.011
1160.594, 43.497
1161.820, 70.568
1163.046, 47.941
1164.272, 52.416
1165.498, 67.773
1166.723, 108.126
1167.948, 38.211
1169.173, 174.834
1170.398, 154.717
1171.623, 103.882
1172.847, 154.229
1174.071, 146.630
1175.295, 138.411
1176.519, 186.945
1177.743, 158.291
1178.966, 139.749
1180.190, 102.094
1181.413, 83.546
1182.636, 111.924
1183.858, 98.918
1185.081, 63.288
1186.303, 120.629
1187.526, 99.176
1188.748, 89.516
1189.969, 85.115
1191.191, 42.452
1192.412, 65.961
1193.634, 48.297
1194.855, 65.721
1196.076, 28.054
1197.296, 25.482
1198.517, 52.812
1199.737, 16.252
1200.957, 48.684
1202.177, 36.264
1203.397, 13.018
1204.617, 50.409
1205.836, 52.961
1207.055, 61.342
1208.274, 90.660
1209.493, 65.140
1210.712, 4.484
1211.930, 90.862
1213.148, 39.170
1214.367, 15.477
1215.584, 34.632
1216.802, 73.934
1218.020, 26.269
1219.237, 15.566
1220.454, 42.861
1221.671, 4.929
1222.888, 14.359
1224.105, 46.490
1225.321, 28.773
1226.537, 18.946
1227.753, 37.787
1228.969, 61.056
1230.185, 17.323
1231.400, 58.472
1232.616, 40.733
1233.831, 33.991
1235.046, 101.246
1236.261, 41.497
1237.475, 74.745
1238.689, 115.019
1239.904, 83.261
1241.118, 55.499
1242.332, 61.853
1243.545, 71.131
1244.759, 43.512
1245.972, 35.737
1247.185, 43.958
1248.398, 30.359
1249.611, 2.607
1250.823, 22.606
1252.036, 46.818
1253.248, 36.028
1254.460, 84.236
1255.671, 50.453
1256.883, 79.655
1258.095, 105.856
1259.306, 26.054
1260.517, 59.250
1261.728, 84.441
1262.938, 20.629
1264.149, 12.807
1265.359, 5.021
1266.569, 67.148
1267.779, 32.308
1268.989, 34.459
1270.199, 26.659
1271.408, 22.825
1272.617, 48.955
1273.826, 13.930
1275.035, 41.171
1276.244, 2.732
1277.452, 40.356
1278.661, 51.560
1279.869, 13.514
1281.077, 23.579
1282.285, 8.341
1283.492, 21.713
1284.700, 38.761
1285.907, 19.195
1287.114, 5.160
1288.321, 43.131
1289.527, 7.888
1290.734, 40.104
1291.940, 22.107
1293.146, 20.881
1294.352, 4.864
1295.558, 24.840
1296.763, 25.806
1297.969, 65.233
1299.174, 2.284
1300.379, 13.350
1301.584, 25.429
1302.788, 42.478
1303.993, 16.381
1305.197, 8.729
1306.401, 2.153
1307.605, 60.030
1308.809, 7.900
1310.013, 40.763
1311.216, 8.619
1312.419, 21.469
1313.622, 17.688
1314.825, 23.147
1316.028, 49.976
1317.230, 1.798
1318.432, 37.613
1319.634, 0.579
1320.836, 71.222
1322.038, 4.015
1323.240, 29.802
1324.441, 11.581
1325.642, 80.354
1326.843, 11.120
1328.044, 43.879
1329.245, 9.632
1330.445, 10.379
1331.645, 0.118
1332.845, 7.422
1334.045, 15.573
1335.245, 1.290
1336.445, 16.999
1337.644, 45.702
1338.843, 5.397
1340.042, 17.087
1341.241, 22.686
1342.440, 89.363
1343.638, 68.034
1344.836, 25.300
1346.034, 47.356
1347.232, 23.006
1348.430, 41.651
1349.628, 33.290
1350.825, 28.077
1352.022, 79.414
1353.219, 24.968
1354.416, 74.794
1355.613, 48.398
1356.809, 8.481
1358.005, 53.111
1359.202, 71.698
1360.398, 26.719
1361.593, 72.856
1362.789, 69.426
1363.984, 39.992
1365.179, 72.555
1366.374, 45.105
1367.569, 23.650
1368.764, 36.191
1369.958, 33.728
1371.153, 9.260
1372.347, 19.822
1373.541, 6.348
1374.735, 74.861
1375.928, 48.362
1377.122, 59.286
1378.315, 94.028
1379.508, 67.936
1380.701, 49.838
1381.893, 79.734
1383.086, 61.622
1384.278, 28.503
1385.470, 73.044
1386.662, 34.909
1387.854, 49.766
1389.046, 56.616
1390.237, 62.899
1391.428, 58.454
1392.619, 66.344
1393.810, 81.973
1395.001, 84.741
1396.191, 50.372
1397.382, 70.573
1398.572, 13.043
1399.762, 19.556
1400.952, 50.231
1402.141, 78.386
1403.331, 74.316
1404.520, 91.869
1405.709, 99.325
1406.898, 82.120
1408.087, 98.563
1409.275, 50.213
1410.464, 18.734
1411.652, 90.998
1412.840, 44.172
1414.028, 113.452
1415.215, 69.838
1416.403, 57.204
1417.590, 86.381
1418.777, 51.837
1419.964, 66.843
1421.151, 99.195
1422.338, 114.277
1423.524, 107.158
1424.710, 90.687
1425.896, 83.018
1427.082, 93.396
1428.268, 88.212
1429.453, 99.158
1430.639, 126.597
1431.824, 113.884
1433.009, 135.562
1434.194, 119.800
1435.378, 133.025
1436.563, 102.182
1437.747, 117.468
1438.931, 90.937
1440.115, 145.097
1441.299, 135.232
1442.482, 168.338
1443.666, 140.412
1444.849, 177.432
1446.032, 160.442
1447.215, 141.423
1448.397, 141.396
1449.580, 182.360
1450.762, 200.332
1451.944, 176.102
1453.126, 175.105
1454.308, 187.151
1455.490, 180.192
1456.671, 183.221
1457.852, 160.187
1459.033, 200.193
1460.214, 160.179
1461.395, 190.161
1462.575, 101.146
1463.756, 207.116
1464.936, 122.102
1466.116, 169.088
1467.296, 132.138
1468.475, 115.212
1469.655, 67.302
1470.834, 83.387
1472.013, 62.485
1473.192, 161.578
1474.371, 62.673
1475.550, 64.774
1476.728, 38.886
1477.906, 144.015
1479.084, 30.160
1480.262, 77.314
1481.440, 5.515
1482.617, 89.674
1483.795, 113.887
1484.972, 58.127
1486.149, 71.392
1487.326, 28.680
1488.502, 35.974
1489.679, 88.343
1490.855, 44.730
1492.031, 32.161
1493.207, 13.710
1494.383, 66.993
1495.559, 41.266
1496.734, 114.500
1497.909, 67.631
1499.084, 0.871
1500.259, 10.734
1501.434, 37.214
1502.608, 0.000
##END=



