##NAMES=Danburite
##RRUFFID=R040013
##IDEAL CHEMISTRY=CaB_2_Si_2_O_8_
##LOCALITY=Charcas, San Luis Potosi, Mexico
##OWNER=RRUFF
##SOURCE=Marcus Origlieri
##DESCRIPTION=Colorless prismatic single crystal
##STATUS=The identification of this mineral has been confirmed by X-ray diffraction and chemical analysis
##URL=rruff.info/R040013
##MEASURED CHEMISTRY=Ca_1.00_B_2.00_Si_2.00_O_8_
##PIN_ID=M00012
##ORIENTATION=Laser parallel to c* (0 0 1). Fiducial mark perpendicular to laser is parallel to a [1 0 0]
99.067, 0.000
100.461, 0.370
101.854, 173.432
103.247, 53.613
104.640, 281.520
106.032, 240.505
107.425, 416.006
108.817, 491.838
110.209, 901.479
111.601, 1257.662
112.992, 1368.828
114.384, 2563.584
115.775, 1604.581
117.166, 2858.141
118.556, 2869.520
119.947, 2407.937
121.337, 3048.068
122.727, 4375.967
124.116, 5947.213
125.506, 5548.990
126.895, 5161.061
128.284, 5622.382
129.673, 5330.204
131.062, 4085.210
132.450, 2454.332
133.838, 1992.481
135.226, 1862.667
136.614, 2743.892
138.001, 3915.814
139.388, 4149.592
140.775, 3165.697
142.162, 1777.834
143.549, 964.998
144.935, 480.185
146.321, 275.390
147.707, 90.794
149.093, 24.454
150.478, 25.443
151.863, 140.705
153.248, 20.903
154.633, 85.149
156.018, 26.425
157.402, 75.373
158.786, 241.148
160.170, 847.870
161.554, 1199.366
162.937, 2773.116
164.320, 5549.725
165.703, 7164.179
167.086, 5485.621
168.469, 2789.163
169.851, 1254.787
171.233, 489.459
172.615, 242.150
173.996, 60.827
175.378, 18.515
176.759, 6.873
178.140, 22.244
179.521, 120.372
180.901, 222.976
182.281, 327.566
183.662, 310.143
185.041, 530.705
186.421, 962.251
187.800, 1678.779
189.180, 3090.285
190.558, 4065.769
191.937, 3813.232
193.316, 2539.674
194.694, 1425.175
196.072, 739.006
197.450, 369.853
198.827, 308.321
200.205, 213.931
201.582, 220.377
202.959, 333.233
204.336, 559.076
205.712, 815.906
207.088, 1168.724
208.465, 2095.527
209.840, 3129.316
211.216, 3536.317
212.591, 2758.886
213.967, 1670.816
215.341, 993.045
216.716, 475.656
218.091, 316.253
219.465, 139.836
220.839, 94.403
222.213, 55.956
223.586, 17.490
224.960, 91.009
226.333, 34.483
227.706, 102.016
229.079, 62.512
230.451, 123.008
231.823, 209.497
233.195, 249.715
234.567, 528.229
235.939, 695.024
237.310, 1223.356
238.682, 1978.558
240.052, 3158.756
241.423, 5329.530
242.794, 8308.858
244.164, 11922.177
245.534, 12824.619
246.904, 10486.921
248.274, 7258.878
249.643, 4646.088
251.012, 3121.387
252.381, 2127.547
253.750, 1635.751
255.118, 1266.950
256.487, 1084.157
257.855, 964.364
259.223, 737.564
260.590, 573.755
261.958, 388.922
263.325, 417.063
264.692, 286.179
266.059, 288.274
267.425, 320.347
268.791, 267.397
270.158, 474.427
271.523, 548.436
272.889, 923.407
274.255, 1399.272
275.620, 2253.055
276.985, 3313.810
278.350, 3179.554
279.714, 2463.287
281.078, 1503.008
282.443, 851.716
283.806, 469.413
285.170, 182.095
286.534, 133.745
287.897, 24.632
289.260, 23.972
290.623, 23.439
291.985, 80.871
293.348, 26.329
294.710, 54.807
296.072, 39.310
297.433, 93.442
298.795, 1.002
300.156, 3.094
301.517, 53.949
302.878, 102.286
304.239, 144.964
305.599, 382.311
306.959, 570.641
308.319, 860.954
309.679, 1280.247
311.038, 1609.507
312.398, 1719.751
313.757, 1406.980
315.116, 1038.193
316.474, 691.389
317.833, 394.568
319.191, 318.730
320.549, 138.875
321.907, 89.003
323.264, 69.494
324.622, 47.231
325.979, 38.583
327.336, 48.365
328.692, 68.659
330.049, 34.335
331.405, 161.645
332.761, 207.606
334.117, 217.551
335.473, 292.478
336.828, 254.387
338.183, 405.278
339.538, 518.152
340.893, 893.008
342.247, 1463.832
343.602, 2384.607
344.956, 4018.338
346.310, 5764.019
347.663, 6988.668
349.017, 6228.586
350.370, 4418.436
351.723, 2966.668
353.076, 1804.648
354.428, 1223.754
355.780, 763.102
357.133, 519.366
358.484, 335.953
359.836, 226.182
361.188, 173.232
362.539, 142.231
363.890, 94.028
365.241, 43.873
366.591, 56.640
367.942, 31.512
369.292, 40.819
370.642, 44.392
371.992, 5.592
373.341, 65.481
374.691, 24.018
376.040, 5.416
377.388, 39.124
378.737, 53.937
380.086, 29.493
381.434, 35.128
382.782, 22.616
384.130, 38.545
385.477, 21.105
386.825, 30.103
388.172, 7.175
389.519, 50.341
390.865, 73.462
392.212, 6.818
393.558, 102.871
394.904, 91.337
396.250, 95.490
397.596, 139.664
398.941, 138.969
400.286, 275.957
401.631, 289.155
402.976, 551.907
404.321, 713.590
405.665, 919.328
407.009, 957.973
408.353, 716.759
409.697, 573.367
411.040, 389.983
412.384, 372.552
413.727, 397.102
415.070, 416.632
416.412, 551.144
417.755, 705.637
419.097, 966.111
420.439, 1239.566
421.781, 1622.004
423.122, 2056.425
424.464, 2100.829
425.805, 2071.221
427.146, 1583.598
428.486, 1195.965
429.827, 870.322
431.167, 542.664
432.507, 456.998
433.847, 348.848
435.187, 414.640
436.526, 519.481
437.865, 824.969
439.204, 1205.706
440.543, 1538.759
441.882, 1580.157
443.220, 1229.281
444.558, 921.531
445.896, 699.899
447.234, 472.781
448.572, 396.882
449.909, 274.042
451.246, 250.183
452.583, 272.304
453.919, 320.406
455.256, 455.492
456.592, 529.560
457.928, 665.609
459.264, 962.639
460.600, 1052.648
461.935, 1024.639
463.270, 925.610
464.605, 701.562
465.940, 511.495
467.274, 457.236
468.609, 348.868
469.943, 292.378
471.277, 404.808
472.610, 374.582
473.944, 618.131
475.277, 903.186
476.610, 1449.971
477.943, 2363.737
479.275, 3041.484
480.608, 3045.212
481.940, 2279.920
483.272, 1482.610
484.604, 880.279
485.935, 610.929
487.267, 422.560
488.598, 262.171
489.929, 158.763
491.260, 195.336
492.590, 71.891
493.920, 83.424
495.250, 16.935
496.580, 48.422
497.910, 26.886
499.239, 4.326
500.569, 8.740
501.898, 7.873
503.226, 8.485
504.555, 21.818
505.883, 24.126
507.212, 52.410
508.540, 38.461
509.867, 50.972
511.195, 30.067
512.522, 49.679
513.849, 48.873
515.176, 27.961
516.503, 87.927
517.829, 81.494
519.156, 35.004
520.482, 53.922
521.808, 2.459
523.133, 65.199
524.459, 70.596
525.784, 30.738
527.109, 96.147
528.434, 48.574
529.758, 69.980
531.083, 92.389
532.407, 65.395
533.731, 68.968
535.055, 20.500
536.378, 72.466
537.701, 5.252
539.025, 41.849
540.348, 32.936
541.670, 13.675
542.993, 63.485
544.315, 20.407
545.637, 105.257
546.959, 120.202
548.281, 99.109
549.602, 135.312
550.923, 80.539
552.244, 145.695
553.565, 108.685
554.886, 169.645
556.206, 171.594
557.526, 216.521
558.846, 327.645
560.166, 419.589
561.486, 577.447
562.805, 646.258
564.124, 601.442
565.443, 535.632
566.762, 408.780
568.080, 366.818
569.399, 337.419
570.717, 296.886
572.035, 385.294
573.352, 378.148
574.670, 430.684
575.987, 423.972
577.304, 458.461
578.621, 552.428
579.938, 564.108
581.254, 763.346
582.570, 829.510
583.886, 858.577
585.202, 898.937
586.518, 937.399
587.833, 1026.633
589.148, 1021.071
590.463, 1126.328
591.778, 1286.501
593.093, 1386.871
594.407, 1603.009
595.721, 1847.201
597.035, 2165.147
598.349, 2765.428
599.662, 3323.770
600.976, 4370.818
602.289, 5560.850
603.602, 7656.001
604.914, 10862.997
606.227, 15320.133
607.539, 21297.092
608.851, 26244.037
610.163, 28040.965
611.475, 25707.875
612.786, 20694.768
614.097, 15851.647
615.408, 11548.521
616.719, 8785.541
618.030, 6822.388
619.340, 5177.335
620.651, 4496.261
621.961, 3943.085
623.270, 3851.949
624.580, 4107.710
625.889, 4505.456
627.199, 4943.184
628.507, 4690.896
629.816, 4185.590
631.125, 3484.267
632.433, 2710.928
633.741, 2336.572
635.049, 1907.913
636.357, 1765.292
637.664, 1562.256
638.972, 1328.440
640.279, 1290.465
641.586, 1087.218
642.893, 1023.021
644.199, 1019.469
645.505, 923.240
646.811, 989.142
648.117, 799.052
649.423, 830.132
650.728, 814.135
652.034, 727.182
653.339, 719.095
654.644, 571.112
655.948, 557.134
657.253, 509.025
658.557, 402.216
659.861, 439.382
661.165, 272.329
662.468, 266.369
663.772, 294.967
665.075, 242.041
666.378, 249.598
667.681, 164.501
668.983, 177.024
670.286, 159.077
671.588, 72.147
672.890, 169.754
674.192, 65.783
675.493, 130.024
676.795, 86.893
678.096, 57.923
679.397, 81.519
680.697, 3.543
681.998, 89.532
683.298, 68.260
684.598, 45.179
685.898, 56.111
687.198, 31.196
688.498, 35.312
689.797, 1.339
691.096, 0.579
692.395, 1.496
693.694, 10.367
694.992, 11.366
696.290, 10.375
697.589, 10.368
698.886, 1.657
700.184, 6.149
701.482, 11.238
702.779, 14.161
704.076, 7.932
705.373, 9.046
706.669, 8.179
707.966, 47.333
709.262, 29.514
710.558, 67.719
711.854, 66.090
713.150, 43.227
714.445, 73.524
715.740, 63.853
717.035, 73.214
718.330, 8.608
719.625, 40.021
720.919, 21.459
722.214, 18.919
723.508, 58.399
724.801, 44.091
726.095, 20.569
727.388, 66.032
728.682, 18.483
729.975, 52.921
731.267, 81.346
732.560, 19.759
733.852, 85.160
735.145, 48.548
736.437, 19.075
737.728, 20.282
739.020, 6.143
740.311, 89.957
741.603, 68.277
742.894, 29.586
744.184, 94.883
745.475, 24.169
746.765, 98.443
748.055, 136.707
749.345, 95.961
750.635, 157.204
751.925, 78.438
753.214, 81.661
754.503, 101.875
755.792, 16.078
757.081, 70.271
758.370, 24.453
759.658, 24.625
760.946, 41.786
762.234, 28.937
763.522, 59.078
764.809, 100.210
766.097, 94.333
767.384, 162.447
768.671, 142.552
769.958, 244.648
771.244, 227.735
772.530, 289.813
773.817, 333.884
775.102, 309.947
776.388, 252.002
777.674, 131.053
778.959, 172.097
780.244, 188.136
781.529, 35.170
782.814, 124.200
784.098, 59.228
785.383, 77.251
786.667, 141.270
787.951, 70.285
789.235, 111.294
790.518, 65.298
791.801, 99.298
793.084, 150.293
794.367, 24.283
795.650, 122.268
796.933, 26.248
798.215, 43.222
799.497, 91.190
800.779, 19.153
802.061, 37.111
803.342, 100.066
804.624, 61.984
805.905, 71.947
807.186, 13.127
808.466, 0.789
809.747, 38.700
811.027, 19.497
812.307, 36.399
813.587, 8.839
814.867, 2.956
816.146, 15.897
817.426, 7.613
818.705, 7.562
819.984, 9.234
821.263, 3.379
822.541, 61.376
823.819, 13.978
825.098, 53.714
826.375, 105.290
827.653, 28.881
828.931, 94.155
830.208, 26.384
831.485, 97.662
832.762, 65.083
834.039, 63.515
835.315, 74.937
836.592, 90.358
837.868, 163.563
839.144, 159.928
840.420, 132.358
841.695, 291.816
842.970, 175.880
844.246, 229.918
845.521, 264.979
846.795, 179.131
848.070, 329.699
849.344, 212.381
850.618, 296.104
851.892, 322.363
853.166, 331.920
854.440, 417.706
855.713, 334.279
856.986, 357.359
858.259, 580.714
859.532, 469.506
860.804, 560.363
862.077, 559.307
863.349, 460.951
864.621, 521.490
865.893, 361.243
867.164, 382.780
868.436, 327.480
869.707, 229.249
870.978, 322.804
872.248, 241.574
873.519, 258.272
874.789, 326.201
876.060, 331.779
877.330, 367.280
878.599, 285.062
879.869, 327.847
881.138, 338.495
882.408, 224.286
883.677, 245.923
884.945, 257.719
886.214, 169.518
887.482, 321.318
888.751, 253.121
890.019, 381.926
891.287, 326.732
892.554, 305.542
893.822, 477.190
895.089, 420.004
896.356, 503.705
897.623, 660.412
898.889, 622.206
900.156, 763.948
901.422, 726.776
902.688, 748.608
903.954, 927.443
905.220, 757.282
906.485, 890.124
907.750, 896.999
909.015, 831.848
910.280, 867.700
911.545, 768.557
912.809, 830.417
914.074, 953.281
915.338, 844.149
916.602, 909.021
917.865, 811.897
919.129, 786.778
920.392, 603.662
921.655, 426.551
922.918, 500.444
924.181, 376.584
925.443, 388.487
926.706, 415.393
927.968, 262.531
929.230, 420.447
930.491, 349.409
931.753, 348.327
933.014, 475.258
934.276, 404.193
935.536, 439.133
936.797, 561.079
938.058, 463.018
939.318, 725.978
940.578, 741.942
941.838, 994.447
943.098, 1234.432
944.358, 1285.104
945.617, 1719.020
946.876, 1733.022
948.135, 1848.587
949.394, 1979.603
950.653, 1665.419
951.911, 1538.342
953.169, 1337.378
954.427, 1109.409
955.685, 1009.296
956.943, 771.168
958.200, 764.144
959.458, 743.218
960.715, 599.041
961.971, 692.131
963.228, 753.233
964.485, 913.344
965.741, 1079.464
966.997, 1195.596
968.253, 1692.736
969.508, 2045.886
970.764, 2571.045
972.019, 3257.214
973.274, 3319.391
974.529, 3274.579
975.784, 2839.777
977.039, 2210.985
978.293, 1849.202
979.547, 1438.430
980.801, 1217.670
982.055, 1072.921
983.308, 863.188
984.562, 829.469
985.815, 734.768
987.068, 670.085
988.321, 662.417
989.573, 512.768
990.826, 501.136
992.078, 524.523
993.330, 453.921
994.582, 479.335
995.833, 408.762
997.085, 648.202
998.336, 834.658
999.587, 854.124
1000.838, 1107.536
1002.088, 1539.084
1003.339, 1437.577
1004.589, 1561.080
1005.839, 1646.591
1007.089, 2078.172
1008.339, 2185.702
1009.588, 1979.395
1010.838, 1751.087
1012.087, 1350.648
1013.336, 998.236
1014.584, 863.009
1015.833, 694.597
1017.081, 712.766
1018.330, 736.372
1019.577, 754.322
1020.825, 948.947
1022.073, 893.581
1023.320, 1059.223
1024.567, 1147.874
1025.814, 1103.533
1027.061, 1219.202
1028.308, 1149.879
1029.554, 1070.566
1030.800, 923.261
1032.046, 645.967
1033.292, 598.681
1034.538, 434.404
1035.783, 278.137
1037.029, 321.879
1038.274, 110.629
1039.519, 192.389
1040.763, 140.157
1042.008, 3.066
1043.252, 115.720
1044.496, 16.515
1045.740, 45.318
1046.984, 140.130
1048.228, 30.951
1049.471, 97.782
1050.714, 46.621
1051.957, 10.469
1053.200, 123.326
1054.442, 49.191
1055.685, 31.066
1056.927, 72.950
1058.169, 29.157
1059.411, 21.742
1060.652, 47.649
1061.894, 27.434
1063.135, 49.489
1064.376, 5.579
1065.617, 37.361
1066.858, 115.310
1068.098, 64.268
1069.339, 257.234
1070.579, 140.263
1071.819, 213.247
1073.058, 394.872
1074.298, 363.874
1075.537, 544.605
1076.776, 664.813
1078.015, 701.861
1079.254, 868.918
1080.493, 834.989
1081.731, 961.067
1082.969, 983.529
1084.207, 771.632
1085.445, 752.744
1086.683, 727.864
1087.920, 628.997
1089.157, 723.139
1090.394, 518.302
1091.631, 647.472
1092.868, 780.934
1094.105, 728.122
1095.341, 868.324
1096.577, 926.621
1097.813, 1034.845
1099.049, 1244.077
1100.284, 1292.323
1101.519, 1619.579
1102.755, 1701.843
1103.990, 1880.125
1105.224, 2050.417
1106.459, 2066.719
1107.693, 2035.040
1108.928, 2126.368
1110.162, 1841.704
1111.395, 1780.050
1112.629, 1583.403
1113.863, 1312.765
1115.096, 1227.133
1116.329, 962.510
1117.562, 932.893
1118.795, 814.284
1120.027, 661.682
1121.259, 738.086
1122.492, 653.499
1123.723, 469.917
1124.955, 497.343
1126.187, 335.776
1127.418, 448.216
1128.649, 363.662
1129.880, 250.115
1131.111, 342.574
1132.342, 294.040
1133.572, 206.513
1134.802, 231.992
1136.033, 105.477
1137.262, 119.969
1138.492, 96.466
1139.722, 7.029
1140.951, 83.481
1142.180, 17.003
1143.409, 15.483
1144.638, 30.050
1145.866, 71.411
1147.095, 19.876
1148.323, 48.665
1149.551, 46.789
1150.779, 45.759
1152.006, 29.689
1153.234, 20.866
1154.461, 77.426
1155.688, 73.992
1156.915, 183.564
1158.141, 120.142
1159.368, 150.725
1160.594, 351.314
1161.820, 299.909
1163.046, 281.509
1164.272, 461.114
1165.498, 425.725
1166.723, 581.341
1167.948, 651.962
1169.173, 663.589
1170.398, 929.220
1171.623, 959.856
1172.847, 999.498
1174.071, 1198.144
1175.295, 1039.765
1176.519, 1171.420
1177.743, 997.080
1178.966, 899.744
1180.190, 900.412
1181.413, 690.085
1182.636, 590.762
1183.858, 554.442
1185.081, 451.128
1186.303, 366.817
1187.526, 335.510
1188.748, 269.207
1189.969, 289.908
1191.191, 246.413
1192.412, 205.250
1193.634, 203.791
1194.855, 118.279
1196.076, 85.000
1197.296, 43.681
1198.517, 66.407
1199.737, 128.137
1200.957, 95.870
1202.177, 4.394
1203.397, 128.345
1204.617, 43.913
1205.836, 63.826
1207.055, 48.433
1208.274, 69.550
1209.493, 74.487
1210.712, 6.218
1211.930, 8.724
1213.148, 128.460
1214.367, 27.802
1215.584, 75.720
1216.802, 130.459
1218.020, 43.201
1219.237, 123.692
1220.454, 21.438
1221.671, 2.280
1222.888, 100.030
1224.105, 20.219
1225.321, 17.532
1226.537, 52.449
1227.753, 59.529
1228.969, 112.927
1230.185, 59.673
1231.400, 3.712
1232.616, 222.809
1233.831, 75.562
1235.046, 180.357
1236.261, 299.677
1237.475, 175.869
1238.689, 322.770
1239.904, 146.530
1241.118, 213.293
1242.332, 265.551
1243.545, 155.318
1244.759, 184.086
1245.972, 313.885
1247.185, 168.660
1248.398, 305.437
1249.611, 255.215
1250.823, 194.996
1252.036, 286.779
1253.248, 155.564
1254.460, 177.351
1255.671, 279.139
1256.883, 168.930
1258.095, 274.723
1259.306, 178.517
1260.517, 129.313
1261.728, 252.111
1262.938, 183.911
1264.149, 198.712
1265.359, 421.516
1266.569, 226.320
1267.779, 400.126
1268.989, 414.936
1270.199, 374.745
1271.408, 593.496
1272.617, 442.308
1273.826, 467.968
1275.035, 481.399
1276.244, 356.217
1277.452, 384.019
1278.661, 321.959
1279.869, 115.780
1281.077, 318.033
1282.285, 229.858
1283.492, 154.349
1284.700, 244.176
1285.907, 146.005
1287.114, 255.835
1288.321, 206.667
1289.527, 81.500
1290.734, 247.335
1291.940, 269.171
1293.146, 224.000
1294.352, 465.820
1295.558, 237.636
1296.763, 241.446
1297.969, 249.257
1299.174, 139.064
1300.379, 348.854
1301.584, 255.646
1302.788, 140.426
1303.993, 235.201
1305.197, 196.960
1306.401, 241.703
1307.605, 434.437
1308.809, 314.150
1310.013, 550.859
1311.216, 497.567
1312.419, 338.274
1313.622, 568.980
1314.825, 466.686
1316.028, 388.391
1317.230, 541.095
1318.432, 409.797
1319.634, 490.500
1320.836, 545.200
1322.038, 431.901
1323.240, 490.600
1324.441, 390.298
1325.642, 168.996
1326.843, 288.670
1328.044, 187.336
1329.245, 134.000
1330.445, 161.662
1331.645, 55.320
1332.845, 106.922
1334.045, 133.573
1335.245, 19.589
1336.445, 79.233
1337.644, 45.847
1338.843, 53.392
1340.042, 73.231
1341.241, 30.149
1342.440, 19.466
1343.638, 111.081
1344.836, 30.678
1346.034, 62.932
1347.232, 113.542
1348.430, 28.848
1349.628, 21.757
1350.825, 86.637
1352.022, 22.958
1353.219, 44.557
1354.416, 26.875
1355.613, 46.520
1356.809, 7.917
1358.005, 27.394
1359.202, 38.215
1360.398, 52.169
1361.593, 11.550
1362.789, 14.076
1363.984, 84.286
1365.179, 20.644
1366.374, 14.988
1367.569, 88.316
1368.764, 48.369
1369.958, 11.082
1371.153, 17.141
1372.347, 82.644
1373.541, 49.479
1374.735, 6.254
1375.928, 196.336
1377.122, 67.180
1378.315, 72.024
1379.508, 205.869
1380.701, 95.714
1381.893, 159.559
1383.086, 229.405
1384.278, 83.250
1385.470, 253.096
1386.662, 176.942
1387.854, 86.788
1389.046, 164.635
1390.237, 87.476
1391.428, 103.312
1392.619, 175.153
1393.810, 50.000
1395.001, 36.852
1396.191, 125.703
1397.382, 36.553
1398.572, 62.403
1399.762, 64.253
1400.952, 36.103
1402.141, 107.952
1403.331, 67.198
1404.520, 52.653
1405.709, 24.505
1406.898, 4.639
1408.087, 136.218
1409.275, 65.080
1410.464, 51.944
1411.652, 47.812
1412.840, 100.684
1414.028, 96.560
1415.215, 208.439
1416.403, 81.324
1417.590, 189.214
1418.777, 180.111
1419.964, 147.020
1421.151, 234.174
1422.338, 168.052
1423.524, 100.733
1424.710, 259.368
1425.896, 205.266
1427.082, 208.924
1428.268, 319.273
1429.453, 277.123
1430.639, 380.479
1431.824, 435.062
1433.009, 417.936
1434.194, 580.970
1435.378, 589.828
1436.563, 644.445
1437.747, 894.104
1438.931, 943.696
1440.115, 1036.219
1441.299, 1316.781
1442.482, 1181.332
1443.666, 1437.870
1444.849, 1502.394
1446.032, 1339.903
1447.215, 1583.397
1448.397, 1571.874
1449.580, 1573.334
1450.762, 1902.775
1451.944, 1691.196
1453.126, 1656.594
1454.308, 1962.419
1455.490, 1713.827
1456.671, 1752.010
1457.852, 1807.156
1459.033, 1582.262
1460.214, 1678.323
1461.395, 1561.335
1462.575, 1268.319
1463.756, 1450.358
1464.936, 1241.405
1466.116, 1064.497
1467.296, 1117.640
1468.475, 889.881
1469.655, 843.313
1470.834, 936.937
1472.013, 632.582
1473.192, 710.235
1474.371, 687.896
1475.550, 557.566
1476.728, 623.254
1477.906, 613.962
1479.084, 568.813
1480.262, 617.898
1481.440, 537.084
1482.617, 626.399
1483.795, 572.872
1484.972, 490.526
1486.149, 473.385
1487.326, 460.448
1488.502, 346.727
1489.679, 370.272
1490.855, 284.153
1492.031, 260.431
1493.207, 227.160
1494.383, 135.434
1495.559, 124.370
1496.734, 149.145
1497.909, 48.009
1499.084, 71.328
1500.259, 132.708
1501.434, 9.153
1502.608, 0.000
##END=



