##NAMES=Danburite
##RRUFFID=R040013
##IDEAL CHEMISTRY=CaB_2_Si_2_O_8_
##LOCALITY=Charcas, San Luis Potosi, Mexico
##OWNER=RRUFF
##SOURCE=Marcus Origlieri
##DESCRIPTION=Colorless prismatic single crystal
##STATUS=The identification of this mineral has been confirmed by X-ray diffraction and chemical analysis
##URL=rruff.info/R040013
##MEASURED CHEMISTRY=Ca_1.00_B_2.00_Si_2.00_O_8_
##PIN_ID=M00009
##ORIENTATION=Laser parallel to b* (0 1 0). Fiducial mark perpendicular to laser is parallel to -c [0 0 -1]
110.209, 0.000
111.601, 191.578
112.992, 393.698
114.384, 549.311
115.775, 887.529
117.166, 1494.302
118.556, 2613.708
119.947, 4367.655
121.337, 7034.035
122.727, 8470.755
124.116, 7945.841
125.506, 5669.804
126.895, 3387.979
128.284, 1888.349
129.673, 1023.591
131.062, 624.764
132.450, 388.407
133.838, 317.871
135.226, 314.307
136.614, 438.976
138.001, 461.858
139.388, 380.934
140.775, 201.188
142.162, 72.606
143.549, 25.181
144.935, 26.097
146.321, 41.236
147.707, 74.246
149.093, 41.137
150.478, 70.917
151.863, 43.592
153.248, 43.170
154.633, 89.658
156.018, 22.061
157.402, 73.612
158.786, 321.354
160.170, 874.157
161.554, 1711.020
162.937, 3518.938
164.320, 4507.921
165.703, 4124.955
167.086, 2660.039
168.469, 1333.170
169.851, 643.347
171.233, 295.570
172.615, 198.840
173.996, 228.166
175.378, 354.560
176.759, 624.030
178.140, 1037.544
179.521, 1658.099
180.901, 2034.692
182.281, 1919.323
183.662, 1430.989
185.041, 996.682
186.421, 801.391
187.800, 938.127
189.180, 1250.895
190.558, 1544.690
191.937, 1655.512
193.316, 1333.358
194.694, 1004.225
196.072, 664.105
197.450, 506.998
198.827, 576.903
200.205, 664.821
201.582, 983.753
202.959, 1566.683
204.336, 2540.588
205.712, 4232.473
207.088, 6908.341
208.465, 10151.208
209.840, 11528.093
211.216, 10044.996
212.591, 7018.918
213.967, 4388.859
215.341, 2634.818
216.716, 1684.101
218.091, 1196.091
219.465, 967.098
220.839, 935.122
222.213, 1055.161
223.586, 1343.217
224.960, 1637.289
226.333, 1709.376
227.706, 1551.479
229.079, 1350.612
230.451, 1408.779
231.823, 1638.983
233.195, 2124.228
234.567, 2908.521
235.939, 4240.854
237.310, 6681.891
238.682, 10938.303
240.052, 17816.643
241.423, 27694.732
242.794, 37702.371
244.164, 41729.805
245.534, 36727.258
246.904, 26854.732
248.274, 17642.207
249.643, 11339.692
251.012, 7318.186
252.381, 4996.689
253.750, 3574.205
255.118, 2710.725
256.487, 2113.249
257.855, 1550.777
259.223, 1234.633
260.590, 1061.840
261.958, 798.213
263.325, 679.679
264.692, 624.193
266.059, 495.731
267.425, 451.284
268.791, 388.832
270.158, 324.356
271.523, 410.861
272.889, 348.353
274.255, 460.469
275.620, 601.325
276.985, 578.751
278.350, 492.092
279.714, 314.364
281.078, 237.565
282.443, 184.776
283.806, 153.009
285.170, 176.264
286.534, 230.538
287.897, 307.831
289.260, 536.142
290.623, 768.470
291.985, 999.814
293.348, 1313.665
294.710, 1282.198
296.072, 1067.994
297.433, 761.590
298.795, 468.522
300.156, 336.117
301.517, 201.747
302.878, 234.322
304.239, 210.430
305.599, 283.901
306.959, 393.381
308.319, 531.871
309.679, 685.371
311.038, 712.879
312.398, 597.396
313.757, 450.922
315.116, 320.455
316.474, 229.996
317.833, 112.545
319.191, 95.101
320.549, 20.336
321.907, 11.233
323.264, 26.807
324.622, 12.387
325.979, 81.974
327.336, 134.565
328.692, 120.162
330.049, 111.763
331.405, 93.369
332.761, 62.980
334.117, 64.595
335.473, 27.215
336.828, 36.839
338.183, 97.466
339.538, 144.098
340.893, 346.732
342.247, 605.371
343.602, 984.135
344.956, 1552.636
346.310, 1840.806
347.663, 1769.529
349.017, 1320.946
350.370, 824.590
351.723, 540.423
353.076, 321.245
354.428, 195.388
355.780, 85.645
357.133, 112.014
358.484, 34.775
359.836, 25.998
361.188, 5.846
362.539, 29.983
363.890, 39.652
365.241, 0.494
366.591, 20.473
367.942, 39.685
369.292, 3.101
370.642, 27.368
371.992, 15.568
373.341, 11.742
374.691, 35.395
376.040, 22.645
377.388, 8.382
378.737, 18.328
380.086, 9.006
381.434, 0.361
382.782, 13.340
384.130, 64.451
385.477, 26.273
386.825, 38.040
388.172, 96.717
389.519, 97.593
390.865, 83.724
392.212, 112.378
393.558, 125.710
394.904, 129.362
396.250, 191.011
397.596, 221.658
398.941, 262.368
400.286, 241.012
401.631, 294.655
402.976, 363.308
404.321, 500.946
405.665, 521.586
407.009, 567.226
408.353, 604.864
409.697, 640.501
411.040, 773.136
412.384, 903.769
413.727, 1213.398
415.070, 1528.026
416.412, 1949.652
417.755, 2556.275
419.097, 3419.897
420.439, 4478.516
421.781, 5489.133
423.122, 6037.747
424.464, 5702.361
425.805, 4739.974
427.146, 3503.585
428.486, 2402.196
429.827, 1692.806
431.167, 1322.416
432.507, 1246.025
433.847, 1390.632
435.187, 1943.238
436.526, 3098.843
437.865, 4509.445
439.204, 5865.048
440.543, 6313.657
441.882, 5510.271
443.220, 4104.889
444.558, 2779.511
445.896, 1964.136
447.234, 1351.762
448.572, 937.396
449.909, 664.030
451.246, 531.662
452.583, 522.291
453.919, 467.917
455.256, 541.541
456.592, 784.161
457.928, 902.778
459.264, 678.392
460.600, 579.002
461.935, 442.610
463.270, 306.213
464.605, 253.813
465.940, 178.188
467.274, 211.780
468.609, 129.369
469.943, 94.954
471.277, 79.535
472.610, 58.113
473.944, 105.686
475.277, 198.255
476.610, 264.820
477.943, 336.381
479.275, 291.938
480.608, 222.490
481.940, 243.038
483.272, 75.582
484.604, 67.121
485.935, 44.656
487.267, 9.186
488.598, 24.290
489.929, 9.780
491.260, 33.278
492.590, 19.792
493.920, 29.319
495.250, 37.197
496.580, 36.418
497.910, 49.991
499.239, 54.584
500.569, 59.197
501.898, 32.832
503.226, 52.482
504.555, 36.152
505.883, 49.838
507.212, 27.114
508.540, 9.165
509.867, 1.425
511.195, 9.691
512.522, 24.871
513.849, 21.327
515.176, 3.022
516.503, 30.259
517.829, 5.702
519.156, 10.479
520.482, 20.734
521.808, 2.950
523.133, 41.157
524.459, 14.639
525.784, 1.537
527.109, 4.278
528.434, 10.897
529.758, 16.065
531.083, 31.232
532.407, 6.396
533.731, 5.442
535.055, 60.715
536.378, 14.134
537.701, 65.010
539.025, 48.147
540.348, 54.283
541.670, 22.419
542.993, 72.549
544.315, 77.675
545.637, 33.794
546.959, 59.910
548.281, 100.021
549.602, 95.126
550.923, 78.226
552.244, 82.319
553.565, 101.408
554.886, 74.491
556.206, 157.569
557.526, 192.640
558.846, 222.707
560.166, 197.768
561.486, 239.824
562.805, 245.874
564.124, 221.918
565.443, 233.956
566.762, 257.989
568.080, 317.016
569.399, 367.037
570.717, 365.052
572.035, 381.067
573.352, 361.401
574.670, 367.398
575.987, 436.389
577.304, 429.375
578.621, 485.354
579.938, 574.328
581.254, 611.295
582.570, 656.779
583.886, 732.735
585.202, 819.791
586.518, 918.756
587.833, 1042.713
589.148, 1235.675
590.463, 1354.688
591.778, 1513.606
593.093, 1753.830
594.407, 2068.735
595.721, 2505.634
597.035, 2973.526
598.349, 3768.412
599.662, 4898.292
600.976, 6338.165
602.289, 8646.030
603.602, 12082.892
604.914, 17669.746
606.227, 24726.596
607.539, 31703.434
608.851, 35480.270
610.163, 33777.102
611.475, 27373.922
612.786, 21100.742
614.097, 15397.552
615.408, 11114.356
616.719, 8471.152
618.030, 6808.945
619.340, 5727.730
620.651, 5418.509
621.961, 5634.281
623.270, 6701.047
624.580, 8181.807
625.889, 9838.562
627.199, 10145.308
628.507, 8822.049
629.816, 7098.660
631.125, 5267.533
632.433, 3992.734
633.741, 3169.378
635.049, 2443.326
636.357, 2148.043
637.664, 1741.568
638.972, 1629.101
640.279, 1292.310
641.586, 1299.404
642.893, 1077.382
644.199, 1024.965
645.505, 994.084
646.811, 827.574
648.117, 772.739
649.423, 745.435
650.728, 675.273
652.034, 636.632
653.339, 536.111
654.644, 510.844
655.948, 438.526
657.253, 378.899
658.557, 369.129
659.861, 325.294
661.165, 330.380
662.468, 291.775
663.772, 277.118
665.075, 246.263
666.378, 211.188
667.681, 253.745
668.983, 154.899
670.286, 244.336
671.588, 275.118
672.890, 238.018
674.192, 211.631
675.493, 185.694
676.795, 158.297
678.096, 129.104
679.397, 94.360
680.697, 77.558
681.998, 39.585
683.298, 58.064
684.598, 70.805
685.898, 98.340
687.198, 86.318
688.498, 77.844
689.797, 92.365
691.096, 70.881
692.395, 84.616
693.694, 68.037
694.992, 108.540
696.290, 67.038
697.589, 91.532
698.886, 39.022
700.184, 66.714
701.482, 40.195
702.779, 86.672
704.076, 68.145
705.373, 52.614
706.669, 85.078
707.966, 50.538
709.262, 55.994
710.558, 59.446
711.854, 22.893
713.150, 3.663
714.445, 59.773
715.740, 30.206
717.035, 50.634
718.330, 35.058
719.625, 59.479
720.919, 55.896
722.214, 12.692
723.508, 47.712
724.801, 6.113
726.095, 16.508
727.388, 52.899
728.682, 10.287
729.975, 6.670
731.267, 68.049
732.560, 4.576
733.852, 70.793
735.145, 36.158
736.437, 32.520
737.728, 47.878
739.020, 58.233
740.311, 47.584
741.603, 71.933
742.894, 104.278
744.184, 75.620
745.475, 59.959
746.765, 146.295
748.055, 28.628
749.345, 84.958
750.635, 137.285
751.925, 86.608
753.214, 86.930
754.503, 106.248
755.792, 148.563
757.081, 153.876
758.370, 115.186
759.658, 174.493
760.946, 85.798
762.234, 195.100
763.522, 233.399
764.809, 275.697
766.097, 372.991
767.384, 389.283
768.671, 542.573
769.958, 678.862
771.244, 785.152
772.530, 856.442
773.817, 800.736
775.102, 718.032
776.388, 559.330
777.674, 429.632
778.959, 267.937
780.244, 214.248
781.529, 172.564
782.814, 133.887
784.098, 82.213
785.383, 28.544
786.667, 35.880
787.951, 18.221
789.235, 12.435
790.518, 2.905
791.801, 68.244
793.084, 19.582
794.367, 45.076
795.650, 26.253
796.933, 24.417
798.215, 96.904
799.497, 0.227
800.779, 77.449
802.061, 7.856
803.342, 21.839
804.624, 46.459
805.905, 10.241
807.186, 11.057
808.466, 11.356
809.747, 55.345
811.027, 14.059
812.307, 53.778
813.587, 41.509
814.867, 1.247
816.146, 39.988
817.426, 13.265
818.705, 27.482
819.984, 52.237
821.263, 21.996
822.541, 9.772
823.819, 7.457
825.098, 21.314
826.375, 48.910
827.653, 69.133
828.931, 16.356
830.208, 2.578
831.485, 8.200
832.762, 25.020
834.039, 53.240
835.315, 15.459
836.592, 88.678
837.868, 12.102
839.144, 58.115
840.420, 96.331
841.695, 67.548
842.970, 49.765
844.246, 82.982
845.521, 97.199
846.795, 94.416
848.070, 106.634
849.344, 98.852
850.618, 119.064
851.892, 155.953
853.166, 149.172
854.440, 182.391
855.713, 238.612
856.986, 226.832
858.259, 257.054
859.532, 247.276
860.804, 280.977
862.077, 289.201
863.349, 231.319
864.621, 230.522
865.893, 253.749
867.164, 292.925
868.436, 335.065
869.707, 311.295
870.978, 293.215
872.248, 306.447
873.519, 280.762
874.789, 322.916
876.060, 256.153
877.330, 262.391
878.599, 255.630
879.869, 388.871
881.138, 311.113
882.408, 361.357
883.677, 408.603
884.945, 378.850
886.214, 414.099
887.482, 485.350
888.751, 532.604
890.019, 649.858
891.287, 724.115
892.554, 853.374
893.822, 938.635
895.089, 1143.898
896.356, 1309.164
897.623, 1402.431
898.889, 1517.701
900.156, 1520.974
901.422, 1574.248
902.688, 1590.525
903.954, 1374.804
905.220, 1280.087
906.485, 1119.371
907.750, 992.659
909.015, 908.948
910.280, 713.241
911.545, 652.536
912.809, 474.833
914.074, 522.134
915.338, 455.437
916.602, 416.743
917.865, 407.052
919.129, 387.363
920.392, 258.677
921.655, 238.993
922.918, 186.313
924.181, 197.635
925.443, 144.960
926.706, 159.934
927.968, 163.250
929.230, 107.583
930.491, 71.919
931.753, 140.157
933.014, 66.499
934.276, 95.229
935.536, 41.578
936.797, 66.891
938.058, 27.406
939.318, 55.764
940.578, 64.586
941.838, 163.950
943.098, 92.056
944.358, 81.427
945.617, 88.802
946.876, 34.879
948.135, 116.925
949.394, 93.055
950.653, 77.477
951.911, 117.835
953.169, 87.308
954.427, 141.710
955.685, 132.490
956.943, 85.702
958.200, 122.118
959.458, 132.336
960.715, 255.762
961.971, 277.730
963.228, 328.169
964.485, 522.612
965.741, 660.060
966.997, 917.512
968.253, 1336.833
969.508, 1853.297
970.764, 2532.767
972.019, 2812.241
973.274, 2866.720
974.529, 2550.998
975.784, 1873.486
977.039, 1555.979
978.293, 1146.477
979.547, 979.980
980.801, 814.488
982.055, 625.001
983.308, 575.519
984.562, 498.041
985.815, 483.569
987.068, 502.102
988.321, 416.641
989.573, 480.185
990.826, 468.735
992.078, 358.289
993.330, 489.849
994.582, 534.413
995.833, 520.983
997.085, 604.560
998.336, 570.142
999.587, 584.732
1000.838, 623.328
1002.088, 524.929
1003.339, 469.534
1004.589, 413.146
1005.839, 457.763
1007.089, 384.387
1008.339, 355.016
1009.588, 290.650
1010.838, 274.290
1012.087, 230.171
1013.336, 162.584
1014.584, 160.239
1015.833, 142.899
1017.081, 111.565
1018.330, 214.236
1019.577, 165.912
1020.825, 209.596
1022.073, 201.288
1023.320, 261.992
1024.567, 271.708
1025.814, 284.433
1027.061, 263.170
1028.308, 285.913
1029.554, 284.660
1030.800, 125.413
1032.046, 201.171
1033.292, 183.938
1034.538, 136.709
1035.783, 193.486
1037.029, 197.268
1038.274, 253.056
1039.519, 392.855
1040.763, 368.659
1042.008, 297.468
1043.252, 185.283
1044.496, 121.103
1045.740, 99.927
1046.984, 62.760
1048.228, 54.597
1049.471, 86.440
1050.714, 62.287
1051.957, 80.140
1053.200, 29.997
1054.442, 67.859
1055.685, 93.726
1056.927, 25.598
1058.169, 26.475
1059.411, 3.356
1060.652, 81.243
1061.894, 84.137
1063.135, 81.035
1064.376, 41.938
1065.617, 105.846
1066.858, 110.764
1068.098, 160.687
1069.339, 185.018
1070.579, 105.553
1071.819, 226.494
1073.058, 217.449
1074.298, 222.410
1075.537, 324.378
1076.776, 256.355
1078.015, 372.343
1079.254, 457.335
1080.493, 422.335
1081.731, 495.480
1082.969, 447.497
1084.207, 490.605
1085.445, 553.570
1086.683, 570.617
1087.920, 702.672
1089.157, 791.742
1090.394, 854.812
1091.631, 1017.198
1092.868, 1177.282
1094.105, 1384.599
1095.341, 1620.709
1096.577, 1812.614
1097.813, 2216.730
1099.049, 2399.851
1100.284, 2735.977
1101.519, 3195.109
1102.755, 3418.960
1103.990, 3880.107
1105.224, 4103.258
1106.459, 4040.411
1107.693, 3989.571
1108.928, 3705.735
1110.162, 3459.902
1111.395, 3078.075
1112.629, 2658.249
1113.863, 2311.481
1115.096, 2067.664
1116.329, 1770.849
1117.562, 1712.040
1118.795, 1358.254
1120.027, 1309.454
1121.259, 1327.658
1122.492, 1124.884
1123.723, 932.094
1124.955, 862.307
1126.187, 764.522
1127.418, 737.740
1128.649, 673.961
1129.880, 574.185
1131.111, 530.415
1132.342, 441.101
1133.572, 446.334
1134.802, 318.570
1136.033, 245.809
1137.262, 345.049
1138.492, 206.302
1139.722, 184.654
1140.951, 175.902
1142.180, 148.152
1143.409, 159.404
1144.638, 134.183
1145.866, 67.918
1147.095, 108.177
1148.323, 79.437
1149.551, 81.820
1150.779, 86.083
1152.006, 35.396
1153.234, 116.110
1154.461, 75.902
1155.688, 78.771
1156.915, 136.431
1158.141, 72.571
1159.368, 24.253
1160.594, 97.524
1161.820, 4.848
1163.046, 116.121
1164.272, 56.573
1165.498, 66.342
1166.723, 108.644
1167.948, 161.917
1169.173, 181.357
1170.398, 197.630
1171.623, 189.326
1172.847, 187.599
1174.071, 258.872
1175.295, 281.209
1176.519, 267.481
1177.743, 209.793
1178.966, 220.663
1180.190, 155.933
1181.413, 94.202
1182.636, 140.469
1183.858, 81.736
1185.081, 107.002
1186.303, 106.359
1187.526, 45.622
1188.748, 52.884
1189.969, 98.144
1191.191, 21.402
1192.412, 57.812
1193.634, 73.067
1194.855, 101.320
1196.076, 93.148
1197.296, 13.821
1198.517, 55.131
1199.737, 62.453
1200.957, 20.696
1202.177, 54.019
1203.397, 72.332
1204.617, 6.806
1205.836, 67.317
1207.055, 7.577
1208.274, 53.655
1209.493, 32.932
1210.712, 19.217
1211.930, 22.219
1213.148, 7.565
1214.367, 12.646
1215.584, 29.852
1216.802, 9.150
1218.020, 72.350
1219.237, 46.811
1220.454, 5.058
1221.671, 89.823
1222.888, 12.903
1224.105, 23.274
1225.321, 8.566
1226.537, 7.601
1227.753, 33.016
1228.969, 21.659
1230.185, 21.900
1231.400, 73.606
1232.616, 96.466
1233.831, 27.403
1235.046, 42.004
1236.261, 46.142
1237.475, 40.252
1238.689, 97.823
1239.904, 35.999
1241.118, 91.180
1242.332, 98.427
1243.545, 110.511
1244.759, 9.024
1245.972, 59.098
1247.185, 27.166
1248.398, 47.651
1249.611, 18.214
1250.823, 42.464
1252.036, 59.030
1253.248, 20.085
1254.460, 87.158
1255.671, 32.212
1256.883, 65.256
1258.095, 116.297
1259.306, 29.529
1260.517, 107.563
1261.728, 97.201
1262.938, 10.771
1264.149, 101.250
1265.359, 71.267
1266.569, 60.276
1267.779, 130.341
1268.989, 27.505
1270.199, 8.594
1271.408, 74.601
1272.617, 71.633
1273.826, 97.582
1275.035, 59.039
1276.244, 37.970
1277.452, 37.815
1278.661, 49.812
1279.869, 9.724
1281.077, 49.630
1282.285, 23.531
1283.492, 7.573
1284.700, 10.685
1285.907, 56.805
1287.114, 47.666
1288.321, 25.083
1289.527, 48.238
1290.734, 37.594
1291.940, 25.416
1293.146, 78.227
1294.352, 7.024
1295.558, 8.192
1296.763, 31.576
1297.969, 50.337
1299.174, 9.090
1300.379, 61.831
1301.584, 47.443
1302.788, 60.268
1303.993, 96.959
1305.197, 25.633
1306.401, 51.288
1307.605, 30.936
1308.809, 11.428
1310.013, 101.195
1311.216, 116.808
1312.419, 78.412
1313.622, 70.000
1314.825, 73.573
1316.028, 21.137
1317.230, 104.692
1318.432, 54.237
1319.634, 141.766
1320.836, 156.286
1322.038, 13.796
1323.240, 67.293
1324.441, 99.780
1325.642, 78.255
1326.843, 44.715
1328.044, 29.165
1329.245, 26.493
1330.445, 52.035
1331.645, 25.453
1332.845, 26.861
1334.045, 7.258
1335.245, 4.642
1336.445, 37.014
1337.644, 20.625
1338.843, 29.280
1340.042, 30.049
1341.241, 17.633
1342.440, 65.671
1343.638, 84.832
1344.836, 26.884
1346.034, 23.384
1347.232, 64.643
1348.430, 5.891
1349.628, 32.128
1350.825, 8.655
1352.022, 24.560
1353.219, 62.457
1354.416, 26.348
1355.613, 59.611
1356.809, 8.771
1358.005, 49.867
1359.202, 22.280
1360.398, 8.582
1361.593, 15.455
1362.789, 54.662
1363.984, 39.941
1365.179, 37.156
1366.374, 51.247
1367.569, 4.668
1368.764, 25.410
1369.958, 23.484
1371.153, 13.555
1372.347, 66.639
1373.541, 3.290
1374.735, 59.782
1375.928, 57.791
1377.122, 2.535
1378.315, 5.897
1379.508, 10.728
1380.701, 6.040
1381.893, 89.985
1383.086, 38.599
1384.278, 41.710
1385.470, 125.293
1386.662, 55.867
1387.854, 11.300
1389.046, 106.848
1390.237, 9.615
1391.428, 115.909
1392.619, 78.284
1393.810, 106.731
1395.001, 102.082
1396.191, 24.999
1397.382, 8.680
1398.572, 15.998
1399.762, 30.146
1400.952, 22.850
1402.141, 81.979
1403.331, 8.507
1404.520, 110.785
1405.709, 122.983
1406.898, 144.409
1408.087, 46.660
1409.275, 68.901
1410.464, 58.004
1411.652, 74.224
1412.840, 84.436
1414.028, 107.421
1415.215, 100.611
1416.403, 64.703
1417.590, 93.763
1418.777, 160.691
1419.964, 62.058
1421.151, 159.832
1422.338, 82.189
1423.524, 165.018
1424.710, 122.454
1425.896, 85.317
1427.082, 193.794
1428.268, 266.659
1429.453, 102.934
1430.639, 155.487
1431.824, 145.547
1433.009, 168.102
1434.194, 257.577
1435.378, 195.331
1436.563, 209.082
1437.747, 344.365
1438.931, 282.242
1440.115, 342.945
1441.299, 436.735
1442.482, 318.875
1443.666, 401.355
1444.849, 463.832
1446.032, 339.845
1447.215, 508.861
1448.397, 334.172
1449.580, 351.445
1450.762, 541.136
1451.944, 305.036
1453.126, 351.115
1454.308, 474.030
1455.490, 372.227
1456.671, 398.379
1457.852, 442.478
1459.033, 357.519
1460.214, 407.499
1461.395, 277.418
1462.575, 237.313
1463.756, 333.227
1464.936, 245.143
1466.116, 246.026
1467.296, 256.919
1468.475, 200.887
1469.655, 194.920
1470.834, 278.945
1472.013, 103.958
1473.192, 204.026
1474.371, 127.087
1475.550, 164.165
1476.728, 197.251
1477.906, 147.357
1479.084, 78.499
1480.262, 162.668
1481.440, 66.846
1482.617, 184.045
1483.795, 68.279
1484.972, 133.554
1486.149, 137.878
1487.326, 48.247
1488.502, 61.667
1489.679, 122.144
1490.855, 52.689
1492.031, 64.312
1493.207, 101.028
1494.383, 16.857
1495.559, 93.822
1496.734, 36.952
1497.909, 48.291
1499.084, 0.099
1500.259, 19.865
1501.434, 0.791
1502.608, 0.000
##END=



