##NAMES=Danburite
##RRUFFID=R040013
##IDEAL CHEMISTRY=CaB_2_Si_2_O_8_
##LOCALITY=Charcas, San Luis Potosi, Mexico
##OWNER=RRUFF
##SOURCE=Marcus Origlieri
##DESCRIPTION=Colorless prismatic single crystal
##STATUS=The identification of this mineral has been confirmed by X-ray diffraction and chemical analysis
##URL=rruff.info/R040013
##MEASURED CHEMISTRY=Ca_1.00_B_2.00_Si_2.00_O_8_
##PIN_ID=M00012
##ORIENTATION=Laser parallel to c* (0 0 1). Fiducial mark perpendicular to laser is parallel to a [1 0 0]
104.640, 0.000
106.032, 5.465
107.425, 153.559
108.817, 204.149
110.209, 618.306
111.601, 929.404
112.992, 1256.111
114.384, 2476.911
115.775, 2124.397
117.166, 4271.488
118.556, 5027.447
119.947, 4510.783
121.337, 5213.306
122.727, 6714.049
124.116, 8257.237
125.506, 6818.979
126.895, 4544.937
128.284, 3259.393
129.673, 2173.808
131.062, 1671.491
132.450, 1099.422
133.838, 1144.257
135.226, 1171.195
136.614, 1924.213
138.001, 2904.296
139.388, 3032.514
140.775, 2362.178
142.162, 1194.499
143.549, 761.569
144.935, 287.700
146.321, 193.889
147.707, 30.127
149.093, 82.590
150.478, 10.730
151.863, 164.758
153.248, 21.941
154.633, 108.937
156.018, 89.917
157.402, 86.957
158.786, 61.948
160.170, 612.880
161.554, 766.932
162.937, 1904.996
164.320, 3737.016
165.703, 4871.968
167.086, 3754.854
168.469, 1831.677
169.851, 906.501
171.233, 291.403
172.615, 271.436
173.996, 26.518
175.378, 38.628
176.759, 93.696
178.140, 80.692
179.521, 405.631
180.901, 522.578
182.281, 692.538
183.662, 604.509
185.041, 578.486
186.421, 826.462
187.800, 1317.433
189.180, 2399.392
190.558, 3136.335
191.937, 2865.252
193.316, 1972.132
194.694, 1104.975
196.072, 673.974
197.450, 425.377
198.827, 389.462
200.205, 238.371
201.582, 478.316
202.959, 681.738
204.336, 1161.166
205.712, 1899.457
207.088, 2923.346
208.465, 5122.217
209.840, 7692.071
211.216, 8853.906
212.591, 7145.723
213.967, 4355.977
215.341, 2645.262
216.716, 1565.657
218.091, 1052.609
219.465, 642.494
220.839, 518.747
222.213, 355.019
223.586, 366.583
224.960, 441.026
226.333, 374.460
227.706, 552.887
229.079, 567.308
230.451, 701.727
231.823, 863.135
233.195, 1050.695
234.567, 1648.158
235.939, 2110.862
237.310, 3340.390
238.682, 5249.179
240.052, 8240.850
241.423, 13094.133
242.794, 20478.439
244.164, 28852.447
245.534, 31034.963
246.904, 25516.938
248.274, 17538.240
249.643, 11119.303
251.012, 7410.282
252.381, 5034.064
253.750, 3606.365
255.118, 2653.485
256.487, 2130.797
257.855, 1720.105
259.223, 1333.384
260.590, 1178.610
261.958, 854.771
263.325, 764.865
264.692, 666.885
266.059, 560.806
267.425, 581.616
268.791, 510.332
270.158, 608.966
271.523, 625.528
272.889, 900.024
274.255, 1284.461
275.620, 1833.722
276.985, 2578.761
278.350, 2536.615
279.714, 2007.276
281.078, 1237.914
282.443, 727.539
283.806, 443.151
285.170, 224.749
286.534, 171.333
287.897, 35.886
289.260, 45.403
290.623, 17.104
291.985, 11.635
293.348, 24.811
294.710, 46.763
296.072, 78.901
297.433, 44.882
298.795, 6.542
300.156, 2.727
301.517, 24.296
302.878, 52.823
304.239, 25.773
305.599, 176.772
306.959, 225.581
308.319, 359.771
309.679, 588.940
311.038, 636.089
312.398, 631.280
313.757, 670.324
315.116, 483.411
316.474, 298.478
317.833, 198.525
319.191, 193.551
320.549, 80.555
321.907, 59.808
323.264, 20.849
324.622, 16.812
325.979, 23.385
327.336, 30.743
328.692, 49.097
330.049, 30.087
331.405, 78.697
332.761, 72.457
334.117, 109.192
335.473, 140.902
336.828, 80.588
338.183, 160.250
339.538, 169.888
340.893, 311.503
342.247, 521.239
343.602, 833.969
344.956, 1391.212
346.310, 1991.978
347.663, 2575.850
349.017, 2191.339
350.370, 1609.093
351.723, 1053.586
353.076, 657.723
354.428, 469.884
355.780, 223.658
357.133, 194.227
358.484, 119.847
359.836, 43.559
361.188, 54.170
362.539, 38.156
363.890, 9.396
365.241, 32.965
366.591, 3.420
367.942, 18.825
369.292, 44.519
370.642, 69.414
371.992, 39.129
373.341, 36.270
374.691, 23.705
376.040, 0.759
377.388, 26.626
378.737, 44.417
380.086, 43.307
381.434, 42.797
382.782, 4.845
384.130, 92.528
385.477, 33.499
386.825, 127.119
388.172, 114.039
389.519, 166.745
390.865, 181.273
392.212, 142.528
393.558, 250.217
394.904, 149.782
396.250, 292.304
397.596, 278.004
398.941, 280.347
400.286, 300.681
401.631, 361.115
402.976, 574.324
404.321, 760.513
405.665, 952.716
407.009, 983.852
408.353, 783.166
409.697, 728.251
411.040, 614.490
412.384, 666.524
413.727, 773.535
415.070, 932.520
416.412, 1172.481
417.755, 1514.426
419.097, 2134.345
420.439, 2638.246
421.781, 3369.129
423.122, 4122.991
424.464, 4283.840
425.805, 4114.670
427.146, 3136.483
428.486, 2355.289
429.827, 1655.073
431.167, 1118.842
432.507, 1035.475
433.847, 941.339
435.187, 1098.275
436.526, 1591.201
437.865, 2264.245
439.204, 3389.948
440.543, 4307.138
441.882, 4454.227
443.220, 3594.463
444.558, 2687.580
445.896, 1917.955
447.234, 1314.642
448.572, 963.610
449.909, 716.335
451.246, 615.892
452.583, 552.465
453.919, 514.016
455.256, 575.543
456.592, 548.048
457.928, 701.530
459.264, 828.989
460.600, 907.425
461.935, 909.839
463.270, 780.230
464.605, 693.597
465.940, 454.449
467.274, 414.186
468.609, 314.781
469.943, 301.120
471.277, 294.498
472.610, 229.798
473.944, 328.370
475.277, 316.641
476.610, 394.308
477.943, 645.922
479.275, 730.685
480.608, 831.572
481.940, 606.155
483.272, 390.086
484.604, 287.040
485.935, 134.053
487.267, 130.042
488.598, 22.008
489.929, 103.945
491.260, 70.857
492.590, 5.258
493.920, 77.595
495.250, 8.577
496.580, 7.217
497.910, 3.982
499.239, 51.716
500.569, 91.424
501.898, 75.991
503.226, 51.443
504.555, 66.378
505.883, 44.356
507.212, 58.838
508.540, 31.357
509.867, 42.910
511.195, 27.125
512.522, 79.957
513.849, 115.168
515.176, 67.779
516.503, 181.072
517.829, 119.412
519.156, 96.901
520.482, 131.061
521.808, 106.536
523.133, 148.606
524.459, 102.196
525.784, 154.265
527.109, 127.418
528.434, 55.188
529.758, 120.606
531.083, 49.495
532.407, 87.300
533.731, 118.454
535.055, 2.469
536.378, 72.401
537.701, 94.553
539.025, 99.416
540.348, 56.761
541.670, 129.752
542.993, 125.196
544.315, 99.231
545.637, 153.201
546.959, 185.157
548.281, 132.240
549.602, 180.187
550.923, 98.362
552.244, 198.511
553.565, 103.520
554.886, 148.646
556.206, 190.350
557.526, 154.514
558.846, 310.076
560.166, 246.171
561.486, 298.037
562.805, 355.690
564.124, 354.227
565.443, 363.556
566.762, 352.938
568.080, 323.266
569.399, 314.996
570.717, 362.077
572.035, 389.140
573.352, 351.485
574.670, 434.136
575.987, 461.444
577.304, 419.413
578.621, 612.158
579.938, 610.616
581.254, 756.949
582.570, 828.248
583.886, 892.992
585.202, 986.437
586.518, 973.832
587.833, 1118.509
589.148, 1133.008
590.463, 1273.629
591.778, 1412.961
593.093, 1510.275
594.407, 1695.570
595.721, 2003.005
597.035, 2374.260
598.349, 2918.495
599.662, 3478.754
600.976, 4568.034
602.289, 5838.302
603.602, 7764.665
604.914, 10970.800
606.227, 15326.918
607.539, 21423.014
608.851, 26549.090
610.163, 28295.156
611.475, 26061.207
612.786, 20987.244
614.097, 16263.267
615.408, 11779.279
616.719, 9105.273
618.030, 7061.260
619.340, 5682.229
620.651, 5153.182
621.961, 4887.116
623.270, 5374.034
624.580, 6194.935
625.889, 7316.818
627.199, 8302.682
628.507, 8138.386
629.816, 7024.052
631.125, 5575.152
632.433, 4200.664
633.741, 3501.003
635.049, 2742.663
636.357, 2443.999
637.664, 2060.549
638.972, 1711.410
640.279, 1742.211
641.586, 1500.361
642.893, 1557.680
644.199, 1561.911
645.505, 1448.014
646.811, 1499.173
648.117, 1306.218
649.423, 1334.329
650.728, 1197.302
652.034, 1086.328
653.339, 1182.263
654.644, 884.450
655.948, 904.802
657.253, 792.939
658.557, 622.466
659.861, 559.843
661.165, 450.105
662.468, 410.520
663.772, 324.809
665.075, 293.291
666.378, 330.551
667.681, 218.014
668.983, 256.385
670.286, 196.408
671.588, 136.726
672.890, 229.707
674.192, 86.845
675.493, 163.113
676.795, 124.618
678.096, 90.646
679.397, 133.762
680.697, 38.889
681.998, 136.801
683.298, 14.040
684.598, 16.761
685.898, 99.292
687.198, 58.475
688.498, 65.723
689.797, 17.136
691.096, 27.979
692.395, 36.950
693.694, 22.936
694.992, 31.975
696.290, 11.955
697.589, 16.093
698.886, 7.878
700.184, 74.870
701.482, 64.102
702.779, 57.942
704.076, 54.019
705.373, 3.126
706.669, 78.254
707.966, 19.418
709.262, 23.606
710.558, 125.819
711.854, 2.923
713.150, 53.354
714.445, 24.661
715.740, 53.992
717.035, 40.354
718.330, 74.742
719.625, 106.165
720.919, 15.628
722.214, 15.113
723.508, 14.380
724.801, 23.141
726.095, 21.685
727.388, 17.749
728.682, 52.168
729.975, 21.574
731.267, 174.966
732.560, 90.345
733.852, 120.713
735.145, 42.070
736.437, 90.413
737.728, 107.745
739.020, 64.066
740.311, 54.376
741.603, 51.673
742.894, 25.959
744.184, 93.232
745.475, 86.493
746.765, 97.746
748.055, 133.987
749.345, 105.218
750.635, 204.439
751.925, 214.649
753.214, 155.850
754.503, 125.041
755.792, 72.222
757.081, 108.394
758.370, 75.555
759.658, 144.708
760.946, 182.850
762.234, 128.983
763.522, 177.107
764.809, 240.222
766.097, 284.328
767.384, 332.425
768.671, 412.068
769.958, 493.595
771.244, 565.671
772.530, 631.739
773.817, 623.674
775.102, 577.866
776.388, 542.921
777.674, 416.977
778.959, 296.028
780.244, 290.076
781.529, 250.120
782.814, 235.159
784.098, 225.191
785.383, 198.219
786.667, 256.242
787.951, 149.261
789.235, 200.275
790.518, 280.286
791.801, 221.292
793.084, 256.296
794.367, 197.294
795.650, 296.287
796.933, 203.274
798.215, 64.255
799.497, 175.230
800.779, 113.200
802.061, 93.164
803.342, 135.123
804.624, 42.075
805.905, 106.022
807.186, 51.963
808.466, 34.899
809.747, 65.831
811.027, 14.758
812.307, 85.680
813.587, 75.474
814.867, 12.387
816.146, 119.300
817.426, 14.111
818.705, 102.016
819.984, 143.584
821.263, 76.482
822.541, 210.902
823.819, 70.708
825.098, 144.553
826.375, 161.390
827.653, 131.078
828.931, 224.878
830.208, 145.428
831.485, 161.981
832.762, 210.652
834.039, 150.183
835.315, 205.114
836.592, 195.563
837.868, 227.594
839.144, 314.069
840.420, 252.754
841.695, 333.629
842.970, 306.601
844.246, 386.760
845.521, 473.176
846.795, 333.965
848.070, 481.662
849.344, 419.987
850.618, 390.312
851.892, 527.336
853.166, 434.033
854.440, 592.055
855.713, 585.401
856.986, 646.955
858.259, 875.787
859.532, 831.733
860.804, 873.700
862.077, 880.214
863.349, 715.013
864.621, 864.856
865.893, 563.404
867.164, 560.120
868.436, 529.700
869.707, 408.556
870.978, 505.415
872.248, 418.275
873.519, 376.979
874.789, 463.845
876.060, 395.715
877.330, 517.544
878.599, 466.337
879.869, 432.127
881.138, 498.805
882.408, 335.699
883.677, 461.597
884.945, 477.500
886.214, 382.409
887.482, 576.322
888.751, 561.240
890.019, 600.163
891.287, 633.089
892.554, 631.020
893.822, 769.955
895.089, 758.895
896.356, 899.838
897.623, 990.787
898.889, 1077.740
900.156, 1206.698
901.422, 1226.661
902.688, 1287.629
903.954, 1356.602
905.220, 1159.581
906.485, 1247.564
907.750, 1087.580
909.015, 995.574
910.280, 954.723
911.545, 768.109
912.809, 754.120
914.074, 770.375
915.338, 588.396
916.602, 672.424
917.865, 480.747
919.129, 434.786
920.392, 450.846
921.655, 231.897
922.918, 270.955
924.181, 287.187
925.443, 186.256
926.706, 245.477
927.968, 127.618
929.230, 308.707
930.491, 232.848
931.753, 196.950
933.014, 292.058
934.276, 225.173
935.536, 209.295
936.797, 238.424
938.058, 189.560
939.318, 351.704
940.578, 286.856
941.838, 353.015
943.098, 502.185
944.358, 370.362
945.617, 580.547
946.876, 599.739
948.135, 575.931
949.394, 698.139
950.653, 534.354
951.911, 604.574
953.169, 555.806
954.427, 452.045
955.685, 522.294
956.943, 305.551
958.200, 384.817
959.458, 418.098
960.715, 230.392
961.971, 372.694
963.228, 309.022
964.485, 347.359
965.741, 589.709
966.997, 595.075
968.253, 947.451
969.508, 1143.842
970.764, 1416.243
972.019, 1843.658
973.274, 1957.084
974.529, 1873.523
975.784, 1580.983
977.039, 1209.453
978.293, 1044.942
979.547, 787.448
980.801, 654.968
982.055, 662.510
983.308, 460.065
984.562, 408.636
985.815, 364.232
987.068, 341.842
988.321, 299.265
989.573, 241.112
990.826, 237.773
992.078, 237.452
993.330, 214.151
994.582, 295.874
995.833, 209.611
997.085, 323.363
998.336, 538.126
999.587, 638.904
1000.838, 1231.698
1002.088, 1323.503
1003.339, 1043.317
1004.589, 1022.144
1005.839, 785.980
1007.089, 851.827
1008.339, 825.683
1009.588, 657.560
1010.838, 703.465
1012.087, 425.352
1013.336, 388.733
1014.584, 363.774
1015.833, 270.693
1017.081, 416.592
1018.330, 432.533
1019.577, 574.894
1020.825, 814.294
1022.073, 779.265
1023.320, 952.521
1024.567, 1064.512
1025.814, 913.513
1027.061, 1120.523
1028.308, 964.544
1029.554, 931.576
1030.800, 844.617
1032.046, 562.668
1033.292, 559.730
1034.538, 444.801
1035.783, 242.882
1037.029, 250.974
1038.274, 9.076
1039.519, 56.188
1040.763, 61.310
1042.008, 2.558
1043.252, 42.583
1044.496, 19.265
1045.740, 41.105
1046.984, 67.061
1048.228, 28.763
1049.471, 67.421
1050.714, 77.614
1051.957, 34.182
1053.200, 39.028
1054.442, 0.249
1055.685, 19.479
1056.927, 73.718
1058.169, 21.031
1059.411, 7.226
1060.652, 18.506
1061.894, 9.229
1063.135, 87.056
1064.376, 6.649
1065.617, 92.655
1066.858, 147.970
1068.098, 37.294
1069.339, 223.628
1070.579, 152.972
1071.819, 196.326
1073.058, 380.110
1074.298, 377.491
1075.537, 599.882
1076.776, 673.029
1078.015, 664.447
1079.254, 917.875
1080.493, 860.318
1081.731, 1021.773
1082.969, 1152.238
1084.207, 872.719
1085.445, 921.209
1086.683, 970.709
1087.920, 810.224
1089.157, 857.747
1090.394, 859.280
1091.631, 972.822
1092.868, 1025.168
1094.105, 978.738
1095.341, 1266.318
1096.577, 1349.163
1097.813, 1560.774
1099.049, 1841.394
1100.284, 1987.024
1101.519, 2239.667
1102.755, 2627.323
1103.990, 2783.996
1105.224, 3211.681
1106.459, 3197.374
1107.693, 3189.080
1108.928, 3146.421
1110.162, 2929.518
1111.395, 2687.249
1112.629, 2377.989
1113.863, 1974.736
1115.096, 1895.493
1116.329, 1472.256
1117.562, 1335.028
1118.795, 1308.808
1120.027, 1050.595
1121.259, 1074.390
1122.492, 977.192
1123.723, 776.002
1124.955, 815.820
1126.187, 522.645
1127.418, 634.476
1128.649, 545.314
1129.880, 491.161
1131.111, 488.014
1132.342, 406.874
1133.572, 286.741
1134.802, 354.614
1136.033, 234.495
1137.262, 264.382
1138.492, 154.281
1139.722, 58.186
1140.951, 205.102
1142.180, 1.024
1143.409, 3.047
1144.638, 48.891
1145.866, 41.165
1147.095, 14.219
1148.323, 26.732
1149.551, 70.310
1150.779, 66.645
1152.006, 35.394
1153.234, 37.430
1154.461, 68.535
1155.688, 25.494
1156.915, 141.479
1158.141, 126.460
1159.368, 206.446
1160.594, 307.438
1161.820, 214.437
1163.046, 228.440
1164.272, 419.449
1165.498, 375.463
1166.723, 462.483
1167.948, 634.509
1169.173, 654.540
1170.398, 799.577
1171.623, 823.618
1172.847, 951.665
1174.071, 1015.717
1175.295, 997.745
1176.519, 982.807
1177.743, 891.724
1178.966, 732.412
1180.190, 775.487
1181.413, 621.328
1182.636, 508.412
1183.858, 534.500
1185.081, 295.303
1186.303, 409.399
1187.526, 315.486
1188.748, 281.591
1189.969, 336.700
1191.191, 160.646
1192.412, 130.763
1193.634, 150.739
1194.855, 52.805
1196.076, 21.933
1197.296, 87.019
1198.517, 19.155
1199.737, 128.294
1200.957, 72.437
1202.177, 21.583
1203.397, 81.733
1204.617, 33.114
1205.836, 4.654
1207.055, 71.808
1208.274, 51.034
1209.493, 33.798
1210.712, 22.988
1211.930, 31.391
1213.148, 162.869
1214.367, 30.032
1215.584, 149.546
1216.802, 115.714
1218.020, 55.885
1219.237, 170.161
1220.454, 48.335
1221.671, 25.511
1222.888, 35.690
1224.105, 49.129
1225.321, 10.061
1226.537, 103.292
1227.753, 67.530
1228.969, 164.401
1230.185, 68.569
1231.400, 47.163
1232.616, 204.926
1233.831, 53.973
1235.046, 259.003
1236.261, 374.759
1237.475, 222.936
1238.689, 327.981
1239.904, 240.161
1241.118, 248.342
1242.332, 335.613
1243.545, 183.799
1244.759, 227.986
1245.972, 305.180
1247.185, 189.377
1248.398, 428.569
1249.611, 361.764
1250.823, 203.960
1252.036, 327.159
1253.248, 207.360
1254.460, 295.563
1255.671, 260.768
1256.883, 148.975
1258.095, 293.185
1259.306, 238.396
1260.517, 147.608
1261.728, 389.823
1262.938, 192.040
1264.149, 224.258
1265.359, 400.478
1266.569, 249.699
1267.779, 477.922
1268.989, 421.118
1270.199, 363.363
1271.408, 641.305
1272.617, 462.600
1273.826, 500.822
1275.035, 543.554
1276.244, 447.788
1277.452, 466.540
1278.661, 435.901
1279.869, 261.139
1281.077, 394.411
1282.285, 291.830
1283.492, 270.662
1284.700, 264.465
1285.907, 125.710
1287.114, 246.681
1288.321, 204.929
1289.527, 199.177
1290.734, 293.427
1291.940, 368.679
1293.146, 362.920
1294.352, 501.150
1295.558, 297.371
1296.763, 313.589
1297.969, 438.799
1299.174, 181.000
1300.379, 291.202
1301.584, 226.404
1302.788, 189.590
1303.993, 350.753
1305.197, 201.913
1306.401, 319.059
1307.605, 535.184
1308.809, 367.300
1310.013, 579.418
1311.216, 597.534
1312.419, 517.650
1313.622, 628.766
1314.825, 592.880
1316.028, 517.996
1317.230, 691.109
1318.432, 597.222
1319.634, 555.333
1320.836, 649.443
1322.038, 426.553
1323.240, 529.660
1324.441, 534.755
1325.642, 301.837
1326.843, 433.911
1328.044, 239.981
1329.245, 210.044
1330.445, 252.102
1331.645, 37.156
1332.845, 117.206
1334.045, 178.251
1335.245, 62.130
1336.445, 74.898
1337.644, 62.922
1338.843, 64.805
1340.042, 11.204
1341.241, 45.792
1342.440, 5.797
1343.638, 81.194
1344.836, 49.816
1346.034, 60.165
1347.232, 52.145
1348.430, 38.877
1349.628, 133.093
1350.825, 39.062
1352.022, 51.029
1353.219, 101.997
1354.416, 77.829
1355.613, 12.130
1356.809, 38.090
1358.005, 110.204
1359.202, 32.748
1360.398, 9.295
1361.593, 16.336
1362.789, 28.375
1363.984, 70.410
1365.179, 15.446
1366.374, 37.526
1367.569, 27.491
1368.764, 44.503
1369.958, 75.516
1371.153, 10.549
1372.347, 85.907
1373.541, 88.998
1374.735, 37.190
1375.928, 180.466
1377.122, 70.229
1378.315, 129.480
1379.508, 271.733
1380.701, 124.985
1381.893, 212.237
1383.086, 175.489
1384.278, 154.742
1385.470, 286.994
1386.662, 195.246
1387.854, 129.492
1389.046, 198.728
1390.237, 141.958
1391.428, 130.181
1392.619, 176.409
1393.810, 63.640
1395.001, 85.875
1396.191, 107.118
1397.382, 26.637
1398.572, 40.607
1399.762, 15.151
1400.952, 32.091
1402.141, 139.333
1403.331, 6.426
1404.520, 97.815
1405.709, 131.057
1406.898, 7.301
1408.087, 112.546
1409.275, 127.794
1410.464, 16.044
1411.652, 172.297
1412.840, 112.553
1414.028, 105.812
1415.215, 291.072
1416.403, 93.337
1417.590, 193.607
1418.777, 237.881
1419.964, 106.161
1421.151, 264.988
1422.338, 261.659
1423.524, 159.896
1424.710, 345.611
1425.896, 226.651
1427.082, 315.031
1428.268, 377.202
1429.453, 405.377
1430.639, 450.009
1431.824, 531.332
1433.009, 444.670
1434.194, 638.104
1435.378, 745.667
1436.563, 656.007
1437.747, 1106.938
1438.931, 1061.689
1440.115, 1298.587
1441.299, 1649.473
1442.482, 1473.357
1443.666, 1770.225
1444.849, 1853.076
1446.032, 1631.908
1447.215, 1954.722
1448.397, 2069.517
1449.580, 1806.290
1450.762, 2281.040
1451.944, 2179.375
1453.126, 1926.095
1454.308, 2366.331
1455.490, 2128.833
1456.671, 2184.616
1457.852, 2257.533
1459.033, 1900.877
1460.214, 2099.170
1461.395, 1889.406
1462.575, 1555.581
1463.756, 1753.802
1464.936, 1522.073
1466.116, 1244.391
1467.296, 1355.683
1468.475, 1120.114
1469.655, 962.659
1470.834, 1017.414
1472.013, 831.187
1473.192, 874.951
1474.371, 759.703
1475.550, 653.443
1476.728, 725.174
1477.906, 718.897
1479.084, 536.785
1480.262, 784.825
1481.440, 687.976
1482.617, 598.225
1483.795, 700.587
1484.972, 518.086
1486.149, 540.734
1487.326, 447.545
1488.502, 340.512
1489.679, 361.656
1490.855, 266.030
1492.031, 124.691
1493.207, 269.668
1494.383, 158.009
1495.559, 140.782
1496.734, 148.078
1497.909, 89.031
1499.084, 29.811
1500.259, 128.658
1501.434, 11.063
1502.608, 65.626
1503.783, 0.000
##END=



