##NAMES=Danburite
##RRUFFID=R040013
##IDEAL CHEMISTRY=CaB_2_Si_2_O_8_
##LOCALITY=Charcas, San Luis Potosi, Mexico
##OWNER=RRUFF
##SOURCE=Marcus Origlieri
##DESCRIPTION=Colorless prismatic single crystal
##STATUS=The identification of this mineral has been confirmed by X-ray diffraction and chemical analysis
##URL=rruff.info/R040013
##MEASURED CHEMISTRY=Ca_1.00_B_2.00_Si_2.00_O_8_
##PIN_ID=M00009
##ORIENTATION=Laser parallel to b* (0 1 0). Fiducial mark perpendicular to laser is parallel to -c [0 0 -1]
101.854, 0.000
103.247, 68.874
104.640, 202.788
106.032, 154.357
107.425, 370.338
108.817, 382.122
110.209, 1294.570
111.601, 1085.813
112.992, 1731.516
114.384, 1180.631
115.775, 793.727
117.166, 883.448
118.556, 773.163
119.947, 750.761
121.337, 776.645
122.727, 658.724
124.116, 672.502
125.506, 471.280
126.895, 406.609
128.284, 269.413
129.673, 239.695
131.062, 200.311
132.450, 181.703
133.838, 129.102
135.226, 50.520
136.614, 107.953
138.001, 9.409
139.388, 57.891
140.775, 18.605
142.162, 2.925
143.549, 16.497
144.935, 18.857
146.321, 23.905
147.707, 52.214
149.093, 8.333
150.478, 16.475
151.863, 23.641
153.248, 25.163
154.633, 41.063
156.018, 8.681
157.402, 21.606
158.786, 53.760
160.170, 107.573
161.554, 146.799
162.937, 393.333
164.320, 549.837
165.703, 633.313
167.086, 454.983
168.469, 415.827
169.851, 525.342
171.233, 707.995
172.615, 1211.774
173.996, 2155.611
175.378, 3979.426
176.759, 6916.223
178.140, 12258.045
179.521, 20079.900
180.901, 24001.795
182.281, 19803.723
183.662, 11436.110
185.041, 5861.490
186.421, 3041.918
187.800, 1949.856
189.180, 1569.430
190.558, 1886.688
191.937, 2184.826
193.316, 1848.229
194.694, 1192.975
196.072, 594.532
197.450, 376.041
198.827, 277.500
200.205, 163.902
201.582, 137.253
202.959, 157.559
204.336, 259.823
205.712, 301.058
207.088, 566.269
208.465, 857.455
209.840, 939.616
211.216, 831.753
212.591, 498.865
213.967, 269.952
215.341, 38.016
216.716, 39.054
218.091, 52.068
219.465, 40.057
220.839, 181.021
222.213, 379.959
223.586, 893.872
224.960, 1485.758
226.333, 1537.619
227.706, 1086.455
229.079, 467.264
230.451, 204.049
231.823, 79.808
233.195, 89.952
234.567, 73.813
235.939, 129.623
237.310, 324.746
238.682, 528.667
240.052, 1012.324
241.423, 1708.951
242.794, 2752.312
244.164, 3442.146
245.534, 3128.986
246.904, 2253.147
248.274, 1411.049
249.643, 967.210
251.012, 609.400
252.381, 462.114
253.750, 374.495
255.118, 307.327
256.487, 274.135
257.855, 155.257
259.223, 230.017
260.590, 203.667
261.958, 143.504
263.325, 153.106
264.692, 81.280
266.059, 166.585
267.425, 83.204
268.791, 104.634
270.158, 105.763
271.523, 58.780
272.889, 84.734
274.255, 16.595
275.620, 69.381
276.985, 3.107
278.350, 30.781
279.714, 21.438
281.078, 9.078
282.443, 110.700
283.806, 69.268
285.170, 120.859
286.534, 243.513
287.897, 410.383
289.260, 591.179
290.623, 995.332
291.985, 1450.022
293.348, 1886.642
294.710, 2034.953
296.072, 1677.760
297.433, 1151.571
298.795, 832.173
300.156, 490.590
301.517, 510.847
302.878, 500.871
304.239, 682.922
305.599, 951.763
306.959, 1430.116
308.319, 2112.465
309.679, 2775.755
311.038, 3178.028
312.398, 3017.285
313.757, 2294.527
315.116, 1650.751
316.474, 1092.958
317.833, 779.148
319.191, 523.320
320.549, 398.475
321.907, 313.612
323.264, 284.730
324.622, 323.830
325.979, 338.912
327.336, 390.975
328.692, 473.019
330.049, 452.043
331.405, 410.047
332.761, 372.028
334.117, 416.988
335.473, 445.924
336.828, 557.832
338.183, 824.709
339.538, 1193.556
340.893, 1884.381
342.247, 2965.187
343.602, 4826.974
344.956, 7482.743
346.310, 9372.495
347.663, 9042.229
349.017, 6547.944
350.370, 4058.642
351.723, 2415.323
353.076, 1496.987
354.428, 939.633
355.780, 643.262
357.133, 464.874
358.484, 299.469
359.836, 256.046
361.188, 120.644
362.539, 111.981
363.890, 93.244
365.241, 20.546
366.591, 9.769
367.942, 38.651
369.292, 12.213
370.642, 73.736
371.992, 3.352
373.341, 78.989
374.691, 53.657
376.040, 22.352
377.388, 38.072
378.737, 40.910
380.086, 32.738
381.434, 80.674
382.782, 1.545
384.130, 15.244
385.477, 37.820
386.825, 4.950
388.172, 26.103
389.519, 104.045
390.865, 75.960
392.212, 79.850
393.558, 58.849
394.904, 40.055
396.250, 37.507
397.596, 0.854
398.941, 25.623
400.286, 4.635
401.631, 4.922
402.976, 20.240
404.321, 6.590
405.665, 3.971
407.009, 14.385
408.353, 6.829
409.697, 11.945
411.040, 0.959
412.384, 70.433
413.727, 99.646
415.070, 148.935
416.412, 244.122
417.755, 317.245
419.097, 449.387
420.439, 583.058
421.781, 711.096
423.122, 790.536
424.464, 741.305
425.805, 607.972
427.146, 460.476
428.486, 288.646
429.827, 157.613
431.167, 76.810
432.507, 87.089
433.847, 128.347
435.187, 248.590
436.526, 361.816
437.865, 690.032
439.204, 867.241
440.543, 926.441
441.882, 797.631
443.220, 554.806
444.558, 284.969
445.896, 146.119
447.234, 143.254
448.572, 153.378
449.909, 56.486
451.246, 136.577
452.583, 144.649
453.919, 275.706
455.256, 335.745
456.592, 603.769
457.928, 858.775
459.264, 795.764
460.600, 608.737
461.935, 437.693
463.270, 395.631
464.605, 364.553
465.940, 397.458
467.274, 574.346
468.609, 649.217
469.943, 946.069
471.277, 1318.904
472.610, 2081.722
473.944, 3434.522
475.277, 5860.305
476.610, 9996.069
477.943, 14573.816
479.275, 15941.548
480.608, 13169.260
481.940, 8366.955
483.272, 4917.633
484.604, 2938.294
485.935, 1925.938
487.267, 1303.564
488.598, 959.174
489.929, 730.766
491.260, 563.341
492.590, 473.900
493.920, 407.441
495.250, 302.965
496.580, 299.473
497.910, 218.963
499.239, 291.437
500.569, 172.893
501.898, 168.333
503.226, 159.757
504.555, 137.164
505.883, 132.392
507.212, 150.563
508.540, 178.630
509.867, 198.220
511.195, 118.658
512.522, 201.000
513.849, 127.938
515.176, 141.428
516.503, 219.538
517.829, 162.871
519.156, 196.777
520.482, 159.394
521.808, 130.629
523.133, 147.782
524.459, 169.110
525.784, 112.307
527.109, 104.401
528.434, 158.088
529.758, 102.592
531.083, 88.706
532.407, 166.069
533.731, 131.876
535.055, 134.539
536.378, 95.206
537.701, 45.760
539.025, 155.179
540.348, 84.564
541.670, 125.654
542.993, 127.125
544.315, 148.044
545.637, 152.148
546.959, 137.560
548.281, 169.495
549.602, 173.374
550.923, 167.720
552.244, 225.764
553.565, 222.065
554.886, 349.291
556.206, 425.118
557.526, 612.882
558.846, 859.262
560.166, 1010.763
561.486, 982.647
562.805, 1021.620
564.124, 797.628
565.443, 593.139
566.762, 432.854
568.080, 526.678
569.399, 489.310
570.717, 558.820
572.035, 481.601
573.352, 487.305
574.670, 500.545
575.987, 442.888
577.304, 555.411
578.621, 622.044
579.938, 624.339
581.254, 750.279
582.570, 829.677
583.886, 1041.312
585.202, 1046.055
586.518, 1128.815
587.833, 1283.355
589.148, 1343.548
590.463, 1564.013
591.778, 1742.511
593.093, 1936.783
594.407, 2247.179
595.721, 2692.087
597.035, 3274.535
598.349, 4043.499
599.662, 5172.004
600.976, 6662.413
602.289, 8979.365
603.602, 12675.853
604.914, 17982.225
606.227, 25658.889
607.539, 33455.238
608.851, 37981.852
610.163, 36148.172
611.475, 28994.477
612.786, 21850.771
614.097, 15847.053
615.408, 11193.404
616.719, 8729.659
618.030, 6905.904
619.340, 5807.180
620.651, 5160.399
621.961, 4927.607
623.270, 5327.802
624.580, 5855.985
625.889, 6713.155
627.199, 6639.314
628.507, 5755.462
629.816, 4876.597
631.125, 3614.720
632.433, 2922.832
633.741, 2316.932
635.049, 1923.020
636.357, 1850.097
637.664, 1611.162
638.972, 1562.216
640.279, 1507.259
641.586, 1478.290
642.893, 1519.310
644.199, 1397.319
645.505, 1522.426
646.811, 1393.376
648.117, 1297.294
649.423, 1382.261
650.728, 1180.219
652.034, 1204.169
653.339, 1071.998
654.644, 963.940
655.948, 883.817
657.253, 673.758
658.557, 622.694
659.861, 505.634
661.165, 382.574
662.468, 411.511
663.772, 290.441
665.075, 364.378
666.378, 305.313
667.681, 249.183
668.983, 323.014
670.286, 278.945
671.588, 320.764
672.890, 193.517
674.192, 284.430
675.493, 187.335
676.795, 158.231
678.096, 143.991
679.397, 120.516
680.697, 78.391
681.998, 41.087
683.298, 28.950
684.598, 29.195
685.898, 5.645
687.198, 24.522
688.498, 20.300
689.797, 42.116
691.096, 18.073
692.395, 41.272
693.694, 8.512
694.992, 0.289
696.290, 41.943
697.589, 23.805
698.886, 8.456
700.184, 12.732
701.482, 45.023
702.779, 19.337
704.076, 36.668
705.373, 102.019
706.669, 25.404
707.966, 30.808
709.262, 109.230
710.558, 18.688
711.854, 74.161
713.150, 71.663
714.445, 25.192
715.740, 209.264
717.035, 87.931
718.330, 140.156
719.625, 15.409
720.919, 43.988
722.214, 64.588
723.508, 43.788
724.801, 17.156
726.095, 9.515
727.388, 55.865
728.682, 18.792
729.975, 128.537
731.267, 86.860
732.560, 1.176
733.852, 146.485
735.145, 11.213
736.437, 118.078
737.728, 13.637
739.020, 27.636
740.311, 52.902
741.603, 15.838
742.894, 20.411
744.184, 41.652
745.475, 6.113
746.765, 117.113
748.055, 5.666
749.345, 66.546
750.635, 108.752
751.925, 37.953
753.214, 119.149
754.503, 17.340
755.792, 82.526
757.081, 61.706
758.370, 22.882
759.658, 103.052
760.946, 134.218
762.234, 165.379
763.522, 125.536
764.809, 145.689
766.097, 211.837
767.384, 219.982
768.671, 377.122
769.958, 312.259
771.244, 332.391
772.530, 455.520
773.817, 327.645
775.102, 383.767
776.388, 319.884
777.674, 130.999
778.959, 201.110
780.244, 120.218
781.529, 84.323
782.814, 130.424
784.098, 2.475
785.383, 92.621
786.667, 101.715
787.951, 123.806
789.235, 142.894
790.518, 118.980
791.801, 186.063
793.084, 190.145
794.367, 130.224
795.650, 224.301
796.933, 82.376
798.215, 183.448
799.497, 170.519
800.779, 128.587
802.061, 169.653
803.342, 86.717
804.624, 148.779
805.905, 103.839
807.186, 56.897
808.466, 175.955
809.747, 95.010
811.027, 116.064
812.307, 198.118
813.587, 99.170
814.867, 175.220
816.146, 122.269
817.426, 207.316
818.705, 210.365
819.984, 122.409
821.263, 244.282
822.541, 173.100
823.819, 171.988
825.098, 221.671
826.375, 253.676
827.653, 302.462
828.931, 228.353
830.208, 293.522
831.485, 348.157
832.762, 255.890
834.039, 360.501
835.315, 295.136
836.592, 325.958
837.868, 451.382
839.144, 353.714
840.420, 422.300
841.695, 515.490
842.970, 492.284
844.246, 611.564
845.521, 474.634
846.795, 560.586
848.070, 674.722
849.344, 523.972
850.618, 684.940
851.892, 638.975
853.166, 686.101
854.440, 869.160
855.713, 762.221
856.986, 1094.285
858.259, 1090.677
859.532, 1145.414
860.804, 1231.683
862.077, 977.703
863.349, 1115.607
864.621, 1001.482
865.893, 866.568
867.164, 948.956
868.436, 771.049
869.707, 801.146
870.978, 728.011
872.248, 656.116
873.519, 721.737
874.789, 624.860
876.060, 692.459
877.330, 688.508
878.599, 536.645
879.869, 670.230
881.138, 560.277
882.408, 566.433
883.677, 680.287
884.945, 524.462
886.214, 588.357
887.482, 645.554
888.751, 623.760
890.019, 756.970
891.287, 675.189
892.554, 915.332
893.822, 856.562
895.089, 1005.802
896.356, 1141.003
897.623, 1066.254
898.889, 1043.511
900.156, 1014.772
901.422, 846.040
902.688, 916.313
903.954, 765.592
905.220, 693.876
906.485, 777.167
907.750, 617.463
909.015, 772.765
910.280, 716.073
911.545, 631.387
912.809, 662.707
914.074, 516.032
915.338, 705.364
916.602, 566.041
917.865, 357.047
919.129, 439.397
920.392, 219.162
921.655, 186.416
922.918, 300.785
924.181, 232.161
925.443, 291.543
926.706, 242.932
927.968, 250.328
929.230, 312.731
930.491, 177.161
931.753, 281.589
933.014, 256.023
934.276, 197.465
935.536, 313.915
936.797, 257.372
938.058, 338.836
939.318, 328.313
940.578, 309.798
941.838, 443.303
943.098, 424.816
944.358, 467.335
945.617, 681.861
946.876, 571.396
948.135, 734.936
949.394, 715.484
950.653, 618.040
951.911, 649.603
953.169, 501.172
954.427, 526.749
955.685, 438.335
956.943, 334.928
958.200, 468.529
959.458, 276.140
960.715, 354.763
961.971, 402.396
963.228, 378.041
964.485, 504.695
965.741, 516.357
966.997, 631.032
968.253, 872.722
969.508, 1070.420
970.764, 1549.128
972.019, 1669.852
973.274, 1543.583
974.529, 1308.326
975.784, 884.081
977.039, 680.851
978.293, 488.632
979.547, 346.427
980.801, 406.244
982.055, 272.073
983.308, 335.916
984.562, 359.781
985.815, 305.657
987.068, 491.551
988.321, 420.463
989.573, 420.388
990.826, 466.320
992.078, 405.260
993.330, 550.209
994.582, 574.169
995.833, 545.143
997.085, 763.133
998.336, 966.132
999.587, 1198.140
1000.838, 1189.349
1002.088, 1325.181
1003.339, 1018.217
1004.589, 694.261
1005.839, 345.312
1007.089, 347.374
1008.339, 122.442
1009.588, 235.687
1010.838, 175.774
1012.087, 45.871
1013.336, 211.183
1014.584, 126.295
1015.833, 170.514
1017.081, 335.814
1018.330, 307.953
1019.577, 533.865
1020.825, 479.319
1022.073, 367.554
1023.320, 573.438
1024.567, 377.616
1025.814, 372.588
1027.061, 411.781
1028.308, 213.979
1029.554, 313.179
1030.800, 204.393
1032.046, 154.613
1033.292, 258.839
1034.538, 147.073
1035.783, 251.313
1037.029, 304.560
1038.274, 329.813
1039.519, 517.072
1040.763, 403.339
1042.008, 385.611
1043.252, 240.891
1044.496, 50.176
1045.740, 177.468
1046.984, 146.767
1048.228, 72.072
1049.471, 240.383
1050.714, 67.701
1051.957, 150.024
1053.200, 127.354
1054.442, 39.310
1055.685, 166.028
1056.927, 25.373
1058.169, 47.723
1059.411, 81.081
1060.652, 9.443
1061.894, 71.812
1063.135, 72.538
1064.376, 0.082
1065.617, 102.542
1066.858, 41.934
1068.098, 124.331
1069.339, 118.062
1070.579, 85.471
1071.819, 205.884
1073.058, 133.713
1074.298, 191.143
1075.537, 352.542
1076.776, 322.983
1078.015, 478.431
1079.254, 551.883
1080.493, 489.345
1081.731, 669.811
1082.969, 648.281
1084.207, 667.763
1085.445, 757.250
1086.683, 542.742
1087.920, 630.238
1089.157, 638.932
1090.394, 650.445
1091.631, 804.962
1092.868, 744.484
1094.105, 848.018
1095.341, 1023.556
1096.577, 953.104
1097.813, 1200.665
1099.049, 1331.229
1100.284, 1472.799
1101.519, 1759.373
1102.755, 1747.950
1103.990, 2002.534
1105.224, 2076.122
1106.459, 2094.713
1107.693, 2155.312
1108.928, 1888.913
1110.162, 1716.518
1111.395, 1649.126
1112.629, 1209.737
1113.863, 1264.352
1115.096, 1150.970
1116.329, 870.592
1117.562, 951.215
1118.795, 745.843
1120.027, 619.473
1121.259, 732.106
1122.492, 518.741
1123.723, 513.379
1124.955, 472.020
1126.187, 342.663
1127.418, 487.309
1128.649, 301.957
1129.880, 286.606
1131.111, 358.259
1132.342, 211.914
1133.572, 300.570
1134.802, 171.229
1136.033, 44.890
1137.262, 156.555
1138.492, 50.220
1139.722, 152.889
1140.951, 122.558
1142.180, 104.771
1143.409, 53.881
1144.638, 36.535
1145.866, 14.810
1147.095, 52.844
1148.323, 57.500
1149.551, 11.854
1150.779, 84.793
1152.006, 85.561
1153.234, 19.930
1154.461, 98.301
1155.688, 39.692
1156.915, 62.912
1158.141, 42.484
1159.368, 9.113
1160.594, 45.712
1161.820, 50.688
1163.046, 57.901
1164.272, 53.492
1165.498, 57.083
1166.723, 164.675
1167.948, 28.269
1169.173, 99.863
1170.398, 159.456
1171.623, 36.051
1172.847, 174.645
1174.071, 143.240
1175.295, 88.834
1176.519, 204.430
1177.743, 54.024
1178.966, 69.620
1180.190, 100.215
1181.413, 13.810
1182.636, 183.405
1183.858, 84.999
1185.081, 14.594
1186.303, 120.187
1187.526, 27.374
1188.748, 86.967
1189.969, 80.561
1191.191, 4.153
1192.412, 28.745
1193.634, 11.336
1194.855, 18.073
1196.076, 37.513
1197.296, 98.919
1198.517, 104.645
1199.737, 99.207
1200.957, 16.231
1202.177, 150.327
1203.397, 29.882
1204.617, 61.965
1205.836, 99.954
1207.055, 128.506
1208.274, 75.386
1209.493, 10.040
1210.712, 7.548
1211.930, 91.837
1213.148, 85.344
1214.367, 110.848
1215.584, 233.743
1216.802, 46.246
1218.020, 72.748
1219.237, 163.248
1220.454, 6.254
1221.671, 83.836
1222.888, 64.330
1224.105, 37.822
1225.321, 191.958
1226.537, 21.448
1227.753, 58.011
1228.969, 125.402
1230.185, 99.973
1231.400, 263.455
1232.616, 229.937
1233.831, 171.417
1235.046, 275.395
1236.261, 208.872
1237.475, 312.348
1238.689, 450.347
1239.904, 252.820
1241.118, 365.292
1242.332, 266.765
1243.545, 224.237
1244.759, 361.709
1245.972, 341.180
1247.185, 324.648
1248.398, 419.116
1249.611, 243.581
1250.823, 302.045
1252.036, 264.507
1253.248, 216.968
1254.460, 274.427
1255.671, 202.884
1256.883, 257.339
1258.095, 358.792
1259.306, 172.243
1260.517, 357.693
1261.728, 380.142
1262.938, 234.587
1264.149, 420.032
1265.359, 348.473
1266.569, 380.914
1267.779, 563.644
1268.989, 398.082
1270.199, 551.518
1271.408, 634.952
1272.617, 425.385
1273.826, 544.651
1275.035, 475.081
1276.244, 440.510
1277.452, 515.730
1278.661, 279.156
1279.869, 247.485
1281.077, 401.739
1282.285, 162.160
1283.492, 295.816
1284.700, 238.937
1285.907, 192.284
1287.114, 324.988
1288.321, 218.404
1289.527, 249.031
1290.734, 386.445
1291.940, 348.851
1293.146, 440.260
1294.352, 465.659
1295.558, 256.051
1296.763, 423.432
1297.969, 304.812
1299.174, 174.192
1300.379, 363.558
1301.584, 174.910
1302.788, 303.250
1303.993, 370.573
1305.197, 252.894
1306.401, 570.209
1307.605, 493.522
1308.809, 435.829
1310.013, 701.134
1311.216, 425.438
1312.419, 537.739
1313.622, 501.039
1314.825, 435.337
1316.028, 602.634
1317.230, 565.929
1318.432, 517.224
1319.634, 696.517
1320.836, 502.808
1322.038, 492.097
1323.240, 558.381
1324.441, 398.663
1325.642, 501.591
1326.843, 403.869
1328.044, 229.908
1329.245, 251.182
1330.445, 144.454
1331.645, 129.395
1332.845, 191.663
1334.045, 21.072
1335.245, 12.219
1336.445, 73.037
1337.644, 13.673
1338.843, 3.422
1340.042, 69.827
1341.241, 30.923
1342.440, 51.323
1343.638, 105.570
1344.836, 57.182
1346.034, 146.061
1347.232, 32.306
1348.430, 26.552
1349.628, 35.800
1350.825, 66.142
1352.022, 51.104
1353.219, 45.352
1354.416, 68.395
1355.613, 91.854
1356.809, 43.892
1358.005, 79.636
1359.202, 1.384
1360.398, 24.875
1361.593, 23.144
1362.789, 53.422
1363.984, 19.289
1365.179, 116.010
1366.374, 28.325
1367.569, 20.345
1368.764, 73.002
1369.958, 47.372
1371.153, 11.236
1372.347, 169.684
1373.541, 61.149
1374.735, 107.529
1375.928, 225.710
1377.122, 139.029
1378.315, 263.346
1379.508, 160.658
1380.701, 187.966
1381.893, 250.271
1383.086, 119.574
1384.278, 164.872
1385.470, 240.166
1386.662, 92.455
1387.854, 141.739
1389.046, 181.019
1390.237, 109.318
1391.428, 143.615
1392.619, 76.918
1393.810, 103.225
1395.001, 160.552
1396.191, 10.094
1397.382, 35.268
1398.572, 45.633
1399.762, 32.008
1400.952, 25.383
1402.141, 41.757
1403.331, 36.551
1404.520, 131.504
1405.709, 63.879
1406.898, 47.255
1408.087, 92.632
1409.275, 29.010
1410.464, 23.390
1411.652, 184.771
1412.840, 79.155
1414.028, 131.541
1415.215, 117.932
1416.403, 59.344
1417.590, 135.776
1418.777, 128.217
1419.964, 67.188
1421.151, 190.069
1422.338, 120.336
1423.524, 219.587
1424.710, 185.822
1425.896, 139.278
1427.082, 261.741
1428.268, 344.513
1429.453, 203.118
1430.639, 432.634
1431.824, 405.465
1433.009, 448.776
1434.194, 675.169
1435.378, 571.463
1436.563, 781.758
1437.747, 1065.023
1438.931, 1006.275
1440.115, 1332.521
1441.299, 1448.764
1442.482, 1406.002
1443.666, 1680.238
1444.849, 1450.471
1446.032, 1508.699
1447.215, 1901.925
1448.397, 1724.147
1449.580, 1819.364
1450.762, 2153.871
1451.944, 1768.055
1453.126, 2098.229
1454.308, 2026.393
1455.490, 1878.543
1456.671, 2118.682
1457.852, 1908.805
1459.033, 1794.913
1460.214, 1980.003
1461.395, 1533.072
1462.575, 1500.174
1463.756, 1555.292
1464.936, 1236.479
1466.116, 1287.689
1467.296, 1089.058
1468.475, 916.586
1469.655, 961.163
1470.834, 839.801
1472.013, 708.464
1473.192, 921.157
1474.371, 641.886
1475.550, 742.654
1476.728, 641.468
1477.906, 585.374
1479.084, 520.348
1480.262, 685.403
1481.440, 533.555
1482.617, 674.824
1483.795, 544.229
1484.972, 472.786
1486.149, 490.496
1487.326, 429.360
1488.502, 338.397
1489.679, 369.641
1490.855, 201.127
1492.031, 201.896
1493.207, 238.996
1494.383, 84.482
1495.559, 63.425
1496.734, 125.930
1497.909, 11.868
1499.084, 21.214
1500.259, 52.415
1501.434, 7.869
1502.608, 0.000
##END=



