##NAMES=Danburite
##RRUFFID=R040013
##IDEAL CHEMISTRY=CaB_2_Si_2_O_8_
##LOCALITY=Charcas, San Luis Potosi, Mexico
##OWNER=RRUFF
##SOURCE=Marcus Origlieri
##DESCRIPTION=Colorless prismatic single crystal
##STATUS=The identification of this mineral has been confirmed by X-ray diffraction and chemical analysis
##URL=rruff.info/R040013
##MEASURED CHEMISTRY=Ca_1.00_B_2.00_Si_2.00_O_8_
##PIN_ID=M00009
##ORIENTATION=Laser parallel to b* (0 1 0). Fiducial mark perpendicular to laser is parallel to -c [0 0 -1]
75.916, 0.000
77.316, 103.548
78.715, 125.994
80.114, 89.139
81.513, 107.386
82.911, 34.012
84.310, 141.846
85.708, 33.541
87.106, 36.854
88.503, 117.125
89.901, 112.986
91.298, 200.233
92.695, 220.866
94.092, 237.737
95.488, 286.541
96.884, 264.256
98.281, 279.550
99.676, 277.473
101.072, 301.116
102.467, 273.574
103.863, 309.880
105.258, 373.054
106.652, 343.112
108.047, 370.067
109.441, 402.759
110.835, 605.098
112.229, 895.681
113.623, 1232.614
115.016, 1221.533
116.409, 1473.166
117.802, 1146.234
119.195, 821.344
120.587, 634.529
121.980, 643.781
123.372, 781.094
124.764, 816.526
126.155, 801.319
127.546, 567.327
128.938, 322.350
130.329, 219.364
131.719, 95.369
133.110, 76.365
134.500, 5.350
135.890, 51.323
137.280, 16.281
138.669, 17.222
140.059, 36.147
141.448, 19.055
142.837, 11.053
144.225, 29.177
145.614, 26.684
147.002, 17.472
148.390, 21.643
149.778, 8.830
151.166, 77.013
152.553, 36.878
153.940, 20.047
155.327, 20.265
156.714, 14.380
158.100, 4.981
159.486, 10.438
160.872, 67.834
162.258, 192.219
163.644, 352.596
165.029, 527.958
166.414, 742.308
167.799, 838.645
169.184, 777.969
170.568, 711.294
171.952, 795.639
173.336, 1166.157
174.720, 1869.629
176.104, 3241.022
177.487, 5871.927
178.870, 10650.153
180.253, 17378.250
181.636, 25466.162
183.018, 29344.072
184.400, 24551.961
185.782, 16099.841
187.164, 9457.704
188.546, 5685.563
189.927, 3765.406
191.308, 3222.237
192.689, 3210.054
194.070, 3546.834
195.450, 3040.583
196.830, 2008.283
198.210, 1316.939
199.590, 808.576
200.970, 537.195
202.349, 470.806
203.728, 371.408
205.107, 410.001
206.486, 466.585
207.864, 644.159
209.243, 939.724
210.621, 1213.277
211.998, 1474.820
213.376, 1283.351
214.753, 901.870
216.130, 520.379
217.507, 310.877
218.884, 177.365
220.261, 231.843
221.637, 295.311
223.013, 474.770
224.389, 991.399
225.764, 1627.392
227.140, 2399.289
228.515, 2527.649
229.890, 1741.758
231.264, 1030.749
232.639, 584.700
234.013, 400.448
235.387, 220.422
236.761, 256.703
238.135, 346.308
239.508, 495.697
240.881, 1026.649
242.254, 1736.201
243.627, 2829.153
244.999, 4004.007
246.372, 4772.214
247.744, 4450.165
249.116, 3185.567
250.487, 2307.504
251.859, 1490.454
253.230, 1108.413
254.601, 731.374
255.972, 604.335
257.342, 414.294
258.712, 267.248
260.083, 298.193
261.452, 166.119
262.822, 169.027
264.192, 75.918
265.561, 80.795
266.930, 72.657
268.299, 9.507
269.667, 4.660
271.036, 12.154
272.404, 16.197
273.772, 12.271
275.139, 13.527
276.507, 2.162
277.874, 20.794
279.241, 23.233
280.608, 29.824
281.974, 60.307
283.341, 100.782
284.707, 169.253
286.073, 232.721
287.439, 360.184
288.804, 538.644
290.170, 829.099
291.535, 1259.547
292.899, 1937.989
294.264, 2614.423
295.629, 3291.848
296.993, 3310.266
298.357, 2845.678
299.720, 2107.081
301.084, 1464.477
302.447, 1142.865
303.811, 861.246
305.173, 878.619
306.536, 1018.985
307.899, 1397.763
309.261, 2052.477
310.623, 2855.821
311.985, 3622.255
313.346, 3915.430
314.708, 3696.312
316.069, 2880.004
317.430, 2065.312
318.790, 1528.563
320.151, 1073.854
321.511, 800.411
322.871, 526.425
324.231, 516.686
325.591, 441.937
326.950, 453.179
328.310, 581.411
329.669, 624.634
331.027, 636.775
332.386, 693.050
333.744, 653.244
335.102, 587.428
336.460, 603.602
337.818, 716.748
339.175, 871.862
340.533, 1026.935
341.890, 1621.986
343.247, 2503.024
344.603, 4330.053
345.960, 6602.074
347.316, 9569.089
348.672, 11296.094
350.028, 10593.096
351.383, 8120.086
352.738, 5466.070
354.094, 3499.045
355.448, 2271.117
356.803, 1460.079
358.158, 951.033
359.512, 685.039
360.866, 532.979
362.220, 357.007
363.573, 247.131
364.927, 193.978
366.280, 118.979
367.633, 103.132
368.986, 93.202
370.338, 52.376
371.690, 32.704
373.043, 2.181
374.394, 54.979
375.746, 32.996
377.098, 11.031
378.449, 60.193
379.800, 10.382
381.151, 29.584
382.501, 22.806
383.852, 32.044
385.202, 70.206
386.552, 46.493
387.901, 46.804
389.251, 11.861
390.600, 5.482
391.949, 11.132
393.298, 8.718
394.647, 8.271
395.995, 2.524
397.344, 13.752
398.692, 18.297
400.039, 6.859
401.387, 9.431
402.734, 10.980
404.082, 58.375
405.429, 25.765
406.775, 64.155
408.122, 19.536
409.468, 70.909
410.814, 11.274
412.160, 117.626
413.506, 142.969
414.851, 144.316
416.197, 196.654
417.542, 260.988
418.886, 381.314
420.231, 511.630
421.575, 644.951
422.920, 919.269
424.264, 1063.579
425.607, 1153.880
426.951, 1144.164
428.294, 908.448
429.637, 669.695
430.980, 443.120
432.323, 346.720
433.666, 225.221
435.008, 289.063
436.350, 303.134
437.692, 405.110
439.033, 665.054
440.375, 974.757
441.716, 1315.506
443.057, 1260.366
444.398, 1087.449
445.738, 842.629
447.079, 544.803
448.419, 317.969
449.759, 224.129
451.099, 186.282
452.438, 206.427
453.777, 159.566
455.116, 244.698
456.455, 417.823
457.794, 669.940
459.132, 983.052
460.471, 1188.156
461.809, 1184.253
463.147, 864.344
464.484, 588.428
465.822, 528.505
467.159, 574.575
468.496, 578.639
469.832, 639.698
471.169, 880.759
472.505, 1167.812
473.842, 1882.862
475.177, 2951.912
476.513, 4961.958
477.849, 8735.016
479.184, 13681.068
480.519, 18597.119
481.854, 19253.166
483.189, 15289.211
484.523, 10695.253
485.857, 6521.292
487.191, 4273.341
488.525, 2803.385
489.859, 1820.422
491.192, 1311.453
492.525, 1036.478
493.858, 707.500
495.191, 608.515
496.524, 525.526
497.856, 376.545
499.188, 296.562
500.520, 304.585
501.852, 277.603
503.183, 266.639
504.514, 210.671
505.846, 129.697
507.176, 199.719
508.507, 98.748
509.838, 104.771
511.168, 89.792
512.498, 93.807
513.828, 64.817
515.157, 33.821
516.487, 68.831
517.816, 66.835
519.145, 43.834
520.474, 64.839
521.802, 34.838
523.131, 27.831
524.459, 69.817
525.787, 35.797
527.114, 3.771
528.442, 15.738
529.769, 0.343
531.096, 5.775
532.423, 4.149
533.750, 1.039
535.076, 16.927
536.403, 25.374
537.729, 58.615
539.055, 72.768
540.380, 104.079
541.706, 106.149
543.031, 89.643
544.356, 16.556
545.681, 65.073
547.005, 96.078
548.330, 69.587
549.654, 123.222
550.978, 102.803
552.302, 172.465
553.625, 221.726
554.949, 218.978
556.272, 271.127
557.595, 350.600
558.917, 480.053
560.240, 651.219
561.562, 965.817
562.884, 1233.182
564.206, 1365.222
565.528, 1194.854
566.849, 860.569
568.171, 649.748
569.492, 550.578
570.813, 559.024
572.133, 561.829
573.454, 510.441
574.774, 545.239
576.094, 524.151
577.414, 503.940
578.733, 475.807
580.053, 548.437
581.372, 576.841
582.691, 643.648
584.010, 676.420
585.328, 828.188
586.647, 922.953
587.965, 1084.714
589.283, 1201.471
590.601, 1302.228
591.918, 1514.989
593.235, 1750.750
594.553, 2067.517
595.869, 2332.292
597.186, 2765.072
598.503, 3469.854
599.819, 4253.635
601.135, 5420.415
602.451, 6806.192
603.767, 9091.965
605.082, 12617.738
606.397, 17593.500
607.713, 25569.273
609.027, 34575.027
610.342, 43380.785
611.657, 47276.543
612.971, 43362.293
614.285, 36048.035
615.599, 26703.783
616.912, 19869.521
618.226, 15145.258
619.539, 10720.991
620.852, 8896.723
622.165, 7022.450
623.477, 6158.172
624.790, 5893.895
626.102, 6119.610
627.414, 7025.324
628.726, 7391.036
630.037, 7366.742
631.349, 6442.446
632.660, 5100.148
633.971, 4190.845
635.281, 3212.540
636.592, 2642.231
637.902, 2203.402
639.212, 1845.087
640.522, 1664.329
641.832, 1559.014
643.142, 1321.127
644.451, 1249.910
645.760, 1081.060
647.069, 1149.724
648.378, 997.402
649.686, 936.060
650.994, 905.415
652.303, 805.064
653.610, 767.983
654.918, 647.824
656.226, 661.573
657.533, 528.868
658.840, 536.499
660.147, 490.889
661.453, 395.703
662.760, 391.321
664.066, 368.107
665.372, 341.781
666.678, 352.387
667.984, 319.612
669.289, 288.209
670.594, 279.801
671.899, 279.390
673.204, 405.785
674.509, 425.364
675.813, 378.939
677.117, 402.263
678.421, 347.233
679.725, 213.296
681.029, 261.729
682.332, 142.282
683.635, 139.741
684.938, 157.039
686.241, 165.408
687.544, 104.662
688.846, 128.751
690.148, 95.043
691.450, 123.279
692.752, 89.646
694.054, 86.047
695.355, 91.573
696.656, 30.114
697.957, 76.658
699.258, 70.211
700.559, 40.770
701.859, 54.241
703.159, 85.829
704.459, 16.572
705.759, 3.026
707.058, 58.620
708.358, 2.215
709.657, 43.805
710.956, 53.396
712.254, 20.986
713.553, 1.576
714.851, 2.577
716.149, 34.248
717.447, 27.682
718.745, 21.868
720.043, 2.416
721.340, 26.044
722.637, 40.475
723.934, 4.009
725.231, 11.498
726.527, 8.000
727.823, 57.499
729.120, 37.005
730.415, 50.462
731.711, 10.073
733.007, 50.377
734.302, 12.824
735.597, 37.734
736.892, 18.319
738.187, 23.077
739.481, 30.469
740.775, 43.446
742.070, 63.245
743.363, 44.628
744.657, 48.008
745.951, 33.384
747.244, 42.757
748.537, 37.128
749.830, 39.496
751.123, 26.859
752.415, 49.221
753.707, 49.578
754.999, 55.932
756.291, 100.283
757.583, 71.631
758.874, 60.976
760.166, 68.319
761.457, 104.660
762.748, 122.997
764.038, 81.331
765.329, 163.663
766.619, 128.991
767.909, 159.316
769.199, 219.640
770.489, 154.959
771.778, 247.276
773.067, 391.590
774.357, 456.902
775.645, 476.211
776.934, 439.517
778.223, 321.821
779.511, 264.123
780.799, 232.421
782.087, 156.718
783.374, 142.012
784.662, 124.302
785.949, 50.592
787.236, 82.878
788.523, 66.163
789.810, 24.444
791.096, 65.724
792.383, 2.999
793.669, 35.271
794.955, 4.461
796.240, 12.799
797.526, 18.943
798.811, 45.701
800.096, 3.488
801.381, 28.718
802.666, 7.922
803.950, 19.124
805.234, 7.676
806.518, 43.514
807.802, 0.296
809.086, 48.112
810.370, 14.957
811.653, 39.815
812.936, 58.302
814.219, 89.583
815.502, 0.482
816.784, 71.542
818.066, 0.602
819.348, 47.343
820.630, 11.684
821.912, 8.291
823.194, 36.727
824.475, 14.744
825.756, 49.759
827.037, 46.227
828.318, 8.761
829.598, 37.749
830.878, 45.265
832.158, 63.696
833.438, 63.656
834.718, 50.615
835.998, 57.574
837.277, 62.595
838.556, 29.491
839.835, 82.449
841.114, 68.408
842.392, 74.368
843.671, 156.329
844.949, 168.291
846.227, 147.254
847.504, 155.217
848.782, 154.181
850.059, 171.145
851.337, 151.074
852.613, 166.037
853.890, 175.999
855.167, 203.961
856.443, 309.924
857.719, 286.886
858.995, 361.324
860.271, 332.982
861.547, 371.943
862.822, 380.556
864.097, 426.173
865.372, 406.134
866.647, 430.036
867.922, 432.607
869.196, 492.925
870.470, 484.466
871.744, 544.995
873.018, 507.926
874.292, 494.567
875.565, 526.430
876.838, 375.423
878.111, 407.671
879.384, 407.580
880.657, 318.453
881.929, 375.456
883.201, 319.664
884.473, 366.685
885.745, 311.592
887.017, 271.617
888.288, 372.565
889.559, 392.758
890.831, 465.174
892.101, 464.184
893.372, 441.229
894.643, 640.275
895.913, 701.324
897.183, 799.375
898.453, 976.428
899.722, 1029.483
900.992, 1106.541
902.261, 983.601
903.530, 951.664
904.799, 812.728
906.068, 684.795
907.336, 745.866
908.605, 641.939
909.873, 556.015
911.141, 552.094
912.408, 509.504
913.676, 488.588
914.943, 515.675
916.211, 383.780
917.477, 378.888
918.744, 430.000
920.011, 330.120
921.277, 343.243
922.543, 174.368
923.809, 291.498
925.075, 217.630
926.341, 132.773
927.606, 168.920
928.871, 127.070
930.136, 135.226
931.401, 121.384
932.666, 30.547
933.930, 110.714
935.194, 68.884
936.458, 101.058
937.722, 156.236
938.986, 73.417
940.249, 167.604
941.512, 165.795
942.776, 157.989
944.038, 260.188
945.301, 358.907
946.564, 538.114
947.826, 477.766
949.088, 993.975
950.350, 934.042
951.611, 1341.870
952.873, 968.618
954.134, 667.853
955.395, 415.074
956.656, 553.318
957.917, 320.866
959.178, 385.120
960.438, 364.107
961.698, 295.173
962.958, 324.333
964.218, 338.950
965.477, 305.232
966.737, 447.757
967.996, 474.860
969.255, 558.159
970.514, 925.294
971.772, 1110.542
973.031, 1667.861
974.289, 2114.562
975.547, 2314.895
976.805, 2106.232
978.062, 1659.577
979.320, 1233.014
980.577, 878.372
981.834, 702.737
983.091, 481.296
984.348, 420.675
985.604, 336.061
986.861, 350.454
988.117, 379.854
989.373, 363.158
990.628, 332.676
991.884, 392.098
993.139, 371.527
994.394, 367.964
995.649, 470.408
996.904, 504.860
998.158, 539.321
999.413, 594.789
1000.667, 575.265
1001.921, 723.749
1003.175, 721.240
1004.428, 642.737
1005.682, 524.243
1006.935, 302.756
1008.188, 264.278
1009.441, 222.807
1010.693, 124.350
1011.946, 149.905
1013.198, 79.468
1014.450, 34.960
1015.702, 71.613
1016.954, 64.795
1018.205, 103.384
1019.457, 67.880
1020.708, 34.490
1021.959, 134.118
1023.209, 117.496
1024.460, 205.147
1025.710, 120.092
1026.960, 114.769
1028.210, 129.669
1029.460, 74.450
1030.710, 110.152
1031.959, 90.861
1033.208, 39.240
1034.457, 101.975
1035.706, 50.147
1036.955, 68.900
1038.203, 206.660
1039.451, 216.793
1040.699, 454.578
1041.947, 594.382
1043.195, 517.200
1044.442, 607.018
1045.690, 383.860
1046.937, 326.709
1048.184, 326.577
1049.430, 161.457
1050.677, 210.342
1051.923, 221.237
1053.169, 22.222
1054.415, 70.130
1055.661, 50.048
1056.907, 114.973
1058.152, 72.905
1059.397, 28.847
1060.642, 61.793
1061.887, 19.242
1063.132, 30.722
1064.376, 17.572
1065.620, 31.164
1066.864, 30.285
1068.108, 76.301
1069.352, 79.282
1070.595, 106.842
1071.839, 103.366
1073.082, 140.421
1074.325, 162.481
1075.567, 147.151
1076.810, 210.224
1078.052, 225.301
1079.294, 220.692
1080.536, 291.799
1081.778, 273.912
1083.020, 350.039
1084.261, 440.171
1085.502, 304.313
1086.743, 518.481
1087.984, 520.653
1089.225, 390.853
1090.465, 606.056
1091.706, 556.265
1092.946, 714.478
1094.186, 799.695
1095.425, 783.919
1096.665, 921.148
1097.904, 1131.385
1099.143, 1138.625
1100.382, 1416.877
1101.621, 1565.146
1102.859, 1803.427
1104.098, 2031.710
1105.336, 2190.999
1106.574, 2667.292
1107.812, 2559.595
1109.049, 2768.899
1110.287, 2762.215
1111.524, 2417.549
1112.761, 2552.051
1113.998, 2183.411
1115.235, 1839.774
1116.471, 1805.185
1117.707, 1395.600
1118.944, 1347.020
1120.180, 1218.445
1121.415, 963.888
1122.651, 1010.335
1123.886, 931.790
1125.121, 795.249
1126.356, 727.709
1127.591, 598.174
1128.826, 551.654
1130.060, 514.140
1131.294, 377.628
1132.528, 420.131
1133.762, 316.642
1134.996, 261.155
1136.229, 331.786
1137.463, 272.306
1138.696, 169.828
1139.929, 194.353
1141.162, 142.881
1142.394, 155.653
1143.626, 177.187
1144.859, 95.774
1146.091, 272.789
1147.322, 58.328
1148.554, 123.060
1149.785, 146.689
1151.017, 8.233
1152.248, 140.786
1153.479, 135.333
1154.709, 87.879
1155.940, 150.922
1157.170, 29.470
1158.400, 25.020
1159.630, 13.088
1160.860, 85.639
1162.089, 37.384
1163.319, 2.398
1164.548, 18.877
1165.777, 113.667
1167.006, 43.756
1168.234, 41.770
1169.463, 87.294
1170.691, 56.182
1171.919, 51.316
1173.147, 31.186
1174.375, 39.298
1175.602, 51.781
1176.830, 30.738
1178.057, 112.729
1179.284, 73.195
1180.511, 68.341
1181.737, 73.088
1182.963, 11.485
1184.190, 12.997
1185.416, 49.415
1186.642, 46.123
1187.867, 50.269
1189.093, 95.695
1190.318, 8.259
1191.543, 81.804
1192.768, 34.736
1193.993, 32.111
1195.217, 69.303
1196.442, 21.999
1197.666, 87.462
1198.890, 74.202
1200.114, 5.131
1201.337, 88.667
1202.561, 44.765
1203.784, 56.207
1205.007, 69.987
1206.230, 43.018
1207.452, 126.515
1208.675, 32.384
1209.897, 47.724
1211.119, 71.033
1212.341, 51.838
1213.563, 16.429
1214.785, 135.112
1216.006, 10.106
1217.227, 122.133
1218.448, 145.863
1219.669, 141.942
1220.890, 151.167
1222.110, 19.071
1223.330, 113.127
1224.551, 79.319
1225.771, 5.056
1226.990, 104.248
1228.210, 101.644
1229.429, 65.143
1230.648, 169.358
1231.867, 122.864
1233.086, 176.754
1234.305, 165.888
1235.523, 186.398
1236.741, 211.521
1237.960, 287.702
1239.177, 243.067
1240.395, 231.932
1241.613, 211.043
1242.830, 284.203
1244.047, 342.309
1245.264, 158.411
1246.481, 232.645
1247.697, 138.740
1248.914, 134.651
1250.130, 356.739
1251.346, 148.824
1252.562, 139.292
1253.778, 330.406
1254.993, 144.479
1256.209, 281.641
1257.424, 242.706
1258.639, 56.786
1259.853, 315.064
1261.068, 279.113
1262.282, 195.641
1263.497, 211.678
1264.711, 239.708
1265.924, 255.308
1267.138, 229.326
1268.352, 143.444
1269.565, 281.765
1270.778, 286.760
1271.991, 174.748
1273.204, 313.728
1274.416, 168.702
1275.629, 250.033
1276.841, 384.996
1278.053, 179.030
1279.265, 200.951
1280.476, 219.895
1281.688, 88.963
1282.899, 237.894
1284.110, 142.820
1285.321, 190.777
1286.532, 200.682
1287.743, 62.550
1288.953, 122.586
1290.163, 109.407
1291.373, 38.217
1292.583, 192.013
1293.793, 78.793
1295.002, 104.552
1296.211, 213.302
1297.421, 124.995
1298.629, 133.656
1299.838, 244.307
1301.047, 41.942
1302.255, 272.563
1303.463, 174.140
1304.671, 41.706
1305.879, 213.240
1307.087, 85.714
1308.294, 104.131
1309.502, 91.540
1310.709, 168.336
1311.916, 125.721
1313.122, 196.198
1314.329, 140.558
1315.535, 205.899
1316.741, 157.491
1317.948, 185.802
1319.153, 256.807
1320.359, 158.078
1321.564, 239.289
1322.770, 220.181
1323.975, 146.355
1325.180, 200.507
1326.385, 163.981
1327.589, 166.100
1328.794, 115.767
1329.998, 189.834
1331.202, 119.880
1332.406, 207.540
1333.609, 14.546
1334.813, 87.525
1336.016, 91.476
1337.219, 44.586
1338.422, 197.312
1339.625, 16.811
1340.827, 8.036
1342.030, 107.857
1343.232, 31.658
1344.434, 64.439
1345.636, 88.119
1346.838, 26.864
1348.039, 108.587
1349.240, 48.293
1350.442, 29.979
1351.643, 92.646
1352.843, 4.297
1354.044, 59.921
1355.244, 183.534
1356.445, 79.867
1357.645, 193.222
1358.845, 49.655
1360.044, 12.814
1361.244, 147.748
1362.443, 43.365
1363.642, 21.853
1364.841, 157.328
1366.040, 39.797
1367.239, 164.655
1368.437, 172.178
1369.635, 45.365
1370.833, 127.783
1372.031, 78.962
1373.229, 9.697
1374.427, 118.614
1375.624, 6.899
1376.821, 48.002
1378.018, 171.958
1379.215, 58.175
1380.412, 159.379
1381.608, 118.922
1382.804, 141.453
1384.000, 241.973
1385.196, 161.480
1386.392, 123.971
1387.588, 191.446
1388.783, 160.905
1389.978, 106.346
1391.173, 211.594
1392.368, 28.999
1393.563, 204.349
1394.757, 198.680
1395.952, 63.994
1397.146, 133.289
1398.340, 146.569
1399.534, 19.833
1400.727, 231.079
1401.921, 139.298
1403.114, 91.362
1404.307, 216.546
1405.500, 39.584
1406.692, 232.495
1407.885, 172.027
1409.077, 50.782
1410.270, 199.860
1411.462, 122.934
1412.653, 79.348
1413.845, 153.702
1415.036, 204.459
1416.228, 187.064
1417.419, 294.013
1418.610, 76.022
1419.801, 265.039
1420.991, 133.072
1422.182, 31.107
1423.372, 284.153
1424.562, 122.217
1425.752, 160.214
1426.941, 224.232
1428.131, 143.771
1429.320, 189.346
1430.509, 210.328
1431.698, 96.765
1432.887, 296.475
1434.076, 195.586
1435.264, 233.071
1436.452, 351.036
1437.641, 304.975
1438.828, 292.184
1440.016, 370.116
1441.204, 215.595
1442.391, 401.341
1443.578, 568.405
1444.765, 309.000
1445.952, 581.033
1447.139, 554.039
1448.325, 364.839
1449.512, 591.160
1450.698, 436.522
1451.884, 495.357
1453.070, 584.257
1454.255, 444.987
1455.441, 566.762
1456.626, 660.180
1457.811, 471.993
1458.996, 748.649
1460.181, 581.013
1461.365, 509.795
1462.549, 684.444
1463.734, 477.545
1464.918, 496.385
1466.102, 607.654
1467.285, 451.162
1468.469, 392.671
1469.652, 516.075
1470.835, 314.327
1472.018, 434.419
1473.201, 403.921
1474.383, 245.636
1475.566, 442.080
1476.748, 315.109
1477.930, 247.726
1479.112, 457.230
1480.294, 203.662
1481.475, 270.336
1482.657, 382.957
1483.838, 185.578
1485.019, 425.241
1486.200, 263.404
1487.381, 266.628
1488.561, 334.730
1489.741, 262.750
1490.922, 151.716
1492.101, 264.684
1493.281, 134.038
1494.461, 202.440
1495.640, 164.850
1496.820, 132.389
1497.999, 146.083
1499.178, 166.903
1500.356, 64.869
1501.535, 164.996
1502.713, 117.298
1503.892, 12.212
1505.070, 155.445
1506.247, 141.331
1507.425, 143.494
1508.603, 158.946
1509.780, 45.737
1510.957, 93.913
1512.134, 167.530
1513.311, 3.918
1514.488, 162.097
1515.664, 133.476
1516.840, 78.864
1518.017, 98.866
1519.192, 38.202
1520.368, 0.000
##END=



