##NAMES=Danburite
##RRUFFID=R040013
##IDEAL CHEMISTRY=CaB_2_Si_2_O_8_
##LOCALITY=Charcas, San Luis Potosi, Mexico
##OWNER=RRUFF
##SOURCE=Marcus Origlieri
##DESCRIPTION=Colorless prismatic single crystal
##STATUS=The identification of this mineral has been confirmed by X-ray diffraction and chemical analysis
##URL=rruff.info/R040013
##MEASURED CHEMISTRY=Ca_1.00_B_2.00_Si_2.00_O_8_
##PIN_ID=M00012
##ORIENTATION=Laser parallel to c* (0 0 1). Fiducial mark perpendicular to laser is parallel to a [1 0 0]
97.673, 0.000
99.067, 147.566
100.461, 100.121
101.854, 291.111
103.247, 201.514
104.640, 347.424
106.032, 346.834
107.425, 391.018
108.817, 480.509
110.209, 509.796
111.601, 524.451
112.992, 705.059
114.384, 691.875
115.775, 949.108
117.166, 1423.601
118.556, 1594.412
119.947, 1939.404
121.337, 3406.712
122.727, 5684.514
124.116, 8339.993
125.506, 8875.441
126.895, 9830.634
128.284, 12505.610
129.673, 12700.813
131.062, 9706.454
132.450, 5367.991
133.838, 3029.227
135.226, 1707.193
136.614, 1053.917
138.001, 798.800
139.388, 568.040
140.775, 431.412
142.162, 275.807
143.549, 142.002
144.935, 99.574
146.321, 22.123
147.707, 15.656
149.093, 18.181
150.478, 53.730
151.863, 16.524
153.248, 93.245
154.633, 56.898
156.018, 100.485
157.402, 268.009
158.786, 609.097
160.170, 1594.359
161.554, 2351.002
162.937, 5269.653
164.320, 10479.570
165.703, 14663.079
167.086, 12094.609
168.469, 6342.121
169.851, 3110.628
171.233, 1464.126
172.615, 756.607
173.996, 282.094
175.378, 56.595
176.759, 39.121
178.140, 17.334
179.521, 77.227
180.901, 73.804
182.281, 146.394
183.662, 18.147
185.041, 17.109
186.421, 1.462
187.800, 37.847
189.180, 77.771
190.558, 90.389
191.937, 72.752
193.316, 34.469
194.694, 32.413
196.072, 23.435
197.450, 108.850
198.827, 74.431
200.205, 107.182
201.582, 5.081
202.959, 71.359
204.336, 135.643
205.712, 365.924
207.088, 546.195
208.465, 977.453
209.840, 1509.698
211.216, 1807.928
212.591, 1550.141
213.967, 905.335
215.341, 510.516
216.716, 222.671
218.091, 101.797
219.465, 16.909
220.839, 30.002
222.213, 13.963
223.586, 79.998
224.960, 50.068
226.333, 68.151
227.706, 51.245
229.079, 37.344
230.451, 36.443
231.823, 14.543
233.195, 66.348
234.567, 167.213
235.939, 174.038
237.310, 422.043
238.682, 876.246
240.052, 1477.571
241.423, 2513.000
242.794, 4135.200
244.164, 6317.262
245.534, 6987.002
246.904, 6010.548
248.274, 4360.120
249.643, 2771.927
251.012, 1975.718
252.381, 1325.764
253.750, 1002.990
255.118, 714.029
256.487, 522.085
257.855, 484.010
259.223, 365.934
260.590, 327.966
261.958, 158.873
263.325, 218.777
264.692, 125.655
266.059, 104.515
267.425, 112.357
268.791, 65.179
270.158, 103.978
271.523, 68.754
272.889, 82.489
274.255, 145.197
275.620, 99.878
276.985, 186.534
278.350, 108.163
279.714, 119.763
281.078, 46.335
282.443, 20.879
283.806, 14.604
285.170, 50.118
286.534, 52.677
287.897, 80.269
289.260, 31.896
290.623, 32.569
291.985, 50.288
293.348, 13.036
294.710, 14.828
296.072, 28.200
297.433, 75.023
298.795, 128.035
300.156, 226.175
301.517, 291.428
302.878, 518.449
304.239, 681.845
305.599, 1064.120
306.959, 1576.438
308.319, 2272.722
309.679, 3234.322
311.038, 3861.351
312.398, 4314.312
313.757, 3646.126
315.116, 2757.817
316.474, 1963.504
317.833, 1263.174
319.191, 909.833
320.549, 627.481
321.907, 476.119
323.264, 373.746
324.622, 283.361
325.979, 270.315
327.336, 250.908
328.692, 270.490
330.049, 244.060
331.405, 314.531
332.761, 335.407
334.117, 403.630
335.473, 533.990
336.828, 702.499
338.183, 1041.991
339.538, 1412.448
340.893, 2284.792
342.247, 3693.000
343.602, 5822.352
344.956, 9915.684
346.310, 14223.800
347.663, 17411.141
349.017, 16051.069
350.370, 11521.347
351.723, 7739.615
353.076, 4971.874
354.428, 3375.238
355.780, 2194.744
357.133, 1517.335
358.484, 1163.971
359.836, 796.717
361.188, 680.035
362.539, 504.680
363.890, 443.120
365.241, 334.731
366.591, 286.025
367.942, 230.138
369.292, 172.889
370.642, 189.926
371.992, 138.515
373.341, 118.653
374.691, 55.066
376.040, 52.958
377.388, 50.812
378.737, 28.164
380.086, 49.303
381.434, 42.229
382.782, 18.845
384.130, 46.919
385.477, 41.306
386.825, 37.339
388.172, 76.447
389.519, 80.759
390.865, 99.897
392.212, 51.428
393.558, 105.525
394.904, 78.883
396.250, 115.870
397.596, 58.336
398.941, 31.608
400.286, 72.521
401.631, 71.441
402.976, 107.243
404.321, 114.028
405.665, 75.930
407.009, 139.681
408.353, 98.419
409.697, 149.141
411.040, 124.848
412.384, 163.540
413.727, 235.215
415.070, 294.785
416.412, 407.429
417.755, 501.979
419.097, 824.579
420.439, 1116.185
421.781, 1460.786
423.122, 1922.371
424.464, 1976.943
425.805, 1974.500
427.146, 1527.838
428.486, 1157.964
429.827, 765.390
431.167, 508.978
432.507, 363.490
433.847, 198.341
435.187, 143.303
436.526, 110.231
437.865, 102.737
439.204, 197.092
440.543, 200.389
441.882, 220.434
443.220, 185.751
444.558, 59.170
445.896, 31.575
447.234, 18.034
448.572, 11.337
449.909, 30.310
451.246, 16.023
452.583, 15.339
453.919, 6.362
455.256, 32.920
456.592, 38.191
457.928, 65.448
459.264, 122.696
460.600, 87.932
461.935, 207.159
463.270, 168.373
464.605, 185.575
465.940, 178.765
467.274, 264.943
468.609, 290.112
469.943, 320.269
471.277, 567.417
472.610, 815.552
473.944, 1241.675
475.277, 2139.788
476.610, 3501.889
477.943, 5835.981
479.275, 7474.063
480.608, 7720.139
481.940, 5956.202
483.272, 3799.252
484.604, 2424.290
485.935, 1471.317
487.267, 933.337
488.598, 632.351
489.929, 403.367
491.260, 334.381
492.590, 209.398
493.920, 168.405
495.250, 94.400
496.580, 93.383
497.910, 60.355
499.239, 27.313
500.569, 16.257
501.898, 10.186
503.226, 2.099
504.555, 23.005
505.883, 6.868
507.212, 26.724
508.540, 7.566
509.867, 11.393
511.195, 43.205
512.522, 6.009
513.849, 21.801
515.176, 25.411
516.503, 50.363
517.829, 73.134
519.156, 36.688
520.482, 46.229
521.808, 45.756
523.133, 60.136
524.459, 31.637
525.784, 27.090
527.109, 67.341
528.434, 10.789
529.758, 70.194
531.083, 50.569
532.407, 14.113
533.731, 38.662
535.055, 1.715
536.378, 41.665
537.701, 5.258
539.025, 58.736
540.348, 1.700
541.670, 7.651
542.993, 62.842
544.315, 57.381
545.637, 78.752
546.959, 90.269
548.281, 49.841
549.602, 145.197
550.923, 142.476
552.244, 179.914
553.565, 146.841
554.886, 206.268
556.206, 297.786
557.526, 395.256
558.846, 611.802
560.166, 852.794
561.486, 1288.275
562.805, 1585.151
564.124, 1343.516
565.443, 1156.988
566.762, 797.842
568.080, 652.279
569.399, 665.322
570.717, 546.111
572.035, 641.431
573.352, 590.720
574.670, 578.951
575.987, 667.706
577.304, 640.267
578.621, 692.978
579.938, 767.166
581.254, 918.924
582.570, 1047.831
583.886, 1057.818
585.202, 1262.601
586.518, 1351.227
587.833, 1501.451
589.148, 1636.604
590.463, 1823.491
591.778, 2107.231
593.093, 2281.146
594.407, 2762.974
595.721, 3137.719
597.035, 3758.747
598.349, 4764.159
599.662, 5718.392
600.976, 7587.225
602.289, 9754.500
603.602, 13182.988
604.914, 18931.061
606.227, 26189.246
607.539, 37247.289
608.851, 46075.328
610.163, 49374.164
611.475, 46202.184
612.786, 37170.188
614.097, 28748.184
615.408, 20626.164
616.719, 15294.598
618.030, 11852.612
619.340, 8860.562
620.651, 7478.500
621.961, 6204.429
623.270, 5704.345
624.580, 5598.251
625.889, 5374.146
627.199, 5786.030
628.507, 5244.903
629.816, 4705.765
631.125, 4033.617
632.433, 3148.458
633.741, 2802.287
635.049, 2261.106
636.357, 2072.914
637.664, 1892.711
638.972, 1687.497
640.279, 1646.154
641.586, 1579.648
642.893, 1527.036
644.199, 1579.357
645.505, 1446.547
646.811, 1531.145
648.117, 1376.393
649.423, 1269.825
650.728, 1273.065
652.034, 1109.343
653.339, 1123.824
654.644, 927.016
655.948, 889.364
657.253, 800.835
658.557, 588.313
659.861, 586.888
661.165, 460.286
662.468, 437.719
663.772, 388.143
665.075, 273.626
666.378, 384.969
667.681, 273.284
668.983, 242.780
670.286, 258.941
671.588, 220.435
672.890, 224.103
674.192, 172.273
675.493, 183.598
676.795, 165.529
678.096, 104.852
679.397, 139.965
680.697, 76.352
681.998, 81.235
683.298, 113.286
684.598, 20.670
685.898, 61.021
687.198, 47.465
688.498, 32.902
689.797, 65.195
691.096, 18.386
692.395, 58.017
693.694, 4.588
694.992, 49.794
696.290, 26.167
697.589, 33.532
698.886, 14.888
700.184, 10.766
701.482, 32.434
702.779, 7.121
704.076, 71.821
705.373, 15.453
706.669, 8.283
707.966, 16.969
709.262, 60.789
710.558, 50.571
711.854, 33.626
713.150, 73.185
714.445, 28.023
715.740, 7.877
717.035, 42.743
718.330, 6.630
719.625, 70.528
720.919, 9.452
722.214, 16.387
723.508, 20.337
724.801, 12.301
726.095, 6.277
727.388, 4.735
728.682, 0.740
729.975, 22.264
731.267, 103.724
732.560, 37.293
733.852, 14.679
735.145, 64.646
736.437, 20.392
737.728, 15.438
739.020, 7.496
740.311, 28.562
741.603, 0.642
742.894, 10.730
744.184, 48.171
745.475, 1.067
746.765, 113.955
748.055, 76.838
749.345, 29.284
750.635, 43.580
751.925, 54.439
753.214, 55.293
754.503, 86.142
755.792, 16.014
757.081, 2.820
758.370, 18.649
759.658, 45.473
760.946, 107.292
762.234, 14.107
763.522, 80.917
764.809, 129.724
766.097, 67.525
767.384, 164.323
768.671, 147.116
769.958, 170.906
771.244, 206.691
772.530, 187.473
773.817, 274.251
775.102, 220.025
776.388, 217.796
777.674, 143.563
778.959, 113.327
780.244, 115.089
781.529, 80.848
782.814, 67.606
784.098, 137.364
785.383, 13.121
786.667, 145.881
787.951, 79.642
789.235, 159.401
790.518, 162.160
791.801, 74.919
793.084, 164.677
794.367, 40.435
795.650, 142.192
796.933, 111.953
798.215, 66.712
799.497, 79.470
800.779, 58.227
802.061, 74.982
803.342, 43.738
804.624, 35.491
805.905, 13.245
807.186, 29.998
808.466, 8.751
809.747, 48.503
811.027, 21.744
812.307, 25.004
813.587, 50.753
814.867, 1.498
816.146, 93.253
817.426, 7.996
818.705, 57.755
819.984, 58.507
821.263, 64.261
822.541, 143.017
823.819, 53.621
825.098, 76.377
826.375, 151.112
827.653, 61.781
828.931, 188.538
830.208, 64.476
831.485, 109.234
832.762, 140.502
834.039, 113.261
835.315, 161.917
836.592, 96.611
837.868, 202.220
839.144, 222.372
840.420, 179.026
841.695, 332.274
842.970, 269.024
844.246, 318.658
845.521, 377.899
846.795, 333.549
848.070, 431.583
849.344, 410.863
850.618, 356.605
851.892, 500.374
853.166, 412.202
854.440, 598.507
855.713, 588.010
856.986, 621.361
858.259, 818.236
859.532, 693.541
860.804, 745.694
862.077, 843.766
863.349, 620.034
864.621, 767.454
865.893, 511.121
867.164, 407.725
868.436, 512.804
869.707, 262.633
870.978, 376.385
872.248, 313.158
873.519, 312.001
874.789, 388.180
876.060, 281.489
877.330, 370.996
878.599, 390.028
879.869, 318.725
881.138, 366.201
882.408, 325.099
883.677, 328.883
884.945, 366.799
886.214, 279.722
887.482, 395.853
888.751, 371.798
890.019, 370.748
891.287, 462.705
892.554, 400.667
893.822, 539.176
895.089, 541.098
896.356, 554.080
897.623, 781.068
898.889, 664.062
900.156, 859.063
901.422, 915.071
902.688, 924.085
903.954, 1142.106
905.220, 1003.133
906.485, 1179.168
907.750, 1216.210
909.015, 1147.259
910.280, 1341.314
911.545, 1246.377
912.809, 1411.448
914.074, 1588.525
915.338, 1556.610
916.602, 1670.702
917.865, 1484.801
919.129, 1405.909
920.392, 1244.110
921.655, 959.232
922.918, 942.362
924.181, 772.720
925.443, 663.865
926.706, 754.018
927.968, 603.335
929.230, 702.504
930.491, 662.681
931.753, 686.865
933.014, 800.058
934.276, 782.259
935.536, 953.468
936.797, 1131.685
938.058, 1106.910
939.318, 1467.144
940.578, 1638.386
941.838, 2098.635
943.098, 2588.901
944.358, 2937.174
945.617, 3612.456
946.876, 3975.750
948.135, 4050.780
949.394, 4206.091
950.653, 3633.409
951.911, 3298.717
953.169, 2796.054
954.427, 2231.325
955.685, 1994.680
956.943, 1633.043
958.200, 1448.416
959.458, 1512.799
960.715, 1315.193
961.971, 1453.596
963.228, 1470.009
964.485, 1597.431
965.741, 2089.864
966.997, 2291.309
968.253, 3228.764
969.508, 4074.230
970.764, 5100.707
972.019, 6504.193
973.274, 6757.690
974.529, 6451.197
975.784, 5809.716
977.039, 4576.250
978.293, 3862.797
979.547, 3050.364
980.801, 2454.940
982.055, 2170.530
983.308, 1696.129
984.562, 1629.747
985.815, 1526.383
987.068, 1203.028
988.321, 1319.692
989.573, 1119.372
990.826, 984.063
992.078, 1076.772
993.330, 904.492
994.582, 1041.231
995.833, 1061.983
997.085, 1142.749
998.336, 1448.528
999.587, 1648.319
1000.838, 1914.043
1002.088, 2240.738
1003.339, 2569.765
1004.589, 3060.605
1005.839, 3539.455
1007.089, 4296.343
1008.339, 5080.218
1009.588, 4500.105
1010.838, 3870.554
1012.087, 2993.575
1013.336, 2122.209
1014.584, 1668.959
1015.833, 1171.909
1017.081, 1128.738
1018.330, 1014.709
1019.577, 917.785
1020.825, 973.262
1022.073, 867.516
1023.320, 972.121
1024.567, 1007.146
1025.814, 871.181
1027.061, 1020.225
1028.308, 841.278
1029.554, 685.343
1030.800, 753.418
1032.046, 545.502
1033.292, 442.596
1034.538, 339.700
1035.783, 220.812
1037.029, 231.934
1038.274, 131.066
1039.519, 142.206
1040.763, 156.356
1042.008, 47.516
1043.252, 94.684
1044.496, 61.862
1045.740, 15.049
1046.984, 148.246
1048.228, 43.451
1049.471, 57.666
1050.714, 75.889
1051.957, 13.122
1053.200, 85.364
1054.442, 11.385
1055.685, 40.874
1056.927, 84.141
1058.169, 25.582
1059.411, 61.701
1060.652, 18.993
1061.894, 18.706
1063.135, 62.602
1064.376, 28.919
1065.617, 130.244
1066.858, 129.596
1068.098, 49.939
1069.339, 159.290
1070.579, 187.650
1071.819, 171.019
1073.058, 319.396
1074.298, 297.787
1075.537, 380.186
1076.776, 509.955
1078.015, 466.377
1079.254, 696.807
1080.493, 623.812
1081.731, 676.263
1082.969, 770.724
1084.207, 613.197
1085.445, 648.679
1086.683, 616.168
1087.920, 528.672
1089.157, 671.185
1090.394, 548.710
1091.631, 618.244
1092.868, 721.166
1094.105, 630.725
1095.341, 837.292
1096.577, 899.082
1097.813, 945.672
1099.049, 1189.270
1100.284, 1261.878
1101.519, 1399.504
1102.755, 1630.137
1103.990, 1681.781
1105.224, 1909.437
1106.459, 1956.101
1107.693, 1904.775
1108.928, 1977.457
1110.162, 1678.146
1111.395, 1650.847
1112.629, 1517.555
1113.863, 1235.269
1115.096, 1126.996
1116.329, 970.729
1117.562, 788.469
1118.795, 861.215
1120.027, 663.967
1121.259, 692.726
1122.492, 608.491
1123.723, 414.261
1124.955, 500.039
1126.187, 368.822
1127.418, 345.611
1128.649, 321.405
1129.880, 231.206
1131.111, 276.012
1132.342, 215.823
1133.572, 124.641
1134.802, 217.463
1136.033, 107.291
1137.262, 124.125
1138.492, 107.966
1139.722, 1.188
1140.951, 17.662
1142.180, 8.521
1143.409, 38.615
1144.638, 9.752
1145.866, 46.881
1147.095, 52.131
1148.323, 57.853
1149.551, 101.276
1150.779, 15.582
1152.006, 66.556
1153.234, 33.700
1154.461, 73.845
1155.688, 38.998
1156.915, 33.847
1158.141, 76.696
1159.368, 38.550
1160.594, 153.407
1161.820, 119.269
1163.046, 129.135
1164.272, 234.005
1165.498, 175.878
1166.723, 304.756
1167.948, 356.637
1169.173, 345.522
1170.398, 510.410
1171.623, 603.302
1172.847, 628.197
1174.071, 757.095
1175.295, 602.996
1176.519, 675.901
1177.743, 640.807
1178.966, 554.717
1180.190, 574.629
1181.413, 440.544
1182.636, 329.461
1183.858, 366.381
1185.081, 253.302
1186.303, 218.227
1187.526, 280.067
1188.748, 123.996
1189.969, 252.926
1191.191, 125.639
1192.412, 71.574
1193.634, 75.510
1194.855, 62.292
1196.076, 56.232
1197.296, 52.061
1198.517, 1.117
1199.737, 34.062
1200.957, 43.007
1202.177, 22.954
1203.397, 112.902
1204.617, 3.852
1205.836, 22.721
1207.055, 76.672
1208.274, 68.376
1209.493, 31.803
1210.712, 27.743
1211.930, 30.036
1213.148, 163.475
1214.367, 52.410
1215.584, 147.288
1216.802, 159.224
1218.020, 68.161
1219.237, 87.555
1220.454, 23.492
1221.671, 28.183
1222.888, 123.442
1224.105, 17.621
1225.321, 44.284
1226.537, 89.251
1227.753, 7.817
1228.969, 121.836
1230.185, 59.844
1231.400, 46.422
1232.616, 176.334
1233.831, 96.300
1235.046, 170.997
1236.261, 267.888
1237.475, 194.913
1238.689, 289.634
1239.904, 219.557
1241.118, 140.480
1242.332, 278.526
1243.545, 179.448
1244.759, 209.369
1245.972, 280.432
1247.185, 196.355
1248.398, 267.278
1249.611, 264.201
1250.823, 143.125
1252.036, 302.049
1253.248, 167.973
1254.460, 186.896
1255.671, 256.821
1256.883, 134.744
1258.095, 216.668
1259.306, 179.592
1260.517, 178.515
1261.728, 286.438
1262.938, 165.361
1264.149, 184.283
1265.359, 420.205
1266.569, 243.127
1267.779, 397.049
1268.989, 408.399
1270.199, 289.320
1271.408, 476.220
1272.617, 411.654
1273.826, 380.574
1275.035, 435.057
1276.244, 338.607
1277.452, 331.815
1278.661, 328.299
1279.869, 156.217
1281.077, 278.268
1282.285, 255.185
1283.492, 121.009
1284.700, 255.440
1285.907, 207.104
1287.114, 169.430
1288.321, 223.346
1289.527, 142.261
1290.734, 191.176
1291.940, 257.084
1293.146, 164.981
1294.352, 345.877
1295.558, 229.767
1296.763, 186.649
1297.969, 309.518
1299.174, 119.381
1300.379, 250.240
1301.584, 200.081
1302.788, 143.906
1303.993, 238.723
1305.197, 236.521
1306.401, 250.301
1307.605, 370.070
1308.809, 266.838
1310.013, 383.592
1311.216, 450.332
1312.419, 314.070
1313.622, 438.805
1314.825, 452.537
1316.028, 407.266
1317.230, 470.992
1318.432, 416.715
1319.634, 343.435
1320.836, 445.151
1322.038, 371.865
1323.240, 414.569
1324.441, 392.263
1325.642, 226.951
1326.843, 263.625
1328.044, 183.288
1329.245, 148.928
1330.445, 163.579
1331.645, 111.225
1332.845, 85.864
1334.045, 101.497
1335.245, 32.877
1336.445, 27.737
1337.644, 51.346
1338.843, 47.414
1340.042, 107.176
1341.241, 6.238
1342.440, 19.224
1343.638, 58.349
1344.836, 35.082
1346.034, 27.479
1347.232, 29.036
1348.430, 57.410
1349.628, 13.133
1350.825, 27.328
1352.022, 8.794
1353.219, 35.737
1354.416, 80.114
1355.613, 6.406
1356.809, 11.926
1358.005, 69.769
1359.202, 2.747
1360.398, 23.734
1361.593, 81.215
1362.789, 5.302
1363.984, 29.174
1365.179, 37.644
1366.374, 0.895
1367.569, 30.552
1368.764, 19.019
1369.958, 19.614
1371.153, 44.758
1372.347, 66.910
1373.541, 45.642
1374.735, 45.527
1375.928, 96.295
1377.122, 70.114
1378.315, 37.929
1379.508, 172.741
1380.701, 75.551
1381.893, 131.356
1383.086, 164.158
1384.278, 60.957
1385.470, 171.751
1386.662, 104.540
1387.854, 79.322
1389.046, 203.095
1390.237, 138.865
1391.428, 77.637
1392.619, 97.419
1393.810, 40.214
1395.001, 42.026
1396.191, 18.849
1397.382, 14.332
1398.572, 27.485
1399.762, 49.298
1400.952, 17.892
1402.141, 80.916
1403.331, 0.279
1404.520, 27.474
1405.709, 77.330
1406.898, 11.866
1408.087, 42.939
1409.275, 45.744
1410.464, 88.550
1411.652, 114.357
1412.840, 71.167
1414.028, 61.977
1415.215, 96.791
1416.403, 32.608
1417.590, 43.429
1418.777, 172.255
1419.964, 68.665
1421.151, 110.546
1422.338, 101.913
1423.524, 74.808
1424.710, 181.079
1425.896, 115.450
1427.082, 150.942
1428.268, 237.144
1429.453, 214.394
1430.639, 202.042
1431.824, 314.390
1433.009, 277.319
1434.194, 429.660
1435.378, 477.482
1436.563, 438.980
1437.747, 724.256
1438.931, 742.403
1440.115, 778.781
1441.299, 1017.141
1442.482, 944.481
1443.666, 1031.801
1444.849, 1201.100
1446.032, 990.377
1447.215, 1297.630
1448.397, 1282.860
1449.580, 1117.061
1450.762, 1389.172
1451.944, 1339.986
1453.126, 1241.741
1454.308, 1546.781
1455.490, 1307.663
1456.671, 1341.496
1457.852, 1458.274
1459.033, 1159.993
1460.214, 1301.648
1461.395, 1218.255
1462.575, 964.878
1463.756, 1036.490
1464.936, 887.151
1466.116, 735.843
1467.296, 832.658
1468.475, 721.635
1469.655, 565.702
1470.834, 655.870
1472.013, 531.065
1473.192, 488.247
1474.371, 509.418
1475.550, 409.580
1476.728, 468.766
1477.906, 478.066
1479.084, 352.548
1480.262, 466.132
1481.440, 385.818
1482.617, 396.635
1483.795, 489.609
1484.972, 318.759
1486.149, 348.084
1487.326, 323.594
1488.502, 215.331
1489.679, 255.360
1490.855, 232.739
1492.031, 32.520
1493.207, 125.791
1494.383, 52.666
1495.559, 40.319
1496.734, 131.004
1497.909, 103.113
1499.084, 43.333
1500.259, 133.034
1501.434, 0.000
##END=



