##NAMES=Danburite
##RRUFFID=R040013
##IDEAL CHEMISTRY=CaB_2_Si_2_O_8_
##LOCALITY=Charcas, San Luis Potosi, Mexico
##OWNER=RRUFF
##SOURCE=Marcus Origlieri
##DESCRIPTION=Colorless prismatic single crystal
##STATUS=The identification of this mineral has been confirmed by X-ray diffraction and chemical analysis
##URL=rruff.info/R040013
##MEASURED CHEMISTRY=Ca_1.00_B_2.00_Si_2.00_O_8_
##PIN_ID=M00010
##ORIENTATION=Laser parallel to a* (1 0 0). Fiducial mark perpendicular to laser is parallel to b [0 1 0]
117.166, 0.000
118.556, 66.050
119.947, 295.096
121.337, 724.716
122.727, 777.224
124.116, 1278.201
125.506, 1047.041
126.895, 1104.305
128.284, 1137.716
129.673, 794.228
131.062, 358.989
132.450, 143.044
133.838, 58.023
135.226, 66.929
136.614, 277.153
138.001, 392.143
139.388, 267.061
140.775, 109.066
142.162, 22.871
143.549, 59.487
144.935, 34.975
146.321, 167.696
147.707, 491.411
149.093, 1094.048
150.478, 1378.618
151.863, 1045.136
153.248, 444.608
154.633, 112.175
156.018, 8.224
157.402, 47.659
158.786, 70.894
160.170, 236.664
161.554, 480.426
162.937, 1235.110
164.320, 1021.673
165.703, 1677.267
167.086, 885.751
168.469, 494.592
169.851, 351.777
171.233, 393.921
172.615, 642.027
173.996, 1234.734
175.378, 2174.645
176.759, 3886.580
178.140, 6932.389
179.521, 10550.180
180.901, 11540.972
182.281, 8638.812
183.662, 4757.708
185.041, 2481.611
186.421, 1431.489
187.800, 1076.338
189.180, 1034.461
190.558, 1061.270
191.937, 912.238
193.316, 672.381
194.694, 568.197
196.072, 577.063
197.450, 843.755
198.827, 1270.450
200.205, 2222.810
201.582, 3393.637
202.959, 3955.047
204.336, 3331.822
205.712, 2126.278
207.088, 1504.735
208.465, 1429.192
209.840, 1404.650
211.216, 1131.103
212.591, 648.528
213.967, 316.953
215.341, 164.377
216.716, 79.800
218.091, 59.220
219.465, 24.364
220.839, 20.901
222.213, 13.516
223.586, 97.917
224.960, 167.313
226.333, 160.704
227.706, 90.089
229.079, 1.531
230.451, 27.159
231.823, 19.793
233.195, 36.567
234.567, 61.918
235.939, 158.261
237.310, 369.597
238.682, 695.924
240.052, 1265.244
241.423, 2192.717
242.794, 3585.474
244.164, 4243.812
245.534, 3709.437
246.904, 2544.967
248.274, 1595.459
249.643, 974.717
251.012, 589.866
252.381, 453.398
253.750, 297.543
255.118, 219.692
256.487, 158.839
257.855, 99.982
259.223, 76.118
260.590, 42.247
261.958, 3.633
263.325, 13.479
264.692, 35.426
266.059, 24.586
267.425, 45.660
268.791, 52.740
270.158, 9.803
271.523, 35.837
272.889, 54.826
274.255, 159.773
275.620, 312.685
276.985, 325.562
278.350, 232.357
279.714, 108.044
281.078, 14.719
282.443, 23.617
283.806, 17.970
285.170, 58.359
286.534, 38.816
287.897, 6.286
289.260, 42.234
290.623, 96.820
291.985, 150.548
293.348, 236.000
294.710, 270.485
296.072, 237.961
297.433, 195.427
298.795, 225.883
300.156, 296.331
301.517, 555.769
302.878, 945.198
304.239, 1264.035
305.599, 1242.983
306.959, 1220.382
308.319, 1470.771
309.679, 1804.149
311.038, 1910.516
312.398, 1664.873
313.757, 1256.221
315.116, 859.559
316.474, 527.871
317.833, 335.155
319.191, 257.432
320.549, 161.700
321.907, 109.938
323.264, 68.155
324.622, 74.364
325.979, 85.566
327.336, 116.762
328.692, 122.951
330.049, 136.134
331.405, 160.309
332.761, 160.477
334.117, 224.638
335.473, 274.791
336.828, 364.937
338.183, 524.065
339.538, 799.172
340.893, 1344.270
342.247, 2186.356
343.602, 3586.435
344.956, 5501.507
346.310, 6778.572
347.663, 6418.619
349.017, 4558.635
350.370, 2819.625
351.723, 1643.609
353.076, 1020.587
354.428, 664.560
355.780, 424.527
357.133, 315.489
358.484, 228.453
359.836, 158.480
361.188, 124.485
362.539, 114.530
363.890, 45.594
365.241, 46.531
366.591, 20.482
367.942, 8.689
369.292, 1.712
370.642, 0.435
371.992, 7.779
373.341, 31.930
374.691, 10.354
376.040, 23.585
377.388, 19.782
378.737, 21.475
380.086, 10.413
381.434, 6.836
382.782, 22.036
384.130, 11.228
385.477, 68.187
386.825, 72.183
388.172, 172.653
389.519, 285.761
390.865, 449.180
392.212, 582.038
393.558, 701.072
394.904, 584.018
396.250, 427.735
397.596, 249.553
398.941, 177.251
400.286, 98.946
401.631, 119.765
402.976, 117.449
404.321, 140.128
405.665, 131.838
407.009, 139.325
408.353, 113.335
409.697, 110.644
411.040, 94.908
412.384, 108.306
413.727, 109.810
415.070, 196.336
416.412, 233.548
417.755, 365.973
419.097, 450.476
420.439, 613.066
421.781, 793.648
423.122, 872.222
424.464, 788.787
425.805, 681.345
427.146, 466.536
428.486, 281.937
429.827, 179.461
431.167, 160.039
432.507, 101.063
433.847, 149.838
435.187, 221.179
436.526, 314.684
437.865, 533.191
439.204, 659.691
440.543, 739.184
441.882, 561.670
443.220, 388.150
444.558, 238.623
445.896, 150.090
447.234, 78.550
448.572, 58.003
449.909, 49.453
451.246, 68.903
452.583, 59.347
453.919, 102.784
455.256, 127.214
456.592, 180.639
457.928, 237.057
459.264, 254.469
460.600, 263.875
461.935, 234.274
463.270, 221.668
464.605, 218.056
465.940, 229.438
467.274, 307.813
468.609, 416.148
469.943, 563.506
471.277, 848.864
472.610, 1357.218
473.944, 2197.565
475.277, 3883.907
476.610, 6360.243
477.943, 8748.574
479.275, 9185.898
480.608, 7123.218
481.940, 4414.532
483.272, 2545.841
484.604, 1541.144
485.935, 1057.441
487.267, 717.733
488.598, 477.020
489.929, 380.302
491.260, 340.578
492.590, 237.849
493.920, 200.115
495.250, 138.377
496.580, 146.633
497.910, 101.884
499.239, 84.130
500.569, 67.372
501.898, 49.608
503.226, 34.840
504.555, 38.066
505.883, 28.286
507.212, 22.502
508.540, 36.577
509.867, 14.653
511.195, 2.402
512.522, 42.434
513.849, 2.082
515.176, 4.225
516.503, 8.732
517.829, 18.811
519.156, 10.403
520.482, 14.692
521.808, 8.115
523.133, 8.197
524.459, 23.788
525.784, 31.689
527.109, 6.406
528.434, 9.391
529.758, 2.499
531.083, 19.381
532.407, 4.272
533.731, 18.166
535.055, 20.930
536.378, 2.977
537.701, 0.111
539.025, 41.195
540.348, 17.278
541.670, 41.359
542.993, 54.440
544.315, 12.520
545.637, 58.596
546.959, 56.671
548.281, 89.742
549.602, 95.809
550.923, 132.874
552.244, 149.938
553.565, 176.001
554.886, 193.068
556.206, 245.131
557.526, 343.195
558.846, 482.256
560.166, 658.318
561.486, 717.378
562.805, 565.436
564.124, 443.492
565.443, 299.546
566.762, 220.599
568.080, 223.648
569.399, 163.694
570.717, 198.738
572.035, 227.785
573.352, 211.833
574.670, 237.888
575.987, 288.946
577.304, 298.005
578.621, 384.061
579.938, 397.114
581.254, 438.164
582.570, 480.211
583.886, 525.102
585.202, 598.295
586.518, 652.333
587.833, 729.367
589.148, 831.398
590.463, 996.426
591.778, 1131.443
593.093, 1350.418
594.407, 1558.437
595.721, 1918.453
597.035, 2364.466
598.349, 2910.476
599.662, 3820.544
600.976, 4998.548
602.289, 6766.549
603.602, 9574.547
604.914, 13783.580
606.227, 19382.572
607.539, 24761.562
608.851, 27100.549
610.163, 25469.576
611.475, 19948.559
612.786, 15077.538
614.097, 10866.533
615.408, 7666.516
616.719, 5914.486
618.030, 4680.453
619.340, 3966.459
620.651, 3590.421
621.961, 3523.380
623.270, 3862.337
624.580, 4209.291
625.889, 4547.242
627.199, 4332.190
628.507, 3622.137
629.816, 2888.081
631.125, 2188.021
632.433, 1692.959
633.741, 1357.895
635.049, 1201.828
636.357, 1040.759
637.664, 850.688
638.972, 740.613
640.279, 684.536
641.586, 669.457
642.893, 562.376
644.199, 514.283
645.505, 488.120
646.811, 423.971
648.117, 353.947
649.423, 375.722
650.728, 316.609
652.034, 297.674
653.339, 278.228
654.644, 279.224
655.948, 231.877
657.253, 231.422
658.557, 190.843
659.861, 157.043
661.165, 167.446
662.468, 137.215
663.772, 145.997
665.075, 153.224
666.378, 122.683
667.681, 137.545
668.983, 131.567
670.286, 131.491
671.588, 132.223
672.890, 112.680
674.192, 107.028
675.493, 104.253
676.795, 103.535
678.096, 88.651
679.397, 99.562
680.697, 67.185
681.998, 80.701
683.298, 68.217
684.598, 66.551
685.898, 71.280
687.198, 67.938
688.498, 72.854
689.797, 60.757
691.096, 53.667
692.395, 56.966
693.694, 57.631
694.992, 56.505
696.290, 43.378
697.589, 34.709
698.886, 34.149
700.184, 37.563
701.482, 33.020
702.779, 60.184
704.076, 66.336
705.373, 86.386
706.669, 53.564
707.966, 49.487
709.262, 104.336
710.558, 109.183
711.854, 154.032
713.150, 198.875
714.445, 246.716
715.740, 282.554
717.035, 213.390
718.330, 157.223
719.625, 137.054
720.919, 114.883
722.214, 60.709
723.508, 58.533
724.801, 42.355
726.095, 40.174
727.388, 54.991
728.682, 47.806
729.975, 57.618
731.267, 46.429
732.560, 45.836
733.852, 37.043
735.145, 38.846
736.437, 23.648
737.728, 21.447
739.020, 6.245
740.311, 20.039
741.603, 33.831
742.894, 24.621
744.184, 10.409
745.475, 30.195
746.765, 28.978
748.055, 31.798
749.345, 8.538
750.635, 35.315
751.925, 23.089
753.214, 12.862
754.503, 15.632
755.792, 30.400
757.081, 38.166
758.370, 7.930
759.658, 26.691
760.946, 66.451
762.234, 43.209
763.522, 59.964
764.809, 85.718
766.097, 84.470
767.384, 120.220
768.671, 216.968
769.958, 216.714
771.244, 244.458
772.530, 360.200
773.817, 337.941
775.102, 383.679
776.388, 364.416
777.674, 241.151
778.959, 196.885
780.244, 155.616
781.529, 116.346
782.814, 58.074
784.098, 66.800
785.383, 39.525
786.667, 4.751
787.951, 26.969
789.235, 2.689
790.518, 11.594
791.801, 20.120
793.084, 3.167
794.367, 15.544
795.650, 6.254
796.933, 13.157
798.215, 11.675
799.497, 20.388
800.779, 10.102
802.061, 11.185
803.342, 30.475
804.624, 12.772
805.905, 21.070
807.186, 0.626
808.466, 1.679
809.747, 5.015
811.027, 8.293
812.307, 31.601
813.587, 1.916
814.867, 14.231
816.146, 20.551
817.426, 8.875
818.705, 30.202
819.984, 30.538
821.263, 25.882
822.541, 18.233
823.819, 15.590
825.098, 14.952
826.375, 0.682
827.653, 2.313
828.931, 0.631
830.208, 11.974
831.485, 8.802
832.762, 12.821
834.039, 7.443
835.315, 19.936
836.592, 11.322
837.868, 15.711
839.144, 4.104
840.420, 13.500
841.695, 13.201
842.970, 8.994
844.246, 14.713
845.521, 3.125
846.795, 9.462
848.070, 15.047
849.344, 1.631
850.618, 12.214
851.892, 42.796
853.166, 12.377
854.440, 46.957
855.713, 58.537
856.986, 22.115
858.259, 46.693
859.532, 61.270
860.804, 62.846
862.077, 72.422
863.349, 51.997
864.621, 58.571
865.893, 53.144
867.164, 87.717
868.436, 72.289
869.707, 55.860
870.978, 90.431
872.248, 65.002
873.519, 59.572
874.789, 53.141
876.060, 45.332
877.330, 44.218
878.599, 34.786
879.869, 74.354
881.138, 57.922
882.408, 114.450
883.677, 103.017
884.945, 95.584
886.214, 119.150
887.482, 57.672
888.751, 85.238
890.019, 120.804
891.287, 119.348
892.554, 167.906
893.822, 154.472
895.089, 228.037
896.356, 240.562
897.623, 237.127
898.889, 260.693
900.156, 293.259
901.422, 320.825
902.688, 334.392
903.954, 308.958
905.220, 336.525
906.485, 345.092
907.750, 370.660
909.015, 414.228
910.280, 406.796
911.545, 478.365
912.809, 551.934
914.074, 629.504
915.338, 638.074
916.602, 691.646
917.865, 770.217
919.129, 876.789
920.392, 918.362
921.655, 937.936
922.918, 908.915
924.181, 826.912
925.443, 748.488
926.706, 641.018
927.968, 504.268
929.230, 409.846
930.491, 379.297
931.753, 320.877
933.014, 285.432
934.276, 323.014
935.536, 271.597
936.797, 352.180
938.058, 358.761
939.318, 384.042
940.578, 458.876
941.838, 552.125
943.098, 647.184
944.358, 731.727
945.617, 804.235
946.876, 851.808
948.135, 837.899
949.394, 820.007
950.653, 734.520
951.911, 628.759
953.169, 513.855
954.427, 469.225
955.685, 393.103
956.943, 353.900
958.200, 366.961
959.458, 330.128
960.715, 361.359
961.971, 416.610
963.228, 423.193
964.485, 529.789
965.741, 664.378
966.997, 829.998
968.253, 1095.412
969.508, 1334.036
970.764, 1600.662
972.019, 1657.829
973.274, 1555.201
974.529, 1383.475
975.784, 1070.013
977.039, 915.347
978.293, 655.695
979.547, 551.146
980.801, 476.468
982.055, 370.047
983.308, 378.698
984.562, 365.351
985.815, 299.003
987.068, 273.662
988.321, 267.323
989.573, 251.987
990.826, 236.653
992.078, 221.322
993.330, 244.993
994.582, 267.667
995.833, 258.344
997.085, 273.023
998.336, 317.704
999.587, 337.389
1000.838, 387.076
1002.088, 425.766
1003.339, 484.458
1004.589, 550.154
1005.839, 666.852
1007.089, 676.553
1008.339, 655.257
1009.588, 581.964
1010.838, 455.673
1012.087, 335.386
1013.336, 253.101
1014.584, 187.820
1015.833, 170.543
1017.081, 205.270
1018.330, 142.999
1019.577, 178.732
1020.825, 158.469
1022.073, 154.208
1023.320, 203.951
1024.567, 175.697
1025.814, 241.449
1027.061, 177.206
1028.308, 216.970
1029.554, 183.740
1030.800, 119.515
1032.046, 124.294
1033.292, 129.077
1034.538, 25.864
1035.783, 95.656
1037.029, 72.452
1038.274, 75.252
1039.519, 117.060
1040.763, 92.873
1042.008, 56.692
1043.252, 53.518
1044.496, 70.346
1045.740, 58.178
1046.984, 55.017
1048.228, 39.858
1049.471, 60.703
1050.714, 37.552
1051.957, 42.402
1053.200, 23.257
1054.442, 50.114
1055.685, 77.974
1056.927, 53.837
1058.169, 48.706
1059.411, 78.579
1060.652, 47.455
1061.894, 79.334
1063.135, 63.219
1064.376, 68.105
1065.617, 56.996
1066.858, 66.891
1068.098, 110.788
1069.339, 90.688
1070.579, 103.591
1071.819, 167.497
1073.058, 144.406
1074.298, 156.320
1075.537, 187.240
1076.776, 206.165
1078.015, 205.498
1079.254, 207.432
1080.493, 219.423
1081.731, 250.310
1082.969, 234.254
1084.207, 259.205
1085.445, 265.160
1086.683, 328.119
1087.920, 322.085
1089.157, 397.055
1090.394, 419.031
1091.631, 476.014
1092.868, 488.002
1094.105, 601.998
1095.341, 657.998
1096.577, 771.002
1097.813, 876.009
1099.049, 960.019
1100.284, 1085.032
1101.519, 1256.048
1102.755, 1293.069
1103.990, 1494.093
1105.224, 1542.119
1106.459, 1532.150
1107.693, 1471.186
1108.928, 1384.225
1110.162, 1316.268
1111.395, 1088.754
1112.629, 977.809
1113.863, 877.870
1115.096, 765.935
1116.329, 646.002
1117.562, 613.072
1118.795, 537.143
1120.027, 530.218
1121.259, 529.294
1122.492, 442.373
1123.723, 397.455
1124.955, 351.539
1126.187, 334.626
1127.418, 289.714
1128.649, 264.590
1129.880, 253.898
1131.111, 205.993
1132.342, 201.090
1133.572, 163.189
1134.802, 126.290
1136.033, 136.393
1137.262, 137.556
1138.492, 82.664
1139.722, 104.775
1140.951, 98.888
1142.180, 65.002
1143.409, 90.133
1144.638, 64.280
1145.866, 28.400
1147.095, 76.521
1148.323, 44.081
1149.551, 36.276
1150.779, 45.402
1152.006, 21.673
1153.234, 21.801
1154.461, 38.010
1155.688, 29.186
1156.915, 14.384
1158.141, 25.166
1159.368, 36.859
1160.594, 21.558
1161.820, 57.494
1163.046, 55.087
1164.272, 62.260
1165.498, 60.700
1166.723, 72.742
1167.948, 88.414
1169.173, 105.992
1170.398, 119.167
1171.623, 152.587
1172.847, 152.151
1174.071, 168.744
1175.295, 131.854
1176.519, 191.998
1177.743, 141.143
1178.966, 145.037
1180.190, 45.182
1181.413, 122.468
1182.636, 116.614
1183.858, 129.759
1185.081, 72.970
1186.303, 75.114
1187.526, 42.259
1188.748, 39.404
1189.969, 46.192
1191.191, 73.350
1192.412, 68.494
1193.634, 39.713
1194.855, 64.856
1196.076, 61.999
1197.296, 50.210
1198.517, 52.423
1199.737, 43.921
1200.957, 22.731
1202.177, 29.882
1203.397, 24.021
1204.617, 12.202
1205.836, 29.366
1207.055, 73.545
1208.274, 16.680
1209.493, 20.116
1210.712, 4.039
1211.930, 33.176
1213.148, 7.358
1214.367, 39.484
1215.584, 48.675
1216.802, 14.858
1218.020, 30.027
1219.237, 24.454
1220.454, 48.574
1221.671, 44.745
1222.888, 51.875
1224.105, 39.034
1225.321, 26.548
1226.537, 43.660
1227.753, 21.813
1228.969, 22.924
1230.185, 19.034
1231.400, 67.141
1232.616, 39.355
1233.831, 49.851
1235.046, 22.953
1236.261, 49.053
1237.475, 42.230
1238.689, 13.326
1239.904, 30.420
1241.118, 41.657
1242.332, 17.343
1243.545, 32.739
1244.759, 36.270
1245.972, 68.347
1247.185, 71.353
1248.398, 45.523
1249.611, 63.595
1250.823, 53.667
1252.036, 40.770
1253.248, 41.840
1254.460, 36.210
1255.671, 29.497
1256.883, 20.345
1258.095, 21.410
1259.306, 43.536
1260.517, 48.611
1261.728, 45.673
1262.938, 26.733
1264.149, 33.790
1265.359, 21.844
1266.569, 59.896
1267.779, 3.314
1268.989, 49.355
1270.199, 22.513
1271.408, 49.540
1272.617, 41.562
1273.826, 13.594
1275.035, 10.658
1276.244, 19.656
1277.452, 37.647
1278.661, 13.370
1279.869, 3.608
1281.077, 33.591
1282.285, 0.437
1283.492, 19.532
1284.700, 3.494
1285.907, 9.519
1287.114, 5.475
1288.321, 21.573
1289.527, 17.628
1290.734, 17.688
1291.940, 27.755
1293.146, 12.825
1294.352, 13.096
1295.558, 5.987
1296.763, 2.946
1297.969, 19.146
1299.174, 0.754
1300.379, 14.649
1301.584, 47.463
1302.788, 10.584
1303.993, 11.711
1305.197, 33.845
1306.401, 53.010
1307.605, 42.861
1308.809, 24.291
1310.013, 54.539
1311.216, 2.362
1312.419, 34.180
1313.622, 25.994
1314.825, 9.803
1316.028, 74.605
1317.230, 46.403
1318.432, 33.195
1319.634, 19.017
1320.836, 21.762
1322.038, 37.537
1323.240, 9.303
1324.441, 42.062
1325.642, 35.816
1326.843, 10.565
1328.044, 10.309
1329.245, 24.048
1330.445, 21.783
1331.645, 23.512
1332.845, 55.236
1334.045, 16.955
1335.245, 20.669
1336.445, 17.378
1337.644, 39.082
1338.843, 11.781
1340.042, 21.072
1341.241, 24.760
1342.440, 15.115
1343.638, 44.120
1344.836, 12.793
1346.034, 14.460
1347.232, 17.123
1348.430, 3.220
1349.628, 40.432
1350.825, 16.078
1352.022, 24.721
1353.219, 18.358
1354.416, 7.009
1355.613, 37.618
1356.809, 19.776
1358.005, 31.394
1359.202, 36.008
1360.398, 37.618
1361.593, 9.224
1362.789, 6.174
1363.984, 43.422
1365.179, 50.015
1366.374, 12.605
1367.569, 46.155
1368.764, 45.697
1369.958, 6.256
1371.153, 28.225
1372.347, 32.840
1373.541, 8.608
1374.735, 39.871
1375.928, 33.241
1377.122, 23.125
1378.315, 42.004
1379.508, 55.879
1380.701, 22.746
1381.893, 75.609
1383.086, 1.534
1384.278, 69.318
1385.470, 43.165
1386.662, 41.944
1387.854, 17.777
1389.046, 28.603
1390.237, 51.375
1391.428, 44.192
1392.619, 70.418
1393.810, 59.051
1395.001, 64.752
1396.191, 3.591
1397.382, 34.740
1398.572, 8.847
1399.762, 35.982
1400.952, 78.200
1402.141, 25.957
1403.331, 15.990
1404.520, 53.543
1405.709, 39.938
1406.898, 36.583
1408.087, 28.010
1409.275, 24.617
1410.464, 43.128
1411.652, 47.722
1412.840, 67.386
1414.028, 11.848
1415.215, 49.411
1416.403, 29.761
1417.590, 62.270
1418.777, 63.794
1419.964, 44.224
1421.151, 25.687
1422.338, 57.062
1423.524, 48.482
1424.710, 21.888
1425.896, 67.221
1427.082, 37.208
1428.268, 67.580
1429.453, 43.295
1430.639, 74.679
1431.824, 70.121
1433.009, 61.361
1434.194, 86.067
1435.378, 66.324
1436.563, 75.721
1437.747, 101.066
1438.931, 106.532
1440.115, 122.656
1441.299, 147.125
1442.482, 147.349
1443.666, 157.029
1444.849, 144.204
1446.032, 156.271
1447.215, 156.417
1448.397, 144.568
1449.580, 146.701
1450.762, 140.934
1451.944, 143.144
1453.126, 145.852
1454.308, 153.874
1455.490, 161.073
1456.671, 170.190
1457.852, 164.421
1459.033, 165.408
1460.214, 163.563
1461.395, 122.699
1462.575, 113.806
1463.756, 97.904
1464.936, 113.912
1466.116, 129.981
1467.296, 117.143
1468.475, 89.100
1469.655, 104.153
1470.834, 78.220
1472.013, 67.337
1473.192, 100.442
1474.371, 67.560
1475.550, 76.677
1476.728, 59.790
1477.906, 71.950
1479.084, 62.124
1480.262, 84.299
1481.440, 47.478
1482.617, 80.663
1483.795, 16.145
1484.972, 110.064
1486.149, 77.291
1487.326, 41.540
1488.502, 98.810
1489.679, 41.103
1490.855, 36.424
1492.031, 28.770
1493.207, 69.148
1494.383, 16.887
1495.559, 73.170
1496.734, 6.078
1497.909, 30.333
1499.084, 13.445
1500.259, 0.219
1501.434, 4.572
1502.608, 0.000
##END=



