##NAMES=Danburite
##RRUFFID=R040013
##IDEAL CHEMISTRY=CaB_2_Si_2_O_8_
##LOCALITY=Charcas, San Luis Potosi, Mexico
##OWNER=RRUFF
##SOURCE=Marcus Origlieri
##DESCRIPTION=Colorless prismatic single crystal
##STATUS=The identification of this mineral has been confirmed by X-ray diffraction and chemical analysis
##URL=rruff.info/R040013
##MEASURED CHEMISTRY=Ca_1.00_B_2.00_Si_2.00_O_8_
##PIN_ID=M00012
##ORIENTATION=Laser parallel to c* (0 0 1). Fiducial mark perpendicular to laser is parallel to a [1 0 0]
110.209, 0.000
111.601, 1059.542
112.992, 764.942
114.384, 1121.812
115.775, 832.416
117.166, 1311.083
118.556, 1177.977
119.947, 1287.191
121.337, 2491.899
122.727, 4386.903
124.116, 6470.537
125.506, 6612.436
126.895, 7426.971
128.284, 9581.546
129.673, 9605.821
131.062, 6986.023
132.450, 3846.919
133.838, 2296.513
135.226, 1538.260
136.614, 1579.117
138.001, 1868.302
139.388, 1870.774
140.775, 1362.164
142.162, 724.523
143.549, 358.197
144.935, 119.832
146.321, 38.247
147.707, 32.511
149.093, 94.423
150.478, 91.453
151.863, 101.172
153.248, 74.844
154.633, 40.009
156.018, 39.209
157.402, 103.208
158.786, 419.124
160.170, 1244.931
161.554, 1905.640
162.937, 4371.259
164.320, 9093.652
165.703, 11841.603
167.086, 8907.231
168.469, 4430.292
169.851, 2160.635
171.233, 1049.488
172.615, 478.553
173.996, 193.424
175.378, 52.296
176.759, 20.175
178.140, 28.927
179.521, 140.002
180.901, 106.958
182.281, 186.932
183.662, 143.902
185.041, 204.864
186.421, 377.848
187.800, 684.871
189.180, 1269.318
190.558, 1699.417
191.937, 1566.550
193.316, 997.713
194.694, 493.904
196.072, 241.110
197.450, 38.326
198.827, 49.314
200.205, 30.036
201.582, 74.676
202.959, 135.393
204.336, 215.653
205.712, 376.882
207.088, 540.742
208.465, 932.605
209.840, 1402.482
211.216, 1682.368
212.591, 1291.259
213.967, 732.151
215.341, 409.041
216.716, 194.925
218.091, 13.804
219.465, 3.660
220.839, 75.489
222.213, 98.643
223.586, 107.802
224.960, 71.966
226.333, 121.136
227.706, 69.312
229.079, 88.495
230.451, 68.687
231.823, 36.886
233.195, 3.909
234.567, 127.707
235.939, 206.514
237.310, 457.324
238.682, 750.149
240.052, 1358.962
241.423, 2414.809
242.794, 3947.006
244.164, 5866.130
245.534, 6443.716
246.904, 5248.211
248.274, 3682.793
249.643, 2354.188
251.012, 1655.771
252.381, 1114.033
253.750, 872.968
255.118, 695.818
256.487, 506.438
257.855, 461.942
259.223, 326.061
260.590, 273.679
261.958, 230.534
263.325, 136.513
264.692, 99.555
266.059, 31.622
267.425, 134.694
268.791, 124.754
270.158, 179.767
271.523, 210.736
272.889, 330.668
274.255, 588.566
275.620, 928.432
276.985, 1357.265
278.350, 1288.962
279.714, 986.488
281.078, 593.915
282.443, 347.333
283.806, 208.743
285.170, 48.144
286.534, 34.531
287.897, 75.100
289.260, 2.766
290.623, 43.459
291.985, 62.186
293.348, 35.969
294.710, 5.221
296.072, 14.759
297.433, 32.824
298.795, 55.929
300.156, 77.781
301.517, 209.219
302.878, 337.445
304.239, 484.616
305.599, 831.856
306.959, 1151.059
308.319, 1744.226
309.679, 2631.356
311.038, 3042.343
312.398, 3217.312
313.757, 2671.228
315.116, 2013.056
316.474, 1430.804
317.833, 924.484
319.191, 634.113
320.549, 379.728
321.907, 296.336
323.264, 259.938
324.622, 184.396
325.979, 170.837
327.336, 141.416
328.692, 162.827
330.049, 200.551
331.405, 257.106
332.761, 303.653
334.117, 380.193
335.473, 463.724
336.828, 521.244
338.183, 801.755
339.538, 1099.257
340.893, 1739.750
342.247, 2982.233
343.602, 4697.707
344.956, 7870.123
346.310, 11348.573
347.663, 13566.880
349.017, 12115.251
350.370, 8663.597
351.723, 5759.216
353.076, 3593.535
354.428, 2439.924
355.780, 1581.430
357.133, 1229.567
358.484, 786.228
359.836, 628.112
361.188, 549.679
362.539, 371.986
363.890, 347.445
365.241, 270.813
366.591, 253.574
367.942, 200.700
369.292, 156.833
370.642, 80.173
371.992, 117.599
373.341, 16.140
374.691, 51.485
376.040, 38.435
377.388, 48.826
378.737, 1.987
380.086, 7.289
381.434, 25.471
382.782, 3.322
384.130, 46.958
385.477, 50.644
386.825, 2.887
388.172, 2.727
389.519, 41.919
390.865, 74.025
392.212, 3.321
393.558, 41.680
394.904, 60.456
396.250, 61.691
397.596, 56.656
398.941, 70.731
400.286, 116.486
401.631, 124.041
402.976, 250.036
404.321, 362.940
405.665, 474.945
407.009, 504.865
408.353, 300.727
409.697, 292.574
411.040, 186.405
412.384, 182.014
413.727, 284.812
415.070, 282.594
416.412, 439.358
417.755, 508.107
419.097, 713.842
420.439, 933.560
421.781, 1281.266
423.122, 1630.961
424.464, 1670.642
425.805, 1710.309
427.146, 1263.962
428.486, 884.603
429.827, 650.230
431.167, 458.660
432.507, 321.990
433.847, 177.064
435.187, 172.802
436.526, 156.576
437.865, 142.896
439.204, 243.813
440.543, 317.669
441.882, 361.682
443.220, 294.903
444.558, 185.265
445.896, 163.732
447.234, 88.249
448.572, 66.757
449.909, 48.251
451.246, 52.734
452.583, 57.202
453.919, 61.661
455.256, 127.105
456.592, 228.537
457.928, 279.955
459.264, 423.362
460.600, 441.761
461.935, 471.148
463.270, 432.524
464.605, 385.888
465.940, 312.240
467.274, 244.580
468.609, 327.909
469.943, 355.226
471.277, 475.538
472.610, 658.837
473.944, 1075.125
475.277, 1805.401
476.610, 2919.665
477.943, 4684.918
479.275, 6057.158
480.608, 5881.386
481.940, 4468.603
483.272, 2709.807
484.604, 1676.000
485.935, 1097.181
487.267, 793.349
488.598, 468.505
489.929, 293.650
491.260, 255.783
492.590, 123.905
493.920, 141.014
495.250, 25.113
496.580, 87.196
497.910, 70.268
499.239, 43.328
500.569, 53.626
501.898, 15.391
503.226, 0.607
504.555, 23.376
505.883, 19.654
507.212, 26.707
508.540, 36.782
509.867, 18.881
511.195, 34.001
512.522, 9.119
513.849, 36.755
515.176, 4.545
516.503, 7.585
517.829, 14.831
519.156, 8.498
520.482, 9.110
521.808, 39.224
523.133, 26.902
524.459, 7.210
525.784, 61.702
527.109, 42.763
528.434, 1.644
529.758, 45.949
531.083, 32.889
532.407, 1.888
533.731, 65.610
535.055, 22.247
536.378, 13.350
537.701, 10.189
539.025, 24.338
540.348, 78.856
541.670, 52.339
542.993, 55.876
544.315, 14.558
545.637, 62.181
546.959, 79.911
548.281, 55.510
549.602, 71.774
550.923, 122.434
552.244, 93.303
553.565, 134.934
554.886, 198.563
556.206, 198.183
557.526, 300.070
558.846, 457.584
560.166, 673.232
561.486, 1039.180
562.805, 1199.709
564.124, 1038.094
565.443, 924.569
566.762, 619.532
568.080, 551.046
569.399, 498.532
570.717, 443.561
572.035, 466.058
573.352, 455.969
574.670, 485.488
575.987, 501.168
577.304, 559.695
578.621, 596.368
579.938, 634.744
581.254, 783.322
582.570, 815.769
583.886, 909.895
585.202, 1015.244
586.518, 1037.740
587.833, 1221.070
589.148, 1356.092
590.463, 1445.396
591.778, 1697.589
593.093, 1875.521
594.407, 2199.691
595.721, 2559.995
597.035, 3075.120
598.349, 3828.362
599.662, 4717.643
600.976, 6183.246
602.289, 7984.296
603.602, 11060.678
604.914, 15606.865
606.227, 21863.115
607.539, 30679.279
608.851, 37395.434
610.163, 39901.578
611.475, 35897.711
612.786, 28913.828
614.097, 22219.939
615.408, 15856.039
616.719, 11892.127
618.030, 9048.205
619.340, 6874.371
620.651, 5734.428
621.961, 4809.474
623.270, 4388.509
624.580, 4193.533
625.889, 4300.547
627.199, 4511.550
628.507, 4143.543
629.816, 3763.525
631.125, 3087.498
632.433, 2506.459
633.741, 2250.411
635.049, 1785.351
636.357, 1678.281
637.664, 1481.912
638.972, 1305.821
640.279, 1268.642
641.586, 1116.327
642.893, 1117.379
644.199, 1055.871
645.505, 962.122
646.811, 966.671
648.117, 845.461
649.423, 832.104
650.728, 805.480
652.034, 736.264
653.339, 719.824
654.644, 579.819
655.948, 541.375
657.253, 408.659
658.557, 425.964
659.861, 429.353
661.165, 349.670
662.468, 316.087
663.772, 273.796
665.075, 235.993
666.378, 215.931
667.681, 184.417
668.983, 176.968
670.286, 151.550
671.588, 126.046
672.890, 178.184
674.192, 102.526
675.493, 119.686
676.795, 119.886
678.096, 62.181
679.397, 100.038
680.697, 87.414
681.998, 58.035
683.298, 94.737
684.598, 45.238
685.898, 98.248
687.198, 29.761
688.498, 113.348
689.797, 12.095
691.096, 36.431
692.395, 4.782
693.694, 38.330
694.992, 35.868
696.290, 35.397
697.589, 0.929
698.886, 80.438
700.184, 20.938
701.482, 3.572
702.779, 40.906
704.076, 23.624
705.373, 28.171
706.669, 6.736
707.966, 32.686
709.262, 36.099
710.558, 11.496
711.854, 27.896
713.150, 7.722
714.445, 17.648
715.740, 1.009
717.035, 13.360
718.330, 0.701
719.625, 43.032
720.919, 38.645
722.214, 33.341
723.508, 20.055
724.801, 45.217
726.095, 8.481
727.388, 49.736
728.682, 18.017
729.975, 52.217
731.267, 50.444
732.560, 24.336
733.852, 24.869
735.145, 39.932
736.437, 40.249
737.728, 41.425
739.020, 25.593
740.311, 6.246
741.603, 26.096
742.894, 2.040
744.184, 53.167
745.475, 17.288
746.765, 49.402
748.055, 61.509
749.345, 62.333
750.635, 96.706
751.925, 86.794
753.214, 79.878
754.503, 90.955
755.792, 51.026
757.081, 43.092
758.370, 6.151
759.658, 48.205
760.946, 63.252
762.234, 60.294
763.522, 59.331
764.809, 62.908
766.097, 54.388
767.384, 78.408
768.671, 58.424
769.958, 101.434
771.244, 107.440
772.530, 147.440
773.817, 193.436
775.102, 135.426
776.388, 168.413
777.674, 83.395
778.959, 65.373
780.244, 22.347
781.529, 12.318
782.814, 61.292
784.098, 36.264
785.383, 29.235
786.667, 15.204
787.951, 7.173
789.235, 68.144
790.518, 35.117
791.801, 35.092
793.084, 76.064
794.367, 29.036
795.650, 76.005
796.933, 13.027
798.215, 12.939
799.497, 24.902
800.779, 48.136
802.061, 21.186
803.342, 12.237
804.624, 21.292
805.905, 26.354
807.186, 0.424
808.466, 23.497
809.747, 11.426
811.027, 35.654
812.307, 14.738
813.587, 27.825
814.867, 38.920
816.146, 29.976
817.426, 22.871
818.705, 11.767
819.984, 6.663
821.263, 13.444
822.541, 27.445
823.819, 37.717
825.098, 18.162
826.375, 23.920
827.653, 8.205
828.931, 57.991
830.208, 41.220
831.485, 65.341
832.762, 12.128
834.039, 14.904
835.315, 0.321
836.592, 7.173
837.868, 64.028
839.144, 97.737
840.420, 27.135
841.695, 80.939
842.970, 54.876
844.246, 118.710
845.521, 184.046
846.795, 135.819
848.070, 180.609
849.344, 189.845
850.618, 168.601
851.892, 271.933
853.166, 218.646
854.440, 276.189
855.713, 279.887
856.986, 296.432
858.259, 453.274
859.532, 401.913
860.804, 388.681
862.077, 397.763
863.349, 265.615
864.621, 421.312
865.893, 193.166
867.164, 242.317
868.436, 166.174
869.707, 136.032
870.978, 203.055
872.248, 144.852
873.519, 252.526
874.789, 240.390
876.060, 195.259
877.330, 178.081
878.599, 205.571
879.869, 196.612
881.138, 180.313
882.408, 177.201
883.677, 174.017
884.945, 196.911
886.214, 226.807
887.482, 250.706
888.751, 201.607
890.019, 261.512
891.287, 307.418
892.554, 281.329
893.822, 362.242
895.089, 353.158
896.356, 427.979
897.623, 562.901
898.889, 481.827
900.156, 709.756
901.422, 622.688
902.688, 731.625
903.954, 825.564
905.220, 766.508
906.485, 855.455
907.750, 857.405
909.015, 870.360
910.280, 1036.318
911.545, 954.280
912.809, 1139.247
914.074, 1189.217
915.338, 1263.191
916.602, 1312.171
917.865, 1161.153
919.129, 1139.125
920.392, 931.117
921.655, 728.113
922.918, 725.113
924.181, 597.119
925.443, 525.103
926.706, 543.117
927.968, 455.136
929.230, 566.159
930.491, 549.187
931.753, 522.220
933.014, 694.258
934.276, 640.002
935.536, 738.049
936.797, 889.102
938.058, 944.061
939.318, 1234.661
940.578, 1332.481
941.838, 1722.104
943.098, 2087.621
944.358, 2438.680
945.617, 2921.286
946.876, 3179.388
948.135, 3322.734
949.394, 3193.581
950.653, 2898.134
951.911, 2534.441
953.169, 2134.573
954.427, 1815.710
955.685, 1558.854
956.943, 1274.005
958.200, 1196.953
959.458, 1224.117
960.715, 1092.542
961.971, 1196.719
963.228, 1268.903
964.485, 1354.004
965.741, 1680.205
966.997, 1904.621
968.253, 2813.839
969.508, 3318.063
970.764, 4315.295
972.019, 5139.523
973.274, 5482.774
974.529, 5130.034
975.784, 4462.301
977.039, 3635.577
978.293, 3075.861
979.547, 2365.157
980.801, 2030.466
982.055, 1728.784
983.308, 1446.110
984.562, 1372.444
985.815, 1233.789
987.068, 1080.141
988.321, 966.504
989.573, 898.875
990.826, 843.256
992.078, 889.645
993.330, 769.043
994.582, 846.449
995.833, 806.869
997.085, 917.302
998.336, 1103.746
999.587, 1219.198
1000.838, 1448.589
1002.088, 1830.128
1003.339, 1995.608
1004.589, 2399.097
1005.839, 2856.592
1007.089, 3660.101
1008.339, 4016.617
1009.588, 3684.148
1010.838, 3051.320
1012.087, 2212.866
1013.336, 1696.801
1014.584, 1324.393
1015.833, 949.970
1017.081, 979.687
1018.330, 867.301
1019.577, 723.979
1020.825, 911.591
1022.073, 796.210
1023.320, 858.838
1024.567, 936.475
1025.814, 875.118
1027.061, 933.771
1028.308, 878.432
1029.554, 728.101
1030.800, 730.777
1032.046, 618.463
1033.292, 540.156
1034.538, 405.858
1035.783, 258.567
1037.029, 323.286
1038.274, 143.012
1039.519, 242.747
1040.763, 170.490
1042.008, 80.241
1043.252, 109.000
1044.496, 78.768
1045.740, 67.543
1046.984, 95.327
1048.228, 54.118
1049.471, 68.918
1050.714, 71.726
1051.957, 68.225
1053.200, 80.540
1054.442, 78.196
1055.685, 93.036
1056.927, 83.882
1058.169, 84.738
1059.411, 84.601
1060.652, 126.472
1061.894, 124.351
1063.135, 130.355
1064.376, 29.132
1065.617, 125.035
1066.858, 129.945
1068.098, 119.863
1069.339, 208.791
1070.579, 106.729
1071.819, 209.708
1073.058, 295.165
1074.298, 210.250
1075.537, 423.662
1076.776, 496.717
1078.015, 515.739
1079.254, 629.769
1080.493, 520.864
1081.731, 584.917
1082.969, 652.982
1084.207, 560.060
1085.445, 553.148
1086.683, 540.248
1087.920, 432.359
1089.157, 507.509
1090.394, 466.823
1091.631, 595.968
1092.868, 664.122
1094.105, 593.289
1095.341, 793.467
1096.577, 836.654
1097.813, 903.856
1099.049, 1122.066
1100.284, 1139.288
1101.519, 1293.524
1102.755, 1465.769
1103.990, 1519.024
1105.224, 1761.288
1106.459, 1769.206
1107.693, 1676.486
1108.928, 1748.778
1110.162, 1456.076
1111.395, 1504.383
1112.629, 1248.696
1113.863, 1037.016
1115.096, 973.343
1116.329, 800.676
1117.562, 711.015
1118.795, 663.361
1120.027, 541.712
1121.259, 584.068
1122.492, 529.448
1123.723, 457.817
1124.955, 412.192
1126.187, 311.572
1127.418, 333.957
1128.649, 248.348
1129.880, 140.744
1131.111, 264.151
1132.342, 179.562
1133.572, 155.979
1134.802, 163.401
1136.033, 62.829
1137.262, 84.261
1138.492, 120.700
1139.722, 28.143
1140.951, 28.591
1142.180, 38.045
1143.409, 53.496
1144.638, 42.970
1145.866, 36.559
1147.095, 70.087
1148.323, 44.379
1149.551, 16.148
1150.779, 1.674
1152.006, 10.190
1153.234, 11.481
1154.461, 17.971
1155.688, 13.504
1156.915, 55.005
1158.141, 78.510
1159.368, 76.157
1160.594, 115.500
1161.820, 182.186
1163.046, 159.708
1164.272, 232.231
1165.498, 242.758
1166.723, 332.288
1167.948, 381.822
1169.173, 462.490
1170.398, 665.029
1171.623, 676.570
1172.847, 768.154
1174.071, 860.701
1175.295, 756.345
1176.519, 759.896
1177.743, 740.450
1178.966, 588.004
1180.190, 633.562
1181.413, 468.121
1182.636, 396.681
1183.858, 401.243
1185.081, 278.806
1186.303, 303.371
1187.526, 183.937
1188.748, 202.505
1189.969, 289.073
1191.191, 160.643
1192.412, 43.214
1193.634, 117.786
1194.855, 8.358
1196.076, 92.931
1197.296, 84.504
1198.517, 59.078
1199.737, 67.656
1200.957, 16.230
1202.177, 8.580
1203.397, 3.943
1204.617, 34.331
1205.836, 11.463
1207.055, 29.716
1208.274, 5.756
1209.493, 22.925
1210.712, 4.539
1211.930, 5.518
1213.148, 129.863
1214.367, 54.552
1215.584, 104.833
1216.802, 112.526
1218.020, 64.090
1219.237, 25.516
1220.454, 2.871
1221.671, 12.844
1222.888, 47.983
1224.105, 15.517
1225.321, 41.435
1226.537, 26.104
1227.753, 40.953
1228.969, 29.206
1230.185, 54.018
1231.400, 32.456
1232.616, 142.766
1233.831, 29.525
1235.046, 84.231
1236.261, 157.006
1237.475, 28.486
1238.689, 153.792
1239.904, 131.354
1241.118, 87.857
1242.332, 158.908
1243.545, 74.426
1244.759, 98.103
1245.972, 163.818
1247.185, 70.344
1248.398, 161.914
1249.611, 132.500
1250.823, 76.950
1252.036, 87.400
1253.248, 15.073
1254.460, 85.521
1255.671, 155.126
1256.883, 33.572
1258.095, 129.016
1259.306, 180.565
1260.517, 141.005
1261.728, 267.407
1262.938, 146.960
1264.149, 82.396
1265.359, 273.959
1266.569, 117.431
1267.779, 221.917
1268.989, 136.658
1270.199, 137.082
1271.408, 233.570
1272.617, 241.283
1273.826, 169.716
1275.035, 264.627
1276.244, 120.037
1277.452, 210.064
1278.661, 127.874
1279.869, 71.399
1281.077, 110.738
1282.285, 114.129
1283.492, 2.447
1284.700, 94.835
1285.907, 30.791
1287.114, 108.173
1288.321, 79.728
1289.527, 11.105
1290.734, 103.472
1291.940, 146.014
1293.146, 134.358
1294.352, 194.679
1295.558, 48.993
1296.763, 135.295
1297.969, 150.586
1299.174, 17.867
1300.379, 134.130
1301.584, 127.378
1302.788, 39.610
1303.993, 131.819
1305.197, 29.012
1306.401, 116.191
1307.605, 218.352
1308.809, 154.500
1310.013, 234.630
1311.216, 289.750
1312.419, 159.859
1313.622, 224.960
1314.825, 283.053
1316.028, 166.137
1317.230, 287.213
1318.432, 251.282
1319.634, 202.342
1320.836, 316.382
1322.038, 150.413
1323.240, 186.435
1324.441, 190.444
1325.642, 74.440
1326.843, 156.402
1328.044, 118.353
1329.245, 60.286
1330.445, 99.194
1331.645, 9.911
1332.845, 56.961
1334.045, 71.785
1335.245, 78.873
1336.445, 24.838
1337.644, 3.217
1338.843, 71.049
1340.042, 52.713
1341.241, 4.461
1342.440, 14.858
1343.638, 36.858
1344.836, 10.438
1346.034, 36.250
1347.232, 63.922
1348.430, 16.418
1349.628, 53.223
1350.825, 42.182
1352.022, 33.757
1353.219, 91.829
1354.416, 37.598
1355.613, 39.956
1356.809, 11.498
1358.005, 51.974
1359.202, 15.535
1360.398, 16.969
1361.593, 11.488
1362.789, 20.978
1363.984, 28.567
1365.179, 18.873
1366.374, 71.302
1367.569, 10.826
1368.764, 22.872
1369.958, 69.599
1371.153, 1.008
1372.347, 65.629
1373.541, 31.042
1374.735, 23.639
1375.928, 63.408
1377.122, 51.209
1378.315, 48.376
1379.508, 178.535
1380.701, 94.669
1381.893, 30.811
1383.086, 157.943
1384.278, 46.064
1385.470, 191.170
1386.662, 99.268
1387.854, 59.355
1389.046, 86.431
1390.237, 14.504
1391.428, 59.536
1392.619, 160.576
1393.810, 57.608
1395.001, 77.407
1396.191, 74.364
1397.382, 25.349
1398.572, 91.157
1399.762, 74.117
1400.952, 29.066
1402.141, 86.006
1403.331, 62.229
1404.520, 95.640
1405.709, 123.428
1406.898, 16.330
1408.087, 66.223
1409.275, 78.110
1410.464, 13.010
1411.652, 168.863
1412.840, 120.729
1414.028, 8.591
1415.215, 220.446
1416.403, 59.296
1417.590, 129.136
1418.777, 202.955
1419.964, 59.740
1421.151, 106.791
1422.338, 161.675
1423.524, 136.707
1424.710, 199.893
1425.896, 193.175
1427.082, 221.375
1428.268, 257.431
1429.453, 171.857
1430.639, 248.807
1431.824, 254.747
1433.009, 196.061
1434.194, 359.603
1435.378, 392.292
1436.563, 340.149
1437.747, 518.382
1438.931, 475.463
1440.115, 559.810
1441.299, 834.676
1442.482, 609.605
1443.666, 733.296
1444.849, 813.066
1446.032, 777.126
1447.215, 980.905
1448.397, 931.432
1449.580, 818.995
1450.762, 1051.574
1451.944, 944.565
1453.126, 817.354
1454.308, 1018.520
1455.490, 930.925
1456.671, 836.779
1457.852, 928.035
1459.033, 750.082
1460.214, 863.397
1461.395, 784.679
1462.575, 681.834
1463.756, 764.556
1464.936, 638.261
1466.116, 528.933
1467.296, 527.622
1468.475, 432.369
1469.655, 449.168
1470.834, 430.011
1472.013, 353.874
1473.192, 450.694
1474.371, 377.431
1475.550, 379.077
1476.728, 341.668
1477.906, 302.216
1479.084, 223.712
1480.262, 407.392
1481.440, 247.159
1482.617, 294.018
1483.795, 337.975
1484.972, 264.976
1486.149, 194.016
1487.326, 209.093
1488.502, 181.201
1489.679, 120.349
1490.855, 141.576
1492.031, 108.924
1493.207, 150.405
1494.383, 58.016
1495.559, 0.236
1496.734, 65.684
1497.909, 147.832
1499.084, 30.256
1500.259, 54.282
1501.434, 16.493
1502.608, 5.162
1503.783, 0.000
##END=



