##NAMES=Danburite
##RRUFFID=R040013
##IDEAL CHEMISTRY=CaB_2_Si_2_O_8_
##LOCALITY=Charcas, San Luis Potosi, Mexico
##OWNER=RRUFF
##SOURCE=Marcus Origlieri
##DESCRIPTION=Colorless prismatic single crystal
##STATUS=The identification of this mineral has been confirmed by X-ray diffraction and chemical analysis
##URL=rruff.info/R040013
##MEASURED CHEMISTRY=Ca_1.00_B_2.00_Si_2.00_O_8_
##PIN_ID=M00010
##ORIENTATION=Laser parallel to a* (1 0 0). Fiducial mark perpendicular to laser is parallel to b [0 1 0]
115.775, 0.000
117.166, 0.134
118.556, 109.990
119.947, 269.135
121.337, 503.743
122.727, 622.930
124.116, 567.684
125.506, 302.243
126.895, 144.506
128.284, 47.759
129.673, 32.778
131.062, 1.498
132.450, 1.891
133.838, 38.318
135.226, 55.302
136.614, 93.268
138.001, 59.753
139.388, 62.282
140.775, 11.849
142.162, 18.553
143.549, 21.928
144.935, 23.278
146.321, 20.391
147.707, 76.079
149.093, 166.786
150.478, 203.521
151.863, 136.287
153.248, 59.081
154.633, 41.911
156.018, 46.774
157.402, 50.673
158.786, 139.609
160.170, 317.551
161.554, 482.496
162.937, 823.442
164.320, 1121.389
165.703, 1019.337
167.086, 721.284
168.469, 639.231
169.851, 745.178
171.233, 1077.124
172.615, 1721.069
173.996, 2976.014
175.378, 5292.957
176.759, 8754.897
178.140, 15023.837
179.521, 22012.773
180.901, 23701.742
182.281, 18010.779
183.662, 9929.899
185.041, 5123.080
186.421, 2881.258
187.800, 2059.427
189.180, 1711.583
190.558, 1656.848
191.937, 1517.297
193.316, 1114.507
194.694, 747.004
196.072, 532.167
197.450, 470.323
198.827, 432.525
200.205, 566.878
201.582, 631.602
202.959, 852.069
204.336, 985.117
205.712, 1128.135
207.088, 1421.147
208.465, 1803.156
209.840, 1952.159
211.216, 1523.158
212.591, 938.154
213.967, 499.146
215.341, 276.134
216.716, 169.120
218.091, 158.102
219.465, 140.081
220.839, 287.057
222.213, 433.031
223.586, 716.001
224.960, 840.968
226.333, 744.933
227.706, 437.894
229.079, 211.853
230.451, 129.808
231.823, 148.760
233.195, 223.710
234.567, 326.656
235.939, 525.598
237.310, 940.538
238.682, 1586.474
240.052, 2739.407
241.423, 4152.338
242.794, 5925.265
244.164, 6470.123
245.534, 5310.971
246.904, 3660.186
248.274, 2226.833
249.643, 1454.150
251.012, 978.718
252.381, 717.476
253.750, 539.314
255.118, 425.276
256.487, 309.096
257.855, 204.125
259.223, 173.005
260.590, 131.866
261.958, 99.642
263.325, 77.415
264.692, 38.186
266.059, 46.792
267.425, 23.356
268.791, 60.829
270.158, 46.224
271.523, 39.537
272.889, 24.709
274.255, 52.835
275.620, 94.935
276.985, 117.991
278.350, 87.814
279.714, 7.200
281.078, 0.395
282.443, 18.381
283.806, 56.238
285.170, 46.139
286.534, 138.024
287.897, 234.924
289.260, 434.528
290.623, 627.523
291.985, 874.447
293.348, 994.346
294.710, 1003.050
296.072, 756.956
297.433, 508.861
298.795, 391.767
300.156, 373.672
301.517, 425.576
302.878, 575.409
304.239, 831.266
305.599, 1169.142
306.959, 1733.042
308.319, 2418.941
309.679, 3096.839
311.038, 3318.735
312.398, 3063.630
313.757, 2256.523
315.116, 1598.415
316.474, 1080.306
317.833, 748.195
319.191, 505.082
320.549, 391.969
321.907, 309.853
323.264, 263.737
324.622, 284.618
325.979, 270.499
327.336, 281.086
328.692, 296.031
330.049, 314.130
331.405, 339.003
332.761, 346.873
334.117, 390.741
335.473, 485.606
336.828, 671.468
338.183, 925.327
339.538, 1366.182
340.893, 2216.034
342.247, 3577.882
343.602, 5705.727
344.956, 8471.569
346.310, 10168.404
347.663, 9317.234
349.017, 6606.063
350.370, 4091.890
351.723, 2369.713
353.076, 1458.535
354.428, 989.356
355.780, 652.174
357.133, 438.990
358.484, 326.804
359.836, 231.616
361.188, 164.426
362.539, 96.234
363.890, 97.041
365.241, 78.845
366.591, 70.648
367.942, 48.449
369.292, 7.247
370.642, 17.947
371.992, 15.129
373.341, 0.657
374.691, 2.440
376.040, 31.774
377.388, 28.983
378.737, 57.215
380.086, 39.221
381.434, 36.415
382.782, 50.196
384.130, 2.569
385.477, 28.626
386.825, 27.959
388.172, 23.239
389.519, 2.539
390.865, 5.307
392.212, 37.092
393.558, 31.784
394.904, 34.752
396.250, 53.416
397.596, 0.071
398.941, 15.713
400.286, 51.349
401.631, 17.983
402.976, 38.616
404.321, 75.246
405.665, 83.875
407.009, 104.502
408.353, 68.129
409.697, 148.755
411.040, 123.317
412.384, 187.914
413.727, 219.397
415.070, 340.004
416.412, 441.586
417.755, 603.133
419.097, 830.609
420.439, 990.204
421.781, 1219.797
423.122, 1313.389
424.464, 1203.978
425.805, 936.330
427.146, 677.560
428.486, 413.007
429.827, 324.597
431.167, 220.172
432.507, 231.760
433.847, 306.346
435.187, 478.932
436.526, 769.521
437.865, 1120.113
439.204, 1384.709
440.543, 1465.304
441.882, 1179.898
443.220, 754.491
444.558, 498.082
445.896, 334.672
447.234, 181.261
448.572, 145.848
449.909, 113.435
451.246, 87.020
452.583, 108.603
453.919, 206.186
455.256, 292.767
456.592, 391.348
457.928, 461.930
459.264, 414.511
460.600, 339.090
461.935, 315.668
463.270, 280.246
464.605, 334.822
465.940, 390.396
467.274, 487.972
468.609, 663.547
469.943, 1022.121
471.277, 1505.693
472.610, 2442.263
473.944, 4143.833
475.277, 7010.400
476.610, 11339.968
477.943, 15488.532
479.275, 16047.097
480.608, 12435.660
481.940, 7823.221
483.272, 4508.782
484.604, 2774.341
485.935, 1846.899
487.267, 1276.455
488.598, 906.011
489.929, 702.565
491.260, 578.118
492.590, 420.670
493.920, 332.221
495.250, 255.771
496.580, 240.319
497.910, 199.867
499.239, 197.413
500.569, 147.958
501.898, 112.502
503.226, 95.045
504.555, 83.587
505.883, 65.128
507.212, 65.668
508.540, 66.207
509.867, 21.744
511.195, 47.281
512.522, 50.817
513.849, 17.203
515.176, 13.077
516.503, 42.016
517.829, 31.325
519.156, 16.671
520.482, 13.231
521.808, 28.858
523.133, 8.167
524.459, 2.222
525.784, 19.324
527.109, 5.808
528.434, 0.838
529.758, 40.203
531.083, 10.434
532.407, 0.815
533.731, 6.466
535.055, 28.910
536.378, 27.447
537.701, 13.033
539.025, 27.502
540.348, 25.045
541.670, 69.360
542.993, 45.814
544.315, 64.363
545.637, 39.834
546.959, 108.388
548.281, 83.945
549.602, 146.502
550.923, 135.062
552.244, 198.623
553.565, 238.185
554.886, 297.748
556.206, 422.311
557.526, 550.877
558.846, 760.445
560.166, 1047.013
561.486, 1191.582
562.805, 983.152
564.124, 703.721
565.443, 500.291
566.762, 377.860
568.080, 380.430
569.399, 359.001
570.717, 366.574
572.035, 352.147
573.352, 397.720
574.670, 360.293
575.987, 393.867
577.304, 477.440
578.621, 506.013
579.938, 596.586
581.254, 653.158
582.570, 738.731
583.886, 832.324
585.202, 909.897
586.518, 1038.469
587.833, 1191.041
589.148, 1384.613
590.463, 1563.220
591.778, 1748.792
593.093, 2139.363
594.407, 2517.934
595.721, 2967.504
597.035, 3802.075
598.349, 4681.893
599.662, 6111.025
600.976, 8129.596
602.289, 11101.163
603.602, 15779.733
604.914, 22368.357
606.227, 31336.926
607.539, 39675.492
608.851, 42664.633
610.163, 39723.199
611.475, 30731.770
612.786, 23190.338
614.097, 16558.902
615.408, 11847.470
616.719, 9146.034
618.030, 7040.601
619.340, 5895.165
620.651, 5198.729
621.961, 4992.293
623.270, 5377.858
624.580, 5986.420
625.889, 6834.983
627.199, 6683.546
628.507, 5619.107
629.816, 4637.669
631.125, 3423.230
632.433, 2682.791
633.741, 2210.351
635.049, 1788.910
636.357, 1618.469
637.664, 1335.028
638.972, 1179.587
640.279, 1048.144
641.586, 1005.701
642.893, 917.258
644.199, 825.814
645.505, 747.370
646.811, 677.925
648.117, 607.480
649.423, 554.034
650.728, 494.873
652.034, 454.124
653.339, 403.790
654.644, 383.342
655.948, 367.368
657.253, 334.927
658.557, 328.971
659.861, 288.529
661.165, 296.037
662.468, 276.993
663.772, 270.146
665.075, 233.483
666.378, 228.005
667.681, 218.297
668.983, 194.963
670.286, 195.500
671.588, 187.961
672.890, 172.988
674.192, 181.403
675.493, 157.196
676.795, 141.265
678.096, 149.858
679.397, 127.012
680.697, 120.796
681.998, 120.849
683.298, 111.814
684.598, 100.757
685.898, 84.923
687.198, 74.126
688.498, 100.181
689.797, 87.790
691.096, 123.198
692.395, 102.782
693.694, 94.544
694.992, 104.716
696.290, 119.876
697.589, 100.053
698.886, 79.802
700.184, 64.565
701.482, 50.497
702.779, 50.725
704.076, 50.293
705.373, 53.860
706.669, 103.432
707.966, 73.995
709.262, 73.556
710.558, 40.116
711.854, 84.674
713.150, 93.230
714.445, 99.784
715.740, 106.562
717.035, 103.167
718.330, 84.435
719.625, 83.981
720.919, 52.526
722.214, 22.068
723.508, 8.609
724.801, 30.148
726.095, 27.684
727.388, 52.219
728.682, 40.751
729.975, 5.282
731.267, 19.810
732.560, 39.337
733.852, 75.861
735.145, 29.384
736.437, 47.904
737.728, 6.578
739.020, 20.064
740.311, 50.442
741.603, 27.946
742.894, 52.448
744.184, 1.948
745.475, 63.446
746.765, 25.941
748.055, 20.566
749.345, 12.920
750.635, 40.403
751.925, 14.884
753.214, 28.364
754.503, 21.841
755.792, 71.316
757.081, 25.789
758.370, 39.261
759.658, 89.730
760.946, 79.197
762.234, 94.662
763.522, 72.125
764.809, 139.586
766.097, 209.045
767.384, 183.502
768.671, 295.957
769.958, 346.409
771.244, 414.860
772.530, 481.309
773.817, 415.755
775.102, 394.200
776.388, 295.643
777.674, 255.225
778.959, 136.522
780.244, 149.958
781.529, 104.393
782.814, 69.826
784.098, 72.256
785.383, 57.685
786.667, 54.111
787.951, 39.536
789.235, 25.958
790.518, 0.621
791.801, 30.796
793.084, 20.211
794.367, 17.375
795.650, 4.031
796.933, 17.564
798.215, 24.833
799.497, 37.771
800.779, 14.387
802.061, 22.009
803.342, 20.362
804.624, 27.731
805.905, 47.901
807.186, 1.544
808.466, 4.809
809.747, 31.839
811.027, 11.493
812.307, 39.152
813.587, 11.823
814.867, 17.498
816.146, 40.180
817.426, 33.874
818.705, 5.577
819.984, 17.284
821.263, 13.548
822.541, 12.717
823.819, 22.442
825.098, 24.174
826.375, 17.916
827.653, 2.337
828.931, 33.413
830.208, 35.827
831.485, 5.936
832.762, 5.701
834.039, 7.529
835.315, 24.243
836.592, 6.023
837.868, 6.806
839.144, 28.406
840.420, 1.617
841.695, 25.826
842.970, 16.033
844.246, 3.238
845.521, 13.441
846.795, 56.643
848.070, 81.843
849.344, 27.041
850.618, 76.238
851.892, 64.433
853.166, 43.626
854.440, 44.818
855.713, 45.468
856.986, 66.197
858.259, 58.384
859.532, 84.570
860.804, 83.755
862.077, 102.917
863.349, 121.099
864.621, 81.278
865.893, 134.457
867.164, 113.635
868.436, 141.775
869.707, 179.950
870.978, 161.124
872.248, 178.031
873.519, 179.467
874.789, 155.637
876.060, 141.559
877.330, 96.165
878.599, 79.332
879.869, 112.498
881.138, 110.663
882.408, 150.772
883.677, 125.935
884.945, 137.097
886.214, 181.686
887.482, 146.847
888.751, 239.007
890.019, 241.167
891.287, 253.326
892.554, 306.484
893.822, 332.642
895.089, 403.800
896.356, 436.957
897.623, 443.114
898.889, 451.270
900.156, 444.924
901.422, 439.257
902.688, 407.737
903.954, 403.892
905.220, 376.047
906.485, 333.202
907.750, 363.356
909.015, 324.511
910.280, 321.666
911.545, 349.820
912.809, 366.974
914.074, 372.129
915.338, 400.283
916.602, 376.438
917.865, 407.593
919.129, 392.747
920.392, 400.902
921.655, 369.058
922.918, 349.793
924.181, 319.369
925.443, 295.525
926.706, 248.681
927.968, 231.741
929.230, 177.897
930.491, 123.055
931.753, 142.728
933.014, 139.856
934.276, 142.528
935.536, 161.687
936.797, 161.891
938.058, 222.643
939.318, 207.219
940.578, 221.383
941.838, 295.547
943.098, 350.527
944.358, 440.586
945.617, 515.732
946.876, 572.091
948.135, 567.925
949.394, 532.119
950.653, 494.950
951.911, 454.591
953.169, 396.400
954.427, 350.157
955.685, 300.146
956.943, 249.865
958.200, 262.675
959.458, 227.507
960.715, 254.116
961.971, 205.689
963.228, 281.411
964.485, 286.579
965.741, 335.950
966.997, 449.146
968.253, 623.164
969.508, 836.192
970.764, 1064.394
972.019, 1077.999
973.274, 1053.033
974.529, 820.052
975.784, 652.263
977.039, 516.460
978.293, 370.676
979.547, 325.895
980.801, 299.109
982.055, 302.332
983.308, 280.558
984.562, 202.786
985.815, 205.017
987.068, 239.250
988.321, 179.486
989.573, 236.724
990.826, 207.965
992.078, 225.209
993.330, 215.456
994.582, 247.704
995.833, 249.956
997.085, 250.210
998.336, 258.468
999.587, 264.728
1000.838, 256.990
1002.088, 218.256
1003.339, 215.524
1004.589, 165.796
1005.839, 179.073
1007.089, 174.352
1008.339, 144.634
1009.588, 117.921
1010.838, 113.210
1012.087, 133.503
1013.336, 69.806
1014.584, 100.112
1015.833, 56.425
1017.081, 59.741
1018.330, 96.062
1019.577, 133.393
1020.825, 122.726
1022.073, 165.831
1023.320, 137.416
1024.567, 196.770
1025.814, 161.133
1027.061, 124.500
1028.308, 140.875
1029.554, 156.255
1030.800, 110.640
1032.046, 109.027
1033.292, 86.417
1034.538, 118.812
1035.783, 120.209
1037.029, 122.611
1038.274, 205.017
1039.519, 219.432
1040.763, 195.850
1042.008, 136.275
1043.252, 99.703
1044.496, 64.135
1045.740, 73.570
1046.984, 60.010
1048.228, 95.454
1049.471, 63.901
1050.714, 83.353
1051.957, 26.807
1053.200, 59.265
1054.442, 50.727
1055.685, 55.191
1056.927, 67.658
1058.169, 69.128
1059.411, 75.601
1060.652, 105.078
1061.894, 149.557
1063.135, 74.040
1064.376, 108.526
1065.617, 123.015
1066.858, 57.511
1068.098, 109.011
1069.339, 136.515
1070.579, 93.023
1071.819, 185.902
1073.058, 145.423
1074.298, 220.951
1075.537, 216.483
1076.776, 255.017
1078.015, 247.562
1079.254, 270.110
1080.493, 295.663
1081.731, 315.223
1082.969, 346.085
1084.207, 394.360
1085.445, 414.938
1086.683, 416.522
1087.920, 466.113
1089.157, 541.711
1090.394, 617.313
1091.631, 729.934
1092.868, 734.545
1094.105, 969.162
1095.341, 1049.785
1096.577, 1146.415
1097.813, 1404.048
1099.049, 1527.975
1100.284, 1770.618
1101.519, 1983.265
1102.755, 2082.916
1103.990, 2371.569
1105.224, 2339.226
1106.459, 2318.889
1107.693, 2265.556
1108.928, 2099.226
1110.162, 1925.899
1111.395, 1699.575
1112.629, 1499.253
1113.863, 1358.933
1115.096, 1145.617
1116.329, 1002.302
1117.562, 928.990
1118.795, 828.681
1120.027, 790.374
1121.259, 724.069
1122.492, 663.766
1123.723, 584.465
1124.955, 539.167
1126.187, 461.871
1127.418, 443.577
1128.649, 355.285
1129.880, 359.995
1131.111, 326.707
1132.342, 268.421
1133.572, 204.178
1134.802, 184.896
1136.033, 230.616
1137.262, 180.575
1138.492, 223.520
1139.722, 149.245
1140.951, 129.018
1142.180, 108.979
1143.409, 122.709
1144.638, 94.440
1145.866, 94.909
1147.095, 124.643
1148.323, 37.351
1149.551, 96.087
1150.779, 54.106
1152.006, 31.163
1153.234, 46.902
1154.461, 38.014
1155.688, 37.839
1156.915, 47.027
1158.141, 40.951
1159.368, 25.124
1160.594, 51.731
1161.820, 55.865
1163.046, 89.811
1164.272, 46.622
1165.498, 85.437
1166.723, 108.195
1167.948, 91.000
1169.173, 211.468
1170.398, 173.689
1171.623, 163.128
1172.847, 178.923
1174.071, 111.244
1175.295, 130.164
1176.519, 170.909
1177.743, 141.710
1178.966, 117.914
1180.190, 64.657
1181.413, 67.802
1182.636, 53.560
1183.858, 63.345
1185.081, 56.131
1186.303, 54.872
1187.526, 54.636
1188.748, 48.982
1189.969, 83.114
1191.191, 54.852
1192.412, 36.588
1193.634, 67.324
1194.855, 97.076
1196.076, 89.518
1197.296, 25.648
1198.517, 90.623
1199.737, 56.354
1200.957, 40.083
1202.177, 43.914
1203.397, 18.359
1204.617, 22.405
1205.836, 70.445
1207.055, 63.205
1208.274, 37.922
1209.493, 18.065
1210.712, 33.815
1211.930, 18.720
1213.148, 40.538
1214.367, 27.282
1215.584, 46.195
1216.802, 14.968
1218.020, 56.795
1219.237, 86.496
1220.454, 25.194
1221.671, 79.904
1222.888, 4.599
1224.105, 37.414
1225.321, 24.156
1226.537, 24.985
1227.753, 21.718
1228.969, 33.400
1230.185, 11.853
1231.400, 17.875
1232.616, 41.558
1233.831, 18.370
1235.046, 73.038
1236.261, 57.703
1237.475, 57.617
1238.689, 24.277
1239.904, 27.048
1241.118, 72.702
1242.332, 43.444
1243.545, 74.100
1244.759, 78.790
1245.972, 19.492
1247.185, 62.158
1248.398, 123.892
1249.611, 18.528
1250.823, 64.161
1252.036, 33.896
1253.248, 110.526
1254.460, 62.155
1255.671, 60.834
1256.883, 51.459
1258.095, 78.134
1259.306, 29.753
1260.517, 77.370
1261.728, 56.984
1262.938, 23.592
1264.149, 9.274
1265.359, 32.864
1266.569, 28.449
1267.779, 7.024
1268.989, 12.350
1270.199, 48.201
1271.408, 9.787
1272.617, 4.671
1273.826, 64.976
1275.035, 36.502
1276.244, 25.981
1277.452, 30.528
1278.661, 35.970
1279.869, 23.523
1281.077, 5.989
1282.285, 50.506
1283.492, 26.968
1284.700, 9.563
1285.907, 40.098
1287.114, 12.573
1288.321, 44.092
1289.527, 11.654
1290.734, 30.222
1291.940, 9.801
1293.146, 1.542
1294.352, 10.056
1295.558, 9.456
1296.763, 21.849
1297.969, 12.237
1299.174, 9.380
1300.379, 4.605
1301.584, 32.632
1302.788, 6.272
1303.993, 16.919
1305.197, 0.426
1306.401, 31.765
1307.605, 14.097
1308.809, 11.577
1310.013, 45.741
1311.216, 0.947
1312.419, 1.640
1313.622, 24.659
1314.825, 17.951
1316.028, 62.238
1317.230, 22.520
1318.432, 28.795
1319.634, 60.064
1320.836, 43.327
1322.038, 55.584
1323.240, 31.836
1324.441, 25.081
1325.642, 24.320
1326.843, 10.554
1328.044, 1.218
1329.245, 78.004
1330.445, 35.221
1331.645, 8.433
1332.845, 64.638
1334.045, 20.474
1335.245, 4.332
1336.445, 20.854
1337.644, 37.036
1338.843, 8.789
1340.042, 22.380
1341.241, 1.543
1342.440, 8.701
1343.638, 22.852
1344.836, 0.998
1346.034, 16.138
1347.232, 7.273
1348.430, 33.402
1349.628, 35.526
1350.825, 28.143
1352.022, 52.761
1353.219, 7.858
1354.416, 19.963
1355.613, 6.062
1356.809, 21.158
1358.005, 50.248
1359.202, 17.334
1360.398, 20.127
1361.593, 29.204
1362.789, 6.278
1363.984, 36.594
1365.179, 57.660
1366.374, 0.277
1367.569, 43.887
1368.764, 9.943
1369.958, 47.997
1371.153, 13.020
1372.347, 31.019
1373.541, 22.997
1374.735, 20.179
1375.928, 26.889
1377.122, 12.271
1378.315, 49.646
1379.508, 45.014
1380.701, 12.376
1381.893, 55.732
1383.086, 47.081
1384.278, 23.424
1385.470, 123.716
1386.662, 23.984
1387.854, 82.863
1389.046, 70.863
1390.237, 64.165
1391.428, 40.624
1392.619, 16.787
1393.810, 63.191
1395.001, 78.993
1396.191, 53.402
1397.382, 16.667
1398.572, 59.316
1399.762, 21.137
1400.952, 67.172
1402.141, 7.733
1403.331, 53.296
1404.520, 54.225
1405.709, 56.068
1406.898, 28.448
1408.087, 34.205
1409.275, 70.907
1410.464, 27.869
1411.652, 75.849
1412.840, 60.855
1414.028, 40.853
1415.215, 12.790
1416.403, 20.292
1417.590, 59.261
1418.777, 96.067
1419.964, 77.472
1421.151, 26.349
1422.338, 20.554
1423.524, 60.990
1424.710, 58.497
1425.896, 71.067
1427.082, 70.938
1428.268, 64.777
1429.453, 71.327
1430.639, 112.835
1431.824, 61.540
1433.009, 57.240
1434.194, 160.782
1435.378, 84.097
1436.563, 152.648
1437.747, 155.222
1438.931, 93.855
1440.115, 122.404
1441.299, 145.904
1442.482, 199.361
1443.666, 147.998
1444.849, 114.494
1446.032, 152.962
1447.215, 171.520
1448.397, 152.890
1449.580, 175.469
1450.762, 187.931
1451.944, 172.484
1453.126, 164.840
1454.308, 189.508
1455.490, 131.184
1456.671, 169.862
1457.852, 193.526
1459.033, 172.172
1460.214, 205.501
1461.395, 137.115
1462.575, 128.713
1463.756, 150.240
1464.936, 105.868
1466.116, 82.485
1467.296, 59.102
1468.475, 70.715
1469.655, 111.334
1470.834, 100.961
1472.013, 72.590
1473.192, 124.227
1474.371, 42.871
1475.550, 115.526
1476.728, 25.196
1477.906, 112.881
1479.084, 56.583
1480.262, 78.288
1481.440, 53.994
1482.617, 66.725
1483.795, 56.472
1484.972, 46.236
1486.149, 30.017
1487.326, 34.819
1488.502, 31.645
1489.679, 109.499
1490.855, 2.619
1492.031, 43.297
1493.207, 70.252
1494.383, 7.253
1495.559, 81.309
1496.734, 56.428
1497.909, 31.737
1499.084, 61.113
1500.259, 44.206
1501.434, 1.675
1502.608, 0.000
##END=



