##NAMES=Datolite
##RRUFFID=R050136
##IDEAL CHEMISTRY=CaB(SiO_4_)(OH)
##LOCALITY=Charcas, San Luis Potosi, Mexico
##OWNER=RRUFF
##SOURCE=Dave Bunk Minerals
##DESCRIPTION=Pale green tabular crystals
##STATUS=The identification of this mineral has been confirmed by X-ray diffraction and chemical analysis
##URL=rruff.info/R050136
##MEASURED CHEMISTRY=Ca_1.00_BSi_1.00_O_4_(OH) ; trace amounts of Fe; B and OH estimated by stoichiometry end charge balance
##PIN_ID=L00284
##ORIENTATION=Laser parallel to -b* (0 -1 0). Fiducial mark perpendicular to laser is parallel to c [0 0 1]
90.650, 0.000
92.046, 5.120
93.442, 49.378
94.838, 129.287
96.233, 183.191
97.628, 359.192
99.023, 384.375
100.418, 420.830
101.812, 324.287
103.206, 440.848
104.600, 407.806
105.994, 450.607
107.387, 529.810
108.781, 438.064
110.174, 564.130
111.566, 565.896
112.959, 618.204
114.351, 545.842
115.744, 538.625
117.136, 534.403
118.527, 414.055
119.919, 476.528
121.310, 396.683
122.701, 466.453
124.092, 419.788
125.482, 350.654
126.873, 486.005
128.263, 516.910
129.653, 755.964
131.042, 898.709
132.432, 1231.045
133.821, 1278.973
135.210, 988.094
136.599, 691.339
137.987, 376.704
139.376, 411.185
140.764, 331.779
142.152, 411.481
143.539, 300.290
144.927, 329.204
146.314, 523.219
147.701, 655.124
149.088, 1155.317
150.474, 1682.607
151.861, 2681.990
153.247, 3201.465
154.633, 2763.029
156.018, 1997.763
157.404, 1348.774
158.789, 1407.909
160.174, 1668.113
161.559, 2841.400
162.943, 4869.759
164.327, 6705.182
165.711, 7014.212
167.095, 4141.019
168.479, 2191.406
169.862, 1246.072
171.246, 1126.475
172.628, 1243.680
174.011, 1927.843
175.394, 3178.975
176.776, 3906.316
178.158, 3765.417
179.540, 2192.536
180.922, 1220.720
182.303, 638.982
183.684, 314.284
185.065, 383.628
186.446, 156.018
187.826, 269.456
189.207, 257.943
190.587, 486.480
191.967, 561.066
193.346, 430.705
194.726, 343.394
196.105, 295.827
197.484, 186.923
198.862, 141.762
200.241, 119.649
201.619, 101.582
202.997, 20.438
204.375, 190.594
205.753, 93.669
207.130, 232.788
208.507, 257.949
209.884, 453.151
211.261, 698.395
212.638, 994.674
214.014, 2086.989
215.390, 3535.352
216.766, 6141.776
218.141, 7316.251
219.517, 5770.181
220.892, 3363.392
222.267, 1589.417
223.642, 1003.522
225.016, 544.161
226.391, 419.858
227.765, 371.595
229.139, 371.354
230.512, 504.576
231.886, 239.550
233.259, 283.457
234.632, 64.387
236.005, 26.334
237.377, 100.298
238.749, 83.721
240.122, 4.726
241.493, 141.715
242.865, 34.692
244.237, 58.654
245.608, 100.605
246.979, 68.593
248.350, 45.393
249.720, 30.584
251.090, 103.348
252.461, 12.072
253.830, 29.024
255.200, 119.704
256.570, 26.519
257.939, 88.879
259.308, 42.404
260.677, 32.919
262.045, 30.928
263.414, 58.321
264.782, 43.794
266.150, 224.460
267.517, 266.298
268.885, 467.388
270.252, 574.509
271.619, 955.425
272.986, 1296.777
274.353, 1077.229
275.719, 1076.771
277.085, 662.396
278.451, 594.097
279.817, 383.866
281.182, 474.700
282.548, 680.593
283.913, 874.540
285.278, 1500.539
286.642, 2220.586
288.007, 3991.678
289.371, 6444.812
290.735, 9119.989
292.099, 10725.206
293.462, 8860.478
294.826, 6305.776
296.189, 3902.101
297.552, 2453.465
298.914, 1682.850
300.277, 1043.256
301.639, 961.681
303.001, 552.344
304.363, 923.596
305.724, 369.080
307.086, 318.585
308.447, 398.106
309.808, 226.645
311.168, 285.198
312.529, 225.762
313.889, 279.341
315.249, 185.296
316.609, 165.903
317.969, 248.522
319.328, 152.156
320.687, 424.800
322.046, 251.456
323.405, 449.121
324.764, 655.796
326.122, 792.480
327.480, 1535.173
328.838, 2008.875
330.196, 2884.561
331.553, 3565.198
332.910, 3621.800
334.267, 3380.400
335.624, 2038.978
336.981, 1426.554
338.337, 701.472
339.693, 477.001
341.049, 315.250
342.405, 120.968
343.760, 134.876
345.116, 0.483
346.471, 2.040
347.826, 68.329
349.180, 47.025
350.535, 22.343
351.889, 23.972
353.243, 24.409
354.597, 19.851
355.950, 76.708
357.304, 64.927
358.657, 38.640
360.010, 171.215
361.362, 84.287
362.715, 142.871
364.067, 117.550
365.419, 109.143
366.771, 170.868
368.123, 16.809
369.474, 136.409
370.825, 29.462
372.176, 276.067
373.527, 353.674
374.877, 565.706
376.228, 1077.317
377.578, 1166.930
378.928, 1453.543
380.277, 1188.157
381.627, 794.772
382.976, 690.379
384.325, 425.970
385.674, 502.541
387.023, 441.090
388.371, 731.638
389.719, 918.186
391.067, 1054.733
392.415, 1038.216
393.762, 950.820
395.110, 789.359
396.457, 519.897
397.804, 256.433
399.150, 324.965
400.497, 43.504
401.843, 198.551
403.189, 138.988
404.535, 74.519
405.881, 104.258
407.226, 31.796
408.571, 127.470
409.916, 3.933
411.261, 22.231
412.605, 56.682
413.950, 70.557
415.294, 48.792
416.638, 59.528
417.981, 104.512
419.325, 57.012
420.668, 101.081
422.011, 280.890
423.354, 193.869
424.697, 256.452
426.039, 129.844
427.381, 72.240
428.723, 93.639
430.065, 17.959
431.406, 75.423
432.748, 27.193
434.089, 98.166
435.430, 68.524
436.770, 110.882
438.111, 232.238
439.451, 145.592
440.791, 355.944
442.131, 182.293
443.471, 284.639
444.810, 395.982
446.149, 323.322
447.488, 550.942
448.827, 917.195
450.166, 1146.523
451.504, 1718.869
452.842, 2567.187
454.180, 4385.074
455.518, 6285.404
456.855, 8440.728
458.193, 8629.252
459.530, 6334.575
460.867, 4493.459
462.203, 2529.827
463.540, 1869.866
464.876, 1074.461
466.212, 828.844
467.548, 749.060
468.883, 414.452
470.219, 513.835
471.554, 275.212
472.889, 180.593
474.224, 200.029
475.558, 38.405
476.892, 205.768
478.227, 86.123
479.561, 211.472
480.894, 109.813
482.228, 71.156
483.561, 161.521
484.894, 202.876
486.227, 337.249
487.559, 268.612
488.892, 510.966
490.224, 655.310
491.556, 454.646
492.888, 510.992
494.220, 184.329
495.551, 197.660
496.882, 144.983
498.213, 4.703
499.544, 185.580
500.874, 10.146
502.205, 60.095
503.535, 51.324
504.865, 14.460
506.194, 105.150
507.524, 7.803
508.853, 24.947
510.182, 37.202
511.511, 67.359
512.840, 89.833
514.168, 1.029
515.496, 88.273
516.824, 4.272
518.152, 3.754
519.480, 123.190
520.807, 8.125
522.134, 101.036
523.461, 64.938
524.788, 122.829
526.114, 46.710
527.441, 53.421
528.767, 100.041
530.093, 23.157
531.418, 94.516
532.744, 108.268
534.069, 47.009
535.394, 624.736
536.719, 438.454
538.044, 481.161
539.368, 144.858
540.693, 391.546
542.017, 576.225
543.340, 344.892
544.664, 633.550
545.987, 832.197
547.311, 1120.834
548.634, 1625.462
549.956, 2110.079
551.279, 3246.686
552.601, 4129.282
553.923, 4281.871
555.245, 4142.447
556.567, 2828.014
557.889, 2266.571
559.210, 1471.116
560.531, 1035.725
561.852, 1046.262
563.173, 505.789
564.493, 571.328
565.813, 346.861
567.133, 289.358
568.453, 246.893
569.773, 98.396
571.092, 239.605
572.412, 27.116
573.731, 57.525
575.049, 178.023
576.368, 71.947
577.686, 55.502
579.005, 18.060
580.323, 36.359
581.640, 34.764
582.958, 73.159
584.275, 124.236
585.593, 96.929
586.909, 260.300
588.226, 357.662
589.543, 487.912
590.859, 746.255
592.175, 715.916
593.491, 946.241
594.807, 829.556
596.122, 664.862
597.438, 708.159
598.753, 405.446
600.068, 625.726
601.382, 361.995
602.697, 302.333
604.011, 344.584
605.325, 47.827
606.639, 225.138
607.952, 82.359
609.266, 9.572
610.579, 178.765
611.892, 50.051
613.205, 164.417
614.518, 82.543
615.830, 24.846
617.142, 144.231
618.454, 31.299
619.766, 98.695
621.078, 36.738
622.389, 64.537
623.700, 122.932
625.011, 35.934
626.322, 223.351
627.632, 145.325
628.943, 148.288
630.253, 273.012
631.563, 89.953
632.872, 208.038
634.182, 170.593
635.491, 158.500
636.800, 281.800
638.109, 180.686
639.418, 349.019
640.726, 251.645
642.035, 374.497
643.343, 488.173
644.651, 335.002
645.958, 590.820
647.266, 446.626
648.573, 629.421
649.880, 687.609
651.187, 764.381
652.494, 1075.714
653.800, 1057.463
655.106, 1125.200
656.412, 1204.553
657.718, 979.268
659.024, 1290.244
660.329, 1051.752
661.634, 1304.068
662.939, 1495.685
664.244, 1659.351
665.549, 2073.282
666.853, 1965.855
668.157, 2104.842
669.461, 2010.232
670.765, 1728.883
672.069, 1748.535
673.372, 1619.184
674.675, 1674.169
675.978, 1801.658
677.281, 1864.282
678.583, 2328.405
679.886, 2591.012
681.188, 3355.521
682.490, 4207.112
683.792, 5300.293
685.093, 7638.529
686.394, 10382.101
687.696, 15932.211
688.997, 24975.768
690.297, 35369.320
691.598, 49522.438
692.898, 50645.969
694.198, 44189.512
695.498, 33483.199
696.798, 21576.711
698.097, 15310.224
699.397, 10453.724
700.696, 7497.220
701.995, 5970.711
703.293, 4324.193
704.592, 3695.670
705.890, 2832.140
707.188, 2285.603
708.486, 2089.061
709.784, 1554.513
711.081, 1656.958
712.378, 1206.398
713.675, 1076.833
714.972, 1101.262
716.269, 758.685
717.565, 956.119
718.862, 660.549
720.158, 761.973
721.453, 629.392
722.749, 522.805
724.045, 677.226
725.340, 399.642
726.635, 491.059
727.930, 487.471
729.224, 308.094
730.519, 443.364
731.813, 242.800
733.107, 486.182
734.401, 322.516
735.694, 185.276
736.988, 443.321
738.281, 267.334
739.574, 243.812
740.867, 310.287
742.160, 123.757
743.452, 297.226
744.744, 139.690
746.036, 166.162
747.328, 300.629
748.620, 67.106
749.911, 180.800
751.202, 198.048
752.493, 150.514
753.784, 161.976
755.075, 35.435
756.365, 210.891
757.655, 23.344
758.945, 70.792
760.235, 141.238
761.525, 21.475
762.814, 153.914
764.103, 89.350
765.392, 113.759
766.681, 180.190
767.969, 75.956
769.258, 210.423
770.546, 31.199
771.834, 22.958
773.122, 105.308
774.409, 205.911
775.697, 103.323
776.984, 54.124
778.271, 64.151
779.558, 68.006
780.844, 81.680
782.131, 93.427
783.417, 101.533
784.703, 40.362
785.989, 131.717
787.274, 31.268
788.560, 89.790
789.845, 112.850
791.130, 4.091
792.415, 99.962
793.699, 37.984
794.983, 106.954
796.268, 123.018
797.552, 93.010
798.835, 100.911
800.119, 46.833
801.402, 9.755
802.686, 140.678
803.969, 72.398
805.251, 141.488
806.534, 11.625
807.816, 6.256
809.098, 89.138
810.380, 66.021
811.662, 275.940
812.944, 122.899
814.225, 92.968
815.506, 316.043
816.787, 95.123
818.068, 268.219
819.349, 201.316
820.629, 256.425
821.909, 580.542
823.189, 393.665
824.469, 764.817
825.749, 944.972
827.028, 838.140
828.307, 1203.311
829.586, 724.492
830.865, 677.687
832.144, 707.885
833.422, 270.094
834.700, 457.305
835.978, 201.521
837.256, 200.741
838.534, 226.966
839.811, 168.218
841.088, 218.475
842.365, 161.751
843.642, 160.031
844.919, 213.314
846.195, 59.604
847.472, 279.899
848.748, 6.802
850.023, 94.499
851.299, 335.804
852.575, 128.114
853.850, 482.429
855.125, 415.748
856.400, 408.073
857.674, 671.402
858.949, 436.737
860.223, 783.076
861.497, 795.420
862.771, 801.770
864.045, 1158.125
865.318, 944.485
866.591, 1082.852
867.864, 1261.224
869.137, 1091.602
870.410, 1559.984
871.682, 1563.374
872.955, 1966.770
874.227, 2536.171
875.499, 2772.578
876.770, 3554.991
878.042, 3978.411
879.313, 4411.838
880.584, 4795.271
881.855, 4381.468
883.126, 4434.917
884.396, 4049.101
885.667, 3370.371
886.937, 3334.122
888.207, 2594.862
889.476, 2433.383
890.746, 2127.913
892.015, 1784.765
893.284, 1891.310
894.553, 1470.860
895.822, 1516.753
897.090, 1612.316
898.359, 1204.939
899.627, 1570.515
900.895, 1512.097
902.163, 1436.686
903.430, 1945.280
904.698, 1772.883
905.965, 2198.491
907.232, 2512.106
908.499, 2852.728
909.765, 3871.356
911.032, 4424.913
912.298, 5988.555
913.564, 8262.204
914.830, 10165.780
916.095, 12889.443
917.361, 13223.116
918.626, 12796.800
919.891, 11440.488
921.156, 8648.870
922.420, 6922.598
923.685, 5513.834
924.949, 4237.589
926.213, 3931.352
927.477, 2941.782
928.740, 3085.564
930.004, 2825.584
931.267, 2712.008
932.530, 3138.820
933.793, 2837.214
935.056, 2758.049
936.318, 2924.896
937.581, 2376.979
938.843, 2436.846
940.104, 2033.568
941.366, 1782.457
942.628, 1576.356
943.889, 1395.862
945.150, 1543.782
946.411, 1463.255
947.672, 1354.434
948.932, 1482.389
950.193, 1128.520
951.453, 1315.499
952.713, 1160.489
953.973, 995.493
955.232, 1080.507
956.491, 909.129
957.751, 947.167
959.010, 885.646
960.268, 600.710
961.527, 982.786
962.785, 753.089
964.044, 720.794
965.302, 991.436
966.559, 626.241
967.817, 964.401
969.075, 869.602
970.332, 906.813
971.589, 1219.035
972.846, 1148.290
974.102, 1444.555
975.359, 1756.831
976.615, 1964.118
977.871, 2740.414
979.127, 3324.723
980.383, 4279.042
981.638, 6113.369
982.893, 6847.706
984.149, 7101.915
985.404, 7826.411
986.658, 6320.778
987.913, 5465.155
989.167, 3589.541
990.421, 2963.938
991.675, 2325.345
992.929, 1506.770
994.183, 1504.206
995.436, 981.650
996.689, 829.108
997.942, 911.575
999.195, 447.050
1000.448, 657.359
1001.700, 493.854
1002.952, 301.368
1004.204, 481.892
1005.456, 245.425
1006.708, 249.968
1007.959, 309.520
1009.210, 176.081
1010.461, 371.650
1011.712, 160.228
1012.963, 278.815
1014.213, 359.413
1015.464, 144.020
1016.714, 199.666
1017.964, 139.321
1019.214, 12.984
1020.463, 315.665
1021.712, 9.353
1022.962, 89.051
1024.210, 194.764
1025.459, 38.483
1026.708, 292.236
1027.956, 141.997
1029.204, 26.765
1030.452, 174.566
1031.700, 69.624
1032.948, 58.172
1034.195, 24.002
1035.442, -1.805
1036.689, 9.392
1037.936, 36.603
1039.183, 85.182
1040.429, 211.988
1041.676, 38.199
1042.922, 252.607
1044.168, 6.424
1045.413, 11.752
1046.659, 295.074
1047.904, 0.091
1049.149, 252.749
1050.394, 215.599
1051.639, 216.455
1052.884, 408.317
1054.128, 192.187
1055.372, 176.063
1056.616, 406.945
1057.860, 34.836
1059.104, 305.733
1060.347, 300.637
1061.590, 264.550
1062.833, 556.469
1064.076, 488.396
1065.319, 853.329
1066.561, 919.268
1067.803, 1047.213
1069.046, 1703.164
1070.287, 2056.120
1071.529, 2941.104
1072.771, 4836.095
1074.012, 6401.103
1075.253, 9216.116
1076.494, 10271.135
1077.735, 8196.219
1078.975, 6791.303
1080.216, 4536.411
1081.456, 3131.557
1082.696, 2466.708
1083.936, 1629.921
1085.175, 1510.153
1086.415, 1207.390
1087.654, 947.922
1088.893, 890.182
1090.132, 668.456
1091.371, 731.974
1092.609, 770.257
1093.847, 571.546
1095.085, 625.840
1096.323, 345.148
1097.561, 411.059
1098.799, 585.405
1100.036, 271.780
1101.273, 545.684
1102.510, 444.066
1103.747, 273.450
1104.983, 658.923
1106.220, 493.335
1107.456, 325.139
1108.692, 422.792
1109.928, 54.217
1111.163, 91.533
1112.399, 145.149
1113.634, 366.652
1114.869, 12.233
1116.104, 57.883
1117.339, 297.648
1118.573, 496.807
1119.808, 358.927
1121.042, 704.595
1122.276, 555.719
1123.509, 557.256
1124.743, 754.613
1125.976, 303.737
1127.210, 674.599
1128.443, 536.725
1129.675, 373.851
1130.908, 627.283
1132.141, 536.410
1133.373, 439.537
1134.605, 906.015
1135.837, 567.142
1137.068, 812.267
1138.300, 896.893
1139.531, 653.016
1140.762, 953.457
1141.993, 852.798
1143.224, 974.917
1144.455, 1095.953
1145.685, 1056.070
1146.915, 1309.185
1148.145, 1323.493
1149.375, 1202.603
1150.605, 1762.407
1151.834, 1639.511
1153.063, 1830.612
1154.292, 2150.193
1155.521, 1985.287
1156.750, 2390.377
1157.978, 2835.553
1159.207, 2720.636
1160.435, 3656.056
1161.663, 3771.534
1162.891, 4246.604
1164.118, 5119.103
1165.345, 5274.162
1166.573, 6159.217
1167.800, 6976.119
1169.026, 7001.164
1170.253, 8336.634
1171.480, 7932.843
1172.706, 7957.870
1173.932, 7968.585
1175.158, 6663.598
1176.383, 6188.604
1177.609, 5419.416
1178.834, 4064.408
1180.059, 3977.676
1181.284, 3027.719
1182.509, 2431.963
1183.734, 2353.678
1184.958, 1706.739
1186.182, 1587.451
1187.406, 1550.523
1188.630, 970.457
1189.854, 1083.066
1191.077, 760.663
1192.301, 720.571
1193.524, 743.417
1194.747, 545.580
1195.969, 765.410
1197.192, 714.926
1198.414, 602.792
1199.636, 880.649
1200.858, 515.683
1202.080, 716.522
1203.302, 839.354
1204.523, 365.632
1205.744, 806.444
1206.966, 580.509
1208.186, 409.840
1209.407, 754.623
1210.628, 412.724
1211.848, 390.583
1213.068, 622.337
1214.288, 278.155
1215.508, 420.890
1216.727, 499.660
1217.947, 323.374
1219.166, 488.077
1220.385, 306.972
1221.604, 291.653
1222.822, 463.325
1224.041, 262.256
1225.259, 316.905
1226.477, 362.548
1227.695, 183.393
1228.913, 482.014
1230.130, 287.501
1231.348, 219.523
1232.565, 519.114
1233.782, 79.997
1234.999, 209.689
1236.215, 298.235
1237.432, 91.988
1238.648, 239.520
1239.864, 160.040
1241.080, 154.862
1242.296, 291.366
1243.511, 40.915
1244.726, 255.399
1245.942, 210.875
1247.156, 47.609
1248.371, 388.037
1249.586, 242.420
1250.800, 141.600
1252.014, 391.940
1253.228, 70.271
1254.442, 109.101
1255.656, 276.407
1256.869, 37.187
1258.083, 242.885
1259.296, 110.559
1260.509, 1.964
1261.722, 350.524
1262.934, 99.271
1264.147, 128.107
1265.359, 165.262
1266.571, 65.255
1267.783, 212.068
1268.994, 42.155
1270.206, 86.232
1271.417, 264.297
1272.628, 15.309
1273.839, 236.039
1275.050, 283.018
1276.260, 72.977
1277.471, 181.609
1278.681, 177.514
1279.891, 64.753
1281.101, 401.862
1282.310, 163.627
1283.520, 38.682
1284.729, 345.398
1285.938, 11.902
1287.147, 100.619
1288.356, 193.279
1289.564, 12.924
1290.773, 292.229
1291.981, 210.843
1293.189, 109.441
1294.397, 188.112
1295.604, 17.322
1296.812, 249.216
1298.019, 163.741
1299.226, 47.254
1300.433, 341.750
1301.640, 241.231
1302.846, 139.699
1304.053, 311.383
1305.259, 80.730
1306.465, 66.030
1307.671, 369.310
1308.876, 92.429
1310.082, 349.082
1311.287, 400.277
1312.492, 3.547
1313.697, 366.602
1314.902, 62.731
1316.106, 7.836
1317.310, 288.011
1318.515, 64.930
1319.719, 228.086
1320.922, 285.077
1322.126, 66.952
1323.329, 330.975
1324.533, 10.876
1325.736, 55.234
1326.939, 313.859
1328.141, 47.315
1329.344, 83.497
1330.546, 410.458
1331.748, 24.771
1332.950, 200.969
1334.152, 196.680
1335.354, 32.371
1336.555, 312.041
1337.757, 104.830
1338.958, 107.462
1340.159, 312.210
1341.359, 37.802
1342.560, 384.371
1343.760, 367.227
1344.960, 129.757
1346.160, 503.271
1347.360, 228.991
1348.560, 65.471
1349.759, 473.933
1350.959, 112.378
1352.158, 51.808
1353.357, 322.325
1354.555, 97.720
1355.754, 153.094
1356.952, 334.657
1358.151, 159.010
1359.349, 411.346
1360.546, 165.842
1361.744, 219.145
1362.941, 445.439
1364.139, 129.755
1365.336, 332.027
1366.533, 374.591
1367.730, 114.848
1368.926, 410.092
1370.123, 254.312
1371.319, 27.457
1372.515, 234.759
1373.711, 101.291
1374.906, 30.276
1376.102, 289.754
1377.297, 110.896
1378.492, 150.287
1379.687, 319.863
1380.882, 134.174
1382.077, 260.705
1383.271, 269.627
1384.465, 114.109
1385.659, 485.017
1386.853, 176.360
1388.047, 373.350
1389.240, 418.479
1390.434, 117.596
1391.627, 346.482
1392.820, 333.581
1394.013, 23.041
1395.205, 261.242
1396.398, 272.909
1397.590, 55.440
1398.782, 440.792
1399.974, 153.763
1401.166, 182.653
1402.357, 375.938
1403.549, 39.597
1404.740, 288.729
1405.931, 278.785
1407.122, 130.947
1408.313, 447.848
1409.503, 97.532
1410.693, 127.988
1411.883, 449.050
1413.073, 284.978
1414.263, 460.014
1415.453, 363.987
1416.642, 26.872
1417.831, 239.187
1419.020, 223.767
1420.209, 21.508
1421.398, 314.195
1422.587, 73.453
1423.775, 86.062
1424.963, 461.732
1426.151, 81.522
1427.339, 279.066
1428.526, 262.254
1429.714, 4.982
1430.901, 223.768
1432.088, 348.895
1433.275, 8.718
1434.462, 510.816
1435.648, 184.137
1436.835, 130.838
1438.021, 404.294
1439.207, 297.117
1440.393, 259.958
1441.579, 459.821
1442.764, 411.383
1443.949, 357.525
1445.135, 414.662
1446.320, 88.358
1447.504, 426.768
1448.689, 187.430
1449.873, 241.829
1451.058, 562.623
1452.242, 59.766
1453.426, 274.179
1454.609, 485.034
1455.793, 139.326
1456.976, 346.306
1458.159, 535.496
1459.342, 105.272
1460.525, 465.868
1461.708, 346.622
1462.890, 295.662
1464.073, 455.720
1465.255, 125.330
1466.437, 395.159
1467.619, 415.458
1468.800, 63.861
1469.982, 324.195
1471.163, 462.557
1472.344, 81.130
1473.525, 420.959
1474.706, 431.741
1475.886, 169.774
1477.066, 388.154
1478.247, 228.611
1479.427, 88.704
1480.607, 439.013
1481.786, 89.217
1482.966, 369.312
1484.145, 338.746
1485.324, 49.596
1486.503, 419.185
1487.682, 229.977
1488.860, 70.767
1490.039, 411.166
1491.217, 282.021
1492.395, 152.956
1493.573, 533.959
1494.751, 103.678
1495.928, 274.882
1497.106, 415.237
1498.283, 86.748
1499.460, 368.539
1500.637, 339.479
1501.814, 100.500
1502.990, 370.238
1504.166, 212.553
1505.342, 142.917
1506.518, 585.482
1507.694, 87.078
1508.870, 230.166
1510.045, 610.721
1511.221, 1.418
1512.396, 295.097
1513.571, 428.592
1514.745, 4.799
1515.920, 385.077
