##NAMES=Datolite
##RRUFFID=R050033
##IDEAL CHEMISTRY=CaB(SiO_4_)(OH)
##LOCALITY=Westfield, Massachusetts, USA
##OWNER=RRUFF
##SOURCE=University of Arizona Mineral Museum
##DESCRIPTION=Group of pale green single crystals
##STATUS=The identification of this mineral has been confirmed by X-ray diffraction and chemical analysis
##URL=rruff.info/R050033
##MEASURED CHEMISTRY=Ca_1.00_B_1.00_Si_1.00_O_4_(OH) ; trace amounts of Al and Na; B measured and corrected according to stoichiometry;  OH estimated by stoichiometry end charge balance
##PIN_ID=M00292
##ORIENTATION=Laser parallel to (1 0 1). Fiducial mark perpendicular to laser is parallel to b [0 1 0]
49.184, 0.000
50.590, 3.635
51.996, 49.241
53.401, 57.126
54.807, 93.814
56.212, 136.515
57.617, 148.673
59.021, 173.133
60.426, 205.174
61.830, 276.355
63.234, 275.191
64.637, 340.092
66.041, 337.007
67.444, 314.780
68.847, 284.513
70.250, 258.154
71.652, 246.445
73.054, 235.006
74.456, 229.244
75.858, 196.308
77.260, 208.472
78.661, 188.747
80.062, 158.359
81.463, 133.978
82.863, 107.981
84.264, 113.464
85.664, 117.975
87.064, 76.261
88.463, 37.534
89.863, 43.924
91.262, 18.264
92.661, 20.545
94.059, 1.775
95.458, 9.958
96.856, 7.185
98.254, 4.050
99.652, 2.624
101.049, 1.335
102.446, 5.858
103.843, 42.219
105.240, 16.714
106.637, 8.370
108.033, 56.825
109.429, 178.880
110.825, 274.222
112.220, 231.103
113.616, 223.192
115.011, 129.919
116.406, 80.483
117.800, 48.962
119.195, 23.828
120.589, 8.237
121.983, 15.429
123.377, 51.223
124.770, 97.600
126.163, 213.945
127.556, 373.460
128.949, 682.149
130.342, 1062.515
131.734, 1629.078
133.126, 2076.605
134.518, 2170.147
135.909, 1609.705
137.301, 930.276
138.692, 493.857
140.083, 264.444
141.473, 166.032
142.864, 107.620
144.254, 57.742
145.644, 77.079
147.034, 82.399
148.423, 113.120
149.812, 128.419
151.201, 215.087
152.590, 307.678
153.979, 391.614
155.367, 524.022
156.755, 811.808
158.143, 1320.133
159.530, 2237.938
160.918, 3640.288
162.305, 5848.607
163.692, 8262.927
165.078, 9897.251
166.465, 9937.590
167.851, 6701.905
169.237, 3980.207
170.623, 2271.501
172.008, 1490.794
173.393, 1140.085
174.778, 1057.372
176.163, 1129.657
177.548, 1145.379
178.932, 1114.485
180.316, 838.915
181.700, 557.369
183.083, 307.568
184.467, 214.074
185.850, 165.264
187.233, 116.444
188.616, 122.615
189.998, 129.775
191.380, 167.926
192.762, 173.066
194.144, 163.198
195.525, 111.320
196.907, 95.434
198.288, 114.538
199.669, 123.634
201.049, 129.720
202.429, 99.799
203.810, 56.878
205.189, 13.961
206.569, 14.036
207.949, 35.101
209.328, 62.156
210.707, 119.197
212.085, 198.236
213.464, 317.290
214.842, 581.375
216.220, 892.429
217.598, 1229.562
218.976, 1318.710
220.353, 1038.844
221.730, 659.952
223.107, 433.021
224.483, 333.044
225.860, 347.017
227.236, 400.939
228.612, 489.805
229.988, 579.605
231.363, 618.341
232.738, 498.021
234.113, 370.649
235.488, 226.222
236.863, 126.735
238.237, 73.180
239.611, 18.543
240.985, 15.830
242.359, 6.962
243.732, 10.914
245.105, 9.925
246.478, 13.959
247.851, 13.015
249.223, 9.095
250.595, 21.208
251.967, 26.368
253.339, 39.599
254.711, 30.020
256.082, 30.442
257.453, 26.074
258.824, 26.712
260.195, 27.672
261.565, 19.477
262.935, 1.021
264.305, 26.617
265.675, 24.618
267.044, 69.385
268.414, 132.831
269.783, 233.954
271.151, 324.641
272.520, 448.817
273.888, 459.151
275.256, 442.629
276.624, 347.092
277.992, 235.542
279.359, 145.978
280.726, 127.401
282.093, 118.730
283.460, 146.913
284.827, 202.893
286.193, 341.650
287.559, 555.503
288.925, 835.636
290.290, 1204.949
291.656, 1452.271
293.021, 1562.571
294.386, 1295.850
295.750, 894.116
297.115, 577.373
298.479, 364.622
299.843, 224.862
301.207, 165.094
302.570, 93.316
303.933, 55.530
305.296, 37.734
306.659, 42.927
308.022, 13.110
309.384, 37.076
310.746, 15.095
312.108, 27.075
313.470, 27.120
314.831, 32.145
316.193, 68.119
317.554, 94.037
318.914, 151.906
320.275, 206.728
321.635, 331.518
322.995, 392.296
324.355, 408.069
325.715, 460.840
327.074, 483.607
328.434, 658.372
329.792, 799.134
331.151, 842.892
332.510, 818.649
333.868, 670.402
335.226, 527.154
336.584, 372.903
337.941, 257.649
339.299, 197.393
340.656, 169.135
342.013, 181.873
343.370, 204.605
344.726, 213.329
346.082, 282.047
347.438, 329.758
348.794, 388.466
350.150, 397.193
351.505, 481.781
352.860, 606.624
354.215, 806.887
355.570, 1117.039
356.924, 1479.252
358.278, 2018.482
359.632, 2565.054
360.986, 3121.561
362.339, 3402.148
363.693, 3252.776
365.046, 2856.430
366.399, 2300.959
367.751, 1780.280
369.104, 1409.162
370.456, 1158.136
371.808, 992.977
373.159, 972.955
374.511, 1036.572
375.862, 1121.218
377.213, 1363.445
378.564, 1536.206
379.914, 1523.792
381.265, 1398.456
382.615, 1230.389
383.965, 1176.912
385.315, 1208.530
386.664, 1444.138
388.013, 1894.734
389.362, 2433.321
390.711, 3074.898
392.060, 3481.465
393.408, 3573.022
394.756, 3106.571
396.104, 2352.109
397.451, 1777.640
398.799, 1283.162
400.146, 932.633
401.493, 690.872
402.840, 527.591
404.186, 400.248
405.533, 291.847
406.879, 237.194
408.225, 176.601
409.570, 164.752
410.916, 148.960
412.261, 138.412
413.606, 130.103
414.951, 117.468
416.295, 164.003
417.639, 196.140
418.983, 294.251
420.327, 451.639
421.671, 693.990
423.014, 1022.288
424.357, 1217.105
425.700, 1206.105
427.043, 1007.930
428.386, 677.734
429.728, 518.902
431.070, 368.331
432.412, 399.772
433.753, 392.217
435.095, 544.665
436.436, 703.111
437.777, 900.554
439.118, 1119.995
440.458, 1151.433
441.798, 1006.868
443.138, 840.301
444.478, 590.718
445.818, 448.148
447.157, 311.576
448.496, 280.005
449.835, 262.434
451.174, 296.862
452.513, 370.287
453.851, 513.711
455.189, 716.133
456.527, 943.553
457.864, 1119.971
459.202, 1094.387
460.539, 876.802
461.876, 663.215
463.212, 411.627
464.549, 310.944
465.885, 210.103
467.221, 156.162
468.557, 131.266
469.893, 93.091
471.228, 67.154
472.563, 78.015
473.898, 63.004
475.233, 70.000
476.567, 71.048
477.902, 85.300
479.236, 97.674
480.570, 129.127
481.903, 159.590
483.237, 209.064
484.570, 338.550
485.903, 500.047
487.235, 747.557
488.568, 1026.081
489.900, 1370.617
491.232, 1563.161
492.564, 1455.715
493.896, 1204.288
495.227, 893.873
496.558, 584.469
497.889, 423.072
499.220, 279.682
500.551, 208.297
501.881, 158.914
503.211, 123.531
504.541, 68.150
505.870, 50.769
507.200, 48.388
508.529, 24.009
509.858, 5.630
511.187, 19.252
512.515, 6.125
513.844, 15.504
515.172, 11.888
516.500, 13.276
517.827, 13.669
519.155, 10.933
520.482, 8.537
521.809, 45.142
523.136, 27.748
524.462, 67.355
525.789, 61.963
527.115, 48.573
528.441, 1.816
529.766, 25.201
531.092, 33.592
532.417, 31.997
533.742, 22.414
535.067, 53.840
536.391, 31.292
537.716, 55.758
539.040, 37.250
540.364, 22.759
541.688, 8.277
543.011, 20.797
544.334, 24.674
545.657, 47.146
546.980, 57.620
548.303, 122.094
549.625, 161.569
550.947, 248.046
552.269, 363.524
553.591, 436.003
554.913, 403.483
556.234, 371.964
557.555, 293.447
558.876, 241.931
560.197, 175.417
561.517, 158.905
562.837, 148.398
564.157, 103.896
565.477, 109.404
566.797, 65.923
568.116, 75.452
569.435, 96.994
570.754, 74.546
572.073, 101.109
573.391, 103.686
574.709, 114.278
576.027, 146.889
577.345, 149.515
578.663, 224.158
579.980, 267.816
581.297, 352.489
582.614, 425.177
583.931, 577.878
585.248, 769.588
586.564, 1024.303
587.880, 1378.022
589.196, 1884.744
590.511, 2353.467
591.827, 2925.193
593.142, 3247.920
594.457, 3237.649
595.772, 2997.379
597.086, 2481.112
598.401, 2128.846
599.715, 1789.583
601.029, 1598.321
602.343, 1427.060
603.656, 1169.802
604.969, 949.545
606.282, 700.290
607.595, 518.037
608.908, 422.786
610.220, 324.536
611.532, 276.289
612.844, 192.043
614.156, 207.798
615.468, 174.556
616.779, 127.315
618.090, 170.076
619.401, 134.839
620.712, 127.604
622.022, 135.370
623.332, 148.139
624.642, 126.975
625.952, 113.774
627.262, 142.790
628.571, 171.859
629.880, 158.023
631.189, 179.016
632.498, 176.721
633.807, 186.014
635.115, 175.207
636.423, 219.334
637.731, 231.685
639.039, 216.569
640.346, 277.790
641.653, 298.910
642.960, 356.180
644.267, 436.914
645.574, 465.486
646.880, 563.148
648.186, 661.393
649.492, 803.169
650.798, 1032.357
652.103, 1242.504
653.409, 1442.806
654.714, 1581.758
656.019, 1654.181
657.323, 1666.630
658.628, 1691.618
659.932, 1676.441
661.236, 1731.239
662.540, 1883.035
663.843, 2215.831
665.147, 2619.623
666.450, 3252.416
667.753, 3643.186
669.056, 4072.976
670.358, 4181.536
671.660, 4014.706
672.963, 3931.038
674.264, 3800.307
675.566, 3611.557
676.868, 3715.339
678.169, 3811.121
679.470, 4116.901
680.771, 4591.680
682.071, 5374.458
683.372, 6550.235
684.672, 8054.010
685.972, 11136.692
687.271, 15135.294
688.571, 22053.371
689.870, 32091.539
691.169, 42290.320
692.468, 52387.113
693.767, 52635.324
695.065, 45242.004
696.364, 35129.844
697.662, 24398.598
698.960, 17388.076
700.257, 12526.947
701.555, 8858.715
702.852, 6930.482
704.149, 5176.248
705.446, 4163.014
706.742, 3384.780
708.038, 2702.547
709.335, 2371.312
710.631, 1942.078
711.926, 1633.844
713.222, 1441.609
714.517, 1208.375
715.812, 1110.140
717.107, 944.904
718.402, 816.669
719.696, 724.434
720.990, 647.198
722.284, 608.963
723.578, 494.732
724.872, 458.503
726.165, 424.275
727.458, 349.052
728.751, 345.831
730.044, 320.611
731.336, 314.391
732.629, 261.175
733.921, 282.961
735.213, 303.752
736.504, 237.541
737.796, 275.337
739.087, 286.133
740.378, 288.931
741.669, 284.728
742.960, 252.524
744.250, 231.320
745.540, 220.114
746.830, 189.908
748.120, 163.700
749.410, 131.491
750.699, 143.281
751.988, 133.070
753.277, 101.858
754.566, 143.645
755.854, 132.431
757.143, 137.215
758.431, 168.999
759.719, 224.781
761.006, 316.562
762.294, 358.342
763.581, 485.122
764.868, 522.899
766.155, 480.676
767.442, 416.452
768.728, 289.227
770.014, 204.000
771.300, 176.773
772.586, 135.544
773.872, 88.314
775.157, 55.083
776.442, 36.829
777.727, 28.618
779.012, 14.384
780.297, 17.148
781.581, 7.910
782.865, 6.668
784.149, 4.622
785.433, 9.169
786.716, 4.087
787.999, 13.353
789.282, 27.635
790.565, 26.522
791.848, 30.062
793.130, 22.615
794.413, 27.985
795.695, 26.378
796.977, 28.792
798.258, 36.230
799.540, 33.695
800.821, 35.186
802.102, 12.703
803.382, 21.235
804.663, 59.785
805.943, 27.375
807.224, 29.986
808.504, 8.621
809.783, 16.268
811.063, 0.931
812.342, 8.399
813.621, 15.725
814.900, 26.747
816.179, 39.374
817.457, 45.698
818.736, 50.021
820.014, 63.343
821.292, 95.665
822.569, 142.987
823.847, 188.307
825.124, 261.629
826.401, 303.954
827.678, 318.281
828.954, 342.610
830.231, 282.941
831.507, 244.272
832.783, 185.603
834.059, 106.934
835.334, 99.265
836.610, 84.596
837.885, 48.926
839.160, 60.257
840.435, 59.588
841.709, 60.925
842.983, 91.270
844.258, 88.623
845.532, 120.981
846.805, 120.352
848.079, 159.731
849.352, 191.124
850.625, 214.526
851.898, 261.934
853.171, 267.344
854.443, 341.760
855.715, 451.175
856.988, 566.592
858.259, 732.009
859.531, 922.427
860.803, 1195.846
862.074, 1488.266
863.345, 1682.687
864.616, 1817.108
865.886, 1653.531
867.157, 1422.955
868.427, 1272.379
869.697, 1063.805
870.967, 1045.233
872.236, 1032.661
873.506, 1126.090
874.775, 1195.521
876.044, 1352.201
877.313, 1489.874
878.581, 1653.678
879.849, 1746.220
881.118, 1785.132
882.386, 1683.870
883.653, 1533.486
884.921, 1432.674
886.188, 1241.987
887.455, 1032.384
888.722, 887.829
889.989, 721.885
891.255, 670.477
892.522, 527.534
893.788, 483.020
895.054, 454.470
896.319, 386.993
897.585, 396.445
898.850, 397.899
900.115, 466.355
901.380, 469.811
902.645, 517.269
903.909, 647.728
905.174, 721.189
906.438, 880.652
907.701, 1122.115
908.965, 1421.581
910.229, 1909.048
911.492, 2407.516
912.755, 3215.987
914.018, 4241.459
915.280, 5295.933
916.543, 6248.409
917.805, 6466.886
919.067, 6180.366
920.329, 5528.847
921.590, 4433.329
922.852, 3597.814
924.113, 2960.302
925.374, 2370.792
926.635, 2041.282
927.895, 1730.776
929.156, 1549.271
930.416, 1446.769
931.676, 1352.204
932.936, 1329.682
934.195, 1240.948
935.454, 1182.169
936.714, 1114.668
937.973, 1017.608
939.231, 946.210
940.490, 869.231
941.748, 747.357
943.006, 704.555
944.264, 628.533
945.522, 582.982
946.780, 551.098
948.037, 498.321
949.294, 524.397
950.551, 439.014
951.808, 450.798
953.064, 464.497
954.320, 373.616
955.577, 388.210
956.832, 383.396
958.088, 351.628
959.344, 347.709
960.599, 346.145
961.854, 353.115
963.109, 360.063
964.364, 369.478
965.618, 391.063
966.872, 425.677
968.127, 497.298
969.380, 489.925
970.634, 612.558
971.888, 741.198
973.141, 874.844
974.394, 1064.496
975.647, 1316.155
976.900, 1651.822
978.152, 2158.496
979.404, 2795.176
980.656, 3616.865
981.908, 4928.558
983.160, 5742.257
984.411, 6458.967
985.663, 6164.682
986.914, 5183.407
988.165, 4215.141
989.415, 3135.881
990.666, 2436.635
991.916, 2034.398
993.166, 1521.173
994.416, 1283.962
995.665, 1054.758
996.915, 938.569
998.164, 874.386
999.413, 771.210
1000.662, 786.042
1001.911, 762.887
1003.159, 738.746
1004.407, 742.614
1005.655, 688.493
1006.903, 538.385
1008.151, 542.292
1009.398, 420.206
1010.646, 305.130
1011.893, 283.061
1013.139, 223.002
1014.386, 169.953
1015.633, 160.911
1016.879, 107.880
1018.125, 95.856
1019.371, 78.839
1020.616, 39.828
1021.862, 34.824
1023.107, 3.827
1024.352, 31.838
1025.597, 35.144
1026.842, 10.130
1028.086, 14.112
1029.330, 32.092
1030.574, 17.074
1031.818, 12.055
1033.062, 8.031
1034.305, 24.003
1035.548, 26.975
1036.791, 28.949
1038.034, 2.076
1039.277, 42.893
1040.519, 6.870
1041.762, 20.841
1043.004, 1.811
1044.246, 9.225
1045.487, 3.732
1046.729, 67.317
1047.970, 43.373
1049.211, 69.436
1050.452, 102.506
1051.692, 84.582
1052.933, 116.666
1054.173, 107.757
1055.413, 158.855
1056.653, 211.960
1057.893, 232.072
1059.132, 284.190
1060.371, 339.316
1061.610, 401.450
1062.849, 516.590
1064.088, 604.737
1065.326, 745.891
1066.565, 971.053
1067.803, 1197.222
1069.041, 1753.397
1070.278, 2304.580
1071.516, 3140.770
1072.753, 4817.969
1073.990, 6394.173
1075.227, 8366.383
1076.464, 9373.601
1077.700, 8695.828
1078.936, 7991.061
1080.173, 7028.300
1081.408, 5958.547
1082.644, 4378.802
1083.880, 3036.065
1085.115, 2226.337
1086.350, 1583.619
1087.585, 1159.908
1088.820, 878.209
1090.054, 642.524
1091.288, 518.857
1092.522, 459.207
1093.756, 342.575
1094.990, 292.960
1096.224, 239.814
1097.457, 190.539
1098.690, 165.222
1099.923, 139.681
1101.156, 112.160
1102.388, 98.658
1103.621, 77.170
1104.853, 61.699
1106.085, 65.254
1107.316, 48.826
1108.548, 47.417
1109.779, 44.522
1111.010, 47.642
1112.241, 36.272
1113.472, 36.095
1114.703, 31.391
1115.933, 31.210
1117.163, 22.871
1118.393, 26.540
1119.623, 24.216
1120.853, 47.899
1122.082, 86.590
1123.311, 46.288
1124.540, 75.464
1125.769, 55.314
1126.997, 68.031
1128.226, 87.754
1129.454, 84.487
1130.682, 112.226
1131.910, 110.293
1133.138, 103.250
1134.365, 159.392
1135.592, 160.470
1136.819, 198.652
1138.046, 235.624
1139.273, 250.985
1140.499, 285.169
1141.725, 323.431
1142.951, 346.244
1144.177, 418.963
1145.403, 435.794
1146.628, 486.633
1147.854, 562.599
1149.079, 643.189
1150.304, 699.483
1151.528, 830.917
1152.753, 895.744
1153.977, 1045.092
1155.201, 1152.768
1156.425, 1319.667
1157.649, 1532.312
1158.872, 1641.371
1160.096, 1961.865
1161.319, 2182.567
1162.542, 2509.448
1163.764, 2980.124
1164.987, 3302.183
1166.209, 3775.077
1167.431, 4482.974
1168.653, 4709.875
1169.875, 5432.780
1171.097, 5637.920
1172.318, 5829.832
1173.539, 5836.616
1174.760, 5321.297
1175.981, 4856.851
1177.202, 4405.673
1178.422, 3669.128
1179.642, 3209.763
1180.862, 2769.523
1182.082, 2219.717
1183.302, 1994.792
1184.521, 1635.786
1185.740, 1426.737
1186.959, 1254.081
1188.178, 1054.894
1189.397, 958.246
1190.615, 807.173
1191.834, 727.141
1193.052, 675.041
1194.269, 572.015
1195.487, 561.992
1196.705, 562.972
1197.922, 449.955
1199.139, 440.941
1200.356, 411.930
1201.573, 391.922
1202.789, 353.917
1204.006, 331.896
1205.222, 313.917
1206.438, 281.920
1207.653, 266.992
1208.869, 246.999
1210.084, 221.008
1211.299, 205.020
1212.514, 212.034
1213.729, 157.091
1214.944, 159.109
1216.158, 180.129
1217.372, 132.282
1218.586, 122.306
1219.800, 113.336
1221.014, 107.366
1222.227, 129.397
1223.440, 127.437
1224.654, 118.644
1225.866, 112.527
1227.079, 91.568
1228.292, 92.623
1229.504, 74.660
1230.716, 55.699
1231.928, 66.738
1233.139, 70.779
1234.351, 59.820
1235.562, 69.861
1236.773, 57.906
1237.984, 59.954
1239.195, 71.005
1240.406, 77.060
1241.616, 59.181
1242.826, 49.242
1244.036, 46.367
1245.246, 43.476
1246.456, 27.687
1247.665, 37.759
1248.874, 49.855
1250.083, 28.095
1251.292, 45.176
1252.501, 35.309
1253.709, 10.499
1254.917, 37.023
1256.125, 33.119
1257.333, 26.394
1258.541, 19.473
1259.748, 29.545
1260.956, 30.938
1262.163, 32.269
1263.370, 22.454
1264.576, 33.740
1265.783, 8.168
1266.989, 9.293
1268.195, 22.664
1269.401, 6.333
1270.607, 0.277
1271.813, 6.736
1273.018, 7.741
1274.223, 6.461
1275.428, 7.694
1276.633, 2.347
1277.838, 0.214
1279.042, 3.147
1280.246, 1.731
1281.450, 3.273
1282.654, 15.671
1283.858, 5.687
1285.061, 18.547
1286.265, 19.548
1287.468, 6.765
1288.671, 26.299
1289.873, 6.681
1291.076, 6.726
1292.278, 2.649
1293.480, 23.343
1294.682, 18.423
1295.884, 4.520
1297.086, 10.568
1298.287, 18.676
1299.488, 23.702
1300.689, 7.235
1301.890, 6.895
1303.091, 2.976
1304.291, 4.123
1305.491, 7.250
1306.691, 12.637
1307.891, 6.504
1309.091, 4.339
1310.290, 19.207
1311.490, 18.044
1312.689, 12.913
1313.888, 41.759
1315.086, 3.583
1316.285, 39.402
1317.483, 7.256
1318.681, 22.065
1319.879, 43.872
1321.077, 47.672
1322.275, 46.469
1323.472, 43.259
1324.669, 48.048
1325.866, 48.429
1327.063, 59.651
1328.260, 46.411
1329.456, 56.169
1330.653, 37.917
1331.849, 27.667
1333.045, 30.411
1334.240, 37.152
1335.436, 34.882
1336.631, 25.606
1337.826, 31.327
1339.021, 32.041
1340.216, 33.746
1341.411, 38.617
1342.605, 40.796
1343.799, 38.002
1344.993, 45.681
1346.187, 42.277
1347.381, 22.073
1348.574, 35.731
1349.767, 28.379
1350.961, 16.020
1352.153, 34.668
1353.346, 38.292
1354.539, 25.932
1355.731, 28.543
1356.923, 19.157
1358.115, 27.755
1359.307, 38.377
1360.498, 13.961
1361.690, 49.531
1362.881, 26.099
1364.072, 26.653
1365.263, 27.222
1366.453, 25.761
1367.644, 25.291
1368.834, 25.684
1370.024, 27.497
1371.214, 25.001
1372.404, 38.523
1373.593, 36.009
1374.783, 55.462
1375.972, 37.920
1377.161, 45.338
1378.349, 44.681
1379.538, 36.769
1380.726, 35.855
1381.915, 47.939
1383.103, 43.021
1384.290, 24.099
1385.478, 39.173
1386.665, 25.244
1387.853, 28.310
1389.040, 20.369
1390.227, 46.423
1391.413, 33.473
1392.600, 20.515
1393.786, 39.549
1394.972, 30.577
1396.158, 24.901
1397.344, 9.915
1398.530, 38.917
1399.715, 20.294
1400.900, 42.450
1402.085, 42.493
1403.270, 11.046
1404.455, 12.150
1405.639, 17.651
1406.824, 12.307
1408.008, 4.086
1409.192, 15.872
1410.375, 1.357
1411.559, 26.004
1412.742, 14.633
1413.925, 19.213
1415.108, 18.580
1416.291, 8.780
1417.474, 11.852
1418.656, 9.846
1419.839, 6.605
1421.021, 11.209
1422.202, 1.195
1423.384, 23.394
1424.566, 9.974
1425.747, 20.547
1426.928, 6.113
1428.109, 16.671
1429.290, 0.222
1430.470, 31.765
1431.651, 17.300
1432.831, 10.827
1434.011, 35.341
1435.191, 13.852
1436.370, 27.243
1437.550, 34.739
1438.729, 18.155
1439.908, 38.636
1441.087, 13.875
1442.266, 17.326
1443.444, 35.763
1444.623, 29.167
1445.801, 21.563
1446.979, 27.001
1448.157, 22.434
1449.334, 28.865
1450.512, 33.275
1451.689, 24.656
1452.866, 35.875
1454.043, 22.971
1455.220, 26.941
1456.396, 51.771
1457.573, 35.848
1458.749, 19.741
1459.925, 55.377
1461.100, 36.496
1462.276, 40.178
1463.451, 43.410
1464.627, 33.362
1465.802, 25.705
1466.977, 34.786
1468.151, 13.557
1469.326, 27.834
1470.500, 40.287
1471.674, 32.073
1472.848, 43.722
1474.022, 23.023
1475.195, 18.827
1476.369, 35.189
1477.542, 20.778
1478.715, 18.581
1479.888, 34.181
1481.061, 22.360
1482.233, 27.019
1483.405, 0.568
1484.577, 12.807
1485.749, 22.180
1486.921, 5.455
1488.093, 19.753
1489.264, 14.897
1490.435, 28.212
1491.606, 24.536
1492.777, 10.856
1493.948, 14.922
1495.118, 8.380
1496.288, 14.865
1497.459, 10.740
