##NAMES=Datolite
##RRUFFID=R050033
##IDEAL CHEMISTRY=CaB(SiO_4_)(OH)
##LOCALITY=Westfield, Massachusetts, USA
##OWNER=RRUFF
##SOURCE=University of Arizona Mineral Museum
##DESCRIPTION=Group of pale green single crystals
##STATUS=The identification of this mineral has been confirmed by X-ray diffraction and chemical analysis
##URL=rruff.info/R050033
##MEASURED CHEMISTRY=Ca_1.00_B_1.00_Si_1.00_O_4_(OH) ; trace amounts of Al and Na; B measured and corrected according to stoichiometry;  OH estimated by stoichiometry end charge balance
##PIN_ID=M00292
##ORIENTATION=Laser parallel to (1 0 1). Fiducial mark perpendicular to laser is parallel to b [0 1 0]
49.184, 0.000
50.590, 1.150
51.996, 11.390
53.401, 57.013
54.807, 28.682
56.212, 35.248
57.617, 130.699
59.021, 201.996
60.426, 245.526
61.830, 325.445
63.234, 426.324
64.637, 450.923
66.041, 480.535
67.444, 502.233
68.847, 447.177
70.250, 381.959
71.652, 392.938
73.054, 545.617
74.456, 623.253
75.858, 624.621
77.260, 583.530
78.661, 594.373
80.062, 557.843
81.463, 614.322
82.863, 545.407
84.264, 592.208
85.664, 597.932
87.064, 501.785
88.463, 458.345
89.863, 347.702
91.262, 284.452
92.661, 204.071
94.059, 152.199
95.458, 175.889
96.856, 151.234
98.254, 136.849
99.652, 102.653
101.049, 32.775
102.446, 64.486
103.843, 1.620
105.240, 12.933
106.637, 31.841
108.033, 52.950
109.429, 100.105
110.825, 111.604
112.220, 18.678
113.616, 33.669
115.011, 12.634
116.406, 177.644
117.800, 96.839
119.195, 11.871
120.589, 51.258
121.983, 28.540
123.377, 2.038
124.770, 5.485
126.163, 23.800
127.556, 105.987
128.949, 264.053
130.342, 458.001
131.734, 710.838
133.126, 852.618
134.518, 756.491
135.909, 499.447
137.301, 298.474
138.692, 154.558
140.083, 87.686
141.473, 51.986
142.864, 40.766
144.254, 41.930
145.644, 97.510
147.034, 218.506
148.423, 375.870
149.812, 536.106
151.201, 805.432
152.590, 1112.220
153.979, 1502.847
155.367, 1911.584
156.755, 2676.797
158.143, 4185.765
159.530, 6920.024
160.918, 11106.178
162.305, 17509.209
163.692, 24612.191
165.078, 30766.523
166.465, 31601.525
167.851, 22084.662
169.237, 13707.252
170.623, 8580.757
172.008, 6072.201
173.393, 5091.621
174.778, 5054.029
176.163, 5819.426
177.548, 6191.190
178.932, 6065.162
180.316, 4550.847
181.700, 2886.609
183.083, 1902.537
184.467, 1427.557
185.850, 1375.092
187.233, 1517.235
188.616, 2015.354
189.998, 2730.448
191.380, 3549.516
192.762, 4094.559
194.144, 3495.578
195.525, 2383.590
196.907, 1720.997
198.288, 1456.277
199.669, 1396.202
201.049, 1350.116
202.429, 1113.032
203.810, 873.932
205.189, 857.810
206.569, 892.664
207.949, 1249.495
209.328, 1772.303
210.707, 2362.087
212.085, 3311.850
213.464, 4372.602
214.842, 6243.396
216.220, 8696.294
217.598, 11324.099
218.976, 12421.837
220.353, 10119.459
221.730, 6375.938
223.107, 3739.269
224.483, 2205.439
225.860, 1385.445
227.236, 852.283
228.612, 610.952
229.988, 425.443
231.363, 315.749
232.738, 230.873
234.113, 138.816
235.488, 97.580
236.863, 37.172
238.237, 38.574
239.611, 25.207
240.985, 17.184
242.359, 10.380
243.732, 39.865
245.105, 25.617
246.478, 13.510
247.851, 17.381
249.223, 11.140
250.595, 21.765
251.967, 2.125
253.339, 12.667
254.711, 32.564
256.082, 34.746
257.453, 43.754
258.824, 34.377
260.195, 20.281
261.565, 13.177
262.935, 27.719
264.305, 87.434
265.675, 203.832
267.044, 335.337
268.414, 584.279
269.783, 809.546
271.151, 935.071
272.520, 881.381
273.888, 762.040
275.256, 592.175
276.624, 366.376
277.992, 227.421
279.359, 163.668
280.726, 115.406
282.093, 138.919
283.460, 242.853
284.827, 396.511
286.193, 642.416
287.559, 1133.739
288.925, 1790.122
290.290, 2691.509
291.656, 3345.398
293.021, 3623.262
294.386, 3000.921
295.750, 2113.906
297.115, 1372.870
298.479, 901.813
299.843, 612.734
301.207, 401.633
302.570, 283.318
303.933, 210.508
305.296, 154.429
306.659, 101.397
308.022, 56.347
309.384, 66.539
310.746, 44.824
312.108, 64.561
313.470, 35.671
314.831, 51.894
316.193, 77.931
317.554, 117.535
318.914, 200.976
320.275, 310.195
321.635, 431.250
322.995, 536.280
324.355, 507.295
325.715, 452.296
327.074, 431.282
328.434, 486.256
329.792, 593.210
331.151, 697.143
332.510, 703.062
333.868, 725.969
335.226, 579.865
336.584, 476.749
337.941, 373.623
339.299, 248.486
340.656, 221.339
342.013, 186.178
343.370, 194.054
344.726, 229.160
346.082, 293.234
347.438, 343.623
348.794, 445.741
350.150, 491.332
351.505, 629.911
352.860, 794.993
354.215, 1051.176
355.570, 1470.028
356.924, 1969.847
358.278, 2633.513
359.632, 3339.169
360.986, 4089.813
362.339, 4321.446
363.693, 4192.070
365.046, 3672.684
366.399, 2942.288
367.751, 2335.883
369.104, 1827.468
370.456, 1475.044
371.808, 1218.672
373.159, 1132.569
374.511, 1102.967
375.862, 1088.526
377.213, 1245.177
378.564, 1301.608
379.914, 1425.040
381.265, 1484.105
382.615, 1649.488
383.965, 2034.188
385.315, 2584.677
386.664, 3409.165
388.013, 4814.443
389.362, 6400.688
390.711, 8500.899
392.060, 9560.084
393.408, 10000.234
394.756, 8503.219
396.104, 6546.817
397.451, 4922.999
398.799, 3433.877
400.146, 2576.146
401.493, 1893.408
402.840, 1495.176
404.186, 1183.425
405.533, 936.082
406.879, 773.872
408.225, 648.543
409.570, 530.963
410.916, 519.785
412.261, 501.469
413.606, 457.343
414.951, 541.718
416.295, 639.164
417.639, 875.360
418.983, 1127.420
420.327, 1676.915
421.671, 2451.003
423.014, 3306.980
424.357, 3970.409
425.700, 3915.336
427.043, 3079.845
428.386, 2058.940
429.728, 1462.588
431.070, 946.235
432.412, 694.884
433.753, 549.536
435.095, 531.199
436.436, 564.856
437.777, 633.507
439.118, 629.151
440.458, 624.427
441.798, 513.440
443.138, 451.259
444.478, 316.173
445.818, 257.521
447.157, 203.152
448.496, 151.798
449.835, 92.454
451.174, 149.110
452.513, 145.767
453.851, 233.422
455.189, 332.071
456.527, 439.711
457.864, 538.341
459.202, 478.960
460.539, 363.569
461.876, 232.168
463.212, 146.757
464.549, 85.335
465.885, 27.606
467.221, 10.352
468.557, 14.534
469.893, 20.952
471.228, 33.289
472.563, 10.819
473.898, 29.173
475.233, 11.783
476.567, 8.242
477.902, 24.491
479.236, 41.398
480.570, 75.670
481.903, 137.253
483.237, 227.850
484.570, 372.133
485.903, 485.079
487.235, 761.711
488.568, 1065.351
489.900, 1357.999
491.232, 1596.660
492.564, 1451.331
493.896, 1252.011
495.227, 900.690
496.558, 601.373
497.889, 440.055
499.220, 246.732
500.551, 198.387
501.881, 111.929
503.211, 75.322
504.541, 14.748
505.870, 16.318
507.200, 8.047
508.529, 0.577
509.858, 13.809
511.187, 33.210
512.515, 0.366
513.844, 4.067
515.172, 42.489
516.500, 47.038
517.827, 140.580
519.155, 195.117
520.482, 359.648
521.809, 491.174
523.136, 589.694
524.462, 650.208
525.789, 600.718
527.115, 469.222
528.441, 236.720
529.766, 167.213
531.092, 58.701
532.417, 0.182
533.742, 32.345
535.067, 66.895
536.391, 68.486
537.716, 65.119
539.040, 49.792
540.364, 44.497
541.688, 34.231
543.011, 0.011
544.334, 31.246
545.657, 22.474
546.980, 114.697
548.303, 171.915
549.625, 246.129
550.947, 396.339
552.269, 488.545
553.591, 638.747
554.913, 748.946
556.234, 873.143
557.555, 980.341
558.876, 1228.540
560.197, 1504.744
561.517, 1683.951
562.837, 1750.173
564.157, 1423.408
565.477, 1106.655
566.797, 782.921
568.116, 476.202
569.435, 341.495
570.754, 231.795
572.073, 176.100
573.391, 132.412
574.709, 113.732
576.027, 129.064
577.345, 99.414
578.663, 140.781
579.980, 125.169
581.297, 197.574
582.614, 296.994
583.931, 369.426
585.248, 510.864
586.564, 672.304
587.880, 870.745
589.196, 1262.184
590.511, 1608.622
591.827, 1995.057
593.142, 2255.491
594.457, 2221.922
595.772, 2196.352
597.086, 1991.779
598.401, 1999.205
599.715, 1912.631
601.029, 1989.057
602.343, 1967.484
603.656, 1716.913
604.969, 1422.341
606.282, 1091.767
607.595, 836.191
608.908, 660.460
610.220, 476.880
611.532, 364.297
612.844, 296.713
614.156, 257.127
615.468, 204.538
616.779, 213.948
618.090, 196.355
619.401, 225.761
620.712, 162.165
622.022, 160.566
623.332, 173.837
624.642, 211.687
625.952, 194.839
627.262, 243.214
628.571, 253.541
629.880, 292.887
631.189, 316.151
632.498, 347.493
633.807, 359.673
635.115, 404.225
636.423, 422.253
637.731, 533.985
639.039, 580.611
640.346, 722.536
641.653, 878.833
642.960, 985.622
644.267, 1342.111
645.574, 1575.342
646.880, 2108.952
648.186, 2634.506
649.492, 3389.750
650.798, 4317.122
652.103, 5450.696
653.409, 6495.885
654.714, 7159.427
656.019, 7199.842
657.323, 6770.190
658.628, 5786.532
659.932, 5059.871
661.236, 4250.146
662.540, 3773.169
663.843, 3542.196
665.147, 3446.881
666.450, 3517.815
667.753, 3606.258
669.056, 3757.698
670.358, 3851.621
671.660, 3748.425
672.963, 3636.548
674.264, 3648.688
675.566, 3595.968
676.868, 3724.242
678.169, 3835.512
679.470, 4255.777
680.771, 4696.038
682.071, 5399.293
683.372, 6591.545
684.672, 8357.791
685.972, 11245.035
687.271, 15384.272
688.571, 22493.443
689.870, 32902.328
691.169, 43419.707
692.468, 54064.914
693.767, 54380.000
695.065, 47005.305
696.364, 36311.570
697.662, 25328.162
698.960, 18305.393
700.257, 13104.274
701.555, 9463.332
702.852, 7328.350
704.149, 5489.544
705.446, 4435.734
706.742, 3577.925
708.038, 2913.112
709.335, 2502.296
710.631, 2041.478
711.926, 1853.658
713.222, 1548.836
714.517, 1273.011
715.812, 1156.185
717.107, 988.355
718.402, 873.524
719.696, 781.690
720.990, 640.854
722.284, 562.016
723.578, 486.176
724.872, 450.338
726.165, 398.498
727.458, 350.657
728.751, 327.814
730.044, 263.970
731.336, 289.124
732.629, 239.276
733.921, 232.430
735.213, 241.584
736.504, 183.739
737.796, 220.901
739.087, 201.060
740.378, 198.217
741.669, 216.375
742.960, 196.529
744.250, 196.681
745.540, 217.830
746.830, 139.977
748.120, 97.120
749.410, 114.261
750.699, 79.400
751.988, 70.536
753.277, 67.669
754.566, 96.800
755.854, 96.928
757.143, 141.054
758.431, 171.178
759.719, 266.299
761.006, 398.418
762.294, 519.535
763.581, 704.649
764.868, 745.761
766.155, 751.872
767.442, 620.980
768.728, 439.086
770.014, 354.191
771.300, 235.293
772.586, 117.393
773.872, 114.491
775.157, 50.587
776.442, 48.682
777.727, 43.774
779.012, 10.135
780.297, 11.939
781.581, 43.992
782.865, 0.045
784.149, 26.926
785.433, 41.916
786.716, 20.937
787.999, 70.976
789.282, 43.061
790.565, 29.179
791.848, 55.324
793.130, 51.510
794.413, 54.736
795.695, 60.939
796.977, 21.315
798.258, 64.650
799.540, 29.032
800.821, 35.441
802.102, 50.880
803.382, 46.358
804.663, 32.871
805.943, 4.412
807.224, 14.967
808.504, 4.540
809.783, 23.875
811.063, 30.288
812.342, 47.701
813.621, 85.113
814.900, 80.526
816.179, 179.939
817.457, 210.353
818.736, 313.769
820.014, 417.188
821.292, 567.610
822.569, 770.037
823.847, 1008.473
825.124, 1317.912
826.401, 1728.355
827.678, 1911.799
828.954, 2122.245
830.231, 1926.693
831.507, 1574.141
832.783, 1333.591
834.059, 893.043
835.334, 728.497
836.610, 509.953
837.885, 380.410
839.160, 253.870
840.435, 206.332
841.709, 178.796
842.983, 197.263
844.258, 131.735
845.532, 136.218
846.805, 110.722
848.079, 111.247
849.352, 123.793
850.625, 108.355
851.898, 175.933
853.171, 189.523
854.443, 266.119
855.715, 311.719
856.988, 407.324
858.259, 557.932
859.531, 669.545
860.803, 849.161
862.074, 1099.781
863.345, 1247.406
864.616, 1375.035
865.886, 1248.669
867.157, 1122.306
868.427, 1103.948
869.697, 970.595
870.967, 980.247
872.236, 1024.903
873.506, 1174.564
874.775, 1458.230
876.044, 1679.032
877.313, 1952.667
878.581, 2283.391
879.849, 2548.347
881.118, 2707.060
882.386, 2659.038
883.653, 2591.796
884.921, 2521.624
886.188, 2224.507
887.455, 2074.547
888.722, 1780.007
889.989, 1634.900
891.255, 1534.646
892.522, 1366.528
893.788, 1361.885
895.054, 1302.636
896.319, 1325.392
897.585, 1426.154
898.850, 1412.922
900.115, 1583.697
901.380, 1716.476
902.645, 1839.262
903.909, 2276.054
905.174, 2434.852
906.438, 2933.656
907.701, 3575.468
908.965, 4326.285
910.229, 5518.109
911.492, 6864.938
912.755, 8755.774
914.018, 11494.618
915.280, 13943.468
916.543, 16292.327
917.805, 16791.186
919.067, 15800.062
920.329, 13928.938
921.590, 11247.823
922.852, 9046.716
924.113, 7304.615
925.374, 5666.521
926.635, 4875.436
927.895, 3934.357
929.156, 3518.286
930.416, 3154.223
931.676, 2898.350
932.936, 2801.751
934.195, 2628.779
935.454, 2442.583
936.714, 2307.711
937.973, 2159.951
939.231, 2044.445
940.490, 1921.856
941.748, 1799.037
943.006, 1722.109
944.264, 1593.562
945.522, 1644.276
946.780, 1757.812
948.037, 1639.984
949.294, 1812.671
950.551, 1683.666
951.808, 1788.926
953.064, 1817.815
954.320, 1769.769
955.577, 1770.039
956.832, 1633.193
958.088, 1509.153
959.344, 1447.505
960.599, 1319.516
961.854, 1250.658
963.109, 1183.882
964.364, 1130.120
965.618, 1138.373
966.872, 1109.645
968.127, 1076.936
969.380, 1196.243
970.634, 1298.565
971.888, 1463.902
973.141, 1698.261
974.394, 1946.643
975.647, 2371.040
976.900, 2889.461
978.152, 3714.900
979.404, 4868.361
980.656, 6142.842
981.908, 8237.336
983.160, 9439.856
984.411, 10659.403
985.663, 10108.972
986.914, 8508.566
988.165, 6962.187
989.415, 5190.823
990.666, 3977.490
991.916, 3102.176
993.166, 2378.880
994.416, 1897.613
995.665, 1525.368
996.915, 1282.144
998.164, 1100.941
999.413, 914.763
1000.662, 865.607
1001.911, 840.475
1003.159, 750.364
1004.407, 727.274
1005.655, 609.200
1006.903, 578.142
1008.151, 502.108
1009.398, 393.089
1010.646, 355.088
1011.893, 277.105
1013.139, 206.136
1014.386, 210.182
1015.633, 103.243
1016.879, 123.322
1018.125, 97.416
1019.371, 68.524
1020.616, 50.646
1021.862, 33.782
1023.107, 27.933
1024.352, 46.098
1025.597, 9.724
1026.842, 42.532
1028.086, 3.336
1029.330, 17.127
1030.574, 0.906
1031.818, 17.672
1033.062, 4.427
1034.305, 9.168
1035.548, 48.897
1036.791, 19.623
1038.034, 35.339
1039.277, 75.047
1040.519, 0.239
1041.762, 10.462
1043.004, 31.150
1044.246, 29.170
1045.487, 15.503
1046.729, 43.850
1047.970, 65.211
1049.211, 110.586
1050.452, 168.975
1051.692, 170.377
1052.933, 191.793
1054.173, 268.223
1055.413, 313.667
1056.653, 333.125
1057.893, 360.596
1059.132, 497.080
1060.371, 566.579
1061.610, 720.091
1062.849, 872.616
1064.088, 1065.155
1065.326, 1345.707
1066.565, 1757.273
1067.803, 2240.852
1069.041, 3136.444
1070.278, 4341.051
1071.516, 5994.669
1072.753, 8931.302
1073.990, 12181.950
1075.227, 15632.606
1076.464, 17003.279
1077.700, 14803.965
1078.936, 12274.660
1080.173, 9545.375
1081.408, 7238.107
1082.644, 5550.856
1083.880, 3966.636
1085.115, 2981.434
1086.350, 2216.259
1087.585, 1692.113
1088.820, 1360.991
1090.054, 1040.907
1091.288, 829.853
1092.522, 726.824
1093.756, 586.829
1094.990, 484.865
1096.224, 443.934
1097.457, 374.037
1098.690, 310.164
1099.923, 253.325
1101.156, 217.512
1102.388, 205.733
1103.621, 127.977
1104.853, 163.559
1106.085, 120.239
1107.316, 81.556
1108.548, 86.894
1109.779, 41.249
1111.010, 71.262
1112.241, 59.713
1113.472, 46.477
1114.703, 3.755
1115.933, 28.165
1117.163, 17.079
1118.393, 24.549
1119.623, 43.366
1120.853, 37.338
1122.082, 106.931
1123.311, 106.540
1124.540, 106.321
1125.769, 73.478
1126.997, 68.146
1128.226, 79.036
1129.454, 69.975
1130.682, 76.415
1131.910, 96.441
1133.138, 89.919
1134.365, 151.965
1135.592, 136.510
1136.819, 158.821
1138.046, 160.016
1139.273, 163.715
1140.499, 208.073
1141.725, 193.796
1142.951, 230.211
1144.177, 261.201
1145.403, 258.452
1146.628, 309.411
1147.854, 381.823
1149.079, 419.612
1150.304, 461.716
1151.528, 509.962
1152.753, 559.011
1153.977, 654.186
1155.201, 747.799
1156.425, 808.957
1157.649, 919.268
1158.872, 1016.759
1160.096, 1186.536
1161.319, 1291.299
1162.542, 1401.182
1163.764, 1631.753
1164.987, 1797.529
1166.209, 2064.231
1167.431, 2374.937
1168.653, 2474.677
1169.875, 2813.389
1171.097, 2811.104
1172.318, 2883.822
1173.539, 2837.412
1174.760, 2598.177
1175.981, 2388.861
1177.202, 2070.319
1178.422, 1790.030
1179.642, 1547.482
1180.862, 1341.163
1182.082, 1145.780
1183.302, 1031.349
1184.521, 934.770
1185.740, 841.778
1186.959, 863.359
1188.178, 775.096
1189.397, 810.703
1190.615, 770.843
1191.834, 845.596
1193.052, 931.350
1194.269, 973.105
1195.487, 1072.862
1196.705, 1184.619
1197.922, 1238.378
1199.139, 1389.137
1200.356, 1450.898
1201.573, 1473.705
1202.789, 1529.468
1204.006, 1409.231
1205.222, 1375.994
1206.438, 1280.758
1207.653, 1097.521
1208.869, 997.284
1210.084, 934.047
1211.299, 778.810
1212.514, 712.576
1213.729, 606.341
1214.944, 498.105
1216.158, 499.869
1217.372, 430.632
1218.586, 379.393
1219.800, 358.154
1221.014, 327.913
1222.227, 258.670
1223.440, 259.426
1224.654, 213.180
1225.866, 270.932
1227.079, 162.683
1228.292, 192.431
1229.504, 181.176
1230.716, 103.919
1231.928, 156.658
1233.139, 126.393
1234.351, 116.123
1235.562, 104.855
1236.773, 91.589
1237.984, 80.994
1239.195, 67.061
1240.406, 59.799
1241.616, 49.538
1242.826, 43.275
1244.036, 66.010
1245.246, 67.745
1246.456, 21.476
1247.665, 6.200
1248.874, 58.915
1250.083, 0.627
1251.292, 0.078
1252.501, 20.389
1253.709, 31.321
1254.917, 32.810
1256.125, 2.551
1257.333, 9.605
1258.541, 2.688
1259.748, 5.040
1260.956, 6.603
1262.163, 1.886
1263.370, 15.557
1264.576, 5.023
1265.783, 13.432
1266.989, 22.797
1268.195, 13.756
1269.401, 24.825
1270.607, 1.557
1271.813, 22.088
1273.018, 8.268
1274.223, 7.721
1275.428, 33.000
1276.633, 9.739
1277.838, 32.424
1279.042, 25.124
1280.246, 16.700
1281.450, 3.588
1282.654, 42.198
1283.858, 2.039
1285.061, 4.107
1286.265, 33.512
1287.468, 12.284
1288.671, 5.161
1289.873, 8.971
1291.076, 19.904
1292.278, 10.857
1293.480, 16.478
1294.682, 5.251
1295.884, 7.195
1297.086, 17.861
1298.287, 14.271
1299.488, 12.144
1300.689, 15.906
1301.890, 11.832
1303.091, 7.763
1304.291, 37.663
1305.491, 40.628
1306.691, 31.513
1307.891, 7.441
1309.091, 42.375
1310.290, 72.257
1311.490, 71.084
1312.689, 53.899
1313.888, 73.702
1315.086, 88.492
1316.285, 103.268
1317.483, 71.069
1318.681, 124.823
1319.879, 103.618
1321.077, 94.352
1322.275, 113.077
1323.472, 138.794
1324.669, 80.501
1325.866, 136.192
1327.063, 76.874
1328.260, 90.538
1329.456, 89.237
1330.653, 95.881
1331.849, 91.525
1333.045, 105.153
1334.240, 98.783
1335.436, 98.019
1336.631, 103.982
1337.826, 88.559
1339.021, 101.123
1340.216, 94.674
1341.411, 80.234
1342.605, 83.844
1343.799, 79.473
1344.993, 66.046
1346.187, 93.649
1347.381, 84.207
1348.574, 86.682
1349.767, 107.186
1350.961, 98.380
1352.153, 112.050
1353.346, 113.490
1354.539, 105.899
1355.731, 144.137
1356.923, 102.556
1358.115, 140.918
1359.307, 126.269
1360.498, 117.675
1361.690, 144.993
1362.881, 129.322
1364.072, 142.605
1365.263, 119.875
1366.453, 128.129
1367.644, 130.342
1368.834, 126.638
1370.024, 128.217
1371.214, 127.233
1372.404, 123.219
1373.593, 134.256
1374.783, 134.201
1375.972, 156.066
1377.161, 145.852
1378.349, 171.124
1379.538, 129.384
1380.726, 141.630
1381.915, 164.864
1383.103, 121.084
1384.290, 150.282
1385.478, 127.147
1386.665, 153.914
1387.853, 183.071
1389.040, 110.432
1390.227, 140.175
1391.413, 171.614
1392.600, 113.217
1393.786, 129.132
1394.972, 123.343
1396.158, 53.027
1397.344, 129.003
1398.530, 96.706
1399.715, 97.074
1400.900, 87.540
1402.085, 87.487
1403.270, 65.333
1404.455, 75.935
1405.639, 30.461
1406.824, 52.908
1408.008, 31.344
1409.192, 21.451
1410.375, 23.517
1411.559, 36.797
1412.742, 41.720
1413.925, 43.405
1415.108, 39.388
1416.291, 24.411
1417.474, 59.455
1418.656, 3.523
1419.839, 37.476
1421.021, 36.453
1422.202, 20.406
1423.384, 32.337
1424.566, 46.244
1425.747, 56.127
1426.928, 83.986
1428.109, 17.821
1429.290, 29.631
1430.470, 47.417
1431.651, 30.175
1432.831, 63.829
1434.011, 65.530
1435.191, 11.205
1436.370, 18.852
1437.550, 38.465
1438.729, 34.044
1439.908, 35.594
1441.087, 59.115
1442.266, 27.607
1443.444, 66.070
1444.623, 46.501
1445.801, 51.903
1446.979, 31.278
1448.157, 47.631
1449.334, 33.924
1450.512, 28.140
1451.689, 37.279
1452.866, 70.350
1454.043, 49.350
1455.220, 57.322
1456.396, 89.279
1457.573, 45.773
1458.749, 33.796
1459.925, 45.967
1461.100, 30.216
1462.276, 61.134
1463.451, 49.302
1464.627, 38.827
1465.802, 39.195
1466.977, 69.627
1468.151, 46.847
1469.326, 72.417
1470.500, 26.115
1471.674, 55.229
1472.848, 55.692
1474.022, 50.979
1475.195, 32.919
1476.369, 45.262
1477.542, 52.631
1478.715, 40.383
1479.888, 60.326
