##NAMES=Datolite
##RRUFFID=R050136
##IDEAL CHEMISTRY=CaB(SiO_4_)(OH)
##LOCALITY=Charcas, San Luis Potosi, Mexico
##OWNER=RRUFF
##SOURCE=Dave Bunk Minerals
##DESCRIPTION=Pale green tabular crystals
##STATUS=The identification of this mineral has been confirmed by X-ray diffraction and chemical analysis
##URL=rruff.info/R050136
##MEASURED CHEMISTRY=Ca_1.00_BSi_1.00_O_4_(OH) ; trace amounts of Fe; B and OH estimated by stoichiometry end charge balance
##PIN_ID=L00362
##ORIENTATION=Laser parallel to a* (1 0 0). Fiducial mark perpendicular to laser is parallel to b [0 1 0]
90.650, 0.000
92.046, 0.939
93.442, 42.662
94.838, 22.628
96.233, 28.044
97.628, 39.555
99.023, 49.493
100.418, 55.983
101.812, 3.775
103.206, 3.273
104.600, 78.634
105.994, 92.291
107.387, 144.525
108.781, 32.199
110.174, 23.337
111.566, 96.104
112.959, 94.566
114.351, 94.542
115.744, 89.854
117.136, 99.374
118.527, 23.014
119.919, 33.716
121.310, 38.434
122.701, 38.133
124.092, 63.789
125.482, 30.385
126.873, 102.934
128.263, 210.093
129.653, 462.616
131.042, 728.794
132.432, 1146.759
133.821, 1386.706
135.210, 929.274
136.599, 511.342
137.987, 300.957
139.376, 190.163
140.764, 129.998
142.152, 115.495
143.539, 97.685
144.927, 160.593
146.314, 303.262
147.701, 402.749
149.088, 668.014
150.474, 1070.069
151.861, 1727.930
153.247, 2288.609
154.633, 2149.117
156.018, 1922.469
157.404, 2156.678
158.789, 3287.756
160.174, 5605.710
161.559, 9993.544
162.943, 17456.488
164.327, 25178.551
165.711, 28283.422
167.095, 17936.789
168.479, 9283.169
169.862, 5118.346
171.246, 3405.500
172.628, 3018.245
174.011, 3463.634
175.394, 4993.951
176.776, 6529.808
178.158, 7548.570
179.540, 6117.981
180.922, 3699.438
182.303, 2262.939
183.684, 1544.486
185.065, 1383.073
186.446, 1577.700
187.826, 2182.364
189.207, 3260.061
190.587, 4868.792
191.967, 6679.552
193.346, 6099.339
194.726, 4095.152
196.105, 2432.989
197.484, 1901.844
198.862, 1785.718
200.241, 1823.946
201.619, 1640.853
202.997, 1059.333
204.375, 918.600
205.753, 939.503
207.130, 1192.415
208.507, 1718.336
209.884, 2334.264
211.261, 3032.197
212.638, 3268.129
214.014, 4054.060
215.390, 5804.983
216.766, 9044.896
218.141, 11353.805
219.517, 9212.787
220.892, 5495.785
222.267, 2883.859
223.642, 1589.985
225.016, 954.111
226.391, 604.224
227.765, 443.323
229.139, 372.408
230.512, 347.478
231.886, 298.533
233.259, 172.589
234.632, 62.673
236.005, 6.229
237.377, 4.869
238.749, 16.046
240.122, 9.976
241.493, 63.920
242.865, 29.877
244.237, 62.847
245.608, 60.834
246.979, 17.871
248.350, 4.974
249.720, 18.825
251.090, 33.514
252.461, 18.873
253.830, 56.294
255.200, 74.776
256.570, 84.132
257.939, 86.162
259.308, 55.248
260.677, 28.290
262.045, 25.703
263.414, 110.728
264.782, 189.781
266.150, 412.857
267.517, 693.950
268.885, 1122.030
270.252, 1452.139
271.619, 1698.251
272.986, 1647.362
274.353, 1368.471
275.719, 1112.575
277.085, 714.670
278.451, 532.755
279.817, 385.826
281.182, 344.882
282.548, 382.922
283.913, 511.945
285.278, 794.951
286.642, 1342.939
288.007, 2199.909
289.371, 3640.862
290.735, 5251.797
292.099, 6421.717
293.462, 5455.615
294.826, 3884.486
296.189, 2492.329
297.552, 1512.140
298.914, 1049.915
300.277, 613.654
301.639, 478.360
303.001, 337.035
304.363, 240.682
305.724, 230.300
307.086, 121.892
308.447, 177.458
309.808, 84.000
311.168, 111.517
312.529, 56.234
313.889, 82.705
315.249, 124.343
316.609, 168.860
317.969, 242.269
319.328, 260.661
320.687, 415.035
322.046, 526.394
323.405, 589.736
324.764, 640.064
326.122, 745.376
327.480, 1089.670
328.838, 1573.902
330.196, 2181.062
331.553, 2965.114
332.910, 3320.045
334.267, 3313.916
335.624, 2263.761
336.981, 1318.522
338.337, 853.159
339.693, 491.685
341.049, 336.169
342.405, 231.048
343.760, 200.800
345.116, 173.182
346.471, 169.739
347.826, 215.055
349.180, 236.421
350.535, 304.903
351.889, 310.328
353.243, 456.734
354.597, 619.949
355.950, 801.793
357.304, 1234.426
358.657, 1524.055
360.010, 2010.519
361.362, 2117.980
362.715, 2051.438
364.067, 1846.891
365.419, 1356.337
366.771, 1035.773
368.123, 782.203
369.474, 610.631
370.825, 538.055
372.176, 494.899
373.527, 570.658
374.877, 612.360
376.228, 857.877
377.578, 966.645
378.928, 1098.298
380.277, 1150.899
381.627, 1011.487
382.976, 1160.877
384.325, 1324.261
385.674, 1793.641
387.023, 2510.016
388.371, 3597.385
389.719, 5134.749
391.067, 6087.109
392.415, 6709.461
393.762, 5744.812
395.110, 4133.156
396.457, 3029.495
397.804, 2030.294
399.150, 1452.932
400.497, 1028.260
401.843, 811.290
403.189, 579.707
404.535, 484.743
405.881, 377.921
407.226, 296.035
408.571, 255.282
409.916, 230.231
411.261, 178.998
412.605, 226.007
413.950, 220.403
415.294, 277.560
416.638, 413.159
417.981, 606.074
419.325, 1008.141
420.668, 1592.420
422.011, 2510.165
423.354, 3205.612
424.697, 3284.829
426.039, 2594.848
427.381, 1537.068
428.723, 991.279
430.065, 611.482
431.406, 371.677
432.748, 264.864
434.089, 225.043
435.430, 221.215
436.770, 233.379
438.111, 331.535
439.451, 351.683
440.791, 336.823
442.131, 324.957
443.471, 222.083
444.810, 241.201
446.149, 227.311
447.488, 293.412
448.827, 403.504
450.166, 599.588
451.504, 908.664
452.842, 1463.732
454.180, 2441.792
455.518, 3641.843
456.855, 4936.887
458.193, 5305.108
459.530, 3929.237
460.867, 2749.297
462.203, 1655.326
463.540, 1053.355
464.876, 703.555
466.212, 434.586
467.548, 310.645
468.883, 203.458
470.219, 170.500
471.554, 121.131
472.889, 40.915
474.224, 103.315
475.558, 47.953
476.892, 71.806
478.227, 93.849
479.561, 93.933
480.894, 222.025
482.228, 220.131
483.561, 402.250
484.894, 659.363
486.227, 914.495
487.559, 1481.629
488.892, 2075.773
490.224, 2739.934
491.556, 2663.099
492.888, 2219.273
494.220, 1477.453
495.551, 920.630
496.882, 566.806
498.213, 300.979
499.544, 196.154
500.874, 122.334
502.205, 1.511
503.535, 24.681
504.865, 27.156
506.194, 14.026
507.524, 73.925
508.853, 58.844
510.182, 44.801
511.511, 91.788
512.840, 27.832
514.168, 24.897
515.496, 2.017
516.824, 47.924
518.152, 47.825
519.480, 260.720
520.807, 371.612
522.134, 616.500
523.461, 693.383
524.788, 692.263
526.114, 545.138
527.441, 245.009
528.767, 178.876
530.093, 89.739
531.418, 1.402
532.744, 19.552
534.069, 34.720
535.394, 31.913
536.719, 0.869
538.044, 34.356
539.368, 33.393
540.693, 35.136
542.017, 139.873
543.340, 161.606
544.664, 280.334
545.987, 454.057
547.311, 641.776
548.634, 1024.491
549.956, 1509.201
551.279, 2208.906
552.601, 2932.606
553.923, 3144.302
555.245, 3241.994
556.567, 2598.681
557.889, 2340.365
559.210, 2315.056
560.531, 2382.752
561.852, 2421.458
563.173, 1909.172
564.493, 1423.908
565.813, 1005.657
567.133, 625.428
568.453, 445.220
569.773, 211.023
571.092, 218.831
572.412, 114.641
573.731, 21.449
575.049, 84.265
576.368, 4.899
577.686, 25.956
579.005, 7.164
580.323, 56.738
581.640, 52.657
582.958, 98.588
584.275, 160.519
585.593, 226.445
586.909, 333.366
588.226, 507.282
589.543, 590.193
590.859, 911.284
592.175, 1007.194
593.491, 1101.436
594.807, 1140.535
596.122, 963.433
597.438, 1034.480
598.753, 1077.546
600.068, 1175.960
601.382, 1249.969
602.697, 1079.828
604.011, 903.681
605.325, 633.530
606.639, 429.373
607.952, 289.211
609.266, 228.044
610.579, 161.871
611.892, 85.693
613.205, 104.509
614.518, 80.320
615.830, 31.125
617.142, 52.483
618.454, 67.381
619.766, 84.053
621.078, 79.483
622.389, 39.615
623.700, 113.651
625.011, 74.939
626.322, 133.020
627.632, 182.050
628.943, 103.754
630.253, 216.716
631.563, 160.217
632.872, 294.219
634.182, 310.946
635.491, 314.979
636.800, 432.757
638.109, 484.629
639.418, 601.290
640.726, 693.105
642.035, 886.059
643.343, 1120.389
644.651, 1360.054
645.958, 1807.201
647.266, 2395.811
648.573, 2847.869
649.880, 3971.079
651.187, 4917.890
652.494, 6060.940
653.800, 6916.117
655.106, 6954.094
656.412, 6840.525
657.718, 5652.133
659.024, 5044.741
660.329, 4331.901
661.634, 3933.156
662.939, 3947.772
664.244, 4020.200
665.549, 4594.860
666.853, 4993.457
668.157, 5118.928
669.461, 5170.441
670.765, 4567.965
672.069, 4082.668
673.372, 3678.730
674.675, 3172.991
675.978, 3101.243
677.281, 2995.648
678.583, 3255.043
679.886, 3382.429
681.188, 3888.805
682.490, 4583.174
683.792, 5497.531
685.093, 7511.879
686.394, 10204.218
687.696, 14971.547
688.997, 23188.441
690.297, 32964.406
691.598, 45339.426
692.898, 47984.609
694.198, 41801.523
695.498, 32026.545
696.798, 20813.607
698.097, 14420.669
699.397, 10117.914
700.696, 6983.152
701.995, 5503.379
703.293, 3972.599
704.592, 3333.809
705.890, 2578.010
707.188, 2099.202
708.486, 1861.385
709.784, 1473.559
711.081, 1351.724
712.378, 1140.880
713.675, 963.027
714.972, 906.165
716.269, 725.294
717.565, 739.414
718.862, 570.526
720.158, 529.629
721.453, 473.723
722.749, 378.810
724.045, 432.886
725.340, 331.954
726.635, 294.012
727.930, 318.060
729.224, 283.099
730.519, 311.903
731.813, 238.923
733.107, 293.477
734.401, 322.275
735.694, 187.728
736.988, 241.642
738.281, 211.531
739.574, 155.511
740.867, 175.487
742.160, 126.452
743.452, 109.421
744.744, 153.380
746.036, 62.328
747.328, 104.266
748.620, 28.193
749.911, 56.107
751.202, 103.009
752.493, 65.900
753.784, 59.780
755.075, 18.647
756.365, 70.500
757.655, 122.340
758.945, 118.171
760.235, 222.991
761.525, 264.801
762.814, 308.601
764.103, 382.391
765.392, 314.171
766.681, 354.941
767.969, 249.701
769.258, 188.451
770.546, 116.191
771.834, 17.734
773.122, 76.349
774.409, 23.984
775.697, 4.316
776.984, 0.324
778.271, 14.229
779.558, 18.360
780.844, 47.100
782.131, 14.574
783.417, 6.921
784.703, 61.604
785.989, 10.183
787.274, 14.790
788.560, 61.426
789.845, 17.117
791.130, 27.840
792.415, 29.599
793.699, 58.396
794.983, 45.245
796.268, 26.859
797.552, 70.048
798.835, 12.013
800.119, 36.007
801.402, 68.041
802.686, 11.131
803.969, 38.248
805.251, 16.406
806.534, 14.407
807.816, 10.206
809.098, 14.990
810.380, 3.762
811.662, 15.484
812.944, 67.243
814.225, 75.961
815.506, 193.672
816.787, 142.377
818.068, 214.083
819.349, 236.786
820.629, 302.503
821.909, 524.229
823.189, 605.962
824.469, 853.713
825.749, 1153.465
827.028, 1250.219
828.307, 1267.471
829.586, 1281.709
830.865, 1006.444
832.144, 864.172
833.422, 495.894
834.700, 417.609
835.978, 286.317
837.256, 178.018
838.534, 175.713
839.811, 105.401
841.088, 103.083
842.365, 81.759
843.642, 71.432
844.919, 138.105
846.195, 67.783
847.472, 81.465
848.748, 111.143
850.023, 76.826
851.299, 201.505
852.575, 112.180
853.850, 180.849
855.125, 206.513
856.400, 221.172
857.674, 333.826
858.949, 324.475
860.223, 445.120
861.497, 582.760
862.771, 551.396
864.045, 751.027
865.318, 744.653
866.591, 755.276
867.864, 858.895
869.137, 801.510
870.410, 952.121
871.682, 1113.856
872.955, 1299.600
874.227, 1731.200
875.499, 1989.152
876.770, 2483.745
878.042, 2837.334
879.313, 3169.968
880.584, 3493.550
881.855, 3442.242
883.126, 3283.819
884.396, 3165.393
885.667, 2616.827
886.937, 2478.399
888.207, 2069.611
889.476, 1880.112
890.746, 1738.679
892.015, 1444.508
893.284, 1384.142
894.553, 1268.702
895.822, 1221.357
897.090, 1347.912
898.359, 1200.465
899.627, 1350.048
900.895, 1387.586
902.163, 1407.786
903.430, 1740.120
904.698, 1798.649
905.965, 2101.022
907.232, 2514.368
908.499, 2975.360
909.765, 3826.749
911.032, 4783.281
912.298, 6374.813
913.564, 8749.343
914.830, 11044.869
916.095, 13920.397
917.361, 14735.922
918.626, 14241.447
919.891, 12986.973
921.156, 9942.493
922.420, 7708.016
923.685, 6255.538
924.949, 4704.500
926.213, 4128.915
927.477, 3398.551
928.740, 2949.421
930.004, 2796.585
931.267, 2517.839
932.530, 2625.834
933.793, 2491.031
935.056, 2368.273
936.318, 2461.838
937.581, 2158.139
938.843, 2058.675
940.104, 2007.930
941.366, 1683.267
942.628, 1852.395
943.889, 1648.861
945.150, 1726.229
946.411, 1771.803
947.672, 1671.217
948.932, 1945.489
950.193, 1827.379
951.453, 1961.930
952.713, 1992.994
953.973, 1908.067
955.232, 1940.734
956.491, 1817.724
957.751, 1613.108
959.010, 1688.249
960.268, 1369.277
961.527, 1350.501
962.785, 1090.267
964.044, 1081.854
965.302, 1149.435
966.559, 994.070
967.817, 1007.732
969.075, 1106.406
970.332, 1090.088
971.589, 1353.776
972.846, 1396.473
974.102, 1509.180
975.359, 1946.894
976.615, 2203.630
977.871, 2911.373
979.127, 3867.123
980.383, 4900.880
981.638, 6982.646
982.893, 8208.421
984.149, 9644.218
985.404, 9550.019
986.658, 7755.832
987.913, 6585.653
989.167, 4721.480
990.421, 3443.346
991.675, 2844.218
992.929, 1948.107
994.183, 1611.020
995.436, 1183.941
996.689, 860.884
997.942, 831.834
999.195, 602.792
1000.448, 557.775
1001.700, 490.766
1002.952, 376.765
1004.204, 336.779
1005.456, 202.801
1006.708, 182.845
1007.959, 212.904
1009.210, 81.970
1010.461, 167.059
1011.712, 100.156
1012.963, 33.262
1014.213, 125.396
1015.464, 42.538
1016.714, 21.702
1017.964, 82.874
1019.214, 34.054
1020.463, 52.254
1021.712, 8.537
1022.962, 9.321
1024.210, 44.908
1025.459, 18.855
1026.708, 21.387
1027.956, 41.638
1029.204, 3.103
1030.452, 73.164
1031.700, 7.561
1032.948, 53.721
1034.195, 10.029
1035.442, 35.655
1036.689, 22.661
1037.936, 29.014
1039.183, 37.688
1040.429, 51.638
1041.676, 71.028
1042.922, 41.706
1044.168, 45.615
1045.413, 89.055
1046.659, 3.255
1047.904, 44.578
1049.149, 13.090
1050.394, 138.249
1051.639, 3.597
1052.884, 133.954
1054.128, 99.321
1055.372, 87.695
1056.616, 202.078
1057.860, 200.473
1059.104, 265.878
1060.347, 404.292
1061.590, 380.715
1062.833, 602.146
1064.076, 621.584
1065.319, 907.035
1066.561, 1284.492
1067.803, 1444.961
1069.046, 2143.438
1070.287, 3032.922
1071.529, 4210.414
1072.771, 6884.912
1074.012, 9661.421
1075.253, 13487.938
1076.494, 15424.465
1077.735, 13061.012
1078.975, 10327.572
1080.216, 7074.147
1081.456, 4529.741
1082.696, 3317.344
1083.936, 2212.974
1085.175, 1715.624
1086.415, 1321.285
1087.654, 989.977
1088.893, 857.684
1090.132, 765.410
1091.371, 532.166
1092.609, 596.939
1093.847, 358.733
1095.085, 375.549
1096.323, 410.394
1097.561, 294.263
1098.799, 269.186
1100.036, 230.095
1101.273, 217.142
1102.510, 262.090
1103.747, 163.068
1104.983, 184.383
1106.220, 192.400
1107.456, 68.433
1108.692, 171.837
1109.928, 95.890
1111.163, 88.180
1112.399, 182.411
1113.634, 31.498
1114.869, 111.774
1116.104, 56.873
1117.339, 40.763
1118.573, 177.099
1119.808, 135.216
1121.042, 282.746
1122.276, 352.501
1123.509, 248.702
1124.743, 368.388
1125.976, 216.562
1127.210, 191.829
1128.443, 305.268
1129.675, 217.423
1130.908, 263.359
1132.141, 326.534
1133.373, 302.742
1134.605, 328.406
1135.837, 328.813
1137.068, 351.346
1138.300, 399.385
1139.531, 434.382
1140.762, 470.810
1141.993, 551.928
1143.224, 539.314
1144.455, 654.621
1145.685, 662.992
1146.915, 705.194
1148.145, 835.607
1149.375, 734.862
1150.605, 994.369
1151.834, 1128.163
1153.063, 1091.439
1154.292, 1362.137
1155.521, 1403.899
1156.750, 1590.163
1157.978, 1900.709
1159.207, 1890.103
1160.435, 2442.665
1161.663, 2558.751
1162.891, 2829.021
1164.118, 3404.438
1165.345, 3568.762
1166.573, 4171.969
1167.800, 4731.320
1169.026, 4932.526
1170.253, 5570.799
1171.480, 5590.634
1172.706, 5399.835
1173.932, 5387.051
1175.158, 4642.377
1176.383, 4081.572
1177.609, 3771.114
1178.834, 2880.304
1180.059, 2659.381
1181.284, 2263.019
1182.509, 1767.202
1183.734, 1706.586
1184.958, 1417.057
1186.182, 1335.588
1187.406, 1313.103
1188.630, 1086.383
1189.854, 1182.284
1191.077, 1159.970
1192.301, 1190.127
1193.524, 1358.214
1194.747, 1235.823
1195.969, 1359.970
1197.192, 1641.141
1198.414, 1569.628
1199.636, 1857.764
1200.858, 1853.175
1202.080, 1899.303
1203.302, 2067.428
1204.523, 1755.280
1205.744, 1783.396
1206.966, 1708.507
1208.186, 1435.072
1209.407, 1412.173
1210.628, 1146.270
1211.848, 990.312
1213.068, 1093.399
1214.288, 845.312
1215.508, 690.388
1216.727, 760.458
1217.947, 482.555
1219.166, 626.614
1220.385, 516.668
1221.604, 372.887
1222.822, 479.928
1224.041, 366.964
1225.259, 241.994
1226.477, 390.017
1227.695, 210.234
1228.913, 319.247
1230.130, 249.251
1231.348, 174.617
1232.565, 301.612
1233.782, 186.607
1234.999, 221.600
1236.215, 268.592
1237.432, 157.583
1238.648, 210.572
1239.864, 236.559
1241.080, 138.561
1242.296, 187.542
1243.511, 81.500
1244.726, 62.454
1245.942, 137.405
1247.156, 46.346
1248.371, 105.278
1249.586, 167.204
1250.800, 12.122
1252.014, 133.017
1253.228, 107.905
1254.442, 54.067
1255.656, 101.806
1256.869, 28.637
1258.083, 46.594
1259.296, 125.364
1260.509, 1.728
1261.722, 166.983
1262.934, 5.665
1264.147, 35.891
1265.359, 127.543
1266.571, 17.158
1267.783, 10.828
1268.994, 76.400
1270.206, 37.066
1271.417, 86.508
1272.628, 65.970
1273.839, 31.030
1275.050, 182.459
1276.260, 9.876
1277.471, 26.730
1278.681, 90.647
1279.891, 19.986
1281.101, 46.859
1282.310, 58.168
1283.520, 86.534
1284.729, 119.844
1285.938, 12.925
1287.147, 39.614
1288.356, 59.568
1289.564, 26.270
1290.773, 66.779
1291.981, 107.897
1293.189, 42.999
1294.397, 97.204
1295.604, 42.250
1296.812, 0.719
1298.019, 94.292
1299.226, 30.713
1300.433, 0.254
1301.640, 99.200
1302.846, 27.869
1304.053, 69.242
1305.259, 40.125
1306.465, 52.008
1307.671, 99.994
1308.876, 25.191
1310.082, 87.594
1311.287, 128.362
1312.492, 23.886
1313.697, 161.835
1314.902, 69.539
1316.106, 1.775
1317.310, 131.884
1318.515, 41.525
1319.719, 87.151
1320.922, 203.851
1322.126, 40.437
1323.329, 134.006
1324.533, 131.603
1325.736, 43.866
1326.939, 196.619
1328.141, 104.090
1329.344, 53.542
1330.546, 234.976
1331.748, 56.397
1332.950, 93.806
1334.152, 208.185
1335.354, 29.557
1336.555, 144.916
1337.757, 114.421
1338.958, 4.763
1340.159, 167.079
1341.359, 63.379
1342.560, 49.660
1343.760, 184.097
1344.960, 58.345
1346.160, 161.576
1347.360, 207.039
1348.560, 25.235
1349.759, 143.413
1350.959, 125.574
1352.158, 40.720
1353.357, 186.850
1354.555, 158.975
1355.754, 18.077
1356.952, 205.156
1358.151, 22.221
1359.349, 182.271
1360.546, 154.368
1361.744, 116.375
1362.941, 228.368
1364.139, 174.468
1365.336, 83.436
1366.533, 278.392
1367.730, 169.392
1368.926, 178.322
1370.123, 189.231
1371.319, 77.697
1372.515, 186.575
1373.711, 171.319
1374.906, 51.729
1376.102, 220.054
1377.297, 144.364
1378.492, 145.660
1379.687, 274.940
1380.882, 156.204
1382.077, 178.405
1383.271, 293.509
1384.465, 127.723
1385.659, 305.575
1386.853, 164.994
1388.047, 172.857
1389.240, 285.777
1390.434, 179.529
1391.627, 171.433
1392.820, 297.984
1394.013, 178.177
1395.205, 154.976
1396.398, 243.408
1397.590, 94.378
1398.782, 119.580
1399.974, 162.514
1401.166, 80.694
1402.357, 203.600
1403.549, 76.079
1404.740, 114.487
1405.931, 249.601
1407.122, 23.565
1408.313, 174.800
1409.503, 179.495
1410.693, 79.230
1411.883, 179.698
1413.073, 119.119
1414.263, 70.591
1415.453, 161.185
1416.642, 3.821
1417.831, 119.172
1419.020, 144.281
1420.209, 4.496
1421.398, 113.277
1422.587, 108.333
1423.775, 0.425
1424.963, 243.611
1426.151, 119.015
1427.339, 47.620
1428.526, 211.745
1429.714, 50.797
1430.901, 73.640
1432.088, 193.554
1433.275, 7.345
1434.462, 95.948
1435.648, 129.413
1436.835, 37.951
1438.021, 196.620
1439.207, 92.730
1440.393, 98.746
1441.579, 307.462
1442.764, 88.460
1443.949, 153.422
1445.135, 167.945
1446.320, 18.080
1447.504, 99.869
1448.689, 136.564
1449.873, 22.161
1451.058, 168.620
1452.242, 134.062
1453.426, 60.449
1454.609, 205.769
1455.793, 79.008
1456.976, 116.232
1458.159, 203.967
1459.342, 60.747
1460.525, 194.615
1461.708, 136.996
1462.890, 27.913
1464.073, 211.173
1465.255, 175.719
1466.437, 39.200
1467.619, 206.184
1468.800, 117.942
1469.982, 66.588
1471.163, 281.579
1472.344, 74.800
1473.525, 112.104
1474.706, 225.694
1475.886, 48.119
1477.066, 177.130
1478.247, 171.648
1479.427, 2.127
1480.607, 222.569
1481.786, 97.135
1482.966, 76.510
1484.145, 247.118
1485.324, 0.573
1486.503, 153.726
1487.682, 225.032
1488.860, 4.629
1490.039, 69.219
1491.217, 171.586
1492.395, 54.718
1493.573, 121.243
1494.751, 112.846
1495.928, 30.460
1497.106, 267.280
1498.283, 46.896
1499.460, 49.733
1500.637, 188.673
1501.814, 18.065
1502.990, 171.476
1504.166, 282.365
1505.342, 9.341
1506.518, 190.208
1507.694, 90.290
1508.870, 26.455
1510.045, 271.639
1511.221, 69.302
1512.396, 1.479
1513.571, 204.996
1514.745, 11.380
1515.920, 0.000
