##NAMES=Datolite
##RRUFFID=R050033
##IDEAL CHEMISTRY=CaB(SiO_4_)(OH)
##LOCALITY=Westfield, Massachusetts, USA
##OWNER=RRUFF
##SOURCE=University of Arizona Mineral Museum
##DESCRIPTION=Group of pale green single crystals
##STATUS=The identification of this mineral has been confirmed by X-ray diffraction and chemical analysis
##URL=rruff.info/R050033
##MEASURED CHEMISTRY=Ca_1.00_B_1.00_Si_1.00_O_4_(OH) ; trace amounts of Al and Na; B measured and corrected according to stoichiometry;  OH estimated by stoichiometry end charge balance
##PIN_ID=L00153
##ORIENTATION=Laser parallel to -a* (-1 0 0). Fiducial mark perpendicular to laser is parallel to -b [0 -1 0]
52.937, 0.000
54.335, 87.484
55.734, 113.900
57.132, 176.208
58.530, 264.684
59.927, 307.741
61.325, 329.406
62.722, 316.295
64.119, 231.307
65.515, 123.473
66.912, 103.852
68.308, 59.106
69.704, 87.047
71.100, 126.291
72.496, 140.844
73.891, 131.174
75.287, 135.744
76.682, 99.618
78.076, 68.505
79.471, 32.203
80.865, 13.488
82.260, 22.853
83.653, 2.667
85.047, 17.864
86.441, 16.839
87.834, 20.065
89.227, 26.869
90.620, 0.504
92.013, 15.935
93.405, 23.431
94.797, 30.794
96.189, 67.823
97.581, 73.044
98.973, 77.446
100.364, 71.308
101.755, 91.350
103.146, 89.598
104.537, 90.015
105.927, 111.629
107.318, 130.019
108.708, 154.091
110.098, 257.867
111.487, 359.831
112.877, 308.153
114.266, 546.604
115.655, 259.370
117.044, 102.920
118.432, 159.297
119.821, 51.523
121.209, 61.569
122.597, 26.437
123.984, 70.135
125.372, 32.672
126.759, 58.059
128.146, 123.325
129.533, 221.475
130.920, 389.500
132.306, 549.404
133.692, 670.192
135.078, 651.871
136.464, 391.511
137.850, 232.299
139.235, 73.202
140.620, 87.187
142.005, 67.293
143.390, 53.949
144.774, 123.324
146.159, 209.763
147.543, 368.451
148.927, 615.483
150.310, 972.220
151.694, 1430.584
153.077, 1923.161
154.460, 2081.120
155.843, 1776.292
157.226, 1887.361
158.608, 2434.186
159.990, 4174.012
161.372, 6956.287
162.754, 11352.539
164.135, 15843.771
165.517, 18724.994
166.898, 15816.210
168.279, 9067.415
169.659, 4982.591
171.040, 2985.728
172.420, 2563.827
173.800, 2969.890
175.180, 3940.938
176.560, 5182.977
177.939, 5733.009
179.318, 5124.024
180.697, 3393.005
182.076, 2046.888
183.455, 1276.886
184.833, 999.051
186.211, 1137.661
187.589, 1516.497
188.967, 2295.312
190.344, 3393.106
191.722, 4507.878
193.099, 4908.630
194.475, 3678.360
195.852, 2332.071
197.229, 1481.761
198.605, 1181.434
199.981, 1115.448
201.357, 1042.835
202.732, 871.308
204.108, 828.738
205.483, 769.516
206.858, 875.328
208.233, 1216.119
209.607, 1709.889
210.981, 2262.637
212.356, 2906.364
213.730, 3662.072
215.103, 5158.777
216.477, 7278.487
217.850, 9534.176
219.223, 9252.936
220.596, 6056.355
221.969, 3241.366
223.341, 1727.946
224.713, 954.089
226.085, 588.783
227.457, 450.979
228.829, 395.733
230.200, 341.103
231.571, 297.998
232.942, 193.345
234.313, 135.811
235.684, 54.138
237.054, 19.940
238.424, 7.760
239.794, 36.784
241.164, 37.464
242.533, 59.470
243.902, 23.859
245.272, 37.724
246.640, 20.978
248.009, 0.850
249.378, 16.078
250.746, 25.588
252.114, 3.154
253.482, 57.074
254.849, 72.826
256.217, 52.939
257.584, 47.752
258.951, 53.499
260.318, 22.198
261.684, 16.384
263.051, 29.943
264.417, 143.478
265.783, 273.926
267.148, 548.507
268.514, 779.037
269.879, 1095.524
271.244, 1349.087
272.609, 1306.684
273.974, 1193.341
275.338, 908.395
276.703, 705.644
278.067, 468.837
279.431, 384.028
280.794, 405.952
282.158, 482.187
283.521, 747.633
284.884, 1088.379
286.247, 1821.181
287.609, 3104.585
288.972, 4757.408
290.334, 6739.843
291.696, 7934.516
293.058, 7803.637
294.419, 5712.147
295.781, 3748.051
297.142, 2342.936
298.503, 1476.802
299.864, 1030.649
301.224, 705.479
302.584, 550.921
303.945, 454.553
305.304, 324.284
306.664, 319.829
308.024, 208.236
309.383, 205.093
310.742, 186.213
312.101, 193.724
313.460, 177.134
314.818, 159.458
316.176, 226.719
317.534, 203.940
318.892, 303.047
320.250, 349.065
321.607, 461.006
322.964, 604.915
324.321, 802.809
325.678, 1154.695
327.035, 1562.573
328.391, 2213.444
329.747, 2864.307
331.103, 3488.161
332.459, 3694.008
333.815, 3327.849
335.170, 2626.681
336.525, 1699.507
337.880, 1050.325
339.235, 600.137
340.589, 356.942
341.944, 296.962
343.298, 220.829
344.652, 235.069
346.005, 183.113
347.359, 203.292
348.712, 188.720
350.065, 196.281
351.418, 198.039
352.771, 210.691
354.123, 290.472
355.475, 332.129
356.828, 447.363
358.179, 634.327
359.531, 758.077
360.882, 945.754
362.234, 1056.425
363.585, 984.087
364.936, 826.740
366.286, 686.382
367.637, 586.015
368.987, 485.640
370.337, 510.269
371.687, 523.375
373.036, 686.474
374.386, 934.357
375.735, 1190.998
377.084, 1538.888
378.432, 1687.525
379.781, 1709.140
381.129, 1580.699
382.478, 1431.217
383.825, 1503.695
385.173, 1733.135
386.521, 2212.539
387.868, 2861.909
389.215, 3814.246
390.562, 5043.553
391.909, 5504.831
393.255, 5294.043
394.602, 4278.048
395.948, 3153.594
397.294, 2263.879
398.639, 1570.515
399.985, 1184.564
401.330, 864.286
402.675, 642.265
404.020, 494.196
405.365, 372.742
406.709, 357.523
408.054, 272.436
409.398, 285.406
410.742, 231.809
412.085, 198.171
413.429, 229.413
414.772, 248.993
416.115, 304.851
417.458, 344.832
418.800, 581.069
420.143, 952.714
421.485, 1301.978
422.827, 1901.139
424.169, 2169.330
425.511, 1949.745
426.852, 1461.008
428.193, 872.815
429.534, 552.831
430.875, 350.842
432.216, 312.848
433.556, 317.848
434.896, 377.843
436.236, 490.833
437.576, 567.814
438.916, 699.788
440.255, 717.754
441.594, 647.712
442.933, 607.664
444.272, 484.612
445.611, 506.556
446.949, 627.497
448.287, 767.437
449.625, 1081.375
450.963, 1607.312
452.300, 2410.248
453.638, 3671.182
454.975, 5420.142
456.312, 6908.067
457.649, 7577.985
458.985, 6849.278
460.321, 4785.190
461.658, 3166.257
462.994, 1898.171
464.329, 1310.085
465.665, 881.007
467.000, 621.940
468.335, 462.874
469.670, 317.459
471.005, 242.049
472.340, 178.571
473.674, 120.143
475.008, 119.654
476.342, 120.104
477.676, 106.858
479.009, 135.526
480.342, 122.565
481.676, 193.605
483.009, 225.646
484.341, 382.703
485.674, 574.758
487.006, 853.826
488.338, 1378.898
489.670, 1724.983
491.002, 1953.088
492.333, 1697.191
493.665, 1290.306
494.996, 788.429
496.327, 483.552
497.657, 314.679
498.988, 184.803
500.318, 104.942
501.648, 41.079
502.978, 55.789
504.308, 1.866
505.637, 58.885
506.967, 77.159
508.296, 65.401
509.625, 67.747
510.953, 39.106
512.282, 37.481
513.610, 55.823
514.938, 37.950
516.266, 6.099
517.594, 19.745
518.921, 68.584
520.249, 214.419
521.576, 321.251
522.903, 484.082
524.229, 523.909
525.556, 414.733
526.882, 335.555
528.208, 154.375
529.534, 75.191
530.860, 5.995
532.185, 30.189
533.511, 6.601
534.836, 40.615
536.161, 2.147
537.485, 57.903
538.810, 60.657
540.134, 115.407
541.458, 140.155
542.782, 257.900
544.106, 332.644
545.429, 539.384
546.753, 807.123
548.076, 1151.861
549.399, 1716.596
550.721, 2525.330
552.044, 3341.062
553.366, 3980.793
554.688, 3814.523
556.010, 3370.255
557.332, 2677.990
558.653, 2406.729
559.975, 2279.485
561.296, 2229.251
562.617, 2048.039
563.937, 1511.847
565.258, 1125.682
566.578, 719.535
567.898, 499.410
569.218, 335.302
570.538, 187.204
571.858, 159.122
573.177, 108.047
574.496, 74.981
575.815, 43.942
577.134, 44.931
578.452, 26.945
579.771, 33.980
581.089, 71.039
582.407, 127.114
583.724, 137.195
585.042, 260.283
586.359, 373.373
587.676, 521.462
588.993, 824.551
590.310, 974.639
591.627, 1234.726
592.943, 1368.812
594.259, 1273.896
595.575, 1108.980
596.891, 982.063
598.206, 935.232
599.522, 858.312
600.837, 853.450
602.152, 806.642
603.467, 714.720
604.781, 611.797
606.096, 370.872
607.410, 272.947
608.724, 177.020
610.038, 141.092
611.351, 131.163
612.665, 36.233
613.978, 53.302
615.291, 47.369
616.604, 5.565
617.916, 79.195
619.229, 5.493
620.541, 69.256
621.853, 85.603
623.165, 61.355
624.476, 175.706
625.788, 147.882
627.099, 192.916
628.410, 200.799
629.721, 213.896
631.032, 240.603
632.342, 227.267
633.652, 267.101
634.962, 301.106
636.272, 302.006
637.582, 461.597
638.891, 451.209
640.201, 556.049
641.510, 690.439
642.818, 778.496
644.127, 993.218
645.436, 1242.599
646.744, 1651.095
648.052, 2071.080
649.360, 2503.373
650.668, 3433.694
651.975, 4069.996
653.282, 4927.433
654.590, 5294.829
655.896, 5248.798
657.203, 5016.553
658.510, 4191.711
659.816, 3846.440
661.122, 3345.309
662.428, 3348.794
663.734, 3338.456
665.039, 3587.967
666.345, 3906.212
667.650, 4065.308
668.955, 4168.196
670.260, 4050.177
671.564, 3615.019
672.869, 3304.973
674.173, 3102.338
675.477, 2994.962
676.781, 3044.789
678.084, 3127.678
679.388, 3496.562
680.691, 3913.441
681.994, 4557.315
683.297, 5730.187
684.599, 7173.054
685.902, 10012.915
687.204, 14261.761
688.506, 21280.117
689.808, 31667.477
691.109, 41836.027
692.411, 50862.820
693.712, 47131.332
695.013, 37780.121
696.314, 26748.895
697.615, 17667.715
698.915, 12466.533
700.216, 8645.351
701.516, 6404.162
702.816, 5259.973
704.115, 3947.775
705.415, 3457.575
706.714, 2767.371
708.013, 2291.162
709.312, 1951.950
710.611, 1589.734
711.910, 1492.514
713.208, 1225.290
714.506, 1089.062
715.804, 977.830
717.102, 839.593
718.399, 765.353
719.697, 669.108
720.994, 530.862
722.291, 547.610
723.588, 422.358
724.884, 414.100
726.181, 363.838
727.477, 367.573
728.773, 297.303
730.069, 280.030
731.365, 271.753
732.660, 289.431
733.955, 263.114
735.250, 272.719
736.545, 274.358
737.840, 333.073
739.134, 291.783
740.429, 346.497
741.723, 380.205
743.017, 328.908
744.310, 306.611
745.604, 252.308
746.897, 166.999
748.190, 195.685
749.483, 109.366
750.776, 100.041
752.069, 89.711
753.361, 30.375
754.653, 76.033
755.945, 36.686
757.237, 27.332
758.529, 62.972
759.820, 86.606
761.111, 166.235
762.402, 172.859
763.693, 203.477
764.984, 219.090
766.274, 178.698
767.564, 151.301
768.854, 108.868
770.144, 80.460
771.434, 53.047
772.724, 8.751
774.013, 20.809
775.302, 24.797
776.591, 2.274
777.880, 8.769
779.168, 34.286
780.456, 25.163
781.745, 29.394
783.033, 42.984
784.320, 14.612
785.608, 57.265
786.895, 6.964
788.183, 26.683
789.470, 61.432
790.756, 12.229
792.043, 87.048
793.329, 9.071
794.616, 4.179
795.902, 52.727
797.188, 27.325
798.473, 42.629
799.759, 5.620
801.044, 39.628
802.329, 63.673
803.614, 14.235
804.899, 37.865
806.183, 21.999
807.467, 8.842
808.752, 8.327
810.036, 29.487
811.319, 46.703
812.603, 14.069
813.886, 77.835
815.169, 24.599
816.452, 82.372
817.735, 85.145
819.018, 133.930
820.300, 216.730
821.583, 221.544
822.865, 389.373
824.146, 445.208
825.428, 599.049
826.710, 750.901
827.991, 838.760
829.272, 839.619
830.553, 745.477
831.834, 624.332
833.114, 432.186
834.394, 276.036
835.675, 267.885
836.955, 152.732
838.234, 147.576
839.514, 156.419
840.793, 92.260
842.073, 137.099
843.352, 142.939
844.630, 94.785
845.909, 142.631
847.187, 110.485
848.466, 174.340
849.744, 130.194
851.022, 167.047
852.299, 188.899
853.577, 215.751
854.854, 216.601
856.131, 267.017
857.408, 330.302
858.685, 375.151
859.961, 478.001
861.238, 573.850
862.514, 679.700
863.790, 740.549
865.066, 848.399
866.341, 947.249
867.617, 954.099
868.892, 1087.950
870.167, 1096.801
871.442, 1476.653
872.717, 1746.515
873.991, 2039.818
875.265, 2552.672
876.540, 3046.096
877.813, 3643.952
879.087, 4166.810
880.361, 4429.949
881.634, 4497.808
882.907, 4364.184
884.180, 4010.045
885.453, 3644.908
886.726, 3017.629
887.998, 2758.559
889.270, 2278.133
890.542, 2076.205
891.814, 1867.105
893.086, 1542.097
894.357, 1581.970
895.628, 1444.857
896.900, 1356.780
898.170, 1430.658
899.441, 1374.538
900.712, 1451.419
901.982, 1567.302
903.252, 1636.187
904.522, 1924.073
905.792, 2008.962
907.062, 2375.766
908.331, 2882.660
909.600, 3331.497
910.869, 4354.282
912.138, 5532.182
913.407, 7188.085
914.675, 9431.992
915.944, 11459.899
917.212, 13227.810
918.480, 13285.727
919.747, 11803.646
921.015, 10121.563
922.282, 7783.487
923.549, 6243.414
924.816, 5028.344
926.083, 3927.580
927.350, 3550.282
928.616, 2948.518
929.882, 2794.173
931.148, 2705.427
932.414, 2572.083
933.680, 2637.918
934.945, 2510.897
936.211, 2422.031
937.476, 2359.956
938.741, 2087.214
940.005, 2000.641
941.270, 1899.843
942.534, 1708.879
943.799, 1790.018
945.063, 1707.477
946.326, 1706.918
947.590, 1825.136
948.853, 1708.806
950.117, 1878.812
951.380, 1839.157
952.643, 1950.847
953.905, 2006.426
955.168, 1812.519
956.430, 1891.308
957.692, 1794.079
958.954, 1610.874
960.216, 1479.538
961.478, 1294.247
962.739, 1220.387
964.000, 1101.749
965.261, 1027.713
966.522, 1079.887
967.783, 971.077
969.043, 1046.278
970.303, 1148.489
971.563, 1152.716
972.823, 1347.954
974.083, 1541.202
975.343, 1843.460
976.602, 2213.730
977.861, 2709.030
979.120, 3611.342
980.379, 4740.664
981.638, 6317.998
982.896, 8404.341
984.154, 9832.700
985.412, 10411.075
986.670, 9439.463
987.928, 7525.875
989.185, 5837.300
990.443, 4320.737
991.700, 3188.199
992.957, 2577.678
994.214, 1877.171
995.470, 1546.687
996.727, 1223.214
997.983, 951.767
999.239, 856.343
1000.495, 619.932
1001.750, 578.542
1003.006, 473.165
1004.261, 396.811
1005.516, 325.493
1006.771, 272.186
1008.026, 208.902
1009.280, 159.635
1010.535, 90.380
1011.789, 163.154
1013.043, 83.940
1014.297, 75.737
1015.550, 119.557
1016.804, 77.389
1018.057, 34.232
1019.310, 82.090
1020.563, 9.959
1021.816, 63.840
1023.068, 0.733
1024.321, 23.363
1025.573, 32.548
1026.825, 27.529
1028.077, 8.400
1029.328, 17.340
1030.580, 16.708
1031.831, 36.253
1033.082, 25.774
1034.333, 24.205
1035.584, 19.196
1036.834, 36.802
1038.085, 4.796
1039.335, 59.780
1040.585, 46.767
1041.834, 1.754
1043.084, 69.730
1044.334, 11.287
1045.583, 0.317
1046.832, 42.643
1048.081, 79.400
1049.329, 20.455
1050.578, 64.522
1051.826, 93.600
1053.074, 81.693
1054.322, 142.797
1055.570, 163.913
1056.818, 153.041
1058.065, 248.181
1059.312, 253.334
1060.559, 356.500
1061.806, 478.678
1063.053, 510.872
1064.299, 703.078
1065.546, 837.296
1066.792, 1097.526
1068.038, 1487.768
1069.284, 1946.021
1070.529, 2701.287
1071.775, 3975.563
1073.020, 5669.852
1074.265, 8743.150
1075.510, 12112.468
1076.754, 15041.797
1077.999, 15431.142
1079.243, 11940.512
1080.487, 8899.899
1081.731, 5908.306
1082.975, 4002.740
1084.219, 2972.187
1085.462, 2065.657
1086.705, 1549.157
1087.948, 1353.679
1089.191, 1038.232
1090.434, 916.804
1091.676, 729.401
1092.919, 596.030
1094.161, 597.679
1095.403, 387.369
1096.645, 477.072
1097.886, 421.792
1099.128, 333.541
1100.369, 380.302
1101.610, 328.091
1102.851, 273.897
1104.091, 274.730
1105.332, 220.596
1106.572, 230.984
1107.812, 240.889
1109.052, 253.898
1110.292, 225.837
1111.532, 179.794
1112.771, 236.267
1114.010, 202.479
1115.249, 118.485
1116.488, 214.382
1117.727, 163.410
1118.966, 141.448
1120.204, 249.785
1121.442, 171.845
1122.680, 228.914
1123.918, 268.022
1125.155, 212.115
1126.393, 306.101
1127.630, 306.214
1128.867, 257.472
1130.104, 388.637
1131.341, 350.779
1132.577, 427.454
1133.814, 496.633
1135.050, 452.804
1136.286, 545.030
1137.522, 555.796
1138.757, 555.993
1139.993, 669.581
1141.228, 639.227
1142.463, 768.768
1143.698, 790.900
1144.933, 843.135
1146.167, 983.823
1147.402, 1008.710
1148.636, 1080.355
1149.870, 1272.734
1151.104, 1274.483
1152.338, 1426.523
1153.571, 1572.417
1154.804, 1644.704
1156.037, 1936.774
1157.270, 2102.306
1158.503, 2371.609
1159.736, 2729.905
1160.968, 2848.478
1162.200, 3312.794
1163.432, 3569.686
1164.664, 3993.012
1165.896, 4535.358
1167.127, 4958.294
1168.359, 5461.631
1169.590, 6314.058
1170.821, 6489.402
1172.052, 7071.741
1173.282, 7288.743
1174.513, 6938.100
1175.743, 6732.890
1176.973, 5895.254
1178.203, 5296.620
1179.433, 4587.738
1180.662, 3712.110
1181.892, 3323.969
1183.121, 2778.348
1184.350, 2325.730
1185.579, 2143.257
1186.807, 1790.579
1188.036, 1617.261
1189.264, 1509.450
1190.492, 1390.876
1191.720, 1367.153
1192.948, 1314.691
1194.176, 1279.097
1195.403, 1350.454
1196.630, 1389.944
1197.857, 1486.412
1199.084, 1616.821
1200.311, 1573.686
1201.537, 1836.099
1202.764, 1839.514
1203.990, 1816.931
1205.216, 1852.349
1206.442, 1713.153
1207.667, 1618.573
1208.893, 1469.994
1210.118, 1277.449
1211.343, 1155.872
1212.568, 1029.300
1213.793, 836.762
1215.017, 854.187
1216.242, 690.707
1217.466, 637.133
1218.690, 600.561
1219.914, 483.988
1221.137, 529.415
1222.361, 433.845
1223.584, 375.434
1224.807, 390.864
1226.030, 285.294
1227.253, 299.724
1228.476, 317.153
1229.698, 189.603
1230.920, 246.030
1232.142, 286.456
1233.364, 149.985
1234.586, 252.406
1235.808, 143.827
1237.029, 193.286
1238.250, 169.701
1239.471, 80.112
1240.692, 134.526
1241.913, 146.942
1243.133, 94.361
1244.353, 107.781
1245.574, 100.204
1246.794, 54.621
1248.013, 83.039
1249.233, 66.458
1250.452, 89.874
1251.672, 49.286
1252.891, 18.267
1254.110, 83.133
1255.328, 6.533
1256.547, 19.975
1257.765, 91.350
1258.983, 0.275
1260.201, 5.199
1261.419, 72.539
1262.637, 5.083
1263.854, 35.368
1265.072, 41.654
1266.289, 10.423
1267.506, 56.920
1268.723, 33.200
1269.939, 21.358
1271.156, 77.514
1272.372, 65.877
1273.588, 53.681
1274.804, 14.758
1276.020, 25.424
1277.235, 52.503
1278.451, 5.562
1279.666, 17.881
1280.881, 72.212
1282.096, 33.756
1283.310, 6.546
1284.525, 43.551
1285.739, 38.338
1286.953, 6.973
1288.167, 14.993
1289.381, 29.913
1290.595, 75.026
1291.808, 38.042
1293.022, 24.945
1294.235, 14.946
1295.448, 16.173
1296.660, 13.142
1297.873, 26.011
1299.085, 71.185
1300.298, 74.611
1301.510, 25.602
1302.722, 0.834
1303.933, 86.921
1305.145, 44.333
1306.356, 24.387
1307.567, 81.099
1308.778, 21.198
1309.989, 124.484
1311.200, 55.158
1312.410, 13.823
1313.621, 80.477
1314.831, 41.121
1316.041, 83.755
1317.250, 102.380
1318.460, 40.995
1319.670, 114.602
1320.879, 101.197
1322.088, 84.785
1323.297, 139.361
1324.506, 58.926
1325.714, 102.475
1326.922, 150.013
1328.131, 100.535
1329.339, 134.048
1330.547, 101.535
1331.754, 124.019
1332.962, 106.475
1334.169, 73.927
1335.376, 56.374
1336.583, 106.807
1337.790, 44.238
1338.997, 68.655
1340.203, 87.166
1341.410, 53.562
1342.616, 59.948
1343.822, 79.323
1345.028, 26.687
1346.233, 96.074
1347.439, 76.414
1348.644, 83.744
1349.849, 121.062
1351.054, 31.368
1352.259, 123.662
1353.463, 110.944
1354.668, 10.214
1355.872, 140.467
1357.076, 78.864
1358.280, 71.096
1359.483, 108.317
1360.687, 58.747
1361.890, 86.949
1363.094, 170.139
1364.297, 93.319
1365.499, 134.490
1366.702, 153.527
1367.905, 52.679
1369.107, 174.823
1370.309, 96.093
1371.511, 97.213
1372.713, 164.314
1373.914, 80.406
1375.116, 106.489
1376.317, 119.495
1377.518, 61.467
1378.719, 110.409
1379.920, 94.394
1381.121, 77.266
1382.321, 190.082
1383.521, 110.843
1384.721, 126.952
1385.921, 181.052
1387.121, 126.142
1388.321, 229.223
1389.520, 184.293
1390.719, 118.764
1391.918, 150.713
1393.117, 160.737
1394.316, 118.970
1395.514, 219.005
1396.713, 87.980
1397.911, 178.509
1399.109, 193.411
1400.307, 76.795
1401.505, 144.487
1402.702, 119.280
1403.899, 65.132
1405.097, 149.315
1406.294, 80.348
1407.490, 55.263
1408.687, 103.980
1409.884, 17.335
1411.080, 53.105
1412.276, 62.324
1413.472, 0.149
1414.668, 117.891
1415.863, 11.535
1417.059, 8.191
1418.254, 117.927
1419.449, 1.980
1420.644, 52.225
1421.839, 112.141
1423.033, 12.984
1424.228, 43.007
1425.422, 75.980
1426.616, 14.890
1427.810, 129.825
1429.004, 31.741
1430.197, 9.638
1431.391, 134.424
1432.584, 29.070
1433.777, 59.879
1434.970, 119.470
1436.163, 22.546
1437.355, 62.308
1438.548, 85.050
1439.740, 6.137
1440.932, 85.103
1442.124, 59.741
1443.315, 97.298
1444.507, 138.730
1445.698, 101.299
1446.889, 121.837
1448.080, 151.057
1449.271, 130.532
1450.462, 138.941
1451.652, 142.365
1452.843, 69.560
1454.033, 152.849
1455.223, 143.200
1456.413, 123.494
1457.602, 175.717
1458.792, 124.883
1459.981, 126.992
1461.170, 158.054
1462.359, 91.986
1463.548, 164.830
1464.737, 183.801
1465.925, 137.517
1467.113, 158.083
1468.302, 159.599
1469.490, 76.400
1470.677, 155.321
1471.865, 40.382
1473.052, 77.333
1474.240, 120.789
1475.427, 63.864
1476.614, 79.364
1477.800, 181.310
1478.987, 58.371
1480.173, 157.115
1481.360, 79.640
1482.546, 13.719
1483.732, 146.275
1484.917, 87.296
