##NAMES=Datolite
##RRUFFID=R050136
##IDEAL CHEMISTRY=CaB(SiO_4_)(OH)
##LOCALITY=Charcas, San Luis Potosi, Mexico
##OWNER=RRUFF
##SOURCE=Dave Bunk Minerals
##DESCRIPTION=Pale green tabular crystals
##STATUS=The identification of this mineral has been confirmed by X-ray diffraction and chemical analysis
##URL=rruff.info/R050136
##MEASURED CHEMISTRY=Ca_1.00_BSi_1.00_O_4_(OH) ; trace amounts of Fe; B and OH estimated by stoichiometry end charge balance
##PIN_ID=L00087
##ORIENTATION=Laser parallel to (-1 0 -1). Fiducial mark perpendicular to laser is parallel to -b [0 -1 0]
90.650, 0.000
92.046, 116.674
93.442, 20.116
94.838, 1.024
96.233, 105.033
97.628, 88.884
99.023, 119.526
100.418, 92.590
101.812, 111.693
103.206, 43.927
104.600, 4.730
105.994, 141.387
107.387, 220.240
108.781, 183.159
110.174, 64.836
111.566, 105.597
112.959, 115.304
114.351, 150.099
115.744, 159.876
117.136, 211.311
118.527, 261.278
119.919, 122.647
121.310, 193.449
122.701, 46.327
124.092, 137.485
125.482, 91.364
126.873, 109.548
128.263, 133.807
129.653, 236.250
131.042, 724.211
132.432, 1483.469
133.821, 3330.824
135.210, 3521.572
136.599, 1907.347
137.987, 875.491
139.376, 351.034
140.764, 202.440
142.152, 36.286
143.539, 57.383
144.927, 11.297
146.314, 26.258
147.701, 28.683
149.088, 22.324
150.474, 181.302
151.861, 276.029
153.247, 825.008
154.633, 1115.611
156.018, 1055.875
157.404, 839.774
158.789, 759.712
160.174, 1254.076
161.559, 2032.660
162.943, 4825.149
164.327, 10449.508
165.711, 16806.453
167.095, 16177.668
168.479, 7659.806
169.862, 3381.225
171.246, 1700.013
172.628, 1095.259
174.011, 949.073
175.394, 1124.661
176.776, 1848.434
178.158, 2611.714
179.540, 3148.060
180.922, 2028.019
182.303, 981.561
183.684, 541.163
185.065, 340.803
186.446, 295.060
187.826, 198.885
189.207, 359.598
190.587, 401.206
191.967, 715.794
193.346, 901.360
194.726, 637.923
196.105, 430.021
197.484, 233.237
198.862, 375.235
200.241, 536.257
201.619, 606.638
202.997, 495.231
204.375, 188.544
205.753, 201.080
207.130, 106.654
208.507, 191.609
209.884, 244.529
211.261, 380.405
212.638, 546.230
214.014, 616.999
215.390, 952.710
216.766, 1818.248
218.141, 3578.350
219.517, 4281.274
220.892, 2807.342
222.267, 1479.926
223.642, 590.291
225.016, 384.600
226.391, 207.850
227.765, 154.017
229.139, 115.118
230.512, 76.146
231.886, 82.073
233.259, 15.910
234.632, 44.685
236.005, 11.582
237.377, 27.896
238.749, 2.261
240.122, 45.679
241.493, 6.166
242.865, 84.742
244.237, 16.580
245.608, 48.215
246.979, 21.156
248.350, 14.745
249.720, 47.524
251.090, 12.948
252.461, 0.483
253.830, 4.229
255.200, 42.713
256.570, 2.682
257.939, 31.427
259.308, 46.482
260.677, 28.881
262.045, 1.665
263.414, 78.266
264.782, 159.992
266.150, 108.281
267.517, 264.327
268.885, 324.795
270.252, 606.272
271.619, 738.588
272.986, 1153.817
274.353, 1497.723
275.719, 1377.821
277.085, 1178.949
278.451, 666.948
279.817, 492.928
281.182, 319.760
282.548, 287.495
283.913, 300.470
285.278, 301.341
286.642, 432.779
288.007, 600.704
289.371, 934.478
290.735, 2105.267
292.099, 2486.092
293.462, 3011.993
294.826, 2206.207
296.189, 1505.034
297.552, 882.859
298.914, 576.595
300.277, 425.320
301.639, 284.953
303.001, 315.789
304.363, 231.208
305.724, 232.707
307.086, 209.838
308.447, 220.926
309.808, 210.575
311.168, 151.305
312.529, 217.271
313.889, 212.275
315.249, 209.942
316.609, 238.017
317.969, 222.491
319.328, 334.065
320.687, 385.304
322.046, 556.485
323.405, 588.976
324.764, 574.753
326.122, 611.565
327.480, 496.870
328.838, 652.007
330.196, 814.979
331.553, 1203.767
332.910, 1425.411
334.267, 1613.930
335.624, 1607.300
336.981, 860.558
338.337, 679.996
339.693, 452.350
341.049, 313.658
342.405, 343.472
343.760, 297.870
345.116, 330.086
346.471, 328.384
347.826, 393.250
349.180, 409.677
350.535, 420.610
351.889, 643.756
353.243, 572.548
354.597, 813.745
355.950, 999.771
357.304, 1357.722
358.657, 1958.284
360.010, 2498.489
361.362, 3481.279
362.715, 3667.762
364.067, 3857.883
365.419, 3617.123
366.771, 2204.994
368.123, 1815.254
369.474, 1470.695
370.825, 1954.049
372.176, 2090.554
373.527, 811.644
374.877, 784.105
376.228, 719.971
377.578, 874.319
378.928, 835.692
380.277, 882.614
381.627, 931.689
382.976, 982.855
384.325, 1158.752
385.674, 1352.812
387.023, 2022.574
388.371, 2749.619
389.719, 4124.790
391.067, 6094.498
392.415, 7171.805
393.762, 7948.582
395.110, 5760.459
396.457, 4121.763
397.804, 2791.955
399.150, 1774.746
400.497, 1482.526
401.843, 993.926
403.189, 913.614
404.535, 672.794
405.881, 519.056
407.226, 510.474
408.571, 358.057
409.916, 405.355
411.261, 331.746
412.605, 314.428
413.950, 307.305
415.294, 214.049
416.638, 344.524
417.981, 292.610
419.325, 478.488
420.668, 641.392
422.011, 1077.091
423.354, 1925.838
424.697, 2340.266
426.039, 2631.784
427.381, 1749.052
428.723, 1113.844
430.065, 724.636
431.406, 403.639
432.748, 345.411
434.089, 231.143
435.430, 233.835
436.770, 282.490
438.111, 288.109
439.451, 407.693
440.791, 310.243
442.131, 304.660
443.471, 242.321
444.810, 110.814
446.149, 156.327
447.488, 54.815
448.827, 140.820
450.166, 100.140
451.504, 669.428
452.842, 943.692
454.180, 718.930
455.518, 1156.142
456.855, 148.327
458.193, 121.482
459.530, 115.605
460.867, 91.698
462.203, 87.418
463.540, 32.462
464.876, 34.747
466.212, 71.584
467.548, 1.415
468.883, 59.136
470.219, 44.094
471.554, 40.615
472.889, 47.008
474.224, 13.747
475.558, 31.475
476.892, 5.196
478.227, 44.020
479.561, 2.759
480.894, 65.976
482.228, 63.388
483.561, 6.781
484.894, 114.030
486.227, 77.818
487.559, 215.614
488.892, 309.392
490.224, 400.166
491.556, 680.924
492.888, 486.666
494.220, 382.416
495.551, 215.152
496.882, 160.880
498.213, 80.601
499.544, 26.695
500.874, 57.950
502.205, 14.993
503.535, 5.186
504.865, 38.168
506.194, 93.722
507.524, 52.324
508.853, 10.363
510.182, 13.010
511.511, 16.427
512.840, 50.037
514.168, 29.472
515.496, 6.968
516.824, 16.448
518.152, 100.913
519.480, 27.365
520.807, 194.805
522.134, 176.241
523.461, 335.669
524.788, 339.086
526.114, 321.494
527.441, 238.892
528.767, 92.287
530.093, 150.679
531.418, 47.073
532.744, 8.461
534.069, 57.842
535.394, 20.785
536.719, 14.569
538.044, 35.090
539.368, 100.229
540.693, 54.538
542.017, 23.837
543.340, 80.123
544.664, 33.400
545.987, 110.665
547.311, 163.922
548.634, 179.172
549.956, 417.421
551.279, 407.669
552.601, 795.919
553.923, 1000.172
555.245, 972.429
556.567, 1042.696
557.889, 731.969
559.210, 732.258
560.531, 642.568
561.852, 649.893
563.173, 736.242
564.493, 444.606
565.813, 460.006
567.133, 230.415
568.453, 151.850
569.773, 156.304
571.092, 118.767
572.412, 170.255
573.731, 87.760
575.049, 127.930
576.368, 181.461
577.686, 85.015
579.005, 235.581
580.323, 204.154
581.640, 232.752
582.958, 328.359
584.275, 389.979
585.593, 693.603
586.909, 725.229
588.226, 1182.858
589.543, 1504.486
590.859, 1954.112
592.175, 2719.733
593.491, 2779.282
594.807, 3174.919
596.122, 2671.526
597.438, 2104.128
598.753, 2030.765
600.068, 1654.359
601.382, 1795.209
602.697, 1578.798
604.011, 1324.885
605.325, 1223.169
606.639, 736.039
607.952, 660.274
609.266, 446.345
610.579, 325.926
611.892, 315.504
613.205, 212.079
614.518, 254.650
615.830, 180.950
617.142, 174.144
618.454, 282.398
619.766, 165.479
621.078, 338.772
622.389, 267.909
623.700, 345.661
625.011, 427.741
626.322, 303.633
627.632, 408.113
628.943, 293.503
630.253, 296.160
631.563, 316.404
632.872, 209.379
634.182, 347.009
635.491, 233.239
636.800, 298.417
638.109, 361.013
639.418, 314.294
640.726, 458.954
642.035, 463.281
643.343, 630.666
644.651, 793.901
645.958, 784.563
647.266, 1136.411
648.573, 1215.316
649.880, 1633.002
651.187, 2125.044
652.494, 2438.974
653.800, 3322.024
655.106, 3330.134
656.412, 3598.449
657.718, 3342.773
659.024, 2569.928
660.329, 2412.739
661.634, 1783.649
662.939, 1621.740
664.244, 1521.365
665.549, 1411.525
666.853, 1641.260
668.157, 1484.266
669.461, 1690.292
670.765, 1686.636
672.069, 1532.724
673.372, 1655.721
674.675, 1450.763
675.978, 1618.162
677.281, 1724.257
678.583, 1630.770
679.886, 2111.280
681.188, 2163.787
682.490, 2879.293
683.792, 3502.796
685.093, 4288.298
686.394, 6441.695
687.696, 8026.192
688.997, 13093.406
690.297, 19690.465
691.598, 29067.738
692.898, 42954.266
694.198, 40251.371
695.498, 35347.406
696.798, 25164.881
698.097, 14772.156
699.397, 11259.311
700.696, 6991.703
701.995, 5367.906
703.293, 4140.383
704.592, 2829.857
705.890, 2672.331
707.188, 1837.802
708.486, 1699.273
709.784, 1434.742
711.081, 1038.210
712.378, 1070.677
713.675, 774.143
714.972, 745.607
716.269, 696.070
717.565, 478.531
718.862, 546.991
720.158, 393.449
721.453, 389.905
722.749, 423.359
724.045, 233.812
725.340, 358.262
726.635, 211.710
727.930, 281.156
729.224, 251.599
730.519, 148.040
731.813, 247.480
733.107, 167.917
734.401, 230.352
735.694, 225.784
736.988, 90.214
738.281, 226.641
739.574, 83.065
740.867, 127.485
742.160, 190.903
743.452, 77.318
744.744, 201.730
746.036, 72.139
747.328, 103.544
748.620, 126.947
749.911, 43.347
751.202, 120.743
752.493, 78.136
753.784, 51.527
755.075, 139.914
756.365, 9.298
757.655, 140.676
758.945, 105.051
760.235, 156.425
761.525, 302.798
762.814, 250.170
764.103, 552.541
765.392, 589.912
766.681, 447.279
767.969, 489.643
769.258, 246.005
770.546, 281.363
771.834, 144.720
773.122, 41.075
774.409, 102.429
775.697, 43.219
776.984, 7.104
778.271, 20.573
779.558, 23.267
780.844, 25.020
782.131, 46.695
783.417, 23.441
784.703, 0.802
785.989, 102.964
787.274, 31.217
788.560, 65.603
789.845, 11.464
791.130, 19.661
792.415, 114.215
793.699, 20.842
794.983, 79.104
796.268, 15.099
797.552, 46.892
798.835, 103.119
800.119, 35.807
801.402, 43.270
802.686, 8.621
803.969, 26.505
805.251, 78.615
806.534, 7.215
807.816, 13.963
809.098, 15.157
810.380, 35.630
811.662, 41.579
812.944, 101.188
814.225, 27.038
815.506, 5.254
816.787, 121.521
818.068, 0.311
819.349, 123.113
820.629, 115.914
821.909, 118.717
823.189, 347.520
824.469, 260.322
825.749, 501.132
827.028, 622.942
828.307, 682.752
829.586, 963.562
830.865, 662.370
832.144, 642.196
833.422, 510.020
834.700, 296.843
835.978, 360.664
837.256, 192.483
838.534, 206.309
839.811, 259.133
841.088, 101.955
842.365, 235.799
843.642, 138.642
844.919, 225.486
846.195, 230.332
847.472, 159.181
848.748, 254.041
850.023, 169.905
851.299, 200.768
852.575, 344.648
853.850, 223.528
855.125, 417.412
856.400, 443.300
857.674, 572.186
858.949, 886.091
860.223, 791.994
861.497, 1281.896
862.771, 1562.809
864.045, 1593.719
865.318, 2006.629
866.591, 1461.536
867.864, 1227.442
869.137, 989.346
870.410, 550.249
871.682, 489.150
872.955, 411.050
874.227, 298.947
875.499, 467.844
876.770, 247.738
878.042, 343.631
879.313, 395.523
880.584, 243.413
881.855, 405.301
883.126, 256.188
884.396, 449.074
885.667, 327.958
886.937, 339.841
888.207, 453.722
889.476, 255.671
890.746, 367.550
892.015, 409.427
893.284, 270.303
894.553, 481.178
895.822, 383.052
897.090, 479.924
898.359, 540.795
899.627, 448.665
900.895, 792.534
902.163, 681.401
903.430, 832.193
904.698, 1094.059
905.965, 1015.924
907.232, 1542.748
908.499, 1672.611
909.765, 1938.214
911.032, 2840.075
912.298, 3324.936
913.564, 4907.795
914.830, 6553.653
916.095, 7986.512
917.361, 10813.369
918.626, 10470.226
919.891, 10297.080
921.156, 9023.937
922.420, 6301.790
923.685, 5573.643
924.949, 3970.496
926.213, 3167.270
927.477, 2885.121
928.740, 2154.748
930.004, 2253.223
931.267, 1975.200
932.530, 1805.013
933.793, 2201.727
935.056, 1776.110
936.318, 1899.898
937.581, 1858.050
938.843, 1477.886
940.104, 1615.630
941.366, 1219.807
942.628, 1091.283
943.889, 1191.985
945.150, 878.108
946.411, 1061.820
947.672, 970.150
948.932, 879.422
950.193, 986.251
951.453, 804.086
952.713, 901.935
953.973, 856.540
955.232, 718.086
956.491, 888.851
957.751, 603.259
959.010, 650.779
960.268, 708.188
961.527, 434.536
962.785, 585.392
964.044, 466.196
965.302, 432.948
966.559, 591.241
967.817, 461.206
969.075, 559.893
970.332, 578.331
971.589, 565.270
972.846, 724.345
974.102, 633.291
975.359, 886.240
976.615, 1091.192
977.871, 1139.146
979.127, 1704.229
980.383, 1930.189
981.638, 2698.151
982.893, 3718.360
984.149, 4128.329
985.404, 5104.416
986.658, 4514.569
987.913, 3500.546
989.167, 3063.350
990.421, 1951.445
991.675, 1616.428
992.929, 1293.809
994.183, 835.797
995.436, 892.882
996.689, 647.624
997.942, 610.619
999.195, 697.110
1000.448, 552.108
1001.700, 742.145
1002.952, 744.286
1004.204, 600.289
1005.456, 676.487
1006.708, 468.381
1007.959, 511.400
1009.210, 459.238
1010.461, 284.259
1011.712, 450.280
1012.963, 234.022
1014.213, 244.045
1015.464, 270.068
1016.714, 117.176
1017.964, 367.201
1019.214, 216.226
1020.463, 162.252
1021.712, 332.278
1022.962, 105.305
1024.210, 240.333
1025.459, 261.360
1026.708, 59.389
1027.956, 245.428
1029.204, 127.469
1030.452, 131.509
1031.700, 155.552
1032.948, 60.596
1034.195, 181.641
1035.442, 127.688
1036.689, 32.736
1037.936, 168.785
1039.183, 1.166
1040.429, 96.882
1041.676, 143.945
1042.922, 38.009
1044.168, 181.073
1045.413, 83.156
1046.659, 123.238
1047.904, 188.322
1049.149, 68.406
1050.394, 160.491
1051.639, 198.592
1052.884, 98.694
1054.128, 273.796
1055.372, 112.899
1056.616, 179.003
1057.860, 225.106
1059.104, 119.210
1060.347, 242.315
1061.590, 197.423
1062.833, 232.532
1064.076, 402.641
1065.319, 370.772
1066.561, 544.902
1067.803, 665.033
1069.046, 656.162
1070.287, 1165.292
1071.529, 1304.421
1072.771, 1954.551
1074.012, 3025.680
1075.253, 3908.810
1076.494, 5613.939
1077.735, 5982.070
1078.975, 5123.314
1080.216, 4886.461
1081.456, 3868.616
1082.696, 3205.828
1083.936, 2655.992
1085.175, 1567.171
1086.415, 1396.359
1087.654, 962.551
1088.893, 623.894
1090.132, 740.118
1091.371, 415.363
1092.609, 494.863
1093.847, 417.113
1095.085, 240.396
1096.323, 338.796
1097.561, 234.102
1098.799, 134.413
1100.036, 268.724
1101.273, 16.064
1102.510, 186.698
1103.747, 188.051
1104.983, 70.440
1106.220, 272.793
1107.456, 72.168
1108.692, 97.772
1109.928, 114.154
1111.163, 17.458
1112.399, 38.861
1113.634, 29.750
1114.869, 105.381
1116.104, 60.002
1117.339, 59.672
1118.573, 6.793
1119.808, 86.184
1121.042, 12.472
1122.276, 298.247
1123.509, 215.530
1124.743, 135.811
1125.976, 228.091
1127.210, 17.368
1128.443, 78.641
1129.675, 150.913
1130.908, 64.818
1132.141, 75.833
1133.373, 23.068
1134.605, 8.299
1135.837, 130.660
1137.068, 25.115
1138.300, 26.292
1139.531, 87.495
1140.762, 81.306
1141.993, 93.057
1143.224, 33.205
1144.455, 6.651
1145.685, 142.816
1146.915, 34.055
1148.145, 69.123
1149.375, 50.222
1150.605, 59.683
1151.834, 110.572
1153.063, 12.377
1154.292, 7.343
1155.521, 168.282
1156.750, 68.701
1157.978, 124.270
1159.207, 66.237
1160.435, 34.801
1161.663, 178.133
1162.891, 93.062
1164.118, 46.987
1165.345, 213.031
1166.573, 81.946
1167.800, 261.856
1169.026, 216.762
1170.253, 190.663
1171.480, 317.559
1172.706, 217.450
1173.932, 261.337
1175.158, 355.730
1176.383, 143.606
1177.609, 331.478
1178.834, 201.877
1180.059, 109.738
1181.284, 353.797
1182.509, 103.123
1183.734, 103.969
1184.958, 311.966
1186.182, 99.801
1187.406, 255.560
1188.630, 196.834
1189.854, 112.652
1191.077, 200.463
1192.301, 148.667
1193.524, 235.467
1194.747, 320.284
1195.969, 167.323
1197.192, 377.104
1198.414, 358.776
1199.636, 208.545
1200.858, 529.307
1202.080, 409.373
1203.302, 516.122
1204.523, 523.864
1205.744, 380.670
1206.966, 498.400
1208.186, 410.805
1209.407, 276.737
1210.628, 402.446
1211.848, 330.197
1213.068, 252.892
1214.288, 390.581
1215.508, 175.263
1216.727, 362.938
1217.947, 276.608
1219.166, 158.475
1220.385, 368.132
1221.604, 118.019
1222.822, 148.662
1224.041, 258.300
1225.259, 9.764
1226.477, 263.841
1227.695, 236.443
1228.913, 96.038
1230.130, 255.624
1231.348, 117.429
1232.565, 194.998
1233.782, 294.556
1234.999, 82.033
1236.215, 242.579
1237.432, 184.118
1238.648, 51.651
1239.864, 272.177
1241.080, 127.698
1242.296, 84.269
1243.511, 201.774
1244.726, 202.263
1245.942, 371.745
1247.156, 169.210
1248.371, 44.852
1249.586, 232.302
1250.800, 106.745
1252.014, 119.316
1253.228, 271.742
1254.442, 8.838
1255.656, 158.603
1256.869, 233.997
1258.083, 4.448
1259.296, 240.919
1260.509, 167.454
1261.722, 95.613
1262.934, 227.958
1264.147, 65.542
1265.359, 83.770
1266.571, 193.094
1267.783, 22.351
1268.994, 237.811
1270.206, 138.099
1271.417, 172.596
1272.628, 251.871
1273.839, 122.014
1275.050, 219.466
1276.260, 292.723
1277.471, 24.714
1278.681, 214.811
1279.891, 226.912
1281.101, 76.938
1282.310, 266.403
1283.520, 59.771
1284.729, 124.301
1285.938, 280.428
1287.147, 53.154
1288.356, 184.780
1289.564, 170.763
1290.773, 30.081
1291.981, 287.160
1293.189, 84.719
1294.397, 104.757
1295.604, 261.714
1296.812, 51.561
1298.019, 234.539
1299.226, 220.315
1300.433, 26.614
1301.640, 267.327
1302.846, 120.439
1304.053, 354.362
1305.259, 945.276
1306.465, 640.463
1307.671, 451.354
1308.876, 155.236
1310.082, 63.029
1311.287, 196.895
1312.492, 159.755
1313.697, 98.604
1314.902, 260.447
1316.106, 116.280
1317.310, 112.104
1318.515, 198.920
1319.719, 28.273
1320.922, 206.510
1322.126, 198.286
1323.329, 5.052
1324.533, 154.805
1325.736, 45.547
1326.939, 8.277
1328.141, 193.997
1329.344, 56.683
1330.546, 114.356
1331.748, 158.013
1332.950, 43.338
1334.152, 147.278
1335.354, 152.887
1336.555, 58.513
1337.757, 220.060
1338.958, 88.626
1340.159, 34.185
1341.359, 210.787
1342.560, 50.671
1343.760, 149.846
1344.960, 126.357
1346.160, 23.859
1347.360, 259.354
1348.560, 118.840
1349.759, 77.319
1350.959, 177.792
1352.158, 0.256
1353.357, 42.711
1354.555, 192.160
1355.754, 69.396
1356.952, 152.024
1358.151, 109.554
1359.349, 103.968
1360.546, 266.378
1361.744, 103.479
1362.941, 45.887
1364.139, 290.293
1365.336, 37.737
1366.533, 244.146
1367.730, 295.110
1368.926, 25.521
1370.123, 230.781
1371.319, 145.116
1372.515, 217.463
1373.711, 236.668
1374.906, 39.926
1376.102, 98.763
1377.297, 241.187
1378.492, 4.052
1379.687, 208.810
1380.882, 211.400
1382.077, 118.109
1383.271, 281.926
1384.465, 96.728
1385.659, 80.203
1386.853, 265.935
1388.047, 102.280
1389.240, 192.998
1390.434, 334.572
1391.627, 33.232
1392.820, 260.797
1394.013, 260.450
1395.205, 58.644
1396.398, 316.376
1397.590, 112.095
1398.782, 82.799
1399.974, 234.024
1401.166, 46.563
1402.357, 114.013
1403.549, 298.700
1404.740, 13.167
1405.931, 256.470
1407.122, 205.101
1408.313, 81.831
1409.503, 251.341
1410.693, 69.724
1411.883, 51.495
1413.073, 344.288
1414.263, 40.109
1415.453, 172.755
1416.642, 199.567
1417.831, 47.375
1419.020, 211.179
1420.209, 191.387
1421.398, 20.857
1422.587, 264.115
1423.775, 129.849
1424.963, 28.337
1426.151, 311.058
1427.339, 2.456
1428.526, 219.235
1429.714, 264.754
1430.901, 2.097
1432.088, 266.112
1433.275, 167.056
1434.462, 72.499
1435.648, 316.817
1436.835, 153.705
1438.021, 181.302
1439.207, 324.572
1440.393, 261.834
1441.579, 327.705
1442.764, 377.492
1443.949, 245.697
1445.135, 438.323
1446.320, 394.514
1447.504, 273.252
1448.689, 512.436
1449.873, 338.715
1451.058, 325.830
1452.242, 547.915
1453.426, 344.851
1454.609, 452.928
1455.793, 522.480
1456.976, 239.538
1458.159, 481.258
1459.342, 448.169
1460.525, 314.688
1461.708, 520.627
1462.890, 364.541
1464.073, 321.277
1465.255, 475.898
1466.437, 235.293
1467.619, 361.480
1468.800, 458.660
1469.982, 156.344
1471.163, 431.508
1472.344, 349.226
1473.525, 127.238
1474.706, 440.895
1475.886, 266.908
1477.066, 120.552
1478.247, 359.235
1479.427, 195.162
1480.607, 152.065
1481.786, 335.960
1482.966, 47.844
1484.145, 281.712
1485.324, 309.624
1486.503, 123.513
1487.682, 361.391
1488.860, 238.259
1490.039, 81.123
1491.217, 350.999
1492.395, 148.895
1493.573, 130.821
1494.751, 273.792
1495.928, 90.097
1497.106, 210.570
1498.283, 320.219
1499.460, 40.955
1500.637, 265.773
1501.814, 184.259
1502.990, 6.736
1504.166, 257.413
1505.342, 128.743
1506.518, 69.295
1507.694, 305.108
1508.870, 2.160
1510.045, 153.656
1511.221, 292.332
1512.396, 3.288
1513.571, 139.384
1514.745, 266.453
1515.920, 9.942
1517.094, 112.658
1518.269, 0.000
##END=



