##NAMES=Datolite
##RRUFFID=R050136
##IDEAL CHEMISTRY=CaB(SiO_4_)(OH)
##LOCALITY=Charcas, San Luis Potosi, Mexico
##OWNER=RRUFF
##SOURCE=Dave Bunk Minerals
##DESCRIPTION=Pale green tabular crystals
##STATUS=The identification of this mineral has been confirmed by X-ray diffraction and chemical analysis
##URL=rruff.info/R050136
##MEASURED CHEMISTRY=Ca_1.00_BSi_1.00_O_4_(OH) ; trace amounts of Fe; B and OH estimated by stoichiometry end charge balance
##PIN_ID=L00270
##ORIENTATION=Laser parallel to -c* (0 0 -1). Fiducial mark perpendicular to laser is parallel to -a [-1 0 0]
96.858, 0.000
98.251, 0.478
99.644, 30.044
101.036, 64.323
102.428, 3.589
103.820, 1.719
105.212, 60.228
106.604, 61.233
107.995, 94.266
109.387, 94.993
110.777, 94.127
112.168, 132.443
113.559, 144.757
114.949, 175.920
116.339, 151.841
117.729, 207.512
119.119, 193.880
120.508, 164.828
121.897, 161.259
123.286, 226.099
124.675, 269.312
126.063, 468.858
127.452, 710.692
128.840, 988.775
130.228, 1444.078
131.615, 1773.573
133.003, 2264.260
134.390, 2363.261
135.777, 1891.670
137.164, 1208.711
138.550, 800.174
139.937, 467.839
141.323, 351.474
142.709, 246.085
144.094, 210.676
145.480, 180.252
146.865, 200.818
148.250, 221.378
149.635, 290.027
151.019, 322.805
152.403, 400.731
153.788, 517.643
155.171, 711.538
156.555, 1221.421
157.939, 2200.295
159.322, 3658.161
160.705, 5414.022
162.088, 7566.881
163.470, 10117.740
164.853, 12698.607
166.235, 13255.483
167.617, 9943.370
168.998, 6383.896
170.380, 3974.867
171.761, 2698.514
173.142, 1922.021
174.523, 1641.929
175.904, 1557.014
177.284, 1632.284
178.664, 1521.494
180.044, 1216.890
181.424, 848.019
182.803, 625.325
184.183, 426.640
185.562, 371.972
186.940, 345.324
188.319, 378.698
189.698, 407.097
191.076, 424.521
192.454, 504.972
193.831, 502.450
195.209, 399.954
196.586, 381.486
197.963, 263.044
199.340, 363.628
200.717, 321.238
202.093, 304.393
203.470, 297.755
204.846, 309.802
206.221, 271.494
207.597, 397.313
208.972, 488.930
210.347, 556.571
211.722, 810.233
213.097, 1115.917
214.472, 1491.622
215.846, 2056.347
217.220, 2608.092
218.594, 3140.854
219.967, 2862.633
221.341, 1995.425
222.714, 1309.236
224.087, 888.067
225.460, 750.918
226.832, 730.822
228.204, 740.790
229.577, 819.809
230.948, 776.856
232.320, 692.927
233.692, 480.016
235.063, 353.159
236.434, 219.354
237.805, 94.650
239.175, 125.994
240.545, 5.621
241.916, 34.809
243.286, 21.749
244.655, 4.305
246.025, 23.864
247.394, 1.423
248.763, 1.982
250.132, 60.543
251.501, 42.107
252.869, 14.321
254.237, 64.263
255.605, 55.856
256.973, 25.485
258.340, 6.137
259.708, 53.832
261.075, 19.546
262.442, 14.306
263.808, 52.391
265.175, 18.966
266.541, 56.477
267.907, 146.081
269.273, 205.825
270.639, 282.660
272.004, 328.574
273.369, 440.557
274.734, 449.600
276.099, 395.698
277.463, 269.843
278.828, 158.033
280.192, 111.261
281.556, 55.526
282.919, 105.822
284.283, 156.147
285.646, 287.498
287.009, 456.873
288.372, 671.269
289.734, 944.685
291.097, 1271.119
292.459, 1294.570
293.821, 1242.036
295.183, 861.517
296.544, 554.011
297.905, 377.518
299.266, 198.035
300.627, 141.562
301.988, 37.094
303.348, 60.630
304.709, 66.830
306.069, 8.303
307.428, 6.771
308.788, 42.757
310.147, 14.712
311.507, 21.923
312.865, 59.543
314.224, 7.979
315.583, 3.502
316.941, 71.026
318.299, 127.552
319.657, 188.080
321.015, 233.610
322.372, 415.142
323.729, 385.676
325.086, 386.212
326.443, 414.750
327.800, 458.291
329.156, 668.834
330.512, 729.379
331.868, 751.927
333.224, 814.473
334.579, 791.011
335.935, 574.538
337.290, 446.062
338.645, 301.544
339.999, 197.001
341.354, 196.427
342.708, 217.830
344.062, 217.235
345.416, 289.611
346.769, 387.665
348.123, 433.154
349.476, 502.839
350.829, 571.683
352.182, 784.184
353.534, 986.606
354.887, 1392.857
356.239, 1928.475
357.591, 2556.967
358.942, 3232.095
360.294, 4029.554
361.645, 4508.981
362.996, 4487.572
364.347, 4203.999
365.698, 3430.428
367.048, 2622.238
368.398, 2024.424
369.748, 1552.814
371.098, 1365.400
372.448, 1251.753
373.797, 1256.860
375.146, 1307.445
376.495, 1470.736
377.844, 1671.060
379.192, 1745.496
380.540, 1669.774
381.889, 1491.958
383.236, 1403.723
384.584, 1553.316
385.932, 1798.045
387.279, 2283.737
388.626, 2988.108
389.973, 3850.479
391.319, 4292.847
392.666, 4720.214
394.012, 4258.580
395.358, 3496.942
396.704, 2743.302
398.049, 1995.659
399.394, 1515.013
400.740, 1041.364
402.084, 811.711
403.429, 582.781
404.774, 396.120
406.118, 331.532
407.462, 226.635
408.806, 139.028
410.150, 170.210
411.493, 159.557
412.836, 178.044
414.179, 176.447
415.522, 168.751
416.865, 280.008
418.207, 331.689
419.549, 614.854
420.891, 800.829
422.233, 1126.594
423.575, 1497.018
424.916, 1570.661
426.257, 1537.502
427.598, 1106.786
428.939, 827.070
430.279, 637.353
431.619, 479.636
432.959, 502.919
434.299, 682.200
435.639, 942.479
436.978, 1133.766
438.318, 1523.051
439.657, 1621.333
440.996, 1621.612
442.334, 1352.888
443.673, 988.161
445.011, 689.429
446.349, 505.694
447.687, 367.953
449.024, 302.208
450.361, 358.457
451.699, 337.701
453.036, 385.939
454.372, 570.173
455.709, 700.400
457.045, 793.622
458.381, 871.837
459.717, 774.047
461.053, 582.251
462.388, 373.449
463.724, 260.643
465.059, 208.845
466.394, 89.441
467.728, 49.080
469.063, 151.774
470.397, 33.022
471.731, 26.222
473.065, 71.402
474.398, 60.249
475.732, 136.427
477.065, 65.472
478.398, 73.671
479.731, 148.882
481.063, 239.115
482.396, 249.344
483.728, 357.584
485.060, 636.828
486.391, 927.094
487.723, 1250.375
489.054, 1663.648
490.385, 2073.934
491.716, 2171.215
493.047, 1894.500
494.377, 1395.782
495.708, 921.058
497.038, 671.361
498.368, 450.659
499.697, 288.950
501.027, 231.235
502.356, 169.513
503.685, 65.784
505.014, 77.048
506.342, 7.306
507.671, 46.549
508.999, 22.784
510.327, 16.008
511.655, 49.220
512.982, 30.576
514.310, 4.594
515.637, 33.253
516.964, 15.137
518.291, 25.047
519.617, 69.010
520.944, 78.058
522.270, 31.902
523.596, 138.103
524.921, 74.098
526.247, 22.085
527.572, 8.059
528.897, 28.982
530.222, 16.059
531.547, 28.164
532.871, 10.696
534.196, 79.460
535.520, 74.677
536.844, 5.045
538.167, 2.749
539.491, 26.566
540.814, 9.084
542.137, 34.281
543.460, 0.314
544.783, 28.888
546.105, 31.450
547.427, 170.000
548.749, 154.541
550.071, 213.072
551.393, 360.595
552.714, 505.108
554.035, 601.613
555.356, 548.108
556.677, 448.594
557.998, 309.070
559.318, 294.537
560.638, 306.995
561.958, 221.443
563.278, 103.884
564.597, 182.315
565.917, 94.741
567.236, 75.159
568.555, 124.571
569.874, 51.975
571.192, 94.369
572.511, 146.765
573.829, 120.161
575.147, 93.547
576.464, 240.937
577.782, 267.328
579.099, 279.715
580.416, 280.095
581.733, 393.476
583.050, 546.852
584.366, 631.221
585.683, 1087.590
586.999, 1407.951
588.315, 1848.431
589.630, 2402.857
590.946, 2985.619
592.261, 3459.969
593.576, 3506.526
594.891, 3264.072
596.206, 2771.648
597.520, 2563.201
598.834, 2133.512
600.148, 1885.117
601.462, 1781.548
602.776, 1618.871
604.089, 1304.098
605.402, 1041.313
606.715, 804.519
608.028, 638.713
609.341, 416.897
610.653, 373.070
611.965, 328.233
613.277, 260.384
614.589, 240.525
615.901, 159.656
617.212, 153.775
618.523, 214.884
619.834, 168.195
621.145, 176.643
622.456, 203.959
623.766, 195.375
625.076, 244.156
626.386, 222.337
627.696, 274.328
629.006, 193.847
630.315, 272.050
631.624, 209.053
632.933, 254.585
634.242, 323.812
635.551, 226.046
636.859, 321.366
638.167, 344.211
639.475, 441.510
640.783, 346.564
642.090, 455.881
643.398, 606.487
644.705, 686.232
646.012, 700.341
647.318, 848.634
648.625, 1102.819
649.931, 1325.346
651.237, 1615.082
652.543, 1870.009
653.849, 2140.022
655.155, 2366.175
656.460, 2401.133
657.765, 2343.197
659.070, 2098.097
660.375, 2100.836
661.679, 2304.717
662.984, 2505.428
664.288, 3053.449
665.592, 3502.026
666.895, 4287.396
668.199, 4632.597
669.502, 5062.129
670.805, 4898.733
672.108, 4552.494
673.411, 4090.879
674.713, 3820.377
676.016, 3679.231
677.318, 3681.741
678.620, 3815.273
679.921, 4028.629
681.223, 4575.139
682.524, 5539.602
683.825, 6808.671
685.126, 9185.349
686.427, 12775.781
687.727, 18259.008
689.028, 26411.455
690.328, 36186.133
691.628, 47161.332
692.927, 54034.809
694.227, 51879.242
695.526, 40544.547
696.825, 30055.996
698.124, 20250.533
699.423, 14219.478
700.721, 9986.575
702.020, 7268.529
703.318, 5504.510
704.616, 4201.797
705.913, 3260.072
707.211, 2664.336
708.508, 2345.589
709.805, 1843.832
711.102, 1528.063
712.399, 1382.282
713.695, 1063.491
714.992, 1011.689
716.288, 868.876
717.584, 760.053
718.879, 600.226
720.175, 582.388
721.470, 635.540
722.765, 514.675
724.060, 426.717
725.355, 360.840
726.649, 344.764
727.944, 322.853
729.238, 348.944
730.532, 287.026
731.825, 302.084
733.119, 286.153
734.412, 217.211
735.705, 238.259
736.998, 192.296
738.291, 184.322
739.584, 134.338
740.876, 141.343
742.168, 167.341
743.460, 90.328
744.752, 100.303
746.043, 34.268
747.334, 113.217
748.626, 61.156
749.916, 11.918
751.207, 50.978
752.498, 53.860
753.788, 108.729
755.078, 40.589
756.368, 74.436
757.658, 97.270
758.947, 203.093
760.237, 292.907
761.526, 393.710
762.815, 611.503
764.104, 698.287
765.392, 754.060
766.680, 590.824
767.969, 500.578
769.257, 444.322
770.544, 233.057
771.832, 220.782
773.119, 115.498
774.406, 62.204
775.693, 32.898
776.980, 30.419
778.267, 33.225
779.553, 54.144
780.839, 81.436
782.125, 6.007
783.411, 20.558
784.697, 31.891
785.982, 27.377
787.267, 51.900
788.552, 57.529
789.837, 16.054
791.122, 49.666
792.406, 90.325
793.690, 28.948
794.974, 46.791
796.258, 19.574
797.542, 88.388
798.825, 59.268
800.108, 51.800
801.391, 53.141
802.674, 25.871
803.957, 26.128
805.239, 1.840
806.522, 73.792
807.804, 115.265
809.085, 16.604
810.367, 53.463
811.649, 23.325
812.930, 58.187
814.211, 144.041
815.492, 50.888
816.772, 95.726
818.053, 138.558
819.333, 274.387
820.613, 310.209
821.893, 471.031
823.173, 493.860
824.452, 750.683
825.732, 1003.513
827.011, 1126.341
828.290, 1208.178
829.568, 1260.018
830.847, 1041.864
832.125, 876.705
833.403, 653.540
834.681, 405.384
835.959, 304.222
837.236, 154.055
838.514, 142.885
839.791, 214.713
841.068, 172.550
842.345, 126.392
843.621, 179.242
844.898, 175.091
846.174, 77.962
847.450, 167.854
848.726, 166.748
850.001, 137.641
851.277, 214.544
852.552, 250.446
853.827, 352.359
855.102, 411.275
856.376, 429.188
857.651, 703.100
858.925, 875.007
860.199, 1068.912
861.473, 1331.812
862.746, 1683.710
864.020, 1954.605
865.293, 1928.497
866.566, 1963.386
867.839, 1621.272
869.112, 1457.155
870.384, 1357.037
871.656, 1357.583
872.928, 1345.459
874.200, 1569.333
875.472, 1945.469
876.744, 2036.338
878.015, 2408.807
879.286, 2573.672
880.557, 2902.536
881.828, 2925.397
883.098, 2710.503
884.369, 2515.021
885.639, 2309.876
886.909, 1921.810
888.178, 1551.676
889.448, 1427.526
890.717, 1292.375
891.987, 1011.222
893.256, 923.066
894.524, 873.577
895.793, 704.420
897.061, 702.131
898.330, 742.883
899.598, 582.291
900.865, 736.097
902.133, 764.686
903.401, 709.275
904.668, 779.822
905.935, 1060.382
907.202, 1114.171
908.468, 1327.656
909.735, 1693.304
911.001, 2092.049
912.267, 2775.879
913.533, 3587.710
914.799, 4878.540
916.064, 6136.370
917.330, 7377.199
918.595, 7751.030
919.860, 7246.859
921.124, 6507.689
922.389, 5163.521
923.653, 4142.349
924.918, 3359.181
926.182, 2579.011
927.445, 2141.628
928.709, 1867.100
929.972, 1634.690
931.236, 1461.172
932.499, 1472.294
933.761, 1377.005
935.024, 1227.906
936.286, 1105.267
937.549, 1294.835
938.811, 1028.699
940.073, 1026.039
941.334, 875.675
942.596, 694.293
943.857, 721.820
945.118, 657.812
946.379, 542.340
947.640, 610.104
948.900, 552.596
950.161, 468.788
951.421, 495.835
952.681, 554.511
953.940, 511.994
955.200, 453.574
956.459, 385.939
957.719, 501.953
958.978, 402.765
960.236, 377.483
961.495, 379.053
962.753, 414.567
964.012, 338.681
965.270, 379.497
966.527, 525.464
967.785, 495.270
969.043, 533.269
970.300, 672.437
971.557, 701.450
972.814, 787.300
974.071, 1034.948
975.327, 1222.983
976.583, 1493.042
977.840, 2064.106
979.095, 2481.181
980.351, 3348.261
981.607, 4656.348
982.862, 5924.449
984.117, 7148.564
985.372, 8215.684
986.627, 7381.825
987.882, 6409.971
989.136, 5168.121
990.390, 3764.279
991.644, 3044.445
992.898, 2361.618
994.152, 1777.800
995.405, 1480.990
996.659, 1314.197
997.912, 1245.414
999.165, 1012.657
1000.417, 1124.905
1001.670, 1017.173
1002.922, 1289.448
1004.174, 1025.733
1005.426, 1117.042
1006.678, 1001.370
1007.930, 878.704
1009.181, 814.044
1010.432, 655.401
1011.683, 510.772
1012.934, 391.157
1014.185, 298.546
1015.435, 279.956
1016.685, 177.394
1017.935, 152.837
1019.185, 127.287
1020.435, 106.741
1021.684, 53.795
1022.934, 63.660
1024.183, 114.125
1025.432, 14.407
1026.680, 142.063
1027.929, 26.460
1029.177, 47.017
1030.425, 55.498
1031.673, 50.983
1032.921, 13.521
1034.169, 53.023
1035.416, 3.467
1036.663, 5.038
1037.911, 0.459
1039.157, 33.960
1040.404, 73.465
1041.650, 9.974
1042.897, 80.486
1044.143, 27.999
1045.389, 30.516
1046.634, 141.039
1047.880, 93.566
1049.125, 95.099
1050.371, 72.638
1051.615, 245.182
1052.860, 107.732
1054.105, 247.295
1055.349, 269.865
1056.593, 266.438
1057.837, 330.022
1059.081, 448.610
1060.325, 496.202
1061.568, 501.799
1062.812, 615.400
1064.055, 715.002
1065.298, 894.608
1066.540, 1049.216
1067.783, 1312.827
1069.025, 1592.441
1070.267, 2305.058
1071.509, 2959.677
1072.751, 4267.299
1073.993, 6371.921
1075.234, 8740.547
1076.475, 11547.176
1077.716, 13088.804
1078.957, 12590.438
1080.198, 11125.091
1081.438, 10274.746
1082.679, 8408.679
1083.919, 6590.719
1085.159, 4785.521
1086.398, 3366.282
1087.638, 2311.208
1088.877, 1736.001
1090.116, 1341.745
1091.355, 930.492
1092.594, 759.676
1093.833, 587.455
1095.071, 455.632
1096.309, 344.444
1097.547, 305.274
1098.785, 159.117
1100.023, 233.717
1101.260, 163.122
1102.498, 157.017
1103.735, 49.932
1104.972, 6.897
1106.208, 50.296
1107.445, 53.271
1108.681, 31.388
1109.918, 43.669
1111.154, 67.156
1112.389, 60.025
1113.625, 4.258
1114.860, 8.432
1116.096, 36.672
1117.331, 9.057
1118.566, 4.838
1119.800, 51.555
1121.035, 23.188
1122.269, 59.649
1123.503, 103.583
1124.737, 79.791
1125.971, 92.891
1127.205, 54.692
1128.438, 74.710
1129.671, 75.751
1130.904, 56.682
1132.137, 52.855
1133.370, 159.993
1134.602, 180.546
1135.834, 162.612
1137.066, 98.695
1138.298, 309.761
1139.530, 103.431
1140.762, 391.796
1141.993, 257.264
1143.224, 323.032
1144.455, 383.393
1145.686, 390.442
1146.917, 583.340
1148.147, 639.130
1149.377, 732.430
1150.607, 781.805
1151.837, 945.827
1153.067, 985.193
1154.296, 1164.203
1155.526, 1377.479
1156.755, 1513.604
1157.984, 1723.128
1159.213, 1933.177
1160.441, 2324.943
1161.670, 2637.857
1162.898, 3049.131
1164.126, 3584.637
1165.354, 4129.510
1166.581, 4585.738
1167.809, 5470.570
1169.036, 6060.527
1170.263, 7002.982
1171.490, 7578.863
1172.717, 8058.547
1173.943, 7940.230
1175.170, 7636.053
1176.396, 6971.899
1177.622, 6319.491
1178.848, 5477.075
1180.073, 4436.247
1181.299, 3915.684
1182.524, 3257.799
1183.749, 2743.341
1184.974, 2331.794
1186.199, 2027.590
1187.423, 1726.101
1188.648, 1454.599
1189.872, 1277.087
1191.096, 1122.564
1192.320, 998.938
1193.543, 924.479
1194.767, 902.257
1195.990, 738.995
1197.213, 674.657
1198.436, 692.364
1199.659, 682.134
1200.881, 462.834
1202.104, 619.386
1203.326, 396.747
1204.548, 469.796
1205.770, 353.132
1206.991, 471.455
1208.213, 342.329
1209.434, 349.627
1210.655, 282.913
1211.876, 253.186
1213.096, 341.445
1214.317, 227.944
1215.537, 273.178
1216.757, 214.397
1217.977, 271.605
1219.197, 158.798
1220.417, 253.002
1221.636, 185.175
1222.855, 148.332
1224.074, 213.564
1225.293, 164.718
1226.512, 132.837
1227.731, 185.940
1228.949, 65.168
1230.167, 41.428
1231.385, 100.485
1232.603, 112.532
1233.820, 77.689
1235.038, 113.705
1236.255, 174.704
1237.472, 133.009
1238.689, 35.979
1239.906, 154.930
1241.122, 46.865
1242.338, 140.779
1243.555, 150.686
1244.771, 139.578
1245.986, 17.458
1247.202, 31.324
1248.417, 146.240
1249.633, 152.080
1250.848, 80.889
1252.063, 78.548
1253.277, 132.309
1254.492, 48.053
1255.706, 119.782
1256.920, 92.477
1258.134, 41.604
1259.348, 52.717
1260.562, 79.324
1261.775, 63.904
1262.988, 46.533
1264.201, 97.146
1265.414, 39.515
1266.627, 61.069
1267.839, 24.664
1269.052, 56.435
1270.264, 45.201
1271.476, 88.090
1272.688, 12.083
1273.899, 108.307
1275.111, 102.501
1276.322, 8.261
1277.533, 12.064
1278.744, 77.998
1279.955, 17.967
1281.165, 94.038
1282.376, 89.019
1283.586, 92.982
1284.796, 17.917
1286.006, 37.824
1287.215, 28.709
1288.425, 14.574
1289.634, 14.582
1290.843, 7.222
1292.052, 55.002
1293.261, 155.730
1294.469, 29.560
1295.678, 35.116
1296.886, 7.760
1298.094, 46.628
1299.302, 25.052
1300.509, 43.491
1301.717, 61.012
1302.924, 17.489
1304.131, 10.024
1305.338, 5.587
1306.545, 104.820
1307.752, 29.793
1308.958, 65.446
1310.164, 108.857
1311.370, 42.138
1312.576, 114.393
1313.782, 7.626
1314.987, 51.834
1316.193, 9.024
1317.398, 141.188
1318.603, 75.330
1319.807, 103.449
1321.012, 22.546
1322.216, 206.619
1323.421, 182.670
1324.625, 1.698
1325.829, 124.694
1327.032, 9.670
1328.236, 194.626
1329.439, 185.560
1330.642, 83.467
1331.845, 153.352
1333.048, 159.217
1334.251, 279.062
1335.453, 156.888
1336.656, 40.695
1337.858, 13.485
1339.060, 72.252
1340.261, 78.999
1341.463, 93.726
1342.664, 80.434
1343.866, 64.122
1345.067, 75.792
1346.267, 108.442
1347.468, 152.073
1348.669, 0.312
1349.869, 310.278
1351.069, 199.850
1352.269, 41.405
1353.469, 173.941
1354.668, 236.462
1355.868, 193.967
1357.067, 160.457
1358.266, 88.931
1359.465, 159.391
1360.664, 179.837
1361.862, 154.270
1363.061, 149.689
1364.259, 144.176
1365.457, 220.572
1366.655, 177.958
1367.852, 127.333
1369.050, 142.921
1370.247, 248.277
1371.444, 229.628
1372.641, 114.971
1373.838, 103.052
1375.035, 181.025
1376.231, 151.105
1377.427, 117.292
1378.623, 234.301
1379.819, 149.442
1381.015, 70.718
1382.211, 227.760
1383.406, 203.312
1384.601, 156.181
1385.796, 265.595
1386.991, 209.148
1388.185, 242.936
1389.380, 149.906
1390.574, 260.109
1391.768, 131.225
1392.962, 217.105
1394.156, 145.822
1395.350, 188.521
1396.543, 178.669
1397.736, 155.198
1398.929, 202.347
1400.122, 190.359
1401.315, 147.211
1402.507, 104.954
1403.700, 152.027
1404.892, 143.596
1406.084, 182.017
1407.276, 94.694
1408.467, 125.186
1409.659, 108.845
1410.850, 160.951
1412.041, 187.350
1413.232, 171.702
1414.423, 203.470
1415.614, 5.788
1416.804, 195.688
1417.994, 142.121
1419.184, 66.150
1420.374, 68.296
1421.564, 241.426
1422.753, 92.142
1423.943, 140.601
1425.132, 101.083
1426.321, 146.977
1427.510, 197.410
1428.698, 117.467
1429.887, 186.801
1431.075, 175.520
1432.263, 214.208
1433.451, 110.365
1434.639, 155.987
1435.827, 233.702
1437.014, 182.133
1438.201, 351.309
1439.388, 310.001
1440.575, 250.434
1441.762, 240.736
1442.949, 225.000
1444.135, 252.800
1445.321, 195.980
1446.507, 274.081
1447.693, 251.164
1448.879, 254.008
1450.064, 251.000
1451.250, 258.354
1452.435, 235.245
1453.620, 374.847
1454.805, 362.019
1455.989, 308.756
1457.174, 393.457
1458.358, 174.081
1459.542, 307.618
1460.726, 328.927
1461.910, 185.354
1463.093, 385.782
1464.277, 125.178
1465.460, 229.240
1466.643, 437.633
1467.826, 277.615
1469.009, 235.676
1470.191, 201.135
1471.373, 268.699
1472.556, 314.529
1473.738, 208.085
1474.919, 250.781
1476.101, 253.770
1477.283, 369.749
1478.464, 243.766
1479.645, 177.775
1480.826, 134.776
1482.007, 227.812
1483.187, 375.861
1484.368, 171.979
1485.548, 66.097
1486.728, 153.214
1487.908, 192.326
1489.088, 65.442
1490.268, 203.584
1491.447, 67.756
1492.626, 97.963
1493.805, 109.206
1494.984, 241.506
1496.163, 163.866
1497.341, 212.309
1498.520, 108.853
1499.698, 123.489
1500.876, 220.289
1502.054, 116.179
1503.232, 108.143
1504.409, 105.190
1505.586, 14.667
1506.763, 126.577
1507.940, 123.938
1509.117, 51.437
1510.294, 8.092
1511.470, 82.929
1512.647, 60.965
1513.823, 88.220
1514.999, 145.706
1516.174, 235.451
1517.350, 6.639
1518.526, 205.744
1519.701, 117.832
1520.876, 72.781
1522.051, 29.368
1523.226, 63.031
1524.400, 60.621
