##NAMES=Datolite
##RRUFFID=R050033
##IDEAL CHEMISTRY=CaB(SiO_4_)(OH)
##LOCALITY=Westfield, Massachusetts, USA
##OWNER=RRUFF
##SOURCE=University of Arizona Mineral Museum
##DESCRIPTION=Group of pale green single crystals
##STATUS=The identification of this mineral has been confirmed by X-ray diffraction and chemical analysis
##URL=rruff.info/R050033
##MEASURED CHEMISTRY=Ca_1.00_B_1.00_Si_1.00_O_4_(OH) ; trace amounts of Al and Na; B measured and corrected according to stoichiometry;  OH estimated by stoichiometry end charge balance
##PIN_ID=L00195
##ORIENTATION=Laser parallel to c* (0 0 1). Fiducial mark perpendicular to laser is parallel to a [1 0 0]
52.937, 0.000
54.335, 40.471
55.734, 22.998
57.132, 31.793
58.530, 17.703
59.927, 35.307
61.325, 27.139
62.722, 35.339
64.119, 28.729
65.515, 26.773
66.912, 38.134
68.308, 25.420
69.704, 38.639
71.100, 48.063
72.496, 28.218
73.891, 29.608
75.287, 27.075
76.682, 24.614
78.076, 26.220
79.471, 21.329
80.865, 20.615
82.260, 11.395
83.653, 0.225
85.047, 10.898
86.441, 7.976
87.834, 6.011
89.227, 4.005
90.620, 3.596
92.013, 12.126
93.405, 23.247
94.797, 33.774
96.189, 51.592
97.581, 59.814
98.973, 77.065
100.364, 88.344
101.755, 110.650
103.146, 108.979
104.537, 131.331
105.927, 147.377
107.318, 169.096
108.708, 183.508
110.098, 192.940
111.487, 205.390
112.877, 211.859
114.266, 224.345
115.655, 251.847
117.044, 300.366
118.432, 327.901
119.821, 329.455
121.209, 283.030
122.597, 310.620
123.984, 304.223
125.372, 353.855
126.759, 351.517
128.146, 449.195
129.533, 590.884
130.920, 882.583
132.306, 1186.293
133.692, 1375.016
135.078, 1398.753
136.464, 1020.504
137.850, 697.269
139.235, 546.046
140.620, 430.834
142.005, 385.632
143.390, 347.439
144.774, 355.252
146.159, 335.068
147.543, 337.888
148.927, 380.712
150.310, 429.541
151.694, 517.370
153.077, 602.184
154.460, 640.991
155.843, 565.808
157.226, 521.641
158.608, 594.481
159.990, 891.328
161.372, 1528.181
162.754, 2733.050
164.135, 4071.925
165.517, 4888.806
166.898, 4434.693
168.279, 2777.588
169.659, 1411.489
171.040, 828.396
172.420, 601.310
173.800, 578.230
175.180, 656.157
176.560, 790.089
177.939, 855.028
179.318, 689.973
180.697, 424.924
182.076, 272.881
183.455, 178.844
184.833, 156.812
186.211, 151.123
187.589, 143.100
188.967, 138.684
190.344, 141.183
191.722, 142.176
193.099, 129.175
194.475, 136.180
195.852, 124.019
197.229, 101.363
198.605, 106.655
199.981, 100.823
201.357, 92.957
202.732, 91.978
204.108, 88.005
205.483, 88.038
206.858, 99.077
208.233, 101.129
209.607, 87.192
210.981, 127.282
212.356, 123.419
213.730, 180.580
215.103, 244.757
216.477, 375.964
217.850, 526.187
219.223, 608.411
220.596, 528.647
221.969, 339.881
223.341, 281.107
224.713, 344.320
226.085, 473.519
227.457, 683.701
228.829, 966.859
230.200, 1228.000
231.571, 1232.130
232.942, 989.253
234.313, 642.355
235.684, 411.385
237.054, 292.380
238.424, 172.356
239.794, 109.355
241.164, 107.359
242.533, 100.368
243.902, 54.398
245.272, 82.423
246.640, 48.461
248.009, 46.457
249.378, 44.212
250.746, 42.310
252.114, 50.635
253.482, 36.119
254.849, 38.295
256.217, 46.318
257.584, 16.905
258.951, 3.431
260.318, 30.556
261.684, 35.686
263.051, 9.822
264.417, 21.963
265.783, 33.110
267.148, 47.262
268.514, 55.419
269.879, 46.173
271.244, 66.340
272.609, 75.511
273.974, 90.686
275.338, 102.866
276.703, 88.051
278.067, 68.240
279.431, 79.433
280.794, 72.630
282.158, 145.832
283.521, 166.037
284.884, 269.246
286.247, 392.460
287.609, 701.676
288.972, 1112.897
290.334, 1678.121
291.696, 2212.349
293.058, 2261.579
294.419, 1895.814
295.781, 1137.051
297.142, 685.292
298.503, 406.536
299.864, 261.782
301.224, 204.032
302.584, 105.285
303.945, 113.541
305.304, 71.800
306.664, 60.062
308.024, 20.327
309.383, 27.594
310.742, 39.865
312.101, 24.139
313.460, 16.415
314.818, 41.695
316.176, 7.978
317.534, 11.736
318.892, 9.552
320.250, 1.843
321.607, 45.137
322.964, 5.565
324.321, 32.734
325.678, 2.037
327.035, 14.343
328.391, 7.652
329.747, 6.964
331.103, 27.278
332.459, 8.595
333.815, 10.916
335.170, 4.761
336.525, 5.436
337.880, 4.108
339.235, 22.778
340.589, 1.449
341.944, 10.118
343.298, 5.785
344.652, 2.450
346.005, 27.887
347.359, 5.773
348.712, 38.569
350.065, 14.911
351.418, 16.256
352.771, 37.603
354.123, 37.960
355.475, 81.427
356.828, 104.781
358.179, 156.137
359.531, 214.976
360.882, 221.788
362.234, 246.144
363.585, 316.400
364.936, 275.317
366.286, 260.533
367.637, 208.101
368.987, 288.509
370.337, 321.464
371.687, 477.334
373.036, 703.779
374.386, 1050.230
375.735, 1688.725
377.084, 2399.818
378.432, 3107.141
379.781, 3095.726
381.129, 2562.228
382.478, 1774.603
383.825, 1220.018
385.173, 953.395
386.521, 845.773
387.868, 985.151
389.215, 1171.530
390.562, 1423.910
391.909, 1584.291
393.255, 1449.673
394.602, 1175.056
395.948, 818.440
397.294, 531.824
398.639, 350.211
399.985, 227.599
401.330, 204.988
402.675, 147.379
404.020, 76.772
405.365, 64.166
406.709, 63.561
408.054, 57.691
409.398, 29.089
410.742, 11.647
412.085, 10.049
413.429, 1.456
414.772, 5.868
416.115, 8.593
417.458, 11.820
418.800, 7.765
420.143, 6.354
421.485, 15.053
422.827, 11.462
424.169, 55.871
425.511, 26.281
426.852, 44.692
428.193, 9.104
429.534, 11.516
430.875, 9.070
432.216, 4.338
433.556, 38.746
434.896, 41.156
436.236, 45.566
437.576, 81.976
438.916, 102.387
440.255, 119.799
441.594, 101.211
442.933, 62.624
444.272, 41.036
445.611, 27.450
446.949, 18.864
448.287, 10.278
449.625, 25.693
450.963, 26.108
452.300, 61.523
453.638, 135.939
454.975, 183.355
456.312, 273.771
457.649, 285.188
458.985, 288.606
460.321, 256.026
461.658, 147.451
462.994, 100.876
464.329, 82.311
465.665, 68.764
467.000, 62.223
468.335, 15.685
469.670, 34.153
471.005, 20.627
472.340, 23.117
473.674, 41.611
475.008, 49.115
476.342, 70.619
477.676, 112.131
479.009, 127.380
480.342, 181.903
481.676, 222.429
483.009, 286.958
484.341, 422.397
485.674, 632.930
487.006, 956.463
488.338, 1560.996
489.670, 2120.528
491.002, 2447.060
492.333, 2411.592
493.665, 1761.124
494.996, 1203.656
496.327, 790.110
497.657, 529.547
498.988, 395.013
500.318, 247.767
501.648, 222.277
502.978, 144.577
504.308, 101.003
505.637, 109.497
506.967, 34.026
508.296, 63.449
509.625, 45.977
510.953, 38.505
512.282, 29.032
513.610, 9.558
514.938, 3.084
516.266, 14.609
517.594, 23.132
518.921, 3.345
520.249, 2.827
521.576, 19.686
522.903, 9.802
524.229, 4.299
525.556, 40.801
526.882, 46.329
528.208, 8.115
529.534, 20.442
530.860, 19.013
532.185, 6.401
533.511, 12.186
534.836, 28.784
536.161, 6.401
537.485, 10.025
538.810, 2.342
540.134, 4.705
541.458, 26.067
542.782, 9.427
544.106, 33.787
545.429, 68.146
546.753, 135.504
548.076, 167.862
549.399, 235.219
550.721, 407.575
552.044, 572.931
553.366, 722.285
554.688, 730.640
556.010, 589.993
557.332, 448.346
558.653, 281.698
559.975, 180.050
561.296, 121.400
562.617, 96.750
563.937, 41.099
565.258, 29.448
566.578, 6.204
567.898, 42.136
569.218, 4.476
570.538, 20.812
571.858, 29.149
573.177, 24.482
574.496, 5.817
575.815, 24.623
577.134, 25.956
578.452, 39.802
579.771, 35.727
581.089, 53.057
582.407, 70.388
583.724, 110.718
585.042, 94.048
586.359, 183.377
587.676, 289.706
588.993, 364.035
590.310, 521.770
591.627, 626.097
592.943, 658.425
594.259, 627.752
595.575, 564.078
596.891, 431.404
598.206, 340.730
599.522, 288.056
600.837, 201.380
602.152, 183.705
603.467, 180.029
604.781, 100.353
606.096, 125.677
607.410, 78.000
608.724, 104.323
610.038, 56.646
611.351, 36.968
612.665, 64.290
613.978, 50.611
615.291, 72.056
616.604, 76.377
617.916, 86.065
619.229, 80.491
620.541, 58.836
621.853, 97.154
623.165, 72.625
624.476, 106.372
625.788, 155.102
627.099, 99.749
628.410, 151.491
629.721, 137.341
631.032, 127.457
632.342, 163.959
633.652, 165.280
634.962, 163.450
636.272, 145.425
637.582, 161.445
638.891, 171.388
640.201, 193.382
641.510, 207.242
642.818, 249.606
644.127, 238.905
645.436, 307.202
646.744, 324.498
648.052, 361.792
649.360, 406.084
650.668, 443.374
651.975, 497.663
653.282, 539.950
654.590, 650.236
655.896, 720.521
657.203, 832.804
658.510, 970.089
659.816, 1145.373
661.122, 1419.656
662.428, 1786.938
663.734, 2290.219
665.039, 3047.499
666.345, 3792.776
667.650, 4786.054
668.955, 5153.329
670.260, 5400.604
671.564, 5023.868
672.869, 4396.022
674.173, 4118.291
675.477, 3610.559
676.781, 3591.344
678.084, 3596.152
679.388, 3769.416
680.691, 4239.779
681.994, 4742.480
683.297, 5882.888
684.599, 7366.939
685.902, 9602.152
687.204, 13798.823
688.506, 20035.580
689.808, 30703.756
691.109, 44110.930
692.411, 56117.062
693.712, 59154.598
695.013, 48431.902
696.314, 34659.945
697.615, 23018.078
698.915, 14946.331
700.216, 10694.546
701.516, 7461.802
702.816, 5695.054
704.115, 4449.310
705.415, 3481.563
706.714, 2948.816
708.013, 2347.071
709.312, 2009.324
710.611, 1687.579
711.910, 1441.833
713.208, 1259.087
714.506, 1089.342
715.804, 996.597
717.102, 827.852
718.399, 743.107
719.697, 660.363
720.994, 566.620
722.291, 532.880
723.588, 509.408
724.884, 407.671
726.181, 414.776
727.477, 329.051
728.773, 264.335
730.069, 286.621
731.365, 244.797
732.660, 245.113
733.955, 208.429
735.250, 198.754
736.545, 183.070
737.840, 167.417
739.134, 157.751
740.429, 147.086
741.723, 146.421
743.017, 171.758
744.310, 124.094
745.604, 149.432
746.897, 147.774
748.190, 122.116
749.483, 90.458
750.776, 83.802
752.069, 78.147
753.361, 43.492
754.653, 54.839
755.945, 54.186
757.237, 47.534
758.529, 58.883
759.820, 54.234
761.111, 45.585
762.402, 36.937
763.693, 30.290
764.984, 70.644
766.274, 81.000
767.564, 32.356
768.854, 41.714
770.144, 5.073
771.434, 17.431
772.724, 0.210
774.013, 12.853
775.302, 9.495
776.591, 28.157
777.880, 62.825
779.168, 18.527
780.456, 1.242
781.745, 16.959
783.033, 18.687
784.320, 53.426
785.608, 8.195
786.895, 31.970
788.183, 9.237
789.470, 26.555
790.756, 23.361
792.043, 7.182
793.329, 6.007
794.616, 7.032
795.902, 2.672
797.188, 1.490
798.473, 12.108
799.759, 21.815
801.044, 30.980
802.329, 39.147
803.614, 32.316
804.899, 73.487
806.183, 61.660
807.467, 78.834
808.752, 53.012
810.036, 110.191
811.319, 131.372
812.603, 168.556
813.886, 195.742
815.169, 215.930
816.452, 317.121
817.735, 389.313
819.018, 479.509
820.300, 617.707
821.583, 799.907
822.865, 1028.109
824.146, 1392.315
825.428, 1730.522
826.710, 2215.733
827.991, 2614.946
829.272, 2612.163
830.553, 2375.383
831.834, 1774.607
833.114, 1246.836
834.394, 892.069
835.675, 555.308
836.955, 414.553
838.234, 245.813
839.514, 155.091
840.793, 139.371
842.073, 82.662
843.352, 90.963
844.630, 61.267
845.909, 56.579
847.187, 49.904
848.466, 68.236
849.744, 18.576
851.022, 95.921
852.299, 46.270
853.577, 82.622
854.854, 129.978
856.131, 128.338
857.408, 180.702
858.685, 173.070
859.961, 251.441
861.238, 291.816
862.514, 422.196
863.790, 560.579
865.066, 577.966
866.341, 660.357
867.617, 654.765
868.892, 624.165
870.167, 680.569
871.442, 808.977
872.717, 939.389
873.991, 1042.999
875.265, 1300.909
876.540, 1653.344
877.813, 1841.209
879.087, 2248.646
880.361, 2379.825
881.634, 2412.857
882.907, 2421.559
884.180, 2135.245
885.453, 1887.516
886.726, 1588.979
887.998, 1291.785
889.270, 1110.551
890.542, 821.593
891.814, 738.161
893.086, 591.643
894.357, 458.128
895.628, 436.617
896.900, 302.110
898.170, 285.607
899.441, 304.108
900.712, 242.613
901.982, 244.121
903.252, 236.634
904.522, 236.150
905.792, 239.670
907.062, 280.195
908.331, 355.723
909.600, 412.256
910.869, 540.793
912.138, 785.334
913.407, 1009.879
914.675, 1502.428
915.944, 2067.982
917.212, 2440.539
918.480, 2500.187
919.747, 2648.668
921.015, 2244.239
922.282, 1910.814
923.549, 1431.270
924.816, 1147.853
926.083, 854.075
927.350, 722.562
928.616, 647.134
929.882, 533.737
931.148, 507.192
932.414, 515.375
933.680, 457.579
934.945, 535.872
936.211, 501.072
937.476, 489.169
938.741, 438.005
940.005, 353.460
941.270, 367.101
942.534, 278.896
943.799, 252.891
945.063, 302.847
946.326, 175.884
947.590, 193.875
948.853, 198.136
950.117, 203.637
951.380, 198.339
952.643, 189.046
953.905, 184.760
955.168, 199.481
956.430, 184.208
957.692, 191.942
958.954, 172.683
960.216, 187.430
961.478, 150.184
962.739, 209.945
964.000, 203.712
965.261, 256.487
966.522, 274.267
967.783, 335.055
969.043, 304.850
970.303, 471.651
971.563, 545.459
972.823, 600.275
974.083, 827.096
975.343, 973.925
976.602, 1238.761
977.861, 1653.604
979.120, 2032.453
980.379, 2923.310
981.638, 3861.173
982.896, 5316.044
984.154, 7066.921
985.412, 7752.811
986.670, 7851.707
987.928, 6611.609
989.185, 4814.521
990.443, 3856.440
991.700, 2726.368
992.957, 2215.311
994.214, 1772.268
995.470, 1351.234
996.727, 1124.213
997.983, 892.198
999.239, 753.200
1000.495, 680.214
1001.750, 524.234
1003.006, 514.268
1004.261, 485.308
1005.516, 394.362
1006.771, 357.424
1008.026, 290.491
1009.280, 218.575
1010.535, 171.670
1011.789, 140.774
1013.043, 121.887
1014.297, 119.007
1015.550, 63.136
1016.804, 44.277
1018.057, 0.425
1019.310, 37.580
1020.563, 1.741
1021.816, 3.909
1023.068, 9.083
1024.321, 6.735
1025.573, 14.550
1026.825, 0.638
1028.077, 13.169
1029.328, 2.027
1030.580, 58.770
1031.831, 37.585
1033.082, 8.408
1034.333, 67.227
1035.584, 60.068
1036.834, 6.073
1038.085, 32.779
1039.335, 9.637
1040.585, 16.491
1041.834, 3.345
1043.084, 17.807
1044.334, 26.019
1045.583, 46.130
1046.832, 45.302
1048.081, 62.480
1049.329, 39.664
1050.578, 66.856
1051.826, 95.053
1053.074, 132.257
1054.322, 157.468
1055.570, 170.686
1056.818, 168.910
1058.065, 256.140
1059.312, 281.377
1060.559, 296.620
1061.806, 358.871
1063.053, 461.130
1064.299, 521.397
1065.546, 666.673
1066.792, 813.956
1068.038, 1060.246
1069.284, 1344.542
1070.529, 1748.846
1071.775, 2531.155
1073.020, 3565.471
1074.265, 5329.795
1075.510, 8030.125
1076.754, 10207.463
1077.999, 11626.816
1079.243, 10186.173
1080.487, 7466.549
1081.731, 5486.948
1082.975, 3781.362
1084.219, 2739.786
1085.462, 2040.221
1086.705, 1395.669
1087.948, 1086.141
1089.191, 790.623
1090.434, 607.125
1091.676, 495.634
1092.919, 432.157
1094.161, 332.695
1095.403, 292.242
1096.645, 223.799
1097.886, 192.365
1099.128, 150.939
1100.369, 131.521
1101.610, 119.109
1102.851, 104.703
1104.091, 85.304
1105.332, 89.910
1106.572, 55.523
1107.812, 87.141
1109.052, 55.766
1110.292, 2.396
1111.532, 60.036
1112.771, 20.682
1114.010, 41.335
1115.249, 59.995
1116.488, 13.661
1117.727, 33.333
1118.966, 70.011
1120.204, 62.694
1121.442, 53.383
1122.680, 53.077
1123.918, 72.780
1125.155, 93.488
1126.393, 110.201
1127.630, 121.920
1128.867, 129.644
1130.104, 143.573
1131.341, 153.108
1132.577, 169.848
1133.814, 190.557
1135.050, 213.308
1136.286, 203.063
1137.522, 302.309
1138.757, 242.075
1139.993, 286.102
1141.228, 356.904
1142.463, 347.286
1143.698, 461.496
1144.933, 469.606
1146.167, 518.397
1147.402, 632.303
1148.636, 645.342
1149.870, 785.146
1151.104, 845.354
1152.338, 898.166
1153.571, 1146.658
1154.804, 1206.477
1156.037, 1343.300
1157.270, 1656.175
1158.503, 1720.132
1159.736, 2090.234
1160.968, 2355.737
1162.200, 2642.575
1163.432, 3076.873
1164.664, 3560.948
1165.896, 3939.795
1167.127, 4804.656
1168.359, 5178.557
1169.590, 6258.412
1170.821, 6886.270
1172.052, 7308.131
1173.282, 8189.799
1174.513, 7892.178
1175.743, 7687.036
1176.973, 7233.473
1178.203, 6083.346
1179.433, 5460.484
1180.662, 4617.776
1181.892, 3728.404
1183.121, 3338.054
1184.350, 2635.127
1185.579, 2322.015
1186.807, 2020.565
1188.036, 1625.163
1189.264, 1499.490
1190.492, 1252.298
1191.720, 1069.198
1192.948, 999.101
1194.176, 859.006
1195.403, 775.914
1196.630, 742.824
1197.857, 584.736
1199.084, 563.651
1200.311, 519.568
1201.537, 480.542
1202.764, 484.462
1203.990, 414.385
1205.216, 384.309
1206.442, 435.237
1207.667, 316.234
1208.893, 308.240
1210.118, 305.626
1211.343, 249.941
1212.568, 298.216
1213.793, 248.433
1215.017, 218.563
1216.242, 224.512
1217.466, 207.475
1218.690, 185.419
1219.914, 173.365
1221.137, 185.430
1222.361, 163.378
1223.584, 168.327
1224.807, 140.708
1226.030, 159.777
1227.253, 117.091
1228.476, 147.086
1229.698, 86.234
1230.920, 113.520
1232.142, 90.473
1233.364, 117.434
1234.586, 84.837
1235.808, 47.818
1237.029, 90.847
1238.250, 50.798
1239.471, 101.777
1240.692, 44.038
1241.913, 136.015
1243.133, 54.971
1244.353, 62.929
1245.574, 112.888
1246.794, 84.850
1248.013, 75.014
1249.233, 84.980
1250.452, 54.147
1251.672, 51.116
1252.891, 79.180
1254.110, 35.156
1255.328, 105.130
1256.547, 55.105
1257.765, 55.194
1258.983, 112.173
1260.201, 40.421
1261.419, 53.797
1262.637, 55.771
1263.854, 34.894
1265.072, 57.740
1266.289, 54.805
1267.506, 68.948
1268.723, 67.869
1269.939, 39.557
1271.156, 63.554
1272.372, 67.469
1273.588, 25.402
1274.804, 68.605
1276.020, 26.483
1277.235, 29.475
1278.451, 58.370
1279.666, 12.755
1280.881, 37.571
1282.096, 31.440
1283.310, 4.675
1284.525, 38.335
1285.739, 0.800
1286.953, 28.874
1288.167, 21.992
1289.381, 3.147
1290.595, 17.305
1291.808, 14.536
1293.022, 29.630
1294.235, 15.654
1295.448, 39.163
1296.660, 18.023
1297.873, 29.989
1299.085, 22.215
1300.298, 25.569
1301.510, 17.350
1302.722, 27.870
1303.933, 13.102
1305.145, 0.656
1306.356, 5.593
1307.567, 66.150
1308.778, 2.044
1309.989, 14.314
1311.200, 61.398
1312.410, 11.108
1313.621, 8.813
1314.831, 26.538
1316.041, 50.236
1317.250, 45.930
1318.460, 43.619
1319.670, 34.304
1320.879, 72.988
1322.088, 49.657
1323.297, 25.318
1324.506, 71.974
1325.714, 56.646
1326.922, 21.310
1328.131, 74.961
1329.339, 28.622
1330.547, 99.392
1331.754, 53.053
1332.962, 39.711
1334.169, 65.366
1335.376, 62.018
1336.583, 60.665
1337.790, 72.114
1338.997, 29.974
1340.203, 70.604
1341.410, 66.295
1342.616, 42.911
1343.822, 90.521
1345.028, 39.148
1346.233, 16.747
1347.439, 39.374
1348.644, 51.960
1349.849, 34.540
1351.054, 49.328
1352.259, 16.911
1353.463, 16.311
1354.668, 1.089
1355.872, 2.636
1357.076, 3.749
1358.280, 5.626
1359.483, 9.358
1360.687, 31.449
1361.890, 28.963
1363.094, 63.468
1364.297, 47.969
1365.499, 15.463
1366.702, 41.950
1367.905, 62.491
1369.107, 2.959
1370.309, 16.417
1371.511, 4.912
1372.713, 26.318
1373.914, 11.715
1375.116, 6.159
1376.317, 67.522
1377.518, 36.089
1378.719, 3.416
1379.920, 31.716
1381.121, 6.928
1382.321, 41.253
1383.521, 32.266
1384.721, 8.243
1385.921, 35.216
1387.121, 58.187
1388.321, 46.156
1389.520, 64.120
1390.719, 60.081
1391.918, 16.039
1393.117, 59.989
1394.316, 16.930
1395.514, 74.864
1396.713, 27.792
1397.911, 46.717
1399.109, 57.635
1400.307, 58.546
1401.505, 4.547
1402.702, 52.355
1403.899, 15.131
1405.097, 10.013
1406.294, 65.315
1407.490, 21.440
1408.687, 43.817
1409.884, 63.008
1411.080, 11.651
1412.276, 47.642
1413.472, 4.759
1414.668, 21.934
1415.863, 32.518
1417.059, 25.933
1418.254, 0.953
1419.449, 38.919
1420.644, 13.408
1421.839, 31.987
1423.033, 40.561
1424.228, 1.871
1425.422, 47.692
1426.616, 34.250
1427.810, 11.803
1429.004, 65.350
1430.197, 23.890
1431.391, 32.424
1432.584, 42.953
1433.777, 46.475
1434.970, 38.991
1436.163, 70.501
1437.355, 12.916
1438.548, 73.414
1439.740, 67.791
1440.932, 8.388
1442.124, 63.630
1443.315, 56.260
1444.507, 57.629
1445.698, 108.035
1446.889, 71.225
1448.080, 80.828
1449.271, 69.310
1450.462, 41.215
1451.652, 24.917
1452.843, 62.351
1454.033, 73.473
1455.223, 90.682
1456.413, 101.721
1457.602, 33.454
1458.792, 109.627
1459.981, 55.335
1461.170, 50.993
1462.359, 87.829
1463.548, 60.839
1464.737, 58.226
1465.925, 91.530
1467.113, 35.010
1468.302, 32.896
1469.490, 50.359
1470.677, 40.170
1471.865, 84.047
1473.052, 11.260
1474.240, 64.931
1475.427, 87.652
1476.614, 55.546
1477.800, 80.021
1478.987, 85.592
1480.173, 25.396
1481.360, 99.136
1482.546, 58.348
1483.732, 15.313
1484.917, 92.974
1486.103, 64.599
1487.288, 26.189
1488.474, 84.775
1489.659, 23.089
1490.844, 66.694
1492.028, 68.178
1493.213, 0.286
1494.397, 27.231
1495.582, 54.761
1496.766, 16.376
1497.950, 68.936
1499.133, 6.620
1500.317, 39.739
1501.500, 94.446
1502.683, 5.844
1503.866, 30.662
1505.049, 41.916
1506.232, 52.637
1507.415, 41.192
1508.597, 66.654
1509.779, 15.505
1510.961, 70.977
1512.143, 66.949
1513.325, 20.061
1514.506, 53.231
1515.688, 36.671
1516.869, 11.807
1518.050, 47.412
