##NAMES=Datolite
##RRUFFID=R050136
##IDEAL CHEMISTRY=CaB(SiO_4_)(OH)
##LOCALITY=Charcas, San Luis Potosi, Mexico
##OWNER=RRUFF
##SOURCE=Dave Bunk Minerals
##DESCRIPTION=Pale green tabular crystals
##STATUS=The identification of this mineral has been confirmed by X-ray diffraction and chemical analysis
##URL=rruff.info/R050136
##MEASURED CHEMISTRY=Ca_1.00_BSi_1.00_O_4_(OH) ; trace amounts of Fe; B and OH estimated by stoichiometry end charge balance
##PIN_ID=L00362
##ORIENTATION=Laser parallel to a* (1 0 0). Fiducial mark perpendicular to laser is parallel to b [0 1 0]
90.650, 0.000
92.046, 0.526
93.442, 11.959
94.838, 26.594
96.233, 42.708
97.628, 28.836
99.023, 57.797
100.418, 45.519
101.812, 22.401
103.206, 41.724
104.600, 38.892
105.994, 44.103
107.387, 41.522
108.781, 1.246
110.174, 26.067
111.566, 3.630
112.959, 58.471
114.351, 27.471
115.744, 67.507
117.136, 94.410
118.527, 6.587
119.919, 12.075
121.310, 19.418
122.701, 14.566
124.092, 77.525
125.482, 44.302
126.873, 103.908
128.263, 173.714
129.653, 332.306
131.042, 616.715
132.432, 1001.636
133.821, 1176.655
135.210, 872.326
136.599, 413.605
137.987, 170.530
139.376, 57.724
140.764, 25.331
142.152, 21.343
143.539, 34.990
144.927, 127.921
146.314, 297.084
147.701, 527.771
149.088, 914.384
150.474, 1666.807
151.861, 2693.086
153.247, 3610.229
154.633, 3091.244
156.018, 2126.149
157.404, 1371.972
158.789, 1179.710
160.174, 1508.346
161.559, 2384.885
162.943, 4036.572
164.327, 5801.958
165.711, 6423.765
167.095, 4116.381
168.479, 2131.399
169.862, 1266.555
171.246, 998.852
172.628, 1228.327
174.011, 1787.147
175.394, 2858.983
176.776, 3898.734
178.158, 3856.732
179.540, 2429.927
180.922, 1244.148
182.303, 641.397
183.684, 394.669
185.065, 240.961
186.446, 161.269
187.826, 149.591
189.207, 152.926
190.587, 233.270
191.967, 379.623
193.346, 291.984
194.726, 190.349
196.105, 106.717
197.484, 73.087
198.862, 63.455
200.241, 86.818
201.619, 64.176
202.997, 15.529
204.375, 41.876
205.753, 76.216
207.130, 119.548
208.507, 197.871
209.884, 366.186
211.261, 663.491
212.638, 1063.783
214.014, 1902.059
215.390, 3375.317
216.766, 5568.553
218.141, 7254.775
219.517, 6090.252
220.892, 3679.121
222.267, 1926.147
223.642, 1031.160
225.016, 661.042
226.391, 493.478
227.765, 436.661
229.139, 441.906
230.512, 458.121
231.886, 321.176
233.259, 246.191
234.632, 142.188
236.005, 52.167
237.377, 19.129
238.749, 5.927
240.122, 16.999
241.493, 10.089
242.865, 23.196
244.237, 21.320
245.608, 57.219
246.979, 30.622
248.350, 31.811
249.720, 32.107
251.090, 20.728
252.461, 46.918
253.830, 3.750
255.200, 3.652
256.570, 29.891
257.939, 0.659
259.308, 11.359
260.677, 18.820
262.045, 38.996
263.414, 111.172
264.782, 118.340
266.150, 222.495
267.517, 317.641
268.885, 519.861
270.252, 816.970
271.619, 1187.190
272.986, 1564.371
274.353, 1516.496
275.719, 1373.515
277.085, 1012.510
278.451, 742.480
279.817, 673.423
281.182, 652.336
282.548, 843.215
283.913, 1072.038
285.278, 1653.845
286.642, 2621.640
288.007, 4318.383
289.371, 6835.125
290.735, 9648.840
292.099, 11930.530
293.462, 10362.202
294.826, 7369.846
296.189, 4843.455
297.552, 2975.032
298.914, 2088.572
300.277, 1421.076
301.639, 1087.548
303.001, 839.989
304.363, 682.397
305.724, 569.630
307.086, 478.807
308.447, 447.001
309.808, 365.281
311.168, 376.525
312.529, 371.716
313.889, 307.878
315.249, 339.019
316.609, 334.139
317.969, 324.240
319.328, 385.321
320.687, 387.384
322.046, 485.427
323.405, 566.454
324.764, 797.462
326.122, 1033.453
327.480, 1564.426
328.838, 2224.365
330.196, 3076.239
331.553, 3956.043
332.910, 4230.755
334.267, 3991.388
335.624, 2775.948
336.981, 1716.440
338.337, 1056.875
339.693, 619.264
341.049, 440.681
342.405, 268.158
343.760, 217.683
345.116, 167.277
346.471, 119.889
347.826, 124.374
349.180, 87.244
350.535, 95.836
351.889, 79.452
353.243, 82.184
354.597, 94.694
355.950, 106.451
357.304, 95.111
358.657, 130.479
360.010, 154.585
361.362, 175.434
362.715, 158.071
364.067, 176.895
365.419, 138.501
366.771, 159.220
368.123, 139.550
369.474, 159.276
370.825, 206.273
372.176, 270.502
373.527, 414.644
374.877, 600.778
376.228, 954.903
377.578, 1232.019
378.928, 1332.126
380.277, 1227.224
381.627, 840.313
382.976, 600.392
384.325, 441.460
385.674, 327.516
387.023, 294.559
388.371, 262.590
389.719, 272.612
391.067, 296.625
392.415, 278.629
393.762, 267.623
395.110, 186.610
396.457, 170.588
397.804, 98.449
399.150, 67.767
400.497, 63.549
401.843, 50.181
403.189, 41.119
404.535, 39.489
405.881, 45.037
407.226, 23.703
408.571, 0.885
409.916, 14.190
411.261, 13.186
412.605, 2.160
413.950, 4.164
415.294, 37.951
416.638, 19.690
417.981, 23.566
419.325, 48.750
420.668, 77.853
422.011, 131.252
423.354, 182.302
424.697, 211.780
426.039, 207.012
427.381, 122.067
428.723, 105.060
430.065, 81.829
431.406, 102.595
432.748, 70.239
434.089, 73.870
435.430, 77.487
436.770, 119.091
438.111, 179.683
439.451, 211.263
440.791, 218.830
442.131, 258.386
443.471, 293.929
444.810, 378.461
446.149, 460.981
447.488, 645.490
448.827, 851.987
450.166, 1241.473
451.504, 1836.022
452.842, 2835.549
454.180, 4577.867
455.518, 6740.376
456.855, 8843.809
458.193, 9419.368
459.530, 7113.778
460.867, 5061.180
462.203, 3143.571
463.540, 2011.955
464.876, 1424.338
466.212, 960.723
467.548, 698.105
468.883, 502.487
470.219, 417.870
471.554, 314.247
472.889, 240.624
474.224, 268.995
475.558, 191.361
476.892, 186.731
478.227, 145.093
479.561, 144.447
480.894, 126.804
482.228, 148.152
483.561, 143.502
484.894, 215.845
486.227, 265.191
487.559, 408.533
488.892, 572.870
490.224, 739.204
491.556, 711.532
492.888, 560.858
494.220, 379.180
495.551, 265.498
496.882, 196.813
498.213, 104.121
499.544, 87.423
500.874, 61.718
502.205, 44.007
503.535, 30.289
504.865, 11.563
506.194, 7.820
507.524, 16.127
508.853, 6.074
510.182, 0.186
511.511, 3.270
512.840, 22.430
514.168, 17.602
515.496, 21.740
516.824, 2.850
518.152, 16.016
519.480, 28.948
520.807, 30.009
522.134, 59.127
523.461, 59.199
524.788, 66.309
526.114, 68.297
527.441, 58.379
528.767, 52.379
530.093, 47.460
531.418, 42.556
532.744, 75.645
534.069, 92.729
535.394, 112.807
536.719, 139.879
538.044, 197.946
539.368, 225.008
540.693, 281.064
542.017, 381.115
543.340, 500.160
544.664, 597.200
545.987, 889.235
547.311, 1160.264
548.634, 1761.288
549.956, 2522.308
551.279, 3610.321
552.601, 4784.330
553.923, 5012.333
555.245, 4665.332
556.567, 3415.325
557.889, 2437.086
559.210, 1763.720
560.531, 1221.329
561.852, 953.848
563.173, 688.319
564.493, 547.801
565.813, 380.361
567.133, 301.756
568.453, 221.695
569.773, 175.093
571.092, 145.527
572.412, 100.855
573.731, 20.953
575.049, 38.735
576.368, 8.390
577.686, 15.094
579.005, 1.029
580.323, 0.021
581.640, 6.892
582.958, 40.766
584.275, 12.664
585.593, 9.571
586.909, 21.488
588.226, 13.580
589.543, 10.553
590.859, 69.611
592.175, 106.533
593.491, 88.468
594.807, 129.418
596.122, 71.463
597.438, 95.505
598.753, 103.543
600.068, 101.579
601.382, 95.611
602.697, 112.640
604.011, 104.665
605.325, 66.688
606.639, 61.708
607.952, 66.724
609.266, 12.738
610.579, 14.748
611.892, 30.245
613.205, 12.742
614.518, 28.726
615.830, 0.293
617.142, 73.946
618.454, 35.049
619.766, 33.221
621.078, 80.099
622.389, 80.052
623.700, 68.516
625.011, 92.112
626.322, 111.031
627.632, 103.463
628.943, 115.938
630.253, 133.953
631.563, 128.789
632.872, 123.465
634.182, 168.333
635.491, 180.511
636.800, 235.656
638.109, 227.061
639.418, 249.117
640.726, 270.235
642.035, 312.740
643.343, 367.011
644.651, 378.108
645.958, 463.497
647.266, 544.935
648.573, 600.874
649.880, 743.406
651.187, 853.752
652.494, 1045.388
653.800, 1227.040
655.106, 1302.922
656.412, 1400.799
657.718, 1342.674
659.024, 1386.494
660.329, 1415.239
661.634, 1478.925
662.939, 1685.531
664.244, 1803.107
665.549, 2129.799
666.853, 2280.094
668.157, 2387.591
669.461, 2340.005
670.765, 2033.307
672.069, 1933.915
673.372, 1829.265
674.675, 1744.700
675.978, 1928.415
677.281, 2105.096
678.583, 2454.781
679.886, 2812.589
681.188, 3376.396
682.490, 4478.223
683.792, 5683.047
685.093, 8024.851
686.394, 11190.630
687.696, 16779.387
688.997, 26618.127
690.297, 37816.934
691.598, 53015.754
692.898, 56664.551
694.198, 49133.363
695.498, 37952.168
696.798, 24890.969
698.097, 17189.764
699.397, 12078.562
700.696, 8387.356
701.995, 6705.148
703.293, 4891.938
704.592, 4027.728
705.890, 3255.514
707.188, 2653.299
708.486, 2344.082
709.784, 1876.862
711.081, 1683.641
712.378, 1464.418
713.675, 1225.193
714.972, 1180.968
716.269, 959.742
717.565, 914.517
718.862, 779.291
720.158, 694.067
721.453, 654.842
722.749, 570.619
724.045, 544.396
725.340, 488.177
726.635, 426.959
727.930, 437.743
729.224, 397.529
730.519, 407.232
731.813, 381.011
733.107, 353.668
734.401, 402.357
735.694, 308.952
736.988, 297.576
738.281, 260.969
739.574, 252.257
740.867, 247.308
742.160, 221.552
743.452, 217.052
744.744, 167.761
746.036, 147.460
747.328, 193.268
748.620, 130.075
749.911, 112.881
751.202, 120.687
752.493, 58.491
753.784, 119.294
755.075, 84.096
756.365, 95.897
757.655, 87.697
758.945, 42.496
760.235, 57.293
761.525, 89.090
762.814, 82.886
764.103, 60.681
765.392, 79.401
766.681, 82.130
767.969, 41.058
769.258, 56.781
770.546, 25.571
771.834, 4.220
773.122, 8.007
774.409, 5.792
775.697, 7.425
776.984, 24.652
778.271, 32.897
779.558, 19.165
780.844, 24.447
782.131, 32.748
783.417, 1.071
784.703, 26.399
785.989, 7.746
787.274, 5.102
788.560, 40.465
789.845, 4.146
791.130, 4.755
792.415, 33.640
793.699, 6.945
794.983, 29.473
796.268, 2.910
797.552, 32.352
798.835, 13.815
800.119, 1.289
801.402, 19.767
802.686, 9.741
803.969, 21.751
805.251, 1.258
806.534, 6.768
807.816, 7.286
809.098, 12.191
810.380, 50.668
811.662, 54.146
812.944, 75.625
814.225, 41.105
815.506, 95.587
816.787, 130.071
818.068, 151.557
819.349, 233.045
820.629, 203.541
821.909, 358.040
823.189, 456.543
824.469, 571.049
825.749, 754.565
827.028, 832.087
828.307, 920.618
829.586, 820.152
830.865, 598.694
832.144, 503.239
833.422, 337.786
834.700, 251.335
835.978, 186.886
837.256, 131.440
838.534, 111.997
839.811, 90.555
841.088, 71.117
842.365, 120.681
843.642, 91.248
844.919, 138.818
846.195, 108.391
847.472, 114.967
848.748, 128.546
850.023, 112.127
851.299, 195.712
852.575, 196.300
853.850, 220.892
855.125, 282.486
856.400, 266.084
857.674, 363.686
858.949, 370.291
860.223, 430.899
861.497, 498.511
862.771, 502.127
864.045, 654.746
865.318, 745.370
866.591, 802.997
867.864, 969.627
869.137, 1105.262
870.410, 1313.902
871.682, 1536.545
872.955, 1927.191
874.227, 2479.842
875.499, 2890.568
876.770, 3516.228
878.042, 4208.891
879.313, 4598.648
880.584, 4954.320
881.855, 4903.335
883.126, 4596.083
884.396, 4386.767
885.667, 3592.062
886.937, 3298.297
888.207, 2764.413
889.476, 2396.400
890.746, 2223.111
892.015, 1856.226
893.284, 1712.307
894.553, 1580.182
895.822, 1476.052
897.090, 1529.809
898.359, 1395.775
899.627, 1509.655
900.895, 1548.427
902.163, 1567.234
903.430, 1844.015
904.698, 1914.801
905.965, 2226.592
907.232, 2621.387
908.499, 3001.187
909.765, 3856.991
911.032, 4903.801
912.298, 6294.617
913.564, 8747.436
914.830, 10976.259
916.095, 14055.090
917.361, 15033.924
918.626, 14142.765
919.891, 12861.607
921.156, 9940.468
922.420, 7855.332
923.685, 6264.202
924.949, 4684.815
926.213, 4089.567
927.477, 3402.253
928.740, 3138.236
930.004, 3119.146
931.267, 2916.548
932.530, 3196.823
933.793, 3174.776
935.056, 3020.220
936.318, 3161.624
937.581, 2652.492
938.843, 2553.543
940.104, 2354.756
941.366, 2010.782
942.628, 1925.500
943.889, 1763.256
945.150, 1627.756
946.411, 1615.608
947.672, 1419.402
948.932, 1555.814
950.193, 1393.463
951.453, 1342.291
952.713, 1346.831
953.973, 1199.326
955.232, 1177.324
956.491, 1146.734
957.751, 999.334
959.010, 982.650
960.268, 892.958
961.527, 837.040
962.785, 844.133
964.044, 787.234
965.302, 840.343
966.559, 827.462
967.817, 841.589
969.075, 907.726
970.332, 960.872
971.589, 1124.029
972.846, 1177.195
974.102, 1360.373
975.359, 1726.559
976.615, 1993.766
977.871, 2597.981
979.127, 3341.210
980.383, 4330.449
981.638, 6110.702
982.893, 7082.966
984.149, 8444.248
985.404, 8268.542
986.658, 6733.850
987.913, 5567.165
989.167, 3947.497
990.421, 2926.850
991.675, 2311.219
992.929, 1648.608
994.183, 1323.008
995.436, 1019.422
996.689, 813.856
997.942, 721.299
999.195, 542.753
1000.448, 474.219
1001.700, 436.694
1002.952, 345.180
1004.204, 302.680
1005.456, 217.191
1006.708, 187.715
1007.959, 174.255
1009.210, 133.803
1010.461, 65.365
1011.712, 70.938
1012.963, 66.519
1014.213, 102.110
1015.464, 64.710
1016.714, 27.322
1017.964, 79.943
1019.214, 30.574
1020.463, 73.214
1021.712, 16.863
1022.962, 11.520
1024.210, 9.187
1025.459, 4.138
1026.708, 7.545
1027.956, 32.237
1029.204, 5.063
1030.452, 12.645
1031.700, 14.638
1032.948, 3.916
1034.195, 1.814
1035.442, 22.448
1036.689, 20.706
1037.936, 16.961
1039.183, 60.212
1040.429, 4.526
1041.676, 41.727
1042.922, 14.984
1044.168, 7.232
1045.413, 35.473
1046.659, 7.284
1047.904, 9.951
1049.149, 6.177
1050.394, 28.604
1051.639, 1.607
1052.884, 53.189
1054.128, 66.996
1055.372, 41.810
1056.616, 93.633
1057.860, 85.465
1059.104, 126.304
1060.347, 162.152
1061.590, 184.009
1062.833, 235.873
1064.076, 335.746
1065.319, 444.626
1066.561, 652.514
1067.803, 751.410
1069.046, 1114.314
1070.287, 1644.226
1071.529, 2338.146
1072.771, 3862.074
1074.012, 5626.009
1075.253, 7906.955
1076.494, 9113.907
1077.735, 7710.871
1078.975, 6140.845
1080.216, 4308.836
1081.456, 2820.846
1082.696, 2086.871
1083.936, 1457.912
1085.175, 1093.972
1086.415, 946.042
1087.654, 696.129
1088.893, 601.228
1090.132, 516.337
1091.371, 413.467
1092.609, 451.605
1093.847, 333.752
1095.085, 357.917
1096.323, 350.091
1097.561, 277.282
1098.799, 269.482
1100.036, 238.700
1101.273, 255.931
1102.510, 241.171
1103.747, 222.425
1104.983, 253.687
1106.220, 210.963
1107.456, 180.255
1108.692, 226.417
1109.928, 216.723
1111.163, 201.125
1112.399, 220.457
1113.634, 185.782
1114.869, 206.230
1116.104, 174.568
1117.339, 213.135
1118.573, 284.485
1119.808, 220.197
1121.042, 272.848
1122.276, 380.594
1123.509, 342.968
1124.743, 434.089
1125.976, 338.475
1127.210, 362.882
1128.443, 379.955
1129.675, 366.024
1130.908, 456.150
1132.141, 495.242
1133.373, 440.826
1134.605, 567.094
1135.837, 569.551
1137.068, 661.381
1138.300, 677.908
1139.531, 698.117
1140.762, 812.080
1141.993, 828.969
1143.224, 873.703
1144.455, 1028.573
1145.685, 1077.202
1146.915, 1078.966
1148.145, 1298.212
1149.375, 1305.844
1150.605, 1517.525
1151.834, 1636.475
1153.063, 1751.220
1154.292, 2088.809
1155.521, 2156.657
1156.750, 2396.229
1157.978, 2895.843
1159.207, 2958.603
1160.435, 3571.177
1161.663, 3900.800
1162.891, 4266.403
1164.118, 5200.688
1165.345, 5660.194
1166.573, 6266.819
1167.800, 7231.509
1169.026, 7567.021
1170.253, 8612.580
1171.480, 8603.098
1172.706, 8344.613
1173.932, 8315.059
1175.158, 7217.594
1176.383, 6214.115
1177.609, 5577.609
1178.834, 4308.130
1180.059, 3795.357
1181.284, 3189.813
1182.509, 2524.336
1183.734, 2281.319
1184.958, 1882.368
1186.182, 1590.478
1187.406, 1472.923
1188.630, 1196.509
1189.854, 1095.716
1191.077, 995.636
1192.301, 932.161
1193.524, 906.658
1194.747, 777.195
1195.969, 788.004
1197.192, 807.419
1198.414, 789.946
1199.636, 825.468
1200.858, 800.316
1202.080, 813.944
1203.302, 766.471
1204.523, 780.065
1205.744, 710.667
1206.966, 654.215
1208.186, 553.812
1209.407, 588.335
1210.628, 474.858
1211.848, 458.379
1213.068, 399.899
1214.288, 353.419
1215.508, 334.937
1216.727, 366.455
1217.947, 263.005
1219.166, 290.520
1220.385, 212.034
1221.604, 188.614
1222.822, 232.125
1224.041, 165.634
1225.259, 167.202
1226.477, 161.716
1227.695, 164.219
1228.913, 142.765
1230.130, 117.266
1231.348, 81.826
1232.565, 142.321
1233.782, 82.818
1234.999, 76.316
1236.215, 70.814
1237.432, 49.313
1238.648, 94.813
1239.864, 50.314
1241.080, 88.891
1242.296, 62.393
1243.511, 58.890
1244.726, 30.399
1245.942, 43.895
1247.156, 49.391
1248.371, 56.884
1249.586, 41.374
1250.800, 14.860
1252.014, 28.333
1253.228, 8.795
1254.442, 8.751
1255.656, 36.847
1256.869, 5.274
1258.083, 10.698
1259.296, 34.094
1260.509, 5.490
1261.722, 47.982
1262.934, 3.319
1264.147, 18.912
1265.359, 1.230
1266.571, 2.688
1267.783, 1.257
1268.994, 22.536
1270.206, 36.043
1271.417, 42.557
1272.628, 8.193
1273.839, 2.561
1275.050, 2.262
1276.260, 2.900
1277.471, 17.711
1278.681, 9.381
1279.891, 4.115
1281.101, 22.176
1282.310, 12.615
1283.520, 39.447
1284.729, 18.241
1285.938, 30.044
1287.147, 4.157
1288.356, 9.669
1289.564, 27.579
1290.773, 13.568
1291.981, 8.747
1293.189, 1.194
1294.397, 14.856
1295.604, 12.900
1296.812, 11.907
1298.019, 11.137
1299.226, 5.847
1300.433, 9.823
1301.640, 22.217
1302.846, 5.798
1304.053, 12.175
1305.259, 24.183
1306.465, 20.141
1307.671, 22.158
1308.876, 0.100
1310.082, 51.031
1311.287, 21.956
1312.492, 17.871
1313.697, 45.777
1314.902, 32.675
1316.106, 44.563
1317.310, 82.443
1318.515, 45.316
1319.719, 41.182
1320.922, 50.037
1322.126, 30.882
1323.329, 92.719
1324.533, 36.545
1325.736, 54.360
1326.939, 74.156
1328.141, 32.942
1329.344, 32.721
1330.546, 84.495
1331.748, 20.246
1332.950, 34.999
1334.152, 31.808
1335.354, 2.547
1336.555, 26.274
1337.757, 31.006
1338.958, 48.719
1340.159, 9.424
1341.359, 56.136
1342.560, 52.820
1343.760, 46.494
1344.960, 16.159
1346.160, 31.813
1347.360, 64.527
1348.560, 37.161
1349.759, 35.784
1350.959, 48.480
1352.158, 37.084
1353.357, 69.733
1354.555, 82.319
1355.754, 59.896
1356.952, 83.463
1358.151, 72.021
1359.349, 94.569
1360.546, 58.485
1361.744, 49.015
1362.941, 100.536
1364.139, 83.045
1365.336, 41.542
1366.533, 84.031
1367.730, 94.649
1368.926, 44.086
1370.123, 56.507
1371.319, 79.909
1372.515, 48.388
1373.711, 58.706
1374.906, 43.859
1376.102, 76.106
1377.297, 87.346
1378.492, 71.578
1379.687, 64.804
1380.882, 71.021
1382.077, 108.231
1383.271, 122.433
1384.465, 46.626
1385.659, 114.811
1386.853, 113.035
1388.047, 63.096
1389.240, 98.232
1390.434, 87.243
1391.627, 118.123
1392.820, 105.507
1394.013, 80.176
1395.205, 70.072
1396.398, 87.132
1397.590, 89.508
1398.782, 31.087
1399.974, 73.977
1401.166, 51.407
1402.357, 47.965
1403.549, 43.611
1404.740, 21.111
1405.931, 55.451
1407.122, 11.668
1408.313, 47.073
1409.503, 15.452
1410.693, 6.429
1411.883, 50.521
1413.073, 15.747
1414.263, 3.185
1415.453, 42.260
1416.642, 1.665
1417.831, 27.121
1419.020, 16.539
1420.209, 8.125
1421.398, 18.226
1422.587, 26.627
1423.775, 20.821
1424.963, 36.880
1426.151, 50.019
1427.339, 27.971
1428.526, 27.113
1429.714, 10.384
1430.901, 25.840
1432.088, 49.382
1433.275, 24.490
1434.462, 18.525
1435.648, 64.586
1436.835, 57.758
1438.021, 48.914
1439.207, 13.051
1440.393, 37.109
1441.579, 75.083
1442.764, 37.166
1443.949, 30.098
1445.135, 60.057
1446.320, 65.955
1447.504, 30.949
1448.689, 54.895
1449.873, 24.791
1451.058, 70.468
1452.242, 66.262
1453.426, 38.985
1454.609, 93.685
1455.793, 56.350
1456.976, 45.046
1458.159, 76.381
1459.342, 57.114
1460.525, 74.921
1461.708, 59.557
1462.890, 44.893
1464.073, 53.809
1465.255, 70.487
1466.437, 49.591
1467.619, 53.313
1468.800, 47.026
1469.982, 42.313
1471.163, 69.744
1472.344, 48.375
1473.525, 66.420
1474.706, 50.903
1475.886, 12.950
1477.066, 60.595
1478.247, 74.627
1479.427, 25.108
1480.607, 81.366
1481.786, 28.843
1482.966, 23.105
1484.145, 40.217
1485.324, 36.563
1486.503, 53.889
1487.682, 74.188
1488.860, 9.452
1490.039, 26.680
1491.217, 45.902
1492.395, 7.127
1493.573, 31.489
1494.751, 11.834
1495.928, 25.352
1497.106, 24.395
1498.283, 31.814
1499.460, 41.341
1500.637, 54.730
1501.814, 3.700
1502.990, 53.179
1504.166, 70.767
1505.342, 26.368
1506.518, 49.152
1507.694, 26.623
1508.870, 4.091
1510.045, 27.400
1511.221, 22.123
1512.396, 27.078
1513.571, 0.042
1514.745, 14.599
1515.920, 0.000
##END=



