##NAMES=Datolite
##RRUFFID=R050033
##IDEAL CHEMISTRY=CaB(SiO_4_)(OH)
##LOCALITY=Westfield, Massachusetts, USA
##OWNER=RRUFF
##SOURCE=University of Arizona Mineral Museum
##DESCRIPTION=Group of pale green single crystals
##STATUS=The identification of this mineral has been confirmed by X-ray diffraction and chemical analysis
##URL=rruff.info/R050033
##MEASURED CHEMISTRY=Ca_1.00_B_1.00_Si_1.00_O_4_(OH) ; trace amounts of Al and Na; B measured and corrected according to stoichiometry;  OH estimated by stoichiometry end charge balance
##PIN_ID=M00292
##ORIENTATION=Laser parallel to (1 0 1). Fiducial mark perpendicular to laser is parallel to b [0 1 0]
49.184, 0.000
50.590, 0.086
51.996, 41.807
53.401, 1.541
54.807, 67.671
56.212, 97.755
57.617, 41.951
59.021, 62.770
60.426, 68.388
61.830, 164.013
63.234, 253.933
64.637, 258.290
66.041, 252.289
67.444, 237.125
68.847, 208.172
70.250, 180.918
71.652, 161.877
73.054, 220.610
74.456, 203.131
75.858, 332.421
77.260, 238.428
78.661, 337.627
80.062, 335.305
81.463, 331.213
82.863, 300.356
84.264, 370.839
85.664, 453.348
87.064, 376.485
88.463, 272.502
89.863, 245.169
91.262, 235.679
92.661, 228.041
94.059, 191.293
95.458, 172.473
96.856, 125.377
98.254, 99.226
99.652, 81.741
101.049, 60.224
102.446, 42.362
103.843, 3.422
105.240, 2.474
106.637, 10.180
108.033, 4.198
109.429, 24.096
110.825, 39.939
112.220, 44.004
113.616, 1.749
115.011, 18.890
116.406, 12.084
117.800, 98.436
119.195, 10.320
120.589, 22.989
121.983, 34.481
123.377, 27.851
124.770, 23.017
126.163, 70.023
127.556, 213.877
128.949, 379.586
130.342, 754.154
131.734, 1136.588
133.126, 1366.939
134.518, 1317.335
135.909, 963.768
137.301, 562.230
138.692, 290.713
140.083, 162.207
141.473, 67.126
142.864, 53.167
144.254, 32.894
145.644, 67.432
147.034, 149.243
148.423, 286.805
149.812, 418.377
151.201, 694.103
152.590, 948.696
153.979, 1261.219
155.367, 1576.065
156.755, 2236.585
158.143, 3497.726
159.530, 5874.092
160.918, 9318.236
162.305, 14441.311
163.692, 19774.322
165.078, 23157.771
166.465, 22382.340
167.851, 15625.931
169.237, 9748.632
170.623, 6113.263
172.008, 4367.852
173.393, 3720.425
174.778, 3671.980
176.163, 4257.519
177.548, 4648.123
178.932, 4350.680
180.316, 3273.938
181.700, 2043.318
183.083, 1359.442
184.467, 1023.306
185.850, 992.834
187.233, 1108.022
188.616, 1481.181
189.998, 2028.311
191.380, 2534.413
192.762, 2902.488
194.144, 2457.534
195.525, 1741.553
196.907, 1213.544
198.288, 1040.613
199.669, 1003.556
201.049, 932.484
202.429, 789.405
203.810, 601.312
205.189, 618.195
206.569, 662.052
207.949, 903.882
209.328, 1259.687
210.707, 1783.466
212.085, 2500.221
213.464, 3306.973
214.842, 4707.753
216.220, 6665.786
217.598, 8443.738
218.976, 8789.585
220.353, 6934.277
221.730, 4444.915
223.107, 2579.437
224.483, 1478.834
225.860, 981.105
227.236, 644.249
228.612, 421.267
229.988, 362.152
231.363, 284.898
232.738, 208.505
234.113, 134.973
235.488, 102.303
236.863, 50.267
238.237, 32.576
239.611, 5.488
240.985, 19.706
242.359, 23.088
243.732, 36.690
245.105, 24.489
246.478, 24.436
247.851, 48.539
249.223, 22.794
250.595, 19.827
251.967, 18.767
253.339, 15.476
254.711, 32.263
256.082, 73.126
257.453, 29.096
258.824, 35.155
260.195, 15.423
261.565, 15.150
262.935, 43.432
264.305, 87.516
265.675, 183.402
267.044, 313.056
268.414, 532.467
269.783, 747.673
271.151, 909.867
272.520, 949.562
273.888, 913.515
275.256, 744.388
276.624, 514.445
277.992, 382.508
279.359, 239.611
280.726, 199.201
282.093, 156.590
283.460, 196.997
284.827, 306.253
286.193, 506.588
287.559, 867.166
288.925, 1355.687
290.290, 2004.096
291.656, 2530.066
293.021, 2634.804
294.386, 2223.833
295.750, 1580.836
297.115, 1097.815
298.479, 689.770
299.843, 484.700
301.207, 327.606
302.570, 228.487
303.933, 168.413
305.296, 100.830
306.659, 104.814
308.022, 56.693
309.384, 68.201
310.746, 49.949
312.108, 50.387
313.470, 60.985
314.831, 52.681
316.193, 108.297
317.554, 153.720
318.914, 224.888
320.275, 315.866
321.635, 449.803
322.995, 512.713
324.355, 516.607
325.715, 486.487
327.074, 475.353
328.434, 624.206
329.792, 757.043
331.151, 908.859
332.510, 1043.660
333.868, 1021.449
335.226, 880.225
336.584, 646.990
337.941, 457.743
339.299, 358.485
340.656, 274.215
342.013, 267.928
343.370, 239.671
344.726, 323.497
346.082, 352.440
347.438, 419.476
348.794, 465.502
350.150, 517.805
351.505, 671.189
352.860, 826.409
354.215, 1092.282
355.570, 1511.030
356.924, 2026.770
358.278, 2565.304
359.632, 3288.828
360.986, 3925.342
362.339, 4129.846
363.693, 3968.340
365.046, 3521.825
366.399, 2802.300
367.751, 2234.766
369.104, 1795.222
370.456, 1414.668
371.808, 1233.294
373.159, 1085.628
374.511, 1034.547
375.862, 1090.183
377.213, 1147.219
378.564, 1259.728
379.914, 1322.550
381.265, 1407.878
382.615, 1544.875
383.965, 1821.039
385.315, 2272.487
386.664, 3006.693
388.013, 4219.868
389.362, 5492.015
390.711, 7110.133
392.060, 7917.223
393.408, 8020.285
394.756, 6897.085
396.104, 5332.539
397.451, 3904.651
398.799, 2889.464
400.146, 2107.723
401.493, 1595.684
402.840, 1205.165
404.186, 928.732
405.533, 757.066
406.879, 653.527
408.225, 519.737
409.570, 465.937
410.916, 431.609
412.261, 398.886
413.606, 403.408
414.951, 447.920
416.295, 467.633
417.639, 653.286
418.983, 917.371
420.327, 1364.216
421.671, 1947.678
423.014, 2651.378
424.357, 3118.726
425.700, 2910.632
427.043, 2356.000
428.386, 1628.938
429.728, 1118.414
431.070, 800.980
432.412, 620.544
433.753, 573.106
435.095, 598.664
436.436, 689.221
437.777, 792.774
439.118, 939.320
440.458, 946.861
441.798, 835.053
443.138, 622.077
444.478, 478.927
445.818, 350.943
447.157, 229.420
448.496, 199.949
449.835, 177.488
451.174, 160.023
452.513, 183.554
453.851, 208.081
455.189, 275.599
456.527, 362.107
457.864, 458.606
459.202, 432.095
460.539, 339.574
461.876, 220.044
463.212, 143.505
464.549, 90.661
465.885, 75.562
467.221, 25.179
468.557, 5.814
469.893, 16.085
471.228, 16.471
472.563, 8.283
473.898, 16.984
475.233, 7.354
476.567, 8.667
477.902, 33.406
479.236, 68.342
480.570, 107.599
481.903, 163.120
483.237, 238.648
484.570, 304.188
485.903, 559.739
487.235, 789.303
488.568, 1046.881
489.900, 1405.473
491.232, 1539.075
492.564, 1379.677
493.896, 1131.283
495.227, 801.887
496.558, 572.498
497.889, 383.110
499.220, 266.721
500.551, 159.328
501.881, 91.930
503.211, 66.528
504.541, 40.030
505.870, 5.617
507.200, 3.802
508.529, 4.229
509.858, 13.665
511.187, 16.111
512.515, 34.570
513.844, 0.952
515.172, 24.467
516.500, 22.976
517.827, 75.480
519.155, 138.980
520.482, 228.476
521.809, 316.969
523.136, 397.457
524.462, 446.942
525.789, 394.423
527.115, 310.901
528.441, 175.374
529.766, 72.844
531.092, 16.310
532.417, 19.228
533.742, 48.780
535.067, 60.358
536.391, 50.969
537.716, 74.607
539.040, 48.285
540.364, 40.989
541.688, 35.716
543.011, 19.461
544.334, 2.781
545.657, 52.019
546.980, 52.254
548.303, 147.486
549.625, 215.715
550.947, 319.942
552.269, 443.167
553.591, 573.389
554.913, 690.610
556.234, 721.832
557.555, 807.055
558.876, 940.281
560.197, 1109.512
561.517, 1250.751
562.837, 1229.002
564.157, 1038.271
565.477, 734.557
566.797, 531.865
568.116, 348.192
569.435, 286.537
570.754, 197.907
572.073, 184.296
573.391, 143.693
574.709, 153.107
576.027, 145.538
577.345, 161.989
578.663, 188.473
579.980, 234.976
581.297, 299.500
582.614, 387.042
583.931, 512.592
585.248, 734.150
586.564, 975.712
587.880, 1281.276
589.196, 1725.841
590.511, 2194.405
591.827, 2709.969
593.142, 3034.533
594.457, 3051.096
595.772, 2925.659
597.086, 2515.222
598.401, 2275.784
599.715, 2159.345
601.029, 2051.908
602.343, 1914.473
603.656, 1653.041
604.969, 1345.610
606.282, 1062.179
607.595, 805.748
608.908, 607.316
610.220, 431.884
611.532, 356.452
612.844, 301.019
614.156, 243.586
615.468, 230.152
616.779, 180.718
618.090, 200.284
619.401, 166.850
620.712, 127.415
622.022, 122.980
623.332, 150.688
624.642, 150.651
625.952, 162.624
627.262, 169.050
628.571, 226.698
629.880, 217.146
631.189, 245.886
632.498, 281.953
633.807, 288.031
635.115, 329.678
636.423, 335.287
637.731, 422.424
639.039, 506.526
640.346, 557.611
641.653, 651.129
642.960, 797.071
644.267, 1013.757
645.574, 1179.685
646.880, 1601.230
648.186, 2017.266
649.492, 2594.739
650.798, 3358.070
652.103, 4142.017
653.409, 4903.154
654.714, 5428.616
656.019, 5397.962
657.323, 5123.517
658.628, 4447.068
659.932, 3815.614
661.236, 3375.108
662.540, 3031.491
663.843, 2981.729
665.147, 2953.848
666.450, 3201.956
667.753, 3280.771
669.056, 3435.491
670.358, 3498.360
671.660, 3383.564
672.963, 3231.878
674.264, 3256.187
675.566, 3124.688
676.868, 3187.186
678.169, 3266.681
679.470, 3601.171
680.771, 4005.659
682.071, 4676.143
683.372, 5633.625
684.672, 7050.102
685.972, 9598.574
687.271, 13198.046
688.571, 19087.324
689.870, 27865.883
691.169, 37142.840
692.468, 45589.082
693.767, 46005.898
695.065, 39111.227
696.364, 30178.217
697.662, 21375.662
698.960, 15213.408
700.257, 11021.954
701.555, 7966.185
702.852, 6147.624
704.149, 4679.063
705.446, 3721.501
706.742, 2965.936
708.038, 2466.370
709.335, 2096.802
710.631, 1754.233
711.926, 1506.661
713.222, 1281.089
714.517, 1115.515
715.812, 1002.939
717.107, 791.361
718.402, 775.782
719.696, 613.201
720.990, 565.620
722.284, 516.036
723.578, 452.452
724.872, 379.868
726.165, 319.282
727.458, 278.699
728.751, 255.114
730.044, 252.528
731.336, 200.943
732.629, 168.355
733.921, 188.768
735.213, 175.180
736.504, 141.593
737.796, 156.006
739.087, 210.417
740.378, 161.826
741.669, 190.232
742.960, 182.636
744.250, 131.037
745.540, 145.435
746.830, 118.831
748.120, 108.224
749.410, 103.614
750.699, 38.001
751.988, 102.386
753.277, 50.769
754.566, 87.149
755.854, 66.526
757.143, 122.901
758.431, 161.273
759.719, 227.643
761.006, 351.011
762.294, 481.376
763.581, 607.738
764.868, 686.099
766.155, 665.456
767.442, 537.812
768.728, 382.165
770.014, 276.516
771.300, 182.864
772.586, 151.210
773.872, 107.555
775.157, 78.896
776.442, 40.236
777.727, 19.574
779.012, 10.906
780.297, 6.232
781.581, 34.452
782.865, 37.165
784.149, 17.910
785.433, 58.676
786.716, 43.484
787.999, 28.326
789.282, 53.194
790.565, 19.102
791.848, 73.033
793.130, 39.014
794.413, 23.028
795.695, 46.068
796.977, 37.144
798.258, 49.252
799.540, 53.398
800.821, 47.584
802.102, 39.807
803.382, 0.937
804.663, 13.330
805.943, 11.385
807.224, 26.906
808.504, 0.222
809.783, 1.451
811.063, 34.115
812.342, 31.778
813.621, 74.440
814.900, 83.101
816.179, 101.762
817.457, 180.423
818.736, 227.087
820.014, 308.752
821.292, 428.419
822.569, 563.090
823.847, 773.764
825.124, 1040.446
826.401, 1314.129
827.678, 1421.813
828.954, 1578.498
830.231, 1343.184
831.507, 1183.870
832.783, 923.556
834.059, 705.243
835.334, 500.930
836.610, 392.619
837.885, 309.308
839.160, 234.998
840.435, 192.689
841.709, 151.381
842.983, 123.075
844.258, 133.775
845.532, 135.488
846.805, 116.217
848.079, 144.960
849.352, 156.723
850.625, 159.499
851.898, 195.286
853.171, 244.083
854.443, 318.887
855.715, 375.694
856.988, 464.503
858.259, 623.315
859.531, 800.129
860.803, 1004.946
862.074, 1284.765
863.345, 1479.587
864.616, 1507.411
865.886, 1427.239
867.157, 1200.069
868.427, 1048.902
869.697, 1000.739
870.967, 935.578
872.236, 970.421
873.506, 1113.389
874.775, 1297.238
876.044, 1469.302
877.313, 1726.528
878.581, 1909.432
879.849, 2167.385
881.118, 2245.251
882.386, 2204.281
883.653, 2126.839
884.921, 2005.715
886.188, 1808.212
887.455, 1629.283
888.722, 1441.894
889.989, 1317.385
891.255, 1195.437
892.522, 1093.409
893.788, 1056.312
895.054, 999.219
896.319, 1019.129
897.585, 1073.044
898.850, 1068.963
900.115, 1214.885
901.380, 1335.812
902.645, 1373.744
903.909, 1721.680
905.174, 1912.620
906.438, 2236.565
907.701, 2750.514
908.965, 3296.468
910.229, 4224.427
911.492, 5400.390
912.755, 6860.359
914.018, 9057.332
915.280, 10936.310
916.543, 12635.293
917.805, 13044.281
919.067, 12323.275
920.329, 10662.271
921.590, 8743.276
922.852, 6957.287
924.113, 5705.301
925.374, 4493.321
926.635, 3807.347
927.895, 3112.379
929.156, 2807.415
930.416, 2583.241
931.676, 2299.761
932.936, 2277.075
934.195, 2146.868
935.454, 2020.500
936.714, 1919.350
937.973, 1740.651
939.231, 1613.917
940.490, 1539.148
941.748, 1393.833
943.006, 1360.673
944.264, 1298.145
945.522, 1273.770
946.780, 1306.418
948.037, 1284.640
949.294, 1358.445
950.551, 1277.513
951.808, 1344.345
953.064, 1380.567
954.320, 1343.306
955.577, 1324.615
956.832, 1280.075
958.088, 1144.929
959.344, 1070.603
960.599, 993.964
961.854, 943.445
963.109, 894.728
964.364, 874.735
965.618, 866.095
966.872, 873.657
968.127, 906.991
969.380, 938.812
970.634, 1017.180
971.888, 1151.562
973.141, 1303.957
974.394, 1520.368
975.647, 1936.793
976.900, 2353.236
978.152, 2917.693
979.404, 3953.166
980.656, 5065.660
981.908, 6714.174
983.160, 7855.707
984.411, 8682.259
985.663, 8242.829
986.914, 6840.424
988.165, 5602.029
989.415, 4229.651
990.666, 3227.294
991.916, 2566.952
993.166, 1951.630
994.416, 1609.326
995.665, 1321.037
996.915, 1073.767
998.164, 1000.518
999.413, 890.283
1000.662, 844.069
1001.911, 805.877
1003.159, 769.701
1004.407, 705.242
1005.655, 663.410
1006.903, 575.294
1008.151, 505.193
1009.398, 437.109
1010.646, 350.041
1011.893, 273.985
1013.139, 215.943
1014.386, 206.914
1015.633, 203.897
1016.879, 99.894
1018.125, 95.906
1019.371, 53.931
1020.616, 59.969
1021.862, 48.018
1023.107, 8.920
1024.352, 13.152
1025.597, 13.764
1026.842, 20.670
1028.086, 3.568
1029.330, 44.454
1030.574, 18.661
1031.818, 11.212
1033.062, 32.074
1034.305, 12.068
1035.548, 29.777
1036.791, 12.616
1038.034, 33.445
1039.277, 29.270
1040.519, 11.088
1041.762, 5.896
1043.004, 13.307
1044.246, 23.522
1045.487, 25.749
1046.729, 32.987
1047.970, 45.238
1049.211, 93.500
1050.452, 119.774
1051.692, 110.061
1052.933, 184.359
1054.173, 221.669
1055.413, 210.991
1056.653, 315.324
1057.893, 289.670
1059.132, 419.027
1060.371, 519.396
1061.610, 599.777
1062.849, 754.169
1064.088, 968.573
1065.326, 1193.989
1066.565, 1539.416
1067.803, 1936.855
1069.041, 2661.306
1070.278, 3703.768
1071.516, 5159.241
1072.753, 7691.727
1073.990, 10568.223
1075.227, 13448.732
1076.464, 14539.249
1077.700, 12819.781
1078.936, 10900.325
1080.173, 8810.880
1081.408, 6887.446
1082.644, 5240.031
1083.880, 3814.641
1085.115, 2732.277
1086.350, 2100.936
1087.585, 1554.627
1088.820, 1220.346
1090.054, 959.088
1091.288, 721.862
1092.522, 666.656
1093.756, 547.487
1094.990, 421.344
1096.224, 377.223
1097.457, 310.131
1098.690, 256.064
1099.923, 185.027
1101.156, 178.019
1102.388, 177.039
1103.621, 130.086
1104.853, 114.519
1106.085, 101.093
1107.316, 85.052
1108.548, 110.590
1109.779, 33.720
1111.010, 39.054
1112.241, 62.810
1113.472, 3.973
1114.703, 30.306
1115.933, 33.487
1117.163, 23.466
1118.393, 23.284
1119.623, 6.914
1120.853, 56.163
1122.082, 64.378
1123.311, 78.098
1124.540, 68.764
1125.769, 23.229
1126.997, 83.338
1128.226, 33.652
1129.454, 59.173
1130.682, 52.454
1131.910, 98.130
1133.138, 83.253
1134.365, 114.588
1135.592, 108.493
1136.819, 136.230
1138.046, 121.922
1139.273, 188.692
1140.499, 167.100
1141.725, 175.272
1142.951, 245.403
1144.177, 257.309
1145.403, 319.547
1146.628, 316.562
1147.854, 364.766
1149.079, 392.490
1150.304, 459.618
1151.528, 508.139
1152.753, 552.349
1153.977, 657.332
1155.201, 729.531
1156.425, 785.932
1157.649, 918.238
1158.872, 1023.739
1160.096, 1172.360
1161.319, 1330.040
1162.542, 1479.506
1163.764, 1679.552
1164.987, 1857.477
1166.209, 2108.980
1167.431, 2409.637
1168.653, 2622.081
1169.875, 2933.529
1171.097, 3064.857
1172.318, 3112.310
1173.539, 3090.553
1174.760, 2837.642
1175.981, 2528.057
1177.202, 2352.430
1178.422, 1925.896
1179.642, 1705.205
1180.862, 1463.990
1182.082, 1250.464
1183.302, 1154.322
1184.521, 946.612
1185.740, 876.368
1186.959, 843.248
1188.178, 742.575
1189.397, 747.987
1190.615, 727.474
1191.834, 729.963
1193.052, 774.454
1194.269, 833.946
1195.487, 841.439
1196.705, 978.933
1197.922, 1007.428
1199.139, 1065.927
1200.356, 1145.501
1201.573, 1128.999
1202.789, 1188.497
1204.006, 1121.996
1205.222, 1045.495
1206.438, 958.995
1207.653, 829.495
1208.869, 743.995
1210.084, 684.497
1211.299, 602.999
1212.514, 551.501
1213.729, 473.003
1214.944, 450.504
1216.158, 360.005
1217.372, 320.505
1218.586, 328.004
1219.800, 292.503
1221.014, 239.001
1222.227, 246.497
1223.440, 212.993
1224.654, 175.487
1225.866, 179.980
1227.079, 139.472
1228.292, 137.962
1229.504, 151.451
1230.716, 101.937
1231.928, 127.421
1233.139, 93.903
1234.351, 105.382
1235.562, 93.859
1236.773, 80.337
1237.984, 60.816
1239.195, 67.297
1240.406, 73.779
1241.616, 34.261
1242.826, 32.744
1244.036, 23.223
1245.246, 27.695
1246.456, 31.166
1247.665, 9.634
1248.874, 33.100
1250.083, 1.447
1251.292, 2.999
1252.501, 8.563
1253.709, 1.141
1254.917, 35.263
1256.125, 3.656
1257.333, 2.920
1258.541, 37.445
1259.748, 5.790
1260.956, 25.101
1262.163, 5.600
1263.370, 16.798
1264.576, 1.553
1265.783, 12.798
1266.989, 6.931
1268.195, 1.406
1269.401, 13.252
1270.607, 8.371
1271.813, 3.469
1273.018, 22.283
1274.223, 25.178
1275.428, 5.042
1276.633, 26.896
1277.838, 1.781
1279.042, 20.728
1280.246, 2.614
1281.450, 6.644
1282.654, 25.335
1283.858, 6.908
1285.061, 20.095
1286.265, 0.080
1287.468, 0.891
1288.671, 11.150
1289.873, 16.111
1291.076, 4.153
1292.278, 14.927
1293.480, 22.910
1294.682, 2.998
1295.884, 19.127
1297.086, 13.821
1298.287, 9.944
1299.488, 3.026
1300.689, 0.158
1301.890, 1.645
1303.091, 29.436
1304.291, 22.249
1305.491, 20.021
1306.691, 35.921
1307.891, 8.673
1309.091, 12.414
1310.290, 34.160
1311.490, 23.879
1312.689, 63.587
1313.888, 61.360
1315.086, 89.047
1316.285, 71.725
1317.483, 64.392
1318.681, 65.049
1319.879, 79.699
1321.077, 84.339
1322.275, 94.975
1323.472, 81.601
1324.669, 66.217
1325.866, 89.822
1327.063, 93.418
1328.260, 64.008
1329.456, 102.672
1330.653, 86.245
1331.849, 73.810
1333.045, 90.536
1334.240, 73.102
1335.436, 64.636
1336.631, 91.178
1337.826, 58.692
1339.021, 73.189
1340.216, 68.684
1341.411, 64.160
1342.605, 59.625
1343.799, 45.078
1344.993, 67.521
1346.187, 82.953
1347.381, 66.423
1348.574, 91.850
1349.767, 104.251
1350.961, 70.642
1352.153, 70.023
1353.346, 68.871
1354.539, 86.230
1355.731, 88.579
1356.923, 91.590
1358.115, 92.236
1359.307, 92.584
1360.498, 96.887
1361.690, 91.180
1362.881, 97.464
1364.072, 106.736
1365.263, 99.924
1366.453, 107.228
1367.644, 106.363
1368.834, 112.651
1370.024, 106.984
1371.214, 105.161
1372.404, 107.325
1373.593, 116.476
1374.783, 124.595
1375.972, 122.695
1377.161, 106.775
1378.349, 139.839
1379.538, 106.915
1380.726, 107.980
1381.915, 136.033
1383.103, 101.076
1384.290, 137.106
1385.478, 107.125
1386.665, 83.213
1387.853, 114.818
1389.040, 122.574
1390.227, 100.865
1391.413, 135.618
1392.600, 107.859
1393.786, 91.227
1394.972, 95.417
1396.158, 84.377
1397.344, 77.835
1398.530, 65.812
1399.715, 50.740
1400.900, 58.281
1402.085, 56.551
1403.270, 74.077
1404.455, 67.630
1405.639, 63.080
1406.824, 32.208
1408.008, 43.685
1409.192, 28.965
1410.375, 18.145
1411.559, 14.885
1412.742, 2.668
1413.925, 34.413
1415.108, 25.038
1416.291, 41.734
1417.474, 27.793
1418.656, 24.833
1419.839, 26.854
1421.021, 50.856
1422.202, 7.839
1423.384, 44.803
1424.566, 44.746
1425.747, 10.669
1426.928, 42.570
1428.109, 30.449
1429.290, 57.306
1430.470, 45.143
1431.651, 20.953
1432.831, 5.621
1434.011, 48.391
1435.191, 18.138
1436.370, 32.863
1437.550, 53.558
1438.729, 1.229
1439.908, 28.877
1441.087, 14.501
1442.266, 38.100
1443.444, 36.674
1444.623, 37.224
1445.801, 27.746
1446.979, 42.243
1448.157, 12.715
1449.334, 43.162
1450.512, 38.556
1451.689, 28.885
1452.866, 36.146
1454.043, 36.374
1455.220, 15.559
1456.396, 43.712
1457.573, 41.851
1458.749, 30.011
1459.925, 35.095
1461.100, 37.404
1462.276, 34.720
1463.451, 46.953
1464.627, 37.337
1465.802, 30.172
1466.977, 78.567
1468.151, 36.123
1469.326, 42.519
1470.500, 9.057
1471.674, 29.825
1472.848, 57.726
1474.022, 1.197
1475.195, 18.755
1476.369, 50.899
1477.542, 17.004
1478.715, 24.388
1479.888, 20.108
1481.061, 16.949
1482.233, 43.281
1483.405, 24.472
1484.577, 32.209
1485.749, 56.404
