##NAMES=Datolite
##RRUFFID=R050033
##IDEAL CHEMISTRY=CaB(SiO_4_)(OH)
##LOCALITY=Westfield, Massachusetts, USA
##OWNER=RRUFF
##SOURCE=University of Arizona Mineral Museum
##DESCRIPTION=Group of pale green single crystals
##STATUS=The identification of this mineral has been confirmed by X-ray diffraction and chemical analysis
##URL=rruff.info/R050033
##MEASURED CHEMISTRY=Ca_1.00_B_1.00_Si_1.00_O_4_(OH) ; trace amounts of Al and Na; B measured and corrected according to stoichiometry;  OH estimated by stoichiometry end charge balance
##PIN_ID=L00195
##ORIENTATION=Laser parallel to c* (0 0 1). Fiducial mark perpendicular to laser is parallel to a [1 0 0]
52.937, 0.000
54.335, 0.584
55.734, 33.640
57.132, 73.033
58.530, 52.445
59.927, 73.140
61.325, 87.808
62.722, 136.402
64.119, 141.977
65.515, 145.810
66.912, 179.269
68.308, 174.497
69.704, 176.192
71.100, 246.276
72.496, 238.845
73.891, 227.034
75.287, 178.987
76.682, 180.539
78.076, 146.198
79.471, 136.259
80.865, 99.404
82.260, 72.722
83.653, 43.200
85.047, 2.829
86.441, 6.394
87.834, 19.475
89.227, 58.422
90.620, 12.242
92.013, 11.059
93.405, 122.475
94.797, 135.003
96.189, 195.648
97.581, 241.413
98.973, 275.293
100.364, 364.282
101.755, 407.368
103.146, 509.542
104.537, 483.795
105.927, 573.149
107.318, 634.560
108.708, 751.026
110.098, 782.548
111.487, 756.124
112.877, 922.755
114.266, 1026.439
115.655, 1174.175
117.044, 1314.978
118.432, 1404.884
119.821, 1363.867
121.209, 1289.895
122.597, 1389.967
123.984, 1454.084
125.372, 1510.246
126.759, 1560.452
128.146, 1681.702
129.533, 1991.996
130.920, 2366.337
132.306, 2713.725
133.692, 2791.160
135.078, 2978.646
136.464, 2555.218
137.850, 2236.949
139.235, 2018.806
140.620, 1926.756
142.005, 1935.773
143.390, 1856.838
144.774, 1918.930
146.159, 1964.024
147.543, 1903.106
148.927, 1907.175
150.310, 1846.226
151.694, 1903.247
153.077, 1899.202
154.460, 1960.051
155.843, 1920.210
157.226, 2079.097
158.608, 2532.865
159.990, 3836.661
161.372, 6716.487
162.754, 11826.342
164.135, 18128.229
165.517, 21710.148
166.898, 20142.096
168.279, 13044.076
169.659, 6775.084
171.040, 3748.123
172.420, 2509.191
173.800, 1982.288
175.180, 1967.415
176.560, 2178.572
177.939, 2309.758
179.318, 1947.977
180.697, 1531.252
182.076, 1037.636
183.455, 768.826
184.833, 708.839
186.211, 692.156
187.589, 712.500
188.967, 843.872
190.344, 1222.271
191.722, 1494.698
193.099, 1638.152
194.475, 1470.633
195.852, 1037.141
197.229, 748.675
198.605, 585.236
199.981, 584.824
201.357, 548.440
202.732, 465.093
204.108, 500.776
205.483, 451.507
206.858, 523.260
208.233, 578.997
209.607, 757.990
210.981, 912.867
212.356, 1176.797
213.730, 1707.809
215.103, 2621.912
216.477, 4314.097
217.850, 5931.356
219.223, 6565.872
220.596, 5245.421
221.969, 2893.700
223.341, 1542.647
224.713, 964.057
226.085, 819.125
227.457, 697.826
228.829, 777.250
230.200, 809.295
231.571, 778.030
232.942, 742.610
234.313, 467.853
235.684, 397.608
237.054, 239.946
238.424, 216.986
239.794, 181.994
241.164, 146.797
242.533, 181.698
243.902, 80.395
245.272, 138.090
246.640, 98.542
248.009, 130.756
249.378, 143.615
250.746, 114.371
252.114, 86.723
253.482, 76.415
254.849, 65.834
256.217, 14.696
257.584, 47.153
258.951, 39.449
260.318, 35.142
261.684, 62.561
263.051, 11.496
264.417, 10.583
265.783, 79.693
267.148, 68.824
268.514, 195.977
269.879, 172.149
271.244, 346.343
272.609, 391.556
273.974, 400.789
275.338, 375.042
276.703, 242.313
278.067, 196.604
279.431, 66.915
280.794, 36.243
282.158, 73.590
283.521, 79.955
284.884, 59.337
286.247, 138.737
287.609, 278.154
288.972, 493.588
290.334, 932.038
291.696, 1259.505
293.058, 1282.988
294.419, 1137.488
295.781, 728.004
297.142, 439.536
298.503, 203.083
299.864, 92.646
301.224, 47.225
302.584, 36.817
303.945, 2.424
305.304, 11.958
306.664, 38.323
308.024, 39.680
309.383, 15.027
310.742, 33.363
312.101, 16.688
313.460, 11.000
314.818, 30.300
316.176, 62.412
317.534, 125.138
318.892, 72.878
320.250, 272.630
321.607, 358.393
322.964, 432.170
324.321, 443.962
325.678, 360.769
327.035, 362.590
328.391, 445.426
329.747, 670.276
331.103, 826.141
332.459, 1145.020
333.815, 1224.913
335.170, 1070.820
336.525, 843.741
337.880, 498.675
339.235, 353.623
340.589, 289.585
341.944, 256.560
343.298, 308.548
344.652, 322.543
346.005, 550.547
347.359, 587.206
348.712, 730.226
350.065, 713.370
351.418, 730.415
352.771, 968.486
354.123, 1195.208
355.475, 1645.246
356.828, 2376.085
358.179, 3334.190
359.531, 4538.307
360.882, 5427.434
362.234, 6276.571
363.585, 5769.722
364.936, 4918.880
366.286, 3788.671
367.637, 2765.701
368.987, 2230.957
370.337, 1648.787
371.687, 1456.133
373.036, 1309.562
374.386, 1350.156
375.735, 1617.803
377.084, 1779.692
378.432, 2165.660
379.781, 2154.596
381.129, 2113.835
382.478, 1932.293
383.825, 1982.362
385.173, 2359.036
386.521, 2961.752
387.868, 4148.984
389.215, 5797.213
390.562, 7860.444
391.909, 9604.674
393.255, 9248.911
394.602, 8053.148
395.948, 6041.392
397.294, 4157.639
398.639, 3018.897
399.985, 2079.164
401.330, 1570.441
402.675, 1089.731
404.020, 901.031
405.365, 655.344
406.709, 559.728
408.054, 442.075
409.398, 302.551
410.742, 284.915
412.085, 255.620
413.429, 160.204
414.772, 282.731
416.115, 206.781
417.458, 233.393
418.800, 317.651
420.143, 565.206
421.485, 865.733
422.827, 1352.558
424.169, 1778.107
425.511, 1620.662
426.852, 1431.226
428.193, 944.794
429.534, 714.368
430.875, 616.948
432.216, 636.533
433.556, 889.124
434.896, 1014.724
436.236, 1671.328
437.576, 2340.938
438.916, 2905.552
440.255, 3196.185
441.594, 2535.822
442.933, 2081.463
444.272, 1411.108
445.611, 901.757
446.949, 641.409
448.287, 473.065
449.625, 406.725
450.963, 336.387
452.300, 326.053
453.638, 367.721
454.975, 546.393
456.312, 712.249
457.649, 824.926
458.985, 812.605
460.321, 722.443
461.658, 447.145
462.994, 347.851
464.329, 233.552
465.665, 193.458
467.000, 186.055
468.335, 89.124
469.670, 157.168
471.005, 69.768
472.340, 118.034
473.674, 70.694
475.008, 54.416
476.342, 132.797
477.676, 84.661
479.009, 238.526
480.342, 205.402
481.676, 266.300
483.009, 381.198
484.341, 520.106
485.674, 825.016
487.006, 1128.943
488.338, 1981.891
489.670, 2605.839
491.002, 3137.801
492.333, 3122.775
493.665, 2360.755
494.996, 1659.734
496.327, 1101.712
497.657, 680.690
498.988, 529.673
500.318, 294.655
501.648, 281.639
502.978, 136.622
504.308, 147.603
505.637, 100.583
506.967, 6.439
508.296, 91.530
509.625, 14.503
510.953, 71.451
512.282, 37.403
513.610, 4.647
514.938, 42.707
516.266, 54.795
517.594, 54.080
518.921, 113.887
520.249, 128.330
521.576, 146.758
522.903, 130.551
524.229, 103.411
525.556, 0.732
526.882, 36.885
528.208, 34.932
529.534, 96.255
530.860, 19.497
532.185, 88.757
533.511, 43.067
534.836, 43.413
536.161, 46.793
537.485, 31.656
538.810, 46.655
540.134, 35.137
541.458, 6.652
542.782, 16.182
544.106, 9.735
545.429, 6.695
546.753, 133.114
548.076, 98.528
549.399, 160.938
550.721, 383.343
552.044, 335.743
553.366, 555.138
554.688, 510.527
556.010, 417.913
557.332, 453.292
558.653, 208.667
559.975, 206.036
561.296, 169.400
562.617, 96.758
563.937, 82.111
565.258, 51.458
566.578, 63.798
567.898, 36.554
569.218, 71.459
570.538, 16.780
571.858, 24.091
573.177, 43.394
574.496, 38.311
575.815, 37.945
577.134, 82.194
578.452, 61.438
579.771, 97.672
581.089, 99.901
582.407, 142.299
583.724, 304.516
585.042, 348.184
586.359, 523.386
587.676, 589.580
588.993, 912.927
590.310, 1251.126
591.627, 1497.562
592.943, 1617.328
594.259, 1685.641
595.575, 1665.933
596.891, 1486.071
598.206, 1330.521
599.522, 1368.643
600.837, 1190.755
602.152, 1252.859
603.467, 1207.955
604.781, 835.042
606.096, 643.120
607.410, 463.188
608.724, 382.249
610.038, 275.299
611.351, 165.341
612.665, 199.374
613.978, 40.397
615.291, 145.411
616.604, 86.414
617.916, 47.408
619.229, 84.281
620.541, 84.670
621.853, 119.805
623.165, 41.748
624.476, 177.456
625.788, 106.805
627.099, 94.900
628.410, 128.643
629.721, 115.896
631.032, 98.104
632.342, 161.887
633.652, 135.295
634.962, 210.235
636.272, 170.174
637.582, 264.383
638.891, 225.868
640.201, 222.688
641.510, 344.665
642.818, 322.459
644.127, 340.518
645.436, 471.536
646.744, 514.528
648.052, 725.398
649.360, 764.980
650.668, 1064.766
651.975, 1291.465
653.282, 1365.177
654.590, 1715.849
655.896, 1555.740
657.203, 1729.484
658.510, 1756.627
659.816, 1604.241
661.122, 1771.840
662.428, 2062.426
663.734, 2467.995
665.039, 3105.904
666.345, 3813.445
667.650, 4805.862
668.955, 5163.375
670.260, 5298.862
671.564, 5009.694
672.869, 4231.208
674.173, 3915.920
675.477, 3377.362
676.781, 3303.791
678.084, 3265.206
679.388, 3223.608
680.691, 3554.995
681.994, 3726.368
683.297, 4483.108
684.599, 5541.605
685.902, 6854.873
687.204, 9871.564
688.506, 14044.731
689.808, 21721.814
691.109, 31421.729
692.411, 40461.582
693.712, 43441.195
695.013, 36711.723
696.314, 26761.270
697.615, 18031.516
698.915, 11653.518
700.216, 8284.893
701.516, 5776.641
702.816, 4418.333
704.115, 3388.497
705.415, 2646.647
706.714, 2181.789
708.013, 1745.918
709.312, 1441.037
710.611, 1318.145
711.910, 1005.241
713.208, 945.327
714.506, 808.402
715.804, 683.466
717.102, 637.519
718.399, 572.561
719.697, 447.592
720.994, 399.613
722.291, 314.563
723.588, 290.552
724.884, 184.415
726.181, 344.392
727.477, 254.044
728.773, 157.828
730.069, 250.681
731.365, 123.034
732.660, 172.849
733.955, 195.784
735.250, 96.685
736.545, 197.612
737.840, 8.529
739.134, 125.423
740.429, 27.309
741.723, 111.180
743.017, 133.041
744.310, 42.891
745.604, 75.731
746.897, 33.561
748.190, 16.378
749.483, 97.179
750.776, 43.970
752.069, 92.750
753.361, 28.480
754.653, 84.251
755.945, 76.974
757.237, 95.686
758.529, 209.390
759.820, 228.084
761.111, 355.770
762.402, 566.445
763.693, 591.113
764.984, 608.879
766.274, 688.420
767.564, 469.061
768.854, 434.692
770.144, 271.134
771.434, 205.748
772.724, 161.354
774.013, 9.204
775.302, 19.358
776.591, 29.907
777.880, 11.544
779.168, 8.221
780.456, 50.725
781.745, 0.726
783.033, 41.849
784.320, 50.460
785.608, 66.118
786.895, 59.873
788.183, 11.365
789.470, 63.411
790.756, 38.762
792.043, 21.073
793.329, 57.938
794.616, 82.150
795.902, 19.233
797.188, 56.284
798.473, 53.670
799.759, 53.668
801.044, 14.290
802.329, 36.762
803.614, 32.848
804.899, 4.967
806.183, 73.901
807.467, 37.764
808.752, 46.619
810.036, 9.531
811.319, 16.301
812.603, 1.125
813.886, 162.938
815.169, 62.748
816.452, 190.559
817.735, 242.364
819.018, 274.167
820.300, 508.968
821.583, 482.766
822.865, 666.564
824.146, 1000.358
825.428, 1170.147
826.710, 1644.947
827.991, 1895.755
829.272, 1906.577
830.553, 1892.398
831.834, 1439.215
833.114, 1059.033
834.394, 758.847
835.675, 542.658
836.955, 382.469
838.234, 292.280
839.514, 129.100
840.793, 112.918
842.073, 65.763
843.352, 146.605
844.630, 106.473
845.909, 32.352
847.187, 97.245
848.466, 80.152
849.744, 94.069
851.022, 201.002
852.299, 50.946
853.577, 197.895
854.854, 164.852
856.131, 121.813
857.408, 252.778
858.685, 377.741
859.961, 477.704
861.238, 610.667
862.514, 837.628
863.790, 1065.590
865.066, 917.552
866.341, 1082.514
867.617, 933.476
868.892, 800.439
870.167, 679.402
871.442, 643.367
872.717, 869.332
873.991, 876.297
875.265, 927.265
876.540, 1283.232
877.813, 1343.202
879.087, 1727.174
880.361, 1799.494
881.634, 1853.471
882.907, 2063.449
884.180, 2062.458
885.453, 1665.457
886.726, 1355.458
887.998, 1239.008
889.270, 1103.013
890.542, 798.018
891.814, 760.853
893.086, 675.862
894.357, 533.416
895.628, 607.431
896.900, 485.447
898.170, 418.307
899.441, 537.307
900.712, 558.067
901.982, 552.333
903.252, 637.364
904.522, 688.252
905.792, 833.288
907.062, 894.008
908.331, 1176.052
909.600, 1305.099
910.869, 1696.149
912.138, 2327.203
913.407, 3022.262
914.675, 4052.324
915.944, 5484.391
917.212, 6496.461
918.480, 7478.535
919.747, 6820.613
921.015, 5862.697
922.282, 5014.785
923.549, 3783.878
924.816, 3168.977
926.083, 2337.079
927.350, 1922.297
928.616, 1626.994
929.882, 1341.941
931.148, 1243.075
932.414, 1141.440
933.680, 846.159
934.945, 981.130
936.211, 884.455
937.476, 824.264
938.741, 783.118
940.005, 582.392
941.270, 689.038
942.534, 471.152
943.799, 557.261
945.063, 558.098
946.326, 405.653
947.590, 499.871
948.853, 478.927
950.117, 502.164
951.380, 538.131
952.643, 458.137
953.905, 589.164
955.168, 576.309
956.430, 491.740
957.692, 573.798
958.954, 460.105
960.216, 401.396
961.478, 443.727
962.739, 479.833
964.000, 436.083
965.261, 414.933
966.522, 445.559
967.783, 513.491
969.043, 410.888
970.303, 562.670
971.563, 728.333
972.823, 597.765
974.083, 980.208
975.343, 1004.666
976.602, 1245.136
977.861, 1790.063
979.120, 2162.557
980.379, 2959.065
981.638, 3895.412
982.896, 5257.939
984.154, 6971.339
985.412, 7883.905
986.670, 7956.482
987.928, 6889.798
989.185, 5122.433
990.443, 4185.081
991.700, 2943.750
992.957, 2351.442
994.214, 1938.147
995.470, 1447.874
996.727, 1444.621
997.983, 1134.384
999.239, 1099.197
1000.495, 1205.022
1001.750, 1046.859
1003.006, 1236.711
1004.261, 1314.575
1005.516, 1102.475
1006.771, 1137.386
1008.026, 936.310
1009.280, 772.273
1010.535, 729.250
1011.789, 532.244
1013.043, 531.275
1014.297, 387.316
1015.550, 305.407
1016.804, 291.528
1018.057, 201.642
1019.310, 252.808
1020.563, 130.969
1021.816, 132.140
1023.068, 142.327
1024.321, 76.525
1025.573, 47.733
1026.825, 34.955
1028.077, 68.186
1029.328, 148.427
1030.580, 79.319
1031.831, 10.924
1033.082, 48.178
1034.333, 71.557
1035.584, 115.699
1036.834, 58.969
1038.085, 83.751
1039.335, 123.517
1040.585, 55.797
1041.834, 156.088
1043.084, 119.396
1044.334, 74.714
1045.583, 98.045
1046.832, 102.388
1048.081, 91.740
1049.329, 141.183
1050.578, 195.480
1051.826, 214.868
1053.074, 271.273
1054.322, 281.688
1055.570, 379.111
1056.818, 331.546
1058.065, 452.004
1059.312, 427.472
1060.559, 454.950
1061.806, 603.437
1063.053, 655.935
1064.299, 746.441
1065.546, 1005.956
1066.792, 1182.480
1068.038, 1481.014
1069.284, 1949.557
1070.529, 2346.108
1071.775, 3522.668
1073.020, 4596.238
1074.265, 6769.816
1075.510, 10253.401
1076.754, 13176.995
1077.999, 15870.606
1079.243, 15394.228
1080.487, 13337.861
1081.731, 12031.508
1082.975, 9955.173
1084.219, 7668.883
1085.462, 5592.607
1086.705, 3746.363
1087.948, 2849.146
1089.191, 1839.960
1090.434, 1560.826
1091.676, 1242.688
1092.919, 932.581
1094.161, 774.489
1095.403, 543.416
1096.645, 484.560
1097.886, 476.584
1099.128, 366.562
1100.369, 247.738
1101.610, 388.775
1102.851, 133.810
1104.091, 203.962
1105.332, 169.025
1106.572, 34.891
1107.812, 166.503
1109.052, 94.596
1110.292, 16.194
1111.532, 162.345
1112.771, 54.566
1114.010, 118.002
1115.249, 13.863
1116.488, 52.727
1117.727, 38.409
1118.966, 18.451
1120.204, 13.200
1121.442, 33.077
1122.680, 7.257
1123.918, 126.640
1125.155, 62.797
1126.393, 70.907
1127.630, 92.433
1128.867, 2.583
1130.104, 32.035
1131.341, 172.203
1132.577, 32.635
1133.814, 95.396
1135.050, 66.559
1136.286, 27.628
1137.522, 242.466
1138.757, 57.629
1139.993, 111.121
1141.228, 306.244
1142.463, 119.634
1143.698, 282.276
1144.933, 263.576
1146.167, 217.017
1147.402, 393.250
1148.636, 203.796
1149.870, 427.164
1151.104, 507.353
1152.338, 471.893
1153.571, 794.040
1154.804, 567.350
1156.037, 773.101
1157.270, 1021.818
1158.503, 976.891
1159.736, 1249.754
1160.968, 1374.767
1162.200, 1586.957
1163.432, 1879.612
1164.664, 2034.000
1165.896, 2379.278
1167.127, 2879.167
1168.359, 3043.532
1169.590, 3777.731
1170.821, 4113.221
1172.052, 4337.352
1173.282, 5081.478
1174.513, 4746.230
1175.743, 4690.345
1176.973, 4574.452
1178.203, 3699.187
1179.433, 3340.936
1180.662, 2835.409
1181.892, 2315.497
1183.121, 2115.543
1184.350, 1614.393
1185.579, 1397.615
1186.807, 1320.435
1188.036, 992.206
1189.264, 1010.299
1190.492, 926.683
1191.720, 691.927
1192.948, 662.298
1194.176, 644.702
1195.403, 539.729
1196.630, 598.150
1197.857, 416.731
1199.084, 556.704
1200.311, 511.674
1201.537, 445.627
1202.764, 530.571
1203.990, 474.894
1205.216, 452.855
1206.442, 522.769
1207.667, 350.898
1208.893, 369.852
1210.118, 380.071
1211.343, 176.075
1212.568, 346.934
1213.793, 148.867
1215.017, 250.903
1216.242, 296.728
1217.466, 156.776
1218.690, 269.659
1219.914, 220.447
1221.137, 259.426
1222.361, 193.190
1223.584, 150.941
1224.807, 206.680
1226.030, 231.565
1227.253, 156.279
1228.476, 218.042
1229.698, 133.041
1230.920, 206.998
1232.142, 268.749
1233.364, 150.911
1234.586, 159.864
1235.808, 161.482
1237.029, 112.940
1238.250, 154.058
1239.471, 271.633
1240.692, 159.977
1241.913, 487.055
1243.133, 79.610
1244.353, 111.216
1245.574, 227.756
1246.794, 83.290
1248.013, 123.932
1249.233, 214.446
1250.452, 107.100
1251.672, 170.597
1252.891, 154.085
1254.110, 62.847
1255.328, 251.375
1256.547, 35.830
1257.765, 129.857
1258.983, 117.290
1260.201, 68.833
1261.419, 220.223
1262.637, 152.312
1263.854, 159.995
1265.072, 268.413
1266.289, 122.288
1267.506, 117.475
1268.723, 142.644
1269.939, 14.767
1271.156, 192.126
1272.372, 121.173
1273.588, 106.833
1274.804, 189.103
1276.020, 99.982
1277.235, 139.188
1278.451, 220.021
1279.666, 28.771
1280.881, 169.764
1282.096, 40.525
1283.310, 93.160
1284.525, 256.035
1285.739, 3.297
1286.953, 13.038
1288.167, 111.565
1289.381, 4.854
1290.595, 2.360
1291.808, 20.878
1293.022, 107.634
1294.235, 85.008
1295.448, 128.417
1296.660, 30.807
1297.873, 88.170
1299.085, 57.486
1300.298, 143.913
1301.510, 60.717
1302.722, 66.028
1303.933, 38.273
1305.145, 13.457
1306.356, 54.388
1307.567, 173.721
1308.778, 112.227
1309.989, 28.250
1311.200, 151.673
1312.410, 13.570
1313.621, 129.416
1314.831, 168.299
1316.041, 24.099
1317.250, 182.869
1318.460, 232.614
1319.670, 61.334
1320.879, 193.063
1322.088, 203.724
1323.297, 62.357
1324.506, 208.942
1325.714, 93.511
1326.922, 185.051
1328.131, 232.562
1329.339, 52.049
1330.547, 148.504
1331.754, 111.899
1332.962, 57.269
1334.169, 174.608
1335.376, 103.917
1336.583, 135.192
1337.790, 103.394
1338.997, 93.565
1340.203, 181.706
1341.410, 89.819
1342.616, 69.901
1343.822, 240.945
1345.028, 40.958
1346.233, 221.937
1347.439, 283.886
1348.644, 95.807
1349.849, 179.696
1351.054, 289.558
1352.259, 134.389
1353.463, 174.188
1354.668, 107.958
1355.872, 156.698
1357.076, 289.484
1358.280, 168.166
1359.483, 140.817
1360.687, 412.442
1361.890, 132.042
1363.094, 168.615
1364.297, 230.164
1365.499, 139.690
1366.702, 270.192
1367.905, 204.672
1369.107, 289.132
1370.309, 149.571
1371.511, 196.275
1372.713, 172.677
1373.914, 113.062
1375.116, 27.566
1376.317, 165.775
1377.518, 22.110
1378.719, 110.399
1379.920, 187.678
1381.121, 13.431
1382.321, 79.675
1383.521, 225.450
1384.721, 4.838
1385.921, 304.999
1387.121, 229.264
1388.321, 176.341
1389.520, 303.503
1390.719, 213.752
1391.918, 164.656
1393.117, 367.274
1394.316, 158.993
1395.514, 243.130
1396.713, 306.238
1397.911, 169.059
1399.109, 181.703
1400.307, 253.572
1401.505, 84.364
1402.702, 375.987
1403.899, 163.417
1405.097, 199.530
1406.294, 344.949
1407.490, 10.335
1408.687, 150.708
1409.884, 243.123
1411.080, 114.950
1412.276, 218.794
1413.472, 168.088
1414.668, 105.367
1415.863, 189.895
1417.059, 12.062
1418.254, 60.364
1419.449, 194.254
1420.644, 31.788
1421.839, 292.824
1423.033, 74.309
1424.228, 14.876
1425.422, 263.392
1426.616, 62.207
1427.810, 34.529
1429.004, 178.446
1430.197, 23.152
1431.391, 164.739
1432.584, 247.020
1433.777, 40.521
1434.970, 208.944
1436.163, 202.371
1437.355, 78.342
1438.548, 221.588
1439.740, 171.112
1440.932, 169.312
1442.124, 258.910
1443.315, 102.211
1444.507, 27.557
1445.698, 398.132
1446.889, 102.457
1448.080, 142.112
1449.271, 270.439
1450.462, 129.322
1451.652, 236.506
1452.843, 205.314
1454.033, 172.934
1455.223, 313.053
1456.413, 268.438
1457.602, 91.184
1458.792, 264.926
1459.981, 158.292
1461.170, 247.457
1462.359, 289.542
1463.548, 89.620
1464.737, 392.344
1465.925, 289.008
1467.113, 115.456
1468.302, 373.143
1469.490, 162.717
1470.677, 240.288
1471.865, 314.786
1473.052, 202.567
1474.240, 147.581
1475.427, 289.244
1476.614, 117.749
1477.800, 325.523
1478.987, 265.815
1480.173, 175.505
1481.360, 367.218
1482.546, 68.135
1483.732, 168.620
1484.917, 250.625
