##NAMES=Datolite
##RRUFFID=R050136
##IDEAL CHEMISTRY=CaB(SiO_4_)(OH)
##LOCALITY=Charcas, San Luis Potosi, Mexico
##OWNER=RRUFF
##SOURCE=Dave Bunk Minerals
##DESCRIPTION=Pale green tabular crystals
##STATUS=The identification of this mineral has been confirmed by X-ray diffraction and chemical analysis
##URL=rruff.info/R050136
##MEASURED CHEMISTRY=Ca_1.00_BSi_1.00_O_4_(OH) ; trace amounts of Fe; B and OH estimated by stoichiometry end charge balance
##PIN_ID=L00362
##ORIENTATION=Laser parallel to a* (1 0 0). Fiducial mark perpendicular to laser is parallel to b [0 1 0]
90.650, 0.000
92.046, 0.943
93.442, 2.665
94.838, 29.926
96.233, 12.798
97.628, 32.754
99.023, 48.226
100.418, 21.288
101.812, 4.618
103.206, 2.965
104.600, 35.366
105.994, 56.456
107.387, 74.173
108.781, 17.408
110.174, 56.069
111.566, 87.130
112.959, 75.699
114.351, 111.732
115.744, 100.113
117.136, 61.760
118.527, 50.617
119.919, 56.664
121.310, 58.863
122.701, 106.174
124.092, 94.570
125.482, 111.029
126.873, 248.532
128.263, 383.069
129.653, 583.670
131.042, 978.459
132.432, 1548.937
133.821, 1850.423
135.210, 1363.273
136.599, 839.935
137.987, 472.403
139.376, 326.700
140.764, 245.855
142.152, 239.865
143.539, 262.744
144.927, 262.538
146.314, 336.454
147.701, 388.390
149.088, 488.271
150.474, 607.033
151.861, 800.685
153.247, 1034.233
154.633, 1338.684
156.018, 2195.049
157.404, 3461.342
158.789, 6391.558
160.174, 11136.699
161.559, 20596.773
162.943, 35396.770
164.327, 51796.730
165.711, 58006.781
167.095, 35947.160
168.479, 18257.924
169.862, 9609.497
171.246, 5595.941
172.628, 3727.045
174.011, 2924.523
175.394, 2990.506
176.776, 3087.742
178.158, 2744.325
179.540, 1827.064
180.922, 1082.427
182.303, 780.807
183.684, 514.206
185.065, 472.623
186.446, 385.058
187.826, 349.865
189.207, 408.765
190.587, 388.242
191.967, 465.733
193.346, 416.235
194.726, 334.750
196.105, 264.468
197.484, 211.716
198.862, 237.353
200.241, 262.972
201.619, 282.542
202.997, 236.464
204.375, 353.641
205.753, 365.256
207.130, 473.603
208.507, 672.955
209.884, 963.311
211.261, 1643.671
212.638, 2668.034
214.014, 4891.400
215.390, 8288.766
216.766, 13804.130
218.141, 17572.486
219.517, 14240.837
220.892, 8389.530
222.267, 4374.285
223.642, 2420.781
225.016, 1461.144
226.391, 894.515
227.765, 602.904
229.139, 444.298
230.512, 344.703
231.886, 214.120
233.259, 217.571
234.632, 172.058
236.005, 116.583
237.377, 88.122
238.749, 53.675
240.122, 43.220
241.493, 29.753
242.865, 27.271
244.237, 22.776
245.608, 8.267
246.979, 38.745
248.350, 0.791
249.720, 1.657
251.090, 14.911
252.461, 8.497
253.830, 51.112
255.200, 51.774
256.570, 46.114
257.939, 69.659
259.308, 52.956
260.677, 71.189
262.045, 41.382
263.414, 15.541
264.782, 27.666
266.150, 3.231
267.517, 36.153
268.885, 130.130
270.252, 276.091
271.619, 391.067
272.986, 583.071
274.353, 1146.066
275.719, 946.208
277.085, 699.214
278.451, 316.221
279.817, 204.229
281.182, 109.254
282.548, 99.438
283.913, 28.556
285.278, 34.890
286.642, 56.875
288.007, 165.851
289.371, 352.821
290.735, 544.783
292.099, 775.737
293.462, 724.682
294.826, 516.619
296.189, 312.546
297.552, 196.461
298.914, 157.359
300.277, 55.239
301.639, 60.100
303.001, 21.944
304.363, 18.770
305.724, 26.578
307.086, 41.629
308.447, 35.132
309.808, 24.123
311.168, 9.596
312.529, 9.296
313.889, 30.978
315.249, 9.643
316.609, 1.292
317.969, 12.921
319.328, 40.534
320.687, 101.133
322.046, 107.719
323.405, 104.293
324.764, 251.856
326.122, 332.406
327.480, 618.946
328.838, 974.474
330.196, 1500.991
331.553, 2359.494
332.910, 2825.982
334.267, 3035.451
335.624, 2087.888
336.981, 1323.269
338.337, 835.576
339.693, 469.798
341.049, 367.943
342.405, 231.047
343.760, 184.140
345.116, 129.228
346.471, 107.312
347.826, 88.390
349.180, 53.581
350.535, 81.649
351.889, 48.009
353.243, 73.200
354.597, 110.632
355.950, 124.755
357.304, 130.304
358.657, 144.274
360.010, 212.629
361.362, 228.332
362.715, 226.395
364.067, 259.842
365.419, 224.064
366.771, 235.323
368.123, 226.245
369.474, 255.606
370.825, 277.029
372.176, 316.255
373.527, 398.726
374.877, 424.208
376.228, 584.531
377.578, 632.586
378.928, 767.760
380.277, 975.935
381.627, 1187.446
382.976, 1739.778
384.325, 2304.293
385.674, 3424.335
387.023, 5156.229
388.371, 7389.065
389.719, 10763.859
391.067, 12721.646
392.415, 13979.428
393.762, 11487.200
395.110, 8240.966
396.457, 5871.723
397.804, 3854.471
399.150, 2846.212
400.497, 1969.945
401.843, 1559.658
403.189, 1235.317
404.535, 991.909
405.881, 892.480
407.226, 666.031
408.571, 580.396
409.916, 498.013
411.261, 414.265
412.605, 389.329
413.950, 310.415
415.294, 346.910
416.638, 260.572
417.981, 263.263
419.325, 293.217
420.668, 273.687
422.011, 327.192
423.354, 297.537
424.697, 345.737
426.039, 285.542
427.381, 196.567
428.723, 201.506
430.065, 89.923
431.406, 108.456
432.748, 102.979
434.089, 98.492
435.430, 103.994
436.770, 69.486
438.111, 122.966
439.451, 118.436
440.791, 102.896
442.131, 98.345
443.471, 59.783
444.810, 74.210
446.149, 29.416
447.488, 107.645
448.827, 113.952
450.166, 140.332
451.504, 232.702
452.842, 290.062
454.180, 442.410
455.518, 683.802
456.855, 983.130
458.193, 1123.693
459.530, 856.028
460.867, 671.459
462.203, 428.660
463.540, 308.876
464.876, 298.008
466.212, 181.906
467.548, 251.104
468.883, 168.603
470.219, 199.660
471.554, 210.227
472.889, 205.809
474.224, 252.420
475.558, 238.400
476.892, 348.940
478.227, 404.031
479.561, 446.676
480.894, 617.723
482.228, 746.002
483.561, 1067.289
484.894, 1506.567
486.227, 2226.857
487.559, 3304.138
488.892, 4570.408
490.224, 6017.684
491.556, 5708.949
492.888, 4784.224
494.220, 3261.489
495.551, 2126.745
496.882, 1451.997
498.213, 888.239
499.544, 685.473
500.874, 491.698
502.205, 332.913
503.535, 303.121
504.865, 207.320
506.194, 217.510
507.524, 132.691
508.853, 68.800
510.182, 101.752
511.511, 27.812
512.840, 63.716
514.168, 17.718
515.496, 37.161
516.824, 7.924
518.152, 3.004
519.480, 24.050
520.807, 14.908
522.134, 4.890
523.461, 10.110
524.788, 30.096
526.114, 24.071
527.441, 35.965
528.767, 10.964
530.093, 6.879
531.418, 41.218
532.744, 13.353
534.069, 45.511
535.394, 11.290
536.719, 54.921
538.044, 9.177
539.368, 23.546
540.693, 46.727
542.017, 7.959
543.340, 0.634
544.664, 41.293
545.987, 74.941
547.311, 86.585
548.634, 244.219
549.956, 280.845
551.279, 483.462
552.601, 668.070
553.923, 629.669
555.245, 664.260
556.567, 406.842
557.889, 330.415
559.210, 246.980
560.531, 193.536
561.852, 284.083
563.173, 181.622
564.493, 142.152
565.813, 89.675
567.133, 98.189
568.453, 84.697
569.773, 12.195
571.092, 76.686
572.412, 59.171
573.731, 54.653
575.049, 102.132
576.368, 70.619
577.686, 114.114
579.005, 139.616
580.323, 146.132
581.640, 225.657
582.958, 275.195
584.275, 466.740
585.593, 550.284
586.909, 766.831
588.226, 1131.372
589.543, 1373.852
590.859, 1942.483
592.175, 2053.998
593.491, 2065.488
594.807, 1903.986
596.122, 1403.337
597.438, 1211.025
598.753, 860.498
600.068, 692.021
601.382, 542.525
602.697, 362.839
604.011, 436.355
605.325, 280.443
606.639, 202.019
607.952, 216.435
609.266, 105.843
610.579, 163.432
611.892, 88.823
613.205, 72.403
614.518, 88.784
615.830, 26.306
617.142, 142.175
618.454, 64.684
619.766, 104.400
621.078, 98.890
622.389, 51.439
623.700, 156.991
625.011, 45.489
626.322, 102.549
627.632, 137.340
628.943, 103.789
630.253, 129.217
631.563, 86.707
632.872, 129.132
634.182, 145.477
635.491, 163.822
636.800, 225.249
638.109, 169.137
639.418, 274.056
640.726, 204.715
642.035, 250.946
643.343, 352.307
644.651, 276.571
645.958, 463.847
647.266, 534.255
648.573, 575.479
649.880, 774.161
651.187, 809.365
652.494, 1091.525
653.800, 1250.010
655.106, 1281.135
656.412, 1520.362
657.718, 1499.466
659.024, 1802.558
660.329, 1990.641
661.634, 2417.713
662.939, 3232.773
664.244, 3917.824
665.549, 5392.865
666.853, 6482.776
668.157, 7223.799
669.461, 7556.508
670.765, 6553.372
672.069, 5948.977
673.372, 5138.875
674.675, 4179.333
675.978, 3943.354
677.281, 3455.972
678.583, 3599.224
679.886, 3534.095
681.188, 3788.539
682.490, 4554.171
683.792, 5099.743
685.093, 6887.623
686.394, 9034.041
687.696, 12959.389
688.997, 19721.906
690.297, 27116.176
691.598, 37378.418
692.898, 38213.805
694.198, 32605.438
695.498, 24609.947
696.798, 15478.912
698.097, 10851.046
699.397, 7539.561
700.696, 5066.662
701.995, 4063.218
703.293, 2908.795
704.592, 2417.528
705.890, 1866.287
707.188, 1473.038
708.486, 1396.781
709.784, 1047.517
711.081, 1004.245
712.378, 783.965
713.675, 626.678
714.972, 678.383
716.269, 477.081
717.565, 531.771
718.862, 423.454
720.158, 386.129
721.453, 375.797
722.749, 280.450
724.045, 326.103
725.340, 238.722
726.635, 265.976
727.930, 282.552
729.224, 222.051
730.519, 269.524
731.813, 195.139
733.107, 177.667
734.401, 307.268
735.694, 123.861
736.988, 238.448
738.281, 220.027
739.574, 89.600
740.867, 192.165
742.160, 101.724
743.452, 144.274
744.744, 162.818
746.036, 50.355
747.328, 113.884
748.620, 105.405
749.911, 90.919
751.202, 118.427
752.493, 23.928
753.784, 130.420
755.075, 57.905
756.365, 55.383
757.655, 59.853
758.945, 23.317
760.235, 118.773
761.525, 33.224
762.814, 88.667
764.103, 104.104
765.392, 22.533
766.681, 73.955
767.969, 19.370
769.258, 64.724
770.546, 28.125
771.834, 88.727
773.122, 25.604
774.409, 23.180
775.697, 19.884
776.984, 14.386
778.271, 21.528
779.558, 15.707
780.844, 30.272
782.131, 26.075
783.417, 22.094
784.703, 36.744
785.989, 13.384
787.274, 23.444
788.560, 36.442
789.845, 37.638
791.130, 70.287
792.415, 14.262
793.699, 0.741
794.983, 59.267
796.268, 62.680
797.552, 71.377
798.835, 36.516
800.119, 30.403
801.402, 41.715
802.686, 36.133
803.969, 63.024
805.251, 33.776
806.534, 40.571
807.816, 13.640
809.098, 94.133
810.380, 13.902
811.662, 45.666
812.944, 134.425
814.225, 52.210
815.506, 202.990
816.787, 179.768
818.068, 253.547
819.349, 374.323
820.629, 385.096
821.909, 717.866
823.189, 797.633
824.469, 1135.398
825.749, 1558.161
827.028, 1682.922
828.307, 1996.694
829.586, 1730.466
830.865, 1343.241
832.144, 1182.015
833.422, 679.794
834.700, 621.578
835.978, 392.362
837.256, 237.144
838.534, 262.926
839.811, 133.719
841.088, 193.514
842.365, 120.310
843.642, 47.119
844.919, 121.934
846.195, 20.762
847.472, 26.592
848.748, 73.438
850.023, 58.711
851.299, 106.109
852.575, 3.055
853.850, 57.779
855.125, 33.616
856.400, 17.548
857.674, 162.280
858.949, 140.107
860.223, 113.934
861.497, 175.762
862.771, 88.589
864.045, 297.417
865.318, 208.244
866.591, 156.071
867.864, 338.897
869.137, 179.725
870.410, 309.552
871.682, 314.380
872.955, 375.208
874.227, 540.036
875.499, 614.890
876.770, 800.720
878.042, 1097.550
879.313, 1158.094
880.584, 1321.928
881.855, 1272.931
883.126, 1272.767
884.396, 1304.604
885.667, 1095.443
886.937, 1124.283
888.207, 952.125
889.476, 835.967
890.746, 892.811
892.015, 721.875
893.284, 818.721
894.553, 808.569
895.822, 735.418
897.090, 909.270
898.359, 844.122
899.627, 972.871
900.895, 1107.727
902.163, 995.585
903.430, 1483.445
904.698, 1485.308
905.965, 1718.966
907.232, 2204.833
908.499, 2467.642
909.765, 3349.446
911.032, 4075.272
912.298, 5482.951
913.564, 7789.829
914.830, 9514.560
916.095, 12249.443
917.361, 12934.330
918.626, 12349.028
919.891, 11233.921
921.156, 8418.618
922.420, 6558.510
923.685, 5300.253
924.949, 3819.645
926.213, 3357.392
927.477, 2537.926
928.740, 2159.681
930.004, 1869.374
931.267, 1480.059
932.530, 1535.797
933.793, 1296.968
935.056, 1088.419
936.318, 1210.212
937.581, 886.035
938.843, 1010.794
940.104, 932.617
941.366, 685.518
942.628, 855.419
943.889, 666.239
945.150, 763.598
946.411, 783.923
947.672, 601.505
948.932, 898.512
950.193, 697.384
951.453, 782.350
952.713, 881.315
953.973, 671.145
955.232, 816.156
956.491, 760.738
957.751, 642.797
959.010, 801.896
960.268, 610.669
961.527, 692.798
962.785, 675.832
964.044, 545.986
965.302, 789.760
966.559, 640.938
967.817, 811.122
969.075, 912.673
970.332, 850.875
971.589, 1141.084
972.846, 1192.318
974.102, 1356.560
975.359, 1886.810
976.615, 2051.087
977.871, 2897.373
979.127, 3792.666
980.383, 4811.972
981.638, 7077.522
982.893, 8222.849
984.149, 9698.178
985.404, 9413.826
986.658, 7499.176
987.913, 6332.533
989.167, 4562.899
990.421, 3379.291
991.675, 2752.098
992.929, 1807.505
994.183, 1578.920
995.436, 1250.343
996.689, 910.794
997.942, 925.253
999.195, 603.719
1000.448, 639.210
1001.700, 594.229
1002.952, 348.739
1004.204, 422.048
1005.456, 298.580
1006.708, 193.131
1007.959, 255.805
1009.210, 95.373
1010.461, 196.959
1011.712, 118.754
1012.963, 82.356
1014.213, 164.972
1015.464, 96.595
1016.714, 93.239
1017.964, 162.890
1019.214, 14.549
1020.463, 157.229
1021.712, 50.918
1022.962, 11.613
1024.210, 186.317
1025.459, 1.971
1026.708, 81.747
1027.956, 95.474
1029.204, 35.792
1030.452, 179.945
1031.700, 13.311
1032.948, 26.439
1034.195, 96.198
1035.442, 7.965
1036.689, 99.739
1037.936, 53.520
1039.183, 48.309
1040.429, 134.106
1041.676, 16.090
1042.922, 111.719
1044.168, 159.537
1045.413, 55.361
1046.659, 267.193
1047.904, 172.040
1049.149, 137.893
1050.394, 303.755
1051.639, 180.623
1052.884, 336.499
1054.128, 327.384
1055.372, 261.276
1056.616, 546.177
1057.860, 337.085
1059.104, 465.002
1060.347, 633.926
1061.590, 617.860
1062.833, 942.802
1064.076, 1037.751
1065.319, 1276.708
1066.561, 1813.672
1067.803, 1997.645
1069.046, 2921.626
1070.287, 4188.612
1071.529, 5537.609
1072.771, 9109.612
1074.012, 12545.623
1075.253, 17121.674
1076.494, 19117.721
1077.735, 15403.794
1078.975, 12039.877
1080.216, 8075.974
1081.456, 5068.218
1082.696, 3870.336
1083.936, 2522.472
1085.175, 1898.172
1086.415, 1675.334
1087.654, 1070.556
1088.893, 1053.744
1090.132, 791.939
1091.371, 679.388
1092.609, 776.608
1093.847, 394.857
1095.085, 473.372
1096.323, 401.644
1097.561, 257.999
1098.799, 374.301
1100.036, 184.632
1101.273, 168.310
1102.510, 302.651
1103.747, 56.011
1104.983, 250.474
1106.220, 250.863
1107.456, 34.459
1108.692, 235.984
1109.928, 39.394
1111.163, 44.971
1112.399, 145.429
1113.634, 136.148
1114.869, 125.820
1116.104, 34.194
1117.339, 45.279
1118.573, 168.404
1119.808, 2.776
1121.042, 113.036
1122.276, 131.413
1123.509, 58.793
1124.743, 201.096
1125.976, 79.481
1127.210, 30.868
1128.443, 181.282
1129.675, 11.328
1130.908, 43.454
1132.141, 94.024
1133.373, 13.580
1134.605, 166.557
1135.837, 37.969
1137.068, 45.382
1138.300, 148.028
1139.531, 15.557
1140.762, 67.855
1141.993, 95.412
1143.224, 26.826
1144.455, 177.061
1145.685, 72.478
1146.915, 17.896
1148.145, 106.498
1149.375, 12.916
1150.605, 95.934
1151.834, 102.997
1153.063, 21.431
1154.292, 221.599
1155.521, 44.223
1156.750, 114.660
1157.978, 258.547
1159.207, 4.017
1160.435, 243.415
1161.663, 249.337
1162.891, 113.768
1164.118, 363.102
1165.345, 198.543
1166.573, 286.969
1167.800, 412.607
1169.026, 228.030
1170.253, 479.450
1171.480, 321.977
1172.706, 242.393
1173.932, 388.867
1175.158, 252.278
1176.383, 174.687
1177.609, 399.943
1178.834, 161.346
1180.059, 272.579
1181.284, 230.336
1182.509, 102.731
1183.734, 291.122
1184.958, 119.533
1186.182, 78.918
1187.406, 317.384
1188.630, 72.761
1189.854, 229.916
1191.077, 124.620
1192.301, 118.987
1193.524, 336.349
1194.747, 137.267
1195.969, 287.620
1197.192, 408.993
1198.414, 264.338
1199.636, 502.679
1200.858, 458.569
1202.080, 435.900
1203.302, 611.227
1204.523, 356.980
1205.744, 490.297
1206.966, 566.609
1208.186, 282.812
1209.407, 474.114
1210.628, 279.409
1211.848, 186.806
1213.068, 376.091
1214.288, 178.911
1215.508, 269.184
1216.727, 332.459
1217.947, 87.255
1219.166, 262.519
1220.385, 217.776
1221.604, 110.028
1222.822, 317.274
1224.041, 119.514
1225.259, 72.748
1226.477, 312.975
1227.695, 36.303
1228.913, 206.515
1230.130, 154.721
1231.348, 7.124
1232.565, 300.309
1233.782, 63.486
1234.999, 110.663
1236.215, 267.833
1237.432, 23.069
1238.648, 144.231
1239.864, 171.391
1241.080, 23.794
1242.296, 218.931
1243.511, 67.026
1244.726, 104.117
1245.942, 175.192
1247.156, 33.737
1248.371, 153.307
1249.586, 93.344
1250.800, 108.557
1252.014, 210.417
1253.228, 39.363
1254.442, 58.542
1255.656, 266.468
1256.869, 12.613
1258.083, 81.392
1259.296, 163.263
1260.509, 6.376
1261.722, 234.475
1262.934, 51.294
1264.147, 23.878
1265.359, 226.656
1266.571, 42.583
1267.783, 130.183
1268.994, 182.883
1270.206, 58.425
1271.417, 154.229
1272.628, 153.858
1273.839, 4.460
1275.050, 221.049
1276.260, 23.391
1277.471, 51.658
1278.681, 199.213
1279.891, 11.451
1281.101, 144.650
1282.310, 171.173
1283.520, 44.313
1284.729, 203.181
1285.938, 125.247
1287.147, 65.937
1288.356, 194.381
1289.564, 53.186
1290.773, 110.621
1291.981, 137.007
1293.189, 42.618
1294.397, 155.819
1295.604, 22.149
1296.812, 1.539
1298.019, 208.847
1299.226, 18.874
1300.433, 59.512
1301.640, 240.755
1302.846, 14.012
1304.053, 178.295
1305.259, 166.289
1306.465, 1.474
1307.671, 304.992
1308.876, 20.855
1310.082, 104.271
1311.287, 297.384
1312.492, 25.515
1313.697, 215.560
1314.902, 213.622
1316.106, 82.671
1317.310, 315.853
1318.515, 88.875
1319.719, 118.884
1320.922, 322.880
1322.126, 27.864
1323.329, 213.838
1324.533, 204.892
1325.736, 41.845
1326.939, 318.787
1328.141, 143.709
1329.344, 105.621
1330.546, 379.475
1331.748, 91.318
1332.950, 177.147
1334.152, 238.963
1335.354, 45.764
1336.555, 170.550
1337.757, 244.325
1338.958, 2.087
1340.159, 290.829
1341.359, 106.558
1342.560, 126.275
1343.760, 337.975
1344.960, 30.663
1346.160, 235.338
1347.360, 222.062
1348.560, 38.711
1349.759, 306.346
1350.959, 173.970
1352.158, 17.581
1353.357, 354.176
1354.555, 166.761
1355.754, 87.337
1356.952, 333.905
1358.151, 32.464
1359.349, 246.015
1360.546, 261.192
1361.744, 34.730
1362.941, 351.259
1364.139, 209.784
1365.336, 157.307
1366.533, 447.828
1367.730, 149.351
1368.926, 244.876
1370.123, 361.277
1371.319, 88.671
1372.515, 262.899
1373.711, 189.480
1374.906, 65.786
1376.102, 365.443
1377.297, 208.556
1378.492, 114.024
1379.687, 438.282
1380.882, 99.762
1382.077, 248.965
1383.271, 336.353
1384.465, 59.267
1385.659, 386.655
1386.853, 246.352
1388.047, 125.279
1389.240, 462.182
1390.434, 173.365
1391.627, 180.862
1392.820, 448.589
1394.013, 83.426
1395.205, 319.610
1396.398, 302.101
1397.590, 47.011
1398.782, 364.632
1399.974, 226.484
1401.166, 74.622
1402.357, 310.477
1403.549, 70.403
1404.740, 150.139
1405.931, 365.003
1407.122, 50.528
1408.313, 264.525
1409.503, 176.139
1410.693, 72.002
1411.883, 370.391
1413.073, 123.962
1414.263, 88.504
1415.453, 352.033
1416.642, 96.044
1417.831, 99.425
1419.020, 325.632
1420.209, 1.150
1421.398, 256.354
1422.587, 328.644
1423.775, 48.620
1424.963, 344.589
1426.151, 165.687
1427.339, 67.891
1428.526, 308.555
1429.714, 20.246
1430.901, 164.316
1432.088, 377.403
1433.275, 5.556
1434.462, 258.868
1435.648, 288.871
1436.835, 41.312
1438.021, 316.064
1439.207, 143.021
1440.393, 40.884
1441.579, 378.750
1442.764, 30.535
1443.949, 138.292
1445.135, 399.021
1446.320, 36.515
1447.504, 230.784
1448.689, 290.437
1449.873, 4.030
1451.058, 368.423
1452.242, 224.362
1453.426, 106.885
1454.609, 424.449
1455.793, 114.986
1456.976, 101.331
1458.159, 434.897
1459.342, 19.904
1460.525, 231.182
1461.708, 300.499
1462.890, 78.081
1464.073, 345.404
1465.255, 193.049
1466.437, 28.883
1467.619, 451.777
1468.800, 173.797
1469.982, 160.789
1471.163, 396.742
1472.344, 40.596
1473.525, 179.212
1474.706, 387.116
1475.886, 85.755
1477.066, 295.031
1478.247, 261.312
1479.427, 41.935
1480.607, 397.229
1481.786, 163.356
1482.966, 138.563
1484.145, 424.147
1485.324, 41.248
1486.503, 180.793
1487.682, 457.330
1488.860, 20.866
1490.039, 346.705
1491.217, 278.232
1492.395, 41.754
1493.573, 346.724
1494.751, 151.173
1495.928, 123.902
1497.106, 402.945
1498.283, 84.079
1499.460, 251.317
1500.637, 388.651
1501.814, 19.896
1502.990, 297.774
1504.166, 381.006
1505.342, 107.020
1506.518, 375.298
1507.694, 308.918
1508.870, 69.850
1510.045, 466.141
1511.221, 125.842
1512.396, 28.741
1513.571, 493.887
1514.745, 0.660
1515.920, 250.980
1517.094, 278.024
1518.269, 0.000
##END=



