##NAMES=Datolite
##RRUFFID=R050136
##IDEAL CHEMISTRY=CaB(SiO_4_)(OH)
##LOCALITY=Charcas, San Luis Potosi, Mexico
##OWNER=RRUFF
##SOURCE=Dave Bunk Minerals
##DESCRIPTION=Pale green tabular crystals
##STATUS=The identification of this mineral has been confirmed by X-ray diffraction and chemical analysis
##URL=rruff.info/R050136
##MEASURED CHEMISTRY=Ca_1.00_BSi_1.00_O_4_(OH) ; trace amounts of Fe; B and OH estimated by stoichiometry end charge balance
##PIN_ID=L00284
##ORIENTATION=Laser parallel to -b* (0 -1 0). Fiducial mark perpendicular to laser is parallel to c [0 0 1]
90.650, 0.000
92.046, 1.717
93.442, 0.069
94.838, 1.707
96.233, 30.443
97.628, 33.873
99.023, 25.318
100.418, 57.554
101.812, 43.367
103.206, 66.615
104.600, 86.308
105.994, 120.509
107.387, 151.055
108.781, 81.805
110.174, 93.669
111.566, 97.606
112.959, 114.626
114.351, 121.700
115.744, 256.839
117.136, 262.494
118.527, 87.939
119.919, 90.750
121.310, 105.400
122.701, 133.801
124.092, 147.974
125.482, 149.943
126.873, 223.727
128.263, 360.341
129.653, 617.831
131.042, 1127.257
132.432, 1688.788
133.821, 1955.485
135.210, 1431.119
136.599, 813.635
137.987, 405.014
139.376, 279.889
140.764, 191.473
142.152, 149.732
143.539, 130.903
144.927, 124.660
146.314, 167.801
147.701, 187.633
149.088, 286.329
150.474, 390.932
151.861, 483.048
153.247, 595.690
154.633, 497.346
156.018, 460.006
157.404, 439.655
158.789, 727.280
160.174, 1230.872
161.559, 2396.431
162.943, 4274.958
164.327, 6062.456
165.711, 6733.927
167.095, 4358.540
168.479, 2262.308
169.862, 1208.829
171.246, 731.302
172.628, 582.150
174.011, 596.624
175.394, 825.374
176.776, 921.494
178.158, 822.099
179.540, 522.256
180.922, 275.003
182.303, 173.169
183.684, 112.354
185.065, 66.549
186.446, 24.751
187.826, 52.961
189.207, 45.180
190.587, 39.404
191.967, 16.625
193.346, 23.845
194.726, 19.938
196.105, 47.725
197.484, 8.516
198.862, 4.312
200.241, 13.943
201.619, 2.566
202.997, 23.565
204.375, 0.692
205.753, 1.319
207.130, 10.460
208.507, 17.845
209.884, 36.066
211.261, 24.129
212.638, 62.183
214.014, 170.406
215.390, 322.964
216.766, 453.993
218.141, 578.292
219.517, 536.938
220.892, 360.320
222.267, 278.776
223.642, 314.172
225.016, 390.210
226.391, 626.095
227.765, 961.898
229.139, 1315.697
230.512, 1507.464
231.886, 1254.229
233.259, 893.989
234.632, 556.772
236.005, 310.562
237.377, 221.341
238.749, 117.109
240.122, 83.865
241.493, 56.610
242.865, 46.345
244.237, 10.068
245.608, 5.780
246.979, 13.481
248.350, 8.171
249.720, 16.850
251.090, 5.625
252.461, 10.652
253.830, 7.516
255.200, 16.393
256.570, 32.933
257.939, 23.428
259.308, 7.479
260.677, 2.131
262.045, 0.704
263.414, 4.871
264.782, 6.752
266.150, 14.501
267.517, 13.120
268.885, 17.873
270.252, 52.132
271.619, 112.704
272.986, 157.767
274.353, 105.434
275.719, 124.171
277.085, 104.705
278.451, 98.110
279.817, 81.581
281.182, 117.991
282.548, 182.518
283.913, 243.991
285.278, 394.674
286.642, 651.968
288.007, 1067.459
289.371, 1676.672
290.735, 2380.867
292.099, 2738.045
293.462, 2317.207
294.826, 1593.353
296.189, 999.483
297.552, 601.597
298.914, 422.694
300.277, 280.774
301.639, 189.838
303.001, 151.887
304.363, 105.917
305.724, 79.931
307.086, 69.926
308.447, 56.833
309.808, 57.700
311.168, 44.531
312.529, 39.316
313.889, 19.079
315.249, 8.828
316.609, 21.565
317.969, 33.293
319.328, 12.011
320.687, 17.719
322.046, 42.418
323.405, 46.107
324.764, 56.788
326.122, 51.461
327.480, 93.125
328.838, 90.781
330.196, 151.430
331.553, 160.070
332.910, 120.697
334.267, 92.311
335.624, 43.913
336.981, 36.497
338.337, 27.037
339.693, 7.550
341.049, 19.045
342.405, 7.526
343.760, 4.994
345.116, 30.450
346.471, 15.899
347.826, 23.339
349.180, 53.772
350.535, 40.038
351.889, 20.430
353.243, 29.781
354.597, 30.100
355.950, 47.347
357.304, 71.749
358.657, 63.299
360.010, 105.015
361.362, 113.377
362.715, 113.504
364.067, 144.673
365.419, 156.379
366.771, 194.717
368.123, 260.482
369.474, 328.523
370.825, 448.188
372.176, 687.384
373.527, 1100.294
374.877, 1695.984
376.228, 2603.483
377.578, 3363.756
378.928, 3677.009
380.277, 3189.250
381.627, 2234.511
382.976, 1624.730
384.325, 1252.941
385.674, 1029.143
387.023, 1070.337
388.371, 1168.523
389.719, 1421.704
391.067, 1601.877
392.415, 1679.045
393.762, 1343.207
395.110, 993.363
396.457, 719.513
397.804, 477.657
399.150, 356.795
400.497, 254.926
401.843, 207.052
403.189, 143.171
404.535, 70.267
405.881, 91.313
407.226, 70.125
408.571, 39.870
409.916, 21.713
411.261, 26.485
412.605, 53.345
413.950, 28.067
415.294, 10.853
416.638, 19.907
417.981, 7.601
419.325, 19.815
420.668, 33.182
422.011, 7.450
423.354, 20.938
424.697, 4.660
426.039, 0.127
427.381, 3.429
428.723, 15.079
430.065, 30.301
431.406, 6.678
432.748, 11.880
434.089, 4.030
435.430, 4.806
436.770, 0.630
438.111, 15.443
439.451, 40.244
440.791, 21.037
442.131, 31.821
443.471, 8.595
444.810, 12.358
446.149, 0.888
447.488, 39.854
448.827, 3.587
450.166, 70.309
451.504, 121.024
452.842, 133.731
454.180, 270.429
455.518, 398.123
456.855, 552.817
458.193, 623.511
459.530, 503.200
460.867, 352.889
462.203, 223.579
463.540, 141.275
464.876, 106.963
466.212, 60.651
467.548, 63.337
468.883, 105.988
470.219, 75.581
471.554, 76.172
472.889, 84.710
474.224, 108.225
475.558, 107.575
476.892, 144.772
478.227, 144.151
479.561, 189.629
480.894, 275.881
482.228, 315.208
483.561, 526.720
484.894, 707.241
486.227, 1042.807
487.559, 1619.347
488.892, 2258.986
490.224, 2865.621
491.556, 2852.250
492.888, 2383.873
494.220, 1711.490
495.551, 1119.103
496.882, 760.574
498.213, 498.009
499.544, 371.371
500.874, 283.484
502.205, 221.769
503.535, 182.875
504.865, 122.911
506.194, 117.281
507.524, 92.513
508.853, 64.817
510.182, 52.285
511.511, 41.692
512.840, 33.961
514.168, 37.305
515.496, 11.649
516.824, 0.071
518.152, 9.591
519.480, 31.085
520.807, 0.371
522.134, 24.830
523.461, 19.303
524.788, 11.787
526.114, 1.720
527.441, 17.230
528.767, 21.262
530.093, 8.768
531.418, 1.717
532.744, 9.803
534.069, 39.334
535.394, 17.890
536.719, 14.461
538.044, 25.954
539.368, 26.365
540.693, 16.773
542.017, 54.176
543.340, 43.576
544.664, 86.971
545.987, 127.363
547.311, 142.751
548.634, 327.136
549.956, 394.517
551.279, 595.894
552.601, 770.268
553.923, 785.639
555.245, 732.005
556.567, 541.369
557.889, 348.729
559.210, 240.085
560.531, 140.438
561.852, 149.788
563.173, 57.135
564.493, 46.478
565.813, 91.819
567.133, 45.157
568.453, 40.386
569.773, 15.514
571.092, 58.682
572.412, 49.965
573.731, 37.142
575.049, 44.165
576.368, 63.287
577.686, 83.564
579.005, 89.729
580.323, 98.535
581.640, 138.610
582.958, 180.810
584.275, 299.425
585.593, 367.329
586.909, 502.366
588.226, 695.531
589.543, 906.555
590.859, 1198.066
592.175, 1382.255
593.491, 1410.942
594.807, 1311.012
596.122, 992.000
597.438, 826.177
598.753, 585.469
600.068, 452.682
601.382, 349.941
602.697, 263.066
604.011, 180.225
605.325, 160.151
606.639, 138.456
607.952, 101.534
609.266, 48.870
610.579, 73.205
611.892, 63.541
613.205, 68.345
614.518, 80.697
615.830, 76.536
617.142, 70.474
618.454, 93.312
619.766, 100.781
621.078, 113.907
622.389, 124.238
623.700, 151.134
625.011, 182.650
626.322, 197.238
627.632, 187.462
628.943, 179.789
630.253, 206.129
631.563, 156.562
632.872, 155.936
634.182, 191.498
635.491, 160.128
636.800, 205.983
638.109, 178.511
639.418, 233.839
640.726, 247.864
642.035, 280.191
643.343, 369.913
644.651, 331.379
645.958, 369.704
647.266, 402.126
648.573, 425.449
649.880, 474.771
651.187, 522.093
652.494, 615.413
653.800, 716.732
655.106, 761.052
656.412, 944.371
657.718, 1080.690
659.024, 1312.011
660.329, 1585.332
661.634, 1998.655
662.939, 2588.979
664.244, 3294.304
665.549, 4411.629
666.853, 5301.956
668.157, 5977.282
669.461, 6409.607
670.765, 5840.935
672.069, 5417.262
673.372, 4915.509
674.675, 4442.655
675.978, 4415.896
677.281, 4232.224
678.583, 4678.361
679.886, 5021.995
681.188, 5628.975
682.490, 7017.431
683.792, 8381.628
685.093, 11337.908
686.394, 15444.778
687.696, 22212.434
688.997, 34770.629
690.297, 48758.230
691.598, 64213.984
692.898, 64211.082
694.198, 60438.387
695.498, 46586.727
696.798, 30245.061
698.097, 20903.357
699.397, 14661.688
700.696, 10160.022
701.995, 7879.354
703.293, 5786.691
704.592, 4664.024
705.890, 3669.361
707.188, 2939.698
708.486, 2637.036
709.784, 2061.375
711.081, 1870.715
712.378, 1558.057
713.675, 1365.399
714.972, 1214.743
716.269, 1012.089
717.565, 926.436
718.862, 795.785
720.158, 717.145
721.453, 652.505
722.749, 575.877
724.045, 512.262
725.340, 436.649
726.635, 413.046
727.930, 437.451
729.224, 381.866
730.519, 399.289
731.813, 335.722
733.107, 341.169
734.401, 365.635
735.694, 282.104
736.988, 280.595
738.281, 234.089
739.574, 171.586
740.867, 200.088
742.160, 201.594
743.452, 159.104
744.744, 141.616
746.036, 94.140
747.328, 127.670
748.620, 119.206
749.911, 60.747
751.202, 83.291
752.493, 100.838
753.784, 62.388
755.075, 13.940
756.365, 52.494
757.655, 50.050
758.945, 8.608
760.235, 37.170
761.525, 3.735
762.814, 30.301
764.103, 10.871
765.392, 30.442
766.681, 25.015
767.969, 5.410
769.258, 31.838
770.546, 23.282
771.834, 7.738
773.122, 23.198
774.409, 33.670
775.697, 44.159
776.984, 16.329
778.271, 24.181
779.558, 17.703
780.844, 1.234
782.131, 12.766
783.417, 10.695
784.703, 31.841
785.989, 16.394
787.274, 3.045
788.560, 35.514
789.845, 2.092
791.130, 23.671
792.415, 0.261
793.699, 18.147
794.983, 9.441
796.268, 40.965
797.552, 21.625
798.835, 0.773
800.119, 49.172
801.402, 1.573
802.686, 43.975
803.969, 64.379
805.251, 63.786
806.534, 117.195
807.816, 87.607
809.098, 131.022
810.380, 164.439
811.662, 196.859
812.944, 288.281
814.225, 242.707
815.506, 410.134
816.787, 462.565
818.068, 556.998
819.349, 690.434
820.629, 874.873
821.909, 1239.315
823.189, 1489.759
824.469, 1994.207
825.749, 2638.657
827.028, 2800.111
828.307, 3144.567
829.586, 2740.028
830.865, 2121.492
832.144, 1661.959
833.422, 1132.430
834.700, 826.911
835.978, 578.402
837.256, 415.900
838.534, 292.401
839.811, 223.906
841.088, 187.421
842.365, 139.943
843.642, 159.468
844.919, 175.000
846.195, 112.547
847.472, 141.103
848.748, 95.666
850.023, 154.233
851.299, 146.804
852.575, 174.378
853.850, 224.956
855.125, 283.538
856.400, 269.123
857.674, 411.712
858.949, 494.305
860.223, 639.901
861.497, 808.501
862.771, 891.104
864.045, 1065.712
865.318, 1052.323
866.591, 1030.938
867.864, 1090.557
869.137, 993.243
870.410, 1091.927
871.682, 1260.557
872.955, 1434.198
874.227, 1748.836
875.499, 2011.807
876.770, 2456.888
878.042, 2833.537
879.313, 3025.089
880.584, 3295.817
881.855, 3074.409
883.126, 2851.233
884.396, 2706.540
885.667, 2133.917
886.937, 1904.344
888.207, 1549.020
889.476, 1204.081
890.746, 1071.762
892.015, 830.453
893.284, 753.233
894.553, 646.922
895.822, 464.733
897.090, 476.428
898.359, 380.125
899.627, 408.825
900.895, 399.528
902.163, 335.234
903.430, 389.942
904.698, 330.652
905.965, 397.366
907.232, 528.083
908.499, 569.802
909.765, 763.524
911.032, 959.249
912.298, 1331.976
913.564, 1951.707
914.830, 2467.431
916.095, 3253.167
917.361, 3518.907
918.626, 3488.649
919.891, 3184.394
921.156, 2495.672
922.420, 1993.406
923.685, 1610.655
924.949, 1209.808
926.213, 1049.064
927.477, 854.692
928.740, 790.665
930.004, 758.437
931.267, 669.646
932.530, 758.239
933.793, 730.764
935.056, 621.654
936.318, 751.447
937.581, 584.230
938.843, 550.923
940.104, 467.681
941.366, 404.255
942.628, 353.766
943.889, 295.058
945.150, 321.681
946.411, 311.511
947.672, 223.647
948.932, 273.487
950.193, 233.935
951.453, 233.645
952.713, 216.499
953.973, 209.261
955.232, 233.126
956.491, 207.996
957.751, 186.871
959.010, 267.751
960.268, 217.637
961.527, 297.527
962.785, 310.423
964.044, 272.325
965.302, 396.232
966.559, 418.144
967.817, 503.061
969.075, 584.984
970.332, 620.913
971.589, 809.847
972.846, 990.786
974.102, 1223.731
975.359, 1574.681
976.615, 1863.637
977.871, 2612.599
979.127, 3487.566
980.383, 4559.539
981.638, 6607.515
982.893, 7726.500
984.149, 9197.489
985.404, 9096.484
986.658, 7389.485
987.913, 6095.492
989.167, 4518.504
990.421, 3384.527
991.675, 2680.557
992.929, 1993.592
994.183, 1644.636
995.436, 1313.685
996.689, 1017.743
997.942, 920.809
999.195, 718.880
1000.448, 664.961
1001.700, 620.047
1002.952, 468.145
1004.204, 418.250
1005.456, 330.361
1006.708, 236.481
1007.959, 214.609
1009.210, 150.744
1010.461, 117.883
1011.712, 90.028
1012.963, 70.179
1014.213, 83.337
1015.464, 35.501
1016.714, 43.671
1017.964, 19.846
1019.214, 0.027
1020.463, 0.212
1021.712, 17.401
1022.962, 38.404
1024.210, 4.778
1025.459, 44.034
1026.708, 45.862
1027.956, 20.295
1029.204, 36.543
1030.452, 21.393
1031.700, 37.247
1032.948, 23.113
1034.195, 31.984
1035.442, 50.865
1036.689, 51.764
1037.936, 6.318
1039.183, 45.594
1040.429, 17.478
1041.676, 1.555
1042.922, 1.362
1044.168, 13.724
1045.413, 2.183
1046.659, 19.913
1047.904, 46.015
1049.149, 29.122
1050.394, 153.235
1051.639, 135.354
1052.884, 154.479
1054.128, 160.610
1055.372, 182.748
1056.616, 277.890
1057.860, 253.042
1059.104, 311.200
1060.347, 442.364
1061.590, 480.537
1062.833, 640.717
1064.076, 762.902
1065.319, 953.093
1066.561, 1282.291
1067.803, 1480.497
1069.046, 2100.710
1070.287, 3029.928
1071.529, 4103.155
1072.771, 6436.395
1074.012, 8924.647
1075.253, 11913.922
1076.494, 13343.206
1077.735, 10912.509
1078.975, 8351.829
1080.216, 5663.156
1081.456, 3618.496
1082.696, 2616.847
1083.936, 1750.211
1085.175, 1265.584
1086.415, 1029.962
1087.654, 727.356
1088.893, 619.760
1090.132, 498.170
1091.371, 410.597
1092.609, 361.030
1093.847, 301.476
1095.085, 233.929
1096.323, 252.388
1097.561, 141.856
1098.799, 167.329
1100.036, 113.815
1101.273, 110.312
1102.510, 118.814
1103.747, 57.322
1104.983, 66.836
1106.220, 83.356
1107.456, 39.882
1108.692, 108.421
1109.928, 39.966
1111.163, 35.517
1112.399, 80.081
1113.634, 5.650
1114.869, 39.228
1116.104, 64.812
1117.339, 57.401
1118.573, 103.001
1119.808, 88.608
1121.042, 161.222
1122.276, 196.842
1123.509, 187.467
1124.743, 188.105
1125.976, 161.749
1127.210, 143.398
1128.443, 201.053
1129.675, 220.714
1130.908, 220.380
1132.141, 243.051
1133.373, 240.727
1134.605, 331.409
1135.837, 316.104
1137.068, 350.805
1138.300, 458.709
1139.531, 438.696
1140.762, 507.414
1141.993, 561.561
1143.224, 593.292
1144.455, 753.642
1145.685, 733.876
1146.915, 862.620
1148.145, 1031.187
1149.375, 1046.939
1150.605, 1227.902
1151.834, 1392.122
1153.063, 1509.887
1154.292, 1795.505
1155.521, 2042.821
1156.750, 2263.599
1157.978, 2730.382
1159.207, 2859.168
1160.435, 3568.958
1161.663, 4013.207
1162.891, 4399.005
1164.118, 5326.807
1165.345, 5854.613
1166.573, 6793.423
1167.800, 8087.175
1169.026, 8500.936
1170.253, 9950.755
1171.480, 10188.576
1172.706, 10018.405
1173.932, 10095.908
1175.158, 8853.307
1176.383, 7845.149
1177.609, 7193.093
1178.834, 5609.869
1180.059, 5067.787
1181.284, 4189.481
1182.509, 3378.701
1183.734, 3096.856
1184.958, 2514.967
1186.182, 2062.838
1187.406, 1963.329
1188.630, 1564.207
1189.854, 1441.082
1191.077, 1230.904
1192.301, 1066.794
1193.524, 1005.569
1194.747, 831.490
1195.969, 743.392
1197.192, 709.296
1198.414, 600.208
1199.636, 578.119
1200.858, 520.313
1202.080, 438.235
1203.302, 487.157
1204.523, 364.856
1205.744, 428.784
1206.966, 407.715
1208.186, 288.673
1209.407, 350.610
1210.628, 330.648
1211.848, 259.595
1213.068, 314.541
1214.288, 231.359
1215.508, 228.311
1216.727, 264.265
1217.947, 172.281
1219.166, 204.241
1220.385, 169.203
1221.604, 152.619
1222.822, 205.585
1224.041, 142.676
1225.259, 108.980
1226.477, 159.952
1227.695, 124.035
1228.913, 115.242
1230.130, 136.153
1231.348, 72.132
1232.565, 134.114
1233.782, 68.101
1234.999, 73.123
1236.215, 133.118
1237.432, 79.119
1238.648, 71.123
1239.864, 125.131
1241.080, 70.197
1242.296, 57.213
1243.511, 47.233
1244.726, 24.367
1245.942, 56.395
1247.156, 26.377
1248.371, 81.412
1249.586, 91.451
1250.800, 58.494
1252.014, 52.664
1253.228, 61.713
1254.442, 41.659
1255.656, 92.734
1256.869, 69.934
1258.083, 42.745
1259.296, 98.802
1260.509, 34.578
1261.722, 59.795
1262.934, 69.846
1264.147, 33.251
1265.359, 101.457
1266.571, 61.069
1267.783, 64.251
1268.994, 80.381
1270.206, 22.102
1271.417, 70.395
1272.628, 44.462
1273.839, 30.849
1275.050, 48.975
1276.260, 49.035
1277.471, 24.099
1278.681, 61.157
1279.891, 50.222
1281.101, 15.588
1282.310, 6.652
1283.520, 21.127
1284.729, 6.049
1285.938, 18.589
1287.147, 8.279
1288.356, 0.786
1289.564, 11.078
1290.773, 9.009
1291.981, 15.063
1293.189, 13.887
1294.397, 43.160
1295.604, 19.764
1296.812, 7.726
1298.019, 23.310
1299.226, 13.671
1300.433, 8.657
1301.640, 37.354
1302.846, 8.362
1304.053, 7.363
1305.259, 21.365
1306.465, 6.633
1307.671, 49.368
1308.876, 31.370
1310.082, 46.372
1311.287, 86.373
1312.492, 57.366
1313.697, 42.359
1314.902, 71.351
1316.106, 37.323
1317.310, 120.283
1318.515, 56.235
1319.719, 64.194
1320.922, 135.145
1322.126, 77.086
1323.329, 114.014
1324.533, 105.940
1325.736, 63.868
1326.939, 122.798
1328.141, 94.732
1329.344, 52.644
1330.546, 86.594
1331.748, 66.497
1332.950, 94.403
1334.152, 96.304
1335.354, 8.199
1336.555, 30.087
1337.757, 57.968
1338.958, 10.844
1340.159, 24.712
1341.359, 21.573
1342.560, 17.426
1343.760, 62.270
1344.960, 0.105
1346.160, 18.929
1347.360, 68.745
1348.560, 7.448
1349.759, 30.348
1350.959, 28.136
1352.158, 11.084
1353.357, 71.684
1354.555, 7.445
1355.754, 22.199
1356.952, 45.038
1358.151, 8.085
1359.349, 39.647
1360.546, 31.428
1361.744, 13.149
1362.941, 75.864
1364.139, 31.575
1365.336, 32.707
1366.533, 44.981
1367.730, 8.739
1368.926, 1.403
1370.123, 62.060
1371.319, 10.743
1372.515, 4.372
1373.711, 7.740
1374.906, 37.562
1376.102, 59.863
1377.297, 57.167
1378.492, 25.474
1379.687, 80.784
1380.882, 34.097
1382.077, 39.413
1383.271, 70.726
1384.465, 24.038
1385.659, 43.351
1386.853, 65.658
1388.047, 18.957
1389.240, 81.241
1390.434, 4.481
1391.627, 53.791
1392.820, 64.054
1394.013, 43.314
1395.205, 21.557
1396.398, 58.798
1397.590, 17.962
1398.782, 42.280
1399.974, 22.510
1401.166, 15.739
1402.357, 69.120
1403.549, 0.779
1404.740, 19.559
1405.931, 88.683
1407.122, 10.716
1408.313, 18.827
1409.503, 1.127
1410.693, 20.242
1411.883, 27.356
1413.073, 16.149
1414.263, 12.958
1415.453, 44.064
1416.642, 9.171
1417.831, 32.277
1419.020, 49.384
1420.209, 49.493
1421.398, 95.602
1422.587, 51.713
1423.775, 24.175
1424.963, 58.939
1426.151, 26.055
1427.339, 52.126
1428.526, 5.208
1429.714, 41.332
1430.901, 59.455
1432.088, 41.116
1433.275, 54.935
1434.462, 55.053
1435.648, 96.393
1436.835, 94.315
1438.021, 49.862
1439.207, 100.952
1440.393, 121.938
1441.579, 155.428
1442.764, 109.231
1443.949, 121.625
1445.135, 181.992
1446.320, 110.153
1447.504, 102.151
1448.689, 165.070
1449.873, 113.032
1451.058, 175.861
1452.242, 133.785
1453.426, 137.442
1454.609, 179.157
1455.793, 147.971
1456.976, 154.469
1458.159, 166.614
1459.342, 126.599
1460.525, 121.353
1461.708, 128.477
1462.890, 78.048
1464.073, 156.630
1465.255, 120.213
1466.437, 77.746
1467.619, 151.778
1468.800, 75.877
1469.982, 69.944
1471.163, 150.815
1472.344, 30.039
1473.525, 84.607
1474.706, 136.892
1475.886, 35.264
1477.066, 37.684
1478.247, 120.922
1479.427, 40.243
1480.607, 118.539
1481.786, 55.781
1482.966, 91.927
1484.145, 96.936
1485.324, 52.799
1486.503, 49.590
1487.682, 108.318
1488.860, 58.220
1490.039, 42.119
1491.217, 66.166
1492.395, 34.271
1493.573, 57.293
1494.751, 56.403
1495.928, 33.810
1497.106, 82.209
1498.283, 3.615
1499.460, 0.974
1500.637, 71.468
1501.814, 9.987
1502.990, 59.622
1504.166, 53.374
1505.342, 35.249
1506.518, 21.267
1507.694, 38.962
1508.870, 5.591
1510.045, 67.193
1511.221, 37.696
1512.396, 19.614
1513.571, 49.522
1514.745, 0.234
1515.920, 0.000
##END=



