##NAMES=Datolite
##RRUFFID=R050033
##IDEAL CHEMISTRY=CaB(SiO_4_)(OH)
##LOCALITY=Westfield, Massachusetts, USA
##OWNER=RRUFF
##SOURCE=University of Arizona Mineral Museum
##DESCRIPTION=Group of pale green single crystals
##STATUS=The identification of this mineral has been confirmed by X-ray diffraction and chemical analysis
##URL=rruff.info/R050033
##MEASURED CHEMISTRY=Ca_1.00_B_1.00_Si_1.00_O_4_(OH) ; trace amounts of Al and Na; B measured and corrected according to stoichiometry;  OH estimated by stoichiometry end charge balance
##PIN_ID=L00195
##ORIENTATION=Laser parallel to c* (0 0 1). Fiducial mark perpendicular to laser is parallel to a [1 0 0]
52.937, 0.000
54.335, 12.859
55.734, 56.354
57.132, 59.892
58.530, 79.694
59.927, 73.166
61.325, 108.042
62.722, 94.318
64.119, 98.236
65.515, 73.876
66.912, 70.933
68.308, 73.357
69.704, 91.739
71.100, 68.569
72.496, 53.143
73.891, 71.009
75.287, 23.887
76.682, 22.884
78.076, 14.991
79.471, 2.799
80.865, 27.525
82.260, 7.950
83.653, 22.536
85.047, 17.943
86.441, 0.266
87.834, 16.493
89.227, 2.327
90.620, 24.226
92.013, 35.183
93.405, 68.192
94.797, 61.249
96.189, 111.353
97.581, 144.502
98.973, 183.694
100.364, 191.925
101.755, 226.191
103.146, 270.487
104.537, 266.810
105.927, 328.307
107.318, 397.917
108.708, 392.530
110.098, 426.148
111.487, 416.771
112.877, 447.399
114.266, 506.033
115.655, 576.674
117.044, 578.323
118.432, 587.126
119.821, 615.025
121.209, 603.934
122.597, 607.837
123.984, 627.734
125.372, 609.626
126.759, 582.515
128.146, 665.400
129.533, 823.284
130.920, 1050.167
132.306, 1514.051
133.692, 1818.939
135.078, 2019.833
136.464, 1616.742
137.850, 1012.686
139.235, 742.658
140.620, 646.653
142.005, 628.662
143.390, 602.682
144.774, 579.703
146.159, 592.721
147.543, 652.732
148.927, 714.733
150.310, 770.715
151.694, 902.675
153.077, 1030.595
154.460, 1262.509
155.843, 1498.542
157.226, 2156.683
158.608, 3368.562
159.990, 5757.959
161.372, 10720.787
162.754, 20438.627
164.135, 36206.465
165.517, 49024.320
166.898, 48832.184
168.279, 31900.055
169.659, 16197.937
171.040, 8695.827
172.420, 5135.724
173.800, 3418.630
175.180, 2853.544
176.560, 2945.467
177.939, 3016.397
179.318, 2492.335
180.697, 1639.330
182.076, 1029.371
183.455, 759.941
184.833, 582.060
186.211, 460.310
187.589, 473.175
188.967, 400.048
190.344, 448.929
191.722, 507.817
193.099, 502.713
194.475, 451.615
195.852, 359.525
197.229, 329.443
198.605, 286.367
199.981, 269.299
201.357, 300.237
202.732, 299.182
204.108, 312.132
205.483, 298.088
206.858, 404.074
208.233, 525.083
209.607, 656.117
210.981, 958.171
212.356, 1453.260
213.730, 2491.392
215.103, 4557.554
216.477, 8467.765
217.850, 13388.026
219.223, 16767.174
220.596, 13286.282
221.969, 7302.325
223.341, 3882.290
224.713, 2050.172
226.085, 1261.971
227.457, 793.671
228.829, 607.277
230.200, 458.801
231.571, 356.246
232.942, 274.604
234.313, 193.785
235.684, 179.883
237.054, 137.871
238.424, 125.807
239.794, 128.841
241.164, 95.584
242.533, 69.355
243.902, 80.056
245.272, 69.168
246.640, 66.080
248.009, 63.784
249.378, 47.856
250.746, 30.278
252.114, 23.865
253.482, 16.833
254.849, 17.585
256.217, 5.630
257.584, 4.746
258.951, 11.996
260.318, 31.748
261.684, 23.486
263.051, 30.223
264.417, 10.961
265.783, 15.695
267.148, 24.573
268.514, 56.848
269.879, 126.127
271.244, 247.411
272.609, 379.699
273.974, 554.991
275.338, 590.287
276.703, 470.587
278.067, 328.891
279.431, 184.199
280.794, 89.511
282.158, 49.826
283.521, 41.145
284.884, 38.466
286.247, 16.790
287.609, 76.116
288.972, 162.445
290.334, 384.776
291.696, 575.111
293.058, 736.448
294.419, 731.787
295.781, 429.130
297.142, 288.475
298.503, 199.822
299.864, 110.172
301.224, 66.525
302.584, 53.880
303.945, 30.238
305.304, 13.598
306.664, 0.960
308.024, 36.675
309.383, 27.318
310.742, 48.963
312.101, 22.618
313.460, 22.276
314.818, 8.065
316.176, 8.592
317.534, 19.248
318.892, 21.095
320.250, 43.441
321.607, 79.775
322.964, 95.094
324.321, 152.408
325.678, 194.726
327.035, 304.047
328.391, 525.373
329.747, 900.701
331.103, 1369.033
332.459, 2090.369
333.815, 2644.708
335.170, 2573.051
336.525, 1991.396
337.880, 1216.745
339.235, 726.098
340.589, 430.453
341.944, 281.812
343.298, 186.174
344.652, 150.539
346.005, 115.888
347.359, 87.220
348.712, 112.549
350.065, 86.874
351.418, 94.203
352.771, 119.535
354.123, 118.893
355.475, 164.232
356.828, 189.809
358.179, 280.546
359.531, 353.946
360.882, 433.342
362.234, 550.762
363.585, 607.926
364.936, 498.286
366.286, 479.233
367.637, 371.474
368.987, 350.034
370.337, 289.121
371.687, 358.442
373.036, 331.553
374.386, 394.088
375.735, 498.927
377.084, 537.699
378.432, 645.010
379.781, 736.372
381.129, 909.656
382.478, 1156.302
383.825, 1549.934
385.173, 2124.303
386.521, 3028.669
387.868, 4643.034
389.215, 6863.395
390.562, 9881.754
391.909, 12440.112
393.255, 12628.469
394.602, 11086.826
395.948, 7884.183
397.294, 5412.539
398.639, 3749.896
399.985, 2537.255
401.330, 2014.615
402.675, 1456.975
404.020, 1171.338
405.365, 853.703
406.709, 722.070
408.054, 656.442
409.398, 507.815
410.742, 467.190
412.085, 336.575
413.429, 322.967
414.772, 305.362
416.115, 257.758
417.458, 245.156
418.800, 242.751
420.143, 237.879
421.485, 273.830
422.827, 302.639
424.169, 359.968
425.511, 313.875
426.852, 320.871
428.193, 207.658
429.534, 172.055
430.875, 138.451
432.216, 140.847
433.556, 138.242
434.896, 164.637
436.236, 189.032
437.576, 219.426
438.916, 254.819
440.255, 293.211
441.594, 258.603
442.933, 233.995
444.272, 180.391
445.611, 140.787
446.949, 167.181
448.287, 114.575
449.625, 148.968
450.963, 119.360
452.300, 172.752
453.638, 263.142
454.975, 462.532
456.312, 725.920
457.649, 899.308
458.985, 1080.700
460.321, 847.096
461.658, 588.498
462.994, 463.900
464.329, 281.312
465.665, 230.727
467.000, 202.157
468.335, 184.554
469.670, 197.096
471.005, 176.233
472.340, 208.018
473.674, 170.458
475.008, 235.928
476.342, 231.400
477.676, 263.583
479.009, 341.265
480.342, 396.757
481.676, 522.260
483.009, 679.769
484.341, 968.288
485.674, 1375.822
487.006, 1968.361
488.338, 3823.898
489.670, 4416.440
491.002, 5368.002
492.333, 5595.572
493.665, 4212.139
494.996, 2996.706
496.327, 1999.271
497.657, 1250.834
498.988, 897.395
500.318, 598.955
501.648, 463.514
502.978, 304.070
504.308, 245.625
505.637, 200.178
506.967, 147.729
508.296, 110.992
509.625, 85.826
510.953, 49.372
512.282, 40.916
513.610, 25.458
514.938, 41.998
516.266, 27.464
517.594, 2.052
518.921, 19.561
520.249, 39.932
521.576, 16.546
522.903, 3.979
524.229, 47.486
525.556, 32.052
526.882, 20.615
528.208, 8.803
529.534, 33.784
530.860, 37.397
532.185, 2.038
533.511, 8.690
534.836, 29.355
536.161, 60.045
537.485, 20.775
538.810, 21.525
540.134, 4.296
541.458, 10.079
542.782, 7.787
544.106, 35.322
545.429, 43.516
546.753, 69.708
548.076, 98.898
549.399, 137.085
550.721, 332.269
552.044, 426.451
553.366, 559.629
554.688, 638.805
556.010, 536.979
557.332, 446.149
558.653, 294.317
559.975, 194.482
561.296, 170.644
562.617, 60.804
563.937, 110.960
565.258, 72.114
566.578, 82.265
567.898, 68.412
569.218, 43.557
570.538, 62.699
571.858, 42.838
573.177, 69.974
574.496, 84.106
575.815, 47.235
577.134, 118.362
578.452, 84.485
579.771, 150.605
581.089, 197.724
582.407, 224.848
583.724, 311.972
585.042, 366.101
586.359, 569.228
587.676, 666.355
588.993, 1036.479
590.310, 1380.599
591.627, 1676.717
592.943, 2062.831
594.259, 1918.941
595.575, 1837.048
596.891, 1486.152
598.206, 1172.252
599.522, 840.350
600.837, 646.443
602.152, 607.731
603.467, 502.818
604.781, 372.901
606.096, 356.981
607.410, 255.058
608.724, 218.130
610.038, 160.200
611.351, 128.266
612.665, 145.328
613.978, 121.387
615.291, 107.442
616.604, 50.781
617.916, 64.690
619.229, 92.427
620.541, 78.468
621.853, 163.295
623.165, 43.001
624.476, 136.732
625.788, 125.091
627.099, 93.216
628.410, 108.616
629.721, 153.222
631.032, 113.101
632.342, 141.569
633.652, 148.807
634.962, 132.944
636.272, 127.481
637.582, 150.983
638.891, 160.735
640.201, 192.188
641.510, 217.663
642.818, 246.350
644.127, 237.547
645.436, 335.537
646.744, 349.152
648.052, 433.235
649.360, 457.457
650.668, 535.421
651.975, 653.379
653.282, 722.331
654.590, 919.276
655.896, 999.214
657.203, 1092.146
658.510, 1228.072
659.816, 1443.991
661.122, 1784.904
662.428, 2140.810
663.734, 2738.710
665.039, 3668.604
666.345, 4732.490
667.650, 6066.371
668.955, 6687.246
670.260, 7053.113
671.564, 6449.952
672.869, 5537.808
674.173, 4913.422
675.477, 3975.874
676.781, 3723.658
678.084, 3429.444
679.388, 3222.202
680.691, 3434.214
681.994, 3539.028
683.297, 4119.250
684.599, 4847.175
685.902, 5974.779
687.204, 8175.853
688.506, 11470.688
689.808, 17487.730
691.109, 25404.348
692.411, 33659.652
693.712, 37723.027
695.013, 32058.855
696.314, 23724.631
697.615, 15861.480
698.915, 10307.959
700.216, 7199.447
701.516, 4921.189
702.816, 3805.928
704.115, 2863.663
705.415, 2166.395
706.714, 1875.123
708.013, 1413.847
709.312, 1212.567
710.611, 1050.284
711.910, 842.998
713.208, 800.707
714.506, 691.414
715.804, 570.117
717.102, 506.816
718.399, 473.512
719.697, 423.205
720.994, 392.231
722.291, 352.954
723.588, 339.263
724.884, 284.943
726.181, 258.240
727.477, 235.293
728.773, 184.963
730.069, 180.630
731.365, 179.294
732.660, 181.955
733.955, 130.613
735.250, 110.270
736.545, 118.924
737.840, 66.575
739.134, 110.224
740.429, 113.870
741.723, 79.512
743.017, 102.153
744.310, 78.790
745.604, 91.424
746.897, 87.056
748.190, 73.685
749.483, 63.312
750.776, 62.350
752.069, 58.557
753.361, 50.176
754.653, 75.793
755.945, 51.407
757.237, 7.981
758.529, 51.616
759.820, 58.212
761.111, 109.805
762.402, 100.397
763.693, 62.986
764.984, 154.573
766.274, 187.158
767.564, 104.740
768.854, 98.322
770.144, 32.901
771.434, 11.522
772.724, 4.959
774.013, 18.407
775.302, 18.129
776.591, 36.338
777.880, 2.831
779.168, 51.333
780.456, 13.868
781.745, 7.582
783.033, 30.971
784.320, 18.547
785.608, 7.139
786.895, 32.741
788.183, 29.366
789.470, 60.013
790.756, 2.696
792.043, 2.387
793.329, 39.084
794.616, 18.806
795.902, 35.543
797.188, 55.303
798.473, 16.096
799.759, 8.099
801.044, 23.708
802.329, 63.530
803.614, 34.388
804.899, 37.732
806.183, 9.853
807.467, 15.974
808.752, 34.094
810.036, 51.215
811.319, 24.335
812.603, 56.457
813.886, 70.578
815.169, 68.700
816.452, 138.822
817.735, 141.945
819.018, 174.069
820.300, 329.194
821.583, 406.319
822.865, 452.446
824.146, 783.573
825.428, 952.702
826.710, 1334.832
827.991, 1654.964
829.272, 1794.106
830.553, 1699.254
831.834, 1371.403
833.114, 1049.569
834.394, 717.737
835.675, 527.911
836.955, 449.096
838.234, 274.294
839.514, 180.506
840.793, 181.721
842.073, 76.950
843.352, 124.199
844.630, 69.455
845.909, 65.718
847.187, 110.001
848.466, 66.306
849.744, 58.994
851.022, 63.771
852.299, 4.287
853.577, 64.632
854.854, 57.982
856.131, 81.335
857.408, 60.692
858.685, 87.052
859.961, 169.415
861.238, 167.783
862.514, 234.153
863.790, 289.528
865.066, 262.906
866.341, 379.289
867.617, 267.675
868.892, 197.066
870.167, 286.460
871.442, 296.859
872.717, 313.262
873.991, 413.669
875.265, 482.081
876.540, 656.497
877.813, 751.917
879.087, 1013.342
880.361, 1118.771
881.634, 1165.206
882.907, 1236.174
884.180, 1247.097
885.453, 1196.545
886.726, 1096.999
887.998, 1015.864
889.270, 975.327
890.542, 837.802
891.814, 809.283
893.086, 766.769
894.357, 788.261
895.628, 763.757
896.900, 767.259
898.170, 859.767
899.441, 865.280
900.712, 875.798
901.982, 1036.322
903.252, 1069.851
904.522, 1216.386
905.792, 1438.927
907.062, 1604.473
908.331, 2025.025
909.600, 2356.583
910.869, 3045.950
912.138, 4029.520
913.407, 5087.097
914.675, 7090.680
915.944, 9155.271
917.212, 11162.864
918.480, 11305.448
919.747, 11638.076
921.015, 10335.690
922.282, 8523.312
923.549, 6251.939
924.816, 5067.286
926.083, 3786.065
927.350, 3076.024
928.616, 2468.682
929.882, 1971.557
931.148, 1765.557
932.414, 1549.534
933.680, 1295.886
934.945, 1279.478
936.211, 1040.806
937.476, 1044.938
938.741, 895.812
940.005, 783.105
941.270, 794.637
942.534, 657.273
943.799, 703.514
945.063, 657.810
946.326, 585.858
947.590, 675.211
948.853, 537.549
950.117, 559.680
951.380, 635.308
952.643, 542.148
953.905, 592.367
955.168, 611.135
956.430, 532.769
957.692, 539.663
958.954, 501.585
960.216, 551.518
961.478, 479.463
962.739, 503.419
964.000, 550.385
965.261, 501.373
966.522, 545.370
967.783, 601.379
969.043, 596.409
970.303, 767.449
971.563, 830.501
972.823, 869.572
974.083, 1117.654
975.343, 1225.758
976.602, 1562.873
977.861, 1907.999
979.120, 2360.137
980.379, 3284.287
981.638, 4295.448
982.896, 5932.620
984.154, 7763.250
985.412, 8911.457
986.670, 9109.675
987.928, 7869.758
989.185, 5965.005
990.443, 4754.850
991.700, 3306.123
992.957, 2575.415
994.214, 2019.555
995.470, 1576.879
996.727, 1342.214
997.983, 1045.830
999.239, 892.197
1000.495, 886.581
1001.750, 671.977
1003.006, 680.388
1004.261, 681.810
1005.516, 541.251
1006.771, 607.703
1008.026, 428.165
1009.280, 413.638
1010.535, 335.121
1011.789, 285.615
1013.043, 285.127
1014.297, 172.650
1015.550, 143.189
1016.804, 195.740
1018.057, 165.300
1019.310, 150.253
1020.563, 124.453
1021.816, 81.044
1023.068, 123.646
1024.321, 62.257
1025.573, 58.878
1026.825, 81.510
1028.077, 42.150
1029.328, 58.801
1030.580, 15.461
1031.831, 38.131
1033.082, 66.810
1034.333, 0.499
1035.584, 77.198
1036.834, 39.906
1038.085, 28.377
1039.335, 97.346
1040.585, 25.645
1041.834, 120.387
1043.084, 98.139
1044.334, 24.938
1045.583, 144.707
1046.832, 116.487
1048.081, 144.275
1049.329, 156.073
1050.578, 161.881
1051.826, 209.698
1053.074, 222.524
1054.322, 284.358
1055.570, 311.071
1056.818, 356.635
1058.065, 365.917
1059.312, 479.788
1060.559, 481.667
1061.806, 602.561
1063.053, 706.464
1064.299, 844.498
1065.546, 1056.419
1066.792, 1184.347
1068.038, 1603.285
1069.284, 2040.231
1070.529, 2639.185
1071.775, 3689.148
1073.020, 5096.118
1074.265, 7651.098
1075.510, 11720.091
1076.754, 15219.848
1077.999, 18348.871
1079.243, 16657.900
1080.487, 12836.956
1081.731, 9766.018
1082.975, 7132.104
1084.219, 5294.289
1085.462, 3811.398
1086.705, 2665.566
1087.948, 2079.731
1089.191, 1480.886
1090.434, 1140.060
1091.676, 998.251
1092.919, 764.468
1094.161, 638.205
1095.403, 543.475
1096.645, 440.763
1097.886, 452.173
1099.128, 332.461
1100.369, 295.671
1101.610, 332.004
1102.851, 180.334
1104.091, 204.793
1105.332, 226.213
1106.572, 71.598
1107.812, 116.944
1109.052, 84.341
1110.292, 117.054
1111.532, 135.462
1112.771, 102.876
1114.010, 76.608
1115.249, 79.033
1116.488, 49.548
1117.727, 51.067
1118.966, 109.727
1120.204, 12.212
1121.442, 90.626
1122.680, 6.086
1123.918, 95.228
1125.155, 52.696
1126.393, 22.230
1127.630, 61.992
1128.867, 31.471
1130.104, 42.039
1131.341, 76.800
1132.577, 21.710
1133.814, 30.376
1135.050, 9.869
1136.286, 54.635
1137.522, 54.909
1138.757, 24.605
1139.993, 13.179
1141.228, 44.929
1142.463, 30.483
1143.698, 71.714
1144.933, 28.519
1146.167, 38.992
1147.402, 19.214
1148.636, 34.066
1149.870, 50.014
1151.104, 73.720
1152.338, 2.089
1153.571, 87.012
1154.804, 51.502
1156.037, 30.992
1157.270, 85.859
1158.503, 27.351
1159.736, 87.100
1160.968, 151.355
1162.200, 55.905
1163.432, 86.231
1164.664, 130.865
1165.896, 168.360
1167.127, 247.021
1168.359, 138.678
1169.590, 293.173
1170.821, 279.736
1172.052, 274.230
1173.282, 360.862
1174.513, 215.355
1175.743, 254.847
1176.973, 269.339
1178.203, 156.830
1179.433, 238.321
1180.662, 171.810
1181.892, 87.298
1183.121, 83.776
1184.350, 56.317
1185.579, 35.802
1186.807, 60.924
1188.036, 30.586
1189.264, 43.879
1190.492, 48.363
1191.720, 0.175
1192.948, 45.285
1194.176, 72.820
1195.403, 51.276
1196.630, 88.743
1197.857, 58.401
1199.084, 49.850
1200.311, 104.352
1201.537, 78.796
1202.764, 97.238
1203.990, 38.706
1205.216, 49.143
1206.442, 178.578
1207.667, 76.009
1208.893, 89.438
1210.118, 73.865
1211.343, 0.345
1212.568, 124.763
1213.793, 64.240
1215.017, 33.652
1216.242, 86.059
1217.466, 15.464
1218.690, 95.865
1219.914, 62.262
1221.137, 15.656
1222.361, 76.045
1223.584, 6.569
1224.807, 28.806
1226.030, 58.176
1227.253, 17.543
1228.476, 33.905
1229.698, 28.263
1230.920, 7.616
1232.142, 34.964
1233.364, 14.392
1234.586, 19.803
1235.808, 57.136
1237.029, 41.466
1238.250, 52.791
1239.471, 59.109
1240.692, 29.585
1241.913, 22.708
1243.133, 23.992
1244.353, 6.730
1245.574, 65.525
1246.794, 2.222
1248.013, 33.005
1249.233, 45.227
1250.452, 36.565
1251.672, 25.625
1252.891, 40.799
1254.110, 49.040
1255.328, 56.087
1256.547, 12.209
1257.765, 51.323
1258.983, 65.430
1260.201, 21.480
1261.419, 70.594
1262.637, 26.652
1263.854, 19.907
1265.072, 65.106
1266.289, 40.107
1267.506, 13.870
1268.723, 96.208
1269.939, 24.862
1271.156, 60.051
1272.372, 36.954
1273.588, 19.846
1274.804, 74.712
1276.020, 34.570
1277.235, 21.521
1278.451, 67.361
1279.666, 22.254
1280.881, 69.926
1282.096, 78.731
1283.310, 14.329
1284.525, 79.516
1285.739, 2.299
1286.953, 1.540
1288.167, 35.205
1289.381, 24.898
1290.595, 20.742
1291.808, 60.447
1293.022, 25.126
1294.235, 3.369
1295.448, 15.293
1296.660, 1.944
1297.873, 48.582
1299.085, 19.790
1300.298, 70.819
1301.510, 81.419
1302.722, 20.010
1303.933, 69.591
1305.145, 26.161
1306.356, 8.278
1307.567, 49.294
1308.778, 9.172
1309.989, 36.343
1311.200, 90.848
1312.410, 34.343
1313.621, 34.828
1314.831, 73.301
1316.041, 48.765
1317.250, 89.219
1318.460, 38.663
1319.670, 87.097
1320.879, 139.522
1322.088, 95.937
1323.297, 75.342
1324.506, 124.739
1325.714, 93.111
1326.922, 100.472
1328.131, 185.825
1329.339, 55.169
1330.547, 119.505
1331.754, 57.832
1332.962, 67.147
1334.169, 122.888
1335.376, 63.185
1336.583, 77.475
1337.790, 124.705
1338.997, 49.964
1340.203, 117.213
1341.410, 65.454
1342.616, 34.685
1343.822, 119.907
1345.028, 56.120
1346.233, 77.323
1347.439, 133.518
1348.644, 62.704
1349.849, 95.881
1351.054, 91.377
1352.259, 86.537
1353.463, 145.688
1354.668, 98.831
1355.872, 56.965
1357.076, 133.969
1358.280, 56.089
1359.483, 140.200
1360.687, 99.304
1361.890, 104.402
1363.094, 138.493
1364.297, 106.579
1365.499, 101.658
1366.702, 121.733
1367.905, 117.789
1369.107, 146.092
1370.309, 174.137
1371.511, 92.217
1372.713, 145.248
1373.914, 133.281
1375.116, 79.311
1376.317, 132.255
1377.518, 51.283
1378.719, 54.268
1379.920, 121.273
1381.121, 136.545
1382.321, 141.585
1383.521, 146.396
1384.721, 80.598
1385.921, 228.232
1387.121, 208.748
1388.321, 76.472
1389.520, 169.864
1390.719, 201.411
1391.918, 66.799
1393.117, 183.004
1394.316, 92.023
1395.514, 159.416
1396.713, 164.349
1397.911, 121.554
1399.109, 132.936
1400.307, 119.212
1401.505, 64.216
1402.702, 114.115
1403.899, 80.388
1405.097, 68.645
1406.294, 117.457
1407.490, 10.394
1408.687, 48.382
1409.884, 82.132
1411.080, 33.195
1412.276, 18.357
1413.472, 80.251
1414.668, 42.234
1415.863, 145.715
1417.059, 37.024
1418.254, 40.431
1419.449, 102.099
1420.644, 14.491
1421.839, 39.211
1423.033, 65.815
1424.228, 0.410
1425.422, 86.346
1426.616, 66.085
1427.810, 19.805
1429.004, 65.427
1430.197, 41.029
1431.391, 40.684
1432.584, 76.351
1433.777, 10.120
1434.970, 118.163
1436.163, 64.681
1437.355, 14.266
1438.548, 98.783
1439.740, 66.325
1440.932, 73.845
1442.124, 158.249
1443.315, 70.622
1444.507, 39.081
1445.698, 160.517
1446.889, 83.931
1448.080, 130.328
1449.271, 136.708
1450.462, 22.064
1451.652, 150.397
1452.843, 45.397
1454.033, 93.671
1455.223, 138.916
1456.413, 36.158
1457.602, 36.379
1458.792, 201.614
1459.981, 79.878
1461.170, 113.144
1462.359, 87.433
1463.548, 104.758
1464.737, 156.052
1465.925, 96.369
1467.113, 15.345
1468.302, 153.700
1469.490, 132.719
1470.677, 84.237
1471.865, 145.756
1473.052, 54.363
1474.240, 63.688
1475.427, 117.247
1476.614, 58.803
1477.800, 132.158
1478.987, 97.691
1480.173, 89.346
1481.360, 162.796
1482.546, 72.971
1483.732, 73.393
1484.917, 159.811
1486.103, 52.223
1487.288, 58.630
1488.474, 115.928
1489.659, 12.334
1490.844, 115.750
1492.028, 122.174
1493.213, 9.395
1494.397, 58.044
1495.582, 79.487
1496.766, 25.932
1497.950, 93.535
1499.133, 12.151
1500.317, 97.767
1501.500, 97.440
1502.683, 61.127
1503.866, 94.986
1505.049, 100.898
