##NAMES=Datolite
##RRUFFID=R050033
##IDEAL CHEMISTRY=CaB(SiO_4_)(OH)
##LOCALITY=Westfield, Massachusetts, USA
##OWNER=RRUFF
##SOURCE=University of Arizona Mineral Museum
##DESCRIPTION=Group of pale green single crystals
##STATUS=The identification of this mineral has been confirmed by X-ray diffraction and chemical analysis
##URL=rruff.info/R050033
##MEASURED CHEMISTRY=Ca_1.00_B_1.00_Si_1.00_O_4_(OH) ; trace amounts of Al and Na; B measured and corrected according to stoichiometry;  OH estimated by stoichiometry end charge balance
##PIN_ID=L00153
##ORIENTATION=Laser parallel to -a* (-1 0 0). Fiducial mark perpendicular to laser is parallel to -b [0 -1 0]
52.937, 0.000
54.335, 0.341
55.734, 49.508
57.132, 25.865
58.530, 10.204
59.927, 28.629
61.325, 66.299
62.722, 83.314
64.119, 33.467
65.515, 71.346
66.912, 60.672
68.308, 70.764
69.704, 91.508
71.100, 92.875
72.496, 108.888
73.891, 86.257
75.287, 78.247
76.682, 78.004
78.076, 56.813
79.471, 48.807
80.865, 41.760
82.260, 33.892
83.653, 4.114
85.047, 20.417
86.441, 3.801
87.834, 21.732
89.227, 1.192
90.620, 9.586
92.013, 19.922
93.405, 26.796
94.797, 68.563
96.189, 79.382
97.581, 122.254
98.973, 133.177
100.364, 212.148
101.755, 218.160
103.146, 263.210
104.537, 247.353
105.927, 322.665
107.318, 317.048
108.708, 404.435
110.098, 446.825
111.487, 473.225
112.877, 494.635
114.266, 509.052
115.655, 515.451
117.044, 523.950
118.432, 524.448
119.821, 525.121
121.209, 547.790
122.597, 541.456
123.984, 608.120
125.372, 641.783
126.759, 720.447
128.146, 930.110
129.533, 1181.776
130.920, 1678.444
132.306, 2164.115
133.692, 2512.792
135.078, 2351.479
136.464, 1730.197
137.850, 1154.996
139.235, 958.854
140.620, 834.755
142.005, 837.687
143.390, 745.635
144.774, 889.591
146.159, 971.544
147.543, 995.484
148.927, 1119.410
150.310, 1256.326
151.694, 1514.214
153.077, 1787.096
154.460, 2266.397
155.843, 3089.354
157.226, 4775.620
158.608, 8157.292
159.990, 14865.166
161.372, 25591.818
162.754, 41208.480
164.135, 55745.148
165.517, 63741.848
166.898, 52078.535
168.279, 29245.246
169.659, 15472.262
171.040, 8468.996
172.420, 5509.739
173.800, 4326.497
175.180, 4026.263
176.560, 4043.042
177.939, 3807.833
179.318, 2971.640
180.697, 1882.842
182.076, 1293.046
183.455, 1005.169
184.833, 778.875
186.211, 781.659
187.589, 777.423
188.967, 804.197
190.344, 895.982
191.722, 826.281
193.099, 955.585
194.475, 720.402
195.852, 637.230
197.229, 558.068
198.605, 538.917
199.981, 514.775
201.357, 527.644
202.732, 529.523
204.108, 554.411
205.483, 684.308
206.858, 801.221
208.233, 997.152
209.607, 1454.092
210.981, 2144.042
212.356, 3638.013
213.730, 6357.046
215.103, 10488.155
216.477, 15785.344
217.850, 20422.584
219.223, 19492.273
220.596, 12591.559
221.969, 6827.667
223.341, 3510.538
224.713, 2004.068
226.085, 1303.450
227.457, 933.757
228.829, 650.879
230.200, 513.579
231.571, 468.272
232.942, 335.759
234.313, 236.094
235.684, 204.357
237.054, 198.345
238.424, 149.148
239.794, 89.827
241.164, 146.469
242.533, 102.148
243.902, 68.687
245.272, 117.196
246.640, 41.660
248.009, 66.068
249.378, 86.867
250.746, 36.162
252.114, 40.089
253.482, 24.524
254.849, 4.782
256.217, 9.061
257.584, 36.615
258.951, 29.012
260.318, 12.074
261.684, 0.076
263.051, 28.881
264.417, 18.629
265.783, 1.635
267.148, 95.906
268.514, 207.186
269.879, 335.473
271.244, 545.767
272.609, 756.067
273.974, 874.373
275.338, 748.686
276.703, 533.005
278.067, 338.330
279.431, 167.661
280.794, 81.999
282.158, 50.342
283.521, 5.309
284.884, 61.044
286.247, 130.402
287.609, 243.765
288.972, 388.133
290.334, 692.507
291.696, 873.885
293.058, 882.269
294.419, 736.657
295.781, 449.051
297.142, 291.450
298.503, 143.854
299.864, 116.263
301.224, 30.677
302.584, 17.095
303.945, 13.518
305.304, 6.054
306.664, 1.624
308.024, 27.190
309.383, 0.757
310.742, 32.319
312.101, 47.884
313.460, 59.453
314.818, 8.031
316.176, 38.395
317.534, 4.825
318.892, 49.259
320.250, 51.682
321.607, 123.099
322.964, 109.513
324.321, 261.927
325.678, 428.347
327.035, 702.773
328.391, 1168.206
329.747, 1792.645
331.103, 2630.090
332.459, 3306.540
333.815, 3463.995
335.170, 2919.456
336.525, 1878.923
337.880, 1134.396
339.235, 725.874
340.589, 462.358
341.944, 283.848
343.298, 234.343
344.652, 156.842
346.005, 100.340
347.359, 68.823
348.712, 50.196
350.065, 67.770
351.418, 52.253
352.771, 83.741
354.123, 81.269
355.475, 95.769
356.828, 135.712
358.179, 221.263
359.531, 240.510
360.882, 293.034
362.234, 318.586
363.585, 370.137
364.936, 325.720
366.286, 338.302
367.637, 348.287
368.987, 366.038
370.337, 418.260
371.687, 517.209
373.036, 586.118
374.386, 728.807
375.735, 770.788
377.084, 1001.350
378.432, 1163.703
379.781, 1364.146
381.129, 1740.445
382.478, 2250.585
383.825, 2972.370
385.173, 4034.933
386.521, 5824.490
387.868, 8082.044
389.215, 11249.595
390.562, 14617.143
391.909, 16254.687
393.255, 15242.233
394.602, 11919.780
395.948, 8537.324
397.294, 5743.871
398.639, 4006.420
399.985, 2966.970
401.330, 2232.526
402.675, 1683.084
404.020, 1345.647
405.365, 1118.213
406.709, 907.784
408.054, 732.359
409.398, 655.935
410.742, 542.520
412.085, 481.113
413.429, 396.697
414.772, 327.302
416.115, 358.875
417.458, 357.243
418.800, 306.507
420.143, 357.530
421.485, 326.005
422.827, 435.210
424.169, 407.735
425.511, 451.239
426.852, 364.211
428.193, 173.765
429.534, 203.427
430.875, 133.088
432.216, 176.751
433.556, 78.415
434.896, 158.080
436.236, 137.746
437.576, 184.412
438.916, 164.080
440.255, 144.748
441.594, 151.416
442.933, 138.085
444.272, 88.757
445.611, 67.229
446.949, 97.917
448.287, 138.606
449.625, 124.297
450.963, 236.988
452.300, 314.680
453.638, 546.372
454.975, 868.064
456.312, 1169.760
457.649, 1307.458
458.985, 1238.164
460.321, 906.871
461.658, 661.579
462.994, 428.300
464.329, 384.024
465.665, 286.750
467.000, 266.292
468.335, 263.954
469.670, 242.724
471.005, 251.429
472.340, 258.981
473.674, 269.621
475.008, 345.545
476.342, 355.112
477.676, 436.949
479.009, 570.766
480.342, 684.636
481.676, 933.526
483.009, 1171.416
484.341, 1799.319
485.674, 2571.232
487.006, 3841.148
488.338, 5371.072
489.670, 6703.998
491.002, 7351.929
492.333, 6324.860
493.665, 4576.795
494.996, 3070.730
496.327, 2053.663
497.657, 1403.598
498.988, 1004.531
500.318, 793.463
501.648, 530.394
502.978, 430.323
504.308, 317.251
505.637, 238.178
506.967, 199.103
508.296, 157.027
509.625, 122.949
510.953, 112.870
512.282, 55.789
513.610, 32.707
514.938, 50.622
516.266, 2.536
517.594, 32.442
518.921, 1.654
520.249, 42.240
521.576, 37.132
522.903, 39.022
524.229, 32.909
525.556, 34.794
526.882, 4.675
528.208, 7.451
529.534, 30.591
530.860, 73.758
532.185, 40.974
533.511, 37.222
534.836, 73.502
536.161, 18.831
537.485, 47.180
538.810, 16.566
540.134, 45.972
541.458, 59.414
542.782, 21.899
544.106, 47.593
545.429, 88.082
546.753, 161.568
548.076, 251.051
549.399, 357.531
550.721, 592.008
552.044, 746.482
553.366, 859.953
554.688, 799.421
556.010, 702.886
557.332, 537.348
558.653, 440.806
559.975, 386.261
561.296, 352.714
562.617, 296.163
563.937, 223.608
565.258, 235.051
566.578, 156.489
567.898, 119.925
569.218, 134.356
570.538, 150.785
571.858, 160.209
573.177, 98.630
574.496, 143.047
575.815, 127.461
577.134, 202.872
578.452, 248.281
579.771, 236.693
581.089, 334.107
582.407, 421.519
583.724, 511.927
585.042, 694.337
586.359, 973.936
587.676, 1184.151
588.993, 1682.552
590.310, 2112.949
591.627, 2542.341
592.943, 2631.729
594.259, 2431.111
595.575, 2069.491
596.891, 1605.865
598.206, 1261.236
599.522, 940.601
600.837, 759.962
602.152, 630.490
603.467, 531.527
604.781, 406.725
606.096, 346.068
607.410, 286.646
608.724, 238.980
610.038, 199.309
611.351, 181.633
612.665, 94.951
613.978, 120.058
615.291, 166.663
616.604, 109.543
617.916, 116.948
619.229, 122.520
620.541, 73.564
621.853, 125.426
623.165, 74.800
624.476, 187.509
625.788, 112.673
627.099, 123.346
628.410, 169.981
629.721, 176.881
631.032, 198.494
632.342, 146.629
633.652, 175.045
634.962, 216.491
636.272, 159.258
637.582, 290.878
638.891, 290.638
640.201, 335.861
641.510, 351.287
642.818, 390.482
644.127, 497.697
645.436, 597.691
646.744, 704.872
648.052, 790.667
649.360, 914.830
650.668, 1094.113
651.975, 1287.258
653.282, 1467.395
654.590, 1730.838
655.896, 1858.956
657.203, 2039.066
658.510, 2163.166
659.816, 2555.258
661.122, 3053.340
662.428, 3833.413
663.734, 4824.478
665.039, 6148.533
666.345, 7753.580
667.650, 8780.618
668.955, 9317.644
670.260, 9004.664
671.564, 7951.639
672.869, 7053.642
674.173, 6037.194
675.477, 5381.136
676.781, 5161.380
678.084, 4698.343
679.388, 4956.273
680.691, 5165.202
681.994, 5738.094
683.297, 6695.984
684.599, 8299.466
685.902, 10935.181
687.204, 15069.417
688.506, 22170.926
689.808, 32084.471
691.109, 41818.223
692.411, 49749.688
693.712, 44944.578
695.013, 35297.660
696.314, 24342.645
697.615, 16015.777
698.915, 10968.051
700.216, 7762.665
701.516, 5691.490
702.816, 4557.311
704.115, 3541.124
705.415, 3003.932
706.714, 2478.734
708.013, 2028.529
709.312, 1728.320
710.611, 1352.104
711.910, 1254.882
713.208, 1068.655
714.506, 975.421
715.804, 770.182
717.102, 669.937
718.399, 687.687
719.697, 551.430
720.994, 506.168
722.291, 479.901
723.588, 384.628
724.884, 369.350
726.181, 385.066
727.477, 281.777
728.773, 269.482
730.069, 246.182
731.365, 233.876
732.660, 214.565
733.955, 224.249
735.250, 212.413
736.545, 214.591
737.840, 212.268
739.134, 213.931
740.429, 224.589
741.723, 210.949
743.017, 210.361
744.310, 221.531
745.604, 204.168
746.897, 180.800
748.190, 197.427
749.483, 81.049
750.776, 98.667
752.069, 77.279
753.361, 49.887
754.653, 84.490
755.945, 34.089
757.237, 18.682
758.529, 10.731
759.820, 13.577
761.111, 77.380
762.402, 14.921
763.693, 62.454
764.984, 118.982
766.274, 65.506
767.564, 46.027
768.854, 1.542
770.144, 11.046
771.434, 11.458
772.724, 16.018
774.013, 10.317
775.302, 31.047
776.591, 3.388
777.880, 5.188
779.168, 42.778
780.456, 50.402
781.745, 27.064
783.033, 42.751
784.320, 31.472
785.608, 4.779
786.895, 19.977
788.183, 24.754
789.470, 57.554
790.756, 15.394
792.043, 93.251
793.329, 64.167
794.616, 26.875
795.902, 44.087
797.188, 25.079
798.473, 10.093
799.759, 23.119
801.044, 35.835
802.329, 21.213
803.614, 9.721
804.899, 14.347
806.183, 41.572
807.467, 12.489
808.752, 1.596
810.036, 56.313
811.319, 82.221
812.603, 75.128
813.886, 156.033
815.169, 173.938
816.452, 246.841
817.735, 253.743
819.018, 367.645
820.300, 567.546
821.583, 660.447
822.865, 964.348
824.146, 1241.249
825.428, 1627.153
826.710, 2034.058
827.991, 2290.963
829.272, 2288.877
830.553, 1948.791
831.834, 1518.709
833.114, 1122.629
834.394, 804.550
835.675, 616.474
836.955, 462.399
838.234, 315.325
839.514, 226.259
840.793, 126.200
842.073, 94.154
843.352, 113.134
844.630, 90.130
845.909, 104.141
847.187, 88.178
848.466, 78.227
849.744, 28.294
851.022, 52.373
852.299, 28.470
853.577, 26.589
854.854, 45.447
856.131, 47.985
857.408, 88.995
858.685, 98.136
859.961, 142.280
861.238, 199.428
862.514, 255.578
863.790, 269.732
865.066, 287.890
866.341, 264.051
867.617, 270.215
868.892, 265.384
870.167, 311.556
871.442, 430.733
872.717, 532.913
873.991, 676.848
875.265, 853.305
876.540, 1043.499
877.813, 1241.696
879.087, 1505.898
880.361, 1585.105
881.634, 1717.316
882.907, 1680.532
884.180, 1610.753
885.453, 1505.979
886.726, 1352.209
887.998, 1271.445
889.270, 1144.686
890.542, 1135.931
891.814, 1025.183
893.086, 996.439
894.357, 1039.701
895.628, 1055.969
896.900, 1001.242
898.170, 1185.521
899.441, 1201.806
900.712, 1334.096
901.982, 1536.393
903.252, 1648.695
904.522, 1990.003
905.792, 2206.319
907.062, 2668.640
908.331, 3216.966
909.600, 3949.301
910.869, 5294.469
912.138, 6771.131
913.407, 8865.636
914.675, 11431.995
915.944, 14088.123
917.212, 16104.501
918.480, 15930.882
919.747, 14017.271
921.015, 11723.667
922.282, 9139.274
923.549, 7195.393
924.816, 5607.235
926.083, 4343.556
927.350, 3664.711
928.616, 2824.398
929.882, 2522.269
931.148, 2190.630
932.414, 1876.659
933.680, 1730.242
934.945, 1562.320
936.211, 1417.443
937.476, 1308.105
938.741, 1215.468
940.005, 1119.120
941.270, 1042.507
942.534, 966.869
943.799, 1044.913
945.063, 911.108
946.326, 880.168
947.590, 982.775
948.853, 899.182
950.117, 990.824
951.380, 906.452
952.643, 991.306
953.905, 969.976
955.168, 948.046
956.430, 955.751
957.692, 916.342
958.954, 824.073
960.216, 868.817
961.478, 788.272
962.739, 843.056
964.000, 783.854
965.261, 863.667
966.522, 816.492
967.783, 889.348
969.043, 940.217
970.303, 1170.210
971.563, 1218.112
972.823, 1365.025
974.083, 1718.111
975.343, 2054.053
976.602, 2562.872
977.861, 3166.860
979.120, 4215.906
980.379, 5487.223
981.638, 7461.249
982.896, 9938.287
984.154, 11625.466
985.412, 12292.558
986.670, 10910.163
987.928, 8857.293
989.185, 6764.459
990.443, 5068.411
991.700, 3745.604
992.957, 2921.817
994.214, 2219.045
995.470, 1807.300
996.727, 1444.569
997.983, 1121.852
999.239, 1052.169
1000.495, 835.561
1001.750, 669.907
1003.006, 624.269
1004.261, 541.646
1005.516, 443.052
1006.771, 399.126
1008.026, 319.993
1009.280, 286.391
1010.535, 217.870
1011.789, 164.368
1013.043, 159.880
1014.297, 162.404
1015.550, 138.962
1016.804, 99.533
1018.057, 73.116
1019.310, 117.714
1020.563, 35.326
1021.816, 135.950
1023.068, 49.588
1024.321, 1.762
1025.573, 106.900
1026.825, 60.575
1028.077, 63.263
1029.328, 61.965
1030.580, 12.678
1031.831, 94.404
1033.082, 7.143
1034.333, 17.893
1035.584, 104.656
1036.834, 30.431
1038.085, 34.218
1039.335, 6.018
1040.585, 62.829
1041.834, 94.653
1043.084, 89.489
1044.334, 78.337
1045.583, 156.197
1046.832, 115.069
1048.081, 188.953
1049.329, 147.850
1050.578, 204.758
1051.826, 279.680
1053.074, 277.620
1054.322, 395.571
1055.570, 462.535
1056.818, 461.512
1058.065, 595.500
1059.312, 624.500
1060.559, 794.510
1061.806, 895.534
1063.053, 1037.578
1064.299, 1368.640
1065.546, 1470.715
1066.792, 1952.803
1068.038, 2598.902
1069.284, 3181.011
1070.529, 4481.134
1071.775, 6293.265
1073.020, 9351.415
1074.265, 13779.575
1075.510, 18797.754
1076.754, 22735.949
1077.999, 22584.152
1079.243, 17282.377
1080.487, 12510.619
1081.731, 8308.878
1082.975, 5565.018
1084.219, 3991.329
1085.462, 2899.662
1086.705, 2204.656
1087.948, 1727.036
1089.191, 1272.502
1090.434, 1122.914
1091.676, 880.345
1092.919, 705.804
1094.161, 678.675
1095.403, 494.188
1096.645, 461.301
1097.886, 407.853
1099.128, 334.429
1100.369, 312.720
1101.610, 292.329
1102.851, 195.161
1104.091, 235.707
1105.332, 191.454
1106.572, 140.305
1107.812, 194.979
1109.052, 78.703
1110.292, 149.468
1111.532, 51.170
1112.771, 82.418
1114.010, 99.160
1115.249, 27.885
1116.488, 8.821
1117.727, 77.561
1118.966, 9.668
1120.204, 8.138
1121.442, 17.896
1122.680, 12.329
1123.918, 48.799
1125.155, 39.421
1126.393, 1.499
1127.630, 5.643
1128.867, 51.816
1130.104, 62.555
1131.341, 11.434
1132.577, 9.565
1133.814, 63.597
1135.050, 24.599
1136.286, 20.598
1137.522, 1.141
1138.757, 33.327
1139.993, 59.110
1141.228, 12.480
1142.463, 11.732
1143.698, 20.728
1144.933, 32.554
1146.167, 35.839
1147.402, 42.364
1148.636, 3.707
1149.870, 77.875
1151.104, 58.369
1152.338, 27.722
1153.571, 130.623
1154.804, 32.590
1156.037, 96.976
1157.270, 143.246
1158.503, 67.183
1159.736, 221.366
1160.968, 129.463
1162.200, 214.321
1163.432, 191.256
1164.664, 238.156
1165.896, 297.015
1167.127, 297.275
1168.359, 274.333
1169.590, 386.415
1170.821, 347.366
1172.052, 309.224
1173.282, 402.123
1174.513, 301.060
1175.743, 336.917
1176.973, 323.121
1178.203, 293.975
1179.433, 245.828
1180.662, 213.680
1181.892, 205.531
1183.121, 185.380
1184.350, 113.227
1185.579, 200.073
1186.807, 120.916
1188.036, 135.757
1189.264, 178.596
1190.492, 125.433
1191.720, 184.269
1192.948, 192.157
1194.176, 169.031
1195.403, 265.859
1196.630, 235.808
1197.857, 315.631
1199.084, 400.770
1200.311, 380.069
1201.537, 501.882
1202.764, 512.801
1203.990, 533.815
1205.216, 567.616
1206.442, 563.413
1207.667, 433.206
1208.893, 468.994
1210.118, 345.828
1211.343, 328.607
1212.568, 368.382
1213.793, 221.152
1215.017, 234.917
1216.242, 184.740
1217.466, 149.494
1218.690, 184.243
1219.914, 103.287
1221.137, 183.025
1222.361, 95.756
1223.584, 50.482
1224.807, 118.202
1226.030, 145.917
1227.253, 56.625
1228.476, 175.326
1229.698, 3.738
1230.920, 180.942
1232.142, 101.615
1233.364, 1.280
1234.586, 109.931
1235.808, 22.575
1237.029, 51.210
1238.250, 78.838
1239.471, 69.457
1240.692, 9.072
1241.913, 81.674
1243.133, 9.726
1244.353, 108.859
1245.574, 88.431
1246.794, 5.997
1248.013, 56.557
1249.233, 19.098
1250.452, 12.370
1251.672, 34.130
1252.891, 22.624
1254.110, 65.107
1255.328, 50.583
1256.547, 28.636
1257.765, 125.814
1258.983, 15.241
1260.201, 59.731
1261.419, 80.098
1262.637, 44.544
1263.854, 86.757
1265.072, 64.031
1266.289, 7.266
1267.506, 78.493
1268.723, 70.705
1269.939, 26.833
1271.156, 103.024
1272.372, 43.292
1273.588, 59.649
1274.804, 68.662
1276.020, 32.595
1277.235, 56.721
1278.451, 38.744
1279.666, 75.954
1280.881, 101.021
1282.096, 12.514
1283.310, 27.253
1284.525, 84.161
1285.739, 47.715
1286.953, 1.534
1288.167, 29.402
1289.381, 23.743
1290.595, 121.189
1291.808, 30.006
1293.022, 47.203
1294.235, 66.556
1295.448, 21.238
1296.660, 24.709
1297.873, 30.422
1299.085, 35.819
1300.298, 65.357
1301.510, 42.988
1302.722, 36.632
1303.933, 75.259
1305.145, 9.850
1306.356, 50.422
1307.567, 139.976
1308.778, 50.483
1309.989, 88.023
1311.200, 115.515
1312.410, 40.992
1313.621, 58.453
1314.831, 55.898
1316.041, 78.328
1317.250, 150.762
1318.460, 87.161
1319.670, 82.546
1320.879, 126.911
1322.088, 47.262
1323.297, 224.594
1324.506, 136.912
1325.714, 134.215
1326.922, 173.503
1328.131, 141.766
1329.339, 134.012
1330.547, 138.245
1331.754, 116.462
1332.962, 178.661
1334.169, 146.836
1335.376, 109.998
1336.583, 158.675
1337.790, 94.803
1338.997, 97.917
1340.203, 130.154
1341.410, 79.228
1342.616, 119.278
1343.822, 55.314
1345.028, 12.334
1346.233, 165.332
1347.439, 83.420
1348.644, 67.387
1349.849, 158.339
1351.054, 169.274
1352.259, 194.194
1353.463, 211.187
1354.668, 98.990
1355.872, 196.864
1357.076, 141.724
1358.280, 115.568
1359.483, 238.398
1360.687, 96.199
1361.890, 151.985
1363.094, 201.752
1364.297, 59.505
1365.499, 207.242
1366.702, 153.961
1367.905, 134.665
1369.107, 205.354
1370.309, 130.338
1371.511, 123.999
1372.713, 229.646
1373.914, 66.280
1375.116, 158.042
1376.317, 164.653
1377.518, 116.223
1378.719, 115.142
1379.920, 148.687
1381.121, 114.133
1382.321, 242.636
1383.521, 131.130
1384.721, 152.539
1385.921, 229.729
1387.121, 129.483
1388.321, 220.499
1389.520, 255.001
1390.719, 171.375
1391.918, 237.985
1393.117, 226.325
1394.316, 216.302
1395.514, 250.276
1396.713, 174.750
1397.911, 203.063
1399.109, 273.106
1400.307, 56.375
1401.505, 116.665
1402.702, 245.828
1403.899, 74.518
1405.097, 147.959
1406.294, 141.634
1407.490, 117.406
1408.687, 177.132
1409.884, 69.609
1411.080, 130.690
1412.276, 141.867
1413.472, 2.979
1414.668, 61.828
1415.863, 171.891
1417.059, 28.521
1418.254, 164.448
1419.449, 108.925
1420.644, 21.622
1421.839, 183.662
1423.033, 14.021
1424.228, 126.323
1425.422, 140.216
1426.616, 1.571
1427.810, 64.898
1429.004, 98.199
1430.197, 15.474
1431.391, 129.722
1432.584, 63.854
1433.777, 37.973
1434.970, 219.936
1436.163, 74.208
1437.355, 89.090
1438.548, 134.777
1439.740, 0.770
1440.932, 177.650
1442.124, 42.582
1443.315, 5.482
1444.507, 126.241
1445.698, 140.545
1446.889, 49.343
1448.080, 177.109
1449.271, 100.837
1450.462, 105.079
1451.652, 182.748
1452.843, 90.389
1454.033, 196.003
1455.223, 110.583
1456.413, 141.115
1457.602, 131.586
1458.792, 138.026
1459.981, 41.415
1461.170, 207.805
1462.359, 99.166
1463.548, 157.754
1464.737, 218.997
1465.925, 113.128
1467.113, 77.543
1468.302, 178.864
1469.490, 92.464
1470.677, 252.246
1471.865, 134.298
1473.052, 66.161
1474.240, 189.244
1475.427, 62.887
1476.614, 44.271
1477.800, 181.939
1478.987, 5.524
1480.173, 191.728
1481.360, 155.297
1482.546, 3.883
1483.732, 137.948
1484.917, 104.440
1486.103, 49.826
1487.288, 148.105
1488.474, 25.443
1489.659, 1.761
1490.844, 153.052
1492.028, 50.319
1493.213, 97.485
1494.397, 132.712
