##NAMES=Datolite
##RRUFFID=R050033
##IDEAL CHEMISTRY=CaB(SiO_4_)(OH)
##LOCALITY=Westfield, Massachusetts, USA
##OWNER=RRUFF
##SOURCE=University of Arizona Mineral Museum
##DESCRIPTION=Group of pale green single crystals
##STATUS=The identification of this mineral has been confirmed by X-ray diffraction and chemical analysis
##URL=rruff.info/R050033
##MEASURED CHEMISTRY=Ca_1.00_B_1.00_Si_1.00_O_4_(OH) ; trace amounts of Al and Na; B measured and corrected according to stoichiometry;  OH estimated by stoichiometry end charge balance
##PIN_ID=L00153
##ORIENTATION=Laser parallel to -a* (-1 0 0). Fiducial mark perpendicular to laser is parallel to -b [0 -1 0]
52.937, 0.000
54.335, 66.321
55.734, 11.982
57.132, 20.518
58.530, 1.675
59.927, 107.304
61.325, 52.915
62.722, 95.612
64.119, 119.384
65.515, 51.545
66.912, 65.035
68.308, 78.522
69.704, 106.330
71.100, 147.880
72.496, 180.514
73.891, 244.725
75.287, 294.786
76.682, 342.440
78.076, 429.607
79.471, 427.571
80.865, 490.258
82.260, 546.045
83.653, 550.229
85.047, 495.309
86.441, 403.853
87.834, 375.724
89.227, 303.136
90.620, 244.335
92.013, 186.892
93.405, 150.191
94.797, 139.368
96.189, 110.977
97.581, 58.032
98.973, 94.006
100.364, 60.658
101.755, 26.864
103.146, 47.448
104.537, 31.275
105.927, 30.168
107.318, 17.268
108.708, 26.897
110.098, 30.865
111.487, 29.479
112.877, 7.130
114.266, 11.537
115.655, 5.045
117.044, 2.009
118.432, 5.829
119.821, 13.861
121.209, 7.731
122.597, 14.624
123.984, 3.113
125.372, 5.822
126.759, 4.535
128.146, 94.329
129.533, 42.360
130.920, 130.923
132.306, 261.598
133.692, 264.215
135.078, 324.777
136.464, 192.317
137.850, 81.901
139.235, 13.500
140.620, 5.115
142.005, 21.745
143.390, 35.384
144.774, 89.624
146.159, 211.977
147.543, 417.770
148.927, 772.273
150.310, 1147.748
151.694, 1804.835
153.077, 2312.999
154.460, 2539.470
155.843, 1863.561
157.226, 1334.467
158.608, 1042.958
159.990, 1264.348
161.372, 1844.978
162.754, 2831.587
164.135, 3833.169
165.517, 4433.727
166.898, 3974.257
168.279, 2393.753
169.659, 1409.211
171.040, 1084.625
172.420, 1265.002
173.800, 1831.349
175.180, 2713.679
176.560, 3752.998
177.939, 4032.310
179.318, 3255.603
180.697, 1854.868
182.076, 907.112
183.455, 478.344
184.833, 250.565
186.211, 175.773
187.589, 186.966
188.967, 185.144
190.344, 341.306
191.722, 428.453
193.099, 470.585
194.475, 296.702
195.852, 182.804
197.229, 85.892
198.605, 62.970
199.981, 81.048
201.357, 43.279
202.732, 59.833
204.108, 14.518
205.483, 86.170
206.858, 101.700
208.233, 182.991
209.607, 348.165
210.981, 623.313
212.356, 1142.431
213.730, 1989.530
215.103, 3418.614
216.477, 5158.682
217.850, 6908.734
219.223, 7133.556
220.596, 4809.606
221.969, 2686.877
223.341, 1402.154
224.713, 774.972
226.085, 479.370
227.457, 425.580
228.829, 457.846
230.200, 417.047
231.571, 425.031
232.942, 317.994
234.313, 187.935
235.684, 107.864
237.054, 14.720
238.424, 8.505
239.794, 15.779
241.164, 13.130
242.533, 35.442
243.902, 20.799
245.272, 36.190
246.640, 41.601
248.009, 10.951
249.378, 9.536
250.746, 15.152
252.114, 16.901
253.482, 22.460
254.849, 8.615
256.217, 21.436
257.584, 3.539
258.951, 6.906
260.318, 38.655
261.684, 63.053
263.051, 49.178
264.417, 99.420
265.783, 159.504
267.148, 260.343
268.514, 419.326
269.879, 545.165
271.244, 787.949
272.609, 928.592
273.974, 1047.294
275.338, 888.004
276.703, 769.679
278.067, 613.084
279.431, 530.529
280.794, 598.854
282.158, 781.908
283.521, 1095.205
284.884, 1619.473
286.247, 2702.106
287.609, 4374.471
288.972, 6691.360
290.334, 9667.059
291.696, 11446.215
293.058, 11636.008
294.419, 8945.511
295.781, 5817.410
297.142, 3731.452
298.503, 2349.482
299.864, 1633.501
301.224, 1200.507
302.584, 979.141
303.945, 755.287
305.304, 647.303
306.664, 533.521
308.024, 461.842
309.383, 440.443
310.742, 390.346
312.101, 360.200
313.460, 356.996
314.818, 351.724
316.176, 351.412
317.534, 357.055
318.892, 448.661
320.250, 430.226
321.607, 536.764
322.964, 680.319
324.321, 891.830
325.678, 1312.334
327.035, 1886.831
328.391, 2818.320
329.747, 3594.801
331.103, 4272.274
332.459, 4444.740
333.815, 3926.200
335.170, 3066.652
336.525, 2008.099
337.880, 1266.538
339.235, 779.079
340.589, 505.717
341.944, 339.404
343.298, 229.032
344.652, 204.714
346.005, 173.505
347.359, 126.753
348.712, 122.520
350.065, 96.981
351.418, 101.953
352.771, 98.098
354.123, 85.749
355.475, 130.757
356.828, 89.302
358.179, 161.960
359.531, 142.339
360.882, 177.445
362.234, 196.365
363.585, 165.358
364.936, 190.028
366.286, 167.775
367.637, 204.085
368.987, 228.999
370.337, 274.968
371.687, 408.238
373.036, 559.610
374.386, 873.853
375.735, 1201.089
377.084, 1691.318
378.432, 1924.540
379.781, 1880.756
381.129, 1535.964
382.478, 1062.149
383.825, 817.316
385.173, 655.466
386.521, 580.600
387.868, 710.719
389.215, 754.822
390.562, 986.909
391.909, 1035.980
393.255, 982.034
394.602, 825.074
395.948, 584.098
397.294, 431.108
398.639, 260.771
399.985, 198.758
401.330, 142.618
402.675, 136.134
404.020, 104.802
405.365, 90.056
406.709, 74.637
408.054, 54.395
409.398, 23.222
410.742, 50.959
412.085, 10.226
413.429, 42.194
414.772, 15.506
416.115, 38.395
417.458, 56.058
418.800, 55.034
420.143, 110.103
421.485, 138.957
422.827, 227.973
424.169, 234.185
425.511, 227.279
426.852, 208.631
428.193, 127.230
429.534, 166.933
430.875, 97.630
432.216, 106.322
433.556, 147.008
434.896, 157.689
436.236, 214.365
437.576, 217.036
438.916, 290.702
440.255, 319.364
441.594, 384.022
442.933, 491.677
444.272, 486.329
445.611, 677.978
446.949, 770.628
448.287, 1051.277
449.625, 1533.923
450.963, 2193.568
452.300, 3342.211
453.638, 5027.852
454.975, 7490.508
456.312, 9804.138
457.649, 10902.771
458.985, 10011.477
460.321, 7362.103
461.658, 4829.725
462.994, 3076.345
464.329, 2011.962
465.665, 1386.577
467.000, 1007.191
468.335, 727.802
469.670, 543.412
471.005, 442.026
472.340, 347.636
473.674, 253.256
475.008, 207.647
476.342, 189.484
477.676, 135.097
479.009, 125.713
480.342, 95.339
481.676, 89.964
483.009, 68.590
484.341, 114.234
485.674, 126.874
487.006, 180.532
488.338, 341.192
489.670, 368.848
491.002, 375.002
492.333, 391.174
493.665, 288.841
494.996, 200.503
496.327, 83.165
497.657, 73.837
498.988, 44.508
500.318, 19.185
501.648, 5.858
502.978, 17.476
504.308, 3.184
505.637, 36.164
506.967, 43.537
508.296, 20.055
509.625, 48.609
510.953, 8.311
512.282, 75.002
513.610, 18.770
514.938, 24.607
516.266, 49.279
517.594, 1.165
518.921, 31.752
520.249, 7.552
521.576, 21.939
522.903, 26.323
524.229, 39.906
525.556, 53.082
526.882, 42.459
528.208, 41.835
529.534, 42.208
530.860, 49.578
532.185, 27.944
533.511, 119.304
534.836, 63.661
536.161, 130.013
537.485, 114.362
538.810, 130.706
540.134, 273.047
541.458, 274.383
542.782, 411.716
544.106, 528.045
545.429, 758.370
546.753, 1125.692
548.076, 1578.010
549.399, 2357.323
550.721, 3356.635
552.044, 4446.942
553.366, 5245.245
554.688, 4936.546
556.010, 4251.843
557.332, 3083.137
558.653, 2189.429
559.975, 1609.723
561.296, 1181.017
562.617, 948.302
563.937, 646.471
565.258, 492.606
566.578, 385.696
567.898, 293.729
569.218, 266.632
570.538, 138.695
571.858, 120.709
573.177, 112.768
574.496, 50.561
575.815, 74.643
577.134, 30.807
578.452, 69.987
579.771, 69.403
581.089, 45.825
582.407, 54.248
583.724, 60.672
585.042, 132.096
586.359, 205.520
587.676, 297.942
588.993, 513.363
590.310, 627.765
591.627, 811.182
592.943, 943.597
594.259, 864.011
595.575, 760.422
596.891, 594.833
598.206, 519.241
599.522, 381.648
600.837, 358.053
602.152, 325.456
603.467, 206.858
604.781, 192.258
606.096, 143.656
607.410, 106.052
608.724, 119.447
610.038, 53.840
611.351, 77.232
612.665, 20.621
613.978, 47.009
615.291, 66.333
616.604, 7.922
617.916, 74.401
619.229, 28.781
620.541, 64.603
621.853, 132.134
623.165, 71.508
624.476, 168.438
625.788, 131.808
627.099, 149.435
628.410, 222.977
629.721, 129.756
631.032, 209.523
632.342, 182.883
633.652, 187.488
634.962, 225.607
636.272, 151.561
637.582, 231.446
638.891, 209.430
640.201, 257.095
641.510, 315.606
642.818, 365.028
644.127, 427.513
645.436, 441.232
646.744, 549.713
648.052, 618.569
649.360, 686.616
650.668, 942.827
651.975, 990.143
653.282, 1239.178
654.590, 1351.121
655.896, 1335.672
657.203, 1423.677
658.510, 1299.055
659.816, 1374.082
661.122, 1415.142
662.428, 1488.154
663.734, 1646.044
665.039, 1736.469
666.345, 1943.363
667.650, 2032.463
668.955, 1977.091
670.260, 2067.533
671.564, 1792.505
672.869, 1756.111
674.173, 1833.170
675.477, 1851.108
676.781, 2156.270
678.084, 2361.296
679.388, 2819.382
680.691, 3352.486
681.994, 4165.648
683.297, 5480.864
684.599, 7167.036
685.902, 10132.206
687.204, 14610.379
688.506, 21998.580
689.808, 33616.691
691.109, 44524.930
692.411, 55323.152
693.712, 52731.395
695.013, 42169.613
696.314, 30927.840
697.615, 20156.068
698.915, 14224.285
700.216, 10082.505
701.516, 7234.723
702.816, 5934.938
704.115, 4488.152
705.415, 3847.364
706.714, 3201.574
708.013, 2571.783
709.312, 2315.990
710.611, 2102.195
711.910, 1719.615
713.208, 1449.600
714.506, 1235.801
715.804, 1124.000
717.102, 965.199
718.399, 874.396
719.697, 750.591
720.994, 674.786
722.291, 634.980
723.588, 527.173
724.884, 480.370
726.181, 492.566
727.477, 394.769
728.773, 409.977
730.069, 328.186
731.365, 334.403
732.660, 340.620
733.955, 293.816
735.250, 325.036
736.545, 290.257
737.840, 331.489
739.134, 407.719
740.429, 371.954
741.723, 476.188
743.017, 410.421
744.310, 344.664
745.604, 359.905
746.897, 234.144
748.190, 243.382
749.483, 170.618
750.776, 110.853
752.069, 117.086
753.361, 60.318
754.653, 105.548
755.945, 63.777
757.237, 59.004
758.529, 80.230
759.820, 20.455
761.111, 103.678
762.402, 39.900
763.693, 56.121
764.984, 73.341
766.274, 58.559
767.564, 67.776
768.854, 37.972
770.144, 21.813
771.434, 8.383
772.724, 8.501
774.013, 35.680
775.302, 14.140
776.591, 10.025
777.880, 45.188
779.168, 0.349
780.456, 25.504
781.745, 6.658
783.033, 26.192
784.320, 2.938
785.608, 45.937
786.895, 33.156
788.183, 11.750
789.470, 3.670
790.756, 17.598
792.043, 48.541
793.329, 1.515
794.616, 13.497
795.902, 75.491
797.188, 11.469
798.473, 73.573
799.759, 16.658
801.044, 8.243
802.329, 33.859
803.614, 3.983
804.899, 24.115
806.183, 16.736
807.467, 4.413
808.752, 52.568
810.036, 4.244
811.319, 39.946
812.603, 2.839
813.886, 73.622
815.169, 27.593
816.452, 71.181
817.735, 30.956
819.018, 41.743
820.300, 142.543
821.583, 112.351
822.865, 204.173
824.146, 235.001
825.428, 257.850
826.710, 380.707
827.991, 339.572
829.272, 354.453
830.553, 371.337
831.834, 233.232
833.114, 202.130
834.394, 129.029
835.675, 126.932
836.955, 91.837
838.234, 38.743
839.514, 136.652
840.793, 74.563
842.073, 100.477
843.352, 162.394
844.630, 92.313
845.909, 137.235
847.187, 132.159
848.466, 195.086
849.744, 197.016
851.022, 209.948
852.299, 244.883
853.577, 252.822
854.854, 335.763
856.131, 377.708
857.408, 314.656
858.685, 441.608
859.961, 519.563
861.238, 540.522
862.514, 705.484
863.790, 754.450
865.066, 900.420
866.341, 964.394
867.617, 1107.372
868.892, 1297.354
870.167, 1413.509
871.442, 1789.499
872.717, 2195.493
873.991, 2578.492
875.265, 3257.494
876.540, 3791.502
877.813, 4537.266
879.087, 5369.283
880.361, 5378.700
881.634, 5674.727
882.907, 5522.133
884.180, 4983.685
885.453, 4501.723
886.726, 3850.646
887.998, 3418.914
889.270, 2916.337
890.542, 2428.173
891.814, 2296.233
893.086, 1890.594
894.357, 1820.033
895.628, 1710.109
896.900, 1500.743
898.170, 1536.828
899.441, 1455.916
900.712, 1546.010
901.982, 1633.108
903.252, 1620.211
904.522, 1939.319
905.792, 2043.432
907.062, 2324.550
908.331, 2755.673
909.600, 3131.801
910.869, 4166.933
912.138, 5263.073
913.407, 6698.216
914.675, 8750.365
915.944, 10628.521
917.212, 12516.678
918.480, 12514.843
919.747, 10903.017
921.015, 9661.189
922.282, 7421.375
923.549, 5958.625
924.816, 4800.615
926.083, 3678.718
927.350, 3438.924
928.616, 2882.692
929.882, 2767.757
931.148, 2779.983
932.414, 2719.658
933.680, 2829.897
934.945, 2813.884
936.211, 2652.959
937.476, 2616.804
938.741, 2306.665
940.005, 2195.939
941.270, 2085.972
942.534, 1765.496
943.799, 1780.192
945.063, 1552.960
946.326, 1432.635
947.590, 1515.635
948.853, 1309.763
950.117, 1413.017
951.380, 1327.303
952.643, 1292.181
953.905, 1339.393
955.168, 1140.235
956.430, 1190.893
957.692, 1069.396
958.954, 948.800
960.216, 996.490
961.478, 885.284
962.739, 838.476
964.000, 895.113
965.261, 774.278
966.522, 866.748
967.783, 827.243
969.043, 838.734
970.303, 1090.236
971.563, 1028.749
972.823, 1267.273
974.083, 1405.807
975.343, 1588.352
976.602, 2052.907
977.861, 2460.473
979.120, 3271.050
980.379, 4323.638
981.638, 5661.237
982.896, 7575.845
984.154, 8982.481
985.412, 9491.131
986.670, 8859.791
987.928, 7111.476
989.185, 5486.171
990.443, 4131.876
991.700, 2993.613
992.957, 2399.361
994.214, 1721.128
995.470, 1434.918
996.727, 1149.718
997.983, 848.542
999.239, 780.378
1000.495, 602.226
1001.750, 540.106
1003.006, 525.997
1004.261, 377.906
1005.516, 347.850
1006.771, 207.806
1008.026, 115.778
1009.280, 200.769
1010.535, 149.771
1011.789, 156.801
1013.043, 117.844
1014.297, 47.898
1015.550, 110.979
1016.804, 58.071
1018.057, 24.174
1019.310, 81.288
1020.563, 9.586
1021.816, 68.549
1023.068, 43.695
1024.321, 6.852
1025.573, 49.021
1026.825, 24.201
1028.077, 29.608
1029.328, 41.587
1030.580, 46.207
1031.831, 43.997
1033.082, 17.788
1034.333, 22.566
1035.584, 33.661
1036.834, 33.100
1038.085, 11.859
1039.335, 17.608
1040.585, 76.349
1041.834, 29.895
1043.084, 43.847
1044.334, 17.589
1045.583, 50.675
1046.832, 72.049
1048.081, 38.215
1049.329, 16.490
1050.578, 49.776
1051.826, 76.074
1053.074, 23.385
1054.322, 132.707
1055.570, 134.042
1056.818, 100.386
1058.065, 177.742
1059.312, 147.109
1060.559, 238.487
1061.806, 340.875
1063.053, 295.278
1064.299, 495.691
1065.546, 569.116
1066.792, 754.550
1068.038, 1074.996
1069.284, 1311.456
1070.529, 1888.927
1071.775, 2775.409
1073.020, 3871.902
1074.265, 6419.413
1075.510, 8839.936
1076.754, 11159.476
1077.999, 11879.027
1079.243, 9268.597
1080.487, 6976.174
1081.731, 4807.764
1082.975, 3198.368
1084.219, 2418.981
1085.462, 1699.607
1086.705, 1352.255
1087.948, 1142.915
1089.191, 794.607
1090.434, 769.311
1091.676, 650.030
1092.919, 529.764
1094.161, 569.515
1095.403, 406.292
1096.645, 448.082
1097.886, 438.888
1099.128, 351.727
1100.369, 394.576
1101.610, 360.457
1102.851, 351.355
1104.091, 366.264
1105.332, 254.194
1106.572, 302.693
1107.812, 359.654
1109.052, 240.626
1110.292, 307.759
1111.532, 275.770
1112.771, 302.793
1114.010, 311.837
1115.249, 214.892
1116.488, 295.043
1117.727, 317.126
1118.966, 216.230
1120.204, 331.332
1121.442, 338.441
1122.680, 329.560
1123.918, 402.687
1125.155, 313.823
1126.393, 440.967
1127.630, 436.120
1128.867, 410.323
1130.104, 524.572
1131.341, 491.751
1132.577, 536.810
1133.814, 661.563
1135.050, 576.766
1136.286, 678.974
1137.522, 735.215
1138.757, 753.447
1139.993, 887.321
1141.228, 872.568
1142.463, 957.005
1143.698, 1102.710
1144.933, 1086.983
1146.167, 1239.915
1147.402, 1284.928
1148.636, 1369.220
1149.870, 1685.384
1151.104, 1640.690
1152.338, 1807.407
1153.571, 2134.600
1154.804, 2102.922
1156.037, 2587.500
1157.270, 2682.604
1158.503, 2934.940
1159.736, 3563.096
1160.968, 3691.867
1162.200, 4305.243
1163.432, 4724.285
1164.664, 5106.642
1165.896, 5964.001
1167.127, 6490.374
1168.359, 7152.740
1169.590, 8219.141
1170.821, 8389.514
1172.052, 9219.889
1173.282, 9500.422
1174.513, 8970.805
1175.743, 8791.190
1176.973, 7810.826
1178.203, 6819.217
1179.433, 6041.214
1180.662, 4822.609
1181.892, 4131.632
1183.121, 3478.518
1184.350, 2792.922
1185.579, 2597.448
1186.807, 2038.999
1188.036, 1765.039
1189.264, 1663.674
1190.492, 1350.826
1191.720, 1305.948
1192.948, 1190.999
1194.176, 985.470
1195.403, 1115.338
1196.630, 907.959
1197.857, 878.385
1199.084, 969.882
1200.311, 870.946
1201.537, 1008.376
1202.764, 976.062
1203.990, 891.494
1205.216, 877.928
1206.442, 875.440
1207.667, 748.875
1208.893, 777.326
1210.118, 652.491
1211.343, 618.927
1212.568, 588.368
1213.793, 469.809
1215.017, 474.250
1216.242, 420.675
1217.466, 332.115
1218.690, 360.556
1219.914, 296.997
1221.137, 299.437
1222.361, 247.876
1223.584, 222.480
1224.807, 306.918
1226.030, 198.379
1227.253, 174.816
1228.476, 218.250
1229.698, 126.684
1230.920, 165.117
1232.142, 227.548
1233.364, 83.550
1234.586, 161.978
1235.808, 153.827
1237.029, 116.530
1238.250, 193.952
1239.471, 111.383
1240.692, 90.805
1241.913, 84.230
1243.133, 20.657
1244.353, 148.086
1245.574, 86.518
1246.794, 11.948
1248.013, 114.380
1249.233, 38.808
1250.452, 57.237
1251.672, 92.667
1252.891, 2.903
1254.110, 89.526
1255.328, 64.956
1256.547, 11.285
1257.765, 115.141
1258.983, 58.566
1260.201, 38.984
1261.419, 54.372
1262.637, 9.759
1263.854, 93.398
1265.072, 14.735
1266.289, 50.056
1267.506, 64.372
1268.723, 23.714
1269.939, 56.226
1271.156, 92.463
1272.372, 27.686
1273.588, 61.387
1274.804, 18.560
1276.020, 16.737
1277.235, 77.644
1278.451, 49.197
1279.666, 4.062
1280.881, 67.297
1282.096, 34.576
1283.310, 29.557
1284.525, 71.662
1285.739, 59.208
1286.953, 57.243
1288.167, 19.692
1289.381, 23.641
1290.595, 79.957
1291.808, 26.015
1293.022, 5.353
1294.235, 69.349
1295.448, 60.661
1296.660, 85.085
1297.873, 4.963
1299.085, 76.023
1300.298, 81.128
1301.510, 1.977
1302.722, 10.093
1303.933, 56.776
1305.145, 42.363
1306.356, 16.476
1307.567, 43.305
1308.778, 39.872
1309.989, 103.923
1311.200, 77.696
1312.410, 50.461
1313.621, 143.219
1314.831, 28.969
1316.041, 67.711
1317.250, 100.445
1318.460, 33.169
1319.670, 143.884
1320.879, 118.587
1322.088, 83.279
1323.297, 182.966
1324.506, 61.640
1325.714, 127.311
1326.922, 146.996
1328.131, 86.649
1329.339, 100.293
1330.547, 89.929
1331.754, 24.553
1332.962, 167.166
1334.169, 62.749
1335.376, 12.335
1336.583, 140.000
1337.790, 65.545
1338.997, 51.078
1340.203, 114.619
1341.410, 36.133
1342.616, 103.631
1343.822, 49.119
1345.028, 16.596
1346.233, 110.059
1347.439, 33.511
1348.644, 69.951
1349.849, 123.380
1351.054, 49.798
1352.259, 126.204
1353.463, 63.598
1354.668, 14.981
1355.872, 155.348
1357.076, 94.568
1358.280, 74.911
1359.483, 160.242
1360.687, 9.561
1361.890, 142.864
1363.094, 137.157
1364.297, 102.441
1365.499, 150.716
1366.702, 92.983
1367.905, 44.241
1369.107, 185.490
1370.309, 65.732
1371.511, 109.925
1372.713, 205.107
1373.914, 77.279
1375.116, 80.442
1376.317, 147.592
1377.518, 22.731
1378.719, 129.861
1379.920, 1.989
1381.121, 37.111
1382.321, 167.242
1383.521, 70.400
1384.721, 117.603
1385.921, 176.799
1387.121, 90.989
1388.321, 151.170
1389.520, 167.344
1390.719, 112.924
1391.918, 171.077
1393.117, 100.988
1394.316, 98.109
1395.514, 199.127
1396.713, 96.215
1397.911, 106.308
1399.109, 197.392
1400.307, 42.468
1401.505, 151.486
1402.702, 140.449
1403.899, 78.329
1405.097, 161.785
1406.294, 93.690
1407.490, 38.038
1408.687, 113.272
1409.884, 73.787
1411.080, 80.608
1412.276, 51.216
1413.472, 21.627
1414.668, 103.537
1415.863, 92.729
1417.059, 5.632
1418.254, 73.094
1419.449, 43.394
1420.644, 1.331
1421.839, 154.671
1423.033, 23.715
1424.228, 25.951
1425.422, 72.171
1426.616, 21.623
1427.810, 56.567
1429.004, 39.742
1430.197, 7.364
1431.391, 117.395
1432.584, 80.502
1433.777, 14.483
1434.970, 106.286
1436.163, 7.227
1437.355, 111.844
1438.548, 92.848
1439.740, 2.294
1440.932, 127.433
1442.124, 69.363
1443.315, 12.269
1444.507, 162.443
1445.698, 75.291
1446.889, 93.120
1448.080, 174.630
1449.271, 115.375
1450.462, 108.146
1451.652, 160.898
1452.843, 43.520
1454.033, 216.853
1455.223, 127.452
1456.413, 83.020
1457.602, 177.525
1458.792, 146.970
1459.981, 120.365
1461.170, 200.704
1462.359, 36.972
1463.548, 144.415
1464.737, 180.514
1465.925, 68.640
1467.113, 144.147
1468.302, 150.451
1469.490, 24.673
1470.677, 165.575
1471.865, 93.911
1473.052, 77.659
1474.240, 149.363
1475.427, 78.405
1476.614, 88.205
1477.800, 150.563
1478.987, 3.852
1480.173, 95.369
1481.360, 107.437
1482.546, 9.604
1483.732, 79.106
1484.917, 28.292
1486.103, 28.284
1487.288, 152.221
1488.474, 10.102
1489.659, 29.935
1490.844, 143.843
1492.028, 13.696
1493.213, 56.497
1494.397, 90.249
