##NAMES=Datolite
##RRUFFID=R050033
##IDEAL CHEMISTRY=CaB(SiO_4_)(OH)
##LOCALITY=Westfield, Massachusetts, USA
##OWNER=RRUFF
##SOURCE=University of Arizona Mineral Museum
##DESCRIPTION=Group of pale green single crystals
##STATUS=The identification of this mineral has been confirmed by X-ray diffraction and chemical analysis
##URL=rruff.info/R050033
##MEASURED CHEMISTRY=Ca_1.00_B_1.00_Si_1.00_O_4_(OH) ; trace amounts of Al and Na; B measured and corrected according to stoichiometry;  OH estimated by stoichiometry end charge balance
##PIN_ID=L00095
##ORIENTATION=Laser parallel to -b* (0 -1 0). Fiducial mark perpendicular to laser is parallel to c [0 0 1]
52.937, 0.000
54.335, 1.305
55.734, 20.478
57.132, 24.790
58.530, 2.862
59.927, 11.581
61.325, 17.543
62.722, 37.075
64.119, 29.504
65.515, 33.444
66.912, 18.189
68.308, 17.560
69.704, 17.515
71.100, 23.300
72.496, 9.748
73.891, 19.112
75.287, 17.079
76.682, 22.954
78.076, 37.927
79.471, 6.828
80.865, 23.927
82.260, 6.561
83.653, 1.658
85.047, 16.196
86.441, 3.454
87.834, 4.564
89.227, 14.265
90.620, 0.090
92.013, 19.163
93.405, 27.256
94.797, 1.754
96.189, 1.139
97.581, 16.947
98.973, 12.678
100.364, 24.342
101.755, 14.973
103.146, 13.601
104.537, 19.249
105.927, 25.931
107.318, 28.626
108.708, 38.350
110.098, 35.834
111.487, 51.343
112.877, 50.793
114.266, 46.187
115.655, 23.529
117.044, 55.821
118.432, 42.105
119.821, 47.021
121.209, 57.911
122.597, 41.022
123.984, 60.371
125.372, 78.120
126.759, 107.044
128.146, 180.672
129.533, 309.196
130.920, 500.838
132.306, 780.446
133.692, 1061.191
135.078, 1155.684
136.464, 791.171
137.850, 436.685
139.235, 258.221
140.620, 188.773
142.005, 114.336
143.390, 92.905
144.774, 86.474
146.159, 82.039
147.543, 100.814
148.927, 122.944
150.310, 171.342
151.694, 242.988
153.077, 311.669
154.460, 329.985
155.843, 318.725
157.226, 298.807
158.608, 381.102
159.990, 654.848
161.372, 1204.805
162.754, 2049.293
164.135, 3053.585
165.517, 3752.872
166.898, 3836.234
168.279, 2433.507
169.659, 1276.777
171.040, 705.040
172.420, 420.296
173.800, 371.547
175.180, 422.789
176.560, 507.023
177.939, 549.250
179.318, 456.468
180.697, 285.772
182.076, 137.176
183.455, 69.698
184.833, 55.228
186.211, 25.850
187.589, 11.469
188.967, 9.943
190.344, 27.442
191.722, 22.674
193.099, 13.781
194.475, 19.880
195.852, 11.818
197.229, 4.456
198.605, 4.057
199.981, 4.495
201.357, 10.877
202.732, 4.602
204.108, 5.223
205.483, 11.080
206.858, 16.916
208.233, 24.111
209.607, 20.846
210.981, 13.795
212.356, 41.739
213.730, 72.665
215.103, 134.589
216.477, 231.510
217.850, 310.430
219.223, 391.896
220.596, 301.285
221.969, 230.594
223.341, 200.828
224.713, 241.958
226.085, 328.038
227.457, 492.046
228.829, 712.979
230.200, 852.844
231.571, 924.658
232.942, 802.364
234.313, 502.944
235.684, 306.471
237.054, 157.976
238.424, 122.341
239.794, 65.728
241.164, 40.057
242.533, 23.401
243.902, 32.780
245.272, 24.945
246.640, 8.265
248.009, 18.819
249.378, 0.912
250.746, 2.172
252.114, 9.238
253.482, 4.578
254.849, 5.626
256.217, 2.580
257.584, 1.809
258.951, 18.303
260.318, 5.406
261.684, 2.502
263.051, 11.393
264.417, 4.799
265.783, 1.073
267.148, 13.671
268.514, 23.827
269.879, 35.436
271.244, 64.746
272.609, 70.920
273.974, 101.075
275.338, 93.178
276.703, 82.299
278.067, 51.403
279.431, 74.468
280.794, 71.451
282.158, 93.542
283.521, 141.622
284.884, 179.708
286.247, 337.803
287.609, 510.799
288.972, 847.830
290.334, 1282.854
291.696, 1626.858
293.058, 1740.838
294.419, 1395.792
295.781, 918.719
297.142, 547.637
298.503, 332.547
299.864, 213.453
301.224, 180.353
302.584, 109.248
303.945, 91.138
305.304, 53.021
306.664, 49.900
308.024, 43.772
309.383, 37.638
310.742, 35.485
312.101, 20.352
313.460, 28.198
314.818, 22.033
316.176, 13.857
317.534, 20.671
318.892, 6.470
320.250, 33.258
321.607, 20.033
322.964, 28.790
324.321, 17.536
325.678, 23.274
327.035, 37.007
328.391, 51.734
329.747, 86.457
331.103, 90.176
332.459, 96.890
333.815, 63.599
335.170, 58.304
336.525, 43.005
337.880, 20.702
339.235, 15.393
340.589, 13.080
341.944, 2.761
343.298, 14.438
344.652, 13.108
346.005, 17.774
347.359, 0.580
348.712, 20.000
350.065, 2.436
351.418, 22.728
352.771, 42.998
354.123, 34.433
355.475, 33.826
356.828, 47.136
358.179, 56.156
359.531, 77.837
360.882, 95.020
362.234, 118.193
363.585, 144.264
364.936, 140.607
366.286, 134.789
367.637, 160.713
368.987, 193.191
370.337, 241.052
371.687, 378.648
373.036, 537.582
374.386, 834.955
375.735, 1272.487
377.084, 1853.160
378.432, 2288.727
379.781, 2222.493
381.129, 1920.136
382.478, 1355.670
383.825, 975.195
385.173, 762.710
386.521, 681.217
387.868, 704.716
389.215, 831.206
390.562, 998.688
391.909, 1056.163
393.255, 1014.630
394.602, 867.090
395.948, 594.544
397.294, 382.991
398.639, 273.432
399.985, 197.868
401.330, 148.298
402.675, 114.714
404.020, 82.018
405.365, 50.240
406.709, 37.504
408.054, 30.730
409.398, 45.796
410.742, 20.970
412.085, 20.900
413.429, 28.865
414.772, 5.939
416.115, 18.523
417.458, 22.543
418.800, 14.507
420.143, 1.550
421.485, 5.413
422.827, 24.090
424.169, 20.776
425.511, 0.099
426.852, 19.877
428.193, 9.357
429.534, 0.293
430.875, 7.149
432.216, 1.966
433.556, 1.333
434.896, 7.825
436.236, 14.920
437.576, 23.207
438.916, 24.113
440.255, 25.895
441.594, 19.989
442.933, 24.260
444.272, 10.527
445.611, 10.790
446.949, 15.048
448.287, 18.302
449.625, 29.553
450.963, 51.801
452.300, 67.047
453.638, 144.290
454.975, 220.529
456.312, 332.766
457.649, 367.999
458.985, 406.230
460.321, 300.457
461.658, 192.684
462.994, 134.913
464.329, 95.139
465.665, 73.366
467.000, 55.561
468.335, 35.745
469.670, 58.910
471.005, 45.050
472.340, 50.182
473.674, 51.250
475.008, 51.351
476.342, 60.423
477.676, 84.057
479.009, 114.518
480.342, 149.477
481.676, 191.610
483.009, 238.689
484.341, 350.804
485.674, 574.866
487.006, 769.959
488.338, 1198.110
489.670, 1555.322
491.002, 1919.551
492.333, 1865.776
493.665, 1383.000
494.996, 989.221
496.327, 638.440
497.657, 436.610
498.988, 331.686
500.318, 224.732
501.648, 182.758
502.978, 132.681
504.308, 108.717
505.637, 75.743
506.967, 69.800
508.296, 53.629
509.625, 40.695
510.953, 47.616
512.282, 19.695
513.610, 14.859
514.938, 17.989
516.266, 24.115
517.594, 4.299
518.921, 2.492
520.249, 4.683
521.576, 3.875
522.903, 5.933
524.229, 16.743
525.556, 16.558
526.882, 20.382
528.208, 3.215
529.534, 9.046
530.860, 2.074
532.185, 25.714
533.511, 1.560
534.836, 1.407
536.161, 18.257
537.485, 1.883
538.810, 3.980
540.134, 1.846
541.458, 20.285
542.782, 19.415
544.106, 45.543
545.429, 53.670
546.753, 95.795
548.076, 137.920
549.399, 199.043
550.721, 287.165
552.044, 440.286
553.366, 526.405
554.688, 512.524
556.010, 465.642
557.332, 338.758
558.653, 211.874
559.975, 140.989
561.296, 94.102
562.617, 72.215
563.937, 37.328
565.258, 52.441
566.578, 19.543
567.898, 6.619
569.218, 33.733
570.538, 16.772
571.858, 38.814
573.177, 17.894
574.496, 32.860
575.815, 51.905
577.134, 27.969
578.452, 57.004
579.771, 65.799
581.089, 58.357
582.407, 68.444
583.724, 137.523
585.042, 176.470
586.359, 270.559
587.676, 340.950
588.993, 484.906
590.310, 649.446
591.627, 851.316
592.943, 925.320
594.259, 874.374
595.575, 803.459
596.891, 625.580
598.206, 474.707
599.522, 316.843
600.837, 239.956
602.152, 210.089
603.467, 148.166
604.781, 106.246
606.096, 84.346
607.410, 77.461
608.724, 67.835
610.038, 68.250
611.351, 67.483
612.665, 54.631
613.978, 38.801
615.291, 62.950
616.604, 36.275
617.916, 29.426
619.229, 51.933
620.541, 47.513
621.853, 98.665
623.165, 55.621
624.476, 92.059
625.788, 73.036
627.099, 79.169
628.410, 102.051
629.721, 84.639
631.032, 106.211
632.342, 113.444
633.652, 106.607
634.962, 121.934
636.272, 114.223
637.582, 122.269
638.891, 133.466
640.201, 152.478
641.510, 159.761
642.818, 181.926
644.127, 201.948
645.436, 239.121
646.744, 223.774
648.052, 279.986
649.360, 292.153
650.668, 336.321
651.975, 358.488
653.282, 420.656
654.590, 503.823
655.896, 520.991
657.203, 655.160
658.510, 740.330
659.816, 920.501
661.122, 1135.673
662.428, 1438.847
663.734, 1867.021
665.039, 2327.198
666.345, 3069.374
667.650, 3723.552
668.955, 4026.733
670.260, 4347.914
671.564, 3936.095
672.869, 3620.277
674.173, 3262.460
675.477, 2988.620
676.781, 3045.774
678.084, 2884.939
679.388, 3209.102
680.691, 3467.925
681.994, 3892.072
683.297, 4894.231
684.599, 6013.153
685.902, 7998.155
687.204, 11348.793
688.506, 16337.863
689.808, 25415.461
691.109, 35034.551
692.411, 45743.668
693.712, 47251.742
695.013, 39090.918
696.314, 29369.891
697.615, 18998.992
698.915, 12848.188
700.216, 9030.387
701.516, 6272.586
702.816, 4900.787
704.115, 3575.989
705.415, 2955.192
706.714, 2387.396
708.013, 1913.602
709.312, 1675.809
710.611, 1363.017
711.910, 1190.226
713.208, 1054.437
714.506, 914.650
715.804, 803.863
717.102, 699.171
718.399, 606.541
719.697, 533.516
720.994, 462.741
722.291, 415.972
723.588, 374.605
724.884, 331.606
726.181, 311.690
727.477, 274.946
728.773, 250.208
730.069, 240.481
731.365, 188.761
732.660, 194.049
733.955, 181.343
735.250, 178.640
736.545, 159.941
737.840, 141.248
739.134, 131.557
740.429, 138.867
741.723, 131.180
743.017, 120.495
744.310, 77.814
745.604, 90.136
746.897, 50.462
748.190, 61.791
749.483, 55.122
750.776, 57.455
752.069, 52.790
753.361, 25.127
754.653, 33.465
755.945, 20.805
757.237, 10.146
758.529, 27.490
759.820, 13.835
761.111, 4.182
762.402, 4.531
763.693, 2.118
764.984, 2.854
766.274, 0.580
767.564, 3.930
768.854, 2.280
770.144, 20.632
771.434, 1.014
772.724, 15.339
774.013, 4.306
775.302, 22.952
776.591, 6.390
777.880, 12.266
779.168, 2.927
780.456, 12.590
781.745, 32.259
783.033, 10.943
784.320, 5.632
785.608, 5.323
786.895, 0.984
788.183, 3.291
789.470, 35.401
790.756, 0.109
792.043, 30.817
793.329, 2.540
794.616, 9.263
795.902, 0.009
797.188, 11.282
798.473, 13.443
799.759, 2.825
801.044, 6.904
802.329, 1.364
803.614, 18.633
804.899, 22.904
806.183, 57.177
807.467, 38.452
808.752, 73.729
810.036, 76.008
811.319, 108.289
812.603, 112.573
813.886, 180.859
815.169, 187.147
816.452, 249.437
817.735, 311.729
819.018, 347.024
820.300, 474.320
821.583, 606.619
822.865, 798.920
824.146, 1016.224
825.428, 1349.530
826.710, 1732.838
827.991, 1981.148
829.272, 2051.461
830.553, 1809.776
831.834, 1375.094
833.114, 1058.414
834.394, 648.737
835.675, 474.064
836.955, 337.398
838.234, 223.739
839.514, 160.088
840.793, 109.441
842.073, 68.799
843.352, 49.549
844.630, 41.530
845.909, 49.904
847.187, 36.281
848.466, 67.666
849.744, 80.053
851.022, 71.445
852.299, 82.840
853.577, 107.237
854.854, 139.638
856.131, 166.041
857.408, 196.447
858.685, 241.856
859.961, 303.268
861.238, 386.682
862.514, 508.100
863.790, 611.520
865.066, 649.944
866.341, 704.371
867.617, 662.800
868.892, 662.232
870.167, 684.668
871.442, 724.107
872.717, 852.417
873.991, 970.268
875.265, 1169.598
876.540, 1413.828
877.813, 1629.560
879.087, 1941.496
880.361, 2005.581
881.634, 2124.956
882.907, 2093.592
884.180, 1878.987
885.453, 1710.998
886.726, 1387.303
887.998, 1190.925
889.270, 950.597
890.542, 785.414
891.814, 671.896
893.086, 490.380
894.357, 441.866
895.628, 380.355
896.900, 300.846
898.170, 280.339
899.441, 267.835
900.712, 212.334
901.982, 241.834
903.252, 193.338
904.522, 233.843
905.792, 215.351
907.062, 252.862
908.331, 296.374
909.600, 379.890
910.869, 495.408
912.138, 742.928
913.407, 972.451
914.675, 1423.976
915.944, 1816.504
917.212, 2259.808
918.480, 2463.073
919.747, 2303.525
921.015, 2032.063
922.282, 1612.583
923.549, 1241.127
924.816, 1054.499
926.083, 755.048
927.350, 694.244
928.616, 541.370
929.882, 498.927
931.148, 496.684
932.414, 480.963
933.680, 481.706
934.945, 494.297
936.211, 428.142
937.476, 472.286
938.741, 389.450
940.005, 364.957
941.270, 303.537
942.534, 249.959
943.799, 244.423
945.063, 231.134
946.326, 188.474
947.590, 194.454
948.853, 171.942
950.117, 174.553
951.380, 143.311
952.643, 135.922
953.905, 168.057
955.168, 121.638
956.430, 152.268
957.692, 148.902
958.954, 126.539
960.216, 129.181
961.478, 157.827
962.739, 164.476
964.000, 199.129
965.261, 197.787
966.522, 243.448
967.783, 268.114
969.043, 317.783
970.303, 380.457
971.563, 430.134
972.823, 515.816
974.083, 669.502
975.343, 775.191
976.602, 1035.885
977.861, 1325.583
979.120, 1726.285
980.379, 2342.992
981.638, 3171.701
982.896, 4439.417
984.154, 5521.134
985.412, 6135.861
986.670, 6173.592
987.928, 5047.324
989.185, 3960.066
990.443, 3065.811
991.700, 2357.846
992.957, 1738.325
994.214, 1330.089
995.470, 1057.859
996.727, 833.636
997.983, 648.420
999.239, 555.213
1000.495, 458.009
1001.750, 395.810
1003.006, 384.615
1004.261, 267.429
1005.516, 230.249
1006.771, 217.076
1008.026, 151.909
1009.280, 148.747
1010.535, 103.590
1011.789, 89.437
1013.043, 63.288
1014.297, 55.143
1015.550, 47.007
1016.804, 43.874
1018.057, 31.746
1019.310, 8.621
1020.563, 23.501
1021.816, 4.385
1023.068, 17.727
1024.321, 8.843
1025.573, 17.959
1026.825, 16.080
1028.077, 6.203
1029.328, 10.326
1030.580, 48.449
1031.831, 18.591
1033.082, 40.738
1034.333, 18.899
1035.584, 30.065
1036.834, 17.241
1038.085, 3.420
1039.335, 4.598
1040.585, 7.773
1041.834, 17.052
1043.084, 5.881
1044.334, 24.714
1045.583, 33.551
1046.832, 8.392
1048.081, 45.237
1049.329, 42.086
1050.578, 71.940
1051.826, 81.797
1053.074, 71.658
1054.322, 93.523
1055.570, 130.393
1056.818, 137.266
1058.065, 166.143
1059.312, 179.025
1060.559, 234.910
1061.806, 286.800
1063.053, 347.693
1064.299, 415.593
1065.546, 511.496
1066.792, 629.403
1068.038, 839.315
1069.284, 1028.234
1070.529, 1364.157
1071.775, 1963.084
1073.020, 2752.017
1074.265, 4288.954
1075.510, 6167.896
1076.754, 7883.842
1077.999, 8989.792
1079.243, 7308.755
1080.487, 5335.724
1081.731, 3617.698
1082.975, 2253.680
1084.219, 1608.669
1085.462, 1152.671
1086.705, 800.681
1087.948, 645.697
1089.191, 481.719
1090.434, 408.745
1091.676, 308.776
1092.919, 260.820
1094.161, 214.869
1095.403, 178.930
1096.645, 128.996
1097.886, 127.069
1099.128, 105.147
1100.369, 122.230
1101.610, 119.321
1102.851, 66.416
1104.091, 68.517
1105.332, 65.623
1106.572, 11.733
1107.812, 72.849
1109.052, 52.968
1110.292, 43.092
1111.532, 61.222
1112.771, 38.356
1114.010, 54.496
1115.249, 54.639
1116.488, 48.787
1117.727, 45.939
1118.966, 35.095
1120.204, 38.254
1121.442, 71.419
1122.680, 85.591
1123.918, 61.770
1125.155, 91.954
1126.393, 93.141
1127.630, 102.332
1128.867, 115.525
1130.104, 123.723
1131.341, 150.923
1132.577, 162.734
1133.814, 196.013
1135.050, 198.227
1136.286, 213.445
1137.522, 230.211
1138.757, 253.435
1139.993, 288.665
1141.228, 317.439
1142.463, 341.673
1143.698, 404.114
1144.933, 419.171
1146.167, 468.085
1147.402, 543.170
1148.636, 549.423
1149.870, 671.737
1151.104, 724.026
1152.338, 741.411
1153.571, 964.026
1154.804, 1005.848
1156.037, 1188.691
1157.270, 1358.970
1158.503, 1451.514
1159.736, 1821.793
1160.968, 1974.074
1162.200, 2283.357
1163.432, 2607.586
1164.664, 2875.874
1165.896, 3423.165
1167.127, 3992.495
1168.359, 4442.791
1169.590, 5282.087
1170.821, 5733.388
1172.052, 6403.820
1173.282, 6941.719
1174.513, 6645.145
1175.743, 6665.675
1176.973, 6139.707
1178.203, 5240.541
1179.433, 4728.232
1180.662, 3822.635
1181.892, 3324.785
1183.121, 2855.181
1184.350, 2287.965
1185.579, 2044.460
1186.807, 1718.644
1188.036, 1383.783
1189.264, 1283.780
1190.492, 1088.118
1191.720, 961.459
1192.948, 859.802
1194.176, 734.148
1195.403, 657.495
1196.630, 601.845
1197.857, 513.198
1199.084, 482.552
1200.311, 422.909
1201.537, 429.267
1202.764, 409.628
1203.990, 332.991
1205.216, 318.356
1206.442, 300.723
1207.667, 257.135
1208.893, 271.506
1210.118, 251.878
1211.343, 227.554
1212.568, 212.931
1213.793, 179.309
1215.017, 198.689
1216.242, 178.150
1217.466, 174.555
1218.690, 189.939
1219.914, 156.608
1221.137, 152.068
1222.361, 131.458
1223.584, 128.848
1224.807, 117.240
1226.030, 116.871
1227.253, 107.265
1228.476, 98.661
1229.698, 104.386
1230.920, 91.788
1232.142, 74.187
1233.364, 63.755
1234.586, 83.156
1235.808, 54.557
1237.029, 68.960
1238.250, 75.364
1239.471, 48.826
1240.692, 41.265
1241.913, 74.672
1243.133, 57.082
1244.353, 52.494
1245.574, 65.908
1246.794, 17.652
1248.013, 58.128
1249.233, 41.552
1250.452, 67.052
1251.672, 32.477
1252.891, 37.990
1254.110, 36.911
1255.328, 34.352
1256.547, 36.785
1257.765, 37.757
1258.983, 36.326
1260.201, 44.281
1261.419, 39.735
1262.637, 46.253
1263.854, 59.856
1265.072, 43.380
1266.289, 16.828
1267.506, 28.637
1268.723, 57.745
1269.939, 3.317
1271.156, 44.821
1272.372, 21.237
1273.588, 35.660
1274.804, 44.067
1276.020, 11.470
1277.235, 22.874
1278.451, 15.330
1279.666, 11.501
1280.881, 20.961
1282.096, 8.415
1283.310, 9.182
1284.525, 27.220
1285.739, 16.321
1286.953, 8.922
1288.167, 17.474
1289.381, 3.121
1290.595, 12.478
1291.808, 10.085
1293.022, 12.694
1294.235, 3.721
1295.448, 0.115
1296.660, 0.636
1297.873, 16.977
1299.085, 4.596
1300.298, 7.773
1301.510, 8.013
1302.722, 2.598
1303.933, 3.020
1305.145, 7.350
1306.356, 10.717
1307.567, 8.126
1308.778, 13.509
1309.989, 18.851
1311.200, 24.210
1312.410, 1.569
1313.621, 22.928
1314.831, 10.791
1316.041, 16.644
1317.250, 10.999
1318.460, 10.356
1319.670, 27.714
1320.879, 34.070
1322.088, 17.422
1323.297, 64.770
1324.506, 32.163
1325.714, 36.519
1326.922, 33.874
1328.131, 54.217
1329.339, 42.563
1330.547, 28.916
1331.754, 40.270
1332.962, 36.614
1334.169, 37.955
1335.376, 37.297
1336.583, 30.636
1337.790, 35.974
1338.997, 49.292
1340.203, 69.608
1341.410, 16.919
1342.616, 43.227
1343.822, 22.531
1345.028, 25.831
1346.233, 28.132
1347.439, 60.452
1348.644, 13.740
1349.849, 47.024
1351.054, 25.304
1352.259, 6.579
1353.463, 35.849
1354.668, 20.193
1355.872, 0.547
1357.076, 26.707
1358.280, 13.957
1359.483, 46.203
1360.687, 5.445
1361.890, 9.682
1363.094, 21.915
1364.297, 0.154
1365.499, 6.379
1366.702, 56.599
1367.905, 30.815
1369.107, 45.028
1370.309, 1.234
1371.511, 14.435
1372.713, 38.633
1373.914, 0.113
1375.116, 14.076
1376.317, 17.263
1377.518, 3.447
1378.719, 21.628
1379.920, 31.800
1381.121, 24.969
1382.321, 19.135
1383.521, 9.354
1384.721, 11.462
1385.921, 28.014
1387.121, 20.568
1388.321, 25.121
1389.520, 27.672
1390.719, 1.224
1391.918, 11.772
1393.117, 19.320
1394.316, 10.860
1395.514, 27.397
1396.713, 10.932
1397.911, 0.535
1399.109, 19.992
1400.307, 23.504
1401.505, 3.984
1402.702, 14.528
1403.899, 2.041
1405.097, 19.757
1406.294, 12.611
1407.490, 6.908
1408.687, 10.732
1409.884, 16.962
1411.080, 0.434
1412.276, 5.080
1413.472, 13.101
1414.668, 7.162
1415.863, 16.813
1417.059, 14.848
1418.254, 19.225
1419.449, 23.354
1420.644, 22.663
1421.839, 10.019
1423.033, 7.626
1424.228, 9.727
1425.422, 11.077
1426.616, 21.425
1427.810, 39.771
1429.004, 11.115
1430.197, 31.457
1431.391, 26.796
1432.584, 20.133
1433.777, 14.531
1434.970, 44.802
1436.163, 47.134
1437.355, 16.465
1438.548, 21.794
1439.740, 7.122
1440.932, 27.378
1442.124, 29.200
1443.315, 25.517
1444.507, 25.697
1445.698, 12.974
1446.889, 21.659
1448.080, 39.964
1449.271, 51.837
1450.462, 16.136
1451.652, 43.810
1452.843, 32.780
1454.033, 42.066
1455.223, 37.353
1456.413, 37.457
1457.602, 39.708
1458.792, 55.996
1459.981, 41.430
1461.170, 39.478
1462.359, 44.490
1463.548, 64.552
1464.737, 50.021
1465.925, 34.067
1467.113, 13.907
1468.302, 54.358
1469.490, 32.456
1470.677, 30.929
1471.865, 44.719
1473.052, 17.723
1474.240, 39.783
1475.427, 32.583
1476.614, 45.246
1477.800, 55.188
1478.987, 25.939
1480.173, 29.806
1481.360, 35.797
1482.546, 48.437
1483.732, 34.668
1484.917, 35.312
1486.103, 47.922
1487.288, 29.227
1488.474, 10.765
1489.659, 5.114
1490.844, 28.579
1492.028, 27.987
1493.213, 13.332
1494.397, 31.643
1495.582, 24.914
1496.766, 0.774
1497.950, 24.300
1499.133, 24.668
1500.317, 16.073
1501.500, 12.482
1502.683, 26.901
1503.866, 17.273
1505.049, 36.804
1506.232, 4.342
1507.415, 37.873
1508.597, 12.162
1509.779, 23.692
1510.961, 42.243
1512.143, 25.084
1513.325, 15.662
1514.506, 46.263
1515.688, 1.108
1516.869, 11.413
1518.050, 41.072
1519.231, 12.765
1520.411, 12.617
1521.592, 22.988
1522.772, 11.612
1523.952, 19.067
1525.132, 0.062
1526.312, 0.000
##END=



