##NAMES=Datolite
##RRUFFID=R050033
##IDEAL CHEMISTRY=CaB(SiO_4_)(OH)
##LOCALITY=Westfield, Massachusetts, USA
##OWNER=RRUFF
##SOURCE=University of Arizona Mineral Museum
##DESCRIPTION=Group of pale green single crystals
##STATUS=The identification of this mineral has been confirmed by X-ray diffraction and chemical analysis
##URL=rruff.info/R050033
##MEASURED CHEMISTRY=Ca_1.00_B_1.00_Si_1.00_O_4_(OH) ; trace amounts of Al and Na; B measured and corrected according to stoichiometry;  OH estimated by stoichiometry end charge balance
##PIN_ID=L00095
##ORIENTATION=Laser parallel to -b* (0 -1 0). Fiducial mark perpendicular to laser is parallel to c [0 0 1]
52.937, 0.000
54.335, 0.406
55.734, 15.043
57.132, 154.073
58.530, 175.722
59.927, 155.707
61.325, 122.558
62.722, 184.240
64.119, 190.574
65.515, 197.388
66.912, 265.474
68.308, 129.882
69.704, 119.424
71.100, 101.899
72.496, 90.534
73.891, 97.340
75.287, 107.740
76.682, 38.491
78.076, 29.107
79.471, 42.727
80.865, 24.208
82.260, 42.897
83.653, 37.451
85.047, 21.919
86.441, 4.312
87.834, 0.739
89.227, 18.858
90.620, 21.075
92.013, 4.319
93.405, 35.233
94.797, 29.425
96.189, 19.297
97.581, 16.889
98.973, 42.780
100.364, 50.370
101.755, 40.649
103.146, 31.136
104.537, 18.767
105.927, 55.366
107.318, 54.791
108.708, 103.964
110.098, 248.902
111.487, 271.621
112.877, 204.134
114.266, 195.455
115.655, 140.596
117.044, 160.566
118.432, 169.378
119.821, 151.126
121.209, 140.482
122.597, 137.549
123.984, 207.617
125.372, 292.780
126.759, 402.102
128.146, 649.791
129.533, 1093.362
130.920, 1808.589
132.306, 2668.167
133.692, 3308.454
135.078, 3661.694
136.464, 2509.928
137.850, 1391.277
139.235, 755.722
140.620, 420.243
142.005, 259.820
143.390, 204.437
144.774, 200.076
146.159, 224.561
147.543, 341.635
148.927, 554.727
150.310, 870.171
151.694, 1322.766
153.077, 1713.948
154.460, 1990.299
155.843, 1665.493
157.226, 1264.498
158.608, 1072.213
159.990, 1350.742
161.372, 2065.386
162.754, 3309.894
164.135, 4681.385
165.517, 5830.874
166.898, 5704.357
168.279, 3640.834
169.659, 2020.301
171.040, 1157.754
172.420, 922.199
173.800, 1044.636
175.180, 1390.061
176.560, 1851.473
177.939, 2095.872
179.318, 1790.258
180.697, 1060.632
182.076, 556.989
183.455, 259.462
184.833, 115.929
186.211, 87.326
187.589, 88.619
188.967, 54.894
190.344, 52.152
191.722, 89.392
193.099, 106.616
194.475, 77.824
195.852, 10.015
197.229, 3.810
198.605, 29.650
199.981, 8.504
201.357, 40.058
202.732, 35.485
204.108, 41.817
205.483, 17.385
206.858, 9.816
208.233, 12.904
209.607, 67.986
210.981, 153.021
212.356, 340.008
213.730, 665.982
215.103, 1206.940
216.477, 2022.891
217.850, 2874.834
219.223, 3343.026
220.596, 2411.929
221.969, 1458.639
223.341, 783.116
224.713, 480.351
226.085, 462.340
227.457, 504.089
228.829, 699.573
230.200, 790.813
231.571, 804.791
232.942, 642.540
234.313, 435.099
235.684, 247.340
237.054, 123.270
238.424, 89.802
239.794, 33.234
241.164, 28.567
242.533, 3.378
243.902, 14.022
245.272, 11.385
246.640, 5.977
248.009, 2.508
249.378, 33.045
250.746, 4.837
252.114, 25.516
253.482, 14.015
254.849, 11.986
256.217, 3.838
257.584, 5.695
258.951, 1.605
260.318, 2.390
261.684, 3.184
263.051, 48.896
264.417, 56.883
265.783, 71.899
267.148, 195.800
268.514, 341.564
269.879, 530.217
271.244, 818.213
272.609, 1128.095
273.974, 1363.248
275.338, 1204.852
276.703, 1002.431
278.067, 747.914
279.431, 511.336
280.794, 449.504
282.158, 382.732
283.521, 511.976
284.884, 723.110
286.247, 1075.161
287.609, 1888.164
288.972, 2934.430
290.334, 4455.714
291.696, 5571.923
293.058, 6061.041
294.419, 5011.077
295.781, 3320.079
297.142, 2201.061
298.503, 1280.033
299.864, 917.996
301.224, 662.949
302.584, 472.892
303.945, 392.824
305.304, 278.746
306.664, 268.657
308.024, 244.347
309.383, 210.011
310.742, 200.311
312.101, 164.605
313.460, 169.409
314.818, 180.176
316.176, 169.897
317.534, 207.574
318.892, 223.211
320.250, 260.815
321.607, 332.394
322.964, 424.953
324.321, 611.497
325.678, 873.034
327.035, 1390.566
328.391, 1982.091
329.747, 2772.609
331.103, 3320.122
332.459, 3492.629
333.815, 3014.129
335.170, 2397.623
336.525, 1561.111
337.880, 972.594
339.235, 598.070
340.589, 400.540
341.944, 303.005
343.298, 213.463
344.652, 167.916
346.005, 160.443
347.359, 106.080
348.712, 128.177
350.065, 102.632
351.418, 123.069
352.771, 80.160
354.123, 114.878
355.475, 135.818
356.828, 138.278
358.179, 168.737
359.531, 199.998
360.882, 211.318
362.234, 251.305
363.585, 283.717
364.936, 287.362
366.286, 286.654
367.637, 333.267
368.987, 368.638
370.337, 464.138
371.687, 640.610
373.036, 820.442
374.386, 1254.412
375.735, 1795.860
377.084, 2488.525
378.432, 3163.961
379.781, 3279.340
381.129, 3095.626
382.478, 2619.885
383.825, 2469.118
385.173, 2742.325
386.521, 3260.508
387.868, 4488.667
389.215, 6102.806
390.562, 8454.920
391.909, 9967.017
393.255, 10026.092
394.602, 8395.153
395.948, 5907.192
397.294, 4165.216
398.639, 2648.226
399.985, 1943.770
401.330, 1454.164
402.675, 1061.161
404.020, 863.109
405.365, 638.671
406.709, 527.188
408.054, 449.872
409.398, 349.490
410.742, 358.026
412.085, 278.355
413.429, 258.458
414.772, 151.286
416.115, 159.852
417.458, 172.551
418.800, 114.819
420.143, 143.996
421.485, 107.434
422.827, 147.066
424.169, 157.719
425.511, 147.854
426.852, 161.056
428.193, 110.327
429.534, 121.114
430.875, 83.971
432.216, 87.825
433.556, 113.672
434.896, 102.515
436.236, 115.352
437.576, 164.182
438.916, 205.003
440.255, 183.818
441.594, 238.625
442.933, 225.427
444.272, 230.233
445.611, 276.035
446.949, 360.831
448.287, 459.622
449.625, 627.413
450.963, 862.198
452.300, 1344.977
453.638, 2097.756
454.975, 3263.534
456.312, 4789.310
457.649, 5559.090
458.985, 5556.876
460.321, 4163.665
461.658, 2755.461
462.994, 1772.259
464.329, 1132.059
465.665, 786.862
467.000, 511.674
468.335, 447.487
469.670, 354.307
471.005, 231.130
472.340, 220.957
473.674, 192.690
475.008, 169.451
476.342, 139.260
477.676, 162.036
479.009, 159.879
480.342, 142.727
481.676, 217.581
483.009, 238.430
484.341, 370.276
485.674, 516.125
487.006, 741.970
488.338, 1170.811
489.670, 1464.650
491.002, 1766.484
492.333, 1717.316
493.665, 1262.145
494.996, 937.969
496.327, 555.790
497.657, 385.608
498.988, 253.422
500.318, 155.232
501.648, 109.039
502.978, 78.843
504.308, 105.643
505.637, 52.437
506.967, 24.200
508.296, 15.734
509.625, 10.640
510.953, 10.126
512.282, 8.532
513.610, 20.121
514.938, 18.934
516.266, 26.073
517.594, 28.341
518.921, 37.636
520.249, 48.949
521.576, 53.283
522.903, 54.590
524.229, 9.010
525.556, 47.376
526.882, 26.755
528.208, 14.134
529.534, 40.513
530.860, 4.913
532.185, 4.685
533.511, 15.719
534.836, 26.865
536.161, 2.556
537.485, 26.017
538.810, 37.585
540.134, 84.149
541.458, 103.710
542.782, 162.268
544.106, 223.823
545.429, 311.375
546.753, 454.925
548.076, 735.544
549.399, 1005.016
550.721, 1467.558
552.044, 1972.097
553.366, 2487.634
554.688, 2471.169
556.010, 2152.701
557.332, 1669.232
558.653, 1129.760
559.975, 815.289
561.296, 555.818
562.617, 438.349
563.937, 374.882
565.258, 252.420
566.578, 243.967
567.898, 202.521
569.218, 212.080
570.538, 207.643
571.858, 206.220
573.177, 211.804
574.496, 216.399
575.815, 287.003
577.134, 274.615
578.452, 351.229
579.771, 448.854
581.089, 517.461
582.407, 642.095
583.724, 814.733
585.042, 1106.373
586.359, 1536.014
587.676, 2031.657
588.993, 2913.298
590.310, 3724.845
591.627, 4781.409
592.943, 5329.046
594.259, 5134.677
595.575, 4811.312
596.891, 3672.947
598.206, 2820.581
599.522, 2051.214
600.837, 1558.845
602.152, 1202.024
603.467, 971.789
604.781, 733.417
606.096, 573.185
607.410, 474.799
608.724, 433.424
610.038, 343.151
611.351, 274.241
612.665, 280.424
613.978, 202.827
615.291, 217.771
616.604, 220.385
617.916, 160.959
619.229, 198.196
620.541, 173.527
621.853, 207.393
623.165, 161.924
624.476, 208.559
625.788, 168.475
627.099, 185.245
628.410, 208.553
629.721, 196.088
631.032, 187.730
632.342, 221.473
633.652, 209.757
634.962, 235.582
636.272, 196.164
637.582, 224.698
638.891, 292.148
640.201, 230.720
641.510, 287.424
642.818, 272.938
644.127, 322.591
645.436, 329.150
646.744, 354.705
648.052, 391.353
649.360, 420.902
650.668, 531.447
651.975, 572.989
653.282, 623.527
654.590, 719.062
655.896, 739.593
657.203, 941.122
658.510, 997.646
659.816, 1150.168
661.122, 1414.686
662.428, 1645.201
663.734, 2129.633
665.039, 2605.944
666.345, 3290.220
667.650, 3880.011
668.955, 4037.823
670.260, 4266.704
671.564, 3880.932
672.869, 3531.231
674.173, 3254.078
675.477, 3043.778
676.781, 3102.891
678.084, 3151.291
679.388, 3404.415
680.691, 3975.456
681.994, 4531.295
683.297, 5729.787
684.599, 7175.570
685.902, 9777.142
687.204, 14013.062
688.506, 20411.074
689.808, 31779.309
691.109, 43946.777
692.411, 56985.109
693.712, 59353.211
695.013, 49511.539
696.314, 37389.906
697.615, 24408.365
698.915, 16596.826
700.216, 11775.283
701.516, 8130.740
702.816, 6379.196
704.115, 4776.650
705.415, 3755.103
706.714, 3196.555
708.013, 2538.005
709.312, 2211.455
710.611, 1816.903
711.910, 1614.351
713.208, 1431.797
714.506, 1243.246
715.804, 1079.694
717.102, 907.142
718.399, 827.591
719.697, 703.039
720.994, 630.493
722.291, 573.946
723.588, 480.401
724.884, 424.854
726.181, 411.311
727.477, 382.781
728.773, 339.249
730.069, 315.720
731.365, 259.206
732.660, 260.695
733.955, 226.190
735.250, 206.696
736.545, 206.203
737.840, 175.711
739.134, 187.219
740.429, 125.724
741.723, 165.233
743.017, 152.740
744.310, 96.248
745.604, 113.755
746.897, 86.260
748.190, 86.766
749.483, 71.270
750.776, 72.772
752.069, 85.274
753.361, 27.774
754.653, 52.274
755.945, 27.772
757.237, 32.730
758.529, 7.743
759.820, 25.213
761.111, 7.682
762.402, 7.851
763.693, 29.604
764.984, 9.259
766.274, 15.490
767.564, 1.053
768.854, 4.623
770.144, 29.202
771.434, 24.007
772.724, 23.424
774.013, 34.063
775.302, 19.726
776.591, 12.406
777.880, 23.099
779.168, 40.811
780.456, 13.550
781.745, 27.302
783.033, 20.074
784.320, 23.863
785.608, 41.671
786.895, 27.505
788.183, 4.360
789.470, 29.223
790.756, 16.894
792.043, 24.990
793.329, 23.892
794.616, 27.189
795.902, 6.269
797.188, 9.652
798.473, 7.417
799.759, 17.484
801.044, 23.552
802.329, 6.619
803.614, 36.686
804.899, 21.752
806.183, 63.819
807.467, 62.886
808.752, 83.954
810.036, 129.022
811.319, 114.091
812.603, 153.160
813.886, 250.231
815.169, 245.302
816.452, 333.373
817.735, 382.446
819.018, 496.520
820.300, 659.595
821.583, 849.673
822.865, 1092.755
824.146, 1485.842
825.428, 1982.933
826.710, 2545.031
827.991, 2896.137
829.272, 3036.251
830.553, 2846.376
831.834, 2237.512
833.114, 1681.664
834.394, 1199.832
835.675, 862.017
836.955, 667.207
838.234, 486.412
839.514, 425.627
840.793, 345.849
842.073, 282.083
843.352, 324.323
844.630, 257.565
845.909, 295.815
847.187, 311.067
848.466, 263.324
849.744, 322.584
851.022, 330.847
852.299, 371.113
853.577, 443.381
854.854, 522.652
856.131, 624.926
857.408, 746.202
858.685, 974.482
859.961, 1251.764
861.238, 1581.050
862.514, 2082.339
863.790, 2332.632
865.066, 2462.927
866.341, 2345.226
867.617, 2000.316
868.892, 1845.622
870.167, 1668.111
871.442, 1704.657
872.717, 1948.972
873.991, 2119.770
875.265, 2573.092
876.540, 3058.063
877.813, 3450.393
879.087, 4123.519
880.361, 4231.889
881.634, 4530.228
882.907, 4558.419
884.180, 4053.467
885.453, 3679.519
886.726, 3133.382
887.998, 2773.638
889.270, 2327.396
890.542, 1906.149
891.814, 1678.514
893.086, 1429.882
894.357, 1267.053
895.628, 1198.427
896.900, 1016.152
898.170, 997.533
899.441, 962.918
900.712, 948.305
901.982, 1069.696
903.252, 1037.091
904.522, 1134.488
905.792, 1179.890
907.062, 1326.295
908.331, 1704.703
909.600, 1973.115
910.869, 2529.982
912.138, 3250.267
913.407, 4198.690
914.675, 5778.978
915.944, 7333.419
917.212, 8895.856
918.480, 9664.190
919.747, 8601.167
921.015, 7570.055
922.282, 5966.726
923.549, 4661.857
924.816, 3738.322
926.083, 2819.832
927.350, 2457.681
928.616, 2104.439
929.882, 1891.667
931.148, 1891.233
932.414, 1817.698
933.680, 1865.887
934.945, 1931.224
936.211, 1768.029
937.476, 1848.610
938.741, 1614.088
940.005, 1456.470
941.270, 1382.315
942.534, 1075.622
943.799, 1075.178
945.063, 982.786
946.326, 805.482
947.590, 863.061
948.853, 719.511
950.117, 757.157
951.380, 714.668
952.643, 659.277
953.905, 633.895
955.168, 605.425
956.430, 581.059
957.692, 595.701
958.954, 488.351
960.216, 513.010
961.478, 452.677
962.739, 467.352
964.000, 520.035
965.261, 513.727
966.522, 539.427
967.783, 580.136
969.043, 588.853
970.303, 717.579
971.563, 799.313
972.823, 945.056
974.083, 1126.808
975.343, 1268.568
976.602, 1652.337
977.861, 2068.121
979.120, 2716.913
980.379, 3635.713
981.638, 4851.523
982.896, 6711.341
984.154, 8372.169
985.412, 9371.020
986.670, 9409.879
987.928, 7763.750
989.185, 5976.636
990.443, 4604.531
991.700, 3271.448
992.957, 2544.377
994.214, 1946.319
995.470, 1520.276
996.727, 1282.241
997.983, 980.218
999.239, 831.221
1000.495, 666.239
1001.750, 538.267
1003.006, 511.315
1004.261, 432.375
1005.516, 349.458
1006.771, 283.552
1008.026, 206.662
1009.280, 166.304
1010.535, 165.915
1011.789, 97.060
1013.043, 108.221
1014.297, 81.391
1015.550, 71.572
1016.804, 95.761
1018.057, 23.040
1019.310, 29.159
1020.563, 6.633
1021.816, 8.419
1023.068, 20.801
1024.321, 37.970
1025.573, 9.253
1026.825, 19.515
1028.077, 21.719
1029.328, 23.038
1030.580, 67.794
1031.831, 7.431
1033.082, 24.335
1034.333, 80.101
1035.584, 20.891
1036.834, 38.679
1038.085, 65.472
1039.335, 13.283
1040.585, 13.090
1041.834, 22.108
1043.084, 5.315
1044.334, 23.470
1045.583, 57.746
1046.832, 12.029
1048.081, 23.200
1049.329, 101.439
1050.578, 66.687
1051.826, 118.944
1053.074, 101.210
1054.322, 167.484
1055.570, 217.768
1056.818, 138.062
1058.065, 262.365
1059.312, 230.677
1060.559, 330.997
1061.806, 427.338
1063.053, 455.689
1064.299, 653.048
1065.546, 757.417
1066.792, 918.800
1068.038, 1258.192
1069.284, 1595.594
1070.529, 2125.011
1071.775, 3013.440
1073.020, 4257.881
1074.265, 6752.342
1075.510, 9792.822
1076.754, 12672.315
1077.999, 14511.835
1079.243, 12091.367
1080.487, 8840.914
1081.731, 6101.479
1082.975, 3938.070
1084.219, 2805.675
1085.462, 1953.297
1086.705, 1445.938
1087.948, 1196.595
1089.191, 896.275
1090.434, 739.972
1091.676, 651.682
1092.919, 496.410
1094.161, 467.146
1095.403, 383.899
1096.645, 334.669
1097.886, 374.447
1099.128, 308.235
1100.369, 279.035
1101.610, 268.844
1102.851, 219.661
1104.091, 235.486
1105.332, 196.321
1106.572, 146.163
1107.812, 205.013
1109.052, 132.872
1110.292, 191.738
1111.532, 143.612
1112.771, 110.494
1114.010, 178.385
1115.249, 156.283
1116.488, 126.190
1117.727, 168.105
1118.966, 142.029
1120.204, 203.960
1121.442, 156.900
1122.680, 219.847
1123.918, 275.804
1125.155, 270.769
1126.393, 276.004
1127.630, 289.986
1128.867, 293.974
1130.104, 330.969
1131.341, 359.974
1132.577, 302.986
1133.814, 488.531
1135.050, 393.564
1136.286, 486.698
1137.522, 556.695
1138.757, 546.748
1139.993, 627.893
1141.228, 650.847
1142.463, 722.748
1143.698, 832.219
1144.933, 810.302
1146.167, 977.154
1147.402, 1054.278
1148.636, 1117.709
1149.870, 1334.167
1151.104, 1364.935
1152.338, 1476.704
1153.571, 1833.121
1154.804, 1859.700
1156.037, 2210.531
1157.270, 2426.371
1158.503, 2669.716
1159.736, 3177.767
1160.968, 3460.710
1162.200, 4021.861
1163.432, 4593.576
1164.664, 5082.734
1165.896, 5937.896
1167.127, 6787.273
1168.359, 7500.444
1169.590, 8988.438
1170.821, 9608.401
1172.052, 10398.581
1173.282, 11437.290
1174.513, 10887.476
1175.743, 10817.021
1176.973, 9837.212
1178.203, 8376.619
1179.433, 7463.785
1180.662, 6071.987
1181.892, 5100.348
1183.121, 4346.855
1184.350, 3501.368
1185.579, 3115.075
1186.807, 2606.395
1188.036, 2125.221
1189.264, 1947.057
1190.492, 1606.300
1191.720, 1408.535
1192.948, 1304.974
1194.176, 1077.216
1195.403, 1035.116
1196.630, 905.373
1197.857, 771.939
1199.084, 746.194
1200.311, 624.453
1201.537, 618.714
1202.764, 609.978
1203.990, 486.770
1205.216, 531.039
1206.442, 528.362
1207.667, 422.636
1208.893, 458.913
1210.118, 336.192
1211.343, 309.473
1212.568, 343.761
1213.793, 312.259
1215.017, 276.545
1216.242, 303.833
1217.466, 198.123
1218.690, 244.414
1219.914, 229.707
1221.137, 200.018
1222.361, 216.312
1223.584, 125.608
1224.807, 193.904
1226.030, 146.201
1227.253, 101.498
1228.476, 167.796
1229.698, 134.816
1230.920, 151.115
1232.142, 162.413
1233.364, 80.851
1234.586, 108.149
1235.808, 143.446
1237.029, 83.743
1238.250, 101.040
1239.471, 83.336
1240.692, 65.631
1241.913, 94.928
1243.133, 57.228
1244.353, 57.531
1245.574, 127.837
1246.794, 18.145
1248.013, 79.455
1249.233, 50.768
1250.452, 44.216
1251.672, 51.534
1252.891, 32.854
1254.110, 26.195
1255.328, 50.519
1256.547, 55.845
1257.765, 67.290
1258.983, 50.613
1260.201, 23.164
1261.419, 42.472
1262.637, 27.780
1263.854, 36.625
1265.072, 75.900
1266.289, 20.286
1267.506, 46.904
1268.723, 66.199
1269.939, 9.141
1271.156, 55.389
1272.372, 15.424
1273.588, 35.706
1274.804, 46.910
1276.020, 13.066
1277.235, 22.061
1278.451, 37.209
1279.666, 49.432
1280.881, 57.684
1282.096, 10.125
1283.310, 7.648
1284.525, 60.514
1285.739, 41.369
1286.953, 6.222
1288.167, 5.128
1289.381, 13.983
1290.595, 25.289
1291.808, 3.629
1293.022, 55.556
1294.235, 12.415
1295.448, 3.620
1296.660, 33.308
1297.873, 1.260
1299.085, 43.249
1300.298, 2.442
1301.510, 17.394
1302.722, 1.418
1303.933, 9.599
1305.145, 4.435
1306.356, 18.477
1307.567, 28.470
1308.778, 1.408
1309.989, 27.339
1311.200, 39.265
1312.410, 50.189
1313.621, 35.112
1314.831, 44.948
1316.041, 23.949
1317.250, 47.863
1318.460, 48.772
1319.670, 57.682
1320.879, 71.588
1322.088, 52.490
1323.297, 73.385
1324.506, 97.278
1325.714, 60.175
1326.922, 107.061
1328.131, 117.938
1329.339, 80.828
1330.547, 93.747
1331.754, 61.618
1332.962, 40.483
1334.169, 125.334
1335.376, 34.176
1336.583, 82.314
1337.790, 59.144
1338.997, 50.971
1340.203, 74.354
1341.410, 38.169
1342.616, 12.978
1343.822, 87.765
1345.028, 51.545
1346.233, 43.318
1347.439, 54.155
1348.644, 6.913
1349.849, 47.714
1351.054, 32.454
1352.259, 63.185
1353.463, 58.142
1354.668, 47.857
1355.872, 107.563
1357.076, 44.260
1358.280, 20.947
1359.483, 103.626
1360.687, 100.332
1361.890, 65.988
1363.094, 122.620
1364.297, 59.244
1365.499, 43.859
1366.702, 104.464
1367.905, 66.058
1369.107, 79.643
1370.309, 70.209
1371.511, 67.765
1372.713, 96.310
1373.914, 4.870
1375.116, 55.389
1376.317, 102.899
1377.518, 29.399
1378.719, 76.891
1379.920, 61.372
1381.121, 68.021
1382.321, 79.490
1383.521, 66.897
1384.721, 76.052
1385.921, 130.553
1387.121, 77.856
1388.321, 101.155
1389.520, 96.452
1390.719, 65.743
1391.918, 72.031
1393.117, 75.315
1394.316, 36.594
1395.514, 78.866
1396.713, 79.132
1397.911, 57.392
1399.109, 82.643
1400.307, 81.885
1401.505, 40.687
1402.702, 125.900
1403.899, 33.102
1405.097, 77.179
1406.294, 57.906
1407.490, 10.339
1408.687, 66.336
1409.884, 33.680
1411.080, 11.816
1412.276, 34.675
1413.472, 0.555
1414.668, 29.566
1415.863, 38.295
1417.059, 7.381
1418.254, 26.013
1419.449, 35.978
1420.644, 6.334
1421.839, 54.345
1423.033, 12.016
1424.228, 8.356
1425.422, 24.295
1426.616, 2.936
1427.810, 28.567
1429.004, 39.188
1430.197, 28.798
1431.391, 40.397
1432.584, 26.967
1433.777, 12.542
1434.970, 40.087
1436.163, 40.144
1437.355, 22.672
1438.548, 61.345
1439.740, 31.756
1440.932, 34.236
1442.124, 59.704
1443.315, 3.208
1444.507, 14.231
1445.698, 80.660
1446.889, 31.048
1448.080, 97.455
1449.271, 53.852
1450.462, 70.240
1451.652, 49.258
1452.843, 48.336
1454.033, 80.668
1455.223, 74.988
1456.413, 66.300
1457.602, 65.579
1458.792, 108.816
1459.981, 102.008
1461.170, 93.867
1462.359, 47.959
1463.548, 63.957
1464.737, 83.677
1465.925, 60.110
1467.113, 107.090
1468.302, 111.813
1469.490, 56.727
1470.677, 103.961
1471.865, 71.137
1473.052, 25.882
1474.240, 41.964
1475.427, 53.932
1476.614, 35.175
1477.800, 111.113
1478.987, 2.008
1480.173, 58.805
1481.360, 119.136
1482.546, 6.268
1483.732, 65.485
1484.917, 34.223
1486.103, 53.997
1487.288, 112.501
1488.474, 102.114
1489.659, 9.693
1490.844, 49.245
1492.028, 11.736
1493.213, 63.162
1494.397, 62.530
