##NAMES=Datolite
##RRUFFID=R050136
##IDEAL CHEMISTRY=CaB(SiO_4_)(OH)
##LOCALITY=Charcas, San Luis Potosi, Mexico
##OWNER=RRUFF
##SOURCE=Dave Bunk Minerals
##DESCRIPTION=Pale green tabular crystals
##STATUS=The identification of this mineral has been confirmed by X-ray diffraction and chemical analysis
##URL=rruff.info/R050136
##MEASURED CHEMISTRY=Ca_1.00_BSi_1.00_O_4_(OH) ; trace amounts of Fe; B and OH estimated by stoichiometry end charge balance
##PIN_ID=L00270
##ORIENTATION=Laser parallel to -c* (0 0 -1). Fiducial mark perpendicular to laser is parallel to -a [-1 0 0]
96.858, 0.000
98.251, 16.979
99.644, 1.696
101.036, 17.092
102.428, 13.029
103.820, 11.885
105.212, 8.914
106.604, 36.628
107.995, 71.692
109.387, 49.870
110.777, 21.974
112.168, 68.860
113.559, 67.414
114.949, 85.545
116.339, 123.179
117.729, 105.286
119.119, 125.817
120.508, 108.715
121.897, 128.934
123.286, 165.437
124.675, 275.700
126.063, 402.149
127.452, 612.402
128.840, 801.805
130.228, 1095.387
131.615, 1431.131
133.003, 1864.022
134.390, 2067.047
135.777, 1786.257
137.164, 1201.814
138.550, 825.506
139.937, 469.275
141.323, 340.113
142.709, 205.013
144.094, 116.971
145.480, 107.982
146.865, 107.043
148.250, 132.152
149.635, 122.308
151.019, 163.548
152.403, 148.914
153.788, 192.311
155.171, 311.735
156.555, 445.186
157.939, 864.662
159.322, 1390.234
160.705, 2028.884
162.088, 2839.549
163.470, 3803.230
164.853, 4774.930
166.235, 5063.650
167.617, 3990.391
168.998, 2651.153
170.380, 1663.937
171.761, 1042.740
173.142, 722.576
174.523, 616.548
175.904, 576.811
177.284, 531.714
178.664, 514.296
180.044, 352.267
181.424, 283.214
182.803, 168.146
184.183, 116.069
185.562, 71.990
186.940, 142.909
188.319, 27.831
189.698, 104.757
191.076, 40.688
192.454, 53.626
193.831, 46.572
195.209, 49.525
196.586, 87.488
197.963, 67.459
199.340, 67.440
200.717, 36.430
202.093, 90.594
203.470, 68.997
204.846, 82.995
206.221, 77.312
207.597, 82.305
208.972, 123.292
210.347, 94.289
211.722, 74.295
213.097, 119.311
214.472, 151.337
215.846, 176.371
217.220, 234.415
218.594, 249.275
219.967, 273.274
221.341, 294.709
222.714, 306.986
224.087, 312.011
225.460, 378.048
226.832, 487.096
228.204, 655.175
229.577, 810.274
230.948, 855.395
232.320, 835.560
233.692, 607.758
235.063, 446.013
236.434, 234.272
237.805, 156.544
239.175, 84.856
240.545, 66.173
241.916, 52.491
243.286, 34.808
244.655, 22.126
246.025, 11.822
247.394, 7.762
248.763, 0.079
250.132, 27.603
251.501, 21.356
252.869, 21.409
254.237, 39.511
255.605, 15.641
256.973, 27.013
258.340, 2.285
259.708, 8.125
261.075, 29.032
262.442, 16.223
263.808, 64.556
265.175, 40.984
266.541, 47.560
267.907, 94.222
269.273, 123.956
270.639, 201.753
272.004, 223.603
273.369, 278.502
274.734, 309.442
276.099, 287.421
277.463, 188.434
278.828, 146.479
280.192, 158.551
281.556, 100.650
282.919, 137.772
284.283, 235.916
285.646, 366.080
287.009, 515.263
288.372, 711.463
289.734, 989.678
291.097, 1245.909
292.459, 1345.153
293.821, 1320.410
295.183, 1040.679
296.544, 717.959
297.905, 395.250
299.266, 325.550
300.627, 166.860
301.988, 108.177
303.348, 67.501
304.709, 39.831
306.069, 1.833
307.428, 56.509
308.788, 20.143
310.147, 5.205
311.507, 8.606
312.865, 11.036
314.224, 34.675
315.583, 1.683
316.941, 8.044
318.299, 48.409
319.657, 62.777
321.015, 38.149
322.372, 28.524
323.729, 32.902
325.086, 112.283
326.443, 206.666
327.800, 189.051
329.156, 323.438
330.512, 356.828
331.868, 355.220
333.224, 322.613
334.579, 265.009
335.935, 175.406
337.290, 104.805
338.645, 35.191
339.999, 20.559
341.354, 9.077
342.708, 22.542
344.062, 36.364
345.416, 1.017
346.769, 12.505
348.123, 72.852
349.476, 39.200
350.829, 25.550
352.182, 81.600
353.534, 91.951
354.887, 181.306
356.239, 246.604
357.591, 348.275
358.942, 422.629
360.294, 402.062
361.645, 408.561
362.996, 425.356
364.347, 419.273
365.698, 376.440
367.048, 326.280
368.398, 265.757
369.748, 318.418
371.098, 348.770
372.448, 516.106
373.797, 657.440
375.146, 837.928
376.495, 1442.286
377.844, 1426.150
379.192, 1493.767
380.540, 1357.339
381.889, 1053.669
383.236, 696.996
384.584, 523.301
385.932, 408.604
387.279, 392.907
388.626, 396.209
389.973, 391.510
391.319, 391.810
392.666, 436.109
394.012, 465.407
395.358, 332.704
396.704, 260.998
398.049, 177.291
399.394, 185.582
400.740, 66.871
402.084, 101.158
403.429, 1.557
404.774, 28.279
406.118, 76.986
407.462, 57.250
408.806, 12.490
410.150, 41.239
411.493, 16.990
412.836, 30.638
414.179, 1.959
415.522, 12.489
416.865, 39.228
418.207, 41.915
419.549, 47.060
420.891, 44.137
422.233, 48.504
423.575, 133.168
424.916, 61.304
426.257, 86.443
427.598, 112.583
428.939, 29.725
430.279, 53.868
431.619, 36.011
432.959, 46.154
434.299, 104.297
435.639, 121.440
436.978, 116.582
438.318, 162.724
439.657, 146.864
440.996, 163.005
442.334, 123.145
443.673, 125.497
445.011, 71.420
446.349, 101.555
447.687, 102.689
449.024, 80.821
450.361, 147.951
451.699, 193.079
453.036, 295.205
454.372, 420.329
455.709, 628.455
457.045, 721.578
458.381, 835.700
459.717, 724.819
461.053, 547.939
462.388, 406.070
463.724, 280.203
465.059, 209.340
466.394, 148.485
467.728, 87.528
469.063, 86.674
470.397, 64.911
471.731, 23.051
473.065, 60.192
474.398, 52.843
475.732, 98.303
477.065, 27.454
478.398, 46.630
479.731, 104.803
481.063, 153.976
482.396, 122.152
483.728, 294.324
485.060, 363.495
486.391, 547.662
487.723, 816.833
489.054, 1000.000
490.385, 1324.178
491.716, 1421.353
493.047, 1207.525
494.377, 955.695
495.708, 667.861
497.038, 472.024
498.368, 303.185
499.697, 229.342
501.027, 231.496
502.356, 177.087
503.685, 47.968
505.014, 112.067
506.342, 15.011
507.671, 73.150
508.999, 72.285
510.327, 32.418
511.655, 0.548
512.982, 36.668
514.310, 28.785
515.637, 19.101
516.964, 9.993
518.291, 3.919
519.617, 22.156
520.944, 18.227
522.270, 26.706
523.596, 12.663
524.921, 16.638
526.247, 5.369
527.572, 21.633
528.897, 56.656
530.222, 28.280
531.547, 30.214
532.871, 76.144
534.196, 18.071
535.520, 20.006
536.844, 28.104
538.167, 11.773
539.491, 13.644
540.814, 43.509
542.137, 39.372
543.460, 77.232
544.783, 75.089
546.105, 86.943
547.427, 160.795
548.749, 200.644
550.071, 360.490
551.393, 337.333
552.714, 473.173
554.035, 586.011
555.356, 510.846
556.677, 387.678
557.998, 320.508
559.318, 241.334
560.638, 178.158
561.958, 199.979
563.278, 79.923
564.597, 108.233
565.917, 48.047
567.236, 110.858
568.555, 85.121
569.874, 38.569
571.192, 115.252
572.511, 130.385
573.829, 82.524
575.147, 66.838
576.464, 191.650
577.782, 195.463
579.099, 226.274
580.416, 231.083
581.733, 322.893
583.050, 431.700
584.366, 520.507
585.683, 730.312
586.999, 1006.115
588.315, 1338.917
589.630, 1756.717
590.946, 2169.517
592.261, 2535.314
593.576, 2713.110
594.891, 2496.904
596.206, 2186.698
597.520, 1792.489
598.834, 1367.481
600.148, 1051.271
601.462, 824.058
602.776, 712.843
604.089, 497.628
605.402, 378.411
606.715, 419.192
608.028, 286.972
609.341, 251.751
610.653, 182.528
611.965, 163.304
613.277, 107.915
614.589, 176.688
615.901, 96.460
617.212, 124.230
618.523, 137.756
619.834, 139.405
621.145, 155.025
622.456, 161.002
623.766, 172.461
625.076, 178.454
626.386, 194.214
627.696, 203.972
629.006, 213.733
630.315, 212.303
631.624, 171.989
632.933, 162.455
634.242, 212.040
635.551, 207.646
636.859, 245.404
638.167, 140.516
639.475, 248.586
640.783, 203.337
642.090, 295.086
643.398, 274.832
644.705, 345.892
646.012, 332.633
647.318, 385.413
648.625, 429.149
649.931, 466.543
651.237, 526.614
652.543, 582.342
653.849, 693.068
655.155, 769.792
656.460, 822.513
657.765, 906.231
659.070, 962.947
660.375, 1134.664
661.679, 1383.383
662.984, 1738.110
664.288, 2077.659
665.592, 2517.383
666.895, 3115.103
668.199, 3523.821
669.502, 3872.838
670.805, 3742.553
672.108, 3580.262
673.411, 3313.028
674.713, 3067.418
676.016, 3073.125
677.318, 3039.751
678.620, 3197.311
679.921, 3545.573
681.223, 4031.712
682.524, 4827.598
683.825, 6021.803
685.126, 8265.369
686.427, 11551.739
687.727, 16300.411
689.028, 23494.102
690.328, 32707.791
691.628, 43118.328
692.927, 50507.992
694.227, 49773.152
695.526, 39599.562
696.825, 29638.000
698.124, 19931.688
699.423, 13894.378
700.721, 9701.063
702.020, 7076.752
703.318, 5289.437
704.616, 3975.125
705.913, 3100.810
707.211, 2519.497
708.508, 2193.182
709.805, 1761.868
711.102, 1489.554
712.399, 1339.240
713.695, 1080.925
714.992, 1001.611
716.288, 864.297
717.584, 753.983
718.879, 618.674
720.175, 525.368
721.470, 571.074
722.765, 458.786
724.060, 408.497
725.355, 402.220
726.649, 349.960
727.944, 281.701
729.238, 326.454
730.532, 219.211
731.825, 237.986
733.119, 228.768
734.412, 160.552
735.705, 261.337
736.998, 150.125
738.291, 207.914
739.584, 148.714
740.876, 122.515
742.168, 191.333
743.460, 71.150
744.752, 74.969
746.043, 86.788
747.334, 157.608
748.626, 68.428
749.916, 17.249
751.207, 48.070
752.498, 78.892
753.788, 0.286
755.078, 14.534
756.368, 61.355
757.658, 63.176
758.947, 29.998
760.237, 118.821
761.526, 54.644
762.815, 121.468
764.104, 82.293
765.392, 125.119
766.680, 80.945
767.969, 11.227
769.257, 60.593
770.544, 8.413
771.832, 30.235
773.119, 9.943
774.406, 44.127
775.693, 13.335
776.980, 21.552
778.267, 35.781
779.553, 18.030
780.839, 23.710
782.125, 20.452
783.411, 61.194
784.697, 12.062
785.982, 61.326
787.267, 9.622
788.552, 27.924
789.837, 60.242
791.122, 9.408
792.406, 3.940
793.690, 20.292
794.974, 6.346
796.258, 39.984
797.542, 4.625
798.825, 20.734
800.108, 25.896
801.391, 48.472
802.674, 53.135
803.957, 30.743
805.239, 3.353
806.522, 46.964
807.804, 5.577
809.085, 49.192
810.367, 58.808
811.649, 14.430
812.930, 80.053
814.211, 75.683
815.492, 84.315
816.772, 123.949
818.053, 152.584
819.333, 230.223
820.613, 261.863
821.893, 386.505
823.173, 453.149
824.452, 627.798
825.732, 833.450
827.011, 870.104
828.290, 976.767
829.568, 916.436
830.847, 769.110
832.125, 565.788
833.403, 418.468
834.681, 329.161
835.959, 228.864
837.236, 98.577
838.514, 151.295
839.791, 34.025
841.068, 99.776
842.345, 91.529
843.621, 98.285
844.898, 25.044
846.174, 33.806
847.450, 152.580
848.726, 85.367
850.001, 143.159
851.277, 128.955
852.552, 173.754
853.827, 280.556
855.102, 255.360
856.376, 351.168
857.651, 494.979
858.925, 570.792
860.199, 711.609
861.473, 930.429
862.746, 1201.253
864.020, 1401.080
865.293, 1433.909
866.566, 1358.743
867.839, 1256.580
869.112, 1184.420
870.384, 1138.327
871.656, 1179.995
872.928, 1269.846
874.200, 1500.716
875.472, 1724.680
876.744, 1998.541
878.015, 2203.268
879.286, 2464.619
880.557, 2676.490
881.828, 2726.364
883.098, 2634.240
884.369, 2372.726
885.639, 2053.011
886.909, 1757.122
888.178, 1464.154
889.448, 1138.640
890.717, 1062.534
891.987, 810.012
893.256, 701.913
894.524, 680.602
895.793, 524.508
897.061, 450.417
898.330, 501.328
899.598, 370.242
900.865, 401.159
902.133, 449.079
903.401, 365.001
904.668, 440.926
905.935, 555.854
907.202, 534.583
908.468, 621.517
909.735, 864.454
911.001, 1049.393
912.267, 1463.429
913.533, 1787.280
914.799, 2497.229
916.064, 3189.179
917.330, 3942.133
918.595, 4185.091
919.860, 3939.051
921.124, 3553.178
922.389, 2851.144
923.653, 2247.113
924.918, 1832.084
926.182, 1444.303
927.445, 1244.400
928.709, 1042.429
929.972, 952.955
931.236, 880.593
932.499, 826.354
933.761, 892.350
935.024, 795.349
936.286, 785.354
937.549, 788.502
938.811, 690.583
940.073, 641.890
941.334, 535.087
942.596, 485.557
943.857, 444.104
945.118, 391.971
946.379, 377.692
947.640, 353.734
948.900, 313.781
950.161, 302.833
951.421, 286.573
952.681, 280.634
953.940, 222.659
955.200, 278.731
956.459, 189.807
957.719, 231.889
958.978, 259.975
960.236, 226.172
961.495, 193.269
962.753, 200.988
964.012, 210.095
965.270, 246.325
966.527, 294.442
967.785, 310.563
969.043, 360.690
970.300, 390.822
971.557, 443.958
972.814, 599.100
974.071, 681.246
975.327, 907.398
976.583, 987.554
977.840, 1443.716
979.095, 1810.884
980.351, 2410.056
981.607, 3320.233
982.862, 4212.416
984.117, 5214.605
985.372, 5912.799
986.627, 5477.009
987.882, 4700.225
989.136, 3670.446
990.390, 2778.672
991.644, 2148.905
992.898, 1606.149
994.152, 1251.397
995.405, 1000.661
996.659, 844.934
997.912, 753.213
999.165, 591.523
1000.417, 500.837
1001.670, 439.157
1002.922, 487.481
1004.174, 348.811
1005.426, 369.146
1006.678, 304.497
1007.930, 252.868
1009.181, 250.243
1010.432, 190.634
1011.683, 134.031
1012.934, 98.434
1014.185, 71.146
1015.435, 86.260
1016.685, 54.688
1017.935, 58.130
1019.185, 79.576
1020.435, 1.973
1021.684, 21.519
1022.934, 59.933
1024.183, 0.391
1025.432, 27.147
1026.680, 64.309
1027.929, 22.232
1029.177, 13.776
1030.425, 39.679
1031.673, 59.137
1032.921, 10.601
1034.169, 52.931
1035.416, 32.483
1036.663, 7.044
1037.911, 4.603
1039.157, 16.157
1040.404, 23.288
1041.650, 52.265
1042.897, 38.164
1044.143, 71.403
1045.389, 5.000
1046.634, 92.406
1047.880, 62.817
1049.125, 45.232
1050.371, 72.660
1051.615, 79.092
1052.860, 49.527
1054.105, 67.171
1055.349, 164.408
1056.593, 94.854
1057.837, 140.304
1059.081, 222.757
1060.325, 176.214
1061.568, 243.674
1062.812, 331.137
1064.055, 347.604
1065.298, 445.073
1066.540, 559.546
1067.783, 674.023
1069.025, 835.502
1070.267, 1209.985
1071.509, 1803.662
1072.751, 2268.979
1073.993, 3527.480
1075.234, 4788.986
1076.475, 6204.498
1077.716, 6865.025
1078.957, 6298.561
1080.198, 4880.104
1081.438, 3929.664
1082.679, 2897.231
1083.919, 2160.802
1085.159, 1546.375
1086.398, 1215.951
1087.638, 729.533
1088.877, 627.135
1090.116, 473.744
1091.355, 323.364
1092.594, 326.005
1093.833, 240.647
1095.071, 156.294
1096.309, 126.951
1097.547, 165.608
1098.785, 47.269
1100.023, 96.933
1101.260, 64.695
1102.498, 104.447
1103.735, 29.137
1104.972, 46.857
1106.208, 38.551
1107.445, 59.313
1108.681, 2.960
1109.918, 44.739
1111.154, 15.482
1112.389, 25.216
1113.625, 25.084
1114.860, 25.607
1116.096, 26.300
1117.331, 59.035
1118.566, 49.732
1119.800, 59.432
1121.035, 72.133
1122.269, 69.950
1123.503, 93.545
1124.737, 130.362
1125.971, 116.164
1127.205, 121.142
1128.438, 91.854
1129.671, 122.566
1130.904, 132.348
1132.137, 148.488
1133.370, 203.205
1134.602, 277.674
1135.834, 228.392
1137.066, 239.437
1138.298, 347.156
1139.530, 257.306
1140.762, 420.533
1141.993, 349.323
1143.224, 474.412
1144.455, 453.302
1145.686, 502.321
1146.917, 608.402
1148.147, 657.189
1149.377, 734.989
1150.607, 867.818
1151.837, 992.819
1153.067, 1053.626
1154.296, 1243.472
1155.526, 1417.440
1156.755, 1593.255
1157.984, 1856.780
1159.213, 2097.717
1160.441, 2419.281
1161.670, 2673.858
1162.898, 3168.813
1164.126, 3564.831
1165.354, 4050.854
1166.581, 4703.697
1167.809, 5477.520
1169.036, 5967.305
1170.263, 7038.244
1171.490, 7618.711
1172.717, 7992.385
1173.943, 8075.965
1175.170, 7643.651
1176.396, 7140.701
1177.622, 6382.897
1178.848, 5393.577
1180.073, 4556.598
1181.299, 3877.272
1182.524, 3286.352
1183.749, 2721.619
1184.974, 2348.135
1186.199, 1986.594
1187.423, 1713.663
1188.648, 1462.323
1189.872, 1258.312
1191.096, 1138.096
1192.320, 980.964
1193.543, 903.667
1194.767, 850.519
1195.990, 739.245
1197.213, 656.258
1198.436, 666.899
1199.659, 600.538
1200.881, 451.174
1202.104, 463.808
1203.326, 401.438
1204.548, 437.066
1205.770, 306.691
1206.991, 377.313
1208.213, 344.933
1209.434, 334.550
1210.655, 201.169
1211.876, 209.780
1213.096, 239.388
1214.317, 281.133
1215.537, 246.735
1216.757, 211.339
1217.977, 180.097
1219.197, 228.690
1220.417, 196.281
1221.636, 188.005
1222.855, 196.606
1224.074, 136.424
1225.293, 180.002
1226.512, 166.577
1227.731, 115.148
1228.949, 122.775
1230.167, 102.339
1231.385, 121.899
1232.603, 92.458
1233.820, 88.014
1235.038, 113.565
1236.255, 124.116
1237.472, 121.011
1238.689, 84.508
1239.906, 125.042
1241.122, 117.665
1242.338, 139.190
1243.555, 63.713
1244.771, 114.235
1245.986, 118.753
1247.202, 25.271
1248.417, 28.786
1249.633, 98.429
1250.848, 41.938
1252.063, 59.446
1253.277, 33.951
1254.492, 43.454
1255.706, 116.850
1256.920, 32.348
1258.134, 94.224
1259.348, 56.790
1260.562, 101.159
1261.775, 110.629
1262.988, 42.270
1264.201, 54.769
1265.414, 99.220
1266.627, 108.648
1267.839, 26.397
1269.052, 64.784
1270.264, 133.206
1271.476, 32.567
1272.688, 12.265
1273.899, 87.581
1275.111, 74.889
1276.322, 40.178
1277.533, 6.857
1278.744, 85.120
1279.955, 31.609
1281.165, 69.627
1282.376, 10.857
1283.586, 63.089
1284.796, 7.306
1286.006, 11.484
1287.215, 42.707
1288.425, 25.107
1289.634, 5.937
1290.843, 13.281
1292.052, 88.568
1293.261, 44.535
1294.469, 41.747
1295.678, 34.838
1296.886, 14.923
1298.094, 40.002
1299.302, 36.926
1300.509, 38.873
1301.717, 38.159
1302.924, 31.824
1304.131, 20.174
1305.338, 2.164
1306.545, 53.143
1307.752, 6.885
1308.958, 7.925
1310.164, 23.978
1311.370, 30.954
1312.576, 33.874
1313.782, 29.788
1314.987, 48.693
1316.193, 0.596
1317.398, 149.487
1318.603, 80.371
1319.807, 91.252
1321.012, 21.125
1322.216, 119.993
1323.421, 86.855
1324.625, 12.708
1325.829, 90.549
1327.032, 62.383
1328.236, 159.216
1329.439, 48.048
1330.642, 2.130
1331.845, 85.682
1333.048, 117.485
1334.251, 56.282
1335.453, 91.084
1336.656, 97.879
1337.858, 53.684
1339.060, 25.482
1340.261, 47.273
1341.463, 24.944
1342.664, 77.833
1343.866, 66.593
1345.067, 120.346
1346.267, 138.094
1347.468, 84.836
1348.669, 78.572
1349.869, 133.302
1351.069, 82.025
1352.269, 115.744
1353.469, 120.457
1354.668, 66.163
1355.868, 79.864
1357.067, 106.561
1358.266, 34.252
1359.465, 68.939
1360.664, 66.623
1361.862, 5.699
1363.061, 75.289
1364.259, 94.956
1365.457, 35.619
1366.655, 64.361
1367.852, 23.108
1369.050, 74.822
1370.247, 126.477
1371.444, 141.130
1372.641, 54.783
1373.838, 165.437
1375.035, 75.153
1376.231, 136.346
1377.427, 105.972
1378.623, 127.593
1379.819, 69.211
1381.015, 17.817
1382.211, 90.338
1383.406, 86.824
1384.601, 48.546
1385.796, 152.658
1386.991, 118.863
1388.185, 141.062
1389.380, 95.080
1390.574, 138.233
1391.768, 115.340
1392.962, 41.478
1394.156, 80.559
1395.350, 108.723
1396.543, 178.841
1397.736, 84.994
1398.929, 106.012
1400.122, 117.146
1401.315, 122.868
1402.507, 57.983
1403.700, 91.529
1404.892, 89.447
1406.084, 35.125
1407.276, 64.668
1408.467, 134.833
1409.659, 70.598
1410.850, 7.484
1412.041, 137.181
1413.232, 53.563
1414.423, 119.393
1415.614, 1.961
1416.804, 87.838
1417.994, 143.612
1419.184, 136.961
1420.374, 3.640
1421.564, 79.594
1422.753, 43.052
1423.943, 62.624
1425.132, 73.869
1426.321, 45.419
1427.510, 69.474
1428.698, 67.981
1429.887, 110.033
1431.075, 114.521
1432.263, 46.939
1433.451, 32.328
1434.639, 89.352
1435.827, 89.139
1437.014, 15.519
1438.201, 150.888
1439.388, 188.244
1440.575, 74.588
1441.762, 96.910
1442.949, 84.229
1444.135, 138.295
1445.321, 121.575
1446.507, 68.816
1447.693, 40.767
1448.879, 121.544
1450.064, 149.722
1451.250, 119.772
1452.435, 83.908
1453.620, 173.019
1454.805, 112.505
1455.989, 148.569
1457.174, 141.430
1458.358, 81.438
1459.542, 191.403
1460.726, 83.048
1461.910, 144.917
1463.093, 119.736
1464.277, 126.503
1465.460, 130.054
1466.643, 206.756
1467.826, 119.944
1469.009, 159.657
1470.191, 106.651
1471.373, 75.417
1472.556, 131.496
1473.738, 137.547
1474.919, 109.590
1476.101, 135.662
1477.283, 120.741
1478.464, 128.832
1479.645, 82.938
1480.826, 97.844
1482.007, 144.961
1483.187, 243.742
1484.368, 27.863
1485.548, 110.967
1486.728, 47.091
1487.908, 103.239
1489.088, 60.396
1490.268, 192.551
1491.447, 58.712
1492.626, 94.888
1493.805, 33.074
1494.984, 141.283
1496.163, 120.515
1497.341, 84.788
1498.520, 162.122
1499.698, 48.533
1500.876, 159.018
1502.054, 78.587
1503.232, 60.194
1504.409, 5.153
1505.586, 57.561
1506.763, 46.270
1507.940, 16.109
1509.117, 15.021
1510.294, 23.253
1511.470, 72.117
1512.647, 49.330
1513.823, 123.669
1514.999, 122.139
1516.174, 22.767
1517.350, 3.920
1518.526, 160.744
1519.701, 65.675
1520.876, 84.317
1522.051, 87.827
1523.226, 79.193
1524.400, 42.088
1525.574, 0.062
1526.749, 0.000
##END=



