##NAMES=Datolite
##RRUFFID=R050033
##IDEAL CHEMISTRY=CaB(SiO_4_)(OH)
##LOCALITY=Westfield, Massachusetts, USA
##OWNER=RRUFF
##SOURCE=University of Arizona Mineral Museum
##DESCRIPTION=Group of pale green single crystals
##STATUS=The identification of this mineral has been confirmed by X-ray diffraction and chemical analysis
##URL=rruff.info/R050033
##MEASURED CHEMISTRY=Ca_1.00_B_1.00_Si_1.00_O_4_(OH) ; trace amounts of Al and Na; B measured and corrected according to stoichiometry;  OH estimated by stoichiometry end charge balance
##PIN_ID=L00095
##ORIENTATION=Laser parallel to -b* (0 -1 0). Fiducial mark perpendicular to laser is parallel to c [0 0 1]
52.937, 0.000
54.335, 0.803
55.734, 42.468
57.132, 124.011
58.530, 178.941
59.927, 265.740
61.325, 380.931
62.722, 433.281
64.119, 465.402
65.515, 473.215
66.912, 380.078
68.308, 334.837
69.704, 249.909
71.100, 258.030
72.496, 229.927
73.891, 234.537
75.287, 236.518
76.682, 232.676
78.076, 202.039
79.471, 231.448
80.865, 169.386
82.260, 138.012
83.653, 150.634
85.047, 115.726
86.441, 97.471
87.834, 50.201
89.227, 15.330
90.620, 20.731
92.013, 28.122
93.405, 23.481
94.797, 12.791
96.189, 6.059
97.581, 14.569
98.973, 5.856
100.364, 1.349
101.755, 30.168
103.146, 20.339
104.537, 8.275
105.927, 18.855
107.318, 29.907
108.708, 73.855
110.098, 338.707
111.487, 414.467
112.877, 252.142
114.266, 220.738
115.655, 139.259
117.044, 101.709
118.432, 99.093
119.821, 101.438
121.209, 70.587
122.597, 69.819
123.984, 43.989
125.372, 76.669
126.759, 94.555
128.146, 159.134
129.533, 315.062
130.920, 469.954
132.306, 766.707
133.692, 962.434
135.078, 999.131
136.464, 659.823
137.850, 359.571
139.235, 192.370
140.620, 136.211
142.005, 89.086
143.390, 112.987
144.774, 175.906
146.159, 247.767
147.543, 461.233
148.927, 764.908
150.310, 1285.115
151.694, 1930.058
153.077, 2636.521
154.460, 3035.884
155.843, 2439.923
157.226, 1718.608
158.608, 1279.540
159.990, 1368.943
161.372, 1977.037
162.754, 3083.086
164.135, 4356.123
165.517, 5306.157
166.898, 5097.190
168.279, 3201.222
169.659, 1761.247
171.040, 1126.262
172.420, 1076.266
173.800, 1476.262
175.180, 2178.256
176.560, 3002.247
177.939, 3570.234
179.318, 2926.217
180.697, 1764.195
182.076, 841.166
183.455, 433.132
184.833, 211.094
186.211, 152.048
187.589, 123.995
188.967, 94.933
190.344, 147.863
191.722, 194.784
193.099, 245.696
194.475, 146.601
195.852, 112.497
197.229, 34.385
198.605, 22.266
199.981, 21.148
201.357, 35.344
202.732, 15.923
204.108, 18.574
205.483, 72.077
206.858, 71.418
208.233, 94.580
209.607, 208.642
210.981, 389.724
212.356, 724.776
213.730, 1412.729
215.103, 2591.673
216.477, 4210.606
217.850, 5798.528
219.223, 6757.100
220.596, 5028.629
221.969, 2823.114
223.341, 1465.521
224.713, 808.837
226.085, 517.052
227.457, 433.165
228.829, 446.170
230.200, 426.063
231.571, 386.837
232.942, 309.494
234.313, 252.570
235.684, 182.507
237.054, 105.803
238.424, 57.994
239.794, 14.072
241.164, 6.029
242.533, 5.062
243.902, 20.341
245.272, 6.615
246.640, 25.875
248.009, 10.246
249.378, 31.473
250.746, 40.850
252.114, 5.830
253.482, 12.834
254.849, 8.194
256.217, 10.457
257.584, 19.083
258.951, 2.416
260.318, 6.707
261.684, 5.749
263.051, 49.590
264.417, 100.993
265.783, 129.862
267.148, 242.767
268.514, 361.355
269.879, 569.730
271.244, 908.156
272.609, 1166.689
273.974, 1352.500
275.338, 1265.608
276.703, 1000.705
278.067, 715.791
279.431, 559.865
280.794, 529.861
282.158, 601.691
283.521, 832.501
284.884, 1195.313
286.247, 1890.984
287.609, 3227.644
288.972, 5063.122
290.334, 7753.788
291.696, 9908.509
293.058, 10788.453
294.419, 8898.386
295.781, 5748.304
297.142, 3741.215
298.503, 2289.119
299.864, 1569.015
301.224, 1103.903
302.584, 839.785
303.945, 694.659
305.304, 531.468
306.664, 490.074
308.024, 394.773
309.383, 324.615
310.742, 310.444
312.101, 300.255
313.460, 304.032
314.818, 273.773
316.176, 269.476
317.534, 270.142
318.892, 294.781
320.250, 300.389
321.607, 365.981
322.964, 455.561
324.321, 606.135
325.678, 818.705
327.035, 1218.271
328.391, 1789.831
329.747, 2557.388
331.103, 3241.941
332.459, 3836.489
333.815, 3698.032
335.170, 3212.572
336.525, 2201.108
337.880, 1249.639
339.235, 727.167
340.589, 457.761
341.944, 281.351
343.298, 196.649
344.652, 133.258
346.005, 123.819
347.359, 39.831
348.712, 53.509
350.065, 16.183
351.418, 34.206
352.771, 26.331
354.123, 43.523
355.475, 63.764
356.828, 66.908
358.179, 93.244
359.531, 89.748
360.882, 111.221
362.234, 134.230
363.585, 103.149
364.936, 143.176
366.286, 93.001
367.637, 108.833
368.987, 99.027
370.337, 113.176
371.687, 217.433
373.036, 315.956
374.386, 492.333
375.735, 759.705
377.084, 1094.070
378.432, 1351.431
379.781, 1332.786
381.129, 1130.135
382.478, 818.467
383.825, 601.783
385.173, 499.083
386.521, 437.367
387.868, 559.636
389.215, 667.889
390.562, 809.127
391.909, 933.352
393.255, 916.562
394.602, 798.758
395.948, 582.942
397.294, 420.113
398.639, 267.272
399.985, 203.256
401.330, 174.029
402.675, 93.474
404.020, 73.809
405.365, 71.704
406.709, 45.638
408.054, 30.431
409.398, 20.012
410.742, 6.572
412.085, 1.843
413.429, 3.573
414.772, 3.297
416.115, 5.075
417.458, 4.742
418.800, 9.730
420.143, 60.237
421.485, 63.448
422.827, 122.719
424.169, 147.984
425.511, 155.615
426.852, 106.468
428.193, 88.445
429.534, 61.444
430.875, 52.447
432.216, 49.745
433.556, 54.688
434.896, 65.448
436.236, 90.438
437.576, 116.422
438.916, 147.400
440.255, 210.372
441.594, 181.338
442.933, 285.297
444.272, 328.252
445.611, 416.201
446.949, 513.146
448.287, 672.086
449.625, 918.021
450.963, 1363.953
452.300, 2165.880
453.638, 3378.802
454.975, 5181.719
456.312, 7462.629
457.649, 8507.539
458.985, 8518.447
460.321, 6179.348
461.658, 4140.252
462.994, 2551.155
464.329, 1642.061
465.665, 1144.965
467.000, 720.873
468.335, 578.785
469.670, 448.700
471.005, 298.618
472.340, 320.538
473.674, 192.459
475.008, 219.384
476.342, 122.306
477.676, 128.235
479.009, 102.161
480.342, 98.087
481.676, 64.023
483.009, 94.954
484.341, 119.890
485.674, 169.822
487.006, 235.753
488.338, 397.692
489.670, 523.631
491.002, 576.575
492.333, 561.514
493.665, 425.448
494.996, 284.379
496.327, 144.310
497.657, 122.237
498.988, 85.159
500.318, 39.077
501.648, 38.989
502.978, 9.103
504.308, 31.792
505.637, 13.318
506.967, 36.442
508.296, 11.138
509.625, 47.228
510.953, 22.810
512.282, 42.321
513.610, 39.902
514.938, 40.448
516.266, 54.945
517.594, 26.477
518.921, 3.075
520.249, 21.391
521.576, 2.213
522.903, 18.836
524.229, 20.405
525.556, 27.022
526.882, 30.548
528.208, 25.141
529.534, 33.690
530.860, 29.296
532.185, 13.898
533.511, 67.494
534.836, 60.086
536.161, 109.675
537.485, 136.259
538.810, 141.839
540.134, 230.415
541.458, 264.988
542.782, 358.556
544.106, 447.120
545.429, 599.681
546.753, 866.238
548.076, 1231.791
549.399, 1808.340
550.721, 2666.886
552.044, 3657.428
553.366, 4676.968
554.688, 4534.502
556.010, 4048.035
557.332, 2953.563
558.653, 1926.089
559.975, 1405.612
561.296, 972.133
562.617, 729.621
563.937, 532.030
565.258, 407.437
566.578, 325.749
567.898, 210.005
569.218, 179.233
570.538, 117.362
571.858, 117.480
573.177, 120.448
574.496, 75.435
575.815, 75.635
577.134, 48.844
578.452, 46.528
579.771, 55.028
581.089, 51.546
582.407, 100.133
583.724, 79.720
585.042, 106.307
586.359, 212.892
587.676, 268.475
588.993, 393.992
590.310, 489.471
591.627, 648.938
592.943, 761.426
594.259, 672.958
595.575, 710.527
596.891, 533.093
598.206, 433.657
599.522, 353.219
600.837, 254.778
602.152, 215.335
603.467, 185.891
604.781, 113.495
606.096, 108.046
607.410, 59.595
608.724, 73.141
610.038, 39.686
611.351, 53.228
612.665, 33.768
613.978, 38.307
615.291, 73.002
616.604, 23.536
617.916, 25.715
619.229, 28.737
620.541, 66.262
621.853, 107.535
623.165, 41.005
624.476, 104.342
625.788, 83.837
627.099, 98.040
628.410, 100.350
629.721, 115.568
631.032, 155.410
632.342, 170.822
633.652, 153.936
634.962, 145.981
636.272, 151.691
637.582, 224.353
638.891, 210.069
640.201, 249.556
641.510, 281.969
642.818, 254.462
644.127, 328.847
645.436, 355.991
646.744, 379.392
648.052, 429.868
649.360, 457.331
650.668, 541.791
651.975, 673.324
653.282, 712.740
654.590, 823.195
655.896, 884.640
657.203, 956.081
658.510, 955.448
659.816, 1002.811
661.122, 1110.458
662.428, 1272.787
663.734, 1430.155
665.039, 1670.066
666.345, 1876.303
667.650, 2037.526
668.955, 1988.279
670.260, 2019.804
671.564, 1781.478
672.869, 1692.116
674.173, 1633.844
675.477, 1600.357
676.781, 1819.555
678.084, 1976.387
679.388, 2402.580
680.691, 2875.852
681.994, 3396.131
683.297, 4503.438
684.599, 5878.761
685.902, 8216.061
687.204, 11883.400
688.506, 17751.715
689.808, 27979.973
691.109, 38968.367
692.411, 51096.750
693.712, 53015.152
695.013, 43953.535
696.314, 33181.930
697.615, 21670.314
698.915, 14758.696
700.216, 10517.082
701.516, 7376.465
702.816, 5799.847
704.115, 4342.229
705.415, 3542.610
706.714, 2920.989
708.013, 2357.369
709.312, 2068.746
710.611, 1734.124
711.910, 1558.501
713.208, 1343.877
714.506, 1158.252
715.804, 1041.626
717.102, 896.000
718.399, 769.374
719.697, 737.747
720.994, 592.119
722.291, 618.492
723.588, 501.868
724.884, 477.244
726.181, 443.621
727.477, 328.001
728.773, 388.386
730.069, 327.775
731.365, 306.174
732.660, 271.575
733.955, 257.983
735.250, 273.399
736.545, 251.819
737.840, 235.244
739.134, 244.668
740.429, 219.093
741.723, 211.520
743.017, 168.947
744.310, 159.374
745.604, 156.801
746.897, 97.227
748.190, 90.655
749.483, 101.082
750.776, 60.510
752.069, 88.937
753.361, 61.364
754.653, 75.791
755.945, 49.218
757.237, 53.644
758.529, 33.071
759.820, 11.498
761.111, 37.924
762.402, 21.350
763.693, 27.776
764.984, 58.202
766.274, 18.628
767.564, 23.055
768.854, 16.482
770.144, 12.091
771.434, 23.325
772.724, 3.258
774.013, 17.847
775.302, 9.450
776.591, 22.062
777.880, 8.689
779.168, 23.325
780.456, 25.977
781.745, 21.479
783.033, 23.330
784.320, 22.030
785.608, 15.745
786.895, 25.471
788.183, 3.214
789.470, 35.962
790.756, 4.268
792.043, 13.504
793.329, 47.285
794.616, 21.906
795.902, 26.902
797.188, 11.274
798.473, 9.549
799.759, 39.380
801.044, 10.233
802.329, 29.093
803.614, 16.030
804.899, 24.154
806.183, 6.280
807.467, 11.593
808.752, 9.526
810.036, 42.646
811.319, 40.769
812.603, 47.893
813.886, 65.400
815.169, 65.149
816.452, 91.285
817.735, 121.423
819.018, 141.568
820.300, 257.727
821.583, 286.889
822.865, 394.067
824.146, 532.256
825.428, 654.460
826.710, 861.678
827.991, 948.912
829.272, 1020.164
830.553, 939.428
831.834, 737.695
833.114, 615.974
834.394, 377.255
835.675, 297.541
836.955, 231.831
838.234, 206.124
839.514, 160.421
840.793, 148.721
842.073, 121.025
843.352, 177.334
844.630, 101.646
845.909, 139.962
847.187, 177.282
848.466, 169.606
849.744, 211.934
851.022, 205.265
852.299, 206.601
853.577, 253.941
854.854, 279.285
856.131, 364.633
857.408, 363.985
858.685, 450.342
859.961, 573.703
861.238, 671.069
862.514, 797.439
863.790, 897.814
865.066, 935.194
866.341, 1085.579
867.617, 1006.968
868.892, 1144.362
870.167, 1267.761
871.442, 1460.165
872.717, 1814.574
873.991, 2053.988
875.265, 2661.407
876.540, 3151.337
877.813, 3677.767
879.087, 4458.201
880.361, 4574.969
881.634, 5003.248
882.907, 5050.794
884.180, 4481.039
885.453, 4218.635
886.726, 3526.471
887.998, 3132.992
889.270, 2755.217
890.542, 2230.701
891.814, 2102.330
893.086, 1770.846
894.357, 1637.006
895.628, 1585.508
896.900, 1441.073
898.170, 1484.584
899.441, 1428.101
900.712, 1445.686
901.982, 1536.213
903.252, 1595.746
904.522, 1857.285
905.792, 1955.829
907.062, 2225.377
908.331, 2703.933
909.600, 2996.494
910.869, 3950.060
912.138, 5084.632
913.407, 6508.156
914.675, 8861.739
915.944, 11160.331
917.212, 13318.925
918.480, 14357.525
919.747, 12586.132
921.015, 11164.745
922.282, 8763.365
923.549, 6692.830
924.816, 5461.462
926.083, 4057.452
927.350, 3645.604
928.616, 3099.257
929.882, 2830.167
931.148, 2902.882
932.414, 2766.738
933.680, 2866.438
934.945, 2896.435
936.211, 2811.330
937.476, 2813.322
938.741, 2447.694
940.005, 2293.502
941.270, 2142.612
942.534, 1760.795
943.799, 1720.320
945.063, 1596.896
946.326, 1390.424
947.590, 1434.187
948.853, 1203.029
950.117, 1302.796
951.380, 1143.680
952.643, 1133.811
953.905, 1117.690
955.168, 984.499
956.430, 948.328
957.692, 874.165
958.954, 772.935
960.216, 755.828
961.478, 703.694
962.739, 724.577
964.000, 727.470
965.261, 660.376
966.522, 691.292
967.783, 751.219
969.043, 731.163
970.303, 865.117
971.563, 881.082
972.823, 1007.060
974.083, 1198.047
975.343, 1277.046
976.602, 1664.057
977.861, 2039.078
979.120, 2544.110
980.379, 3376.154
981.638, 4381.214
982.896, 5994.287
984.154, 7406.368
985.412, 8201.460
986.670, 8065.562
987.928, 6550.679
989.185, 5023.811
990.443, 3822.952
991.700, 2695.104
992.957, 2107.268
994.214, 1546.447
995.470, 1203.647
996.727, 1031.857
997.983, 798.081
999.239, 619.333
1000.495, 558.594
1001.750, 419.868
1003.006, 399.153
1004.261, 296.451
1005.516, 230.763
1006.771, 238.084
1008.026, 159.420
1009.280, 147.772
1010.535, 93.134
1011.789, 109.517
1013.043, 143.914
1014.297, 35.321
1015.550, 37.739
1016.804, 71.165
1018.057, 9.603
1019.310, 65.054
1020.563, 21.514
1021.816, 49.983
1023.068, 52.462
1024.321, 9.950
1025.573, 36.448
1026.825, 20.045
1028.077, 41.466
1029.328, 23.986
1030.580, 14.484
1031.831, 28.949
1033.082, 5.413
1034.333, 50.869
1035.584, 7.333
1036.834, 41.788
1038.085, 34.248
1039.335, 26.708
1040.585, 33.166
1041.834, 7.625
1043.084, 1.076
1044.334, 24.518
1045.583, 11.042
1046.832, 3.389
1048.081, 23.188
1049.329, 21.774
1050.578, 3.631
1051.826, 80.972
1053.074, 50.592
1054.322, 92.221
1055.570, 148.858
1056.818, 62.505
1058.065, 148.161
1059.312, 150.826
1060.559, 178.499
1061.806, 230.181
1063.053, 243.871
1064.299, 342.571
1065.546, 454.279
1066.792, 527.996
1068.038, 727.721
1069.284, 954.455
1070.529, 1306.197
1071.775, 1922.948
1073.020, 2756.708
1074.265, 4383.480
1075.510, 6564.263
1076.754, 8561.053
1077.999, 9920.862
1079.243, 8300.683
1080.487, 6229.522
1081.731, 4286.373
1082.975, 2801.240
1084.219, 2043.125
1085.462, 1500.025
1086.705, 1069.942
1087.948, 888.875
1089.191, 663.822
1090.434, 604.785
1091.676, 590.760
1092.919, 451.754
1094.161, 440.757
1095.403, 415.774
1096.645, 331.812
1097.886, 374.859
1099.128, 307.921
1100.369, 298.871
1101.610, 300.953
1102.851, 220.054
1104.091, 242.167
1105.332, 283.297
1106.572, 204.434
1107.812, 248.688
1109.052, 231.840
1110.292, 217.634
1111.532, 241.804
1112.771, 190.981
1114.010, 265.085
1115.249, 208.276
1116.488, 226.760
1117.727, 260.801
1118.966, 204.011
1120.204, 234.559
1121.442, 259.419
1122.680, 280.656
1123.918, 294.327
1125.155, 293.104
1126.393, 304.352
1127.630, 379.872
1128.867, 374.909
1130.104, 369.582
1131.341, 429.504
1132.577, 415.778
1133.814, 507.369
1135.050, 483.657
1136.286, 550.390
1137.522, 614.794
1138.757, 591.098
1139.993, 713.695
1141.228, 698.740
1142.463, 733.172
1143.698, 873.310
1144.933, 853.666
1146.167, 960.243
1147.402, 1062.720
1148.636, 1089.104
1149.870, 1298.340
1151.104, 1305.963
1152.338, 1413.021
1153.571, 1723.471
1154.804, 1711.827
1156.037, 2043.552
1157.270, 2266.230
1158.503, 2386.647
1159.736, 2811.045
1160.968, 3082.389
1162.200, 3458.761
1163.432, 3986.524
1164.664, 4282.901
1165.896, 5037.573
1167.127, 5615.871
1168.359, 6133.255
1169.590, 7227.677
1170.821, 7619.138
1172.052, 8163.564
1173.282, 8792.053
1174.513, 8272.443
1175.743, 8084.332
1176.973, 7206.726
1178.203, 6155.120
1179.433, 5476.189
1180.662, 4360.754
1181.892, 3651.056
1183.121, 3124.668
1184.350, 2437.933
1185.579, 2175.965
1186.807, 1800.319
1188.036, 1444.975
1189.264, 1364.377
1190.492, 1134.795
1191.720, 979.178
1192.948, 903.922
1194.176, 727.380
1195.403, 709.732
1196.630, 637.177
1197.857, 564.634
1199.084, 563.984
1200.311, 496.328
1201.537, 490.799
1202.764, 492.262
1203.990, 426.745
1205.216, 388.158
1206.442, 409.661
1207.667, 321.073
1208.893, 362.486
1210.118, 292.947
1211.343, 291.359
1212.568, 250.774
1213.793, 211.217
1215.017, 209.631
1216.242, 215.044
1217.466, 167.457
1218.690, 204.869
1219.914, 137.342
1221.137, 144.752
1222.361, 113.162
1223.584, 138.604
1224.807, 133.011
1226.030, 153.418
1227.253, 93.965
1228.476, 142.368
1229.698, 69.855
1230.920, 102.319
1232.142, 106.717
1233.364, 83.184
1234.586, 97.577
1235.808, 92.968
1237.029, 63.419
1238.250, 109.804
1239.471, 63.190
1240.692, 74.736
1241.913, 70.123
1243.133, 21.507
1244.353, 57.891
1245.574, 52.275
1246.794, 10.341
1248.013, 27.031
1249.233, 8.403
1250.452, 25.837
1251.672, 10.193
1252.891, 40.583
1254.110, 3.932
1255.328, 21.275
1256.547, 20.385
1257.765, 54.936
1258.983, 45.252
1260.201, 8.395
1261.419, 53.899
1262.637, 2.229
1263.854, 22.349
1265.072, 53.903
1266.289, 2.137
1267.506, 2.651
1268.723, 16.646
1269.939, 0.930
1271.156, 0.428
1272.372, 21.756
1273.588, 5.083
1274.804, 3.785
1276.020, 13.669
1277.235, 1.462
1278.451, 31.661
1279.666, 5.686
1280.881, 57.819
1282.096, 13.097
1283.310, 7.534
1284.525, 31.531
1285.739, 7.607
1286.953, 1.135
1288.167, 7.090
1289.381, 34.054
1290.595, 25.213
1291.808, 8.774
1293.022, 54.785
1294.235, 23.226
1295.448, 2.815
1296.660, 10.264
1297.873, 0.368
1299.085, 5.698
1300.298, 51.311
1301.510, 9.772
1302.722, 8.867
1303.933, 26.116
1305.145, 35.997
1306.356, 3.130
1307.567, 44.794
1308.778, 8.642
1309.989, 44.534
1311.200, 12.367
1312.410, 1.810
1313.621, 50.002
1314.831, 33.807
1316.041, 27.604
1317.250, 34.393
1318.460, 25.175
1319.670, 54.948
1320.879, 96.714
1322.088, 59.474
1323.297, 102.231
1324.506, 87.975
1325.714, 56.714
1326.922, 95.473
1328.131, 74.196
1329.339, 91.919
1330.547, 63.683
1331.754, 96.388
1332.962, 52.092
1334.169, 101.785
1335.376, 24.474
1336.583, 92.167
1337.790, 74.839
1338.997, 39.507
1340.203, 74.312
1341.410, 43.962
1342.616, 41.603
1343.822, 75.335
1345.028, 16.040
1346.233, 39.569
1347.439, 42.169
1348.644, 37.761
1349.849, 71.346
1351.054, 34.940
1352.259, 58.508
1353.463, 106.103
1354.668, 44.656
1355.872, 73.202
1357.076, 60.573
1358.280, 51.103
1359.483, 120.626
1360.687, 68.206
1361.890, 69.711
1363.094, 88.211
1364.297, 44.701
1365.499, 82.185
1366.702, 139.687
1367.905, 52.161
1369.107, 85.627
1370.309, 114.203
1371.511, 33.613
1372.713, 121.010
1373.914, 41.516
1375.116, 46.888
1376.317, 111.245
1377.518, 45.596
1378.719, 94.895
1379.920, 97.172
1381.121, 48.747
1382.321, 133.650
1383.521, 73.781
1384.721, 34.903
1385.921, 132.018
1387.121, 87.216
1388.321, 83.308
1389.520, 124.392
1390.719, 113.351
1391.918, 107.671
1393.117, 112.715
1394.316, 51.747
1395.514, 122.425
1396.713, 58.047
1397.911, 75.299
1399.109, 130.157
1400.307, 76.793
1401.505, 87.197
1402.702, 109.334
1403.899, 55.845
1405.097, 64.680
1406.294, 54.154
1407.490, 32.722
1408.687, 64.010
1409.884, 51.069
1411.080, 56.544
1412.276, 29.925
1413.472, 30.127
1414.668, 1.241
1415.863, 37.745
1417.059, 11.934
1418.254, 48.866
1419.449, 73.663
1420.644, 21.013
1421.839, 39.247
1423.033, 8.517
1424.228, 34.845
1425.422, 50.194
1426.616, 1.470
1427.810, 46.854
1429.004, 42.165
1430.197, 10.463
1431.391, 81.511
1432.584, 46.703
1433.777, 6.901
1434.970, 54.066
1436.163, 61.096
1437.355, 33.067
1438.548, 85.066
1439.740, 16.197
1440.932, 12.230
1442.124, 63.268
1443.315, 23.336
1444.507, 54.388
1445.698, 71.313
1446.889, 22.266
1448.080, 60.263
1449.271, 70.973
1450.462, 26.643
1451.652, 81.439
1452.843, 30.355
1454.033, 71.128
1455.223, 74.661
1456.413, 42.474
1457.602, 64.246
1458.792, 70.986
1459.981, 78.555
1461.170, 122.195
1462.359, 92.894
1463.548, 56.585
1464.737, 121.179
1465.925, 38.791
1467.113, 64.181
1468.302, 101.039
1469.490, 33.466
1470.677, 59.144
1471.865, 84.676
1473.052, 27.454
1474.240, 63.802
1475.427, 62.627
1476.614, 61.107
1477.800, 72.308
1478.987, 33.134
1480.173, 75.145
1481.360, 101.845
1482.546, 5.242
1483.732, 107.483
1484.917, 68.939
1486.103, 11.346
1487.288, 97.055
1488.474, 100.488
1489.659, 41.956
1490.844, 99.628
1492.028, 42.288
1493.213, 30.947
1494.397, 58.599
1495.582, 27.227
1496.766, 41.877
1497.950, 66.417
1499.133, 12.157
1500.317, 55.623
1501.500, 101.482
1502.683, 21.305
