##NAMES=Datolite
##RRUFFID=R050136
##IDEAL CHEMISTRY=CaB(SiO_4_)(OH)
##LOCALITY=Charcas, San Luis Potosi, Mexico
##OWNER=RRUFF
##SOURCE=Dave Bunk Minerals
##DESCRIPTION=Pale green tabular crystals
##STATUS=The identification of this mineral has been confirmed by X-ray diffraction and chemical analysis
##URL=rruff.info/R050136
##MEASURED CHEMISTRY=Ca_1.00_BSi_1.00_O_4_(OH) ; trace amounts of Fe; B and OH estimated by stoichiometry end charge balance
##PIN_ID=L00270
##ORIENTATION=Laser parallel to -c* (0 0 -1). Fiducial mark perpendicular to laser is parallel to -a [-1 0 0]
101.036, 0.000
102.428, 1.504
103.820, 17.367
105.212, 10.966
106.604, 20.385
107.995, 51.766
109.387, 31.172
110.777, 141.256
112.168, 156.104
113.559, 109.058
114.949, 114.592
116.339, 99.304
117.729, 125.599
119.119, 187.020
120.508, 188.562
121.897, 216.419
123.286, 218.462
124.675, 229.518
126.063, 314.446
127.452, 467.135
128.840, 711.551
130.228, 882.622
131.615, 986.261
133.003, 1387.400
134.390, 1426.979
135.777, 1284.953
137.164, 874.281
138.550, 699.137
139.937, 482.388
141.323, 458.591
142.709, 385.472
144.094, 440.443
145.480, 501.493
146.865, 508.672
148.250, 620.972
149.635, 788.336
151.019, 929.763
152.403, 1215.282
153.788, 1624.099
155.171, 2636.453
156.555, 4534.010
157.939, 8360.565
159.322, 14073.123
160.705, 20902.686
162.088, 28773.264
163.470, 37792.848
164.853, 47290.441
166.235, 49694.062
167.617, 37529.695
168.998, 24090.371
170.380, 14671.064
171.761, 9207.796
173.142, 6425.573
174.523, 5137.002
175.904, 4605.648
177.284, 4404.081
178.664, 4109.110
180.044, 3062.559
181.424, 2141.674
182.803, 1553.921
184.183, 1144.312
185.562, 936.669
186.940, 930.009
188.319, 1066.354
189.698, 1098.715
191.076, 1223.100
192.454, 1186.374
193.831, 1308.948
195.209, 1054.405
196.586, 887.904
197.963, 741.444
199.340, 751.025
200.717, 766.647
202.093, 772.311
203.470, 672.794
204.846, 802.166
206.221, 902.331
207.597, 1158.372
208.972, 1705.181
210.347, 2351.858
211.722, 3816.368
213.097, 5806.920
214.472, 8045.516
215.846, 10786.151
217.220, 13765.828
218.594, 16575.541
219.967, 14923.291
221.341, 10097.076
222.714, 6112.898
224.087, 3500.751
225.460, 2182.636
226.832, 1314.554
228.204, 841.523
229.577, 607.565
230.948, 516.671
232.320, 343.805
233.692, 243.963
235.063, 199.143
236.434, 128.384
237.805, 79.742
239.175, 83.193
240.545, 45.814
241.916, 47.526
243.286, 7.342
244.655, 47.248
246.025, 20.197
247.394, 41.848
248.763, 36.109
250.132, 33.934
251.501, 7.025
252.869, 8.015
254.237, 2.055
255.605, 12.332
256.973, 73.142
258.340, 48.171
259.708, 86.195
261.075, 94.223
262.442, 39.292
263.808, 43.425
265.175, 19.400
266.541, 44.649
267.907, 145.239
269.273, 255.117
270.639, 417.994
272.004, 409.399
273.369, 480.004
274.734, 539.779
276.099, 447.701
277.463, 251.751
278.828, 230.917
280.192, 46.183
281.556, 34.459
282.919, 3.763
284.283, 11.033
285.646, 150.607
287.009, 212.243
288.372, 428.233
289.734, 749.977
291.097, 855.766
292.459, 1029.598
293.821, 1060.470
295.183, 849.378
296.544, 638.320
297.905, 278.292
299.266, 229.294
300.627, 167.322
301.988, 124.377
303.348, 43.454
304.709, 20.448
306.069, 32.338
307.428, 16.776
308.788, 38.097
310.147, 77.966
311.507, 3.158
312.865, 87.708
314.224, 68.583
315.583, 82.465
316.941, 10.356
318.299, 91.758
319.657, 90.878
321.015, 174.003
322.372, 181.134
323.729, 236.271
325.086, 362.412
326.443, 458.559
327.800, 619.710
329.156, 1021.866
330.512, 1332.028
331.868, 1902.194
333.224, 2334.364
334.579, 2329.539
335.935, 1893.718
337.290, 1324.900
338.645, 855.069
339.999, 565.229
341.354, 353.388
342.708, 293.542
344.062, 260.653
345.416, 117.694
346.769, 173.831
348.123, 168.957
349.476, 208.290
350.829, 220.494
352.182, 351.126
353.534, 463.919
354.887, 570.113
356.239, 714.009
357.591, 1037.809
358.942, 1283.519
360.294, 1390.702
361.645, 1553.750
362.996, 1520.995
364.347, 1402.048
365.698, 1158.104
367.048, 851.154
368.398, 690.487
369.748, 667.500
371.098, 665.375
372.448, 749.383
373.797, 558.543
375.146, 684.054
376.495, 784.605
377.844, 953.669
379.192, 970.506
380.540, 1405.324
381.889, 1762.488
383.236, 2320.135
384.584, 3269.940
385.932, 4671.381
387.279, 6625.094
388.626, 8870.666
389.973, 11534.723
391.319, 13392.620
392.666, 14596.514
394.012, 12900.404
395.358, 10188.290
396.704, 7388.170
398.049, 5205.046
399.394, 3938.918
400.740, 2900.785
402.084, 2183.646
403.429, 1581.500
404.774, 1206.346
406.118, 1071.185
407.462, 819.014
408.806, 679.835
410.150, 631.034
411.493, 440.481
412.836, 508.811
414.179, 507.910
415.522, 367.902
416.865, 599.737
418.207, 584.039
419.549, 737.660
420.891, 974.500
422.233, 1151.424
423.575, 1366.922
424.916, 1291.048
426.257, 1124.969
427.598, 924.663
428.939, 521.361
430.279, 627.076
431.619, 235.800
432.959, 203.526
434.299, 234.250
435.639, 279.978
436.978, 265.717
438.318, 352.452
439.657, 235.182
440.996, 296.912
442.334, 216.635
443.673, 45.899
445.011, 45.399
446.349, 151.103
447.687, 91.797
449.024, 47.483
450.361, 131.154
451.699, 129.816
453.036, 233.467
454.372, 340.107
455.709, 542.738
457.045, 528.358
458.381, 722.967
459.717, 610.565
461.053, 545.152
462.388, 329.913
463.724, 294.477
465.059, 250.196
466.394, 150.644
467.728, 145.533
469.063, 202.098
470.397, 161.668
471.731, 177.259
473.065, 194.656
474.398, 132.592
475.732, 243.546
477.065, 196.721
478.398, 340.522
479.731, 353.108
481.063, 655.714
482.396, 858.310
483.728, 1141.895
485.060, 1727.500
486.391, 2379.092
487.723, 3395.671
489.054, 4324.235
490.385, 5266.792
491.716, 5597.335
493.047, 4917.872
494.377, 3699.396
495.708, 2507.904
497.038, 1689.428
498.368, 1177.936
499.697, 880.430
501.027, 579.907
502.356, 448.370
503.685, 270.817
505.014, 251.248
506.342, 81.665
507.671, 87.064
508.999, 65.448
510.327, 76.812
511.655, 15.159
512.982, 44.476
514.310, 29.826
515.637, 38.964
516.964, 46.243
518.291, 51.428
519.617, 92.589
520.944, 196.733
522.270, 84.860
523.596, 263.969
524.921, 197.062
526.247, 178.137
527.572, 30.196
528.897, 38.775
530.222, 52.806
531.547, 9.094
532.871, 10.042
534.196, 63.224
535.520, 111.479
536.844, 39.834
538.167, 4.251
539.491, 35.712
540.814, 25.234
542.137, 48.810
543.460, 19.454
544.783, 13.638
546.105, 17.880
547.427, 62.328
548.749, 111.525
550.071, 238.704
551.393, 318.865
552.714, 392.008
554.035, 458.031
555.356, 561.240
556.677, 559.330
557.998, 514.401
559.318, 577.455
560.638, 557.490
561.958, 521.508
563.278, 413.507
564.597, 445.488
565.917, 228.451
567.236, 226.396
568.555, 180.322
569.874, 0.239
571.192, 17.112
572.511, 91.957
573.829, 74.780
575.147, 115.873
576.464, 196.460
577.782, 180.227
579.099, 141.990
580.416, 212.948
581.733, 287.699
583.050, 383.773
584.366, 436.514
585.683, 695.244
586.999, 811.955
588.315, 1114.911
589.630, 1623.914
590.946, 2022.802
592.261, 2347.438
593.576, 2410.600
594.891, 2184.889
596.206, 1918.842
597.520, 1759.620
598.834, 1525.260
600.148, 1261.951
601.462, 1183.842
602.776, 1039.066
604.089, 823.608
605.402, 647.055
606.715, 559.482
608.028, 509.591
609.341, 409.977
610.653, 183.344
611.965, 253.690
613.277, 180.418
614.589, 255.725
615.901, 180.262
617.212, 222.528
618.523, 243.116
619.834, 132.535
621.145, 199.047
622.456, 143.911
623.766, 193.324
625.076, 351.854
626.386, 232.148
627.696, 305.769
629.006, 171.288
630.315, 273.659
631.624, 223.629
632.933, 204.882
634.242, 411.610
635.551, 312.960
636.859, 393.314
638.167, 342.286
639.475, 422.569
640.783, 483.386
642.090, 629.324
643.398, 750.392
644.705, 889.442
646.012, 953.333
647.318, 1214.692
648.625, 1534.538
649.931, 1805.284
651.237, 2207.306
652.543, 2562.082
653.849, 3101.837
655.155, 3369.565
656.460, 3178.271
657.765, 3227.951
659.070, 2925.609
660.375, 3135.243
661.679, 3450.854
662.984, 3837.443
664.288, 4696.887
665.592, 5617.320
666.895, 6776.531
668.199, 7450.854
669.502, 7939.729
670.805, 7534.425
672.108, 7033.702
673.411, 6126.244
674.713, 5145.865
676.016, 4941.557
677.318, 4456.758
678.620, 4381.074
679.921, 4593.176
681.223, 4834.448
682.524, 5512.701
683.825, 6684.932
685.126, 8685.849
686.427, 11752.022
687.727, 16330.279
689.028, 23422.332
690.328, 31994.213
691.628, 41538.719
692.927, 47579.188
694.227, 46394.102
695.526, 36070.242
696.825, 26473.365
698.124, 17613.131
699.423, 12283.397
700.721, 8517.481
702.020, 6294.918
703.318, 4677.061
704.616, 3522.326
705.913, 2653.092
707.211, 2240.994
708.508, 1983.883
709.805, 1601.756
711.102, 1195.612
712.399, 1181.452
713.695, 887.278
714.992, 908.089
716.288, 710.885
717.584, 734.666
718.879, 503.432
720.175, 396.183
721.470, 485.919
722.765, 436.641
724.060, 450.348
725.355, 340.042
726.649, 318.076
727.944, 250.910
729.238, 277.247
730.532, 108.372
731.825, 264.815
733.119, 246.425
734.412, 204.021
735.705, 78.529
736.998, 182.097
738.291, 48.650
739.584, 203.188
740.876, 181.712
742.168, 143.224
743.460, 28.278
744.752, 13.822
746.043, 64.597
747.334, 150.003
748.626, 2.604
749.916, 37.238
751.207, 31.082
752.498, 62.386
753.788, 2.676
755.078, 71.941
756.368, 18.806
757.658, 145.413
758.947, 25.622
760.237, 235.816
761.526, 178.001
762.815, 255.174
764.104, 339.336
765.392, 262.488
766.680, 254.629
767.969, 13.759
769.257, 277.873
770.544, 39.979
771.832, 99.069
773.119, 16.149
774.406, 50.218
775.693, 22.088
776.980, 46.869
778.267, 32.979
779.553, 59.032
780.839, 40.094
782.125, 30.193
783.411, 29.326
784.697, 27.549
785.982, 85.765
787.267, 59.021
788.552, 51.323
789.837, 109.668
791.122, 7.915
792.406, 121.514
793.690, 1.021
794.974, 6.541
796.258, 124.077
797.542, 41.309
798.825, 38.685
800.108, 80.053
801.391, 23.587
802.674, 87.751
803.957, 31.920
805.239, 9.385
806.522, 74.680
807.804, 115.031
809.085, 78.189
810.367, 172.403
811.649, 68.612
812.930, 63.813
814.211, 138.014
815.492, 97.208
816.772, 256.400
818.053, 326.586
819.333, 344.785
820.613, 456.981
821.893, 763.173
823.173, 961.364
824.452, 1249.559
825.732, 1717.753
827.011, 1911.949
828.290, 2283.162
829.568, 2301.388
830.847, 1995.612
832.125, 1670.865
833.403, 1317.116
834.681, 851.364
835.959, 601.612
837.236, 526.888
838.514, 433.171
839.791, 365.457
841.068, 314.437
842.345, 149.119
843.621, 210.484
844.898, 105.864
846.174, 7.271
847.450, 278.747
848.726, 79.246
850.001, 162.759
851.277, 100.293
852.552, 149.846
853.827, 241.426
855.102, 212.027
856.376, 261.468
857.651, 291.275
858.925, 340.907
860.199, 258.541
861.473, 403.177
862.746, 473.813
864.020, 632.453
865.293, 460.093
866.566, 584.735
867.839, 555.379
869.112, 535.022
870.384, 559.671
871.656, 630.319
872.928, 721.101
874.200, 735.623
875.472, 987.278
876.744, 1252.938
878.015, 1405.598
879.286, 1485.261
880.557, 1873.939
881.828, 1989.629
883.098, 2000.322
884.369, 1774.928
885.639, 1777.631
886.909, 1612.337
888.178, 1540.047
889.448, 1310.556
890.717, 1299.273
891.987, 1202.672
893.256, 1184.396
894.524, 1106.125
895.793, 1040.856
897.061, 1238.331
898.330, 1236.742
899.598, 1201.256
900.865, 1541.004
902.133, 1604.213
903.401, 1709.280
904.668, 1958.669
905.935, 2404.217
907.202, 2621.890
908.468, 3146.498
909.735, 3911.890
911.001, 5041.682
912.267, 6260.113
913.533, 8305.915
914.799, 10923.723
916.064, 13574.539
917.330, 16180.362
918.595, 16727.193
919.860, 15619.023
921.124, 13456.464
922.389, 10630.310
923.653, 8406.914
924.918, 6396.773
926.182, 5148.301
927.445, 4190.979
928.709, 3376.555
929.972, 2878.767
931.236, 2467.412
932.499, 2123.938
933.761, 2097.690
935.024, 1785.109
936.286, 1557.628
937.549, 1689.299
938.811, 1354.360
940.073, 1410.148
941.334, 1166.467
942.596, 1157.172
943.857, 1229.865
945.118, 1150.930
946.379, 1197.580
947.640, 1159.825
948.900, 1202.927
950.161, 1095.847
951.421, 1055.780
952.681, 1066.861
953.940, 1143.464
955.200, 1009.570
956.459, 915.788
957.719, 1042.718
958.978, 958.887
960.236, 857.082
961.495, 763.294
962.753, 896.530
964.012, 841.776
965.270, 783.502
966.527, 1041.108
967.785, 1033.597
969.043, 1051.934
970.300, 1167.004
971.557, 1242.457
972.814, 1440.831
974.071, 1536.768
975.327, 1935.192
976.583, 2289.629
977.840, 3178.077
979.095, 3868.619
980.351, 5056.477
981.607, 6998.148
982.862, 8994.525
984.117, 10767.092
985.372, 10751.586
986.627, 11167.535
987.882, 9603.168
989.136, 7479.842
990.390, 5706.508
991.644, 4446.513
992.898, 3260.201
994.152, 2676.166
995.405, 2058.963
996.659, 1658.730
997.912, 1369.104
999.165, 1211.147
1000.417, 1259.174
1001.670, 881.050
1002.922, 1098.941
1004.174, 813.998
1005.426, 887.898
1006.678, 640.041
1007.930, 615.198
1009.181, 581.193
1010.432, 584.161
1011.683, 563.146
1012.934, 443.512
1014.185, 342.517
1015.435, 335.300
1016.685, 331.592
1017.935, 328.642
1019.185, 317.704
1020.435, 381.774
1021.684, 331.764
1022.934, 301.941
1024.183, 297.059
1025.432, 195.180
1026.680, 225.312
1027.929, 117.448
1029.177, 268.593
1030.425, 145.742
1031.673, 324.897
1032.921, 146.061
1034.169, 151.229
1035.416, 258.404
1036.663, 288.584
1037.911, 218.768
1039.157, 148.960
1040.404, 211.157
1041.650, 291.358
1042.897, 353.564
1044.143, 253.775
1045.389, 262.993
1046.634, 300.215
1047.880, 362.455
1049.125, 324.709
1050.371, 271.970
1051.615, 650.235
1052.860, 337.512
1054.105, 623.810
1055.349, 659.110
1056.593, 576.415
1057.837, 663.729
1059.081, 834.046
1060.325, 813.377
1061.568, 901.708
1062.812, 1111.044
1064.055, 1333.382
1065.298, 1358.721
1066.540, 1887.218
1067.783, 2191.559
1069.025, 2700.902
1070.267, 3983.248
1071.509, 5174.596
1072.751, 7501.943
1073.993, 11409.292
1075.234, 15781.745
1076.475, 20504.166
1077.716, 22590.883
1078.957, 20103.396
1080.198, 15519.772
1081.438, 11609.144
1082.679, 8307.018
1083.919, 6132.039
1085.159, 4362.822
1086.398, 3241.249
1087.638, 2469.099
1088.877, 1881.399
1090.116, 1437.878
1091.355, 1130.439
1092.594, 815.812
1093.833, 753.254
1095.071, 524.835
1096.309, 519.393
1097.547, 624.275
1098.785, 416.363
1100.023, 355.249
1101.260, 285.393
1102.498, 451.223
1103.735, 104.157
1104.972, 215.431
1106.208, 192.037
1107.445, 47.755
1108.681, 99.175
1109.918, 241.502
1111.154, 29.307
1112.389, 143.113
1113.625, 16.907
1114.860, 11.330
1116.096, 4.562
1117.331, 27.180
1118.566, 89.923
1119.800, 5.853
1121.035, 84.379
1122.269, 17.438
1123.503, 125.802
1124.737, 111.506
1125.971, 95.223
1127.205, 37.669
1128.438, 55.514
1129.671, 18.454
1130.904, 128.483
1132.137, 80.016
1133.370, 8.904
1134.602, 147.262
1135.834, 125.910
1137.066, 43.158
1138.298, 203.896
1139.530, 48.357
1140.762, 103.434
1141.993, 61.663
1143.224, 67.564
1144.455, 165.629
1145.686, 110.976
1146.917, 60.547
1148.147, 68.349
1149.377, 147.615
1150.607, 117.446
1151.837, 79.098
1153.067, 8.257
1154.296, 68.245
1155.526, 68.798
1156.755, 111.437
1157.984, 240.643
1159.213, 147.969
1160.441, 43.447
1161.670, 159.804
1162.898, 154.674
1164.126, 299.400
1165.354, 370.372
1166.581, 493.645
1167.809, 584.395
1169.036, 633.926
1170.263, 717.312
1171.490, 704.627
1172.717, 670.218
1173.943, 643.571
1175.170, 507.109
1176.396, 657.028
1177.622, 678.773
1178.848, 593.438
1180.073, 313.903
1181.299, 483.339
1182.524, 369.086
1183.749, 242.479
1184.974, 362.089
1186.199, 297.271
1187.423, 262.674
1188.648, 306.980
1189.872, 220.263
1191.096, 235.884
1192.320, 271.591
1193.543, 346.166
1194.767, 382.359
1195.990, 322.529
1197.213, 371.391
1198.436, 459.723
1199.659, 501.822
1200.881, 387.418
1202.104, 614.471
1203.326, 583.500
1204.548, 661.639
1205.770, 371.620
1206.991, 436.577
1208.213, 452.510
1209.434, 502.419
1210.655, 227.388
1211.876, 226.248
1213.096, 167.083
1214.317, 244.893
1215.537, 345.677
1216.757, 245.437
1217.977, 354.172
1219.197, 308.885
1220.417, 227.577
1221.636, 189.332
1222.855, 198.975
1224.074, 128.590
1225.293, 178.380
1226.512, 222.743
1227.731, 239.281
1228.949, 105.794
1230.167, 75.279
1231.385, 135.732
1232.603, 370.162
1233.820, 127.570
1235.038, 51.945
1236.255, 312.281
1237.472, 213.598
1238.689, 111.893
1239.906, 168.166
1241.122, 227.412
1242.338, 267.631
1243.555, 157.828
1244.771, 117.975
1245.986, 34.076
1247.202, 106.135
1248.417, 181.137
1249.633, 158.115
1250.848, 42.949
1252.063, 238.941
1253.277, 44.775
1254.492, 12.422
1255.706, 84.299
1256.920, 15.979
1258.134, 197.586
1259.348, 51.850
1260.562, 285.203
1261.775, 202.355
1262.988, 0.412
1264.201, 168.918
1265.414, 185.418
1266.627, 243.498
1267.839, 91.633
1269.052, 42.824
1270.264, 194.193
1271.476, 190.160
1272.688, 77.936
1273.899, 161.854
1275.111, 31.301
1276.322, 95.906
1277.533, 21.248
1278.744, 11.615
1279.955, 3.262
1281.165, 117.271
1282.376, 1.768
1283.586, 60.203
1284.796, 101.621
1286.006, 84.678
1287.215, 19.975
1288.425, 34.074
1289.634, 72.734
1290.843, 153.461
1292.052, 195.992
1293.261, 55.883
1294.469, 1.254
1295.678, 5.740
1296.886, 68.693
1298.094, 67.457
1299.302, 11.354
1300.509, 72.984
1301.717, 60.572
1302.924, 18.701
1304.131, 4.973
1305.338, 73.709
1306.545, 87.990
1307.752, 53.400
1308.958, 93.154
1310.164, 166.672
1311.370, 12.154
1312.576, 121.596
1313.782, 46.002
1314.987, 149.369
1316.193, 56.299
1317.398, 228.975
1318.603, 63.215
1319.807, 240.416
1321.012, 135.588
1322.216, 171.725
1323.421, 185.828
1324.625, 39.904
1325.829, 242.945
1327.032, 149.957
1328.236, 256.939
1329.439, 171.895
1330.642, 56.824
1331.845, 210.723
1333.048, 240.596
1334.251, 329.443
1335.453, 141.264
1336.656, 115.059
1337.858, 140.826
1339.060, 228.568
1340.261, 322.285
1341.463, 68.980
1342.664, 175.646
1343.866, 246.291
1345.067, 100.910
1346.267, 295.508
1347.468, 230.082
1348.669, 191.635
1349.869, 387.170
1351.069, 314.686
1352.269, 253.186
1353.469, 439.666
1354.668, 201.133
1355.868, 388.584
1357.067, 346.021
1358.266, 227.289
1359.465, 291.705
1360.664, 458.262
1361.862, 249.656
1363.061, 498.381
1364.259, 235.855
1365.457, 198.234
1366.655, 355.514
1367.852, 358.996
1369.050, 253.012
1370.247, 255.307
1371.444, 422.699
1372.641, 379.990
1373.838, 437.797
1375.035, 372.443
1376.231, 370.996
1377.427, 458.217
1378.623, 359.453
1379.819, 300.701
1381.015, 388.557
1382.211, 439.656
1383.406, 334.457
1384.601, 474.387
1385.796, 555.184
1386.991, 406.227
1388.185, 412.779
1389.380, 339.971
1390.574, 530.236
1391.768, 330.389
1392.962, 459.422
1394.156, 399.709
1395.350, 321.553
1396.543, 437.375
1397.736, 243.832
1398.929, 406.141
1400.122, 342.412
1401.315, 310.162
1402.507, 277.631
1403.700, 263.564
1404.892, 311.482
1406.084, 293.113
1407.276, 265.607
1408.467, 331.891
1409.659, 224.842
1410.850, 172.143
1412.041, 324.281
1413.232, 274.885
1414.423, 405.611
1415.614, 358.295
1416.804, 318.928
1417.994, 230.850
1419.184, 403.732
1420.374, 233.328
1421.564, 327.668
1422.753, 289.148
1423.943, 363.764
1425.132, 280.557
1426.321, 261.430
1427.510, 370.244
1428.698, 266.359
1429.887, 372.146
1431.075, 403.586
1432.263, 404.488
1433.451, 318.943
1434.639, 435.926
1435.827, 389.469
1437.014, 335.170
1438.201, 450.816
1439.388, 541.262
1440.575, 374.791
1441.762, 427.260
1442.949, 444.666
1444.135, 385.824
1445.321, 407.072
1446.507, 402.250
1447.693, 503.354
1448.879, 411.395
1450.064, 429.336
1451.250, 411.227
1452.435, 245.014
1453.620, 569.668
1454.805, 454.221
1455.989, 315.793
1457.174, 552.398
1458.358, 426.973
1459.542, 512.523
1460.726, 538.111
1461.910, 375.811
1463.093, 514.609
1464.277, 387.428
1465.460, 348.588
1466.643, 382.004
1467.826, 297.494
1469.009, 340.822
1470.191, 376.949
1471.373, 342.852
1472.556, 435.859
1473.738, 339.904
1474.919, 243.965
1476.101, 423.049
1477.283, 377.180
1478.464, 295.350
1479.645, 312.553
1480.826, 382.785
1482.007, 171.053
1483.187, 423.367
1484.368, 283.742
1485.548, 329.191
1486.728, 364.736
1487.908, 237.395
1489.088, 222.195
1490.268, 174.914
1491.447, 244.289
1492.626, 144.611
1493.805, 177.127
1494.984, 317.814
1496.163, 295.674
1497.341, 307.699
1498.520, 398.902
1499.698, 172.303
1500.876, 275.926
1502.054, 47.803
1503.232, 209.967
1504.409, 15.459
1505.586, 18.689
1506.763, 329.557
1507.940, 228.230
1509.117, 66.377
1510.294, 162.061
1511.470, 101.365
1512.647, 213.953
1513.823, 252.184
1514.999, 140.748
1516.174, 159.654
1517.350, 3.207
1518.526, 338.299
1519.701, 83.246
1520.876, 0.000
##END=
