##NAMES=Datolite
##RRUFFID=R050136
##IDEAL CHEMISTRY=CaB(SiO_4_)(OH)
##LOCALITY=Charcas, San Luis Potosi, Mexico
##OWNER=RRUFF
##SOURCE=Dave Bunk Minerals
##DESCRIPTION=Pale green tabular crystals
##STATUS=The identification of this mineral has been confirmed by X-ray diffraction and chemical analysis
##URL=rruff.info/R050136
##MEASURED CHEMISTRY=Ca_1.00_BSi_1.00_O_4_(OH) ; trace amounts of Fe; B and OH estimated by stoichiometry end charge balance
##PIN_ID=L00087
##ORIENTATION=Laser parallel to (-1 0 -1). Fiducial mark perpendicular to laser is parallel to -b [0 -1 0]
90.650, 0.000
92.046, 41.049
93.442, 52.916
94.838, 71.494
96.233, 103.028
97.628, 186.600
99.023, 220.588
100.418, 142.893
101.812, 146.209
103.206, 14.096
104.600, 67.307
105.994, 68.133
107.387, 168.923
108.781, 190.754
110.174, 65.650
111.566, 24.288
112.959, 53.808
114.351, 128.370
115.744, 162.408
117.136, 167.134
118.527, 124.617
119.919, 87.041
121.310, 161.445
122.701, 99.886
124.092, 170.676
125.482, 157.281
126.873, 100.246
128.263, 224.981
129.653, 298.794
131.042, 780.095
132.432, 1640.821
133.821, 3386.444
135.210, 4128.463
136.599, 2380.600
137.987, 1069.229
139.376, 418.433
140.764, 258.093
142.152, 76.608
143.539, 25.265
144.927, 3.233
146.314, 27.184
147.701, 18.149
149.088, 15.108
150.474, 143.187
151.861, 327.804
153.247, 799.698
154.633, 1142.581
156.018, 1051.159
157.404, 796.644
158.789, 615.014
160.174, 989.003
161.559, 1537.443
162.943, 3623.291
164.327, 8169.138
165.711, 13750.837
167.095, 13696.666
168.479, 6386.666
169.862, 2783.670
171.246, 1402.778
172.628, 995.783
174.011, 797.950
175.394, 874.622
176.776, 1540.254
178.158, 2249.145
179.540, 2802.635
180.922, 1868.452
182.303, 904.353
183.684, 509.309
185.065, 293.284
186.446, 247.698
187.826, 203.505
189.207, 250.623
190.587, 310.590
191.967, 645.555
193.346, 805.518
194.726, 548.482
196.105, 404.530
197.484, 211.433
198.862, 329.282
200.241, 436.393
201.619, 556.416
202.997, 419.363
204.375, 237.835
205.753, 177.622
207.130, 119.703
208.507, 186.082
209.884, 226.430
211.261, 337.740
212.638, 444.005
214.014, 459.221
215.390, 712.387
216.766, 1409.779
218.141, 2953.082
219.517, 3554.962
220.892, 2222.247
222.267, 1209.263
223.642, 486.097
225.016, 309.885
226.391, 186.624
227.765, 85.290
229.139, 77.895
230.512, 59.438
231.886, 63.898
233.259, 35.278
234.632, 0.602
236.005, 3.881
237.377, 3.880
238.749, 18.683
240.122, 18.534
241.493, 27.445
242.865, 50.441
244.237, 34.528
245.608, 25.719
246.979, 0.969
248.350, 5.524
249.720, 39.070
251.090, 33.812
252.461, 15.460
253.830, 35.403
255.200, 8.698
256.570, 19.586
257.939, 12.732
259.308, 21.379
260.677, 38.038
262.045, 50.039
263.414, 76.445
264.782, 127.503
266.150, 128.226
267.517, 261.534
268.885, 342.578
270.252, 575.980
271.619, 866.026
272.986, 1257.216
274.353, 1655.274
275.719, 1594.480
277.085, 1317.097
278.451, 806.856
279.817, 542.938
281.182, 408.999
282.548, 321.779
283.913, 356.005
285.278, 301.872
286.642, 472.288
288.007, 530.152
289.371, 859.327
290.735, 1545.549
292.099, 2209.001
293.462, 2925.323
294.826, 2159.495
296.189, 1491.713
297.552, 909.774
298.914, 581.598
300.277, 440.828
301.639, 314.812
303.001, 288.981
304.363, 234.904
305.724, 207.111
307.086, 196.244
308.447, 178.248
309.808, 197.995
311.168, 150.047
312.529, 182.631
313.889, 138.971
315.249, 166.738
316.609, 208.887
317.969, 210.950
319.328, 261.906
320.687, 315.748
322.046, 462.431
323.405, 580.143
324.764, 497.417
326.122, 548.617
327.480, 438.544
328.838, 641.345
330.196, 802.005
331.553, 1199.505
332.910, 1673.861
334.267, 1846.116
335.624, 1826.232
336.981, 1148.378
338.337, 708.379
339.693, 491.865
341.049, 354.931
342.405, 327.047
343.760, 248.292
345.116, 334.341
346.471, 300.195
347.826, 335.017
349.180, 404.902
350.535, 369.731
351.889, 499.914
353.243, 518.391
354.597, 683.221
355.950, 883.284
357.304, 1181.048
358.657, 1703.678
360.010, 2097.721
361.362, 3006.520
362.715, 3158.902
364.067, 3316.700
365.419, 2709.872
366.771, 1928.537
368.123, 1593.414
369.474, 1120.800
370.825, 968.624
372.176, 800.282
373.527, 702.244
374.877, 672.686
376.228, 640.044
377.578, 770.979
378.928, 749.132
380.277, 812.604
381.627, 811.582
382.976, 816.769
384.325, 988.580
385.674, 1131.410
387.023, 1660.088
388.371, 2201.015
389.719, 3313.318
391.067, 5083.645
392.415, 5953.876
393.762, 6794.825
395.110, 5104.854
396.457, 3539.336
397.804, 2488.496
399.150, 1561.864
400.497, 1240.773
401.843, 858.769
403.189, 751.790
404.535, 647.268
405.881, 442.320
407.226, 425.388
408.571, 314.027
409.916, 315.361
411.261, 216.973
412.605, 248.837
413.950, 253.057
415.294, 197.454
416.638, 284.627
417.981, 258.520
419.325, 399.667
420.668, 598.631
422.011, 893.575
423.354, 1652.101
424.697, 2104.786
426.039, 2409.773
427.381, 1628.193
428.723, 950.582
430.065, 653.682
431.406, 346.099
432.748, 276.011
434.089, 207.890
435.430, 192.736
436.770, 261.550
438.111, 197.334
439.451, 325.092
440.791, 279.823
442.131, 262.525
443.471, 204.960
444.810, 155.004
446.149, 79.168
447.488, 40.084
448.827, 42.651
450.166, 58.192
451.504, 9.705
452.842, 67.190
454.180, 3.652
455.518, 85.084
456.855, 108.490
458.193, 121.870
459.530, 154.224
460.867, 33.554
462.203, 69.802
463.540, 0.509
464.876, 26.085
466.212, 30.414
467.548, 6.373
468.883, 12.782
470.219, 32.127
471.554, 35.042
472.889, 3.965
474.224, 35.821
475.558, 39.125
476.892, 43.799
478.227, 4.433
479.561, 14.658
480.894, 27.101
482.228, 50.754
483.561, 24.874
484.894, 104.981
486.227, 98.070
487.559, 188.160
488.892, 308.235
490.224, 497.300
491.556, 677.360
492.888, 499.407
494.220, 394.466
495.551, 197.518
496.882, 85.573
498.213, 95.631
499.544, 9.322
500.874, 38.729
502.205, 12.560
503.535, 6.726
504.865, 7.667
506.194, 29.586
507.524, 3.007
508.853, 34.258
510.182, 8.290
511.511, 21.574
512.840, 30.473
514.168, 9.463
515.496, 11.609
516.824, 6.304
518.152, 31.204
519.480, 29.092
520.807, 157.972
522.134, 112.848
523.461, 270.720
524.788, 273.584
526.114, 254.440
527.441, 212.290
528.767, 86.137
530.093, 102.983
531.418, 29.829
532.744, 34.673
534.069, 26.512
535.394, 16.655
536.719, 20.165
538.044, 21.976
539.368, 12.222
540.693, 49.566
542.017, 1.654
543.340, 81.116
544.664, 64.879
545.987, 130.634
547.311, 199.383
548.634, 234.128
549.956, 437.873
551.279, 502.620
552.601, 879.371
553.923, 1108.128
555.245, 1139.888
556.567, 1143.656
557.889, 781.436
559.210, 702.227
560.531, 663.033
561.852, 665.856
563.173, 671.696
564.493, 424.556
565.813, 439.441
567.133, 271.348
568.453, 216.274
569.773, 196.211
571.092, 58.958
572.412, 181.886
573.731, 134.877
575.049, 147.672
576.368, 208.699
577.686, 153.736
579.005, 274.789
580.323, 223.851
581.640, 295.931
582.958, 391.017
584.275, 476.109
585.593, 731.205
586.909, 842.303
588.226, 1272.458
589.543, 1765.558
590.859, 2134.657
592.175, 3133.751
593.491, 3321.843
594.807, 3459.079
596.122, 3133.162
597.438, 2356.230
598.753, 2213.502
600.068, 1732.575
601.382, 1720.762
602.697, 1578.831
604.011, 1262.749
605.325, 1157.357
606.639, 726.810
607.952, 602.278
609.266, 407.817
610.579, 292.158
611.892, 301.746
613.205, 160.073
614.518, 206.746
615.830, 144.523
617.142, 154.362
618.454, 214.360
619.766, 136.842
621.078, 224.355
622.389, 191.873
623.700, 199.487
625.011, 322.480
626.322, 214.891
627.632, 234.878
628.943, 256.905
630.253, 164.800
631.563, 222.026
632.872, 139.589
634.182, 249.512
635.491, 189.411
636.800, 225.183
638.109, 298.623
639.418, 217.375
640.726, 381.913
642.035, 369.159
643.343, 474.098
644.651, 610.083
645.958, 642.316
647.266, 948.341
648.573, 985.395
649.880, 1350.587
651.187, 1811.661
652.494, 2032.762
653.800, 2892.088
655.106, 2940.866
656.412, 3158.902
657.718, 3056.046
659.024, 2304.803
660.329, 2200.463
661.634, 1656.621
662.939, 1498.209
664.244, 1477.863
665.549, 1307.439
666.853, 1506.027
668.157, 1484.436
669.461, 1628.099
670.765, 1577.839
672.069, 1331.456
673.372, 1542.795
674.675, 1324.404
675.978, 1416.120
677.281, 1527.830
678.583, 1451.828
679.886, 1883.822
681.188, 1983.814
682.490, 2494.803
683.792, 3090.789
685.093, 3731.772
686.394, 5621.741
687.696, 7095.718
688.997, 11181.455
690.297, 17259.211
691.598, 25036.945
692.898, 38134.191
694.198, 37001.891
695.498, 32459.613
696.798, 24186.986
698.097, 13844.824
699.397, 10622.426
700.696, 6674.379
701.995, 4942.292
703.293, 3935.240
704.592, 2711.187
705.890, 2486.132
707.188, 1785.074
708.486, 1532.015
709.784, 1347.954
711.081, 1014.890
712.378, 982.824
713.675, 702.756
714.972, 695.686
716.269, 677.613
717.565, 439.538
718.862, 443.460
720.158, 371.380
721.453, 331.297
722.749, 373.211
724.045, 277.123
725.340, 318.031
726.635, 263.936
727.930, 194.839
729.224, 250.739
730.519, 186.635
731.813, 203.529
733.107, 200.419
734.401, 166.306
735.694, 220.189
736.988, 99.068
738.281, 166.943
739.574, 84.815
740.867, 106.682
742.160, 164.546
743.452, 54.406
744.744, 117.261
746.036, 69.113
747.328, 69.960
748.620, 85.803
749.911, 20.642
751.202, 122.476
752.493, 74.306
753.784, 21.132
755.075, 106.953
756.365, 39.769
757.655, 92.580
758.945, 92.388
760.235, 189.192
761.525, 284.994
762.814, 257.794
764.103, 525.594
765.392, 536.391
766.681, 488.187
767.969, 442.982
769.258, 216.775
770.546, 198.566
771.834, 133.354
773.122, 64.140
774.409, 86.921
775.697, 18.300
776.984, 28.460
778.271, 35.218
779.558, 60.027
780.844, 32.686
782.131, 44.602
783.417, 6.077
784.703, 8.247
785.989, 49.586
787.274, 22.040
788.560, 72.332
789.845, 32.753
791.130, 14.806
792.415, 65.641
793.699, 30.869
794.983, 32.626
796.268, 13.148
797.552, 67.311
798.835, 52.232
800.119, 27.185
801.402, 1.404
802.686, 19.006
803.969, 34.369
805.251, 83.261
806.534, 2.947
807.816, 39.647
809.098, 49.381
810.380, 41.848
811.662, 63.927
812.944, 52.255
814.225, 3.566
815.506, 47.384
816.787, 81.763
818.068, 1.086
819.349, 89.058
820.629, 155.200
821.909, 93.347
823.189, 271.494
824.469, 197.638
825.749, 458.784
827.028, 566.929
828.307, 584.073
829.586, 829.215
830.865, 613.356
832.144, 574.514
833.422, 432.669
834.700, 286.820
835.978, 315.972
837.256, 174.120
838.534, 160.266
839.811, 211.408
841.088, 106.547
842.365, 184.705
843.642, 144.859
844.919, 134.017
846.195, 194.187
847.472, 127.357
848.748, 216.540
850.023, 178.720
851.299, 197.901
852.575, 316.104
853.850, 213.305
855.125, 375.509
856.400, 469.721
857.674, 486.931
858.949, 798.138
860.223, 820.343
861.497, 1149.544
862.771, 1500.743
864.045, 1601.939
865.318, 1916.132
866.591, 1473.322
867.864, 1142.509
869.137, 945.693
870.410, 601.874
871.682, 506.052
872.955, 390.227
874.227, 277.398
875.499, 411.568
876.770, 272.734
878.042, 365.897
879.313, 355.058
880.584, 325.215
881.855, 444.370
883.126, 313.522
884.396, 409.671
885.667, 325.817
886.937, 293.961
888.207, 392.102
889.476, 301.240
890.746, 280.375
892.015, 384.508
893.284, 308.647
894.553, 431.775
895.822, 344.900
897.090, 409.969
898.359, 512.089
899.627, 421.207
900.895, 670.323
902.163, 616.436
903.430, 697.351
904.698, 938.459
905.965, 898.565
907.232, 1323.475
908.499, 1555.577
909.765, 1727.560
911.032, 2526.657
912.298, 2927.752
913.564, 4138.845
914.830, 5779.935
916.095, 6957.024
917.361, 9740.109
918.626, 9507.197
919.891, 9274.278
921.156, 8321.357
922.420, 5734.437
923.685, 5153.513
924.949, 3698.588
926.213, 2916.644
927.477, 2660.715
928.740, 1958.910
930.004, 1985.811
931.267, 1914.740
932.530, 1678.313
933.793, 1952.228
935.056, 1665.751
936.318, 1767.258
937.581, 1786.986
938.843, 1414.173
940.104, 1503.037
941.366, 1206.783
942.628, 1037.008
943.889, 1096.779
945.150, 809.934
946.411, 950.837
947.672, 849.059
948.932, 787.469
950.193, 941.536
951.453, 696.532
952.713, 817.433
953.973, 787.542
955.232, 571.620
956.491, 761.559
957.751, 529.614
959.010, 579.640
960.268, 594.440
961.527, 431.633
962.785, 521.677
964.044, 450.974
965.302, 380.064
966.559, 518.400
967.817, 379.758
969.075, 449.948
970.332, 507.189
971.589, 445.291
972.846, 687.894
974.102, 610.001
975.359, 722.110
976.615, 924.222
977.871, 984.335
979.127, 1484.588
980.383, 1665.706
981.638, 2365.826
982.893, 3250.722
984.149, 3667.848
985.404, 4450.975
986.658, 4087.765
987.913, 3248.897
989.167, 2788.243
990.421, 1785.378
991.675, 1444.516
992.929, 1176.588
994.183, 725.729
995.436, 798.995
996.689, 521.387
997.942, 491.532
999.195, 610.147
1000.448, 464.295
1001.700, 596.444
1002.952, 526.489
1004.204, 497.639
1005.456, 619.966
1006.708, 399.858
1007.959, 473.010
1009.210, 399.357
1010.461, 224.509
1011.712, 291.672
1012.963, 210.976
1014.213, 188.141
1015.464, 261.306
1016.714, 115.521
1017.964, 254.688
1019.214, 201.853
1020.463, 118.020
1021.712, 261.190
1022.962, 76.361
1024.210, 205.531
1025.459, 193.702
1026.708, 45.873
1027.956, 215.048
1029.204, 127.223
1030.452, 69.398
1031.700, 134.574
1032.948, 86.751
1034.195, 75.928
1035.442, 112.105
1036.689, 50.283
1037.936, 192.462
1039.183, 12.642
1040.429, 72.822
1041.676, 141.027
1042.922, 8.234
1044.168, 94.439
1045.413, 45.649
1046.659, 32.859
1047.904, 176.070
1049.149, 42.282
1050.394, 146.494
1051.639, 139.719
1052.884, 37.943
1054.128, 171.168
1055.372, 119.398
1056.616, 91.627
1057.860, 199.858
1059.104, 128.089
1060.347, 222.321
1061.590, 239.553
1062.833, 203.786
1064.076, 359.018
1065.319, 328.263
1066.561, 464.509
1067.803, 605.754
1069.046, 637.008
1070.287, 1050.263
1071.529, 1217.517
1072.771, 1703.779
1074.012, 2735.032
1075.253, 3532.333
1076.494, 5204.589
1077.735, 5531.845
1078.975, 4796.535
1080.216, 4617.801
1081.456, 3597.067
1082.696, 2948.415
1083.936, 2404.701
1085.175, 1566.004
1086.415, 1264.310
1087.654, 853.621
1088.893, 606.962
1090.132, 637.291
1091.371, 421.643
1092.609, 373.572
1093.847, 368.937
1095.085, 235.323
1096.323, 261.951
1097.561, 233.349
1098.799, 155.639
1100.036, 277.043
1101.273, 70.463
1102.510, 122.340
1103.747, 172.764
1104.983, 63.400
1106.220, 172.833
1107.456, 27.291
1108.692, 41.892
1109.928, 125.366
1111.163, 13.856
1112.399, 51.533
1113.634, 18.041
1114.869, 55.421
1116.104, 54.060
1117.339, 19.444
1118.573, 23.687
1119.808, 50.174
1121.042, 8.342
1122.276, 189.475
1123.509, 205.950
1124.743, 179.424
1125.976, 197.026
1127.210, 4.495
1128.443, 44.156
1129.675, 99.620
1130.908, 75.917
1132.141, 68.855
1133.373, 79.271
1134.605, 9.315
1135.837, 144.310
1137.068, 0.288
1138.300, 43.353
1139.531, 73.772
1140.762, 76.837
1141.993, 84.910
1143.224, 15.746
1144.455, 49.417
1145.685, 117.120
1146.915, 52.585
1148.145, 67.677
1149.375, 68.935
1150.605, 90.810
1151.834, 86.449
1153.063, 15.354
1154.292, 40.171
1155.521, 117.160
1156.750, 2.310
1157.978, 50.454
1159.207, 74.979
1160.435, 18.115
1161.663, 152.584
1162.891, 91.711
1164.118, 40.834
1165.345, 231.145
1166.573, 71.260
1167.800, 170.370
1169.026, 236.355
1170.253, 251.457
1171.480, 326.615
1172.706, 240.708
1173.932, 268.796
1175.158, 326.669
1176.383, 183.749
1177.609, 326.823
1178.834, 225.176
1180.059, 132.241
1181.284, 268.471
1182.509, 155.684
1183.734, 171.735
1184.958, 209.082
1186.182, 127.260
1187.406, 232.350
1188.630, 135.434
1189.854, 88.576
1191.077, 206.626
1192.301, 107.434
1193.524, 190.443
1194.747, 277.624
1195.969, 97.044
1197.192, 338.036
1198.414, 256.858
1199.636, 296.839
1200.858, 400.814
1202.080, 368.887
1203.302, 417.851
1204.523, 470.808
1205.744, 295.087
1206.966, 407.033
1208.186, 383.196
1209.407, 265.130
1210.628, 359.058
1211.848, 191.308
1213.068, 236.224
1214.288, 298.135
1215.508, 108.265
1216.727, 232.163
1217.947, 226.128
1219.166, 82.217
1220.385, 319.100
1221.604, 74.665
1222.822, 161.535
1224.041, 259.400
1225.259, 15.522
1226.477, 167.370
1227.695, 128.216
1228.913, 72.455
1230.130, 218.287
1231.348, 162.426
1232.565, 175.337
1233.782, 238.144
1234.999, 86.338
1236.215, 171.135
1237.432, 157.924
1238.648, 12.899
1239.864, 184.666
1241.080, 143.427
1242.296, 33.229
1243.511, 133.975
1244.726, 10.286
1245.942, 146.481
1247.156, 187.194
1248.371, 18.121
1249.586, 226.816
1250.800, 44.506
1252.014, 101.512
1253.228, 211.187
1254.442, 60.853
1255.656, 111.601
1256.869, 178.251
1258.083, 1.862
1259.296, 172.492
1260.509, 88.062
1261.722, 98.550
1262.934, 124.157
1264.147, 10.662
1265.359, 137.309
1266.571, 187.894
1267.783, 23.973
1268.994, 212.563
1270.206, 142.115
1271.417, 62.657
1272.628, 216.193
1273.839, 47.586
1275.050, 166.280
1276.260, 207.791
1277.471, 20.515
1278.681, 127.181
1279.891, 167.665
1281.101, 38.523
1282.310, 209.990
1283.520, 33.237
1284.729, 85.748
1285.938, 165.147
1287.147, 14.606
1288.356, 107.145
1289.564, 130.376
1290.773, 27.468
1291.981, 218.855
1293.189, 104.710
1294.397, 102.025
1295.604, 162.308
1296.812, 62.688
1298.019, 100.939
1299.226, 182.005
1300.433, 31.492
1301.640, 129.713
1302.846, 91.730
1304.053, 30.069
1305.259, 166.111
1306.465, 6.142
1307.671, 77.302
1308.876, 104.452
1310.082, 28.543
1311.287, 145.677
1312.492, 92.803
1313.697, 6.081
1314.902, 162.023
1316.106, 60.115
1317.310, 134.199
1318.515, 178.274
1319.719, 4.660
1320.922, 94.393
1322.126, 126.437
1323.329, 12.471
1324.533, 156.495
1325.736, 34.510
1326.939, 37.514
1328.141, 84.509
1329.344, 10.491
1330.546, 42.463
1331.748, 62.424
1332.950, 88.624
1334.152, 47.292
1335.354, 66.198
1336.555, 4.903
1337.757, 108.984
1338.958, 32.864
1340.159, 1.737
1341.359, 122.601
1342.560, 37.541
1343.760, 101.299
1344.960, 145.132
1346.160, 10.040
1347.360, 125.776
1348.560, 88.588
1349.759, 8.394
1350.959, 140.193
1352.158, 21.989
1353.357, 78.778
1354.555, 138.564
1355.754, 45.652
1356.952, 124.115
1358.151, 75.107
1359.349, 28.129
1360.546, 180.624
1361.744, 59.177
1362.941, 27.932
1364.139, 206.679
1365.336, 3.434
1366.533, 139.281
1367.730, 238.046
1368.926, 16.802
1370.123, 246.075
1371.319, 150.758
1372.515, 4.429
1373.711, 189.018
1374.906, 11.666
1376.102, 53.963
1377.297, 187.925
1378.492, 5.083
1379.687, 177.239
1380.882, 153.802
1382.077, 30.675
1383.271, 218.815
1384.465, 186.893
1385.659, 63.471
1386.853, 206.296
1388.047, 129.173
1389.240, 65.184
1390.434, 199.875
1391.627, 21.829
1392.820, 185.099
1394.013, 189.081
1395.205, 8.667
1396.398, 254.474
1397.590, 148.189
1398.782, 53.116
1399.974, 244.656
1401.166, 67.340
1402.357, 100.982
1403.549, 237.876
1404.740, 31.345
1405.931, 224.026
1407.122, 91.029
1408.313, 52.043
1409.503, 181.039
1410.693, 204.904
1411.883, 71.010
1413.073, 231.930
1414.263, 94.541
1415.453, 96.334
1416.642, 181.384
1417.831, 31.201
1419.020, 164.143
1420.209, 146.038
1421.398, 32.045
1422.587, 171.635
1423.775, 63.146
1424.963, 86.681
1426.151, 226.371
1427.339, 42.834
1428.526, 129.386
1429.714, 219.936
1430.901, 28.084
1432.088, 163.287
1433.275, 120.213
1434.462, 47.928
1435.648, 206.083
1436.835, 110.398
1438.021, 159.277
1439.207, 326.870
1440.393, 112.453
1441.579, 256.463
1442.764, 285.672
1443.949, 141.121
1445.135, 306.058
1446.320, 278.689
1447.504, 162.453
1448.689, 331.637
1449.873, 219.187
1451.058, 294.107
1452.242, 393.427
1453.426, 199.624
1454.609, 278.807
1455.793, 453.584
1456.976, 179.829
1458.159, 329.294
1459.342, 323.266
1460.525, 240.349
1461.708, 416.474
1462.890, 262.122
1464.073, 188.927
1465.255, 383.929
1466.437, 229.864
1467.619, 235.846
1468.800, 320.296
1469.982, 121.208
1471.163, 295.568
1472.344, 248.252
1473.525, 100.836
1474.706, 322.832
1475.886, 198.346
1477.066, 83.255
1478.247, 339.327
1479.427, 113.541
1480.607, 190.863
1481.786, 287.222
1482.966, 148.601
1484.145, 194.010
1485.324, 228.458
1486.503, 76.918
1487.682, 215.399
1488.860, 220.917
1490.039, 55.480
1491.217, 259.083
1492.395, 91.747
1493.573, 106.468
1494.751, 245.278
1495.928, 134.205
1497.106, 203.251
1498.283, 249.433
1499.460, 11.734
1500.637, 194.146
1501.814, 145.677
1502.990, 7.655
1504.166, 189.173
1505.342, 217.186
1506.518, 38.415
1507.694, 221.890
1508.870, 82.637
1510.045, 137.067
1511.221, 231.212
1512.396, 3.381
1513.571, 170.575
1514.745, 215.264
1515.920, 10.530
1517.094, 166.431
1518.269, 0.000
##END=



