##NAMES=Davidlloydite
##RRUFFID=R130015
##IDEAL CHEMISTRY=Zn^2+^_3_(As^5+^O_4_)_2_&#183;4H_2_O
##LOCALITY=Tsumeb mine, Otjikoto region, Namibia
##OWNER=Frank C. Hawthorne 
##SOURCE=Frank C. Hawthorne 
##DESCRIPTION=Aggregates of subparallel to slightly diverging prisms lying partly on and partly embedded in ﬁne-grained calcioandyrobertsite. Type sample. Data from Hawthorne et al. (2012)
##STATUS=The identification of this mineral is confirmed by single-crystal X-ray diffraction and chemical analysis.
##URL=rruff.info/R130015
##MEASURED CHEMISTRY=(Zn_2.53_Cu_0.39_)As_2.03_O_8_·4H_2_O
100.0000, 0.0000000E+00
100.8095, 30.22290
101.6189, 19.02417
102.4284, 2.533203
103.2379, 19.60620
104.0473, 14.18994
104.8568, 38.98315
105.6663, 86.12695
106.4757, 73.62549
107.2852, 44.21313
108.0946, 36.99634
108.9041, 96.78979
109.7136, 87.44434
110.5230, 126.5737
111.3325, 219.2656
112.1420, 355.7874
112.9514, 447.6333
113.7609, 557.2876
114.5704, 745.7866
115.3798, 896.2617
116.1893, 926.7222
116.9988, 975.3103
117.8082, 828.4561
118.6177, 737.9417
119.4271, 719.6753
120.2366, 845.3474
121.0461, 1098.377
121.8555, 1236.108
122.6650, 1095.587
123.4745, 708.8372
124.2839, 448.4563
125.0934, 366.1982
125.9029, 283.5449
126.7123, 177.7734
127.5218, 192.7188
128.3313, 164.0496
129.1407, 178.5120
129.9502, 174.9038
130.7597, 139.4832
131.5691, 106.0488
132.3786, 88.38647
133.1880, 86.99146
133.9975, 19.35645
134.8070, 88.09351
135.6164, 105.4175
136.4259, 127.2346
137.2354, 69.10449
138.0448, 40.18262
138.8543, 51.18799
139.6638, 73.72144
140.4732, 33.39136
141.2827, 58.97729
142.0921, 0.6374510
142.9016, 5.604492
143.7111, 44.15601
144.5206, 100.4817
145.3300, 14.95850
146.1395, 16.49194
146.9489, 39.11670
147.7584, 6.811523
148.5679, 23.39331
149.3773, 21.72949
150.1868, 77.92407
150.9963, 84.20972
151.8057, 119.5718
152.6152, 173.7439
153.4247, 261.0767
154.2341, 352.5273
155.0436, 605.7632
155.8531, 912.7427
156.6625, 1202.417
157.4720, 1410.102
158.2814, 1435.758
159.0909, 1225.336
159.9004, 922.9763
160.7098, 853.3728
161.5193, 720.9910
162.3288, 779.5405
163.1382, 982.2986
163.9477, 1193.726
164.7572, 1454.482
165.5666, 1815.389
166.3761, 2144.579
167.1855, 2389.052
167.9950, 2567.927
168.8045, 2553.010
169.6140, 2292.280
170.4234, 2073.178
171.2329, 1817.132
172.0423, 1489.749
172.8518, 1341.086
173.6613, 1224.841
174.4707, 1042.161
175.2802, 976.1831
176.0897, 982.4121
176.8991, 968.6709
177.7086, 976.6572
178.5181, 911.1621
179.3275, 996.8608
180.1370, 989.3105
180.9465, 1132.719
181.7559, 1232.119
182.5654, 1336.482
183.3748, 1360.464
184.1843, 1325.000
184.9938, 1226.662
185.8032, 1133.437
186.6127, 1089.418
187.4222, 1042.568
188.2316, 1065.617
189.0411, 1049.553
189.8506, 1089.492
190.6600, 1215.597
191.4695, 1334.842
192.2790, 1406.112
193.0884, 1434.979
193.8979, 1532.213
194.7074, 1626.473
195.5168, 1672.250
196.3263, 1715.544
197.1357, 1734.039
197.9452, 1759.816
198.7547, 1835.127
199.5641, 1800.933
200.3736, 1642.340
201.1831, 1667.888
201.9925, 1758.266
202.8020, 1815.323
203.6115, 1988.017
204.4209, 2324.429
205.2304, 2762.625
206.0399, 3306.981
206.8493, 3958.632
207.6588, 4533.366
208.4682, 5020.234
209.2777, 5192.031
210.0872, 4912.395
210.8966, 4379.160
211.7061, 3862.136
212.5156, 3298.900
213.3250, 2740.562
214.1345, 2259.635
214.9440, 1852.581
215.7534, 1533.986
216.5629, 1326.513
217.3724, 1108.270
218.1818, 887.5112
218.9913, 863.4922
219.8008, 757.7769
220.6102, 665.5664
221.4197, 577.9614
222.2291, 577.0630
223.0386, 506.2212
223.8481, 410.6694
224.6575, 411.8408
225.4670, 411.4956
226.2765, 317.6841
227.0859, 316.2480
227.8954, 304.3804
228.7048, 321.7705
229.5143, 203.4673
230.3238, 255.7480
231.1333, 247.4819
231.9427, 284.3237
232.7522, 284.6133
233.5616, 254.0713
234.3711, 247.6108
235.1806, 261.3296
235.9900, 272.1826
236.7995, 307.0107
237.6090, 339.6489
238.4184, 305.1230
239.2279, 412.1875
240.0374, 392.9302
240.8468, 410.8921
241.6563, 406.4438
242.4658, 483.5249
243.2752, 490.3315
244.0847, 489.6021
244.8941, 585.7202
245.7036, 678.0728
246.5131, 656.4810
247.3225, 648.2402
248.1320, 788.2275
248.9415, 856.5693
249.7509, 938.9731
250.5604, 985.6284
251.3699, 1121.477
252.1793, 1226.228
252.9888, 1303.764
253.7983, 1358.448
254.6077, 1448.421
255.4172, 1498.335
256.2267, 1553.461
257.0361, 1593.761
257.8456, 1513.217
258.6550, 1475.838
259.4645, 1424.268
260.2740, 1365.040
261.0834, 1343.739
261.8929, 1320.628
262.7024, 1293.736
263.5118, 1227.042
264.3213, 1172.352
265.1308, 1122.375
265.9402, 1061.889
266.7497, 1005.484
267.5591, 928.4219
268.3686, 840.6821
269.1781, 810.8652
269.9875, 763.4785
270.7970, 760.2280
271.6065, 755.8076
272.4160, 622.7124
273.2254, 522.2559
274.0349, 561.0200
274.8443, 531.8867
275.6538, 496.2046
276.4633, 447.8335
277.2727, 427.0869
278.0822, 412.3271
278.8917, 402.1538
279.7011, 431.3389
280.5106, 442.3179
281.3200, 418.6021
282.1295, 414.0405
282.9390, 485.9907
283.7484, 586.0405
284.5579, 532.6558
285.3674, 580.0850
286.1768, 715.4609
286.9863, 736.9438
287.7958, 831.0820
288.6052, 903.6895
289.4147, 905.2695
290.2242, 941.3804
291.0336, 966.0610
291.8431, 935.1279
292.6526, 1027.564
293.4620, 951.8945
294.2715, 924.4585
295.0809, 824.2896
295.8904, 769.4517
296.6999, 750.3735
297.5093, 744.8013
298.3188, 855.6660
299.1283, 925.8672
299.9377, 976.6016
300.7472, 1016.930
301.5567, 1023.430
302.3661, 1050.640
303.1756, 1126.877
303.9850, 1149.301
304.7945, 1028.822
305.6040, 995.3140
306.4135, 852.0483
307.2229, 693.9082
308.0324, 633.7944
308.8419, 508.6274
309.6513, 413.7417
310.4608, 351.7832
311.2702, 285.3643
312.0797, 248.4668
312.8892, 228.6328
313.6986, 164.1782
314.5081, 80.35791
315.3176, 72.83447
316.1270, 110.7915
316.9365, 43.32422
317.7459, 3.339355
318.5554, 58.60742
319.3649, 48.71729
320.1743, 60.96924
320.9838, 16.10303
321.7933, 54.30957
322.6028, 15.93799
323.4122, 12.27344
324.2217, 62.86670
325.0311, 82.99854
325.8406, 46.28027
326.6501, 14.94336
327.4595, 24.36572
328.2690, 76.68359
329.0785, 63.11279
329.8879, 26.14404
330.6974, 30.41992
331.5068, 8.182617
332.3163, 37.99658
333.1258, 89.66699
333.9352, 51.69727
334.7447, 82.85547
335.5542, 113.3257
336.3636, 152.0151
337.1731, 167.2261
337.9826, 128.7681
338.7920, 152.2954
339.6015, 228.0190
340.4109, 190.3853
341.2204, 253.1006
342.0299, 367.0674
342.8394, 326.4038
343.6488, 386.5078
344.4583, 464.1602
345.2677, 397.1221
346.0772, 510.0073
346.8867, 496.8921
347.6961, 500.6455
348.5056, 522.7109
349.3151, 537.1958
350.1245, 517.0542
350.9340, 517.4448
351.7435, 520.0625
352.5529, 474.5762
353.3624, 438.9683
354.1718, 369.5425
354.9813, 438.6548
355.7908, 447.7817
356.6003, 269.8169
357.4097, 232.7891
358.2192, 166.5098
359.0287, 179.5562
359.8381, 160.8604
360.6476, 90.04980
361.4570, 121.1094
362.2665, 178.4028
363.0760, 131.4424
363.8854, 58.48096
364.6949, 5.076172
365.5044, 57.71338
366.3138, 76.35547
367.1233, 62.09570
367.9327, 63.75439
368.7422, 28.14355
369.5517, 19.50146
370.3611, 34.97021
371.1706, 28.97217
371.9801, 63.49414
372.7896, 85.55176
373.5990, 99.29248
374.4085, 10.20605
375.2179, 16.96631
376.0274, 56.52979
376.8369, 42.58740
377.6463, 8.695801
378.4558, 13.57568
379.2653, 9.362793
380.0747, 10.57324
380.8842, 4.001953
381.6936, 1.396973
382.5031, 5.851074
383.3126, 129.0259
384.1220, 137.7603
384.9315, 69.81396
385.7410, 105.0630
386.5504, 90.71973
387.3599, 132.8564
388.1694, 177.3618
388.9788, 181.0371
389.7883, 219.6714
390.5977, 234.7119
391.4072, 200.1816
392.2167, 216.3071
393.0262, 211.4185
393.8356, 195.5908
394.6451, 264.7852
395.4546, 242.1699
396.2640, 261.9312
397.0735, 171.5981
397.8829, 219.4268
398.6924, 204.8281
399.5019, 225.4746
400.3113, 147.0571
401.1208, 246.2632
401.9303, 310.7754
402.7397, 298.7920
403.5492, 233.1108
404.3586, 341.3374
405.1681, 408.2603
405.9776, 403.1055
406.7870, 462.5864
407.5965, 518.3452
408.4060, 550.8579
409.2155, 643.7739
410.0249, 718.9521
410.8344, 777.2432
411.6438, 858.6719
412.4533, 867.1982
413.2628, 1120.481
414.0722, 1193.690
414.8817, 1231.309
415.6912, 1271.289
416.5006, 1191.757
417.3101, 1447.829
418.1195, 1447.386
418.9290, 1543.710
419.7385, 1601.675
420.5479, 1601.212
421.3574, 1644.567
422.1669, 1661.105
422.9763, 1588.588
423.7858, 1534.167
424.5953, 1581.207
425.4047, 1615.257
426.2142, 1549.186
427.0237, 1528.888
427.8331, 1560.167
428.6426, 1693.718
429.4521, 1721.081
430.2615, 1715.057
431.0710, 1852.732
431.8805, 1931.070
432.6899, 2015.622
433.4994, 1959.724
434.3088, 2079.634
435.1183, 2189.243
435.9278, 2335.979
436.7372, 2570.383
437.5467, 2715.445
438.3562, 2892.796
439.1656, 3075.109
439.9751, 3270.306
440.7845, 3601.612
441.5940, 3904.014
442.4035, 4149.119
443.2130, 4507.873
444.0224, 4701.803
444.8319, 5040.256
445.6414, 5509.538
446.4508, 6006.156
447.2603, 6257.708
448.0697, 6621.181
448.8792, 6889.077
449.6887, 7192.129
450.4981, 7311.179
451.3076, 7288.846
452.1171, 7102.120
452.9265, 6970.441
453.7360, 6703.178
454.5454, 6375.153
455.3549, 6001.315
456.1644, 5635.364
456.9738, 5133.481
457.7833, 4666.335
458.5928, 4359.517
459.4023, 3994.365
460.2117, 3795.051
461.0212, 3423.247
461.8306, 3172.701
462.6401, 2942.937
463.4496, 2776.492
464.2590, 2712.440
465.0685, 2627.835
465.8780, 2356.829
466.6874, 2308.346
467.4969, 2181.190
468.3064, 2181.195
469.1158, 2105.769
469.9253, 1998.119
470.7347, 1966.107
471.5442, 1991.066
472.3537, 1954.392
473.1631, 1948.004
473.9726, 1923.701
474.7821, 1915.203
475.5915, 1936.301
476.4010, 1937.257
477.2104, 1946.778
478.0199, 1982.083
478.8294, 2011.334
479.6389, 1966.010
480.4483, 2067.902
481.2578, 2052.255
482.0673, 2148.421
482.8767, 2230.031
483.6862, 2234.643
484.4956, 2404.234
485.3051, 2404.562
486.1146, 2552.164
486.9240, 2604.112
487.7335, 2614.179
488.5430, 2679.069
489.3524, 2865.947
490.1619, 2840.679
490.9713, 2916.040
491.7808, 2958.771
492.5903, 2966.475
493.3997, 3044.334
494.2092, 3168.098
495.0187, 3244.658
495.8282, 3203.114
496.6376, 3147.697
497.4471, 3241.954
498.2565, 3356.730
499.0660, 3295.465
499.8755, 3219.112
500.6849, 3291.098
501.4944, 3321.332
502.3039, 3280.152
503.1133, 3334.515
503.9228, 3114.943
504.7323, 3184.459
505.5417, 3126.435
506.3512, 3045.322
507.1606, 2996.210
507.9701, 2794.545
508.7796, 2819.194
509.5891, 2836.771
510.3985, 2753.014
511.2080, 2619.230
512.0175, 2489.022
512.8269, 2426.295
513.6364, 2439.833
514.4458, 2433.339
515.2553, 2325.613
516.0648, 2200.391
516.8742, 2111.947
517.6837, 2064.694
518.4932, 2027.514
519.3026, 1917.235
520.1121, 1844.988
520.9216, 1848.729
521.7310, 1759.312
522.5405, 1679.816
523.3499, 1633.268
524.1594, 1621.896
524.9689, 1422.254
525.7783, 1405.300
526.5878, 1273.901
527.3973, 1216.944
528.2067, 1105.464
529.0162, 1040.493
529.8257, 1058.698
530.6351, 955.6245
531.4446, 940.8330
532.2540, 864.3003
533.0635, 896.4355
533.8730, 767.3745
534.6824, 698.6353
535.4919, 679.8340
536.3014, 707.6050
537.1108, 729.5430
537.9203, 655.6226
538.7297, 619.4585
539.5392, 701.7964
540.3487, 729.8735
541.1581, 680.0405
541.9677, 679.8594
542.7771, 727.2246
543.5865, 787.0298
544.3960, 818.1479
545.2055, 855.8242
546.0150, 891.4004
546.8244, 837.5264
547.6339, 946.1611
548.4434, 856.4458
549.2528, 735.8555
550.0623, 774.8262
550.8717, 678.7246
551.6812, 618.3804
552.4907, 519.4136
553.3001, 544.3486
554.1096, 534.3843
554.9191, 507.0396
555.7285, 416.3735
556.5380, 482.4810
557.3475, 419.5566
558.1569, 299.7817
558.9664, 226.8120
559.7758, 208.0806
560.5853, 178.5376
561.3948, 170.2358
562.2042, 167.4844
563.0137, 112.7065
563.8232, 67.89111
564.6326, 10.04395
565.4421, 24.39014
566.2516, 43.07275
567.0610, 12.07666
567.8705, 44.60400
568.6799, 99.21045
569.4894, 8.683594
570.2989, 53.01758
571.1083, 96.59814
571.9178, 53.24414
572.7273, 30.70654
573.5367, 27.90723
574.3462, 37.51904
575.1556, 49.87012
575.9651, 130.9663
576.7746, 47.31543
577.5840, 16.85693
578.3936, 58.13623
579.2030, 17.26953
580.0125, 18.21045
580.8219, 35.06104
581.6314, 76.59375
582.4409, 6.410645
583.2503, 27.84180
584.0598, 131.7339
584.8693, 11.47070
585.6787, 59.23535
586.4882, 54.85840
587.2976, 90.14014
588.1071, 51.66943
588.9166, 50.58252
589.7260, 93.81152
590.5355, 147.7573
591.3450, 71.64014
592.1544, 99.40771
592.9639, 204.6313
593.7734, 169.6050
594.5828, 169.6655
595.3923, 173.2388
596.2017, 207.3091
597.0112, 288.6489
597.8207, 245.7622
598.6301, 155.5303
599.4396, 182.3735
600.2491, 247.4976
601.0585, 298.3799
601.8680, 353.1826
602.6774, 340.5107
603.4869, 266.6143
604.2964, 256.2676
605.1058, 297.0493
605.9153, 285.7100
606.7248, 306.8921
607.5342, 266.0820
608.3437, 258.0923
609.1532, 255.8027
609.9626, 360.6934
610.7721, 292.3696
611.5815, 294.5195
612.3911, 367.8311
613.2005, 268.3325
614.0099, 254.9995
614.8194, 258.2358
615.6289, 185.4785
616.4384, 265.3857
617.2478, 331.7773
618.0573, 192.6338
618.8668, 217.1514
619.6762, 271.5229
620.4857, 302.8701
621.2952, 245.4888
622.1046, 181.6953
622.9141, 249.8262
623.7235, 192.6548
624.5330, 227.2759
625.3425, 187.5415
626.1519, 197.8857
626.9614, 188.6948
627.7709, 148.5972
628.5803, 141.0723
629.3898, 148.9062
630.1993, 232.8281
631.0087, 243.9224
631.8182, 223.9609
632.6276, 240.5146
633.4371, 269.9189
634.2466, 232.0444
635.0560, 230.1528
635.8655, 320.4468
636.6750, 331.1001
637.4844, 287.0747
638.2939, 317.6274
639.1033, 348.8018
639.9128, 324.8960
640.7223, 291.6074
641.5317, 276.2148
642.3412, 259.0679
643.1507, 242.5439
643.9601, 233.6528
644.7696, 217.2646
645.5791, 198.9443
646.3885, 122.7319
647.1980, 89.89062
648.0074, 130.9805
648.8170, 148.0059
649.6264, 206.5088
650.4359, 207.8701
651.2453, 105.2080
652.0548, 156.7993
652.8643, 106.0640
653.6737, 94.49170
654.4832, 29.36914
655.2927, 57.79980
656.1021, 118.0220
656.9116, 127.5796
657.7211, 99.87451
658.5305, 47.05273
659.3400, 131.3062
660.1494, 33.58447
660.9589, 47.19873
661.7684, 45.16357
662.5778, 77.06641
663.3873, 63.89307
664.1968, 120.4805
665.0062, 49.28809
665.8157, 89.99561
666.6252, 68.44531
667.4346, 39.66113
668.2441, 43.39062
669.0535, 65.36133
669.8630, 5.495605
670.6725, 19.75439
671.4819, 80.49658
672.2914, 100.9546
673.1009, 115.7710
673.9103, 36.10596
674.7198, 2.343262
675.5292, 77.93213
676.3387, 1.225586
677.1482, 29.11572
677.9576, 65.70117
678.7672, 94.12988
679.5766, 70.31104
680.3860, 112.6436
681.1955, 15.99316
682.0050, 69.88623
682.8145, 60.20850
683.6239, 28.11035
684.4333, 51.50244
685.2429, 56.99805
686.0523, 18.28906
686.8618, 73.37598
687.6712, 80.32861
688.4807, 69.62646
689.2902, 35.44824
690.0996, 20.05615
690.9091, 52.99512
691.7186, 40.63770
692.5280, 63.04199
693.3375, 127.8369
694.1470, 47.69971
694.9564, 7.272949
695.7659, 27.71729
696.5753, 37.57715
697.3848, 90.46729
698.1943, 47.68457
699.0037, 25.42139
699.8132, 24.40674
700.6227, 2.599121
701.4321, 10.52930
702.2416, 17.48486
703.0511, 12.20947
703.8605, 2.864258
704.6700, 2.215332
705.4794, 14.03467
706.2889, 18.11865
707.0984, 22.83887
707.9078, 28.52002
708.7173, 16.00342
709.5268, 97.46729
710.3362, 24.52100
711.1457, 16.33057
711.9551, 50.39258
712.7646, 138.5679
713.5741, 134.1060
714.3835, 65.21924
715.1931, 27.91797
716.0025, 125.0659
716.8120, 104.9004
717.6214, 86.00977
718.4309, 137.3350
719.2404, 144.9336
720.0498, 123.3662
720.8593, 168.0693
721.6688, 106.7900
722.4782, 74.03320
723.2877, 159.7129
724.0971, 223.4766
724.9066, 257.4834
725.7161, 220.8901
726.5255, 225.2866
727.3350, 244.6089
728.1445, 219.7041
728.9539, 180.5762
729.7634, 197.7461
730.5729, 237.9878
731.3823, 221.7285
732.1918, 194.3164
733.0012, 189.3525
733.8107, 219.5947
734.6202, 238.3140
735.4296, 179.7964
736.2391, 286.0762
737.0486, 383.0005
737.8580, 302.6001
738.6675, 299.6426
739.4770, 402.2739
740.2864, 393.5962
741.0959, 298.5649
741.9053, 248.1929
742.7148, 241.9951
743.5243, 257.8428
744.3337, 239.5635
745.1432, 246.9321
745.9527, 281.5586
746.7621, 342.7886
747.5716, 336.4990
748.3810, 290.9248
749.1906, 241.3638
750.0000, 277.7261
750.8094, 364.1470
751.6190, 313.3999
752.4284, 226.3447
753.2379, 267.1748
754.0473, 262.2900
754.8568, 271.2295
755.6663, 342.5630
756.4757, 344.9976
757.2852, 328.4434
758.0947, 415.0439
758.9041, 394.5146
759.7136, 416.3286
760.5230, 431.7300
761.3325, 461.9917
762.1420, 430.7612
762.9514, 442.9917
763.7609, 473.6401
764.5704, 515.5854
765.3798, 505.4673
766.1893, 535.5923
766.9988, 587.9980
767.8082, 534.9844
768.6177, 551.3931
769.4271, 623.6733
770.2366, 625.2080
771.0461, 695.3325
771.8555, 678.7021
772.6650, 666.1543
773.4745, 644.9287
774.2839, 640.7002
775.0934, 661.8218
775.9029, 627.1738
776.7123, 613.8867
777.5218, 559.5879
778.3312, 602.1196
779.1407, 577.5044
779.9502, 597.4551
780.7596, 609.7104
781.5691, 630.4990
782.3786, 655.8115
783.1880, 670.9170
783.9975, 659.7285
784.8069, 695.5718
785.6165, 694.6616
786.4259, 648.7593
787.2354, 686.9131
788.0449, 734.9927
788.8543, 779.9097
789.6638, 784.8159
790.4732, 753.0029
791.2827, 815.3789
792.0922, 857.7832
792.9016, 853.6592
793.7111, 904.7817
794.5206, 886.2310
795.3300, 1000.615
796.1395, 971.5161
796.9489, 1015.661
797.7584, 1044.521
798.5679, 1152.589
799.3773, 1183.252
800.1868, 1205.859
800.9963, 1404.109
801.8057, 1426.130
802.6152, 1457.628
803.4247, 1605.211
804.2341, 1670.550
805.0436, 1801.801
805.8530, 1908.579
806.6625, 1949.826
807.4720, 2095.926
808.2814, 2269.440
809.0909, 2422.960
809.9004, 2558.130
810.7098, 2727.834
811.5193, 2844.691
812.3288, 3043.321
813.1382, 3233.095
813.9477, 3357.321
814.7571, 3590.872
815.5667, 3862.735
816.3761, 4085.103
817.1855, 4283.574
817.9950, 4530.670
818.8045, 4811.120
819.6140, 5054.273
820.4234, 5290.321
821.2328, 5604.413
822.0424, 5874.170
822.8518, 6144.022
823.6613, 6359.709
824.4708, 6535.440
825.2802, 6883.238
826.0897, 7161.479
826.8991, 7405.425
827.7086, 7746.647
828.5181, 8001.494
829.3275, 8379.778
830.1370, 8870.784
830.9465, 9320.209
831.7559, 9859.797
832.5654, 10498.38
833.3748, 11138.26
834.1843, 11567.56
834.9938, 12065.97
835.8032, 12371.88
836.6127, 12425.84
837.4222, 12400.94
838.2316, 12351.83
839.0411, 12245.26
839.8506, 12071.74
840.6600, 11957.73
841.4695, 12004.76
842.2789, 12117.43
843.0884, 12247.28
843.8979, 12580.93
844.7073, 12817.60
845.5168, 13214.84
846.3263, 13698.81
847.1357, 14224.45
847.9452, 14651.86
848.7547, 15202.12
849.5641, 15772.37
850.3736, 16209.15
851.1830, 16931.98
851.9926, 17466.56
852.8020, 17874.09
853.6115, 18479.00
854.4209, 19102.37
855.2304, 19570.70
856.0399, 19936.44
856.8493, 20389.82
857.6588, 20477.92
858.4683, 20359.16
859.2777, 20105.86
860.0872, 19664.00
860.8967, 18860.22
861.7061, 18020.63
862.5156, 16972.39
863.3250, 16017.59
864.1345, 14987.03
864.9440, 13806.85
865.7534, 12713.21
866.5629, 11775.05
867.3724, 10774.49
868.1818, 9884.725
868.9913, 9105.868
869.8007, 8359.265
870.6102, 7659.665
871.4197, 7098.736
872.2291, 6595.326
873.0386, 6099.312
873.8481, 5697.113
874.6575, 5248.289
875.4670, 4833.683
876.2765, 4521.612
877.0859, 4174.125
877.8954, 3916.774
878.7048, 3635.215
879.5143, 3413.456
880.3238, 3197.337
881.1332, 2917.748
881.9427, 2792.992
882.7522, 2590.028
883.5616, 2426.348
884.3711, 2367.985
885.1806, 2307.067
885.9901, 2187.221
886.7995, 2110.374
887.6089, 1926.177
888.4185, 1774.907
889.2279, 1712.247
890.0374, 1639.875
890.8468, 1601.980
891.6563, 1566.679
892.4658, 1503.828
893.2752, 1415.176
894.0847, 1363.751
894.8942, 1314.527
895.7036, 1273.597
896.5131, 1166.504
897.3226, 1143.111
898.1320, 1130.609
898.9415, 1106.520
899.7509, 1064.136
900.5604, 1021.258
901.3699, 967.2202
902.1793, 909.5293
902.9888, 930.3223
903.7983, 936.8984
904.6077, 893.6851
905.4172, 824.1265
906.2266, 848.2124
907.0361, 809.0571
907.8456, 838.9551
908.6550, 868.3179
909.4645, 788.7471
910.2740, 758.4272
911.0834, 755.6885
911.8929, 755.7227
912.7024, 726.7539
913.5118, 802.9316
914.3213, 761.4619
915.1307, 627.5776
915.9402, 649.5142
916.7497, 648.5713
917.5591, 642.9946
918.3686, 667.3770
919.1781, 556.7554
919.9875, 506.5205
920.7970, 583.8770
921.6064, 516.3633
922.4160, 407.4536
923.2254, 523.3208
924.0349, 397.3110
924.8444, 462.8604
925.6538, 403.5190
