##NAMES=Diamond
##RRUFFID=R050206
##IDEAL CHEMISTRY=C
##LOCALITY=Unknown
##OWNER=RRUFF
##SOURCE=Eric Van Valkenburg
##DESCRIPTION=Single crystal, type IIA
##STATUS=The identification of this mineral has been confirmed by single-crystal X-ray diffraction.
##URL=rruff.info/R050206
##PIN_ID=L01807
##ORIENTATION=Laser parallel to a* (1 0 0). Fiducial mark perpendicular to laser is parallel to c [0 0 1]
114.4400, 0.0000000E+00
115.6710, 57.77563
116.9030, 0.9755860
118.1340, 135.9312
119.3650, 81.62036
120.5960, 90.28955
121.8270, 111.4866
123.0580, 143.6582
124.2880, 74.64160
125.5190, 54.31226
126.7490, 3.425781
127.9790, 11.80005
129.2090, 21.57397
130.4390, 63.19775
131.6680, 117.1787
132.8980, 161.4817
134.1270, 116.0767
135.3560, 176.9377
136.5850, 39.03931
137.8140, 134.3616
139.0430, 94.88696
140.2710, 105.5996
141.5000, 153.4854
142.7280, 165.5327
143.9560, 102.7310
145.1840, 175.0718
146.4120, 125.5466
147.6390, 181.1484
148.8670, 115.8713
150.0940, 127.7097
151.3210, 149.6592
152.5490, 176.7117
153.7750, 210.8572
155.0020, 201.0891
156.2290, 261.4026
157.4550, 166.7930
158.6810, 133.2573
159.9080, 199.7915
161.1340, 207.3926
162.3590, 117.0581
163.5850, 194.7852
164.8110, 121.5718
166.0360, 135.4165
167.2610, 147.3184
168.4860, 167.2739
169.7110, 169.2827
170.9360, 106.3438
172.1610, 132.4575
173.3850, 148.6230
174.6100, 180.8384
175.8340, 244.1021
177.0580, 94.41260
178.2820, 120.7695
179.5050, 182.1738
180.7290, 140.6240
181.9520, 186.1191
183.1760, 200.6665
184.3990, 237.2637
185.6220, 209.9023
186.8450, 235.5879
188.0670, 190.3135
189.2900, 209.1562
190.5120, 196.7476
191.7340, 216.4673
192.9560, 208.1948
194.1780, 185.9326
195.4000, 161.6841
196.6220, 236.4644
197.8430, 158.2695
199.0640, 202.0918
200.2860, 105.9390
201.5070, 234.8115
202.7270, 194.7026
203.9480, 157.6138
205.1690, 241.5444
206.3890, 231.4951
207.6090, 200.4668
208.8290, 91.45947
210.0490, 212.4736
211.2690, 191.5088
212.4890, 273.5654
213.7080, 147.6436
214.9280, 254.7559
216.1470, 166.8887
217.3660, 252.0425
218.5850, 218.2178
219.8030, 200.4141
221.0220, 291.6318
222.2400, 172.8701
223.4590, 192.1289
224.6770, 141.4087
225.8950, 276.7090
227.1120, 163.0303
228.3300, 215.3716
229.5480, 171.9819
230.7650, 210.3755
231.9820, 172.7915
233.1990, 226.2402
234.4160, 221.7524
235.6330, 168.2378
236.8490, 190.7661
238.0660, 113.3125
239.2820, 211.8774
240.4980, 284.4971
241.7140, 141.1338
242.9300, 178.8125
244.1460, 225.5073
245.3610, 204.2188
246.5770, 149.9634
247.7920, 188.7129
249.0070, 177.4819
250.2220, 237.2671
251.4370, 214.4751
252.6510, 225.7100
253.8660, 195.5361
255.0800, 217.3789
256.2940, 237.2368
257.5080, 135.1475
258.7220, 218.7559
259.9360, 220.6543
261.1490, 179.9985
262.3630, 67.64941
263.5760, 99.82227
264.7890, 147.7031
266.0020, 71.65039
267.2150, 226.6538
268.4270, 152.7119
269.6400, 144.8208
270.8520, 175.9756
272.0640, 220.1724
273.2760, 170.3931
274.4880, 172.6768
275.7000, 189.9956
276.9120, 121.5981
278.1230, 163.1699
279.3340, 163.5869
280.5450, 180.0337
281.7560, 200.5088
282.9670, 181.0112
284.1780, 183.5405
285.3880, 174.3008
286.5980, 139.6064
287.8090, 144.2085
289.0190, 111.8335
290.2290, 91.48145
291.4380, 108.1504
292.6480, 74.93506
293.8570, 94.55127
295.0670, 40.28223
296.2760, 105.0332
297.4850, 93.80273
298.6930, 139.5918
299.9020, 73.40430
301.1110, 96.23486
302.3190, 80.08301
303.5270, 105.9487
304.7350, 163.8306
305.9430, 112.7300
307.1510, 166.6450
308.3580, 52.57617
309.5660, 125.5234
310.7730, 116.4863
311.9800, 82.46436
313.1870, 116.4351
314.3940, 119.4429
315.6010, 113.4648
316.8070, 117.5020
318.0130, 141.5547
319.2200, 56.62158
320.4260, 15.70215
321.6310, 152.7964
322.8370, 75.90430
324.0430, 76.02539
325.2480, 94.15967
326.4540, 51.30615
327.6590, 105.4658
328.8640, 104.6372
330.0680, 114.8223
331.2730, 49.01807
332.4780, 66.22607
333.6820, 54.45654
334.8860, 116.6885
336.0900, 188.9321
337.2940, 60.18848
338.4980, 49.45508
339.7010, 77.73486
340.9050, 119.0264
342.1080, 113.3296
343.3110, 14.35596
344.5140, 21.25928
345.7170, 108.5967
346.9200, 33.94434
348.1220, 98.71387
349.3240, 0.9150390
350.5270, 77.46680
351.7290, 27.85889
352.9310, 4.737305
354.1320, 119.6772
355.3340, 88.94922
356.5350, 162.7178
357.7370, 114.1641
358.9380, 93.62109
360.1390, 33.08838
361.3400, 37.05811
362.5400, 51.05420
363.7410, 36.18604
364.9410, 41.69775
366.1410, 23.21973
367.3410, 41.75098
368.5410, 38.19238
369.7410, 54.28271
370.9400, 33.84521
372.1400, 89.42432
373.3390, 77.01270
374.5380, 31.60938
375.7370, 0.7851560
376.9360, 41.23486
378.1350, 111.8584
379.3330, 60.49023
380.5310, 54.40088
381.7300, 16.04980
382.9280, 50.70801
384.1260, 5.374512
385.3230, 27.95117
386.5210, 75.72852
387.7180, 68.41602
388.9160, 14.11182
390.1130, 105.8154
391.3100, 72.53760
392.5060, 1.266602
393.7030, 30.00391
394.9000, 44.74854
396.0960, 18.90088
397.2920, 57.25342
398.4880, 1.982910
399.6840, 9.788086
400.8800, 24.31152
402.0750, 64.34863
403.2710, 26.13428
404.4660, 7.2265998E-02
405.6610, 85.73047
406.8560, 40.54688
408.0510, 11.37842
409.2450, 9.221680
410.4400, 30.07666
411.6340, 75.94336
412.8280, 34.82373
414.0220, 57.60352
415.2160, 60.61621
416.4100, 60.28809
417.6030, 37.21094
418.7970, 55.14404
419.9900, 8.768555
421.1830, 32.79736
422.3760, 85.17236
423.5690, 21.15186
424.7610, 54.14160
425.9540, 36.14502
427.1460, 94.15771
428.3380, 25.82031
429.5300, 119.2017
430.7220, 20.23389
431.9140, 67.27393
433.1050, 87.32373
434.2970, 87.38281
435.4880, 97.45117
436.6790, 92.94287
437.8700, 36.61816
439.0610, 65.72266
440.2510, 40.83838
441.4420, 1.962891
442.6320, 77.53467
443.8220, 17.67480
445.0120, 38.82324
446.2020, 65.97852
447.3910, 60.14258
448.5810, 113.3140
449.7700, 65.49268
450.9600, 77.57471
452.1490, 24.87354
453.3370, 34.07471
454.5260, 44.28369
455.7150, 22.50000
456.9030, 71.71387
458.0910, 57.93604
459.2800, 133.1650
460.4670, 31.67432
461.6550, 94.91748
462.8430, 48.24072
464.0300, 24.49756
465.2180, 56.76172
466.4050, 10.03174
467.5920, 15.31006
468.7790, 25.59424
469.9650, 55.88428
471.1520, 49.18164
472.3380, 11.48584
473.5250, 82.80371
474.7110, 156.1289
475.8970, 4.460449
477.0820, 14.79785
478.2680, 102.1416
479.4540, 73.49121
480.6390, 58.84717
481.8240, 47.20996
483.0090, 97.57812
484.1940, 106.9526
485.3780, 97.33301
486.5630, 24.47754
487.7470, 60.90332
488.9320, 98.29102
490.1160, 5.316895
491.3000, 106.0776
492.4830, 129.4692
493.6670, 91.87500
494.8500, 64.28662
496.0340, 76.65918
497.2170, 33.91846
498.4000, 23.50635
499.5820, 100.8999
500.7650, 96.31152
501.9480, 26.72803
503.1300, 178.1504
504.3120, 52.57764
505.4940, 65.13379
506.6760, 84.27295
507.8580, 63.68506
509.0390, 72.10156
510.2210, 42.47705
511.4020, 84.42969
512.5830, 47.84082
513.7640, 126.8384
514.9450, 77.25928
516.1250, 100.6841
517.3060, 150.1147
518.4860, 1.463379
519.6660, 82.97217
520.8460, 78.41260
522.0260, 1.856934
523.2060, 120.3037
524.3850, 73.75488
525.5650, 101.2109
526.7440, 79.67090
527.9230, 79.35352
529.1020, 16.92529
530.2810, 105.3984
531.4590, 172.8770
532.6380, 107.7476
533.8160, 62.23438
534.9940, 67.72461
536.1720, 37.53809
537.3500, 75.71973
538.5270, 31.22314
539.7050, 117.7310
540.8820, 117.2065
542.0590, 72.72217
543.2360, 49.52832
544.4130, 109.0522
545.5900, 132.5801
546.7660, 130.1016
547.9430, 98.63672
549.1190, 52.17627
550.2950, 28.71973
551.4710, 114.2666
552.6470, 55.81738
553.8220, 91.83398
554.9980, 67.39258
556.1730, 45.95410
557.3480, 23.48145
558.5230, 36.07178
559.6980, 69.62793
560.8730, 11.35498
562.0470, 77.16016
563.2220, 72.53906
564.3960, 77.10645
565.5700, 57.67725
566.7440, 84.34668
567.9170, 149.9229
569.0910, 108.5015
570.2640, 101.1494
571.4380, 156.7334
572.6110, 133.3203
573.7840, 45.91016
574.9570, 47.86768
576.1290, 71.46338
577.3020, 194.6172
578.4740, 134.2178
579.6460, 167.7012
580.8180, 30.09277
581.9900, 78.70117
583.1620, 13.68945
584.3330, 94.91016
585.5040, 123.5122
586.6760, 132.1157
587.8470, 138.7217
589.0180, 54.34619
590.1880, 83.97314
591.3590, 84.60156
592.5290, 128.2324
593.7000, 156.8652
594.8700, 98.49951
596.0400, 120.5508
597.2090, 82.79688
598.3790, 83.43652
599.5490, 40.07861
600.7180, 10.72217
601.8870, 32.36475
603.0560, 19.00928
604.2250, 46.65430
605.3940, 55.30078
606.5620, 93.94922
607.7300, 99.39209
608.8990, 112.3647
610.0670, 109.9033
611.2350, 118.5576
612.4020, 104.2139
613.5700, 88.78027
614.7370, 65.43945
615.9050, 37.09912
617.0720, 101.7495
618.2390, 57.42285
619.4060, 75.09717
620.5720, 90.77344
621.7390, 50.45117
622.9050, 121.1294
624.0710, 134.8091
625.2370, 58.49023
626.4030, 84.17285
627.5690, 90.56836
628.7340, 86.25488
629.9000, 94.94287
631.0650, 121.2207
632.2300, 143.9102
633.3950, 187.6021
634.5600, 46.29443
635.7240, 32.98779
636.8890, 76.68262
638.0530, 104.5312
639.2170, 104.8950
640.3810, 97.59326
641.5450, 112.2915
642.7080, 80.99121
643.8720, 74.69141
645.0350, 1.606445
646.1980, 43.45801
647.3610, 66.15430
648.5240, 140.8525
649.6870, 38.55762
650.8490, 1.826660
652.0120, 44.52832
653.1740, 16.76807
654.3360, 87.92188
655.4980, 67.61426
656.6600, 93.30664
657.8210, 43.00049
658.9830, 114.2900
660.1440, 80.98584
661.3050, 86.68848
662.4660, 70.12256
663.6270, 65.83398
664.7870, 32.54590
665.9480, 40.26074
667.1080, 96.98291
668.2680, 15.70996
669.4280, 60.43652
670.5880, 48.16455
671.7480, 30.10645
672.9070, 104.6030
674.0670, 89.31299
675.2260, 53.02393
676.3850, 149.7358
677.5440, 180.4482
678.7030, 98.16162
679.8610, 162.8755
681.0200, 119.5903
682.1780, 100.3052
683.3360, 85.02539
684.4940, 114.7451
685.6520, 103.4282
686.8090, 107.3965
687.9670, 114.9097
689.1240, 111.6323
690.2810, 110.3555
691.4380, 119.1362
692.5950, 3.803223
693.7520, 77.52393
694.9080, 28.24512
696.0650, 28.96680
697.2210, 59.92969
698.3770, 60.65234
699.5330, 43.62402
700.6880, 15.05859
701.8440, 119.6265
702.9990, 39.31689
704.1550, 106.0083
705.3100, 8.299805
706.4650, 96.38232
707.6190, 84.06543
708.7740, 187.7490
709.9290, 58.43701
711.0830, 107.1260
712.2370, 72.81543
713.3910, 5.504883
714.5450, 71.19092
715.6980, 0.8779300
716.8520, 128.5601
718.0050, 21.75684
719.1580, 3.090332
720.3110, 75.70166
721.4640, 122.3618
722.6170, 110.5830
723.7700, 75.24414
724.9220, 39.90576
726.0740, 41.56738
727.2260, 86.14062
728.3780, 42.80273
729.5300, 165.4658
730.6810, 35.23047
731.8330, 56.89355
732.9840, 149.5566
734.1350, 85.22021
735.2860, 95.88330
736.4370, 96.55225
737.5880, 102.2202
738.7380, 106.8101
739.8880, 169.2852
741.0390, 111.9541
742.1890, 160.5508
743.3380, 163.2207
744.4880, 156.8911
745.6380, 102.5610
746.7870, 74.23193
747.9360, 174.9023
749.0850, 98.57373
750.2340, 60.24463
751.3830, 22.08447
752.5310, 65.57080
753.6800, 144.2256
754.8280, 142.8813
755.9760, 91.01367
757.1240, 68.66992
758.2720, 118.5151
759.4190, 104.1758
760.5670, 184.8364
761.7140, 162.4971
762.8610, 133.1572
764.0080, 102.0513
765.1550, 118.8301
766.3020, 79.49609
767.4480, 33.16260
768.5950, 156.8291
769.7410, 185.5337
770.8870, 147.3364
772.0330, 131.0049
773.1780, 125.6733
774.3240, 138.3418
775.4690, 123.0107
776.6140, 166.6875
777.7590, 66.37012
778.9040, 52.05322
780.0490, 116.7358
781.1940, 113.4185
782.3380, 147.6089
783.4820, 218.9546
784.6260, 189.6567
785.7700, 271.7373
786.9140, 255.5933
788.0580, 171.2959
789.2010, 190.5083
790.3450, 289.2212
791.4880, 238.3521
792.6310, 211.0659
793.7730, 171.7798
794.9160, 188.4937
796.0590, 266.2080
797.2010, 246.9233
798.3430, 262.9224
799.4850, 248.6392
800.6270, 306.8428
801.7690, 188.5601
802.9100, 339.7363
804.0520, 209.8057
805.1930, 211.5225
806.3340, 240.1362
807.4750, 144.0381
808.6160, 240.7568
809.7560, 280.0864
810.8970, 268.8047
812.0370, 140.5229
813.1770, 135.2407
814.3170, 155.9585
815.4570, 223.6768
816.5960, 110.3945
817.7360, 169.1118
818.8750, 56.82959
820.0140, 197.5469
821.1530, 246.2642
822.2920, 135.9814
823.4310, 45.69824
824.5690, 174.4150
825.7070, 169.1318
826.8460, 164.8486
827.9840, 80.56543
829.1220, 140.2817
830.2590, 45.53760
831.3970, 161.2554
832.5340, 163.9741
833.6710, 74.69238
834.8080, 88.41846
835.9450, 56.14404
837.0820, 69.70264
838.2190, 97.93750
839.3550, 98.66455
840.4910, 170.3916
841.6270, 151.1191
842.7630, 155.3291
843.8990, 131.4780
845.0350, 126.2139
846.1700, 71.94971
847.3060, 47.68506
848.4410, 119.4214
849.5760, 53.15820
850.7100, 111.5298
851.8450, 88.26709
852.9800, 115.4478
854.1140, 124.1851
855.2480, 31.04199
856.3820, 7.993652
857.5160, 123.7310
858.6500, 62.46875
859.7830, 88.21338
860.9170, 172.9585
862.0500, 79.70410
863.1830, 59.55029
864.3160, 62.16357
865.4480, 55.87695
866.5810, 9.590332
867.7130, 31.31250
868.8460, 96.03418
869.9780, 108.7573
871.1100, 137.4805
872.2410, 129.2070
873.3730, 118.9341
874.5050, 165.6621
875.6360, 76.44482
876.7670, 72.17480
877.8980, 135.9053
879.0290, 107.6597
880.1590, 34.39160
881.2900, 51.12744
882.4200, 41.87256
883.5500, 119.6182
884.6800, 89.74902
885.8100, 34.11084
886.9400, 79.85742
888.0690, 63.69580
889.1990, 75.44434
890.3280, 26.20068
891.4570, 38.04199
892.5860, 42.69434
893.7140, 1.431641
894.8430, 141.1226
895.9710, 89.85889
897.1000, 77.59570
898.2280, 156.3325
899.3560, 7.0312999E-02
900.4830, 5.806152
901.6110, 63.54199
902.7380, 72.27979
903.8660, 133.0166
904.9930, 12.75439
906.1200, 4.492188
907.2460, 98.22949
908.3730, 172.9668
909.5000, 40.70508
910.6260, 90.44385
911.7520, 102.1826
912.8780, 49.92188
914.0040, 166.6621
915.1290, 53.40186
916.2550, 30.14453
917.3800, 14.36328
918.5050, 103.4766
919.6300, 218.2236
920.7550, 3.028809
921.8800, 16.28418
923.0040, 140.4541
924.1290, 113.2451
925.2530, 84.98584
926.3770, 27.72754
927.5010, 41.04883
928.6250, 111.2246
929.7480, 51.97363
930.8720, 60.72363
931.9950, 57.47266
933.1180, 18.77783
934.2410, 16.69775
935.3640, 22.29297
936.4860, 27.44336
937.6090, 4.820801
938.7310, 20.08838
939.8530, 49.63232
940.9750, 64.35303
942.0970, 0.5561520
943.2180, 108.2764
944.3400, 94.99658
945.4610, 74.72754
946.5820, 94.45801
947.7030, 23.18896
948.8240, 40.92090
949.9450, 65.65234
951.0650, 40.41504
952.1860, 57.35010
953.3060, 49.84912
954.4260, 58.58154
955.5460, 77.31445
956.6650, 83.04785
957.7850, 78.78076
958.9040, 161.5146
960.0230, 136.2485
961.1420, 141.9824
962.2610, 82.71729
963.3800, 49.45215
964.4990, 106.6411
965.6170, 97.37842
966.7350, 67.13037
967.8530, 107.8843
968.9710, 82.63818
970.0890, 143.3921
971.2070, 73.14648
972.3240, 33.91553
973.4410, 49.69189
974.5580, 107.4683
975.6750, 126.2446
976.7920, 78.02100
977.9090, 84.80420
979.0250, 72.55322
980.1410, 66.44971
981.2580, 63.80859
982.3740, 69.59229
983.4890, 97.37646
984.6050, 95.16016
985.7200, 97.01270
986.8360, 111.0190
987.9510, 109.5220
989.0660, 110.3105
990.1810, 166.1084
991.2950, 135.7769
992.4100, 34.57861
993.5240, 75.37988
994.6390, 25.18213
995.7530, 46.98389
996.8660, 25.78662
997.9800, 69.67773
999.0940, 62.48096
1000.207, 43.28467
1001.320, 40.88965
1002.433, 65.69434
1003.546, 61.49854
1004.659, 123.3032
1005.772, 76.83496
1006.884, 98.64062
1007.996, 35.44629
1009.108, 5.251465
1010.220, 114.0571
1011.332, 31.86328
1012.444, 8.669434
1013.555, 73.47510
1014.666, 37.07764
1015.777, 90.96680
1016.888, 145.7729
1017.999, 60.58008
1019.110, 75.38672
1020.220, 82.19336
1021.331, 101.0005
1022.441, 74.81592
1023.551, 84.52490
1024.661, 162.3408
1025.770, 74.67920
1026.880, 73.49463
1027.989, 12.87891
1029.098, 72.92871
1030.207, 93.73633
1031.316, 67.54395
1032.425, 112.3521
1033.533, 74.92676
1034.642, 65.89160
1035.750, 102.7002
1036.858, 145.5093
1037.966, 39.31836
1039.073, 101.0918
1040.181, 19.76758
1041.288, 143.5776
1042.396, 28.38721
1043.503, 51.19775
1044.610, 136.0083
1045.716, 18.81885
1046.823, 40.62939
1047.929, 47.44092
1049.036, 132.5591
1050.142, 4.628906
1051.248, 2.840332
1052.353, 81.96338
1053.459, 37.76807
1054.564, 105.1938
1055.670, 97.75049
1056.775, 4.555176
1057.880, 62.36035
1058.985, 56.16553
1060.089, 172.9712
1061.194, 197.7769
1062.298, 169.5830
1063.402, 54.38965
1064.506, 109.1963
1065.610, 119.0034
1066.713, 85.52686
1067.817, 151.9487
1068.920, 57.89258
1070.023, 111.7017
1071.126, 97.05029
1072.229, 28.50732
1073.332, 56.31689
1074.435, 5.873047
1075.537, 9.916992
1076.639, 10.64111
1077.741, 44.36523
1078.843, 31.17334
1079.945, 64.98145
1081.046, 88.79004
1082.148, 120.5996
1083.249, 78.40918
1084.350, 102.2197
1085.451, 41.03125
1086.551, 115.8428
1087.652, 60.65479
1088.752, 78.46777
1089.853, 54.28076
1090.953, 130.0947
1092.053, 36.90918
1093.152, 49.72461
1094.252, 77.54102
1095.351, 164.3574
1096.451, 5.825195
1097.550, 59.98828
1098.649, 44.05859
1099.748, 28.20215
1100.846, 28.01758
1101.945, 99.83350
1103.043, 41.64941
1104.141, 31.63525
1105.239, 123.4521
1106.337, 95.26953
1107.434, 76.08740
1108.532, 133.9062
1109.629, 160.9907
1110.726, 24.18945
1111.823, 118.6162
1112.920, 42.42188
1114.017, 85.22852
1115.113, 64.03564
1116.210, 113.8428
1117.306, 116.6514
1118.402, 25.46094
1119.498, 98.27051
1120.593, 113.0806
1121.689, 152.8911
1122.784, 83.70264
1123.879, 163.5151
1124.974, 62.32812
1126.069, 125.1416
1127.164, 109.9561
1128.259, 70.77051
1129.353, 113.5859
1130.447, 168.4199
1131.541, 50.32910
1132.635, 28.83594
1133.729, 35.98340
1134.822, 85.80322
1135.916, 36.62402
1137.009, 9.554688
1138.102, 55.26123
1139.195, 60.07715
1140.288, 69.89453
1141.380, 125.6572
1142.473, 70.47607
1143.565, 50.29590
1144.657, 115.0933
1145.749, 11.08545
1146.841, 32.27051
1147.932, 76.52783
1149.024, 78.32666
1150.115, 85.12695
1151.206, 26.92773
1152.297, 56.72949
1153.388, 141.5371
1154.479, 29.65332
1155.569, 17.13965
1156.659, 65.93408
1157.750, 19.74023
1158.839, 16.54736
1159.929, 92.40088
1161.019, 55.21094
1162.108, 138.0220
1163.198, 111.8345
1164.287, 67.64844
1165.376, 3.536133
1166.465, 115.2788
1167.553, 81.09521
1168.642, 59.91260
1169.730, 98.73096
1170.818, 73.55127
1171.906, 4.373047
1172.994, 104.1963
1174.082, 133.0205
1175.170, 76.84570
1176.257, 134.6724
1177.344, 92.50098
1178.431, 114.3306
1179.518, 4.838379
1180.605, 97.99121
1181.691, 66.34521
1182.778, 49.80713
1183.864, 71.64062
1184.950, 53.47559
1186.036, 15.68652
1187.122, 81.15039
1188.207, 108.9355
1189.292, 2.775391
1190.378, 25.61719
1191.463, 109.4600
1192.548, 53.30371
1193.632, 16.15039
1194.717, 63.99756
1195.801, 72.84717
1196.886, 32.83398
1197.970, 28.44434
1199.054, 11.59863
1200.137, 43.24951
1201.221, 93.09961
1202.305, 22.95312
1203.388, 109.8140
1204.471, 47.67676
1205.554, 40.05957
1206.637, 106.9272
1207.719, 82.79590
1208.802, 35.66699
1209.884, 54.53955
1210.966, 102.4141
1212.048, 98.29102
1213.130, 97.16895
1214.212, 72.04932
1215.293, 71.93213
1216.374, 87.81641
1217.456, 61.70215
1218.536, 59.58984
1219.617, 9.480469
1220.698, 53.37256
1221.778, 3.270996
1222.859, 17.17139
1223.939, 60.07422
1225.019, 52.97852
1226.099, 47.88477
1227.178, 124.3394
1228.258, 56.74951
1229.337, 7.864746
1230.417, 27.01855
1231.496, 74.90479
1232.574, 84.79346
1233.653, 4.315918
1234.732, 97.57617
1235.810, 80.47021
1236.888, 10.37256
1237.966, 159.2783
1239.044, 6.814453
1240.122, 100.0928
1241.199, 180.3486
1242.277, 48.26025
1243.354, 81.17432
1244.431, 47.09131
1245.508, 27.01025
1246.585, 87.06738
1247.661, 61.99121
1248.738, 30.91846
1249.814, 46.84766
1250.890, 42.77930
1251.966, 40.03564
1253.042, 27.65674
1254.117, 46.60156
1255.193, 75.54980
1256.268, 81.50488
1257.343, 117.4619
1258.418, 3.433105
1259.493, 64.40625
1260.567, 2.617676
1261.642, 57.36035
1262.716, 44.43750
1263.790, 32.42139
1264.864, 8.407227
1265.938, 66.39600
1267.011, 36.66162
1268.085, 74.65625
1269.158, 94.65479
1270.231, 70.65527
1271.304, 38.65918
1272.377, 106.6660
1273.450, 90.67627
1274.522, 28.68994
1275.594, 11.91113
1276.666, 35.87646
1277.738, 35.90137
1278.810, 18.50293
1279.882, 53.95898
1280.953, 10.99316
1282.025, 48.25000
1283.096, 112.2905
1284.167, 51.44043
1285.238, 70.48730
1286.308, 129.5371
1287.379, 60.59082
1288.449, 117.6470
1289.519, 93.71289
1290.589, 101.7817
1291.659, 131.8540
1292.729, 124.9287
1293.798, 124.0068
1294.868, 192.8135
1295.937, 178.8970
1297.006, 142.9844
1298.075, 78.07422
1299.143, 136.1670
