##NAMES=Diamond
##RRUFFID=R050206
##IDEAL CHEMISTRY=C
##LOCALITY=Unknown
##OWNER=RRUFF
##SOURCE=Eric Van Valkenburg
##DESCRIPTION=Single crystal, type IIA
##STATUS=The identification of this mineral has been confirmed by single-crystal X-ray diffraction.
##URL=rruff.info/R050206
##PIN_ID=L01807
##ORIENTATION=Laser parallel to a* (1 0 0). Fiducial mark perpendicular to laser is parallel to c [0 0 1]
114.4400, 0.0000000E+00
115.6710, 11.10059
116.9030, 54.98926
118.1340, 94.72363
119.3650, 1.470703
120.5960, 111.6128
121.8270, 43.46143
123.0580, 3.046631
124.2880, 88.99170
125.5190, 21.50146
126.7490, 24.42065
127.9790, 65.70020
129.2090, 29.29834
130.4390, 67.18115
131.6680, 69.32007
132.8980, 75.69141
134.1270, 114.2742
135.3560, 75.05005
136.5850, 72.00220
137.8140, 111.1172
139.0430, 53.38184
140.2710, 107.7856
141.5000, 130.3184
142.7280, 63.97192
143.9560, 84.73828
145.1840, 130.6104
146.4120, 71.58301
147.6390, 115.6501
148.8670, 99.80737
150.0940, 91.05176
151.3210, 105.3779
152.5490, 85.78052
153.7750, 80.25317
155.0020, 139.7915
156.2290, 102.3921
157.4550, 143.0544
158.6810, 126.7744
159.9080, 166.5500
161.1340, 137.3774
162.3590, 160.2551
163.5850, 152.1816
164.8110, 186.1545
166.0360, 200.1724
167.2610, 188.1890
168.4860, 190.3374
169.7110, 164.4814
170.9360, 129.6655
172.1610, 112.8875
173.3850, 124.1467
174.6100, 113.9897
175.8340, 125.6047
177.0580, 133.1399
178.2820, 153.5403
179.5050, 174.9741
180.7290, 193.4412
181.9520, 193.7612
183.1760, 219.4893
184.3990, 198.0676
185.6220, 200.2695
186.8450, 155.3127
188.0670, 182.9729
189.2900, 156.6343
190.5120, 151.3010
191.7340, 153.9766
192.9560, 174.6631
194.1780, 119.3572
195.4000, 168.0664
196.6220, 226.7964
197.8430, 220.6040
199.0640, 187.4219
200.2860, 157.2505
201.5070, 203.0908
202.7270, 160.6777
203.9480, 163.8115
205.1690, 144.6917
206.3890, 196.5859
207.6090, 223.4944
208.8290, 159.4172
210.0490, 125.3696
211.2690, 188.3364
212.4890, 146.3188
213.7080, 188.3167
214.9280, 226.3296
216.1470, 142.3569
217.3660, 203.3994
218.5850, 164.4563
219.8030, 167.5283
221.0220, 225.6150
222.2400, 167.7166
223.4590, 141.8330
224.6770, 165.9639
225.8950, 180.1096
227.1120, 174.2695
228.3300, 207.4448
229.5480, 144.6340
230.7650, 176.8381
231.9820, 165.0566
233.1990, 237.2893
234.4160, 239.5388
235.6330, 193.8057
236.8490, 165.0869
238.0660, 190.3818
239.2820, 151.6909
240.4980, 158.0139
241.7140, 112.3567
242.9300, 163.7188
244.1460, 175.0950
245.3610, 150.4968
246.5770, 158.9121
247.7920, 112.3406
249.0070, 157.3301
250.2220, 74.80054
251.4370, 83.29297
252.6510, 56.94580
253.8660, 161.4331
255.0800, 143.9329
256.2940, 145.4458
257.5080, 117.9714
258.7220, 159.5115
259.9360, 156.0662
261.1490, 144.6768
262.3630, 132.8228
263.5760, 131.5759
264.7890, 140.3784
266.0020, 158.8374
267.2150, 162.7231
268.4270, 187.6487
269.6400, 168.9504
270.8520, 126.9473
272.0640, 155.9761
273.2760, 177.0352
274.4880, 153.1226
275.7000, 172.0095
276.9120, 126.1497
278.1230, 106.8564
279.3340, 116.2224
280.5450, 146.4329
281.7560, 153.6650
282.9670, 177.9177
284.1780, 155.1899
285.3880, 145.4949
286.5980, 145.8186
287.8090, 92.16040
289.0190, 77.54028
290.2290, 70.91992
291.4380, 148.3159
292.6480, 117.7283
293.8570, 161.1565
295.0670, 75.60010
296.2760, 72.05859
297.4850, 77.53174
298.6930, 80.01880
299.9020, 59.52051
301.1110, 54.03540
302.3190, 54.56665
303.5270, 81.22925
304.7350, 55.78394
305.9430, 92.35132
307.1510, 90.93115
308.3580, 145.5234
309.5660, 87.23682
310.7730, 115.8528
311.9800, 74.48071
313.1870, 123.1199
314.3940, 85.77026
315.6010, 61.43213
316.8070, 117.1047
318.0130, 141.7886
319.2200, 104.4829
320.4260, 89.18774
321.6310, 92.90356
322.8370, 68.62915
324.0430, 46.36523
325.2480, 70.11108
326.4540, 77.86719
327.6590, 111.6328
328.8640, 156.4082
330.0680, 31.19287
331.2730, 91.98706
332.4780, 59.79053
333.6820, 94.60303
334.8860, 40.42480
336.0900, 32.25562
337.2940, 140.0957
338.4980, 181.9448
339.7010, 86.80347
340.9050, 7.670898
342.1080, 93.54761
343.3110, 70.43286
344.5140, 61.32666
345.7170, 142.2292
346.9200, 34.14038
348.1220, 63.06030
349.3240, 84.98853
350.5270, 67.92529
351.7290, 102.8706
352.9310, 74.13745
354.1320, 107.2444
355.3340, 79.21484
356.5350, 62.19336
357.7370, 122.1804
358.9380, 83.17529
360.1390, 90.17847
361.3400, 21.18970
362.5400, 32.21118
363.7410, 64.24097
364.9410, 72.27856
366.1410, 98.32397
367.3410, 81.18994
368.5410, 80.27100
369.7410, 45.66455
370.9400, 41.75513
372.1400, 47.90356
373.3390, 12.18042
374.5380, 41.29614
375.7370, 60.41919
376.9360, 57.54980
378.1350, 6.687500
379.3330, 49.83496
380.5310, 36.98950
381.7300, 19.84888
382.9280, 86.31763
384.1260, 1.509033
385.3230, 78.67114
386.5210, 2.141846
387.7180, 35.05200
388.9160, 8.747070
390.1130, 26.45923
391.3100, 40.67236
392.5060, 74.89185
393.7030, 51.11572
394.9000, 9.345459
396.0960, 50.58130
397.2920, 69.82324
398.4880, 96.07129
399.6840, 15.32593
400.8800, 94.02295
402.0750, 13.29004
403.2710, 83.56323
404.4660, 60.84253
405.6610, 29.13086
406.8560, 89.42871
408.0510, 36.73657
409.2450, 29.94556
410.4400, 27.37402
411.6340, 15.70288
412.8280, 13.95874
414.0220, 33.38525
415.2160, 56.73950
416.4100, 42.10254
417.6030, 37.47388
418.7970, 23.14624
419.9900, 25.23511
421.1830, 17.37524
422.3760, 89.98267
423.5690, 55.38257
424.7610, 52.75537
425.9540, 1.136475
427.1460, 31.52515
428.3380, 13.05054
429.5300, 42.47168
430.7220, 47.90112
431.9140, 6.8115003E-02
433.1050, 113.5156
434.2970, 112.9705
435.4880, 55.43823
436.6790, 6.912598
437.8700, 64.39404
439.0610, 2.882324
440.2510, 39.37720
441.4420, 72.87939
442.6320, 30.38794
443.8220, 15.90308
445.0120, 20.42505
446.2020, 27.04639
447.3910, 44.47852
448.5810, 47.01001
449.7700, 2.547852
450.9600, 65.09204
452.1490, 2.357178
453.3370, 101.2063
454.5260, 87.77637
455.7150, 29.35254
456.9030, 16.93481
458.0910, 84.52295
459.2800, 92.11743
460.4670, 68.71777
461.6550, 94.11230
462.8430, 81.93652
464.0300, 76.55469
465.2180, 104.1790
466.4050, 76.80884
467.5920, 76.74170
468.7790, 20.08618
469.9650, 50.73340
471.1520, 97.38623
472.3380, 89.04492
473.5250, 46.70874
474.7110, 63.37891
475.8970, 59.05469
477.0820, 69.73584
478.2680, 65.42285
479.4540, 48.11523
480.6390, 64.81274
481.8240, 19.51562
483.0090, 16.55688
484.1940, 81.93726
485.3780, 3.656006
486.5630, 31.38135
487.7470, 74.11206
488.9320, 72.84766
490.1160, 64.27344
491.3000, 63.34229
492.4830, 11.10107
493.6670, 19.86475
494.8500, 4.816406
496.0340, 0.7172850
497.2170, 28.19678
498.4000, 31.98193
499.5820, 37.77197
500.7650, 74.56641
501.9480, 83.36670
503.1300, 42.17139
504.3120, 103.5405
505.4940, 14.35498
506.6760, 108.1738
507.8580, 49.99756
509.0390, 21.17432
510.2210, 48.64795
511.4020, 128.4751
512.5830, 60.68115
513.7640, 4.517090
514.9450, 19.64307
516.1250, 50.77832
517.3060, 41.61621
518.4860, 122.4580
519.6660, 117.3037
520.8460, 53.67236
522.0260, 70.52686
523.2060, 100.3848
524.3850, 68.74951
525.5650, 72.61572
526.7440, 15.46680
527.9230, 60.34082
529.1020, 105.2388
530.2810, 31.12061
531.4590, 58.83789
532.6380, 27.72803
533.8160, 56.62158
534.9940, 73.51904
536.1720, 126.4204
537.3500, 149.3257
538.5270, 60.23438
539.7050, 24.14697
540.8820, 79.06299
542.0590, 3.017090
543.2360, 69.90234
544.4130, 86.82568
545.5900, 118.7524
546.7660, 68.68262
547.9430, 62.61670
549.1190, 43.55371
550.2950, 111.4946
551.4710, 95.49072
552.6470, 70.36768
553.8220, 101.3188
554.9980, 89.88525
556.1730, 46.15820
557.3480, 63.11914
558.5230, 131.0835
559.6980, 78.05127
560.8730, 36.25000
562.0470, 69.22461
563.2220, 24.65967
564.3960, 51.46191
565.5700, 20.44580
566.7440, 18.43311
567.9170, 15.42383
569.0910, 53.57275
570.2640, 107.4238
571.4380, 65.63281
572.6110, 8.530762
573.7840, 107.4248
574.9570, 67.39990
576.1290, 129.6509
577.3020, 116.6318
578.4740, 40.61572
579.6460, 49.60156
580.8180, 78.59082
581.9900, 100.5820
583.1620, 100.5762
584.3330, 58.57275
585.5040, 74.57178
586.6760, 83.57324
587.8470, 21.45361
589.0180, 76.46045
590.1880, 47.46924
591.3590, 82.48096
592.5290, 72.49512
593.7000, 56.27197
594.8700, 28.29102
596.0400, 47.31299
597.2090, 17.33643
598.3790, 43.00244
599.5490, 46.39062
600.7180, 82.42090
601.8870, 81.45312
603.0560, 80.48779
604.2250, 89.52393
605.3940, 98.75439
606.5620, 43.64795
607.7300, 103.6909
608.8990, 90.73535
610.0670, 40.78223
611.2350, 99.83008
612.4020, 78.88135
613.5700, 71.93359
614.7370, 102.9873
615.9050, 63.17822
617.0720, 69.23633
618.2390, 15.29541
619.4060, 30.35645
620.5720, 25.47852
621.7390, 74.48438
622.9050, 37.55078
624.0710, 39.62354
625.2370, 41.69775
626.4030, 33.08594
627.5690, 18.17139
628.7340, 40.25830
629.9000, 61.34717
631.0650, 39.62695
632.2300, 97.31396
633.3950, 38.41406
634.5600, 60.84326
635.7240, 134.6343
636.8890, 52.59521
638.0530, 130.7012
639.2170, 105.8091
640.3810, 26.91797
641.5450, 123.0278
642.7080, 139.1392
643.8720, 0.7480470
645.0350, 37.35986
646.1980, 110.4692
647.3610, 59.57910
648.5240, 83.68994
649.6870, 76.64404
650.8490, 109.7573
652.0120, 49.12842
653.1740, 42.95801
654.3360, 148.9946
655.4980, 2.087891
656.6600, 42.99609
657.8210, 42.08057
658.9830, 81.16699
660.1440, 0.7460940
661.3050, 33.33691
662.4660, 60.42090
663.6270, 16.50586
664.7870, 131.6001
665.9480, 72.70117
667.1080, 75.80273
668.2680, 13.90576
669.4280, 20.48633
670.5880, 43.11328
671.7480, 20.21875
672.9070, 40.32520
674.0670, 25.43262
675.2260, 88.54053
676.3850, 60.64990
677.5440, 106.7598
678.7030, 131.8701
679.8610, 76.98145
681.0200, 66.09375
682.1780, 60.87695
683.3360, 112.8833
684.4940, 53.99805
685.6520, 63.11279
686.8090, 84.22852
687.9670, 32.34424
689.1240, 78.46143
690.2810, 24.57861
691.4380, 144.7017
692.5950, 54.82520
693.7520, 82.94922
694.9080, 4.087402
696.0650, 83.22266
697.2210, 51.35938
698.3770, 61.49561
699.5330, 44.63281
700.6880, 88.77441
701.8440, 29.91602
702.9990, 62.06055
704.1550, 35.22363
705.3100, 22.38818
706.4650, 59.55420
707.6190, 20.21143
708.7740, 60.24023
709.9290, 4.893066
711.0830, 6.975098
712.2370, 44.42627
713.3910, 116.5542
714.5450, 14.31738
715.6980, 61.80029
716.8520, 90.91846
718.0050, 37.03662
719.1580, 67.15625
720.3110, 93.27588
721.4640, 130.3960
722.6170, 44.51660
723.7700, 80.63721
724.9220, 40.75879
726.0740, 123.8809
727.2260, 94.00781
728.3780, 30.13525
729.5300, 79.26318
730.6810, 41.39111
731.8330, 24.33398
732.9840, 116.7793
734.1350, 67.89307
735.2860, 68.00684
736.4370, 116.1211
737.5880, 116.2354
738.7380, 117.0503
739.8880, 144.4653
741.0390, 86.58008
742.1890, 66.69580
743.3380, 14.81104
744.4880, 83.93018
745.6380, 93.04980
746.7870, 75.16895
747.9360, 77.28857
749.0850, 81.40820
750.2340, 69.52832
751.3830, 108.6484
752.5310, 106.7686
753.6800, 9.889160
754.8280, 49.00879
755.9760, 27.12793
757.1240, 83.24756
758.2720, 41.36719
759.4190, 74.48730
760.5670, 205.6069
761.7140, 127.7148
762.8610, 143.8350
764.0080, 4.867188
765.1550, 162.9839
766.3020, 111.1011
767.4480, 115.2178
768.5950, 20.95264
769.7410, 53.14844
770.8870, 88.24902
772.0330, 13.39453
773.1780, 136.6943
774.3240, 148.7847
775.4690, 153.8750
776.6140, 185.7324
777.7590, 169.2129
778.9040, 149.1445
780.0490, 144.2339
781.1940, 109.3228
782.3380, 90.85156
783.4820, 112.9399
784.6260, 164.0283
785.7700, 106.1167
786.9140, 31.20410
788.0580, 114.3037
789.2010, 145.4028
790.3450, 227.1274
791.4880, 196.2266
792.6310, 217.3257
793.7730, 231.8423
794.9160, 218.1943
796.0590, 160.0845
797.2010, 211.1890
798.3430, 173.7749
799.4850, 164.8794
800.6270, 180.9834
801.7690, 186.5327
802.9100, 240.8965
804.0520, 224.0044
805.1930, 223.1128
806.3340, 169.1733
807.4750, 200.2817
808.6160, 148.3892
809.7560, 147.5083
810.8970, 152.6270
812.0370, 135.7490
813.1770, 117.8716
814.3170, 208.9941
815.4570, 32.11572
816.5960, 149.2373
817.7360, 154.3584
818.8750, 93.47998
820.0140, 141.6030
821.1530, 77.72559
822.2920, 125.8481
823.4310, 65.97021
824.5690, 135.0923
825.7070, 173.2139
826.8460, 73.33545
827.9840, 98.45654
829.1220, 120.5776
830.2590, 110.6978
831.3970, 65.58496
832.5340, 65.38916
833.6710, 45.50879
834.8080, 50.81641
835.9450, 51.53613
837.0820, 77.86572
838.2190, 92.98438
839.3550, 102.1025
840.4910, 102.1533
841.6270, 137.6270
842.7630, 89.74316
843.8990, 120.1973
845.0350, 123.3027
846.1700, 81.40479
847.3060, 56.29736
848.4410, 118.1162
849.5760, 78.24658
850.7100, 78.37646
851.8450, 24.23291
852.9800, 39.36182
854.1140, 164.4932
855.2480, 130.6235
856.3820, 98.75439
857.5160, 29.88477
858.6500, 98.01465
859.7830, 24.14355
860.9170, 113.2725
862.0500, 68.40137
863.1830, 76.52979
864.3160, 103.6577
865.4480, 23.78516
866.5810, 131.9121
867.7130, 8.039063
868.8460, 63.29443
869.9780, 54.41992
871.1100, 20.54395
872.2410, 87.66797
873.3730, 100.7925
874.5050, 59.91650
875.6360, 49.03955
876.7670, 33.16309
877.8980, 39.52393
879.0290, 43.87500
880.1590, 66.30420
881.2900, 58.42578
882.4200, 53.54932
883.5500, 30.67139
884.6800, 65.79248
885.8100, 120.9131
886.9400, 23.03369
888.0690, 84.15381
889.1990, 90.28418
890.3280, 62.26855
891.4570, 61.38818
892.5860, 114.5073
893.7140, 69.62549
894.8430, 35.74365
895.9710, 46.86182
897.1000, 12.02100
898.2280, 45.08789
899.3560, 26.80420
900.4830, 134.9824
901.6110, 117.0732
902.7380, 111.1631
903.8660, 23.74609
904.9930, 56.56006
906.1200, 68.63574
907.2460, 0.2895510
908.3730, 44.45654
909.5000, 59.52832
910.6260, 30.60059
911.7520, 90.67285
912.8780, 39.75195
914.0040, 103.8359
915.1290, 69.91992
916.2550, 47.00439
917.3800, 122.0879
918.5050, 76.17529
919.6300, 90.26172
920.7550, 81.34814
921.8800, 32.43555
923.0040, 42.04932
924.1290, 26.95996
925.2530, 63.23242
926.3770, 34.38574
927.5010, 26.49121
928.6250, 58.59668
929.7480, 87.70410
930.8720, 12.81152
931.9950, 108.9185
933.1180, 28.02979
934.2410, 88.14258
935.3640, 67.25977
936.4860, 20.62256
937.6090, 17.51807
938.7310, 28.55273
939.8530, 36.64453
940.9750, 63.73682
942.0970, 111.8291
943.2180, 65.92090
944.3400, 44.65527
945.4610, 80.74658
946.5820, 23.71289
947.7030, 110.8032
948.8240, 108.8931
949.9450, 47.98193
951.0650, 67.07031
952.1860, 94.15820
953.3060, 84.24609
954.4260, 37.33350
955.5460, 59.41992
956.6650, 63.50635
957.7850, 80.59180
958.9040, 112.6772
960.0230, 64.76172
961.1420, 122.8457
962.2610, 62.92969
963.3800, 149.0132
964.4990, 22.09619
965.6170, 39.82178
966.7350, 32.24170
967.8530, 69.30566
968.9710, 86.45508
970.0890, 97.51807
971.2070, 65.58105
972.3240, 78.71484
973.4410, 167.7764
974.5580, 51.83789
975.6750, 0.1010740
976.7920, 62.95557
977.9090, 0.9873050
979.0250, 88.06543
980.1410, 57.11865
981.2580, 45.18799
982.3740, 4.741699
983.4890, 117.3267
984.6050, 83.39453
985.7200, 97.46191
986.8360, 98.53369
987.9510, 68.06982
989.0660, 115.1416
990.1810, 83.21289
991.2950, 86.28320
992.4100, 58.35352
993.5240, 37.42285
994.6390, 81.49219
995.7530, 60.56055
996.8660, 121.6284
997.9800, 110.6523
999.0940, 107.1782
1000.207, 101.8306
1001.320, 99.89648
1002.433, 80.81641
1003.546, 107.8975
1004.659, 113.7769
1005.772, 53.06250
1006.884, 129.1445
1007.996, 99.22852
1009.108, 48.31201
1010.220, 54.39551
1011.332, 101.4785
1012.444, 68.56152
1013.555, 9.356445
1014.666, 38.71875
1015.777, 15.79297
1016.888, 94.86719
1017.999, 132.9409
1019.110, 126.0146
1020.220, 41.08789
1021.331, 87.16016
1022.441, 13.23291
1023.551, 67.30518
1024.661, 85.37744
1025.770, 146.4497
1026.880, 113.5215
1027.989, 58.59326
1029.098, 90.66406
1030.207, 113.7354
1031.316, 141.8179
1032.425, 167.8887
1033.533, 134.0469
1034.642, 137.1182
1035.750, 131.1899
1036.858, 81.37793
1037.966, 145.7363
1039.073, 70.81592
1040.181, 73.89502
1041.288, 82.71875
1042.396, 95.80420
1043.503, 118.8901
1044.610, 47.97559
1045.716, 53.68115
1046.823, 94.04443
1047.929, 83.13037
1049.036, 124.2163
1050.142, 19.30225
1051.248, 85.38867
1052.353, 98.47412
1053.459, 39.56006
1054.564, 79.80566
1055.670, 21.00586
1056.775, 32.06641
1057.880, 30.13916
1058.985, 6.210938
1060.089, 141.2827
1061.194, 81.35449
1062.298, 118.4258
1063.402, 67.49658
1064.506, 98.53516
1065.610, 143.5645
1066.713, 86.63525
1067.817, 189.7617
1068.920, 13.83301
1070.023, 20.44922
1071.126, 12.73877
1072.229, 73.32324
1073.332, 75.38525
1074.435, 102.4473
1075.537, 88.50928
1076.639, 39.42871
1077.741, 40.61035
1078.843, 11.35059
1079.945, 115.6816
1081.046, 110.7129
1082.148, 55.74512
1083.249, 60.77686
1084.350, 36.80908
1085.451, 72.84131
1086.551, 42.87402
1087.652, 90.90674
1088.752, 82.93994
1089.853, 122.9731
1090.953, 99.00586
1092.053, 120.0396
1093.152, 39.07324
1094.252, 28.10693
1095.351, 99.14160
1096.451, 23.19092
1097.550, 26.22607
1098.649, 44.56494
1099.748, 116.6006
1100.846, 0.6367190
1101.945, 128.6719
1103.043, 16.70752
1104.141, 0.7436520
1105.239, 120.7788
1106.337, 20.81543
1107.434, 54.85205
1108.532, 54.60010
1109.629, 81.63770
1110.726, 100.3389
1111.823, 9.377930
1112.920, 120.4185
1114.017, 51.45850
1115.113, 31.94775
1116.210, 75.98975
1117.306, 45.03271
1118.402, 65.07617
1119.498, 6.879883
1120.593, 11.16016
1121.689, 15.20166
1122.784, 78.24316
1123.879, 88.28662
1124.974, 69.33154
1126.069, 92.37598
1127.164, 38.42236
1128.259, 34.46924
1129.353, 83.51660
1130.447, 69.56543
1131.541, 3.615234
1132.635, 60.66504
1133.729, 52.71680
1134.822, 61.39844
1135.916, 156.0103
1137.009, 46.06445
1138.102, 53.12012
1139.195, 110.6934
1140.288, 47.75000
1141.380, 10.80762
1142.473, 82.89600
1143.565, 86.95508
1144.657, 58.01562
1145.749, 73.25879
1146.841, 46.32080
1147.932, 68.38574
1149.024, 21.45312
1150.115, 94.52246
1151.206, 45.59180
1152.297, 103.6631
1153.388, 28.73486
1154.479, 124.7979
1155.569, 62.87158
1156.659, 31.94727
1157.750, 55.02344
1158.839, 18.10059
1159.929, 86.17871
1161.019, 66.25781
1162.108, 113.3389
1163.198, 87.42480
1164.287, 24.51221
1165.376, 2.614746
1166.465, 16.71875
1167.553, 1.176270
1168.642, 12.76172
1169.730, 92.04199
1170.818, 52.15674
1171.906, 35.27246
1172.994, 76.39111
1174.082, 21.51025
1175.170, 30.63184
1176.257, 27.24609
1177.344, 21.82910
1178.431, 9.961914
1179.518, 33.06201
1180.605, 28.16406
1181.691, 43.90283
1182.778, 22.45264
1183.864, 41.47656
1184.950, 2.416504
1186.036, 19.31006
1187.122, 22.26611
1188.207, 35.36621
1189.292, 72.46680
1190.378, 97.52148
1191.463, 89.06445
1192.548, 118.7305
1193.632, 49.83838
1194.717, 39.94678
1195.801, 17.94336
1196.886, 19.16064
1197.970, 19.73486
1199.054, 26.36230
1200.137, 23.46143
1201.221, 113.5679
1202.305, 93.70459
1203.388, 124.8198
1204.471, 126.9375
1205.554, 44.05713
1206.637, 116.1782
1207.719, 76.65869
1208.802, 59.78320
1209.884, 114.0400
1210.966, 17.17432
1212.048, 43.31104
1213.130, 18.45020
1214.212, 47.59082
1215.293, 43.73486
1216.374, 44.87988
1217.456, 80.02686
1218.536, 49.17676
1219.617, 8.328613
1220.698, 71.48242
1221.778, 78.63867
1222.859, 61.79688
1223.939, 29.95752
1225.019, 27.12061
1226.099, 0.2421880
1227.178, 69.45264
1228.258, 23.37793
1229.337, 15.79590
1230.417, 49.97168
1231.496, 30.06445
1232.574, 4.250000
1233.653, 74.43799
1234.732, 84.56885
1235.810, 98.77393
1236.888, 114.9814
1237.966, 76.19189
1239.044, 28.40625
1240.122, 76.62256
1241.199, 26.84277
1242.277, 45.06592
1243.354, 60.29199
1244.431, 6.520508
1245.508, 3.760254
1246.585, 92.00293
1247.661, 27.24756
1248.738, 62.49561
1249.814, 92.28125
1250.890, 87.53369
1251.966, 140.7886
1253.042, 46.24951
1254.117, 43.51025
1255.193, 29.77344
1256.268, 87.03955
1257.343, 72.30811
1258.418, 69.31299
1259.493, 96.85352
1260.567, 44.13086
1261.642, 37.41113
1262.716, 29.69336
1263.790, 34.02148
1264.864, 14.74805
1265.938, 96.52295
1267.011, 47.79688
1268.085, 13.92676
1269.158, 83.34814
1270.231, 48.62500
1271.304, 1.094238
1272.377, 114.1885
1273.450, 49.47314
1274.522, 37.76123
1275.594, 90.05566
1276.666, 20.22363
1277.738, 69.52393
1278.810, 59.82666
1279.882, 50.13330
1280.953, 126.4429
1282.025, 30.75488
1283.096, 49.06934
1284.167, 34.38672
1285.238, 61.70605
1286.308, 53.02881
1287.379, 128.3535
1288.449, 96.68115
1289.519, 46.01123
1290.589, 209.3438
1291.659, 94.67920
1292.729, 148.0176
1293.798, 90.68945
1294.868, 120.0332
1295.937, 126.3789
1297.006, 94.61182
1298.075, 132.9634
1299.143, 125.3169
