##NAMES=Diaspore
##RRUFFID=R060287
##IDEAL CHEMISTRY=AlO(OH)
##LOCALITY=Selcuk, Mugla Province, Turkey
##OWNER=RRUFF
##SOURCE=Herb Obodda
##DESCRIPTION=Colorless transparent platy fragment
##STATUS=The identification of this mineral has been confirmed by X-ray diffraction and chemical analysis
##URL=rruff.info/R060287
##MEASURED CHEMISTRY=(Al_0.99_Fe^3+^_0.01_)_Î£=1_O(OH) ; trace amounts of Ti;  OH estimated by difference ; Fe^3+^ by charge balance
##PIN_ID=L01658
##ORIENTATION=Laser parallel to a* (1 0 0). Fiducial mark perpendicular to laser is parallel to b [0 1 0]
114.4400, 0.0000000E+00
115.6710, 2.762695
116.9030, 84.16992
118.1340, 41.14062
119.3650, 48.73682
120.5960, 46.48926
121.8270, 18.87988
123.0580, 98.90381
124.2880, 167.8545
125.5190, 137.2144
126.7490, 62.59570
127.9790, 228.7070
129.2090, 149.3179
130.4390, 148.2344
131.6680, 212.2959
132.8980, 226.3682
134.1270, 294.3369
135.3560, 319.8169
136.5850, 272.6123
137.8140, 392.7715
139.0430, 462.5518
140.2710, 529.9219
141.5000, 696.8389
142.7280, 946.2441
143.9560, 1488.085
145.1840, 2211.326
146.4120, 2861.938
147.6390, 3095.887
148.8670, 3540.145
150.0940, 4743.688
151.3210, 6575.497
152.5490, 8369.542
153.7750, 9179.858
155.0020, 9830.428
156.2290, 11174.16
157.4550, 11537.15
158.6810, 9597.338
159.9080, 6321.664
161.1340, 3625.213
162.3590, 1974.118
163.5850, 1062.340
164.8110, 774.8613
166.0360, 426.4531
167.2610, 446.3125
168.4860, 357.2109
169.7110, 194.1494
170.9360, 179.1309
172.1610, 272.1553
173.3850, 143.2393
174.6100, 146.4199
175.8340, 255.7227
177.0580, 239.1016
178.2820, 261.5156
179.5050, 212.9629
180.7290, 221.0439
181.9520, 213.0156
183.1760, 161.6250
184.3990, 225.3037
185.6220, 104.0215
186.8450, 166.7842
188.0670, 195.5664
189.2900, 239.3027
190.5120, 82.01562
191.7340, 272.7217
192.9560, 209.7939
194.1780, 289.5244
195.4000, 136.2061
196.6220, 230.9102
197.8430, 157.6406
199.0640, 230.4414
200.2860, 183.7559
201.5070, 157.5117
202.7270, 203.6895
203.9480, 244.5117
205.1690, 143.3711
206.3890, 185.4590
207.6090, 177.7422
208.8290, 31.64941
210.0490, 231.3193
211.2690, 250.9316
212.4890, 183.7334
213.7080, 308.7109
214.9280, 142.5107
216.1470, 216.9072
217.3660, 214.7852
218.5850, 113.6846
219.8030, 127.5410
221.0220, 202.4414
222.2400, 199.3828
223.4590, 206.3662
224.6770, 211.3896
225.8950, 114.4531
227.1120, 124.5576
228.3300, 105.6992
229.5480, 80.88086
230.7650, 189.0986
231.9820, 124.5928
233.1990, 197.7471
234.4160, 196.7129
235.6330, 165.0166
236.8490, 128.1475
238.0660, 137.3633
239.2820, 108.0781
240.4980, 166.1475
241.7140, 117.5850
242.9300, 147.0547
244.1460, 228.5557
245.3610, 68.08887
246.5770, 69.70605
247.7920, 197.4248
249.0070, 220.3271
250.2220, 50.10742
251.4370, 80.04590
252.6510, 137.1445
253.8660, 218.0713
255.0800, 175.0518
256.2940, 86.07227
257.5080, 82.12793
258.7220, 303.2891
259.9360, 456.4971
261.1490, 175.1113
262.3630, 200.6484
263.5760, 60.72559
264.7890, 45.04590
266.0020, 93.56836
267.2150, 73.26367
268.4270, 145.1104
269.6400, 46.09082
270.8520, 54.80762
272.0640, 164.3936
273.2760, 1.304688
274.4880, 49.08691
275.7000, 128.5635
276.9120, 103.1182
278.1230, 31.74512
279.3340, 84.43945
280.5450, 54.19922
281.7560, 86.01758
282.9670, 21.10742
284.1780, 157.8193
285.3880, 56.20312
286.5980, 202.8125
287.8090, 162.8750
289.0190, 224.9795
290.2290, 7.874023
291.4380, 175.3096
292.6480, 27.53223
293.8570, 107.7910
295.0670, 75.08496
296.2760, 36.58789
297.4850, 127.7666
298.6930, 142.1504
299.9020, 38.43359
301.1110, 110.0039
302.3190, 99.53027
303.5270, 15.05664
304.7350, 14.55957
305.9430, 20.95898
307.1510, 27.49609
308.3580, 68.06641
309.5660, 161.3496
310.7730, 87.22070
311.9800, 48.18848
313.1870, 41.41211
314.3940, 25.03027
315.6010, 6.330078
316.8070, 80.32520
318.0130, 110.9980
319.2200, 46.68945
320.4260, 127.5996
321.6310, 101.0996
322.8370, 204.8164
324.0430, 59.55078
325.2480, 144.3018
326.4540, 267.0693
327.6590, 327.8545
328.8640, 408.6553
330.0680, 320.4736
331.2730, 527.3066
332.4780, 709.1553
333.6820, 581.0215
334.8860, 548.9023
336.0900, 453.8008
337.2940, 239.7148
338.4980, 204.6309
339.7010, 175.5615
340.9050, 91.50879
342.1080, 103.4756
343.3110, 100.4561
344.5140, 34.45020
345.7170, 148.4434
346.9200, 12.54590
348.1220, 83.47363
349.3240, 46.51074
350.5270, 5.437500
351.7290, 19.38184
352.9310, 67.67285
354.1320, 143.7139
355.3340, 24.23926
356.5350, 21.19141
357.7370, 116.8164
358.9380, 4.173828
360.1390, 30.84863
361.3400, 174.8857
362.5400, 303.9404
363.7410, 243.9727
364.9410, 212.0225
366.1410, 460.0879
367.3410, 245.1719
368.5410, 280.2715
369.7410, 184.3896
370.9400, 325.5234
372.1400, 367.8047
373.3390, 93.97070
374.5380, 202.1553
375.7370, 96.45703
376.9360, 26.56250
378.1350, 70.81738
379.3330, 20.63477
380.5310, 174.9941
381.7300, 18.34668
382.9280, 79.30664
384.1260, 268.5664
385.3230, 27.50977
386.5210, 91.79883
387.7180, 87.10352
388.9160, 1.578125
390.1130, 69.39551
391.3100, 172.4961
392.5060, 49.69629
393.7030, 163.0566
394.9000, 239.4307
396.0960, 298.0088
397.2920, 164.4033
398.4880, 183.8105
399.6840, 52.50977
400.8800, 178.7188
402.0750, 121.1650
403.2710, 120.5996
404.4660, 67.54688
405.6610, 123.0410
406.8560, 188.4082
408.0510, 175.9502
409.2450, 106.5127
410.4400, 182.0947
411.6340, 239.6963
412.8280, 99.31641
414.0220, 280.9551
415.2160, 198.7949
416.4100, 202.4688
417.6030, 266.1250
418.7970, 346.8320
419.9900, 471.6006
421.1830, 458.8008
422.3760, 335.0967
423.5690, 436.8691
424.7610, 473.6562
425.9540, 430.4590
427.1460, 601.6699
428.3380, 801.5039
429.5300, 951.2627
430.7220, 1025.126
431.9140, 1198.004
433.1050, 1571.896
434.2970, 2087.569
435.4880, 2714.490
436.6790, 3855.426
437.8700, 5715.375
439.0610, 8766.338
440.2510, 12510.93
441.4420, 16242.92
442.6320, 19744.93
443.8220, 25812.43
445.0120, 34321.46
446.2020, 41852.97
447.3910, 46644.43
448.5810, 50570.93
449.7700, 52683.01
450.9600, 49090.96
452.1490, 37980.09
453.3370, 25360.20
454.5260, 15531.35
455.7150, 9752.337
456.9030, 6224.513
458.0910, 4295.704
459.2800, 3237.522
460.4670, 2601.741
461.6550, 1865.976
462.8430, 1691.225
464.0300, 1339.062
465.2180, 1211.341
466.4050, 1185.634
467.5920, 861.9414
468.7790, 898.2637
469.9650, 824.6006
471.1520, 798.9541
472.3380, 710.3223
473.5250, 624.7041
474.7110, 568.1016
475.8970, 444.5127
477.0820, 560.9404
478.2680, 488.3818
479.4540, 558.8398
480.6390, 461.3105
481.8240, 449.7979
483.0090, 375.2998
484.1940, 451.8154
485.3780, 337.3477
486.5630, 411.8945
487.7470, 584.4561
488.9320, 599.0322
490.1160, 851.6230
491.3000, 1003.230
492.4830, 1245.854
493.6670, 1508.217
494.8500, 1718.062
496.0340, 2065.730
497.2170, 2298.416
498.4000, 2583.467
499.5820, 2982.674
500.7650, 2710.406
501.9480, 2363.419
503.1300, 1696.184
504.3120, 1051.966
505.4940, 651.7627
506.6760, 474.5771
507.8580, 193.4082
509.0390, 262.2549
510.2210, 54.11914
511.4020, 37.99805
512.5830, 133.8945
513.7640, 15.80859
514.9450, 196.7373
516.1250, 66.68262
517.3060, 45.35742
518.4860, 78.40723
519.6660, 7.483398
520.8460, 7.447266
522.0260, 15.47461
523.2060, 13.47168
524.3850, 76.74414
525.5650, 126.1934
526.7440, 57.85254
527.9230, 91.99414
529.1020, 63.95117
530.2810, 164.9238
531.4590, 40.25684
532.6380, 79.27344
533.8160, 7.314453
534.9940, 38.65332
536.1720, 146.6387
537.3500, 51.35742
538.5270, 58.63379
539.7050, 108.6436
540.8820, 143.3291
542.0590, 26.33105
543.2360, 24.66895
544.4130, 67.31250
545.5900, 2.311523
546.7660, 20.70020
547.9430, 10.26953
549.1190, 31.77246
550.2950, 37.83008
551.4710, 56.90527
552.6470, 45.00000
553.8220, 61.11816
554.9980, 147.2539
556.1730, 55.40918
557.3480, 261.5879
558.5230, 128.7852
559.6980, 141.0283
560.8730, 4.297852
562.0470, 219.5977
563.2220, 194.9355
564.3960, 226.2920
565.5700, 179.6670
566.7440, 183.0596
567.9170, 221.4697
569.0910, 334.9014
570.2640, 368.3506
571.4380, 381.2676
572.6110, 332.3223
573.7840, 411.8350
574.9570, 289.3662
576.1290, 378.9199
577.3020, 388.4912
578.4740, 294.0801
579.6460, 477.6875
580.8180, 682.3125
581.9900, 507.9736
583.1620, 438.6523
584.3330, 479.3486
585.5040, 633.0703
586.6760, 460.8213
587.8470, 447.6113
589.0180, 578.4219
590.1880, 517.2529
591.3590, 603.1016
592.5290, 811.9746
593.7000, 788.8750
594.8700, 886.8320
596.0400, 1068.807
597.2090, 1281.809
598.3790, 1545.828
599.5490, 1805.866
600.7180, 2254.925
601.8870, 2633.002
603.0560, 3014.098
604.2250, 3578.209
605.3940, 3997.369
606.5620, 4454.549
607.7300, 4886.746
608.8990, 5003.959
610.0670, 5216.195
611.2350, 5243.445
612.4020, 4522.715
613.5700, 4218.002
614.7370, 3639.309
615.9050, 2932.650
617.0720, 2538.019
618.2390, 2050.403
619.4060, 1794.806
620.5720, 1634.229
621.7390, 1508.667
622.9050, 1192.125
624.0710, 1104.600
625.2370, 1061.092
626.4030, 848.6016
627.5690, 953.1289
628.7340, 746.6777
629.9000, 890.2451
631.0650, 801.8340
632.2300, 731.4404
633.3950, 703.0713
634.5600, 712.7236
635.7240, 823.3994
636.8890, 622.0928
638.0530, 463.8047
639.2170, 630.5410
640.3810, 580.3008
641.5450, 753.1016
642.7080, 816.9238
643.8720, 667.7617
645.0350, 730.6182
646.1980, 869.4922
647.3610, 970.3828
648.5240, 1061.291
649.6870, 1183.216
650.8490, 1301.182
652.0120, 1508.164
653.1740, 1665.163
654.3360, 2091.049
655.4980, 2494.082
656.6600, 2953.132
657.8210, 3550.096
658.9830, 4407.287
660.1440, 5053.355
661.3050, 5796.156
662.4660, 6658.904
663.6270, 7232.949
664.7870, 7748.418
665.9480, 8320.615
667.1080, 8298.177
668.2680, 8014.434
669.4280, 7473.721
670.5880, 7114.033
671.7480, 5878.726
672.9070, 5180.324
674.0670, 4195.844
675.2260, 3593.253
676.3850, 3058.680
677.5440, 2530.934
678.7030, 2025.397
679.8610, 1827.912
681.0200, 1483.723
682.1780, 1524.731
683.3360, 1109.267
684.4940, 1136.846
685.6520, 999.9404
686.8090, 796.5303
687.9670, 627.4014
689.1240, 672.0283
690.2810, 679.6729
691.4380, 508.7900
692.5950, 577.4541
693.7520, 555.1514
694.9080, 525.8672
696.0650, 540.6006
697.2210, 517.0918
698.3770, 447.6123
699.5330, 470.3965
700.6880, 498.1504
701.8440, 398.1182
702.9990, 358.9736
704.1550, 517.8506
705.3100, 297.7373
706.4650, 480.6504
707.6190, 479.5801
708.7740, 266.5254
709.9290, 192.5117
711.0830, 198.5742
712.2370, 376.6064
713.3910, 282.6152
714.5450, 196.3223
715.6980, 292.3623
716.8520, 239.4189
718.0050, 246.4902
719.1580, 250.5771
720.3110, 313.2910
721.4640, 246.4131
722.6170, 259.6504
723.7700, 217.7979
724.9220, 264.6855
726.0740, 249.0244
727.2260, 297.0557
728.3780, 253.2607
729.5300, 266.4814
730.6810, 273.7158
731.8330, 208.9785
732.9840, 166.1992
734.1350, 286.4756
735.2860, 222.7656
736.4370, 273.0684
737.5880, 331.3848
738.7380, 123.8223
739.8880, 265.1660
741.0390, 260.5234
742.1890, 324.8936
743.3380, 188.7715
744.4880, 237.1670
745.6380, 403.5762
746.7870, 294.3320
747.9360, 71.76562
749.0850, 232.2129
750.2340, 198.6719
751.3830, 199.1436
752.5310, 239.8770
753.6800, 226.7275
754.8280, 233.5986
755.9760, 231.1172
757.1240, 214.6494
758.2720, 337.4561
759.4190, 325.0098
760.5670, 353.5762
761.7140, 302.1533
762.8610, 303.7422
764.0080, 299.4424
765.1550, 230.9541
766.3020, 291.3086
767.4480, 262.9414
768.5950, 260.5859
769.7410, 211.2402
770.8870, 230.1377
772.0330, 273.0547
773.1780, 274.7412
774.3240, 320.4385
775.4690, 393.1455
776.6140, 278.8643
777.7590, 226.5918
778.9040, 443.5645
780.0490, 296.3125
781.1940, 352.0703
782.3380, 399.8369
783.4820, 506.6133
784.6260, 525.3994
785.7700, 477.1943
786.9140, 515.9980
788.0580, 575.0547
789.2010, 486.8770
790.3450, 520.7070
791.4880, 488.5479
792.6310, 569.3965
793.7730, 498.2559
794.9160, 366.1211
796.0590, 389.4209
797.2010, 408.4199
798.3430, 334.3516
799.4850, 298.2939
800.6270, 314.2510
801.7690, 224.2168
802.9100, 245.2109
804.0520, 187.1387
805.1930, 252.7910
806.3340, 161.9102
807.4750, 110.4990
808.6160, 34.54785
809.7560, 178.6152
810.8970, 176.7109
812.0370, 206.7461
813.1770, 209.2881
814.3170, 163.9873
815.4570, 115.1709
816.5960, 10.31738
817.7360, 93.53125
818.8750, 2.386719
820.0140, 134.8916
821.1530, 78.05273
822.2920, 149.2373
823.4310, 147.3799
824.5690, 4.628906
825.7070, 113.8340
826.8460, 38.04688
827.9840, 3.736328
829.1220, 12.51953
830.2590, 73.69434
831.3970, 78.91113
832.5340, 163.1348
833.6710, 86.36230
834.8080, 105.4043
835.9450, 27.78711
837.0820, 44.61816
838.2190, 79.76953
839.3550, 77.33691
840.4910, 28.44824
841.6270, 107.5762
842.7630, 128.9014
843.8990, 159.0361
845.0350, 41.17480
846.1700, 27.31836
847.3060, 19.46484
848.4410, 24.61426
849.5760, 67.76758
850.7100, 1.077148
851.8450, 126.0762
852.9800, 59.23242
854.1140, 85.39160
855.2480, 53.55566
856.3820, 33.27832
857.5160, 34.86816
858.6500, 21.01855
859.7830, 51.16992
860.9170, 34.67480
862.0500, 36.45898
863.1830, 185.5957
864.3160, 80.73535
865.4480, 153.8779
866.5810, 98.02344
867.7130, 21.82812
868.8460, 3.695313
869.9780, 100.4297
871.1100, 177.5596
872.2410, 55.69141
873.3730, 61.82520
874.5050, 23.96191
875.6360, 110.1006
876.7670, 179.3506
877.8980, 51.49316
879.0290, 5.638672
880.1590, 96.78223
881.2900, 51.92676
882.4200, 11.07422
883.5500, 194.2217
884.6800, 188.3701
885.8100, 268.5205
886.9400, 41.68652
888.0690, 15.85547
889.1990, 59.97656
890.3280, 8.844727
891.4570, 123.2754
892.5860, 65.39844
893.7140, 15.52441
894.8430, 199.6484
895.9710, 97.77539
897.1000, 242.9043
898.2280, 48.03516
899.3560, 77.16797
900.4830, 195.3027
901.6110, 2.439453
902.7380, 47.57031
903.8660, 119.7041
904.9930, 93.83887
906.1200, 10.02441
907.2460, 186.1016
908.3730, 52.22949
909.5000, 59.35938
910.6260, 173.4922
911.7520, 86.62598
912.8780, 77.76367
914.0040, 74.09863
915.1290, 43.99707
916.2550, 112.0947
917.3800, 276.1943
918.5050, 163.2959
919.6300, 270.4004
920.7550, 149.5059
921.8800, 107.6123
923.0040, 74.27734
924.1290, 77.78906
925.2530, 175.8574
926.3770, 160.9277
927.5010, 148.9990
928.6250, 91.07227
929.7480, 75.14844
930.8720, 51.22656
931.9950, 7.305664
933.1180, 78.38184
934.2410, 71.45996
935.3640, 181.5391
936.4860, 99.62109
937.6090, 63.70312
938.7310, 18.21289
939.8530, 30.04199
940.9750, 20.88477
942.0970, 28.85547
943.2180, 102.1533
944.3400, 163.1621
945.4610, 145.1738
946.5820, 52.81348
947.7030, 36.16504
948.8240, 43.14648
949.9450, 31.12891
951.0650, 58.11035
952.1860, 43.59961
953.3060, 102.4551
954.4260, 16.17480
955.5460, 73.16113
956.6650, 50.14844
957.7850, 41.13770
958.9040, 43.12891
960.0230, 126.0098
961.1420, 70.00293
962.2610, 198.9980
963.3800, 122.5391
964.4990, 110.5527
965.6170, 91.55273
966.7350, 46.13379
967.8530, 212.5566
968.9710, 41.56055
970.0890, 18.92578
971.2070, 98.07617
972.3240, 42.91797
973.4410, 234.9277
974.5580, 116.9062
975.6750, 102.4414
976.7920, 35.57617
977.9090, 206.3887
979.0250, 110.3574
980.1410, 252.3281
981.2580, 192.2773
982.3740, 70.16602
983.4890, 158.1074
984.6050, 293.0879
985.7200, 129.3906
986.8360, 214.3789
987.9510, 204.3691
989.0660, 140.3633
990.1810, 274.3594
991.2950, 104.7461
992.4100, 89.74414
993.5240, 298.6465
994.6390, 229.6543
995.7530, 164.9414
996.8660, 145.9551
997.9800, 163.9727
999.0940, 241.9961
1000.207, 122.0215
1001.320, 258.0508
1002.433, 311.0703
1003.546, 301.1465
1004.659, 248.1875
1005.772, 243.2324
1006.884, 307.2793
1007.996, 143.3320
1009.108, 224.2793
1010.220, 4.660156
1011.332, 117.4023
1012.444, 264.4688
1013.555, 110.0449
1014.666, 252.1191
1015.777, 190.1992
1016.888, 166.9473
1017.999, 383.0352
1019.110, 327.1270
1020.220, 191.3066
1021.331, 187.4062
1022.441, 249.2617
1023.551, 191.0156
1024.661, 209.7676
1025.770, 239.8848
1026.880, 289.0078
1027.989, 237.8965
1029.098, 145.1348
1030.207, 161.3164
1031.316, 126.2305
1032.425, 120.6328
1033.533, 96.84180
1034.642, 93.05664
1035.750, 20.54688
1036.858, 68.12305
1037.966, 85.08008
1039.073, 163.3809
1040.181, 58.22656
1041.288, 145.5586
1042.396, 179.8945
1043.503, 106.2363
1044.610, 124.5820
1045.716, 146.7578
1046.823, 230.2930
1047.929, 228.4238
1049.036, 229.7930
1050.142, 318.1680
1051.248, 217.5488
1052.353, 378.9336
1053.459, 251.3359
1054.564, 147.7441
1055.670, 284.1562
1056.775, 91.33398
1057.880, 272.7598
1058.985, 136.1934
1060.089, 136.6309
1061.194, 118.0781
1062.298, 110.5273
1063.402, 153.9863
1064.506, 110.4512
1065.610, 176.4316
1066.713, 113.9102
1067.817, 131.3945
1068.920, 205.8848
1070.023, 157.3848
1071.126, 157.8906
1072.229, 12.52344
1073.332, 227.3691
1074.435, 85.80664
1075.537, 194.7891
1076.639, 30.33008
1077.741, 16.87695
1078.843, 240.4277
1079.945, 252.0625
1081.046, 135.6191
1082.148, 230.9062
1083.249, 61.73633
1084.350, 193.3281
1085.451, 168.9277
1086.551, 123.5605
1087.652, 104.0801
1088.752, 259.7305
1089.853, 266.3887
1090.953, 31.05664
1092.053, 166.7324
1093.152, 15.41406
1094.252, 296.1055
1095.351, 159.8066
1096.451, 219.5156
1097.550, 79.24023
1098.649, 26.97070
1099.748, 119.7129
1100.846, 184.4590
1101.945, 254.2168
1103.043, 198.5723
1104.141, 186.3848
1105.239, 161.5156
1106.337, 34.37891
1107.434, 74.75000
1108.532, 99.10742
1109.629, 173.7793
1110.726, 86.65430
1111.823, 178.5391
1112.920, 70.42969
1114.017, 253.3320
1115.113, 163.2441
1116.210, 262.1641
1117.306, 234.0918
1118.402, 317.1621
1119.498, 486.1113
1120.593, 553.0723
1121.689, 622.0410
1122.784, 486.0176
1123.879, 286.0176
1124.974, 373.0254
1126.069, 471.0410
1127.164, 254.0684
1128.259, 380.1152
1129.353, 341.1719
1130.447, 254.2383
1131.541, 128.3145
1132.635, 152.3965
1133.729, 86.49023
1134.822, 216.6094
1135.916, 106.7441
1137.009, 147.8867
1138.102, 147.0410
1139.195, 9.203125
1140.288, 118.3770
1141.380, 79.40430
1142.473, 174.6523
1143.565, 116.8574
1144.657, 191.0742
1145.749, 212.3008
1146.841, 68.53516
1147.932, 298.7793
1149.024, 154.0352
1150.115, 39.29883
1151.206, 84.42578
1152.297, 70.83008
1153.388, 255.0918
1154.479, 195.3691
1155.569, 310.6719
1156.659, 246.9883
1157.750, 198.3164
1158.839, 219.8223
1159.929, 6.830078
1161.019, 259.5254
1162.108, 39.89062
1163.198, 286.2637
1164.287, 314.8535
1165.376, 382.2441
1166.465, 359.6406
1167.553, 358.9062
1168.642, 107.7422
1169.730, 416.5938
1170.818, 420.6660
1171.906, 232.9980
1172.994, 387.4512
1174.082, 495.9102
1175.170, 412.3789
1176.257, 231.8535
1177.344, 346.3340
1178.431, 543.8223
1179.518, 548.3398
1180.605, 775.8652
1181.691, 831.3945
1182.778, 1053.932
1183.864, 1226.447
1184.950, 1611.012
1186.036, 2133.582
1187.122, 2549.158
1188.207, 3382.766
1189.292, 3295.377
1190.378, 3391.012
1191.463, 3527.666
1192.548, 2998.328
1193.632, 2559.998
1194.717, 2353.672
1195.801, 1769.354
1196.886, 1499.043
1197.970, 1287.740
1199.054, 969.4434
1200.137, 752.1523
1201.221, 624.8672
1202.305, 490.5898
1203.388, 449.1152
1204.471, 379.8691
1205.554, 420.6406
1206.637, 425.4297
1207.719, 463.2246
1208.802, 521.0254
1209.884, 289.8320
1210.966, 275.6621
1212.048, 155.5000
1213.130, 139.3457
1214.212, 104.1934
1215.293, 317.0508
1216.374, 156.9141
1217.456, 210.7793
1218.536, 319.6543
1219.617, 194.5332
1220.698, 274.4199
1221.778, 206.3125
1222.859, 185.2090
1223.939, 103.1133
1225.019, 179.0234
1226.099, 322.9355
1227.178, 195.8555
1228.258, 209.7832
1229.337, 66.71094
1230.417, 198.6484
1231.496, 246.6074
1232.574, 143.5547
1233.653, 156.5156
1234.732, 172.4785
1235.810, 88.45898
1236.888, 441.4453
1237.966, 160.8770
1239.044, 339.8711
1240.122, 175.9277
1241.199, 166.9473
1242.277, 201.9766
1243.354, 178.0098
1244.431, 49.04688
1245.508, 210.1191
1246.585, 78.16406
1247.661, 1.785156
1248.738, 142.2676
1249.814, 158.3262
1250.890, 116.3867
1251.966, 87.45508
1253.042, 10.73438
1254.117, 194.8105
1255.193, 147.8984
1256.268, 181.9883
1257.343, 103.0859
1258.418, 123.2461
1259.493, 89.11914
1260.567, 125.3945
1261.642, 79.50391
1262.716, 65.61914
1263.790, 169.8359
1264.864, 120.1816
1265.938, 196.3047
1267.011, 219.4316
1268.085, 152.5625
1269.158, 136.6953
1270.231, 214.4531
1271.304, 194.5918
1272.377, 121.7344
1273.450, 39.87891
1274.522, 225.0273
1275.594, 68.17969
1276.666, 208.3340
1277.738, 98.49023
1278.810, 33.65039
1279.882, 91.81250
1280.953, 59.61719
1282.025, 105.0645
1283.096, 133.2324
1284.167, 152.4980
1285.238, 191.6719
1286.308, 120.8555
1287.379, 83.78320
1288.449, 258.5352
1289.519, 74.59766
1290.589, 198.7441
