##NAMES=Diaspore
##RRUFFID=R060546
##IDEAL CHEMISTRY=AlO(OH)
##LOCALITY=Turkey
##OWNER=RRUFF
##SOURCE=Gemological Institute of America
##DESCRIPTION=Platy transparent pale yellow fragment
##STATUS=The identification of this mineral has been confirmed by X-ray diffraction and chemical analysis
##URL=rruff.info/R060546
##MEASURED CHEMISTRY=(Al_0.99_Fe^3+^_0.01_)_Î£=1_O(OH) ; OH estimated by difference; Fe^3+^ by charge balance
##PIN_ID=L01635
##ORIENTATION=Laser parallel to c* (0 0 1). Fiducial mark perpendicular to laser is parallel to a [1 0 0]
132.8980, 0.0000000E+00
134.1270, 163.0723
135.3560, 3.474121
136.5850, 82.99561
137.8140, 136.8647
139.0430, 198.6304
140.2710, 324.3843
141.5000, 455.0249
142.7280, 710.8252
143.9560, 1184.163
145.1840, 1833.576
146.4120, 2562.614
147.6390, 3022.782
148.8670, 3242.116
150.0940, 4157.326
151.3210, 5969.189
152.5490, 8257.792
153.7750, 10133.13
155.0020, 10444.40
156.2290, 10623.79
157.4550, 9053.478
158.6810, 8518.481
159.9080, 6325.004
161.1340, 3993.430
162.3590, 1985.908
163.5850, 1052.643
164.8110, 610.9707
166.0360, 327.0054
167.2610, 318.2935
168.4860, 130.4009
169.7110, 89.63184
170.9360, 94.86670
172.1610, 53.51221
173.3850, 100.7090
174.6100, 73.17627
175.8340, 38.85938
177.0580, 39.19238
178.2820, 54.87061
179.5050, 72.32959
180.7290, 20.11963
181.9520, 84.65527
183.1760, 120.3818
184.3990, 62.15674
185.6220, 10.85742
186.8450, 28.01807
188.0670, 35.37939
189.2900, 7.332031
190.5120, 13.77295
191.7340, 0.3901370
192.9560, 66.20703
194.1780, 65.47852
195.4000, 34.31104
196.6220, 19.72705
197.8430, 13.79346
199.0640, 52.90381
200.2860, 51.33496
201.5070, 49.60400
202.7270, 15.22852
203.9480, 31.66650
205.1690, 43.32617
206.3890, 63.59717
207.6090, 15.86963
208.8290, 13.14746
210.0490, 36.43896
211.2690, 16.74463
212.4890, 29.44043
213.7080, 59.39648
214.9280, 40.73877
216.1470, 34.81201
217.3660, 46.10400
218.5850, 17.48438
219.8030, 27.80078
221.0220, 88.11475
222.2400, 83.61768
223.4590, 10.40576
224.6770, 93.53564
225.8950, 55.66748
227.1120, 127.9878
228.3300, 111.5630
229.5480, 9.087402
230.7650, 105.6191
231.9820, 107.1587
233.1990, 70.70020
234.4160, 6.244629
235.6330, 22.97021
236.8490, 0.6416020
238.0660, 35.87891
239.2820, 17.39697
240.4980, 48.08691
241.7140, 79.16260
242.9300, 59.39404
244.1460, 191.8560
245.3610, 209.5366
246.5770, 160.2148
247.7920, 107.7749
249.0070, 68.22021
250.2220, 23.65186
251.4370, 76.06982
252.6510, 110.4736
253.8660, 151.9072
255.0800, 37.36279
256.2940, 58.82715
257.5080, 157.3794
258.7220, 44.85303
259.9360, 174.3433
261.1490, 223.8359
262.3630, 146.3545
263.5760, 52.86621
264.7890, 40.39795
266.0020, 163.9238
267.2150, 118.4746
268.4270, 69.03467
269.6400, 22.62793
270.8520, 45.26270
272.0640, 127.9277
273.2760, 58.59375
274.4880, 81.24854
275.7000, 37.88965
276.9120, 126.5205
278.1230, 168.1401
279.3340, 178.9165
280.5450, 286.4043
281.7560, 276.6030
282.9670, 291.2998
284.1780, 400.0503
285.3880, 537.8359
286.5980, 765.6406
287.8090, 752.4541
289.0190, 976.2705
290.2290, 822.0815
291.4380, 730.8730
292.6480, 513.6470
293.8570, 402.4009
295.0670, 228.1338
296.2760, 167.8462
297.4850, 36.53906
298.6930, 81.78760
299.9020, 47.83984
301.1110, 20.38330
302.3190, 48.18262
303.5270, 31.78076
304.7350, 51.59326
305.9430, 54.94824
307.1510, 54.04639
308.3580, 1.576660
309.5660, 39.85059
310.7730, 86.91797
311.9800, 52.72852
313.1870, 30.43066
314.3940, 110.5757
315.6010, 9.289063
316.8070, 10.82324
318.0130, 8.080566
319.2200, 23.00244
320.4260, 47.05273
321.6310, 66.78223
322.8370, 179.7832
324.0430, 125.3291
325.2480, 122.2769
326.4540, 224.1509
327.6590, 262.0615
328.8640, 510.9600
330.0680, 588.8286
331.2730, 676.5103
332.4780, 629.2563
333.6820, 627.0220
334.8860, 600.6240
336.0900, 423.3877
337.2940, 296.8784
338.4980, 333.6494
339.7010, 141.4102
340.9050, 128.1074
342.1080, 50.43018
343.3110, 141.0112
344.5140, 121.7388
345.7170, 97.45996
346.9200, 36.17090
348.1220, 148.7275
349.3240, 19.35791
350.5270, 45.02734
351.7290, 36.29150
352.9310, 108.2295
354.1320, 147.7227
355.3340, 65.32666
356.5350, 30.83887
357.7370, 33.40186
358.9380, 43.30371
360.1390, 37.62939
361.3400, 158.1030
362.5400, 161.6133
363.7410, 266.2007
364.9410, 310.9375
366.1410, 313.9507
367.3410, 401.3682
368.5410, 431.7993
369.7410, 458.1602
370.9400, 449.3506
372.1400, 268.1357
373.3390, 198.6528
374.5380, 231.3760
375.7370, 102.2368
376.9360, 135.5396
378.1350, 52.75439
379.3330, 35.01074
380.5310, 53.78662
381.7300, 81.58545
382.9280, 85.17822
384.1260, 97.13867
385.3230, 101.2402
386.5210, 120.7314
387.7180, 106.8623
388.9160, 161.4575
390.1130, 180.7046
391.3100, 283.9473
392.5060, 393.1865
393.7030, 422.4111
394.9000, 446.8691
396.0960, 522.3760
397.2920, 423.1904
398.4880, 342.7983
399.6840, 338.1152
400.8800, 294.5078
402.0750, 237.7256
403.2710, 132.4897
404.4660, 167.1543
405.6610, 202.7168
406.8560, 151.4219
408.0510, 206.1865
409.2450, 81.90479
410.4400, 111.0996
411.6340, 157.2910
412.8280, 175.4570
414.0220, 205.2495
415.2160, 248.2988
416.4100, 239.4746
417.6030, 252.5884
418.7970, 215.7559
419.9900, 284.7368
421.1830, 311.8965
422.3760, 431.0527
423.5690, 424.2007
424.7610, 469.3418
425.9540, 562.4771
427.1460, 623.6040
428.3380, 761.7231
429.5300, 899.8340
430.7220, 1238.937
431.9140, 1251.030
433.1050, 1625.115
434.2970, 2061.191
435.4880, 2738.259
436.6790, 3891.318
437.8700, 5788.371
439.0610, 8631.413
440.2510, 12435.45
441.4420, 16615.25
442.6320, 20023.78
443.8220, 25349.66
445.0120, 34232.16
446.2020, 43795.73
447.3910, 51439.34
448.5810, 52293.23
449.7700, 49429.14
450.9600, 45782.02
452.1490, 38490.68
453.3370, 28181.44
454.5260, 18432.51
455.7150, 11453.72
456.9030, 7185.336
458.0910, 4993.282
459.2800, 3614.190
460.4670, 2775.250
461.6550, 2147.220
462.8430, 1778.246
464.0300, 1567.043
465.2180, 1244.966
466.4050, 1173.896
467.5920, 1054.837
468.7790, 943.7759
469.9650, 862.7119
471.1520, 806.6455
472.3380, 690.5767
473.5250, 712.5059
474.7110, 572.4336
475.8970, 593.3594
477.0820, 521.2842
478.2680, 373.2075
479.4540, 510.1338
480.6390, 430.0601
481.8240, 423.9854
483.0090, 389.9087
484.1940, 422.8315
485.3780, 403.7275
486.5630, 477.6553
487.7470, 576.5820
488.9320, 597.5078
490.1160, 803.3076
491.3000, 1036.233
492.4830, 1133.741
493.6670, 1551.624
494.8500, 1603.018
496.0340, 1914.943
497.2170, 2413.869
498.4000, 2703.795
499.5820, 2588.552
500.7650, 2393.346
501.9480, 2129.237
503.1300, 1630.084
504.3120, 1144.014
505.4940, 733.9443
506.6760, 462.8848
507.8580, 287.8276
509.0390, 155.7725
510.2210, 139.7188
511.4020, 37.44727
512.5830, 8.600586
513.7640, 39.40234
514.9450, 17.46045
516.1250, 38.52734
517.3060, 5.609375
518.4860, 11.30566
519.6660, 32.77588
520.8460, 63.12695
522.0260, 62.95459
523.2060, 65.12939
524.3850, 8.237793
525.5650, 45.34766
526.7440, 24.52441
527.9230, 14.59863
529.1020, 66.27295
530.2810, 58.85059
531.4590, 62.99951
532.6380, 39.85449
533.8160, 105.7134
534.9940, 55.42285
536.1720, 40.41797
537.3500, 7.265625
538.5270, 10.88135
539.7050, 27.03027
540.8820, 62.18701
542.0590, 4.367188
543.2360, 6.455078
544.4130, 34.71777
545.5900, 99.89990
546.7660, 47.12451
547.9430, 11.36475
549.1190, 53.60498
550.2950, 54.86279
551.4710, 69.86133
552.6470, 100.5913
553.8220, 60.32715
554.9980, 26.07031
556.1730, 94.82031
557.3480, 5.578125
558.5230, 97.34229
559.6980, 89.11328
560.8730, 168.8911
562.0470, 134.6763
563.2220, 194.4683
564.3960, 289.2676
565.5700, 156.0737
566.7440, 193.8882
567.9170, 156.7100
569.0910, 188.5405
570.2640, 194.3789
571.4380, 215.2241
572.6110, 323.0781
573.7840, 256.9395
574.9570, 384.8091
576.1290, 462.6870
577.3020, 387.5728
578.4740, 615.4668
579.6460, 797.3701
580.8180, 936.2812
581.9900, 999.3555
583.1620, 985.1318
584.3330, 995.0981
585.5040, 896.0742
586.6760, 803.0620
587.8470, 779.6543
589.0180, 737.5479
590.1880, 712.1675
591.3590, 724.2271
592.5290, 756.2969
593.7000, 758.3818
594.8700, 900.4780
596.0400, 1085.613
597.2090, 1170.779
598.3790, 1509.957
599.5490, 1759.144
600.7180, 2057.351
601.8870, 2420.572
603.0560, 2777.812
604.2250, 3352.075
605.3940, 3768.351
606.5620, 4287.636
607.7300, 4674.934
608.8990, 4991.246
610.0670, 4902.568
611.2350, 4634.906
612.4020, 4424.257
613.5700, 3889.617
614.7370, 3381.988
615.9050, 2927.372
617.0720, 2346.766
618.2390, 2134.173
619.4060, 1804.591
620.5720, 1530.020
621.7390, 1512.469
622.9050, 1374.929
624.0710, 1337.400
625.2370, 1266.884
626.4030, 1297.387
627.5690, 1090.926
628.7340, 976.4766
629.9000, 921.0386
631.0650, 956.6138
632.2300, 859.2002
633.3950, 867.8110
634.5600, 659.4346
635.7240, 618.0850
636.8890, 656.7476
638.0530, 625.4219
639.2170, 727.1089
640.3810, 750.8086
641.5450, 852.5215
642.7080, 915.2524
643.8720, 1027.017
645.0350, 1068.794
646.1980, 1120.583
647.3610, 1227.385
648.5240, 1354.200
649.6870, 1516.026
650.8490, 1617.865
652.0120, 1838.733
653.1740, 2038.606
654.3360, 2351.628
655.4980, 2704.727
656.6600, 3141.259
657.8210, 3676.643
658.9830, 4247.593
660.1440, 4940.562
661.3050, 5643.542
662.4660, 6511.539
663.6270, 7027.716
664.7870, 7688.136
665.9480, 7989.550
667.1080, 8034.646
668.2680, 7714.863
669.4280, 7115.021
670.5880, 6616.850
671.7480, 5563.039
672.9070, 4961.247
674.0670, 3961.468
675.2260, 3478.691
676.3850, 2751.994
677.5440, 2297.311
678.7030, 2027.059
679.8610, 1627.032
681.0200, 1411.067
682.1780, 1150.210
683.3360, 1069.632
684.4940, 893.3521
685.6520, 680.3545
686.8090, 709.4727
687.9670, 455.4590
689.1240, 395.2988
690.2810, 401.1084
691.4380, 370.6406
692.5950, 373.1885
693.7520, 308.7524
694.9080, 295.3315
696.0650, 248.9336
697.2210, 236.5498
698.3770, 209.1821
699.5330, 165.8306
700.6880, 78.50098
701.8440, 202.1875
702.9990, 122.8931
704.1550, 145.6147
705.3100, 268.4541
706.4650, 200.2266
707.6190, 187.2539
708.7740, 216.0596
709.9290, 172.8804
711.0830, 178.6450
712.2370, 148.5684
713.3910, 121.4346
714.5450, 89.31641
715.6980, 101.2925
716.8520, 59.12549
718.0050, 129.0522
719.1580, 90.99414
720.3110, 90.95166
721.4640, 112.9233
722.6170, 3.910645
723.7700, 155.9121
724.9220, 60.92871
726.0740, 148.9600
727.2260, 101.0054
728.3780, 122.0654
729.5300, 47.14014
730.6810, 174.2290
731.8330, 237.3320
732.9840, 158.4497
734.1350, 175.5815
735.2860, 221.7271
736.4370, 173.8867
737.5880, 288.0601
738.7380, 187.2476
739.8880, 164.4482
741.0390, 158.6631
742.1890, 187.8911
743.3380, 212.2334
744.4880, 187.4951
745.6380, 225.7686
746.7870, 143.7998
747.9360, 176.1011
749.0850, 135.7036
750.2340, 116.0303
751.3830, 140.3701
752.5310, 282.7227
753.6800, 245.0884
754.8280, 255.4673
755.9760, 303.0996
757.1240, 271.5034
758.2720, 254.9199
759.4190, 281.0815
760.5670, 334.5225
761.7140, 261.9761
762.8610, 196.5269
764.0080, 400.4292
765.1550, 354.6636
766.3020, 327.1641
767.4480, 442.6768
768.5950, 449.1865
769.7410, 583.7354
770.8870, 595.6035
772.0330, 729.1611
773.1780, 807.7295
774.3240, 826.3086
775.4690, 1008.898
776.6140, 984.4990
777.7590, 1239.110
778.9040, 1354.731
780.0490, 1488.627
781.1940, 1880.869
782.3380, 2068.586
783.4820, 2149.248
784.6260, 2696.921
785.7700, 2976.603
786.9140, 3339.294
788.0580, 3856.996
789.2010, 4217.246
790.3450, 4540.967
791.4880, 4770.705
792.6310, 5037.464
793.7730, 4832.240
794.9160, 4670.402
796.0590, 4334.299
797.2010, 3836.113
798.3430, 3447.945
799.4850, 3179.113
800.6270, 2536.961
801.7690, 2374.195
802.9100, 1832.081
804.0520, 1647.832
805.1930, 1433.744
806.3340, 1278.815
807.4750, 1007.788
808.6160, 919.7402
809.7560, 785.9336
810.8970, 803.9004
812.0370, 607.6094
813.1770, 394.9160
814.3170, 408.0654
815.4570, 468.0684
816.5960, 470.0127
817.7360, 369.2959
818.8750, 325.4893
820.0140, 417.9795
821.1530, 221.9365
822.2920, 211.0938
823.4310, 295.1885
824.5690, 299.2998
825.7070, 267.4160
826.8460, 209.5508
827.9840, 241.6992
829.1220, 162.8535
830.2590, 142.0117
831.3970, 90.17188
832.5340, 154.7383
833.6710, 96.90625
834.8080, 98.07812
835.9450, 201.2520
837.0820, 68.03125
838.2190, 193.2119
839.3550, 321.1953
840.4910, 184.3828
841.6270, 6.428711
842.7630, 249.4443
843.8990, 10.87695
845.0350, 78.31445
846.1700, 56.50781
847.3060, 149.7041
848.4410, 170.9004
849.5760, 162.0986
850.7100, 210.2988
851.8450, 90.50000
852.9800, 206.7041
854.1140, 23.90820
855.2480, 196.1143
856.3820, 80.32031
857.5160, 276.5273
858.6500, 162.7363
859.7830, 170.9453
860.9170, 262.1562
862.0500, 333.3672
863.1830, 181.5781
864.3160, 150.7900
865.4480, 239.0010
866.5810, 229.2139
867.7130, 179.4268
868.8460, 191.6396
869.9780, 142.8516
871.1100, 76.06543
872.2410, 117.2783
873.3730, 99.49023
874.5050, 97.70312
875.6360, 167.9150
876.7670, 47.12695
877.8980, 12.33789
879.0290, 0.4521480
880.1590, 22.04688
881.2900, 132.2529
882.4200, 10.54102
883.5500, 94.69141
884.6800, 19.11133
885.8100, 47.07129
886.9400, 17.25195
888.0690, 144.4326
889.1990, 50.61133
890.3280, 112.7881
891.4570, 0.9638670
892.5860, 28.13379
893.7140, 108.3037
894.8430, 23.52832
895.9710, 108.6211
897.1000, 42.76855
898.2280, 6.915039
899.3560, 16.94336
900.4830, 87.81641
901.6110, 102.2578
902.7380, 107.3301
903.8660, 108.3994
904.9930, 64.46875
906.1200, 30.46582
907.2460, 191.5762
908.3730, 43.61621
909.5000, 165.6543
910.6260, 122.6885
911.7520, 103.7207
912.8780, 70.75098
914.0040, 101.7783
915.1290, 10.19727
916.2550, 65.18945
917.3800, 15.77734
918.5050, 45.73926
919.6300, 70.69824
920.7550, 33.65332
921.8800, 88.60645
923.0040, 100.5566
924.1290, 46.49707
925.2530, 189.4150
926.3770, 83.17188
927.5010, 135.0781
928.6250, 27.97949
929.7480, 8.123047
930.8720, 20.75879
931.9950, 92.63477
933.1180, 40.50781
934.2410, 6.624023
935.3640, 141.2275
936.4860, 23.92383
937.6090, 97.89941
938.7310, 111.2812
939.8530, 146.4658
940.9750, 115.7910
942.0970, 26.87793
943.2180, 178.5410
944.3400, 3.798828
945.4610, 59.84473
946.5820, 156.5166
947.7030, 4.973633
948.8240, 21.55273
949.9450, 86.07227
951.0650, 15.41211
952.1860, 3.918945
953.3060, 35.44238
954.4260, 12.00293
955.5460, 2.173828
956.6650, 24.85840
957.7850, 34.27344
958.9040, 66.68262
960.0230, 120.0889
961.1420, 134.4893
962.2610, 41.88477
963.3800, 44.27637
964.4990, 97.66113
965.6170, 159.0420
966.7350, 6.583008
967.8530, 36.77539
968.9710, 37.12695
970.0890, 41.47656
971.2070, 10.18066
972.3240, 112.1436
973.4410, 3.500977
974.5580, 80.80762
975.6750, 159.1084
976.7920, 60.65820
977.9090, 9.593750
979.0250, 67.59863
980.1410, 58.83594
981.2580, 105.9600
982.3740, 95.29883
983.4890, 114.5225
984.6050, 108.7432
985.7200, 56.95801
986.8360, 140.1699
987.9510, 96.37695
989.0660, 190.5791
990.1810, 233.7773
991.2950, 193.9717
992.4100, 135.1621
993.5240, 162.3477
994.6390, 102.5293
995.7530, 135.7070
996.8660, 298.8809
997.9800, 180.0508
999.0940, 358.2168
1000.207, 239.3789
1001.320, 314.5371
1002.433, 407.6914
1003.546, 563.8477
1004.659, 491.0010
1005.772, 592.1504
1006.884, 474.2959
1007.996, 252.4385
1009.108, 174.5801
1010.220, 206.7168
1011.332, 307.8477
1012.444, 209.9775
1013.555, 9.997070
1014.666, 236.1133
1015.777, 194.2197
1016.888, 15.57910
1017.999, 152.6787
1019.110, 201.4854
1020.220, 204.5791
1021.331, 248.6680
1022.441, 222.7559
1023.551, 165.8428
1024.661, 190.7363
1025.770, 175.9219
1026.880, 192.8506
1027.989, 200.9287
1029.098, 221.2725
1030.207, 242.3457
1031.316, 158.4199
1032.425, 169.4062
1033.533, 46.05176
1034.642, 181.3760
1035.750, 123.4414
1036.858, 127.5059
1037.966, 55.56836
1039.073, 97.62988
1040.181, 101.3672
1041.288, 144.4258
1042.396, 98.48340
1043.503, 151.5381
1044.610, 176.5928
1045.716, 129.6465
1046.823, 134.6982
1047.929, 256.7500
1049.036, 138.5371
1050.142, 186.9873
1051.248, 36.97266
1052.353, 101.0215
1053.459, 77.06934
1054.564, 193.1162
1055.670, 76.16406
1056.775, 30.21191
1057.880, 16.71875
1058.985, 38.23438
1060.089, 126.7959
1061.194, 55.82617
1062.298, 124.8545
1063.402, 155.5156
1064.506, 83.45605
1065.610, 47.48730
1066.713, 79.52148
1067.817, 30.22754
1068.920, 95.26172
1070.023, 77.93652
1071.126, 128.9717
1072.229, 131.9932
1073.332, 144.5479
1074.435, 139.0977
1075.537, 183.1016
1076.639, 175.1465
1077.741, 231.9609
1078.843, 134.0107
1079.945, 119.3271
1081.046, 132.0693
1082.148, 207.9775
1083.249, 184.0439
1084.350, 293.1826
1085.451, 206.9990
1086.551, 240.8008
1087.652, 166.5684
1088.752, 204.7520
1089.853, 180.7529
1090.953, 86.84766
1092.053, 135.9473
1093.152, 80.05078
1094.252, 23.15918
1095.351, 105.2715
1096.451, 27.38965
1097.550, 112.5137
1098.649, 118.6406
1099.748, 50.37207
1100.846, 105.5459
1101.945, 2.724609
1103.043, 30.90918
1104.141, 54.49707
1105.239, 4.284180
1106.337, 53.13965
1107.434, 52.38672
1108.532, 4.361328
1109.629, 215.2148
1110.726, 106.9932
1111.823, 84.27344
1112.920, 21.55957
1114.017, 160.8516
1115.113, 129.1514
1116.210, 196.4590
1117.306, 292.7812
1118.402, 380.9395
1119.498, 377.4482
1120.593, 606.7910
1121.689, 745.1406
1122.784, 765.8281
1123.879, 675.8613
1124.974, 639.2305
1126.069, 525.6074
1127.164, 373.9912
1128.259, 250.3838
1129.353, 121.7812
1130.447, 167.1875
1131.541, 166.6006
1132.635, 207.0205
1133.729, 105.4473
1134.822, 137.3896
1135.916, 189.8320
1137.009, 28.28125
1138.102, 150.7383
1139.195, 21.63379
1140.288, 85.10645
1141.380, 178.5879
1142.473, 68.07422
1143.565, 12.57031
1144.657, 113.0752
1145.749, 88.29785
1146.841, 65.82520
1147.932, 102.3613
1149.024, 58.68359
1150.115, 36.43164
1151.206, 6.002930
1152.297, 80.58301
1153.388, 53.16992
1154.479, 216.4873
1155.569, 117.1045
1156.659, 242.2656
1157.750, 163.9111
1158.839, 180.5645
1159.929, 211.2285
1161.019, 381.9102
1162.108, 274.3555
1163.198, 420.0537
1164.287, 374.7607
1165.376, 372.4834
1166.465, 455.2412
1167.553, 425.0059
1168.642, 433.7891
1169.730, 586.5801
1170.818, 514.3809
1171.906, 584.2012
1172.994, 618.0303
1174.082, 708.8682
1175.170, 871.7148
1176.257, 933.5713
1177.344, 1110.436
1178.431, 1247.310
1179.518, 1458.192
1180.605, 1597.092
1181.691, 1972.020
1182.778, 2379.957
1183.864, 2995.904
1184.950, 3693.859
1186.036, 4623.822
1187.122, 5594.798
1188.207, 6809.781
1189.292, 8077.790
1190.378, 9216.958
1191.463, 10661.98
1192.548, 11307.02
1193.632, 12273.07
1194.717, 12652.13
1195.801, 12073.21
1196.886, 10845.28
1197.970, 9115.377
1199.054, 7319.482
1200.137, 5766.599
1201.221, 4565.736
1202.305, 3595.883
1203.388, 2627.072
1204.471, 2351.271
1205.554, 1990.515
1206.637, 1480.770
1207.719, 1325.032
1208.802, 979.3125
1209.884, 896.6006
1210.966, 663.9453
1212.048, 710.3057
1213.130, 568.5312
1214.212, 546.9121
1215.293, 434.3115
1216.374, 370.7256
1217.456, 442.1631
1218.536, 271.6133
1219.617, 348.0762
1220.698, 325.5488
1221.778, 248.0312
1222.859, 277.5234
1223.939, 196.0244
1225.019, 122.5342
1226.099, 184.0537
1227.178, 123.5820
1228.258, 62.12012
1229.337, 76.66797
1230.417, 180.7207
1231.496, 120.2920
1232.574, 125.8721
1233.653, 152.4609
1234.732, 118.5205
1235.810, 150.0957
1236.888, 131.8613
1237.966, 178.4971
1239.044, 198.1006
1240.122, 196.7725
1241.199, 274.1982
1242.277, 135.8887
1243.354, 137.5869
1244.431, 18.42871
1245.508, 166.1436
1246.585, 52.27246
1247.661, 174.0029
1248.738, 161.7412
1249.814, 93.48730
1250.890, 177.2402
1251.966, 123.0010
1253.042, 192.7715
1254.117, 140.5488
1255.193, 9.338867
1256.268, 136.1396
1257.343, 33.95410
1258.418, 164.7734
1259.493, 75.60156
1260.567, 32.43848
1261.642, 42.28027
1262.716, 150.1309
1263.790, 47.00977
1264.864, 136.8457
1265.938, 172.7061
1267.011, 192.5762
1268.085, 19.53516
1269.158, 246.3584
1270.231, 148.2588
1271.304, 151.1650
1272.377, 223.3887
1273.450, 264.0723
1274.522, 236.0215
1275.594, 197.6045
1276.666, 184.5723
1277.738, 154.5479
1278.810, 110.5303
1279.882, 45.52051
1280.953, 200.5156
1282.025, 224.5195
1283.096, 25.47070
1284.167, 105.2646
1285.238, 19.72070
1286.308, 130.5566
1287.379, 114.5801
1288.449, 60.91016
1289.519, 93.94629
1290.589, 24.01074
1291.659, 100.0303
1292.729, 169.0791
1293.798, 121.1348
1294.868, 153.1953
1295.937, 207.2617
1297.006, 282.2734
1298.075, 99.35059
1299.143, 83.43262
1300.212, 27.51855
1301.280, 28.60938
1302.348, 116.7041
1303.416, 161.8027
1304.484, 137.9062
1305.552, 327.0137
1306.620, 208.1240
1307.687, 250.2402
