##NAMES=Diaspore
##RRUFFID=R060287
##IDEAL CHEMISTRY=AlO(OH)
##LOCALITY=Selcuk, Mugla Province, Turkey
##OWNER=RRUFF
##SOURCE=Herb Obodda
##DESCRIPTION=Colorless transparent platy fragment
##STATUS=The identification of this mineral has been confirmed by X-ray diffraction and chemical analysis
##URL=rruff.info/R060287
##MEASURED CHEMISTRY=(Al_0.99_Fe^3+^_0.01_)_Î£=1_O(OH) ; trace amounts of Ti;  OH estimated by difference ; Fe^3+^ by charge balance
##PIN_ID=L01505
##ORIENTATION=Laser parallel to b* (0 1 0). Fiducial mark perpendicular to laser is parallel to c [0 0 1]
168.4860, 0.0000000E+00
169.7110, 302.9980
170.9360, 30.87500
172.1610, 16.66699
173.3850, 225.2217
174.6100, 76.86523
175.8340, 302.7090
177.0580, 264.4941
178.2820, 27.54980
179.5050, 234.4717
180.7290, 45.97559
181.9520, 206.0029
183.1760, 216.8789
184.3990, 81.64941
185.6220, 355.2656
186.8450, 257.7930
188.0670, 144.2568
189.2900, 405.7236
190.5120, 165.2539
191.7340, 334.5283
192.9560, 338.5176
194.1780, 138.0703
195.4000, 338.5186
196.6220, 175.3096
197.8430, 136.7178
199.0640, 535.6680
200.2860, 243.0107
201.5070, 454.0762
202.7270, 588.3066
203.9480, 147.7158
205.1690, 395.4033
206.3890, 278.6221
207.6090, 151.2969
208.8290, 287.3691
210.0490, 159.2334
211.2690, 245.9268
212.4890, 360.2812
213.7080, 44.01660
214.9280, 562.5342
216.1470, 254.7646
217.3660, 221.1475
218.5850, 388.0205
219.8030, 2.744141
221.0220, 366.0488
222.2400, 287.2480
223.4590, 20.69922
224.6770, 306.3086
225.8950, 151.7178
227.1120, 57.12402
228.3300, 347.4102
229.5480, 19.34375
230.7650, 237.9961
231.9820, 325.7900
233.1990, 121.4658
234.4160, 394.2012
235.6330, 140.3525
236.8490, 169.7197
238.0660, 407.7129
239.2820, 118.9355
240.4980, 253.8584
241.7140, 293.9385
242.9300, 101.1543
244.1460, 341.4492
245.3610, 77.82227
246.5770, 209.2695
247.7920, 290.7871
249.0070, 48.37402
250.2220, 308.0254
251.4370, 141.7344
252.6510, 37.49902
253.8660, 455.3174
255.0800, 200.1816
256.2940, 17.09082
257.5080, 319.0381
258.7220, 424.0225
259.9360, 291.8799
261.1490, 585.0879
262.3630, 61.16504
263.5760, 254.2686
264.7890, 90.39648
266.0020, 25.54785
267.2150, 261.7178
268.4270, 113.9072
269.6400, 319.0918
270.8520, 308.2676
272.0640, 22.43066
273.2760, 223.6025
274.4880, 1.785156
275.7000, 44.97949
276.9120, 504.1797
278.1230, 23.38770
279.3340, 113.6016
280.5450, 124.8184
281.7560, 38.92676
282.9670, 250.3652
284.1780, 34.65137
285.3880, 73.93848
286.5980, 128.2334
287.8090, 154.4521
289.0190, 201.8877
290.2290, 129.2334
291.4380, 148.4150
292.6480, 135.9463
293.8570, 17.68945
295.0670, 48.66309
296.2760, 91.02637
297.4850, 184.6025
298.6930, 189.7412
299.9020, 248.1006
301.1110, 142.5732
302.3190, 261.7285
303.5270, 153.9766
304.7350, 144.2617
305.9430, 102.5342
307.1510, 69.18262
308.3580, 160.0703
309.5660, 156.3818
310.7730, 11.28516
311.9800, 167.0693
313.1870, 122.4854
314.3940, 38.79004
315.6010, 257.1016
316.8070, 76.09082
318.0130, 346.1426
319.2200, 491.2334
320.4260, 107.3467
321.6310, 603.4727
322.8370, 495.6045
324.0430, 603.7334
325.2480, 1381.856
326.4540, 1035.971
327.6590, 1755.072
328.8640, 2842.155
330.0680, 4171.214
331.2730, 6613.252
332.4780, 9394.263
333.6820, 10679.25
334.8860, 9604.222
336.0900, 6765.164
337.2940, 4344.088
338.4980, 3064.991
339.7010, 1801.866
340.9050, 1525.723
342.1080, 1074.520
343.3110, 661.2070
344.5140, 878.8652
345.7170, 457.5068
346.9200, 395.1279
348.1220, 668.7275
349.3240, 318.3047
350.5270, 384.8633
351.7290, 462.4004
352.9310, 267.9150
354.1320, 479.4014
355.3340, 408.8750
356.5350, 180.3232
357.7370, 516.7363
358.9380, 109.1426
360.1390, 343.5449
361.3400, 341.9395
362.5400, 111.3164
363.7410, 454.6914
364.9410, 226.7256
366.1410, 252.0869
367.3410, 481.4238
368.5410, 256.8809
369.7410, 486.2119
370.9400, 525.5000
372.1400, 226.3926
373.3390, 435.5732
374.5380, 221.0918
375.7370, 259.1826
376.9360, 383.2588
378.1350, 217.2129
379.3330, 27.19238
380.5310, 519.0938
381.7300, 77.00879
382.9280, 265.8926
384.1260, 417.7002
385.3230, 233.6016
386.5210, 483.4922
387.7180, 309.1543
388.9160, 195.0771
390.1130, 485.5059
391.3100, 188.4609
392.5060, 307.4307
393.7030, 634.5303
394.9000, 223.5312
396.0960, 510.5449
397.2920, 432.3428
398.4880, 313.3867
399.6840, 587.4443
400.8800, 347.6221
402.0750, 457.7080
403.2710, 640.1914
404.4660, 303.3066
405.6610, 446.4346
406.8560, 457.9492
408.0510, 53.10645
409.2450, 493.2764
410.4400, 389.3535
411.6340, 362.5518
412.8280, 658.7646
414.0220, 235.9912
415.2160, 294.2334
416.4100, 497.4990
417.6030, 220.7695
418.7970, 458.1338
419.9900, 313.1924
421.1830, 184.5059
422.3760, 577.1104
423.5690, 381.4551
424.7610, 283.8115
425.9540, 630.0146
427.1460, 244.4033
428.3380, 519.5850
429.5300, 644.5537
430.7220, 488.9873
431.9140, 757.2510
433.1050, 767.8438
434.2970, 916.3223
435.4880, 1390.146
436.6790, 1405.903
437.8700, 1720.054
439.0610, 2630.212
440.2510, 2980.594
441.4420, 3764.451
442.6320, 4832.160
443.8220, 6367.768
445.0120, 9592.448
446.2020, 15220.50
447.3910, 25084.16
448.5810, 39911.82
449.7700, 48764.15
450.9600, 45467.76
452.1490, 33160.01
453.3370, 20322.61
454.5260, 12196.03
455.7150, 7485.266
456.9030, 4811.455
458.0910, 3822.298
459.2800, 2832.107
460.4670, 2125.927
461.6550, 2018.756
462.8430, 1326.595
464.0300, 1499.442
465.2180, 1328.299
466.4050, 935.1650
467.5920, 935.0400
468.7790, 1027.926
469.9650, 675.8203
471.1520, 1103.725
472.3380, 810.6387
473.5250, 488.5645
474.7110, 873.4980
475.8970, 376.4434
477.0820, 678.3984
478.2680, 819.3652
479.4540, 259.3418
480.6390, 701.3301
481.8240, 440.3291
483.0090, 407.3398
484.1940, 719.3623
485.3780, 692.3965
486.5630, 654.4434
487.7470, 1235.502
488.9320, 1000.575
490.1160, 1659.659
491.3000, 2399.758
492.4830, 2388.868
493.6670, 3754.994
494.8500, 4950.133
496.0340, 6912.285
497.2170, 11462.45
498.4000, 18736.63
499.5820, 28603.83
500.7650, 33695.04
501.9480, 28800.26
503.1300, 19490.50
504.3120, 11601.75
505.4940, 6360.019
506.6760, 4065.301
507.8580, 2609.600
509.0390, 1657.913
510.2210, 1556.244
511.4020, 1068.597
512.5830, 801.9648
513.7640, 765.3496
514.9450, 463.7676
516.1250, 590.2031
517.3060, 623.6562
518.4860, 222.1270
519.6660, 549.6152
520.8460, 322.1191
522.0260, 175.6416
523.2060, 448.1816
524.3850, 275.7383
525.5650, 336.3203
526.7440, 486.9209
527.9230, 124.5400
529.1020, 256.1768
530.2810, 420.8320
531.4590, 83.50684
532.6380, 356.2461
533.8160, 297.0049
534.9940, 135.2188
536.1720, 320.5420
537.3500, 84.32031
538.5270, 14.11719
539.7050, 436.9580
540.8820, 8.818359
542.0590, 252.7236
543.2360, 377.6562
544.4130, 39.39551
545.5900, 388.5977
546.7660, 429.6074
547.9430, 46.36328
549.1190, 511.6787
550.2950, 212.7402
551.4710, 337.8184
552.6470, 898.9521
553.8220, 765.1045
554.9980, 867.2744
556.1730, 1233.462
557.3480, 679.6660
558.5230, 688.8965
559.6980, 694.1445
560.8730, 89.41699
562.0470, 438.7129
563.2220, 163.0254
564.3960, 94.35840
565.5700, 328.7266
566.7440, 119.1123
567.9170, 83.53320
569.0910, 356.9873
570.2640, 17.54004
571.4380, 117.9424
572.6110, 252.4863
573.7840, 32.90332
574.9570, 331.7100
576.1290, 28.40234
577.3020, 117.8428
578.4740, 255.8818
579.6460, 86.31738
580.8180, 24.53516
581.9900, 232.2539
583.1620, 114.8848
584.3330, 34.94629
585.5040, 237.7930
586.6760, 173.3018
587.8470, 235.5449
589.0180, 138.4082
590.1880, 65.71289
591.3590, 297.1572
592.5290, 15.93555
593.7000, 90.01953
594.8700, 289.8789
596.0400, 173.1924
597.2090, 60.32129
598.3790, 448.5410
599.5490, 36.43848
600.7180, 173.3525
601.8870, 560.2803
603.0560, 63.24316
604.2250, 472.2207
605.3940, 441.2119
606.5620, 325.2256
607.7300, 948.2520
608.8990, 570.2930
610.0670, 733.3652
611.2350, 948.4521
612.4020, 626.5518
613.5700, 687.6689
614.7370, 982.7988
615.9050, 321.9434
617.0720, 792.1006
618.2390, 578.2734
619.4060, 326.4668
620.5720, 818.6768
621.7390, 528.8984
622.9050, 293.1436
624.0710, 705.4043
625.2370, 605.6777
626.4030, 548.9766
627.5690, 940.2881
628.7340, 398.6123
629.9000, 676.9512
631.0650, 898.3018
632.2300, 421.6660
633.3950, 507.0508
634.5600, 764.4473
635.7240, 234.8564
636.8890, 829.2949
638.0530, 594.7432
639.2170, 472.2061
640.3810, 1117.681
641.5450, 731.1680
642.7080, 747.6680
643.8720, 1249.179
645.0350, 808.7031
646.1980, 1211.237
647.3610, 1486.785
648.5240, 1279.343
649.6870, 1765.912
650.8490, 1873.494
652.0120, 1742.087
653.1740, 2449.691
654.3360, 2883.307
655.4980, 3036.933
656.6600, 4199.570
657.8210, 4360.219
658.9830, 5527.880
660.1440, 6703.553
661.3050, 8111.234
662.4660, 9663.928
663.6270, 11858.66
664.7870, 13412.75
665.9480, 15793.51
667.1080, 16873.28
668.2680, 16672.07
669.4280, 16611.86
670.5880, 14977.70
671.7480, 12615.03
672.9070, 11136.88
674.0670, 9171.824
675.2260, 7682.004
676.3850, 6733.879
677.5440, 5481.764
678.7030, 4590.643
679.8610, 4049.539
681.0200, 3293.594
682.1780, 2914.506
683.3360, 2721.426
684.4940, 2002.162
685.6520, 2083.092
686.8090, 1972.027
687.9670, 1560.828
689.1240, 1879.775
690.2810, 1544.758
691.4380, 1341.359
692.5950, 1525.354
693.7520, 1320.350
694.9080, 1366.352
696.0650, 1704.357
697.2210, 1247.104
698.3770, 1358.117
699.5330, 1416.131
700.6880, 1079.748
701.8440, 1490.770
702.9990, 1338.795
704.1550, 880.8086
705.3100, 1316.840
706.4650, 1193.871
707.6190, 809.5273
708.7740, 1399.588
709.9290, 924.0957
711.0830, 917.5234
712.2370, 1158.586
713.3910, 735.5215
714.5450, 1000.221
715.6980, 1054.283
716.8520, 594.0996
718.0050, 826.2422
719.1580, 1030.684
720.3110, 662.9199
721.4640, 953.0742
722.6170, 938.0098
723.7700, 495.0625
724.9220, 981.1133
726.0740, 610.7461
727.2260, 600.9160
728.3780, 872.9590
729.5300, 740.3711
730.6810, 627.4082
731.8330, 983.9180
732.9840, 675.0957
734.1350, 790.4844
735.2860, 1098.053
736.4370, 539.6797
737.5880, 912.0312
738.7380, 836.0547
739.8880, 567.0742
741.0390, 1122.586
742.1890, 881.5996
743.3380, 632.6094
744.4880, 964.6738
745.6380, 616.6797
746.7870, 434.6797
747.9360, 1037.389
749.0850, 488.3809
750.2340, 588.3672
751.3830, 924.4453
752.5310, 254.4238
753.6800, 513.3965
754.8280, 998.3652
755.9760, 394.3281
757.1240, 744.9922
758.2720, 590.0254
759.4190, 507.9707
760.5670, 758.0469
761.7140, 431.9824
762.8610, 286.9121
764.0080, 733.0938
765.1550, 450.0098
766.3020, 182.9199
767.4480, 800.9844
768.5950, 379.8789
769.7410, 412.7695
770.8870, 640.9316
772.0330, 184.8086
773.1780, 423.6758
774.3240, 763.8438
775.4690, 136.6953
776.6140, 467.5410
777.7590, 648.4297
778.9040, 286.2559
780.0490, 672.1758
781.1940, 603.9883
782.3380, 289.7930
783.4820, 720.5879
784.6260, 204.6055
785.7700, 383.4727
786.9140, 476.5410
788.0580, 488.4434
789.2010, 176.0215
790.3450, 282.4844
791.4880, 220.9980
792.6310, 152.6328
793.7730, 318.2832
794.9160, 52.99609
796.0590, 214.5312
797.2010, 206.3770
798.3430, 275.4902
799.4850, 367.9844
800.6270, 322.1016
801.7690, 1.742188
802.9100, 534.3633
804.0520, 205.5039
805.1930, 172.0996
806.3340, 487.6836
807.4750, 130.0234
808.6160, 138.4160
809.7560, 440.0430
810.8970, 61.49219
812.0370, 26.07422
813.1770, 424.3438
814.3170, 135.9551
815.4570, 49.65234
816.5960, 687.6855
817.7360, 67.85156
818.8750, 454.4043
820.0140, 358.7988
821.1530, 115.9688
822.2920, 316.1777
823.4310, 398.3145
824.5690, 9.564453
825.7070, 489.5293
826.8460, 403.9512
827.9840, 86.98047
829.1220, 233.0117
830.2590, 179.9922
831.3970, 123.9590
832.5340, 540.9121
833.6710, 33.85156
834.8080, 181.7734
835.9450, 380.6777
837.0820, 40.57422
838.2190, 121.4492
839.3550, 523.3105
840.4910, 28.84180
841.6270, 108.9570
842.7630, 369.7441
843.8990, 20.24414
845.0350, 249.4805
846.1700, 470.1914
847.3060, 128.1074
848.4410, 413.4883
849.5760, 579.0742
850.7100, 196.3496
851.8450, 516.0859
852.9800, 272.5098
854.1140, 140.0547
855.2480, 685.2676
856.3820, 318.5938
857.5160, 92.90820
858.6500, 885.2109
859.7830, 213.5215
860.9170, 167.8184
862.0500, 736.1035
863.1830, 87.41016
864.3160, 317.6992
865.4480, 731.9785
866.5810, 234.2578
867.7130, 145.5195
868.8460, 586.7715
869.9780, 2.972656
871.1100, 295.2480
872.2410, 515.4922
873.3730, 15.73438
874.5050, 333.9473
875.6360, 362.1484
876.7670, 37.66602
877.8980, 485.4688
879.0290, 535.5879
880.1590, 22.69531
881.2900, 595.7773
882.4200, 270.8457
883.5500, 26.09961
884.6800, 450.9062
885.8100, 236.9023
886.9400, 94.88281
888.0690, 578.8457
889.1990, 181.7969
890.3280, 225.7363
891.4570, 492.6582
892.5860, 4.570313
893.7140, 97.44922
894.8430, 639.3145
895.9710, 2.833984
897.1000, 309.9805
898.2280, 391.7852
899.3560, 5.425781
900.4830, 386.3281
901.6110, 421.0703
902.7380, 76.79883
903.8660, 411.5098
904.9930, 424.2109
906.1200, 9.917969
907.2460, 505.6016
908.3730, 409.2695
909.5000, 24.07031
910.6260, 624.5469
911.7520, 132.1504
912.8780, 99.74219
914.0040, 706.3203
915.1290, 87.88672
916.2550, 119.4375
917.3800, 442.9766
918.5050, 234.5000
919.6300, 410.0137
920.7550, 563.5137
921.8800, 149.0000
923.0040, 215.4766
924.1290, 679.9395
925.2530, 78.38867
926.3770, 366.8262
927.5010, 540.2520
928.6250, 40.66406
929.7480, 361.1309
930.8720, 448.5156
931.9950, 20.88477
933.1180, 345.2383
934.2410, 405.5820
935.3640, 80.08789
936.4860, 433.1719
937.6090, 470.0664
938.7310, 34.69531
939.8530, 528.5430
940.9750, 366.7715
942.0970, 87.01172
943.2180, 574.1367
944.3400, 157.7871
945.4610, 301.9160
946.5820, 494.9648
947.7030, 208.6133
948.8240, 36.72656
949.9450, 831.8496
951.0650, 132.9727
952.1860, 42.07617
953.3060, 653.0293
954.4260, 33.12305
955.5460, 236.2070
956.6650, 573.0859
957.7850, 145.1543
958.9040, 350.2109
960.0230, 645.7715
961.1420, 116.1445
962.2610, 580.8691
963.3800, 387.3262
964.4990, 499.9707
965.6170, 315.0098
966.7350, 554.0625
967.8530, 65.11133
968.9710, 521.4141
970.0890, 469.4492
971.2070, 68.47461
972.3240, 530.8984
973.4410, 581.9121
974.5580, 176.9180
975.6750, 801.9316
976.7920, 535.9355
977.9090, 91.07031
979.0250, 812.2734
980.1410, 492.2324
981.2580, 155.1836
982.3740, 572.7656
983.4890, 275.7070
984.6050, 314.6426
985.7200, 859.9395
986.8360, 365.8672
987.9510, 365.7930
989.0660, 601.6328
990.1810, 208.5508
991.2950, 228.4688
992.4100, 780.2832
993.5240, 278.2129
994.6390, 256.1406
995.7530, 808.0664
996.8660, 341.9863
997.9800, 522.7852
999.0940, 855.7285
1000.207, 452.6426
1001.320, 773.5547
1002.433, 1088.465
1003.546, 552.3730
1004.659, 1025.918
1005.772, 1169.820
1006.884, 361.7207
1007.996, 728.2930
1009.108, 966.2422
1010.220, 285.1348
1011.332, 719.5352
1012.444, 843.4258
1013.555, 282.3164
1014.666, 771.1465
1015.777, 665.0879
1016.888, 413.9746
1017.999, 949.1465
1019.110, 730.0293
1020.220, 279.9121
1021.331, 922.7012
1022.441, 684.5859
1023.551, 406.4688
1024.661, 826.3535
1025.770, 586.2344
1026.880, 341.4121
1027.989, 977.2148
1029.098, 758.0977
1030.207, 252.8477
1031.316, 825.7324
1032.425, 323.6172
1033.533, 203.2461
1034.642, 797.1328
1035.750, 487.0215
1036.858, 473.7520
1037.966, 834.6426
1039.073, 532.2871
1040.181, 437.9004
1041.288, 847.8086
1042.396, 599.7910
1043.503, 550.3945
1044.610, 1013.322
1045.716, 691.2520
1046.823, 1097.135
1047.929, 1591.068
1049.036, 1250.906
1050.142, 1530.848
1051.248, 1768.789
1052.353, 1113.732
1053.459, 1152.678
1054.564, 1073.625
1055.670, 378.5762
1056.775, 735.5293
1057.880, 979.4863
1058.985, 262.3262
1060.089, 408.2871
1061.194, 680.2520
1062.298, 6.179688
1063.402, 652.7910
1064.506, 650.7656
1065.610, 255.0430
1066.713, 653.0215
1067.817, 578.0059
1068.920, 226.5312
1070.023, 539.5215
1071.126, 673.5234
1072.229, 274.5664
1073.332, 745.5781
1074.435, 704.5938
1075.537, 65.75391
1076.639, 812.7754
1077.741, 548.8477
1078.843, 295.5527
1079.945, 797.6348
1081.046, 700.7363
1082.148, 446.1211
1083.249, 787.2305
1084.350, 627.3691
1085.451, 152.2207
1086.551, 326.0234
1087.652, 413.8906
1088.752, 420.7520
1089.853, 103.3379
1090.953, 204.7070
1092.053, 148.4648
1093.152, 75.15820
1094.252, 228.1523
1095.351, 30.96289
1096.451, 125.6973
1097.550, 111.9922
1098.649, 182.1270
1099.748, 864.8906
1100.846, 271.1953
1101.945, 220.5762
1103.043, 734.9609
1104.141, 371.3496
1105.239, 218.7461
1106.337, 860.1445
1107.434, 174.5488
1108.532, 80.76172
1109.629, 835.2012
1110.726, 247.4062
1111.823, 378.9805
1112.920, 819.4648
1114.017, 211.9570
1115.113, 508.5000
1116.210, 814.0508
1117.306, 429.6016
1118.402, 619.2422
1119.498, 1202.885
1120.593, 628.5312
1121.689, 757.2324
1122.784, 1464.936
1123.879, 782.6426
1124.974, 713.8125
1126.069, 1133.533
1127.164, 589.2520
1128.259, 525.9805
1129.353, 982.7070
1130.447, 0.4414060
1131.541, 318.1816
1132.635, 509.9238
1133.729, 63.66992
1134.822, 357.4199
1135.916, 320.1641
1137.009, 171.9434
1138.102, 296.7188
1139.195, 383.4961
1140.288, 1.712891
1141.380, 448.0781
1142.473, 589.8770
1143.565, 67.69922
1144.657, 424.5254
1145.749, 691.3809
1146.841, 1.751953
1147.932, 338.1191
1149.024, 730.9922
1150.115, 33.88672
1151.206, 460.7852
1152.297, 910.6914
1153.388, 34.60156
1154.479, 407.5137
1155.569, 839.4316
1156.659, 10.35352
1157.750, 275.2812
1158.839, 707.2305
1159.929, 122.1836
1161.019, 423.1445
1162.108, 601.1172
1163.198, 102.0918
1164.287, 499.0742
1165.376, 805.0723
1166.465, 163.0703
1167.553, 573.0742
1168.642, 763.0820
1169.730, 91.90039
1170.818, 523.0781
1171.906, 637.3652
1172.994, 28.64258
1174.082, 710.3418
1175.170, 884.6738
1176.257, 79.71484
1177.344, 731.7578
1178.431, 766.8047
1179.518, 186.8633
1180.605, 772.9258
1181.691, 968.9922
1182.778, 466.0625
1183.864, 1196.137
1184.950, 1495.211
1186.036, 1164.291
1187.122, 1982.375
1188.207, 2671.461
1189.292, 2614.553
1190.378, 3382.645
1191.463, 3646.744
1192.548, 2537.844
1193.632, 2500.881
1194.717, 2198.990
1195.801, 782.1055
1196.886, 1241.225
1197.970, 1104.348
1199.054, 207.4746
1200.137, 518.6328
1201.221, 939.7949
1202.305, 172.0391
1203.388, 462.0527
1204.471, 658.1504
1205.554, 15.75195
1206.637, 333.3711
1207.719, 634.4941
1208.802, 59.37695
1209.884, 319.7207
1210.966, 549.8223
1212.048, 72.07617
1213.130, 547.9902
1214.212, 588.0605
1215.293, 42.86914
1216.374, 480.1777
1217.456, 541.2266
1218.536, 59.28125
1219.617, 311.3672
1220.698, 504.4570
1221.778, 160.4512
1222.859, 254.5566
1223.939, 670.5625
1225.019, 173.3965
1226.099, 174.9297
1227.178, 542.8750
1228.258, 90.17578
1229.337, 468.7227
1230.417, 532.6230
1231.496, 124.2441
1232.574, 217.1426
1233.653, 787.0469
1234.732, 101.9512
1235.810, 391.8516
1236.888, 838.7559
1237.966, 15.04102
1239.044, 540.8438
1240.122, 770.7402
1241.199, 49.74219
1242.277, 587.1406
1243.354, 941.0273
1244.431, 61.83008
1245.508, 335.7207
1246.585, 872.6055
1247.661, 190.7754
1248.738, 290.6621
1249.814, 823.5488
1250.890, 69.43359
1251.966, 321.3164
1253.042, 785.1992
1254.117, 50.92188
1255.193, 329.9180
1256.268, 766.7559
1257.343, 230.5918
1258.418, 182.4258
1259.493, 848.2598
1260.567, 244.0645
1261.642, 313.8945
1262.716, 801.7227
1263.790, 159.5508
1264.864, 266.3750
1265.938, 749.1992
1267.011, 311.0547
1268.085, 417.9102
1269.158, 782.7637
1270.231, 296.5625
1271.304, 478.4961
1272.377, 877.3438
1273.450, 464.1895
1274.522, 379.0234
1275.594, 928.8652
1276.666, 459.6504
1277.738, 304.5938
1278.810, 1042.428
1279.882, 412.2617
1280.953, 378.0918
1282.025, 1185.918
1283.096, 478.7441
1284.167, 275.5664
1285.238, 731.3848
1286.308, 460.2031
1287.379, 256.0918
1288.449, 892.9043
1289.519, 518.7148
1290.589, 97.51953
1291.659, 932.3242
1292.729, 555.1250
1293.798, 333.9316
1294.868, 898.7324
1295.937, 535.5312
1297.006, 369.3262
1298.075, 787.6133
1299.143, 576.6445
1300.212, 24.56836
1301.280, 753.1836
1302.348, 629.8613
1303.416, 25.39258
1304.484, 859.5859
1305.552, 606.2988
1306.620, 200.0039
1307.687, 707.1953
1308.754, 693.8984
1309.821, 235.5957
1310.888, 727.2930
1311.955, 873.9844
1313.021, 318.6738
1314.088, 617.3613
1315.154, 934.0488
1316.220, 195.7324
1317.286, 657.4141
1318.352, 820.0938
1319.417, 219.7734
1320.483, 968.4609
1321.548, 973.1484
1322.613, 303.8340
1323.678, 677.5156
1324.743, 849.1953
1325.807, 303.8750
1326.872, 491.5527
1327.936, 972.2285
1329.000, 366.9004
1330.064, 520.5742
1331.128, 1005.672
1332.191, 162.3418
1333.255, 413.0117
1334.318, 1071.773
1335.381, 393.4414
1336.444, 404.1074
1337.507, 1027.146
