##NAMES=Diaspore
##RRUFFID=R060546
##IDEAL CHEMISTRY=AlO(OH)
##LOCALITY=Turkey
##OWNER=RRUFF
##SOURCE=Gemological Institute of America
##DESCRIPTION=Platy transparent pale yellow fragment
##STATUS=The identification of this mineral has been confirmed by X-ray diffraction and chemical analysis
##URL=rruff.info/R060546
##MEASURED CHEMISTRY=(Al_0.99_Fe^3+^_0.01_)_Î£=1_O(OH) ; OH estimated by difference; Fe^3+^ by charge balance
##PIN_ID=L01635
##ORIENTATION=Laser parallel to c* (0 0 1). Fiducial mark perpendicular to laser is parallel to a [1 0 0]
132.8980, 0.0000000E+00
134.1270, 2.041992
135.3560, 10.63672
136.5850, 39.69678
137.8140, 83.29199
139.0430, 78.87280
140.2710, 144.9375
141.5000, 374.6438
142.7280, 645.7964
143.9560, 1155.350
145.1840, 2086.202
146.4120, 2882.117
147.6390, 3245.075
148.8670, 3307.510
150.0940, 4356.176
151.3210, 5494.917
152.5490, 6147.735
153.7750, 5713.483
155.0020, 5589.354
156.2290, 7443.401
157.4550, 9759.721
158.6810, 9544.059
159.9080, 7155.304
161.1340, 4360.424
162.3590, 2254.965
163.5850, 1190.910
164.8110, 579.3547
166.0360, 366.3796
167.2610, 225.8845
168.4860, 87.12354
169.7110, 27.04395
170.9360, 15.94971
172.1610, 16.62109
173.3850, 15.53296
174.6100, 19.86133
175.8340, 90.86841
177.0580, 14.36230
178.2820, 8.556885
179.5050, 83.62573
180.7290, 19.92261
181.9520, 40.04248
183.1760, 45.37842
184.3990, 56.22461
185.6220, 75.76831
186.8450, 58.28442
188.0670, 38.79175
189.2900, 60.56738
190.5120, 46.53027
191.7340, 65.41089
192.9560, 65.91431
194.1780, 14.69849
195.4000, 74.86426
196.6220, 0.5307620
197.8430, 77.21338
199.0640, 22.91333
200.2860, 100.8123
201.5070, 52.47144
202.7270, 20.44897
203.9480, 54.39404
205.1690, 18.94409
206.3890, 49.51562
207.6090, 34.11426
208.8290, 27.74902
210.0490, 38.42212
211.2690, 31.13354
212.4890, 77.88208
213.7080, 83.66553
214.9280, 99.48218
216.1470, 1.329834
217.3660, 36.20508
218.5850, 25.10547
219.8030, 20.02930
221.0220, 53.97583
222.2400, 14.94287
223.4590, 77.92871
224.6770, 4.932129
225.8950, 40.05762
227.1120, 50.95312
228.3300, 13.96753
229.5480, 1.008789
230.7650, 30.02734
231.9820, 33.07446
233.1990, 9.132568
234.4160, 7.799072
235.6330, 38.27856
236.8490, 50.36011
238.0660, 21.43921
239.2820, 48.51733
240.4980, 40.60107
241.7140, 17.68823
242.9300, 28.77563
244.1460, 0.8679200
245.3610, 10.96484
246.5770, 20.06665
247.7920, 27.83105
249.0070, 46.27222
250.2220, 87.62061
251.4370, 11.50903
252.6510, 58.41528
253.8660, 21.33276
255.0800, 34.77856
256.2940, 9.953857
257.5080, 2.121094
258.7220, 45.29956
259.9360, 142.4844
261.1490, 82.70776
262.3630, 101.9517
263.5760, 64.24512
264.7890, 33.53540
266.0020, 14.18970
267.2150, 8.911377
268.4270, 72.37793
269.6400, 38.67041
270.8520, 13.96753
272.0640, 6.730957
273.2760, 61.43994
274.4880, 46.85181
275.7000, 50.14526
276.9120, 76.40503
278.1230, 70.67041
279.3340, 59.21021
280.5450, 137.7002
281.7560, 98.44873
282.9670, 147.2837
284.1780, 207.1768
285.3880, 177.1079
286.5980, 190.0640
287.8090, 174.0371
289.0190, 223.0203
290.2290, 217.7148
291.4380, 201.9773
292.6480, 240.9492
293.8570, 159.9170
295.0670, 168.8779
296.2760, 59.83032
297.4850, 174.7742
298.6930, 70.68970
299.9020, 166.5483
301.1110, 121.3828
302.3190, 130.2119
303.5270, 254.0349
304.7350, 224.8506
305.9430, 105.6602
307.1510, 180.4641
308.3580, 208.2600
309.5660, 339.0374
310.7730, 345.7842
311.9800, 432.5212
313.1870, 477.2505
314.3940, 514.9688
315.6010, 641.6738
316.8070, 847.8088
318.0130, 1105.499
319.2200, 1499.606
320.4260, 2161.354
321.6310, 3224.018
322.8370, 4481.070
324.0430, 5648.725
325.2480, 6595.325
326.4540, 7711.923
327.6590, 9261.511
328.8640, 10580.09
330.0680, 10947.67
331.2730, 11477.24
332.4780, 12981.81
333.6820, 14623.39
334.8860, 14519.96
336.0900, 12193.50
337.2940, 8759.990
338.4980, 5569.429
339.7010, 3606.484
340.9050, 2390.909
342.1080, 1641.352
343.3110, 1198.788
344.5140, 884.1248
345.7170, 714.5518
346.9200, 555.9844
348.1220, 504.2329
349.3240, 460.6338
350.5270, 356.7043
351.7290, 336.1179
352.9310, 281.5049
354.1320, 210.8359
355.3340, 224.2666
356.5350, 112.6707
357.7370, 135.1121
358.9380, 146.5591
360.1390, 121.0107
361.3400, 144.5969
362.5400, 109.0583
363.7410, 116.4800
364.9410, 88.84375
366.1410, 195.3191
367.3410, 98.61182
368.5410, 130.0962
369.7410, 180.0671
370.9400, 81.26367
372.1400, 212.7610
373.3390, 130.1189
374.5380, 133.8708
375.7370, 199.3813
376.9360, 194.6658
378.1350, 227.9644
379.3330, 189.3506
380.5310, 127.8774
381.7300, 93.83057
382.9280, 114.3652
384.1260, 129.9033
385.3230, 161.5459
386.5210, 163.1196
387.7180, 145.7847
388.9160, 191.8862
390.1130, 94.49609
391.3100, 175.7578
392.5060, 146.0103
393.7030, 247.5796
394.9000, 221.8301
396.0960, 252.2759
397.2920, 257.2793
398.4880, 256.0063
399.6840, 272.4238
400.8800, 246.9961
402.0750, 186.3901
403.2710, 134.9868
404.4660, 156.5869
405.6610, 227.1895
406.8560, 221.7954
408.0510, 244.4038
409.2450, 192.0151
410.4400, 330.4878
411.6340, 255.3047
412.8280, 366.9248
414.0220, 295.5479
415.2160, 287.1743
416.4100, 434.1772
417.6030, 363.7598
418.7970, 367.3950
419.9900, 473.0332
421.1830, 479.6748
422.3760, 488.3198
423.5690, 567.9673
424.7610, 607.6172
425.9540, 743.2686
427.1460, 839.9209
428.3380, 1026.168
429.5300, 1135.228
430.7220, 1469.886
431.9140, 1774.545
433.1050, 2054.204
434.2970, 2675.863
435.4880, 3682.522
436.6790, 5065.183
437.8700, 7534.853
439.0610, 11816.52
440.2510, 17176.20
441.4420, 21637.87
442.6320, 25133.54
443.8220, 30241.22
445.0120, 36613.90
446.2020, 39960.57
447.3910, 40910.25
448.5810, 44116.93
449.7700, 51833.61
450.9600, 55278.29
452.1490, 48666.98
453.3370, 35365.66
454.5260, 22298.35
455.7150, 13359.04
456.9030, 8425.729
458.0910, 5598.422
459.2800, 4058.118
460.4670, 3214.819
461.6550, 2498.521
462.8430, 1951.229
464.0300, 1614.944
465.2180, 1616.662
466.4050, 1203.385
467.5920, 1046.110
468.7790, 985.8384
469.9650, 804.5698
471.1520, 719.3037
472.3380, 710.0410
473.5250, 611.7812
474.7110, 556.5254
475.8970, 466.2725
477.0820, 465.0249
478.2680, 424.7808
479.4540, 465.5396
480.6390, 384.3022
481.8240, 344.0684
483.0090, 260.8403
484.1940, 259.6162
485.3780, 261.4004
486.5630, 282.1885
487.7470, 263.9819
488.9320, 261.7783
490.1160, 351.5791
491.3000, 358.3848
492.4830, 418.1943
493.6670, 418.0103
494.8500, 513.8301
496.0340, 541.6538
497.2170, 596.4829
498.4000, 518.3164
499.5820, 530.1533
500.7650, 725.9946
501.9480, 664.8403
503.1300, 502.6890
504.3120, 434.5474
505.4940, 262.4092
506.6760, 237.2759
507.8580, 65.14697
509.0390, 132.0225
510.2210, 32.90283
511.4020, 84.78809
512.5830, 49.67920
513.7640, 136.5884
514.9450, 6.502441
516.1250, 51.57861
517.3060, 39.32178
518.4860, 95.77344
519.6660, 5.085938
520.8460, 50.94971
522.0260, 25.82373
523.2060, 6.297852
524.3850, 61.58008
525.5650, 8.461914
526.7440, 0.3491210
527.9230, 34.76221
529.1020, 36.18213
530.2810, 49.97314
531.4590, 36.16016
532.6380, 46.30713
533.8160, 66.47363
534.9940, 95.33936
536.1720, 44.84326
537.3500, 22.98096
538.5270, 92.18555
539.7050, 3.623047
540.8820, 29.55713
542.0590, 28.25195
543.2360, 68.06543
544.4130, 64.88477
545.5900, 121.7085
546.7660, 235.5366
547.9430, 234.1431
549.1190, 248.2065
550.2950, 287.0479
551.4710, 290.8940
552.6470, 289.7500
553.8220, 315.6143
554.9980, 392.4829
556.1730, 419.3574
557.3480, 387.2476
558.5230, 272.1460
559.6980, 174.0664
560.8730, 75.99170
562.0470, 49.92139
563.2220, 47.85596
564.3960, 36.79541
565.5700, 97.73877
566.7440, 25.68701
567.9170, 96.64014
569.0910, 130.5981
570.2640, 64.57324
571.4380, 6.361816
572.6110, 19.33350
573.7840, 10.30957
574.9570, 11.30273
576.1290, 149.3003
577.3020, 106.3022
578.4740, 144.5493
579.6460, 102.5654
580.8180, 214.5864
581.9900, 66.67041
583.1620, 211.7007
584.3330, 165.7373
585.5040, 190.7769
586.6760, 137.8213
587.8470, 220.8701
589.0180, 173.9233
590.1880, 106.9824
591.3590, 160.0454
592.5290, 10.11328
593.7000, 157.1860
594.8700, 95.28174
596.0400, 244.3633
597.2090, 172.4507
598.3790, 291.5483
599.5490, 293.6641
600.7180, 373.7852
601.8870, 407.2930
603.0560, 447.0674
604.2250, 448.2163
605.3940, 513.3696
606.5620, 507.5273
607.7300, 553.6904
608.8990, 593.8579
610.0670, 555.0303
611.2350, 547.2075
612.4020, 530.3892
613.5700, 430.5801
614.7370, 371.9072
615.9050, 267.1157
617.0720, 338.7251
618.2390, 290.9434
619.4060, 194.1655
620.5720, 349.3926
621.7390, 186.6245
622.9050, 278.8623
624.0710, 232.1045
625.2370, 210.3516
626.4030, 142.6035
627.5690, 279.8604
628.7340, 244.1221
629.9000, 326.3877
631.0650, 230.6582
632.2300, 254.9326
633.3950, 249.2129
634.5600, 277.4971
635.7240, 223.7861
636.8890, 151.0801
638.0530, 303.3784
639.2170, 253.6807
640.3810, 367.9883
641.5450, 203.3003
642.7080, 415.6284
643.8720, 379.9600
645.0350, 394.3032
646.1980, 491.6499
647.3610, 604.0020
648.5240, 665.3579
649.6870, 648.7188
650.8490, 834.0840
652.0120, 913.4536
653.1740, 1036.827
654.3360, 1209.207
655.4980, 1380.600
656.6600, 1573.966
657.8210, 1956.388
658.9830, 2215.045
660.1440, 2404.478
661.3050, 2795.920
662.4660, 3020.368
663.6270, 3260.399
664.7870, 3552.857
665.9480, 3569.321
667.1080, 3652.688
668.2680, 3656.128
669.4280, 3483.490
670.5880, 3028.974
671.7480, 2723.353
672.9070, 2250.146
674.0670, 1897.752
675.2260, 1568.254
676.3850, 1299.162
677.5440, 1068.397
678.7030, 870.7129
679.8610, 724.2373
681.0200, 585.0806
682.1780, 502.6279
683.3360, 433.1807
684.4940, 318.7393
685.6520, 297.3042
686.8090, 225.3730
687.9670, 224.4497
689.1240, 130.0352
690.2810, 184.6260
691.4380, 143.2222
692.5950, 118.8242
693.7520, 135.4316
694.9080, 126.0439
696.0650, 125.9043
697.2210, 115.1387
698.3770, 113.7661
699.5330, 131.3999
700.6880, 107.0381
701.8440, 92.68164
702.9990, 5.349609
704.1550, 60.00293
705.3100, 29.66016
706.4650, 72.32373
707.6190, 67.99170
708.7740, 0.3354490
709.9290, 26.65820
711.0830, 94.01660
712.2370, 116.6963
713.3910, 28.09863
714.5450, 99.78711
715.6980, 77.48096
716.8520, 50.80664
718.0050, 69.87646
719.1580, 98.56348
720.3110, 3.744141
721.4640, 92.95117
722.6170, 1.651367
723.7700, 57.35547
724.9220, 4.064453
726.0740, 51.77686
727.2260, 78.49414
728.3780, 74.21582
729.5300, 75.94189
730.6810, 19.67236
731.8330, 59.40674
732.9840, 0.8540040
734.1350, 65.88867
735.2860, 55.63574
736.4370, 56.59766
737.5880, 54.61426
738.7380, 67.37451
739.8880, 83.15137
741.0390, 75.91895
742.1890, 118.6899
743.3380, 78.46484
744.4880, 17.24365
745.6380, 86.02588
746.7870, 53.81201
747.9360, 133.6021
749.0850, 107.3955
750.2340, 32.19238
751.3830, 10.75342
752.5310, 5.650879
753.6800, 64.30078
754.8280, 11.88965
755.9760, 113.9194
757.1240, 127.7310
758.2720, 58.54590
759.4190, 109.3652
760.5670, 108.3564
761.7140, 99.18164
762.8610, 96.01025
764.0080, 107.8813
765.1550, 75.71631
766.3020, 170.5547
767.4480, 152.3960
768.5950, 98.24072
769.7410, 10.08789
770.8870, 211.9385
772.0330, 186.7920
773.1780, 154.6489
774.3240, 293.5083
775.4690, 151.3711
776.6140, 168.2373
777.7590, 242.1060
778.9040, 313.9775
780.0490, 359.4570
781.1940, 342.3345
782.3380, 451.5000
783.4820, 498.3823
784.6260, 584.2671
785.7700, 692.1548
786.9140, 716.0449
788.0580, 840.9375
789.2010, 935.8330
790.3450, 988.7305
791.4880, 966.8164
792.6310, 1008.898
793.7730, 935.8032
794.9160, 974.5010
796.0590, 942.4238
797.2010, 780.3989
798.3430, 827.6758
799.4850, 708.6289
800.6270, 568.8926
801.7690, 462.8521
802.9100, 449.8130
804.0520, 361.7822
805.1930, 326.7539
806.3340, 278.7363
807.4750, 304.7300
808.6160, 78.72559
809.7560, 203.7319
810.8970, 205.7520
812.0370, 68.79053
813.1770, 152.8301
814.3170, 134.9360
815.4570, 50.99023
816.5960, 97.06982
817.7360, 65.15137
818.8750, 11.76172
820.0140, 94.85303
821.1530, 9.063477
822.2920, 80.15771
823.4310, 41.25244
824.5690, 112.3481
825.7070, 67.37744
826.8460, 34.47510
827.9840, 57.57422
829.1220, 218.6743
830.2590, 91.77539
831.3970, 71.87646
832.5340, 43.02051
833.6710, 62.05762
834.8080, 60.13672
835.9450, 52.21631
837.0820, 79.29736
838.2190, 30.37842
839.3550, 9.460449
840.4910, 29.54297
841.6270, 72.63477
842.7630, 34.72754
843.8990, 75.82080
845.0350, 46.91455
846.1700, 64.99561
847.3060, 32.26855
848.4410, 44.36426
849.5760, 39.54004
850.7100, 94.53271
851.8450, 127.6060
852.9800, 10.32031
854.1140, 100.5093
855.2480, 45.57471
856.3820, 50.64062
857.5160, 80.64795
858.6500, 72.71484
859.7830, 76.78076
860.9170, 99.84863
862.0500, 84.91699
863.1830, 121.9854
864.3160, 108.4175
865.4480, 65.12402
866.5810, 99.19385
867.7130, 95.26514
868.8460, 100.3354
869.9780, 112.3887
871.1100, 53.46094
872.2410, 13.44580
873.3730, 47.36279
874.5050, 61.70215
875.6360, 43.23242
876.7670, 51.80762
877.8980, 15.84717
879.0290, 60.88721
880.1590, 121.9268
881.2900, 74.96729
882.4200, 42.00781
883.5500, 87.04834
884.6800, 23.08936
885.8100, 41.12988
886.9400, 4.828613
888.0690, 34.20557
889.1990, 24.89307
890.3280, 75.12451
891.4570, 87.74609
892.5860, 113.7637
893.7140, 168.7817
894.8430, 140.4468
895.9710, 6.818359
897.1000, 95.83496
898.2280, 46.85156
899.3560, 12.86914
900.4830, 77.88525
901.6110, 52.90234
902.7380, 27.91943
903.8660, 66.93604
904.9930, 52.56641
906.1200, 38.97021
907.2460, 73.98730
908.3730, 62.00439
909.5000, 71.02197
910.6260, 75.67676
911.7520, 64.05664
912.8780, 54.07471
914.0040, 20.09229
915.1290, 34.89014
916.2550, 61.10498
917.3800, 12.90039
918.5050, 62.08252
919.6300, 35.06543
920.7550, 61.04883
921.8800, 46.03174
923.0040, 45.70020
924.1290, 41.99805
925.2530, 30.98096
926.3770, 7.964355
927.5010, 27.75977
928.6250, 48.90723
929.7480, 69.13135
930.8720, 26.78955
931.9950, 15.70947
933.1180, 13.37012
934.2410, 75.53760
935.3640, 4.444824
936.4860, 56.34912
937.6090, 71.25244
938.7310, 83.52832
939.8530, 60.43164
940.9750, 77.91943
942.0970, 69.23682
943.2180, 74.13965
944.3400, 65.04102
945.4610, 35.03662
946.5820, 31.85059
947.7030, 20.74902
948.8240, 14.64844
949.9450, 44.54736
951.0650, 66.44482
952.1860, 46.34180
953.3060, 32.76172
954.4260, 57.11230
955.5460, 10.98486
956.6650, 47.85596
957.7850, 99.72607
958.9040, 83.59570
960.0230, 6.535645
961.1420, 38.32373
962.2610, 24.18311
963.3800, 55.04150
964.4990, 55.89893
965.6170, 58.60742
966.7350, 93.61182
967.8530, 60.61572
968.9710, 64.47217
970.0890, 64.32812
971.2070, 42.02197
972.3240, 42.05225
973.4410, 15.91406
974.5580, 86.75488
975.6750, 94.62549
976.7920, 104.4858
977.9090, 90.34570
979.0250, 89.20459
980.1410, 26.06299
981.2580, 58.92090
982.3740, 115.7832
983.4890, 157.6445
984.6050, 97.78760
985.7200, 94.64795
986.8360, 84.50781
987.9510, 113.3540
989.0660, 127.2241
990.1810, 135.0942
991.2950, 77.96436
992.4100, 98.83447
993.5240, 34.70361
994.6390, 68.57422
995.7530, 109.4443
996.8660, 98.31445
997.9800, 149.1841
999.0940, 30.06445
1000.207, 25.94482
1001.320, 147.8242
1002.433, 60.70459
1003.546, 263.5850
1004.659, 247.4653
1005.772, 211.4443
1006.884, 121.1138
1007.996, 122.0518
1009.108, 77.93164
1010.220, 78.79736
1011.332, 105.6777
1012.444, 115.5571
1013.555, 63.43799
1014.666, 138.3184
1015.777, 49.19971
1016.888, 116.0806
1017.999, 136.9619
1019.110, 49.84375
1020.220, 127.7446
1021.331, 114.8872
1022.441, 23.79199
1023.551, 97.76660
1024.661, 157.6777
1025.770, 224.5923
1026.880, 115.5073
1027.989, 93.42285
1029.098, 149.3389
1030.207, 165.0864
1031.316, 99.00439
1032.425, 168.9224
1033.533, 73.80127
1034.642, 23.72119
1035.750, 115.6421
1036.858, 145.5635
1037.966, 99.48584
1039.073, 16.40918
1040.181, 156.3330
1041.288, 132.2578
1042.396, 195.1836
1043.503, 211.1104
1044.610, 167.0376
1045.716, 282.9658
1046.823, 261.8950
1047.929, 326.8247
1049.036, 292.1504
1050.142, 356.0830
1051.248, 348.7305
1052.353, 214.6650
1053.459, 274.6011
1054.564, 162.5381
1055.670, 135.4761
1056.775, 143.4155
1057.880, 102.3564
1058.985, 53.29883
1060.089, 96.05713
1061.194, 62.82373
1062.298, 135.7695
1063.402, 78.94043
1064.506, 149.8901
1065.610, 157.7798
1066.713, 133.4443
1067.817, 153.3994
1068.920, 148.0483
1070.023, 55.00781
1071.126, 27.03125
1072.229, 59.92041
1073.332, 47.87305
1074.435, 89.82812
1075.537, 138.7856
1076.639, 28.74561
1077.741, 0.7070310
1078.843, 89.67041
1079.945, 86.63623
1081.046, 137.6040
1082.148, 134.5215
1083.249, 145.4941
1084.350, 115.4688
1085.451, 182.4458
1086.551, 167.4292
1087.652, 127.8862
1088.752, 145.7529
1089.853, 123.7388
1090.953, 12.72803
1092.053, 53.71973
1093.152, 101.7822
1094.252, 22.77881
1095.351, 44.77881
1096.451, 48.78076
1097.550, 50.78564
1098.649, 126.7935
1099.748, 71.09277
1100.846, 124.1182
1101.945, 129.1470
1103.043, 18.59717
1104.141, 110.6313
1105.239, 55.66797
1106.337, 101.7070
1107.434, 40.25049
1108.532, 93.77637
1109.629, 43.80713
1110.726, 39.84033
1111.823, 199.8765
1112.920, 127.9155
1114.017, 52.95752
1115.113, 65.00293
1116.210, 107.0513
1117.306, 90.11475
1118.402, 202.1807
1119.498, 196.2495
1120.593, 155.3262
1121.689, 224.4062
1122.784, 292.4888
1123.879, 224.5742
1124.974, 205.6626
1126.069, 102.7544
1127.164, 156.8496
1128.259, 109.9473
1129.353, 196.1235
1130.447, 119.4897
1131.541, 103.5972
1132.635, 158.7070
1133.729, 75.81982
1134.822, 70.93555
1135.916, 122.0542
1137.009, 90.82373
1138.102, 84.25830
1139.195, 45.65186
1140.288, 96.43604
1141.380, 60.52637
1142.473, 119.6333
1143.565, 29.74365
1144.657, 124.8569
1145.749, 55.97656
1146.841, 5.117676
1147.932, 158.2612
1149.024, 38.40918
1150.115, 63.56006
1151.206, 121.2617
1152.297, 144.4277
1153.388, 155.8726
1154.479, 153.6685
1155.569, 161.5327
1156.659, 122.7231
1157.750, 113.9170
1158.839, 124.1172
1159.929, 60.32031
1161.019, 180.5264
1162.108, 90.73730
1163.198, 98.95068
1164.287, 97.16748
1165.376, 173.3872
1166.465, 109.6104
1167.553, 142.8364
1168.642, 147.0664
1169.730, 94.29883
1170.818, 156.5342
1171.906, 174.7734
1172.994, 202.0156
1174.082, 260.2607
1175.170, 311.5093
1176.257, 312.7612
1177.344, 277.0161
1178.431, 355.2744
1179.518, 325.5356
1180.605, 434.8120
1181.691, 465.0913
1182.778, 514.3794
1183.864, 809.6714
1184.950, 844.9668
1186.036, 1306.265
1187.122, 1385.566
1188.207, 1733.872
1189.292, 1856.180
1190.378, 2313.492
1191.463, 2355.808
1192.548, 2448.137
1193.632, 2611.470
1194.717, 2549.825
1195.801, 2504.185
1196.886, 2288.548
1197.970, 2118.920
1199.054, 1770.296
1200.137, 1348.677
1201.221, 1117.061
1202.305, 868.0771
1203.388, 643.4683
1204.471, 564.8633
1205.554, 433.2607
1206.637, 318.6626
1207.719, 314.0684
1208.802, 270.4712
1209.884, 228.8833
1210.966, 229.3496
1212.048, 215.7183
1213.130, 216.1416
1214.212, 206.5679
1215.293, 197.9976
1216.374, 143.4312
1217.456, 22.87891
1218.536, 183.3306
1219.617, 133.7866
1220.698, 42.24609
1221.778, 124.7095
1222.859, 158.1763
1223.939, 80.64990
1225.019, 33.12793
1226.099, 131.6094
1227.178, 43.09424
1228.258, 79.58350
1229.337, 6.924805
1230.417, 11.56787
1231.496, 18.06348
1232.574, 28.43652
1233.653, 110.0537
1234.732, 39.54688
1235.810, 41.04443
1236.888, 66.54541
1237.966, 20.03857
1239.044, 130.5459
1240.122, 35.05713
1241.199, 96.57129
1242.277, 31.08887
1243.354, 157.7666
1244.431, 120.2915
1245.508, 109.8193
1246.585, 75.35059
1247.661, 139.8853
1248.738, 148.4233
1249.814, 14.96924
1250.890, 4.518555
1251.966, 76.07080
1253.042, 38.62646
1254.117, 76.18604
1255.193, 62.95801
1256.268, 131.3145
1257.343, 16.88428
1258.418, 1.543457
1259.493, 42.96875
1260.567, 52.58936
1261.642, 55.15088
1262.716, 44.71533
1263.790, 170.2837
1264.864, 106.8555
1265.938, 40.43066
1267.011, 163.9839
1268.085, 159.5669
1269.158, 9.841309
1270.231, 78.43164
1271.304, 158.0249
1272.377, 55.62158
1273.450, 73.23242
1274.522, 131.5186
1275.594, 69.33545
1276.666, 62.95752
1277.738, 49.58252
1278.810, 78.21094
1279.882, 80.15723
1280.953, 58.58105
1282.025, 8.819824
1283.096, 24.22070
1284.167, 27.37061
1285.238, 99.96582
1286.308, 53.56348
1287.379, 110.9136
1288.449, 101.5176
1289.519, 103.3442
1290.589, 112.7354
1291.659, 89.34961
1292.729, 119.9658
1293.798, 64.59033
1294.868, 51.21826
1295.937, 113.8496
1297.006, 142.4839
1298.075, 140.1221
1299.143, 91.76221
1300.212, 26.40576
1301.280, 128.0522
1302.348, 7.701660
1303.416, 155.3545
1304.484, 24.00928
1305.552, 66.66748
1306.620, 51.32861
1307.687, 66.99268
