##NAMES=Diaspore
##RRUFFID=R060287
##IDEAL CHEMISTRY=AlO(OH)
##LOCALITY=Selcuk, Mugla Province, Turkey
##OWNER=RRUFF
##SOURCE=Herb Obodda
##DESCRIPTION=Colorless transparent platy fragment
##STATUS=The identification of this mineral has been confirmed by X-ray diffraction and chemical analysis
##URL=rruff.info/R060287
##MEASURED CHEMISTRY=(Al_0.99_Fe^3+^_0.01_)_Î£=1_O(OH) ; trace amounts of Ti;  OH estimated by difference ; Fe^3+^ by charge balance
##PIN_ID=L01646
##ORIENTATION=Laser parallel to -c* (0 0 -1). Fiducial mark perpendicular to laser is parallel to a [1 0 0]
114.4400, 0.0000000E+00
115.6710, 36.13281
116.9030, 59.50586
118.1340, 99.50293
119.3650, 14.25586
120.5960, 157.4512
121.8270, 113.7471
123.0580, 178.8926
124.2880, 308.6436
125.5190, 492.9863
126.7490, 477.1787
127.9790, 706.8311
129.2090, 1073.723
130.4390, 1347.565
131.6680, 1925.055
132.8980, 2499.918
134.1270, 3099.787
135.3560, 4168.379
136.5850, 5662.492
137.8140, 7590.014
139.0430, 9692.033
140.2710, 11763.41
141.5000, 13387.94
142.7280, 13416.77
143.9560, 12617.04
145.1840, 11220.07
146.4120, 9845.225
147.6390, 8498.640
148.8670, 7377.572
150.0940, 7530.485
151.3210, 8217.789
152.5490, 8678.609
153.7750, 8629.994
155.0020, 8065.925
156.2290, 7233.452
157.4550, 6397.619
158.6810, 5110.465
159.9080, 3590.024
161.1340, 2368.471
162.3590, 1437.037
163.5850, 900.2129
164.8110, 648.2559
166.0360, 500.4102
167.2610, 422.6191
168.4860, 350.6377
169.7110, 400.4473
170.9360, 400.8965
172.1610, 248.6729
173.3850, 161.3730
174.6100, 274.7139
175.8340, 290.0957
177.0580, 200.4102
178.2820, 234.7100
179.5050, 170.3877
180.7290, 172.3779
181.9520, 206.7969
183.1760, 194.8926
184.3990, 302.7217
185.6220, 139.7373
186.8450, 150.4707
188.0670, 237.2363
189.2900, 214.0400
190.5120, 189.9629
191.7340, 310.8301
192.9560, 193.7803
194.1780, 443.8135
195.4000, 464.9316
196.6220, 352.1357
197.8430, 314.4219
199.0640, 275.7881
200.2860, 189.2314
201.5070, 273.7490
202.7270, 308.3359
203.9480, 189.9883
205.1690, 140.7002
206.3890, 28.47168
207.6090, 79.29688
208.8290, 90.82812
210.0490, 98.09473
211.2690, 4.062500
212.4890, 131.0703
213.7080, 132.1152
214.9280, 96.19336
216.1470, 30.70117
217.3660, 40.42871
218.5850, 58.41992
219.8030, 14.25098
221.0220, 99.93262
222.2400, 12.12988
223.4590, 19.66309
224.6770, 129.4453
225.8950, 12.78223
227.1120, 14.02051
228.3300, 51.73145
229.5480, 21.52734
230.7650, 54.20215
231.9820, 59.07910
233.1990, 125.6299
234.4160, 26.66797
235.6330, 14.23633
236.8490, 8.434570
238.0660, 103.6816
239.2820, 47.13086
240.4980, 59.00879
241.7140, 57.85352
242.9300, 48.77734
244.1460, 53.25879
245.3610, 4.261719
246.5770, 70.76270
247.7920, 43.85449
249.0070, 47.93848
250.2220, 3.027344
251.4370, 60.13574
252.6510, 40.28223
253.8660, 9.441406
255.0800, 19.36035
256.2940, 49.66016
257.5080, 110.0146
258.7220, 124.9541
259.9360, 107.1328
261.1490, 158.9424
262.3630, 114.8574
263.5760, 70.43164
264.7890, 138.3115
266.0020, 22.82324
267.2150, 166.4590
268.4270, 121.8857
269.6400, 157.4365
270.8520, 67.09375
272.0640, 179.8262
273.2760, 265.6201
274.4880, 452.4639
275.7000, 638.2246
276.9120, 827.9590
278.1230, 1107.288
279.3340, 1341.285
280.5450, 1609.299
281.7560, 2012.319
282.9670, 2128.342
284.1780, 2693.367
285.3880, 3118.385
286.5980, 3638.396
287.8090, 3604.396
289.0190, 3467.375
290.2290, 2915.331
291.4380, 2567.266
292.6480, 1889.174
293.8570, 1497.055
295.0670, 990.9072
296.2760, 675.7305
297.4850, 480.5273
298.6930, 354.2988
299.9020, 279.0498
301.1110, 220.7793
302.3190, 239.4893
303.5270, 122.1846
304.7350, 263.8643
305.9430, 96.52832
307.1510, 87.17383
308.3580, 280.7129
309.5660, 293.2246
310.7730, 255.7285
311.9800, 314.1836
313.1870, 245.5439
314.3940, 280.8906
315.6010, 403.1006
316.8070, 675.2930
318.0130, 713.4316
319.2200, 925.5264
320.4260, 1709.529
321.6310, 2334.520
322.8370, 3266.476
324.0430, 3875.393
325.2480, 4446.276
326.4540, 5224.109
327.6590, 6071.876
328.8640, 7243.601
330.0680, 7629.289
331.2730, 7723.990
332.4780, 7385.703
333.6820, 6507.427
334.8860, 5401.165
336.0900, 4125.895
337.2940, 2824.639
338.4980, 1878.394
339.7010, 1236.161
340.9050, 939.9395
342.1080, 581.7285
343.3110, 550.5273
344.5140, 320.3389
345.7170, 238.1582
346.9200, 222.9883
348.1220, 97.82715
349.3240, 170.6748
350.5270, 238.5303
351.7290, 197.0273
352.9310, 103.9014
354.1320, 28.33105
355.3340, 151.5459
356.5350, 208.1172
357.7370, 200.0107
358.9380, 35.91211
360.1390, 51.82129
361.3400, 241.4639
362.5400, 156.3682
363.7410, 215.3994
364.9410, 315.0820
366.1410, 160.0293
367.3410, 329.2305
368.5410, 310.6689
369.7410, 366.3809
370.9400, 235.6787
372.1400, 230.0508
373.3390, 333.7080
374.5380, 157.3682
375.7370, 213.9287
376.9360, 273.9443
378.1350, 351.0850
379.3330, 387.9521
380.5310, 276.4062
381.7300, 271.6338
382.9280, 432.6758
384.1260, 492.7383
385.3230, 623.7979
386.5210, 874.2910
387.7180, 995.3477
388.9160, 1001.436
390.1130, 1392.704
391.3100, 1529.549
392.5060, 1860.193
393.7030, 1811.144
394.9000, 2127.094
396.0960, 1878.277
397.2920, 1663.732
398.4880, 1536.759
399.6840, 1066.794
400.8800, 924.2959
402.0750, 677.6279
403.2710, 602.5674
404.4660, 508.2002
405.6610, 427.9600
406.8560, 337.2109
408.0510, 426.4697
409.2450, 166.7344
410.4400, 315.8818
411.6340, 245.1582
412.8280, 242.3984
414.0220, 201.2861
415.2160, 230.0127
416.4100, 256.8418
417.6030, 299.1514
418.7970, 380.1670
419.9900, 400.1953
421.1830, 506.8496
422.3760, 394.3613
423.5690, 556.8828
424.7610, 641.1924
425.9540, 519.5029
427.1460, 659.8145
428.3380, 899.1270
429.5300, 1011.439
430.7220, 1264.753
431.9140, 1551.067
433.1050, 2088.385
434.2970, 2829.700
435.4880, 3788.018
436.6790, 5913.338
437.8700, 8986.659
439.0610, 13786.98
440.2510, 19326.31
441.4420, 23352.63
442.6320, 26671.96
443.8220, 32349.30
445.0120, 39594.63
446.2020, 44973.96
447.3910, 46716.31
448.5810, 45377.64
449.7700, 41166.99
450.9600, 34823.34
452.1490, 26920.70
453.3370, 19090.05
454.5260, 12467.42
455.7150, 7770.791
456.9030, 5180.164
458.0910, 3537.542
459.2800, 2560.928
460.4670, 1991.316
461.6550, 1594.712
462.8430, 1278.114
464.0300, 1254.523
465.2180, 940.9375
466.4050, 796.3594
467.5920, 751.7891
468.7790, 664.2266
469.9650, 489.6709
471.1520, 483.1240
472.3380, 343.5859
473.5250, 349.0566
474.7110, 215.5361
475.8970, 282.0254
477.0820, 241.5215
478.2680, 123.0293
479.4540, 30.54395
480.6390, 120.0684
481.8240, 154.6016
483.0090, 149.1445
484.1940, 34.69629
485.3780, 228.2568
486.5630, 90.82812
487.7470, 229.4072
488.9320, 203.9961
490.1160, 429.5947
491.3000, 540.2021
492.4830, 463.8193
493.6670, 619.4453
494.8500, 748.0840
496.0340, 750.7314
497.2170, 974.6445
498.4000, 915.3418
499.5820, 907.0557
500.7650, 872.7793
501.9480, 628.4834
503.1300, 610.2266
504.3120, 465.9932
505.4940, 478.7705
506.6760, 314.5801
507.8580, 442.4092
509.0390, 446.2480
510.2210, 598.1025
511.4020, 513.9756
512.5830, 505.8984
513.7640, 603.8369
514.9450, 659.7871
516.1250, 299.7666
517.3060, 489.7578
518.4860, 296.7793
519.6660, 310.8096
520.8460, 257.8887
522.0260, 249.9785
523.2060, 329.0811
524.3850, 307.1982
525.5650, 291.3252
526.7440, 237.4805
527.9230, 179.6445
529.1020, 249.8398
530.2810, 203.4824
531.4590, 1.293945
532.6380, 193.5391
533.8160, 2.183594
534.9940, 49.88184
536.1720, 169.4219
537.3500, 10.25977
538.5270, 99.91699
539.7050, 210.5996
540.8820, 41.62891
542.0590, 43.13184
543.2360, 0.9062500
544.4130, 13.67188
545.5900, 113.4365
546.7660, 81.24805
547.9430, 33.91016
549.1190, 141.0781
550.2950, 33.25391
551.4710, 77.44043
552.6470, 81.64551
553.8220, 37.13965
554.9980, 48.93359
556.1730, 16.25781
557.3480, 82.45703
558.5230, 64.78223
559.6980, 32.68945
560.8730, 136.4766
562.0470, 17.03809
563.2220, 11.87109
564.3960, 22.25977
565.5700, 16.38770
566.7440, 15.56445
567.9170, 120.7510
569.0910, 209.9473
570.2640, 231.9736
571.4380, 217.3682
572.6110, 329.5928
573.7840, 413.8262
574.9570, 500.0703
576.1290, 649.3242
577.3020, 700.5869
578.4740, 940.8594
579.6460, 1196.143
580.8180, 1417.434
581.9900, 1586.735
583.1620, 1387.046
584.3330, 1164.367
585.5040, 917.6982
586.6760, 819.0381
587.8470, 445.3887
589.0180, 377.7500
590.1880, 127.1182
591.3590, 121.5000
592.5290, 273.0869
593.7000, 153.4922
594.8700, 389.4619
596.0400, 223.8896
597.2090, 461.3271
598.3790, 563.7734
599.5490, 698.2324
600.7180, 856.7012
601.8870, 920.1855
603.0560, 1101.680
604.2250, 1109.185
605.3940, 1176.699
606.5620, 1388.230
607.7300, 1540.771
608.8990, 1505.354
610.0670, 1466.967
611.2350, 1468.590
612.4020, 1400.244
613.5700, 1248.909
614.7370, 1069.621
615.9050, 848.3428
617.0720, 935.0752
618.2390, 1571.817
619.4060, 1107.038
620.5720, 1524.372
621.7390, 711.1865
622.9050, 726.0137
624.0710, 678.8828
625.2370, 868.7598
626.4030, 908.6465
627.5690, 847.5420
628.7340, 1085.447
629.9000, 1068.384
631.0650, 1091.344
632.2300, 1411.324
633.3950, 1320.313
634.5600, 1536.316
635.7240, 1520.326
636.8890, 1643.346
638.0530, 1639.403
639.2170, 1580.469
640.3810, 1555.546
641.5450, 1568.571
642.7080, 1629.725
643.8720, 1563.828
645.0350, 1649.938
646.1980, 1573.058
647.3610, 1643.184
648.5240, 1756.318
649.6870, 1587.460
650.8490, 1619.609
652.0120, 1476.768
653.1740, 1407.932
654.3360, 1571.104
655.4980, 1885.283
656.6600, 2042.472
657.8210, 2367.684
658.9830, 2654.907
660.1440, 2976.137
661.3050, 3462.373
662.4660, 3663.615
663.6270, 3872.867
664.7870, 4084.123
665.9480, 4067.398
667.1080, 3846.680
668.2680, 3576.967
669.4280, 3320.960
670.5880, 2867.560
671.7480, 2561.824
672.9070, 2132.135
674.0670, 1604.287
675.2260, 1460.941
676.3850, 1133.080
677.5440, 970.0586
678.7030, 793.7852
679.8610, 647.7930
681.0200, 595.1426
682.1780, 447.1914
683.3360, 225.4297
684.4940, 329.0762
685.6520, 407.0566
686.8090, 342.9316
687.9670, 110.3281
689.1240, 185.7344
690.2810, 60.14453
691.4380, 235.5625
692.5950, 382.9844
693.7520, 232.4512
694.9080, 264.2852
696.0650, 130.7266
697.2210, 6.816406
698.3770, 15.25586
699.5330, 114.4902
700.6880, 43.01172
701.8440, 55.54297
702.9990, 35.63281
704.1550, 99.62305
705.3100, 30.09766
706.4650, 3.580078
707.6190, 233.1777
708.7740, 201.6738
709.9290, 112.1738
711.0830, 224.6777
712.2370, 384.1934
713.3910, 293.8008
714.5450, 274.2363
715.6980, 215.7695
716.8520, 213.3066
718.0050, 143.8477
719.1580, 204.3965
720.3110, 301.9492
721.4640, 187.5098
722.6170, 94.07617
723.7700, 86.64648
724.9220, 280.2227
726.0740, 183.8066
727.2260, 76.39062
728.3780, 345.9844
729.5300, 206.6934
730.6810, 11.94531
731.8330, 277.8770
732.9840, 24.98438
734.1350, 82.62305
735.2860, 9.238281
736.4370, 104.8555
737.5880, 176.7793
738.7380, 169.4062
739.8880, 192.4551
741.0390, 140.0918
742.1890, 229.7324
743.3380, 166.5020
744.4880, 113.6582
745.6380, 312.3652
746.7870, 228.1289
747.9360, 234.8047
749.0850, 256.4668
750.2340, 214.2363
751.3830, 74.08008
752.5310, 160.3359
753.6800, 251.2246
754.8280, 478.9023
755.9760, 372.5781
757.1240, 557.2559
758.2720, 330.4609
759.4190, 385.2734
760.5670, 355.3887
761.7140, 497.5566
762.8610, 431.2383
764.0080, 520.9219
765.1550, 675.6699
766.3020, 724.3535
767.4480, 703.1094
768.5950, 759.9785
769.7410, 853.2949
770.8870, 1102.977
772.0330, 1145.365
773.1780, 1341.047
774.3240, 1391.729
775.4690, 1593.027
776.6140, 2094.842
777.7590, 2209.904
778.9040, 2496.582
780.0490, 3070.258
781.1940, 3339.928
782.3380, 4055.598
783.4820, 4478.266
784.6260, 5067.934
785.7700, 5836.596
786.9140, 6483.258
788.0580, 7280.918
789.2010, 7706.576
790.3450, 8070.234
791.4880, 8111.930
792.6310, 8078.582
793.7730, 8030.234
794.9160, 7315.004
796.0590, 6626.455
797.2010, 5956.096
798.3430, 5290.736
799.4850, 4667.373
800.6270, 4009.209
801.7690, 3235.838
802.9100, 2898.953
804.0520, 2431.576
805.1930, 1934.197
806.3340, 1947.816
807.4750, 1667.430
808.6160, 1252.043
809.7560, 1165.650
810.8970, 1110.254
812.0370, 952.8574
813.1770, 837.4688
814.3170, 824.0762
815.4570, 697.6836
816.5960, 725.3125
817.7360, 675.3418
818.8750, 592.6680
820.0140, 645.3496
821.1530, 554.0273
822.2920, 561.1348
823.4310, 436.8359
824.5690, 485.5566
825.7070, 317.2715
826.8460, 425.9805
827.9840, 430.6875
829.1220, 338.3887
830.2590, 418.0879
831.3970, 305.7891
832.5340, 193.4980
833.6710, 121.9609
834.8080, 24.37695
835.9450, 144.9355
837.0820, 29.36719
838.2190, 93.06445
839.3550, 316.7656
840.4910, 258.5469
841.6270, 227.2578
842.7630, 170.9688
843.8990, 23.66797
845.0350, 102.3652
846.1700, 115.0566
847.3060, 236.7441
848.4410, 309.4238
849.5760, 276.1016
850.7100, 159.7715
851.8450, 209.4395
852.9800, 143.8223
854.1140, 63.75781
855.2480, 118.4082
856.3820, 153.0547
857.5160, 199.8926
858.6500, 131.3301
859.7830, 273.9609
860.9170, 109.5859
862.0500, 180.2031
863.1830, 165.8184
864.3160, 188.4277
865.4480, 29.03125
866.5810, 5.630859
867.7130, 22.02148
868.8460, 10.59766
869.9780, 69.61328
871.1100, 84.17383
872.2410, 157.7402
873.3730, 18.30469
874.5050, 127.8574
875.6360, 4.593750
876.7670, 148.9336
877.8980, 101.4590
879.0290, 29.97656
880.1590, 5.509766
881.2900, 37.98242
882.4200, 94.53125
883.5500, 61.11328
884.6800, 138.2578
885.8100, 62.37500
886.9400, 26.93945
888.0690, 117.7539
889.1990, 24.47656
890.3280, 82.69727
891.4570, 219.9102
892.5860, 57.12109
893.7140, 148.6738
894.8430, 30.43555
895.9710, 15.53906
897.1000, 100.3672
898.2280, 74.65430
899.3560, 152.6699
900.4830, 36.68359
901.6110, 70.68945
902.7380, 62.31055
903.8660, 32.36133
904.9930, 23.66211
906.1200, 51.44727
907.2460, 7.328125
908.3730, 109.1992
909.5000, 63.06445
910.6260, 40.07617
911.7520, 26.74805
912.8780, 14.56250
914.0040, 43.36914
915.1290, 63.17188
916.2550, 101.9668
917.3800, 112.0977
918.5050, 131.5430
919.6300, 157.3242
920.7550, 191.1016
921.8800, 256.8730
923.0040, 225.6387
924.1290, 209.3984
925.2530, 108.1543
926.3770, 31.90625
927.5010, 206.6523
928.6250, 75.39453
929.7480, 50.86914
930.8720, 1.828125
931.9950, 234.5117
933.1180, 97.18945
934.2410, 192.8633
935.3640, 15.53320
936.4860, 46.19531
937.6090, 26.14648
938.7310, 89.48633
939.8530, 181.1113
940.9750, 167.7344
942.0970, 86.34961
943.2180, 44.96484
944.3400, 81.57422
945.4610, 91.17773
946.5820, 116.7773
947.7030, 92.37500
948.8240, 82.56641
949.9450, 158.5547
951.0650, 47.14258
952.1860, 85.72266
953.3060, 115.2969
954.4260, 46.86719
955.5460, 116.4375
956.6650, 29.00000
957.7850, 160.5391
958.9040, 163.0723
960.0230, 192.6016
961.1420, 133.1250
962.2610, 153.6445
963.3800, 32.16211
964.4990, 144.6738
965.6170, 165.1797
966.7350, 40.68555
967.8530, 20.81445
968.9710, 83.66602
970.0890, 150.0410
971.2070, 272.5137
972.3240, 155.2227
973.4410, 64.69531
974.5580, 81.60938
975.6750, 97.58398
976.7920, 234.0508
977.9090, 232.5156
979.0250, 302.8613
980.1410, 159.3184
981.2580, 254.7695
982.3740, 364.2188
983.4890, 455.6660
984.6050, 633.1074
985.7200, 850.5469
986.8360, 946.9883
987.9510, 739.4277
989.0660, 579.8711
990.1810, 553.3105
991.2950, 436.7637
992.4100, 309.2129
993.5240, 389.6602
994.6390, 233.1309
995.7530, 266.6094
996.8660, 254.0859
997.9800, 311.5723
999.0940, 389.0586
1000.207, 398.4453
1001.320, 495.1855
1002.433, 402.4648
1003.546, 308.4453
1004.659, 289.9551
1005.772, 304.9609
1006.884, 209.4648
1007.996, 317.6680
1009.108, 286.1719
1010.220, 201.2539
1011.332, 244.7520
1012.444, 260.2480
1013.555, 246.6152
1014.666, 257.6016
1015.777, 208.0449
1016.888, 406.4473
1017.999, 190.9375
1019.110, 125.4395
1020.220, 320.8438
1021.331, 249.1719
1022.441, 194.0938
1023.551, 256.3867
1024.661, 169.8945
1025.770, 286.4062
1026.880, 276.9180
1027.989, 269.3848
1029.098, 249.2871
1030.207, 275.3691
1031.316, 178.4004
1032.425, 145.9199
1033.533, 169.4414
1034.642, 167.9023
1035.750, 134.4277
1036.858, 59.88281
1037.966, 290.2285
1039.073, 397.1309
1040.181, 183.6680
1041.288, 271.5020
1042.396, 107.0469
1043.503, 144.1719
1044.610, 390.5215
1045.716, 190.9355
1046.823, 364.1113
1047.929, 347.6680
1049.036, 310.2344
1050.142, 178.8047
1051.248, 223.3809
1052.353, 186.9570
1053.459, 91.54102
1054.564, 252.1270
1055.670, 127.7188
1056.775, 188.3145
1057.880, 156.9160
1058.985, 165.5234
1060.089, 114.0938
1061.194, 158.7129
1062.298, 157.1035
1063.402, 150.6953
1064.506, 157.6641
1065.610, 187.3008
1066.713, 115.9414
1067.817, 179.5898
1068.920, 183.0391
1070.023, 390.6953
1071.126, 133.8750
1072.229, 327.5430
1073.332, 425.2207
1074.435, 260.8984
1075.537, 448.5840
1076.639, 271.2754
1077.741, 367.9727
1078.843, 377.6777
1079.945, 567.3848
1081.046, 481.1016
1082.148, 439.8242
1083.249, 771.5508
1084.350, 1200.285
1085.451, 1697.027
1086.551, 2130.775
1087.652, 1423.531
1088.752, 1069.291
1089.853, 770.6289
1090.953, 364.4023
1092.053, 245.1816
1093.152, 361.9707
1094.252, 211.7656
1095.351, 211.5664
1096.451, 174.3730
1097.550, 86.18945
1098.649, 123.0098
1099.748, 95.87695
1100.846, 131.9160
1101.945, 148.7578
1103.043, 84.60938
1104.141, 180.4648
1105.239, 234.3418
1106.337, 27.77539
1107.434, 58.88672
1108.532, 88.99219
1109.629, 42.88086
1110.726, 184.7852
1111.823, 137.7109
1112.920, 84.66992
1114.017, 273.6465
1115.113, 239.6309
1116.210, 324.6250
1117.306, 418.6250
1118.402, 541.5586
1119.498, 658.6133
1120.593, 774.3789
1121.689, 824.7207
1122.784, 852.0312
1123.879, 867.6426
1124.974, 771.6953
1126.069, 703.6211
1127.164, 537.1230
1128.259, 466.1992
1129.353, 364.2168
1130.447, 153.3691
1131.541, 157.1094
1132.635, 233.2148
1133.729, 117.3320
1134.822, 169.5586
1135.916, 48.69141
1137.009, 70.16797
1138.102, 256.9570
1139.195, 268.0898
1140.288, 283.2305
1141.380, 45.37891
1142.473, 346.5410
1143.565, 170.7109
1144.657, 15.88672
1145.749, 279.0703
1146.841, 289.5605
1147.932, 2.597656
1149.024, 176.8438
1150.115, 409.1152
1151.206, 259.7617
1152.297, 292.0703
1153.388, 263.4258
1154.479, 266.2012
1155.569, 377.5781
1156.659, 347.9648
1157.750, 325.3574
1158.839, 386.7578
1159.929, 272.2109
1161.019, 231.6680
1162.108, 396.1387
1163.198, 165.6484
1164.287, 339.1660
1165.376, 394.6895
1166.465, 430.2188
1167.553, 456.7578
1168.642, 599.3242
1169.730, 401.9141
1170.818, 483.5234
1171.906, 741.1387
1172.994, 592.7637
1174.082, 843.3984
1175.170, 737.0410
1176.257, 926.7051
1177.344, 1152.379
1178.431, 1199.062
1179.518, 1210.750
1180.605, 1475.447
1181.691, 1852.152
1182.778, 2221.863
1183.864, 2763.582
1184.950, 3368.307
1186.036, 3964.041
1187.122, 5210.781
1188.207, 6294.344
1189.292, 7217.102
1190.378, 8513.863
1191.463, 9739.633
1192.548, 10622.41
1193.632, 11235.19
1194.717, 11124.00
1195.801, 10320.82
1196.886, 9288.648
1197.970, 7596.484
1199.054, 6484.324
1200.137, 5027.174
1201.221, 3839.029
1202.305, 3182.904
1203.388, 2415.785
1204.471, 1967.674
1205.554, 1608.568
1206.637, 1488.473
1207.719, 1267.381
1208.802, 1067.297
1209.884, 779.2207
1210.966, 700.1484
1212.048, 554.1074
1213.130, 667.0293
1214.212, 510.9805
1215.293, 384.3086
1216.374, 609.2734
1217.456, 433.2441
1218.536, 520.2207
1219.617, 431.2012
1220.698, 495.2031
1221.778, 441.1309
1222.859, 410.6328
1223.939, 338.2422
1225.019, 339.2676
1226.099, 293.2988
1227.178, 254.3379
1228.258, 365.3828
1229.337, 379.4316
1230.417, 451.4883
1231.496, 521.5566
1232.574, 279.6348
1233.653, 315.7188
1234.732, 181.8086
1235.810, 169.9023
1236.888, 243.5605
1237.966, 185.1641
1239.044, 63.27930
1240.122, 83.15820
1241.199, 85.66211
1242.277, 120.7402
1243.354, 205.0605
1244.431, 195.2031
1245.508, 69.35352
1246.585, 82.50586
1247.661, 19.33398
1248.738, 1.820313
1249.814, 34.93164
1250.890, 15.12695
1251.966, 54.71289
1253.042, 3.574219
1254.117, 41.56641
1255.193, 101.2852
1256.268, 46.18555
1257.343, 39.90234
1258.418, 54.00977
1259.493, 2.058594
1260.567, 64.86719
1261.642, 154.1797
1262.716, 87.22852
1263.790, 55.71484
1264.864, 239.3184
1265.938, 74.09570
1267.011, 440.8984
1268.085, 90.94727
1269.158, 107.0000
1270.231, 296.0957
1271.304, 192.1562
1272.377, 259.2207
1273.450, 102.2930
1274.522, 180.3672
1275.594, 24.55078
1276.666, 34.47852
1277.738, 67.66992
1278.810, 90.74023
1279.882, 5.152344
1280.953, 26.01953
1282.025, 2.998047
1283.096, 5.919922
1284.167, 77.20898
1285.238, 166.3086
1286.308, 126.4102
1287.379, 183.5176
1288.449, 29.62695
1289.519, 19.74219
