##NAMES=Diaspore
##RRUFFID=R060287
##IDEAL CHEMISTRY=AlO(OH)
##LOCALITY=Selcuk, Mugla Province, Turkey
##OWNER=RRUFF
##SOURCE=Herb Obodda
##DESCRIPTION=Colorless transparent platy fragment
##STATUS=The identification of this mineral has been confirmed by X-ray diffraction and chemical analysis
##URL=rruff.info/R060287
##MEASURED CHEMISTRY=(Al_0.99_Fe^3+^_0.01_)_Î£=1_O(OH) ; trace amounts of Ti;  OH estimated by difference ; Fe^3+^ by charge balance
##PIN_ID=L01646
##ORIENTATION=Laser parallel to -c* (0 0 -1). Fiducial mark perpendicular to laser is parallel to a [1 0 0]
114.4400, 0.0000000E+00
115.6710, 1.446289
116.9030, 84.68066
118.1340, 136.7422
119.3650, 4.564453
120.5960, 61.79102
121.8270, 150.9268
123.0580, 184.5977
124.2880, 198.9434
125.5190, 250.3135
126.7490, 328.1973
127.9790, 223.2100
129.2090, 420.0693
130.4390, 545.5479
131.6680, 814.4980
132.8980, 1199.753
134.1270, 1337.141
135.3560, 1902.512
136.5850, 2542.743
137.8140, 3320.734
139.0430, 4125.421
140.2710, 4677.771
141.5000, 4803.734
142.7280, 4367.373
143.9560, 4247.619
145.1840, 4697.333
146.4120, 4929.481
147.6390, 4644.568
148.8670, 4890.033
150.0940, 5872.795
151.3210, 7562.788
152.5490, 9712.983
153.7750, 10626.37
155.0020, 10014.92
156.2290, 9356.631
157.4550, 8709.487
158.6810, 6983.482
159.9080, 4741.613
161.1340, 2843.871
162.3590, 1617.446
163.5850, 957.3252
164.8110, 678.5332
166.0360, 410.0068
167.2610, 399.6104
168.4860, 248.2627
169.7110, 245.9629
170.9360, 239.2637
172.1610, 178.8652
173.3850, 148.9395
174.6100, 130.7031
175.8340, 61.37305
177.0580, 21.04883
178.2820, 17.73145
179.5050, 132.7246
180.7290, 21.50586
181.9520, 194.9316
183.1760, 82.37500
184.3990, 75.41797
185.6220, 188.9053
186.8450, 141.4248
188.0670, 54.95605
189.2900, 231.4258
190.5120, 193.8652
191.7340, 192.2920
192.9560, 299.7197
194.1780, 225.1592
195.4000, 211.6172
196.6220, 214.0996
197.8430, 197.6094
199.0640, 193.9219
200.2860, 91.72852
201.5070, 179.3428
202.7270, 112.9922
203.9480, 95.68262
205.1690, 256.4111
206.3890, 200.1787
207.6090, 50.98633
208.8290, 102.2910
210.0490, 12.08301
211.2690, 86.86426
212.4890, 96.77051
213.7080, 49.99902
214.9280, 183.7715
216.1470, 99.57520
217.3660, 135.6025
218.5850, 164.3525
219.8030, 144.1465
221.0220, 72.98047
222.2400, 150.8564
223.4590, 97.76855
224.6770, 115.7207
225.8950, 69.28906
227.1120, 58.73828
228.3300, 87.80273
229.5480, 27.32031
230.7650, 138.7256
231.9820, 47.52344
233.1990, 83.19043
234.4160, 132.2812
235.6330, 130.5430
236.8490, 113.4365
238.0660, 213.3682
239.2820, 206.3350
240.4980, 82.33496
241.7140, 64.37012
242.9300, 120.4414
244.1460, 118.4775
245.3610, 47.36230
246.5770, 134.7979
247.7920, 92.98926
249.0070, 4.208984
250.2220, 168.4727
251.4370, 61.76270
252.6510, 0.9326170
253.8660, 1.596680
255.0800, 119.7832
256.2940, 50.20605
257.5080, 117.6973
258.7220, 203.2695
259.9360, 175.9180
261.1490, 327.4326
262.3630, 243.0010
263.5760, 65.58301
264.7890, 183.4619
266.0020, 86.55176
267.2150, 96.88379
268.4270, 103.4150
269.6400, 100.1055
270.8520, 142.9375
272.0640, 101.9131
273.2760, 227.0283
274.4880, 221.2471
275.7000, 445.5635
276.9120, 516.9854
278.1230, 635.4941
279.3340, 672.0781
280.5450, 834.7324
281.7560, 841.4531
282.9670, 915.2344
284.1780, 861.0762
285.3880, 1164.971
286.5980, 964.9199
287.8090, 1067.917
289.0190, 794.9600
290.2290, 891.0459
291.4380, 722.1738
292.6480, 483.3418
293.8570, 345.5430
295.0670, 279.7773
296.2760, 247.0439
297.4850, 89.34082
298.6930, 52.66797
299.9020, 148.0244
301.1110, 98.40820
302.3190, 86.17969
303.5270, 95.23633
304.7350, 40.67969
305.9430, 41.85059
307.1510, 103.6328
308.3580, 51.13867
309.5660, 81.33301
310.7730, 47.80273
311.9800, 181.7314
313.1870, 51.28711
314.3940, 27.13965
315.6010, 78.44336
316.8070, 26.97949
318.0130, 16.39453
319.2200, 39.80078
320.4260, 227.7969
321.6310, 56.40918
322.8370, 371.0361
324.0430, 840.6777
325.2480, 1301.281
326.4540, 2144.879
327.6590, 1558.493
328.8640, 2163.124
330.0680, 887.7656
331.2730, 707.4248
332.4780, 773.0996
333.6820, 550.7891
334.8860, 559.4961
336.0900, 359.2188
337.2940, 223.9580
338.4980, 276.7148
339.7010, 155.4883
340.9050, 201.2793
342.1080, 44.91309
343.3110, 62.89648
344.5140, 34.27832
345.7170, 135.4502
346.9200, 6.358398
348.1220, 32.82227
349.3240, 93.00000
350.5270, 36.81152
351.7290, 86.36133
352.9310, 111.4561
354.1320, 28.74316
355.3340, 107.0605
356.5350, 61.86328
357.7370, 45.65039
358.9380, 117.4326
360.1390, 231.2188
361.3400, 250.0068
362.5400, 464.7832
363.7410, 336.5762
364.9410, 416.3857
366.1410, 564.2119
367.3410, 512.0557
368.5410, 425.9150
369.7410, 410.7900
370.9400, 285.5225
372.1400, 137.4307
373.3390, 298.3564
374.5380, 332.2773
375.7370, 174.3584
376.9360, 58.22656
378.1350, 139.0781
379.3330, 133.9160
380.5310, 241.7549
381.7300, 125.6133
382.9280, 152.6934
384.1260, 273.5859
385.3230, 201.4961
386.5210, 306.4209
387.7180, 252.3652
388.9160, 452.0635
390.1130, 492.3359
391.3100, 512.2305
392.5060, 568.0742
393.7030, 605.3203
394.9000, 699.3662
396.0960, 664.2412
397.2920, 556.8232
398.4880, 600.3848
399.6840, 387.9180
400.8800, 321.0459
402.0750, 275.9629
403.2710, 191.1436
404.4660, 198.0830
405.6610, 59.62012
406.8560, 220.8486
408.0510, 258.1006
409.2450, 295.3760
410.4400, 110.6738
411.6340, 184.8096
412.8280, 142.1504
414.0220, 314.5117
415.2160, 116.4365
416.4100, 284.1357
417.6030, 217.5527
418.7970, 275.9863
419.9900, 287.2637
421.1830, 453.3984
422.3760, 288.8828
423.5690, 513.3838
424.7610, 550.8994
425.9540, 575.4316
427.1460, 750.9785
428.3380, 771.5420
429.5300, 1012.119
430.7220, 1188.712
431.9140, 1517.319
433.1050, 1823.942
434.2970, 2326.578
435.4880, 3538.229
436.6790, 4774.896
437.8700, 7351.576
439.0610, 11371.27
440.2510, 16087.98
441.4420, 19822.71
442.6320, 23348.44
443.8220, 29279.19
445.0120, 38281.96
446.2020, 46514.89
447.3910, 50177.70
448.5810, 49443.50
449.7700, 46041.71
450.9600, 39347.53
452.1490, 30098.39
453.3370, 20890.48
454.5260, 13160.33
455.7150, 8445.226
456.9030, 5343.138
458.0910, 3957.990
459.2800, 2827.932
460.4670, 2236.773
461.6550, 1737.139
462.8430, 1576.320
464.0300, 1310.326
465.2180, 1176.349
466.4050, 1085.386
467.5920, 882.4395
468.7790, 781.5107
469.9650, 686.5967
471.1520, 592.7002
472.3380, 539.8203
473.5250, 459.9570
474.7110, 624.1113
475.8970, 435.2822
477.0820, 503.4707
478.2680, 478.6748
479.4540, 357.8965
480.6390, 332.1348
481.8240, 321.3916
483.0090, 303.6660
484.1940, 380.9570
485.3780, 420.3428
486.5630, 469.0986
487.7470, 587.4844
488.9320, 724.3643
490.1160, 820.7930
491.3000, 1072.252
492.4830, 1130.437
493.6670, 1278.820
494.8500, 1640.369
496.0340, 2034.842
497.2170, 2473.529
498.4000, 2500.041
499.5820, 2549.574
500.7650, 2063.126
501.9480, 1752.697
503.1300, 1347.289
504.3120, 920.9014
505.4940, 677.5342
506.6760, 319.1865
507.8580, 299.8584
509.0390, 236.5518
510.2210, 243.2666
511.4020, 78.00098
512.5830, 214.7559
513.7640, 280.5410
514.9450, 70.34668
516.1250, 244.1729
517.3060, 13.97852
518.4860, 47.87695
519.6660, 88.75391
520.8460, 205.6543
522.0260, 127.5742
523.2060, 137.6758
524.3850, 15.52148
525.5650, 27.45312
526.7440, 96.44727
527.9230, 30.46289
529.1020, 119.5020
530.2810, 37.43750
531.4590, 56.35156
532.6380, 11.26367
533.8160, 10.16406
534.9940, 1.947266
536.1720, 169.0801
537.3500, 42.76758
538.5270, 14.38477
539.7050, 138.4395
540.8820, 43.30469
542.0590, 95.82617
543.2360, 124.0176
544.4130, 4.101563
545.5900, 18.75977
546.7660, 7.390625
547.9430, 44.63086
549.1190, 129.6953
550.2950, 5.912109
551.4710, 79.15039
552.6470, 72.58789
553.8220, 29.66016
554.9980, 128.9316
556.1730, 68.77344
557.3480, 101.4883
558.5230, 21.77148
559.6980, 72.05469
560.8730, 75.63867
562.0470, 15.34570
563.2220, 184.9629
564.3960, 112.2969
565.5700, 147.6523
566.7440, 303.0293
567.9170, 256.4297
569.0910, 307.9531
570.2640, 158.2988
571.4380, 302.7695
572.6110, 269.2617
573.7840, 236.7773
574.9570, 463.3145
576.1290, 593.8770
577.3020, 544.4609
578.4740, 593.0684
579.6460, 768.6973
580.8180, 934.3516
581.9900, 984.0273
583.1620, 691.7285
584.3330, 705.4492
585.5040, 664.1992
586.6760, 463.9707
587.8470, 669.8047
589.0180, 465.6641
590.1880, 462.5449
591.3590, 605.4844
592.5290, 568.4766
593.7000, 743.4941
594.8700, 924.5781
596.0400, 1059.697
597.2090, 1378.854
598.3790, 1604.447
599.5490, 1869.758
600.7180, 2215.604
601.8870, 2462.922
603.0560, 2832.271
604.2250, 3184.674
605.3940, 3880.100
606.5620, 4268.551
607.7300, 4478.021
608.8990, 4792.518
610.0670, 4533.039
611.2350, 4321.582
612.4020, 3907.174
613.5700, 3607.793
614.7370, 3123.436
615.9050, 2583.107
617.0720, 2236.807
618.2390, 1845.527
619.4060, 1579.271
620.5720, 1420.066
621.7390, 1242.936
622.9050, 1184.828
624.0710, 1113.721
625.2370, 987.6895
626.4030, 1088.686
627.5690, 1078.713
628.7340, 1097.316
629.9000, 961.9004
631.0650, 1053.053
632.2300, 915.2422
633.3950, 870.4824
634.5600, 857.7461
635.7240, 923.0605
636.8890, 823.3945
638.0530, 945.7695
639.2170, 951.1660
640.3810, 1001.586
641.5450, 1111.045
642.7080, 1061.527
643.8720, 1055.033
645.0350, 912.5859
646.1980, 1056.164
647.3610, 1113.760
648.5240, 1297.381
649.6870, 1314.023
650.8490, 1654.691
652.0120, 1870.381
653.1740, 1871.094
654.3360, 2280.830
655.4980, 2731.592
656.6600, 3185.373
657.8210, 3844.975
658.9830, 4421.805
660.1440, 5203.652
661.3050, 5880.525
662.4660, 6641.422
663.6270, 7252.357
664.7870, 7687.109
665.9480, 7843.092
667.1080, 7597.113
668.2680, 7207.156
669.4280, 6687.221
670.5880, 5905.066
671.7480, 5159.918
672.9070, 4364.148
674.0670, 3681.471
675.2260, 3235.426
676.3850, 2611.623
677.5440, 2363.398
678.7030, 1890.639
679.8610, 1400.295
681.0200, 1507.164
682.1780, 996.4785
683.3360, 801.0410
684.4940, 981.3809
685.6520, 771.6562
686.8090, 673.0723
687.9670, 652.5117
689.1240, 533.0156
690.2810, 491.5410
691.4380, 376.0898
692.5950, 498.8457
693.7520, 351.4395
694.9080, 279.0547
696.0650, 464.1504
697.2210, 291.5098
698.3770, 428.1934
699.5330, 211.8984
700.6880, 289.7988
701.8440, 354.9961
702.9990, 187.7695
704.1550, 347.5625
705.3100, 218.3809
706.4650, 294.2207
707.6190, 406.1289
708.7740, 281.0137
709.9290, 520.9160
711.0830, 436.8457
712.2370, 333.7930
713.3910, 323.7656
714.5450, 302.7578
715.6980, 116.7715
716.8520, 199.8066
718.0050, 269.8652
719.1580, 159.9414
720.3110, 152.0391
721.4640, 269.1602
722.6170, 314.3008
723.7700, 169.8301
724.9220, 213.0117
726.0740, 204.5312
727.2260, 179.8262
728.3780, 167.0684
729.5300, 227.2715
730.6810, 274.4766
731.8330, 402.0547
732.9840, 143.0664
734.1350, 267.4043
735.2860, 104.6914
736.4370, 234.0410
737.5880, 97.46484
738.7380, 23.87305
739.8880, 228.3027
741.0390, 215.8340
742.1890, 156.6934
743.3380, 229.1680
744.4880, 278.6621
745.6380, 179.1699
746.7870, 173.6953
747.9360, 313.3926
749.0850, 214.9512
750.2340, 132.7441
751.3830, 404.3340
752.5310, 129.9336
753.6800, 591.4512
754.8280, 447.1133
755.9760, 224.7285
757.1240, 380.4336
758.2720, 445.0039
759.4190, 452.5273
760.5670, 470.2305
761.7140, 332.9473
762.8610, 472.7383
764.0080, 380.6699
765.1550, 509.5625
766.3020, 557.3281
767.4480, 403.1094
768.5950, 533.9004
769.7410, 574.7031
770.8870, 752.6016
772.0330, 828.4277
773.1780, 769.2637
774.3240, 906.1113
775.4690, 983.7188
776.6140, 1062.090
777.7590, 1259.971
778.9040, 1343.760
780.0490, 1544.701
781.1940, 1759.609
782.3380, 1936.809
783.4820, 2207.740
784.6260, 2442.680
785.7700, 2689.629
786.9140, 3306.586
788.0580, 3442.553
789.2010, 3773.529
790.3450, 3965.514
791.4880, 4059.139
792.6310, 4008.141
793.7730, 3981.461
794.9160, 3754.496
796.0590, 3397.533
797.2010, 3048.578
798.3430, 2768.629
799.4850, 2476.689
800.6270, 2120.822
801.7690, 1722.027
802.9100, 1496.578
804.0520, 1192.314
805.1930, 1181.652
806.3340, 1017.762
807.4750, 1003.879
808.6160, 879.4844
809.7560, 708.1699
810.8970, 665.3379
812.0370, 572.5156
813.1770, 500.6387
814.3170, 448.2305
815.4570, 341.0996
816.5960, 327.8945
817.7360, 374.1484
818.8750, 301.4180
820.0140, 149.6934
821.1530, 296.0020
822.2920, 300.3203
823.4310, 123.9688
824.5690, 145.2988
825.7070, 183.4902
826.8460, 126.8926
827.9840, 160.1777
829.1220, 139.5254
830.2590, 166.2090
831.3970, 189.5840
832.5340, 103.9609
833.6710, 179.3574
834.8080, 393.7773
835.9450, 165.2051
837.0820, 154.6348
838.2190, 19.08203
839.3550, 214.5371
840.4910, 117.9941
841.6270, 67.45312
842.7630, 43.91797
843.8990, 29.38281
845.0350, 53.26953
846.1700, 123.3340
847.3060, 120.8203
848.4410, 151.3066
849.5760, 147.7988
850.7100, 173.4297
851.8450, 176.5234
852.9800, 225.2754
854.1140, 179.1934
855.2480, 209.8809
856.3820, 204.7715
857.5160, 144.2715
858.6500, 107.7715
859.7830, 16.27344
860.9170, 104.7715
862.0500, 56.72852
863.1830, 41.73438
864.3160, 60.19531
865.4480, 66.33984
866.5810, 99.91992
867.7130, 26.44141
868.8460, 61.20312
869.9780, 197.1152
871.1100, 30.57031
872.2410, 65.27734
873.3730, 83.03125
874.5050, 187.1621
875.6360, 143.3574
876.7670, 47.55273
877.8980, 37.25586
879.0290, 83.90625
880.1590, 207.0684
881.2900, 299.2305
882.4200, 65.39258
883.5500, 42.55273
884.6800, 67.70898
885.8100, 84.13281
886.9400, 178.9707
888.0690, 65.07422
889.1990, 9.824219
890.3280, 113.2598
891.4570, 106.3418
892.5860, 59.42188
893.7140, 77.49414
894.8430, 176.4648
895.9710, 75.46094
897.1000, 215.3867
898.2280, 11.68945
899.3560, 3.214844
900.4830, 12.89453
901.6110, 76.97461
902.7380, 110.8438
903.8660, 126.7109
904.9930, 147.9492
906.1200, 56.44336
907.2460, 130.3066
908.3730, 102.1699
909.5000, 78.03125
910.6260, 177.8926
911.7520, 39.75000
912.8780, 220.6055
914.0040, 42.54102
915.1290, 62.27930
916.2550, 157.0938
917.3800, 66.09180
918.5050, 206.6777
919.6300, 278.4453
920.7550, 184.2109
921.8800, 165.9746
923.0040, 193.7363
924.1290, 154.4961
925.2530, 122.2559
926.3770, 17.01562
927.5010, 86.76562
928.6250, 35.26367
929.7480, 68.00977
930.8720, 144.7500
931.9950, 187.4922
933.1180, 217.2344
934.2410, 170.9707
935.3640, 45.29102
936.4860, 51.40820
937.6090, 24.10547
938.7310, 38.20312
939.8530, 39.61328
940.9750, 162.1055
942.0970, 120.7598
943.2180, 111.4062
944.3400, 164.0547
945.4610, 141.8926
946.5820, 226.3457
947.7030, 147.9902
948.8240, 248.6328
949.9450, 230.2715
951.0650, 4.089844
952.1860, 142.5293
953.3060, 174.1484
954.4260, 142.7676
955.5460, 294.3828
956.6650, 160.9961
957.7850, 17.39258
958.9040, 197.1953
960.0230, 144.2168
961.1420, 104.2832
962.2610, 326.7793
963.3800, 148.2754
964.4990, 26.76953
965.6170, 184.2559
966.7350, 76.74609
967.8530, 238.2285
968.9710, 169.7129
970.0890, 289.1934
971.2070, 361.6738
972.3240, 181.1504
973.4410, 210.5137
974.5580, 263.1113
975.6750, 162.5820
976.7920, 195.0508
977.9090, 113.5195
979.0250, 124.9277
980.1410, 214.5527
981.2580, 101.1016
982.3740, 276.5586
983.4890, 172.0176
984.6050, 363.4746
985.7200, 460.9277
986.8360, 705.3809
987.9510, 530.8301
989.0660, 398.2812
990.1810, 291.7305
991.2950, 377.1758
992.4100, 291.6211
993.5240, 167.0645
994.6390, 326.1367
995.7530, 224.5977
996.8660, 217.7422
997.9800, 411.1367
999.0940, 357.6035
1000.207, 580.1465
1001.320, 413.7051
1002.433, 179.9121
1003.546, 175.7051
1004.659, 101.6172
1005.772, 93.74219
1006.884, 180.2520
1007.996, 114.7070
1009.108, 303.1914
1010.220, 164.6777
1011.332, 238.0801
1012.444, 351.1836
1013.555, 253.6875
1014.666, 54.19336
1015.777, 378.7012
1016.888, 126.2109
1017.999, 321.5840
1019.110, 298.1133
1020.220, 227.4453
1021.331, 166.0020
1022.441, 98.56836
1023.551, 308.2637
1024.661, 420.8594
1025.770, 248.4531
1026.880, 79.01367
1027.989, 107.7207
1029.098, 141.4941
1030.207, 232.1016
1031.316, 212.7168
1032.425, 94.27539
1033.533, 315.7070
1034.642, 274.1953
1035.750, 169.8262
1036.858, 356.4629
1037.966, 320.1035
1039.073, 167.7480
1040.181, 10.31445
1041.288, 223.9668
1042.396, 157.6348
1043.503, 206.3047
1044.610, 184.9805
1045.716, 151.4238
1046.823, 261.1211
1047.929, 230.9258
1049.036, 207.5938
1050.142, 103.3066
1051.248, 179.7520
1052.353, 152.4824
1053.459, 144.2188
1054.564, 165.9727
1055.670, 173.4395
1056.775, 99.49414
1057.880, 236.2637
1058.985, 240.0410
1060.089, 288.1895
1061.194, 33.02148
1062.298, 212.4629
1063.402, 64.24414
1064.506, 243.0469
1065.610, 145.8574
1066.713, 201.6738
1067.817, 94.49805
1068.920, 68.26172
1070.023, 236.9707
1071.126, 152.3477
1072.229, 196.5605
1073.332, 294.1875
1074.435, 237.0527
1075.537, 60.92773
1076.639, 303.8105
1077.741, 165.6992
1078.843, 413.5957
1079.945, 240.5000
1081.046, 382.4160
1082.148, 573.3359
1083.249, 898.2656
1084.350, 1758.619
1085.451, 1461.475
1086.551, 2188.521
1087.652, 1129.482
1088.752, 706.4512
1089.853, 372.4297
1090.953, 294.0977
1092.053, 231.0957
1093.152, 384.2461
1094.252, 95.25781
1095.351, 194.2832
1096.451, 172.3164
1097.550, 243.0430
1098.649, 266.7734
1099.748, 49.15625
1100.846, 319.2305
1101.945, 125.3086
1103.043, 144.4004
1104.141, 355.5020
1105.239, 242.6113
1106.337, 11.26758
1107.434, 133.8633
1108.532, 169.0039
1109.629, 41.15234
1110.726, 104.3125
1111.823, 95.51758
1112.920, 8.365234
1114.017, 28.79688
1115.113, 78.96875
1116.210, 375.1504
1117.306, 406.3633
1118.402, 255.6074
1119.498, 753.8594
1120.593, 805.1230
1121.689, 856.3984
1122.784, 691.6816
1123.879, 664.9766
1124.974, 693.2832
1126.069, 586.5996
1127.164, 430.3242
1128.259, 470.6660
1129.353, 436.8496
1130.447, 163.2285
1131.541, 50.20508
1132.635, 227.0938
1133.729, 195.5586
1134.822, 10.03320
1135.916, 104.5430
1137.009, 166.0605
1138.102, 180.6035
1139.195, 392.1777
1140.288, 216.7891
1141.380, 61.41406
1142.473, 302.0449
1143.565, 236.3242
1144.657, 274.9941
1145.749, 178.6758
1146.841, 119.3652
1147.932, 311.0684
1149.024, 217.5352
1150.115, 226.2578
1151.206, 138.9395
1152.297, 173.3438
1153.388, 172.4062
1154.479, 112.9160
1155.569, 215.7266
1156.659, 253.5469
1157.750, 260.3750
1158.839, 341.2148
1159.929, 282.0918
1161.019, 348.0293
1162.108, 276.9766
1163.198, 351.9336
1164.287, 330.9082
1165.376, 454.9160
1166.465, 341.9434
1167.553, 585.9805
1168.642, 515.0332
1169.730, 547.1035
1170.818, 550.1875
1171.906, 635.2773
1172.994, 420.7285
1174.082, 539.8398
1175.170, 731.9609
1176.257, 990.6348
1177.344, 815.7773
1178.431, 1108.930
1179.518, 1202.107
1180.605, 1536.297
1181.691, 1857.615
1182.778, 2118.848
1183.864, 2818.094
1184.950, 3312.102
1186.036, 3959.367
1187.122, 5103.639
1188.207, 6109.926
1189.292, 7030.219
1190.378, 8119.525
1191.463, 8720.840
1192.548, 9337.418
1193.632, 9651.756
1194.717, 9319.102
1195.801, 8950.461
1196.886, 7895.828
1197.970, 6612.205
1199.054, 5415.592
1200.137, 4585.006
1201.221, 3515.432
1202.305, 2808.867
1203.388, 2200.328
1204.471, 1887.801
1205.554, 1630.285
1206.637, 1378.777
1207.719, 1178.109
1208.802, 992.2207
1209.884, 832.3105
1210.966, 723.8398
1212.048, 556.3809
1213.130, 517.9297
1214.212, 416.4902
1215.293, 670.0684
1216.374, 250.6543
1217.456, 519.2480
1218.536, 221.8516
1219.617, 438.4648
1220.698, 245.0898
1221.778, 259.7324
1222.859, 272.3828
1223.939, 104.0879
1225.019, 265.8027
1226.099, 97.52344
1227.178, 376.2539
1228.258, 294.9980
1229.337, 360.7480
1230.417, 174.5098
1231.496, 15.27734
1232.574, 195.0547
1233.653, 234.8398
1234.732, 222.6348
1235.810, 226.4395
1236.888, 204.1289
1237.966, 214.9512
1239.044, 187.7832
1240.122, 200.0938
1241.199, 184.4727
1242.277, 217.1816
1243.354, 165.9590
1244.431, 173.8340
1245.508, 329.7188
1246.585, 268.6523
1247.661, 273.6543
1248.738, 244.4316
1249.814, 210.3477
1250.890, 125.2754
1251.966, 175.2070
1253.042, 66.14844
1254.117, 155.0977
1255.193, 9.054688
1256.268, 82.98047
1257.343, 54.95508
1258.418, 38.10352
1259.493, 111.8301
1260.567, 68.23047
1261.642, 9.314453
1262.716, 149.6035
1263.790, 96.53125
1264.864, 100.5410
1265.938, 79.48242
1267.011, 85.42969
1268.085, 41.38672
1269.158, 71.34766
1270.231, 213.3164
1271.304, 74.29297
1272.377, 49.72461
1273.450, 149.2402
1274.522, 115.2148
1275.594, 125.1914
1276.666, 107.1777
1277.738, 67.83203
1278.810, 163.1328
1279.882, 87.89453
1280.953, 10.95898
1282.025, 20.02344
1283.096, 87.09180
1284.167, 114.8027
1285.238, 13.70508
1286.308, 244.6094
1287.379, 42.52344
1288.449, 17.44531
1289.519, 29.36914
