##NAMES=Diaspore
##RRUFFID=R060287
##IDEAL CHEMISTRY=AlO(OH)
##LOCALITY=Selcuk, Mugla Province, Turkey
##OWNER=RRUFF
##SOURCE=Herb Obodda
##DESCRIPTION=Colorless transparent platy fragment
##STATUS=The identification of this mineral has been confirmed by X-ray diffraction and chemical analysis
##URL=rruff.info/R060287
##MEASURED CHEMISTRY=(Al_0.99_Fe^3+^_0.01_)_Î£=1_O(OH) ; trace amounts of Ti;  OH estimated by difference ; Fe^3+^ by charge balance
##PIN_ID=L01505
##ORIENTATION=Laser parallel to b* (0 1 0). Fiducial mark perpendicular to laser is parallel to c [0 0 1]
132.8980, 0.0000000E+00
134.1270, 21.84131
135.3560, 1.802490
136.5850, 5.088135
137.8140, 56.29077
139.0430, 21.57300
140.2710, 55.39697
141.5000, 88.05176
142.7280, 170.8694
143.9560, 133.2253
145.1840, 247.7654
146.4120, 269.5476
147.6390, 470.5989
148.8670, 516.8076
150.0940, 736.7974
151.3210, 1029.181
152.5490, 1760.694
153.7750, 2841.176
155.0020, 5393.623
156.2290, 9208.146
157.4550, 11031.95
158.6810, 8909.659
159.9080, 5440.496
161.1340, 2971.101
162.3590, 1618.645
163.5850, 972.4292
164.8110, 743.1538
166.0360, 591.8296
167.2610, 525.6353
168.4860, 391.5747
169.7110, 379.7063
170.9360, 433.1128
172.1610, 462.8723
173.3850, 283.0530
174.6100, 440.8413
175.8340, 392.1921
177.0580, 348.3325
178.2820, 464.9807
179.5050, 342.9185
180.7290, 414.0703
181.9520, 465.1406
183.1760, 453.1841
184.3990, 514.1821
185.6220, 500.2378
186.8450, 660.3342
188.0670, 683.8872
189.2900, 763.3550
190.5120, 758.7017
191.7340, 631.4746
192.9560, 537.9956
194.1780, 628.3105
195.4000, 569.9688
196.6220, 531.8823
197.8430, 510.4355
199.0640, 407.7969
200.2860, 517.6504
201.5070, 523.5698
202.7270, 437.8293
203.9480, 436.7483
205.1690, 373.6794
206.3890, 344.6377
207.6090, 306.6746
208.8290, 264.7944
210.0490, 239.9309
211.2690, 242.2888
212.4890, 203.6575
213.7080, 200.1016
214.9280, 224.6165
216.1470, 170.1978
217.3660, 146.8403
218.5850, 124.5391
219.8030, 185.2898
221.0220, 90.08691
222.2400, 133.9255
223.4590, 109.8008
224.6770, 32.70874
225.8950, 44.64502
227.1120, 33.60742
228.3300, 58.40771
229.5480, 0.4021000
230.7650, 43.61865
231.9820, 7.350342
233.1990, 5.685547
234.4160, 49.27808
235.6330, 37.75342
236.8490, 12.22290
238.0660, 56.21021
239.2820, 44.79102
240.4980, 14.21851
241.7140, 23.23828
242.9300, 16.26782
244.1460, 49.10474
245.3610, 34.35425
246.5770, 53.40967
247.7920, 25.47363
249.0070, 23.45215
250.2220, 67.63306
251.4370, 1.730469
252.6510, 5.145264
253.8660, 71.03540
255.0800, 43.28589
256.2940, 18.58643
257.5080, 10.95874
258.7220, 233.6274
259.9360, 335.1702
261.1490, 307.6599
262.3630, 72.13770
263.5760, 72.30347
264.7890, 58.84814
266.0020, 56.45264
267.2150, 42.97290
268.4270, 88.41284
269.6400, 62.88696
270.8520, 87.36475
272.0640, 157.8394
273.2760, 177.3091
274.4880, 202.7764
275.7000, 237.5806
276.9120, 171.7144
278.1230, 261.1882
279.3340, 216.5996
280.5450, 181.2517
281.7560, 211.0352
282.9670, 229.8513
284.1780, 237.8042
285.3880, 323.8005
286.5980, 317.8235
287.8090, 274.8582
289.0190, 348.8950
290.2290, 378.9265
291.4380, 481.9465
292.6480, 378.9485
293.8570, 485.9275
295.0670, 436.8774
296.2760, 421.7944
297.4850, 547.6765
298.6930, 502.5229
299.9020, 493.3335
301.1110, 477.1084
302.3190, 560.8472
303.5270, 532.5435
304.7350, 609.1934
305.9430, 583.7920
307.1510, 595.3357
308.3580, 613.8208
309.5660, 649.2451
310.7730, 756.6094
311.9800, 613.9180
313.1870, 626.1750
314.3940, 794.3840
315.6010, 764.5483
316.8070, 832.6714
318.0130, 944.7559
319.2200, 1053.804
320.4260, 1142.818
321.6310, 1269.794
322.8370, 1504.735
324.0430, 1669.642
325.2480, 1944.490
326.4540, 2533.217
327.6590, 3182.875
328.8640, 4374.448
330.0680, 6507.927
331.2730, 9848.280
332.4780, 14090.58
333.6820, 16411.78
334.8860, 14955.87
336.0900, 10975.85
337.2940, 7227.755
338.4980, 4534.612
339.7010, 3065.353
340.9050, 2228.037
342.1080, 1600.726
343.3110, 1433.416
344.5140, 1115.104
345.7170, 1000.787
346.9200, 909.4695
348.1220, 714.1553
349.3240, 736.8455
350.5270, 622.5396
351.7290, 539.2380
352.9310, 625.9399
354.1320, 483.6458
355.3340, 421.3545
356.5350, 451.0664
357.7370, 327.7803
358.9380, 347.4966
360.1390, 312.2148
361.3400, 287.8977
362.5400, 325.4902
363.7410, 303.9961
364.9410, 190.7192
366.1410, 244.0139
367.3410, 202.5771
368.5410, 250.0447
369.7410, 255.4863
370.9400, 158.2388
372.1400, 237.7542
373.3390, 169.1831
374.5380, 235.2820
375.7370, 97.08594
376.9360, 102.8064
378.1350, 133.4009
379.3330, 117.5461
380.5310, 121.5691
381.7300, 187.3340
382.9280, 216.8877
384.1260, 261.8223
385.3230, 388.3081
386.5210, 299.5649
387.7180, 164.1233
388.9160, 251.4998
390.1130, 55.62476
391.3100, 37.15039
392.5060, 1.748535
393.7030, 30.85815
394.9000, 86.19849
396.0960, 98.19946
397.2920, 26.48242
398.4880, 65.48315
399.6840, 29.93384
400.8800, 102.7903
402.0750, 75.19971
403.2710, 127.0623
404.4660, 131.1194
405.6610, 108.8640
406.8560, 133.3315
408.0510, 194.8062
409.2450, 224.1802
410.4400, 139.5464
411.6340, 293.7935
412.8280, 149.3755
414.0220, 246.8325
415.2160, 214.4258
416.4100, 239.1899
417.6030, 309.9570
418.7970, 339.7271
419.9900, 287.5015
421.1830, 427.2788
422.3760, 411.0601
423.5690, 430.8369
424.7610, 534.6094
425.9540, 591.3760
427.1460, 667.1367
428.3380, 610.8916
429.5300, 711.6396
430.7220, 852.3818
431.9140, 1035.118
433.1050, 1105.847
434.2970, 1305.569
435.4880, 1423.286
436.6790, 1849.996
437.8700, 2350.700
439.0610, 2884.398
440.2510, 3645.091
441.4420, 4515.778
442.6320, 5701.460
443.8220, 7935.137
445.0120, 11397.80
446.2020, 17785.47
447.3910, 29471.13
448.5810, 46680.79
449.7700, 59818.44
450.9600, 58592.10
452.1490, 44465.73
453.3370, 27821.38
454.5260, 16263.03
455.7150, 9921.661
456.9030, 6516.297
458.0910, 4635.929
459.2800, 3538.561
460.4670, 2894.188
461.6550, 2434.815
462.8430, 2082.441
464.0300, 1933.066
465.2180, 1804.689
466.4050, 1569.312
467.5920, 1391.934
468.7790, 1310.556
469.9650, 1369.177
471.1520, 1237.799
472.3380, 1184.422
473.5250, 1173.047
474.7110, 1034.673
475.8970, 1082.302
477.0820, 1014.933
478.2680, 932.5669
479.4540, 968.2051
480.6390, 796.8477
481.8240, 841.4941
483.0090, 859.1450
484.1940, 705.8018
485.3780, 840.4629
486.5630, 680.1299
487.7470, 726.8018
488.9320, 885.4790
490.1160, 823.1611
491.3000, 833.8481
492.4830, 1068.542
493.6670, 1029.239
494.8500, 1276.943
496.0340, 1593.652
497.2170, 2080.366
498.4000, 3116.085
499.5820, 4720.810
500.7650, 5721.539
501.9480, 5265.277
503.1300, 3757.018
504.3120, 2345.763
505.4940, 1414.515
506.6760, 795.2739
507.8580, 705.0381
509.0390, 497.8091
510.2210, 334.5874
511.4020, 369.3716
512.5830, 312.1675
513.7640, 225.9736
514.9450, 166.7905
516.1250, 77.63965
517.3060, 48.50684
518.4860, 87.38281
519.6660, 1.279297
520.8460, 70.18896
522.0260, 5.871582
523.2060, 27.92578
524.3850, 37.97217
525.5650, 64.99512
526.7440, 7.971680
527.9230, 7.031250
529.1020, 45.01611
530.2810, 91.00098
531.4590, 56.00049
532.6380, 113.0015
533.8160, 62.09180
534.9940, 9.320801
536.1720, 91.78174
537.3500, 115.8149
538.5270, 30.88867
539.7050, 40.06592
540.8820, 84.12158
542.0590, 7.258301
543.2360, 114.3110
544.4130, 27.40137
545.5900, 8.477051
546.7660, 58.44922
547.9430, 201.3818
549.1190, 187.3306
550.2950, 357.2871
551.4710, 677.2563
552.6470, 1212.235
553.8220, 1813.223
554.9980, 2085.231
556.1730, 1971.267
557.3480, 1657.338
558.5230, 1152.441
559.6980, 814.5688
560.8730, 583.7207
562.0470, 440.8965
563.2220, 294.0986
564.3960, 339.3252
565.5700, 209.5747
566.7440, 273.8496
567.9170, 216.1470
569.0910, 212.4771
570.2640, 239.8184
571.4380, 215.1807
572.6110, 246.5518
573.7840, 280.9375
574.9570, 234.3315
576.1290, 238.7344
577.3020, 255.1650
578.4740, 188.6025
579.6460, 227.8433
580.8180, 351.5059
581.9900, 267.9712
583.1620, 337.4434
584.3330, 381.9263
585.5040, 409.4165
586.6760, 437.9146
587.8470, 441.4185
589.0180, 457.9297
590.1880, 503.4482
591.3590, 471.9741
592.5290, 510.5068
593.7000, 591.0464
594.8700, 558.5933
596.0400, 590.1479
597.2090, 675.7090
598.3790, 623.2773
599.5490, 652.8525
600.7180, 715.4355
601.8870, 698.0254
603.0560, 878.6226
604.2250, 793.2266
605.3940, 897.8374
606.5620, 1020.456
607.7300, 1009.082
608.8990, 1108.714
610.0670, 1296.353
611.2350, 1075.000
612.4020, 1203.654
613.5700, 1170.315
614.7370, 1043.982
615.9050, 1028.657
617.0720, 838.3384
618.2390, 832.0278
619.4060, 833.7236
620.5720, 884.4263
621.7390, 877.1362
622.9050, 911.8525
624.0710, 800.5757
625.2370, 826.3057
626.4030, 804.0425
627.5690, 852.7861
628.7340, 821.1680
629.9000, 811.2935
631.0650, 753.0571
632.2300, 768.8267
633.3950, 688.6030
634.5600, 714.3867
635.7240, 695.1763
636.8890, 803.9722
638.0530, 770.4614
639.2170, 756.5835
640.3810, 764.3984
641.5450, 752.2197
642.7080, 748.0474
643.8720, 725.8809
645.0350, 820.7207
646.1980, 802.5659
647.3610, 766.4180
648.5240, 877.2754
649.6870, 927.1392
650.8490, 854.0093
652.0120, 921.8843
653.1740, 918.7656
654.3360, 1026.652
655.4980, 1166.545
656.6600, 1288.443
657.8210, 1569.347
658.9830, 1779.256
660.1440, 2128.122
661.3050, 2586.041
662.4660, 3038.694
663.6270, 3527.385
664.7870, 4184.561
665.9480, 4615.498
667.1080, 5047.442
668.2680, 5109.082
669.4280, 4918.890
670.5880, 4459.854
671.7480, 3891.025
672.9070, 3278.634
674.0670, 2659.453
675.2260, 2322.434
676.3850, 1734.434
677.5440, 1524.942
678.7030, 1255.616
679.8610, 1000.864
681.0200, 795.4160
682.1780, 513.1479
683.3360, 477.9448
684.4940, 427.2144
685.6520, 265.9312
686.8090, 225.0356
687.9670, 233.7275
689.1240, 154.0371
690.2810, 230.8936
691.4380, 92.06348
692.5950, 150.5117
693.7520, 108.3198
694.9080, 49.72070
696.0650, 35.53125
697.2210, 19.80371
698.3770, 94.46338
699.5330, 12.86230
700.6880, 120.7285
701.8440, 124.4438
702.9990, 163.5410
704.1550, 222.5127
705.3100, 173.7861
706.4650, 133.4717
707.6190, 181.7710
708.7740, 190.6938
709.9290, 157.1196
711.0830, 133.6431
712.2370, 222.5264
713.3910, 208.9102
714.5450, 144.3569
715.6980, 128.3276
716.8520, 352.5757
718.0050, 317.7295
719.1580, 352.2446
720.3110, 401.4106
721.4640, 289.5757
722.6170, 314.5508
723.7700, 310.7139
724.9220, 319.8760
726.0740, 355.0039
727.2260, 419.1973
728.3780, 415.3555
729.5300, 509.5127
730.6810, 521.6689
731.8330, 498.8232
732.9840, 488.9761
734.1350, 547.1274
735.2860, 553.2778
736.4370, 568.4268
737.5880, 559.5737
738.7380, 576.7197
739.8880, 592.1323
741.0390, 607.5430
742.1890, 637.1455
743.3380, 673.2837
744.4880, 707.4199
745.6380, 782.5542
746.7870, 718.6865
747.9360, 736.8174
749.0850, 687.9458
750.2340, 751.0718
751.3830, 705.1953
752.5310, 809.3169
753.6800, 798.6982
754.8280, 786.5527
755.9760, 808.6665
757.1240, 768.7778
758.2720, 734.8877
759.4190, 858.9941
760.5670, 803.0977
761.7140, 877.1987
762.8610, 919.2969
764.0080, 778.3921
765.1550, 764.4839
766.3020, 950.5737
767.4480, 732.6602
768.5950, 785.7432
769.7410, 817.8228
770.8870, 716.8994
772.0330, 788.9727
773.1780, 758.0430
774.3240, 791.1094
775.4690, 762.1719
776.6140, 848.2314
777.7590, 682.2876
778.9040, 788.3398
780.0490, 690.3877
781.1940, 789.4326
782.3380, 724.4736
783.4820, 611.5107
784.6260, 682.5435
785.7700, 740.5723
786.9140, 621.5972
788.0580, 646.6182
789.2010, 613.6343
790.3450, 586.6465
791.4880, 622.6548
792.6310, 582.6587
793.7730, 482.6582
794.9160, 543.6528
796.0590, 410.6431
797.2010, 446.6289
798.3430, 412.6108
799.4850, 431.5884
800.6270, 342.5630
801.7690, 397.5391
802.9100, 310.5186
804.0520, 372.4932
805.1930, 229.4639
806.3340, 186.4307
807.4750, 251.4028
808.6160, 203.3926
809.7560, 138.3896
810.8970, 290.4097
812.0370, 142.4390
813.1770, 110.4634
814.3170, 195.5049
815.4570, 105.5693
816.5960, 47.63428
817.7360, 156.7021
818.8750, 81.78516
820.0140, 30.86426
821.1530, 56.03564
822.2920, 72.02539
823.4310, 41.08301
824.5690, 11.86523
825.7070, 17.16406
826.8460, 2.184082
827.9840, 33.18994
829.1220, 13.09180
830.2590, 27.82373
831.3970, 52.86719
832.5340, 90.92920
833.6710, 78.09814
834.8080, 43.11865
835.9450, 50.10156
837.0820, 41.39746
838.2190, 54.73291
839.3550, 44.70117
840.4910, 42.54150
841.6270, 46.30957
842.7630, 36.81982
843.8990, 78.36816
845.0350, 8.498535
846.1700, 32.12549
847.3060, 21.21338
848.4410, 7.458496
849.5760, 28.84570
850.7100, 25.14062
851.8450, 56.57520
852.9800, 54.08740
854.1140, 85.31396
855.2480, 1.533203
856.3820, 101.6030
857.5160, 119.7944
858.6500, 13.97852
859.7830, 187.1465
860.9170, 139.3071
862.0500, 116.4604
863.1830, 192.6069
864.3160, 267.7451
865.4480, 142.8760
866.5810, 207.9990
867.7130, 283.1484
868.8460, 199.2905
869.9780, 318.4248
871.1100, 309.5645
872.2410, 224.6968
873.3730, 354.8325
874.5050, 340.9614
875.6360, 379.0864
876.7670, 331.2046
877.8980, 435.3149
879.0290, 450.4189
880.1590, 447.5161
881.2900, 412.6064
882.4200, 495.6895
883.5500, 600.7739
884.6800, 597.8506
885.8100, 544.9204
886.9400, 575.9834
888.0690, 525.0469
889.1990, 562.1025
890.3280, 632.1582
891.4570, 568.2065
892.5860, 572.2490
893.7140, 614.2842
894.8430, 681.3120
895.9710, 780.3340
897.1000, 733.3486
898.2280, 800.3569
899.3560, 733.3584
900.4830, 694.3540
901.6110, 698.3423
902.7380, 825.3242
903.8660, 809.2998
904.9930, 811.2686
906.1200, 848.2314
907.2460, 682.1870
908.3730, 766.1357
909.5000, 865.0791
910.6260, 746.0151
911.7520, 797.9453
912.8780, 896.8687
914.0040, 662.7852
915.1290, 835.6963
916.2550, 724.6006
917.3800, 763.4980
918.5050, 850.3901
919.6300, 833.2754
920.7550, 785.1543
921.8800, 699.0273
923.0040, 781.8936
924.1290, 750.7539
925.2530, 712.6079
926.3770, 687.4565
927.5010, 682.2397
928.6250, 635.1343
929.7480, 682.9639
930.8720, 755.7876
931.9950, 757.6055
933.1180, 750.2930
934.2410, 704.2231
935.3640, 666.0234
936.4860, 639.8169
937.6090, 614.3828
938.7310, 653.3867
939.8530, 588.1631
940.9750, 550.9336
942.0970, 551.6982
943.2180, 458.4565
944.3400, 450.2100
945.4610, 498.9565
946.5820, 465.6973
947.7030, 361.4316
948.8240, 489.1602
949.9450, 331.8828
951.0650, 349.5986
952.1860, 291.2871
953.3060, 350.9907
954.4260, 355.6880
955.5460, 371.2788
956.6650, 267.5986
957.7850, 198.2773
958.9040, 206.3525
960.0230, 105.9014
961.1420, 182.3008
962.2610, 195.1533
963.3800, 161.6914
964.4990, 204.9507
965.6170, 117.8501
966.7350, 44.15479
967.8530, 192.0503
968.9710, 24.26855
970.0890, 11.48389
971.2070, 80.80420
972.3240, 74.62354
973.4410, 114.5933
974.5580, 132.7007
975.6750, 27.10742
976.7920, 113.2935
977.9090, 68.28174
979.0250, 13.34424
980.1410, 46.40186
981.2580, 68.64502
982.3740, 8.788574
983.4890, 134.5723
984.6050, 62.85449
985.7200, 81.07227
986.8360, 97.23486
987.9510, 47.15723
989.0660, 32.64014
990.1810, 57.23730
991.2950, 84.21973
992.4100, 55.67676
993.5240, 165.3232
994.6390, 122.7793
995.7530, 28.23633
996.8660, 84.69287
997.9800, 52.14990
999.0940, 99.60693
1000.207, 120.0640
1001.320, 190.2969
1002.433, 208.7544
1003.546, 281.2109
1004.659, 287.0156
1005.772, 168.8784
1006.884, 265.7124
1007.996, 266.1689
1009.108, 176.4868
1010.220, 388.9590
1011.332, 218.4399
1012.444, 220.9224
1013.555, 378.5562
1014.666, 402.0376
1015.777, 338.5225
1016.888, 509.8379
1017.999, 369.3237
1019.110, 299.8247
1020.220, 538.3257
1021.331, 547.3398
1022.441, 573.8623
1023.551, 563.7354
1024.661, 591.2563
1025.770, 559.8438
1026.880, 619.4287
1027.989, 623.0137
1029.098, 610.5991
1030.207, 713.1851
1031.316, 590.7739
1032.425, 705.3638
1033.533, 773.9541
1034.642, 702.5449
1035.750, 728.1372
1036.858, 745.7310
1037.966, 812.3267
1039.073, 955.9229
1040.181, 838.5200
1041.288, 910.1191
1042.396, 1119.719
1043.503, 1063.320
1044.610, 1209.922
1045.716, 1350.525
1046.823, 1441.129
1047.929, 1635.735
1049.036, 1988.344
1050.142, 2085.953
1051.248, 1918.564
1052.353, 1806.176
1053.459, 1461.791
1054.564, 1246.406
1055.670, 1318.023
1056.775, 1055.643
1057.880, 1002.264
1058.985, 881.8862
1060.089, 868.5107
1061.194, 838.4082
1062.298, 884.7661
1063.402, 856.3965
1064.506, 856.0283
1065.610, 909.6631
1066.713, 797.2993
1067.817, 824.9380
1068.920, 885.5791
1070.023, 798.2212
1071.126, 726.8667
1072.229, 818.5137
1073.332, 704.1641
1074.435, 824.8154
1075.537, 772.4702
1076.639, 739.1265
1077.741, 729.7861
1078.843, 900.4473
1079.945, 766.1108
1081.046, 683.7773
1082.148, 784.4463
1083.249, 647.1182
1084.350, 650.7925
1085.451, 737.4692
1086.551, 650.1484
1087.652, 687.8311
1088.752, 688.5161
1089.853, 578.2246
1090.953, 548.9346
1092.053, 575.6484
1093.152, 528.3730
1094.252, 540.1025
1095.351, 679.8389
1096.451, 411.5791
1097.550, 326.3242
1098.649, 490.0850
1099.748, 339.8428
1100.846, 229.6572
1101.945, 378.3291
1103.043, 386.9258
1104.141, 321.8125
1105.239, 353.7207
1106.337, 152.6519
1107.434, 222.6040
1108.532, 224.8784
1109.629, 297.8730
1110.726, 345.8882
1111.823, 171.4565
1112.920, 126.5098
1114.017, 236.5806
1115.113, 281.6577
1116.210, 240.7471
1117.306, 269.8408
1118.402, 293.9399
1119.498, 289.6367
1120.593, 373.7651
1121.689, 388.8979
1122.784, 303.1709
1123.879, 397.3184
1124.974, 391.4702
1126.069, 223.6299
1127.164, 101.7939
1128.259, 188.9624
1129.353, 130.1348
1130.447, 106.3110
1131.541, 5.491699
1132.635, 137.3242
1133.729, 31.79785
1134.822, 10.92334
1135.916, 56.94629
1137.009, 72.16211
1138.102, 50.72412
1139.195, 42.37109
1140.288, 23.13184
1141.380, 1.962891
1142.473, 6.458984
1143.565, 54.56152
1144.657, 5.333008
1145.749, 4.773926
1146.841, 5.542969
1147.932, 38.34229
1149.024, 93.75830
1150.115, 31.30273
1151.206, 88.41064
1152.297, 29.17822
1153.388, 152.3115
1154.479, 26.58496
1155.569, 120.9697
1156.659, 136.5254
1157.750, 210.9492
1158.839, 130.0527
1159.929, 349.1582
1161.019, 194.2661
1162.108, 214.8589
1163.198, 414.0044
1164.287, 231.1338
1165.376, 264.2656
1166.465, 302.5098
1167.553, 391.8979
1168.642, 224.0830
1169.730, 454.2817
1170.818, 273.4985
1171.906, 313.7227
1172.994, 453.9531
1174.082, 411.1860
1175.170, 455.4307
1176.257, 567.6777
1177.344, 570.9263
1178.431, 536.1768
1179.518, 575.4292
1180.605, 616.6890
1181.691, 664.9526
1182.778, 673.2188
1183.864, 736.4863
1184.950, 859.7559
1186.036, 1034.638
1187.122, 1190.301
1188.207, 1511.576
1189.292, 1795.853
1190.378, 2077.132
1191.463, 2211.413
1192.548, 2191.696
1193.632, 1726.980
1194.717, 1429.266
1195.801, 1422.555
1196.886, 1172.844
1197.970, 1063.136
1199.054, 1072.430
1200.137, 932.7251
1201.221, 778.0220
1202.305, 931.3203
1203.388, 767.6206
1204.471, 753.9229
1205.554, 901.2261
1206.637, 676.5317
1207.719, 717.8389
1208.802, 721.1475
1209.884, 687.4575
1210.966, 686.5674
1212.048, 668.8394
1213.130, 658.3975
1214.212, 639.7144
1215.293, 685.0322
1216.374, 681.3516
1217.456, 734.6733
1218.536, 688.9956
1219.617, 689.5962
1220.698, 666.9785
1221.778, 637.9712
1222.859, 628.2993
1223.939, 594.6284
1225.019, 644.9585
1226.099, 598.2905
1227.178, 537.6226
1228.258, 679.9565
1229.337, 543.2915
1230.417, 516.6270
1231.496, 500.9639
1232.574, 565.3115
1233.653, 532.5078
1234.732, 543.0200
1235.810, 552.3755
1236.888, 474.7310
1237.966, 528.0864
1239.044, 488.4502
1240.122, 466.8135
1241.199, 407.1768
1242.277, 493.5430
1243.354, 384.9087
1244.431, 477.2734
1245.508, 331.6382
1246.585, 350.0020
1247.661, 392.3647
1248.738, 241.7256
1249.814, 262.1094
1250.890, 297.4917
1251.966, 346.8726
1253.042, 238.2646
1254.117, 316.6553
1255.193, 179.0439
1256.268, 188.4307
1257.343, 328.8164
1258.418, 220.1992
1259.493, 77.58008
1260.567, 129.9600
1261.642, 147.3379
1262.716, 156.9375
1263.790, 148.3120
1264.864, 52.68457
1265.938, 93.30176
1267.011, 136.6714
1268.085, 153.6631
1269.158, 26.96973
1270.231, 27.52344
1271.304, 43.13818
1272.377, 87.17334
1273.450, 102.4829
1274.522, 64.63965
1275.594, 0.9467770
1276.666, 61.24512
1277.738, 57.71289
1278.810, 43.99121
1279.882, 41.27246
1280.953, 57.46533
1282.025, 4.263672
1283.096, 38.48096
1284.167, 61.14111
1285.238, 76.95898
1286.308, 58.83154
1287.379, 113.2563
1288.449, 29.34277
1289.519, 32.42773
1290.589, 2.511719
1291.659, 17.01514
1292.729, 63.09033
1293.798, 51.16357
1294.868, 18.82715
1295.937, 15.85742
1297.006, 102.0918
1298.075, 89.24463
1299.143, 129.5913
1300.212, 126.7192
1301.280, 130.7290
1302.348, 96.78271
1303.416, 107.9995
1304.484, 124.0493
1305.552, 134.4229
1306.620, 204.1421
