##NAMES=Diaspore
##RRUFFID=R060287
##IDEAL CHEMISTRY=AlO(OH)
##LOCALITY=Selcuk, Mugla Province, Turkey
##OWNER=RRUFF
##SOURCE=Herb Obodda
##DESCRIPTION=Colorless transparent platy fragment
##STATUS=The identification of this mineral has been confirmed by X-ray diffraction and chemical analysis
##URL=rruff.info/R060287
##MEASURED CHEMISTRY=(Al_0.99_Fe^3+^_0.01_)_Î£=1_O(OH) ; trace amounts of Ti;  OH estimated by difference ; Fe^3+^ by charge balance
##PIN_ID=L01658
##ORIENTATION=Laser parallel to a* (1 0 0). Fiducial mark perpendicular to laser is parallel to b [0 1 0]
114.4400, 0.0000000E+00
115.6710, 36.99609
116.9030, 181.4131
118.1340, 118.4102
119.3650, 129.0986
120.5960, 147.6484
121.8270, 95.98535
123.0580, 125.0703
124.2880, 232.3682
125.5190, 35.50391
126.7490, 163.1650
127.9790, 25.15820
129.2090, 168.2998
130.4390, 165.4375
131.6680, 217.4434
132.8980, 257.2080
134.1270, 212.6543
135.3560, 230.7490
136.5850, 251.4268
137.8140, 345.6133
139.0430, 301.2900
140.2710, 523.4424
141.5000, 519.0205
142.7280, 804.9697
143.9560, 1073.244
145.1840, 1455.808
146.4120, 1928.632
147.6390, 2224.691
148.8670, 2510.964
150.0940, 3386.433
151.3210, 4881.082
152.5490, 6734.937
153.7750, 7519.251
155.0020, 7602.848
156.2290, 7039.711
157.4550, 5774.639
158.6810, 4245.625
159.9080, 3112.674
161.1340, 2058.875
162.3590, 1122.538
163.5850, 769.3486
164.8110, 629.5674
166.0360, 394.8330
167.2610, 348.0879
168.4860, 367.3369
169.7110, 256.5850
170.9360, 280.8350
172.1610, 363.0898
173.3850, 288.3506
174.6100, 321.6221
175.8340, 381.9053
177.0580, 131.2031
178.2820, 237.5146
179.5050, 286.8408
180.7290, 140.1855
181.9520, 256.5527
183.1760, 257.9590
184.3990, 190.4043
185.6220, 313.8887
186.8450, 294.4121
188.0670, 296.9570
189.2900, 377.4834
190.5120, 407.2773
191.7340, 184.5566
192.9560, 152.4287
194.1780, 166.7559
195.4000, 362.7275
196.6220, 383.1709
197.8430, 348.4258
199.0640, 348.7119
200.2860, 289.0312
201.5070, 341.3838
202.7270, 278.7705
203.9480, 291.5449
205.1690, 235.6504
206.3890, 291.1436
207.6090, 272.7109
208.8290, 266.8252
210.0490, 230.9834
211.2690, 113.7949
212.4890, 324.3154
213.7080, 283.0674
214.9280, 319.3398
216.1470, 214.7617
217.3660, 226.0889
218.5850, 247.4551
219.8030, 293.8604
221.0220, 240.3037
222.2400, 116.7861
223.4590, 278.3057
224.6770, 215.8604
225.8950, 317.4502
227.1120, 264.0752
228.3300, 202.7344
229.5480, 131.4248
230.7650, 169.1484
231.9820, 84.90234
233.1990, 186.6875
234.4160, 154.5039
235.6330, 129.3496
236.8490, 113.2227
238.0660, 132.1230
239.2820, 154.0498
240.4980, 75.00195
241.7140, 3.979492
242.9300, 27.98438
244.1460, 7.074219
245.3610, 35.06934
246.5770, 41.16504
247.7920, 31.07910
249.0070, 103.8896
250.2220, 25.56836
251.4370, 4.333984
252.6510, 16.19629
253.8660, 64.91113
255.0800, 58.72070
256.2940, 47.54492
257.5080, 71.39355
258.7220, 156.3057
259.9360, 115.9385
261.1490, 123.5361
262.3630, 33.67480
263.5760, 113.2158
264.7890, 27.12988
266.0020, 54.63574
267.2150, 42.39941
268.4270, 76.72266
269.6400, 26.24219
270.8520, 41.70117
272.0640, 37.31055
273.2760, 41.51660
274.4880, 89.20801
275.7000, 14.11328
276.9120, 27.50586
278.1230, 161.9248
279.3340, 37.40723
280.5450, 53.93848
281.7560, 21.51562
282.9670, 112.1348
284.1780, 73.79590
285.3880, 278.4961
286.5980, 368.2314
287.8090, 326.0010
289.0190, 415.8047
290.2290, 387.6387
291.4380, 353.5029
292.6480, 438.3975
293.8570, 188.3184
295.0670, 258.2666
296.2760, 188.2402
297.4850, 147.2402
298.6930, 57.26270
299.9020, 88.69141
301.1110, 74.10547
302.3190, 36.59570
303.5270, 74.53516
304.7350, 7.529297
305.9430, 53.61035
307.1510, 1.289063
308.3580, 3.825195
309.5660, 24.04590
310.7730, 82.90820
311.9800, 103.7773
313.1870, 61.34375
314.3940, 16.47852
315.6010, 86.62891
316.8070, 26.20801
318.0130, 111.9619
319.2200, 163.1465
320.4260, 249.3447
321.6310, 486.5576
322.8370, 652.7842
324.0430, 959.0244
325.2480, 1158.279
326.4540, 1591.548
327.6590, 2150.829
328.8640, 2730.125
330.0680, 3154.437
331.2730, 3382.758
332.4780, 3538.096
333.6820, 3074.445
334.8860, 2522.810
336.0900, 1952.177
337.2940, 1435.526
338.4980, 981.8760
339.7010, 544.2383
340.9050, 473.5840
342.1080, 406.9336
343.3110, 256.2979
344.5140, 271.6777
345.7170, 221.0723
346.9200, 149.4824
348.1220, 276.9072
349.3240, 244.3467
350.5270, 315.7998
351.7290, 267.2705
352.9310, 259.7217
354.1320, 325.1484
355.3340, 341.5654
356.5350, 430.9941
357.7370, 715.4277
358.9380, 1113.812
360.1390, 1644.213
361.3400, 2110.620
362.5400, 2879.042
363.7410, 4328.480
364.9410, 5833.934
366.1410, 7165.402
367.3410, 7357.888
368.5410, 6726.389
369.7410, 5668.903
370.9400, 4495.433
372.1400, 3420.979
373.3390, 2362.537
374.5380, 1650.112
375.7370, 1021.702
376.9360, 729.4209
378.1350, 542.5391
379.3330, 475.6562
380.5310, 365.4316
381.7300, 388.6260
382.9280, 361.1387
384.1260, 252.9746
385.3230, 193.8438
386.5210, 276.5508
387.7180, 311.2686
388.9160, 155.9990
390.1130, 344.7402
391.3100, 270.4932
392.5060, 145.2568
393.7030, 425.0303
394.9000, 318.8125
396.0960, 255.6035
397.2920, 334.0137
398.4880, 275.1318
399.6840, 260.1045
400.8800, 253.9297
402.0750, 236.5732
403.2710, 193.3096
404.4660, 234.6035
405.6610, 306.4688
406.8560, 275.3506
408.0510, 239.2451
409.2450, 176.9658
410.4400, 288.8887
411.6340, 209.8252
412.8280, 426.1621
414.0220, 106.1240
415.2160, 239.2158
416.4100, 280.2070
417.6030, 167.2100
418.7970, 266.9824
419.9900, 398.0098
421.1830, 388.8135
422.3760, 419.8643
423.5690, 201.9258
424.7610, 402.9990
425.9540, 566.0820
427.1460, 555.1768
428.3380, 836.2822
429.5300, 721.3984
430.7220, 883.5254
431.9140, 1039.664
433.1050, 1419.811
434.2970, 1886.970
435.4880, 2307.139
436.6790, 3371.318
437.8700, 5234.508
439.0610, 7545.709
440.2510, 10885.92
441.4420, 14437.14
442.6320, 18010.37
443.8220, 24327.11
445.0120, 33587.62
446.2020, 42698.01
447.3910, 47324.50
448.5810, 46746.79
449.7700, 42080.07
450.9600, 34894.09
452.1490, 26467.30
453.3370, 18251.29
454.5260, 12012.31
455.7150, 7455.197
456.9030, 4996.555
458.0910, 3345.926
459.2800, 2607.309
460.4670, 1810.227
461.6550, 1713.632
462.8430, 1524.047
464.0300, 1088.475
465.2180, 896.9131
466.4050, 1093.364
467.5920, 904.8271
468.7790, 958.3008
469.9650, 722.7852
471.1520, 662.2812
472.3380, 714.7900
473.5250, 505.3096
474.7110, 626.8408
475.8970, 493.3838
477.0820, 635.9395
478.2680, 446.5049
479.4540, 394.0850
480.6390, 355.6748
481.8240, 396.2773
483.0090, 425.8906
484.1940, 487.5176
485.3780, 530.1562
486.5630, 701.8066
487.7470, 944.4688
488.9320, 1274.145
490.1160, 1931.832
491.3000, 2717.533
492.4830, 3494.244
493.6670, 4240.969
494.8500, 5664.705
496.0340, 7658.453
497.2170, 9356.215
498.4000, 10382.99
499.5820, 9731.778
500.7650, 8542.575
501.9480, 6741.390
503.1300, 4856.215
504.3120, 3237.051
505.4940, 2000.902
506.6760, 1150.766
507.8580, 845.6436
509.0390, 462.5332
510.2210, 313.4346
511.4020, 203.3496
512.5830, 75.27832
513.7640, 132.2188
514.9450, 42.17188
516.1250, 122.1387
517.3060, 174.1182
518.4860, 44.88965
519.6660, 103.9141
520.8460, 154.9834
522.0260, 200.2832
523.2060, 190.3340
524.3850, 161.6719
525.5650, 116.0635
526.7440, 65.50488
527.9230, 37.02832
529.1020, 55.57422
530.2810, 75.13281
531.4590, 64.70410
532.6380, 70.78809
533.8160, 82.30469
534.9940, 42.49414
536.1720, 84.11719
537.3500, 40.75098
538.5270, 3.600586
539.7050, 2.051758
540.8820, 86.28809
542.0590, 52.33789
543.2360, 77.97754
544.4130, 62.37109
545.5900, 109.7021
546.7660, 139.9238
547.9430, 51.56738
549.1190, 255.2236
550.2950, 164.8936
551.4710, 253.5801
552.6470, 310.2871
553.8220, 192.0088
554.9980, 140.7578
556.1730, 174.5244
557.3480, 200.3232
558.5230, 95.13477
559.6980, 225.9922
560.8730, 265.8799
562.0470, 178.8145
563.2220, 116.7676
564.3960, 308.7344
565.5700, 159.7129
566.7440, 256.7041
567.9170, 390.7100
569.0910, 500.7295
570.2640, 540.7617
571.4380, 698.7812
572.6110, 743.9551
573.7840, 925.0811
574.9570, 1044.220
576.1290, 1083.387
577.3020, 1039.567
578.4740, 869.7783
579.6460, 717.0020
580.8180, 677.2383
581.9900, 568.4863
583.1620, 516.7480
584.3330, 432.0225
585.5040, 439.3340
586.6760, 346.6758
587.8470, 341.0381
589.0180, 262.4307
590.1880, 384.8340
591.3590, 404.2510
592.5290, 503.6816
593.7000, 464.1494
594.8700, 591.6680
596.0400, 557.2168
597.2090, 728.8037
598.3790, 906.4004
599.5490, 1240.012
600.7180, 1338.633
601.8870, 1778.283
603.0560, 2031.946
604.2250, 2269.646
605.3940, 2702.358
606.5620, 2952.118
607.7300, 3475.890
608.8990, 3482.673
610.0670, 3456.468
611.2350, 3080.274
612.4020, 2757.093
613.5700, 2559.932
614.7370, 2134.781
615.9050, 1834.643
617.0720, 1599.527
618.2390, 1326.424
619.4060, 1051.331
620.5720, 1090.261
621.7390, 893.2324
622.9050, 860.2148
624.0710, 596.2070
625.2370, 529.2129
626.4030, 535.2275
627.5690, 579.2539
628.7340, 568.2910
629.9000, 583.3633
631.0650, 522.4463
632.2300, 439.5537
633.3950, 571.6719
634.5600, 520.7988
635.7240, 585.9385
636.8890, 456.0879
638.0530, 554.2471
639.2170, 705.4160
640.3810, 579.5957
641.5450, 725.7852
642.7080, 715.9863
643.8720, 839.1953
645.0350, 762.4160
646.1980, 780.6445
647.3610, 973.8838
648.5240, 1064.624
649.6870, 1445.392
650.8490, 1546.660
652.0120, 1991.936
653.1740, 2445.232
654.3360, 2751.536
655.4980, 3324.857
656.6600, 4073.204
657.8210, 5017.559
658.9830, 6032.807
660.1440, 6966.681
661.3050, 7977.579
662.4660, 9088.841
663.6270, 10344.71
664.7870, 10903.28
665.9480, 11414.55
667.1080, 11043.82
668.2680, 10781.27
669.4280, 9788.732
670.5880, 8494.204
671.7480, 7067.689
672.9070, 6462.186
674.0670, 5354.695
675.2260, 4471.215
676.3850, 3724.746
677.5440, 3238.290
678.7030, 2713.234
679.8610, 2255.490
681.0200, 2158.910
682.1780, 1793.500
683.3360, 1419.099
684.4940, 1382.890
685.6520, 1108.070
686.8090, 997.7891
687.9670, 905.4336
689.1240, 854.0879
690.2810, 798.7344
691.4380, 696.9023
692.5950, 814.5889
693.7520, 748.2861
694.9080, 908.6689
696.0650, 711.7012
697.2210, 552.6416
698.3770, 672.5117
699.5330, 705.2578
700.6880, 646.8906
701.8440, 655.6689
702.9990, 633.4414
704.1550, 619.2227
705.3100, 667.0127
706.4650, 613.5557
707.6190, 602.2227
708.7740, 576.2109
709.9290, 474.2305
711.0830, 510.3643
712.2370, 408.1855
713.3910, 462.2354
714.5450, 489.3389
715.6980, 386.3545
716.8520, 401.3672
718.0050, 441.2344
719.1580, 460.1084
720.3110, 495.9893
721.4640, 437.8730
722.6170, 476.0977
723.7700, 325.8301
724.9220, 327.7314
726.0740, 272.6748
727.2260, 456.5859
728.3780, 573.5020
729.5300, 388.4219
730.6810, 440.3467
731.8330, 436.8818
732.9840, 400.9756
734.1350, 530.9678
735.2860, 515.9346
736.4370, 477.8770
737.5880, 440.8232
738.7380, 418.4004
739.8880, 519.5361
741.0390, 379.6797
742.1890, 457.5205
743.3380, 477.4795
744.4880, 455.7041
745.6380, 333.6777
746.7870, 280.6396
747.9360, 337.6035
749.0850, 319.5703
750.2340, 318.5352
751.3830, 294.6709
752.5310, 323.4492
753.6800, 193.4180
754.8280, 320.8691
755.9760, 262.8389
757.1240, 199.9199
758.2720, 284.1924
759.4190, 237.2402
760.5670, 242.2090
761.7140, 254.0273
762.8610, 356.1426
764.0080, 324.1074
765.1550, 315.0723
766.3020, 514.0371
767.4480, 252.4395
768.5950, 214.4004
769.7410, 344.5000
770.8870, 329.4590
772.0330, 344.4121
773.1780, 385.3652
774.3240, 532.3164
775.4690, 444.2637
776.6140, 475.2090
777.7590, 586.2793
778.9040, 479.2207
780.0490, 496.1582
781.1940, 586.0957
782.3380, 625.0273
783.4820, 622.9570
784.6260, 722.8828
785.7700, 700.8086
786.9140, 589.7285
788.0580, 801.6465
789.2010, 706.5625
790.3450, 820.2637
791.4880, 922.1719
792.6310, 1009.904
793.7730, 751.0371
794.9160, 900.9336
796.0590, 726.8262
797.2010, 898.7266
798.3430, 679.6543
799.4850, 533.6172
800.6270, 442.6289
801.7690, 341.6855
802.9100, 394.7812
804.0520, 221.9004
805.1930, 317.0918
806.3340, 323.2227
807.4750, 238.3496
808.6160, 211.5078
809.7560, 270.6250
810.8970, 84.73438
812.0370, 94.83789
813.1770, 123.9375
814.3170, 95.03320
815.4570, 62.12109
816.5960, 168.2090
817.7360, 203.2949
818.8750, 112.3945
820.0140, 88.49023
821.1530, 131.4219
822.2920, 46.60352
823.4310, 6.351563
824.5690, 168.6758
825.7070, 70.69922
826.8460, 160.7129
827.9840, 11.27734
829.1220, 128.7070
830.2590, 79.68750
831.3970, 2.662109
832.5340, 23.37305
833.6710, 24.56055
834.8080, 99.51367
835.9450, 135.3418
837.0820, 110.8086
838.2190, 52.96289
839.3550, 78.73047
840.4910, 90.48633
841.6270, 122.8164
842.7630, 16.98047
843.8990, 25.71289
845.0350, 31.43359
846.1700, 145.8535
847.3060, 21.76367
848.4410, 14.63086
849.5760, 29.94922
850.7100, 34.48242
851.8450, 35.04688
852.9800, 48.42969
854.1140, 126.0469
855.2480, 140.5156
856.3820, 189.9746
857.5160, 88.42773
858.6500, 21.87109
859.7830, 5.304688
860.9170, 146.7207
862.0500, 54.12695
863.1830, 155.5254
864.3160, 246.9141
865.4480, 138.2969
866.5810, 157.6699
867.7130, 69.96289
868.8460, 94.65625
869.9780, 50.58008
871.1100, 57.80859
872.2410, 129.0312
873.3730, 231.2422
874.5050, 52.44727
875.6360, 8.355469
876.7670, 33.81445
877.8980, 73.94531
879.0290, 131.0762
880.1590, 111.8359
881.2900, 61.17578
882.4200, 134.1797
883.5500, 104.1738
884.6800, 135.1602
885.8100, 76.14844
886.9400, 11.86914
888.0690, 213.0820
889.1990, 112.0273
890.3280, 20.03711
891.4570, 205.8672
892.5860, 40.76367
893.7140, 17.34766
894.8430, 93.49023
895.9710, 120.2988
897.1000, 110.0801
898.2280, 301.8516
899.3560, 116.6172
900.4830, 64.37500
901.6110, 280.1250
902.7380, 68.13477
903.8660, 168.5508
904.9930, 31.76953
906.1200, 91.87305
907.2460, 107.5078
908.3730, 71.13672
909.5000, 155.7559
910.6260, 157.3672
911.7520, 83.97266
912.8780, 32.56836
914.0040, 157.1562
915.1290, 212.7363
916.2550, 103.3105
917.3800, 96.87695
918.5050, 180.4336
919.6300, 181.9863
920.7550, 191.5312
921.8800, 126.0684
923.0040, 117.5977
924.1290, 88.12109
925.2530, 13.36328
926.3770, 73.12891
927.5010, 14.38672
928.6250, 36.92578
929.7480, 79.49805
930.8720, 171.9160
931.9950, 163.3262
933.1180, 74.72852
934.2410, 82.12695
935.3640, 220.5156
936.4860, 140.8984
937.6090, 231.2715
938.7310, 126.6406
939.8530, 29.00000
940.9750, 60.35156
942.0970, 231.6953
943.2180, 31.03125
944.3400, 192.3594
945.4610, 139.6836
946.5820, 183.9961
947.7030, 87.30078
948.8240, 286.8281
949.9450, 333.1211
951.0650, 44.40234
952.1860, 58.68164
953.3060, 208.9512
954.4260, 203.2168
955.5460, 161.4727
956.6650, 117.8398
957.7850, 125.0801
958.9040, 181.2285
960.0230, 39.46094
961.1420, 150.6836
962.2610, 333.9004
963.3800, 235.6387
964.4990, 92.06836
965.6170, 224.2695
966.7350, 165.6328
967.8530, 74.50586
968.9710, 162.4746
970.0890, 83.51953
971.2070, 116.6914
972.3240, 167.9824
973.4410, 273.1309
974.5580, 203.2871
975.6750, 155.4414
976.7920, 396.5898
977.9090, 75.37305
979.0250, 251.2734
980.1410, 296.2344
981.2580, 226.1719
982.3740, 221.0000
983.4890, 373.1465
984.6050, 331.0684
985.7200, 235.9395
986.8360, 169.9062
987.9510, 313.8770
989.0660, 138.9980
990.1810, 147.1152
991.2950, 325.2324
992.4100, 264.3457
993.5240, 226.1250
994.6390, 450.3984
995.7530, 222.5078
996.8660, 259.5801
997.9800, 119.6875
999.0940, 450.7930
1000.207, 362.8965
1001.320, 413.0098
1002.433, 628.5117
1003.546, 401.4648
1004.659, 453.5234
1005.772, 320.0723
1006.884, 347.1953
1007.996, 348.3203
1009.108, 457.3965
1010.220, 543.7637
1011.332, 486.7070
1012.444, 488.9531
1013.555, 580.0879
1014.666, 474.2656
1015.777, 492.1602
1016.888, 356.2207
1017.999, 418.3633
1019.110, 369.9961
1020.220, 317.1406
1021.331, 439.3105
1022.441, 268.4629
1023.551, 458.6152
1024.661, 343.2969
1025.770, 343.4941
1026.880, 214.5996
1027.989, 112.5430
1029.098, 199.7148
1030.207, 148.6562
1031.316, 509.2383
1032.425, 270.5117
1033.533, 308.8066
1034.642, 474.0996
1035.750, 361.4023
1036.858, 387.2676
1037.966, 519.5781
1039.073, 537.7539
1040.181, 359.0723
1041.288, 409.3965
1042.396, 587.7266
1043.503, 746.0605
1044.610, 780.4023
1045.716, 785.7461
1046.823, 832.9707
1047.929, 916.3281
1049.036, 893.6895
1050.142, 794.0566
1051.248, 710.4297
1052.353, 524.8086
1053.459, 535.1934
1054.564, 507.5859
1055.670, 209.9844
1056.775, 401.3867
1057.880, 283.7949
1058.985, 186.4199
1060.089, 192.8418
1061.194, 136.4375
1062.298, 328.6406
1063.402, 307.0820
1064.506, 262.5293
1065.610, 57.98633
1066.713, 213.4492
1067.817, 419.9219
1068.920, 79.40039
1070.023, 192.8848
1071.126, 354.3809
1072.229, 81.88281
1073.332, 382.3340
1074.435, 14.84961
1075.537, 137.3730
1076.639, 368.8652
1077.741, 317.4043
1078.843, 289.9512
1079.945, 187.5059
1081.046, 18.92969
1082.148, 104.6387
1083.249, 132.2168
1084.350, 208.8027
1085.451, 337.3984
1086.551, 232.0000
1087.652, 277.6113
1088.752, 341.2285
1089.853, 203.8945
1090.953, 293.5703
1092.053, 214.2578
1093.152, 157.9551
1094.252, 206.6621
1095.351, 222.3770
1096.451, 18.88867
1097.550, 106.8496
1098.649, 45.40234
1099.748, 98.34961
1100.846, 73.12500
1101.945, 78.91016
1103.043, 117.8340
1104.141, 236.5664
1105.239, 118.4434
1106.337, 129.3320
1107.434, 122.2285
1108.532, 299.1348
1109.629, 147.0488
1110.726, 164.9785
1111.823, 115.9531
1112.920, 76.90234
1114.017, 141.7637
1115.113, 78.77734
1116.210, 179.8125
1117.306, 287.8574
1118.402, 541.9277
1119.498, 514.0117
1120.593, 394.1191
1121.689, 401.2383
1122.784, 624.3672
1123.879, 589.5059
1124.974, 597.6562
1126.069, 564.8145
1127.164, 417.9922
1128.259, 286.3516
1129.353, 435.5508
1130.447, 190.7578
1131.541, 191.9961
1132.635, 95.54102
1133.729, 245.8125
1134.822, 124.8457
1135.916, 112.2090
1137.009, 29.41602
1138.102, 34.33203
1139.195, 208.7246
1140.288, 171.1270
1141.380, 156.5293
1142.473, 2.960938
1143.565, 156.4043
1144.657, 276.8809
1145.749, 307.3711
1146.841, 31.12109
1147.932, 177.6680
1149.024, 44.22070
1150.115, 84.21094
1151.206, 39.34570
1152.297, 134.9121
1153.388, 208.4961
1154.479, 38.09180
1155.569, 133.7559
1156.659, 98.34180
1157.750, 274.7324
1158.839, 102.6953
1159.929, 354.3633
1161.019, 255.0664
1162.108, 165.4941
1163.198, 240.2207
1164.287, 212.3574
1165.376, 336.1016
1166.465, 279.8672
1167.553, 390.6445
1168.642, 320.4629
1169.730, 326.2930
1170.818, 557.1426
1171.906, 241.0039
1172.994, 216.8691
1174.082, 402.7461
1175.170, 355.6309
1176.257, 374.5273
1177.344, 311.4316
1178.431, 519.3438
1179.518, 668.2656
1180.605, 726.1953
1181.691, 1028.135
1182.778, 1234.080
1183.864, 1495.037
1184.950, 1846.000
1186.036, 2635.973
1187.122, 2904.953
1188.207, 3655.943
1189.292, 4313.941
1190.378, 4053.955
1191.463, 3928.980
1192.548, 3296.021
1193.632, 2817.084
1194.717, 2460.156
1195.801, 2078.236
1196.886, 1734.426
1197.970, 1332.521
1199.054, 1041.627
1200.137, 1243.740
1201.221, 814.8613
1202.305, 694.9922
1203.388, 406.1289
1204.471, 308.2734
1205.554, 330.4277
1206.637, 399.5898
1207.719, 194.7598
1208.802, 263.9375
1209.884, 333.1230
1210.966, 217.3164
1212.048, 15.29102
1213.130, 75.50000
1214.212, 148.7168
1215.293, 102.9414
1216.374, 162.5234
1217.456, 179.4141
1218.536, 207.6621
1219.617, 152.9160
1220.698, 188.1797
1221.778, 130.4492
1222.859, 39.72656
1223.939, 94.01172
1225.019, 164.3047
1226.099, 53.60352
1227.178, 220.6836
1228.258, 149.0000
1229.337, 332.4727
1230.417, 7.800781
1231.496, 149.1328
1232.574, 148.4746
1233.653, 142.8223
1234.732, 286.2129
1235.810, 8.574219
1236.888, 83.93945
1237.966, 117.3125
1239.044, 170.6895
1240.122, 14.07422
1241.199, 0.4648440
1242.277, 237.8613
1243.354, 21.73633
1244.431, 102.6621
1245.508, 132.0684
1246.585, 73.48242
1247.661, 119.9004
1248.738, 144.3301
1249.814, 123.7578
1250.890, 124.1914
1251.966, 111.6309
1253.042, 163.0742
1254.117, 111.5215
1255.193, 59.97461
1256.268, 92.42969
1257.343, 2.109375
1258.418, 68.35547
1259.493, 147.8242
1260.567, 77.57617
1261.642, 24.94531
1262.716, 159.9941
1263.790, 10.51953
1264.864, 40.96289
1265.938, 62.44922
1267.011, 41.50781
1268.085, 112.9648
1269.158, 261.4414
1270.231, 15.08203
1271.304, 218.3906
1272.377, 174.8672
1273.450, 85.34766
1274.522, 66.83008
1275.594, 2.333984
1276.666, 97.82031
1277.738, 105.3086
1278.810, 62.07227
1279.882, 43.07617
1280.953, 138.5762
1282.025, 61.07617
1283.096, 57.64062
1284.167, 32.85352
1285.238, 112.3652
1286.308, 60.93164
1287.379, 101.5293
1288.449, 50.82227
1289.519, 21.17383
1290.589, 42.47070
