##NAMES=Diaspore
##RRUFFID=R060546
##IDEAL CHEMISTRY=AlO(OH)
##LOCALITY=Turkey
##OWNER=RRUFF
##SOURCE=Gemological Institute of America
##DESCRIPTION=Platy transparent pale yellow fragment
##STATUS=The identification of this mineral has been confirmed by X-ray diffraction and chemical analysis
##URL=rruff.info/R060546
##MEASURED CHEMISTRY=(Al_0.99_Fe^3+^_0.01_)_Î£=1_O(OH) ; OH estimated by difference; Fe^3+^ by charge balance
##PIN_ID=L01029
##ORIENTATION=Laser parallel to b* (0 1 0). Fiducial mark perpendicular to laser is parallel to c [0 0 1]
132.8980, 0.0000000E+00
134.1270, 27.23779
135.3560, 50.75830
136.5850, 20.86377
137.8140, 3.598145
139.0430, 11.17676
140.2710, 100.1621
141.5000, 20.76514
142.7280, 100.4365
143.9560, 107.5938
145.1840, 83.53027
146.4120, 287.4321
147.6390, 304.3882
148.8670, 337.4722
150.0940, 612.7422
151.3210, 893.2236
152.5490, 1575.991
153.7750, 2620.301
155.0020, 4873.719
156.2290, 8748.780
157.4550, 10644.12
158.6810, 8771.725
159.9080, 5256.558
161.1340, 2586.595
162.3590, 1313.854
163.5850, 709.3853
164.8110, 346.2158
166.0360, 251.3140
167.2610, 65.63916
168.4860, 80.15430
169.7110, 76.83057
170.9360, 11.35547
172.1610, 134.5752
173.3850, 32.60791
174.6100, 33.27051
175.8340, 82.93018
177.0580, 58.80029
178.2820, 25.53027
179.5050, 85.91602
180.7290, 43.34912
181.9520, 124.8252
183.1760, 198.3394
184.3990, 165.8877
185.6220, 143.4668
186.8450, 232.0757
188.0670, 488.7100
189.2900, 546.4287
190.5120, 384.4741
191.7340, 262.9902
192.9560, 336.0688
194.1780, 195.4375
195.4000, 294.2432
196.6220, 286.0635
197.8430, 313.7749
199.0640, 284.3892
200.2860, 308.9111
201.5070, 351.3403
202.7270, 438.6812
203.9480, 338.9375
205.1690, 430.1143
206.3890, 313.2158
207.6090, 307.2563
208.8290, 309.2427
210.0490, 356.1812
211.2690, 421.0786
212.4890, 383.9395
213.7080, 440.7661
214.9280, 417.5610
216.1470, 396.3271
217.3660, 420.0288
218.5850, 497.7739
219.8030, 440.4565
221.0220, 521.1157
222.2400, 565.7539
223.4590, 567.3730
224.6770, 624.9751
225.8950, 546.5571
227.1120, 589.1177
228.3300, 691.6426
229.5480, 635.1392
230.7650, 754.6250
231.9820, 636.1001
233.1990, 702.5649
234.4160, 732.0190
235.6330, 709.4644
236.8490, 743.8989
238.0660, 739.3247
239.2820, 720.7397
240.4980, 750.1445
241.7140, 747.5391
242.9300, 784.9233
244.1460, 848.2969
245.3610, 836.7920
246.5770, 883.2378
247.7920, 881.9199
249.0070, 741.2373
250.2220, 872.4399
251.4370, 906.0879
252.6510, 873.5952
253.8660, 1002.836
255.0800, 845.2256
256.2940, 1007.167
257.5080, 926.6807
258.7220, 1148.072
259.9360, 1077.471
261.1490, 1170.371
262.3630, 1034.523
263.5760, 931.6909
264.7890, 953.2378
266.0020, 1039.381
267.2150, 1003.519
268.4270, 929.6475
269.6400, 1008.769
270.8520, 959.8813
272.0640, 908.9854
273.2760, 884.0815
274.4880, 877.1704
275.7000, 972.2520
276.9120, 841.3252
278.1230, 987.3916
279.3340, 906.8174
280.5450, 871.3408
281.7560, 780.9248
282.9670, 822.5898
284.1780, 807.2002
285.3880, 863.9824
286.5980, 790.8076
287.8090, 890.6694
289.0190, 862.5630
290.2290, 825.4766
291.4380, 861.4062
292.6480, 777.3516
293.8570, 718.3130
295.0670, 680.2896
296.2760, 690.2808
297.4850, 656.3350
298.6930, 653.0981
299.9020, 648.2720
301.1110, 629.2012
302.3190, 644.1450
303.5270, 605.1016
304.7350, 592.9683
305.9430, 642.0586
307.1510, 554.0635
308.3580, 615.0776
309.5660, 623.1108
310.7730, 560.1885
311.9800, 607.2759
313.1870, 627.3901
314.3940, 582.5332
315.6010, 645.6953
316.8070, 656.5737
318.0130, 668.7500
319.2200, 675.9268
320.4260, 824.0044
321.6310, 1008.183
322.8370, 1091.065
324.0430, 1326.242
325.2480, 1694.417
326.4540, 2060.592
327.6590, 2939.764
328.8640, 4054.933
330.0680, 6284.100
331.2730, 9356.264
332.4780, 13471.43
333.6820, 15604.58
334.8860, 14103.74
336.0900, 10438.90
337.2940, 6765.043
338.4980, 4162.181
339.7010, 2660.310
340.9050, 1801.427
342.1080, 1143.531
343.3110, 969.6221
344.5140, 822.7002
345.7170, 500.7676
346.9200, 430.8237
348.1220, 370.8682
349.3240, 290.9019
350.5270, 275.9258
351.7290, 184.9395
352.9310, 177.9434
354.1320, 137.9380
355.3340, 26.07715
356.5350, 36.88232
357.7370, 17.16943
358.9380, 23.24316
360.1390, 3.342285
361.3400, 1.459473
362.5400, 84.59521
363.7410, 10.77100
364.9410, 62.96729
366.1410, 44.19824
367.3410, 31.45801
368.5410, 136.7446
369.7410, 69.08398
370.9400, 61.54150
372.1400, 42.15771
373.3390, 50.23633
374.5380, 61.66064
375.7370, 47.11816
376.9360, 27.60547
378.1350, 119.1172
379.3330, 31.32275
380.5310, 57.24756
381.7300, 1.148926
382.9280, 155.5293
384.1260, 145.9028
385.3230, 170.2681
386.5210, 316.6270
387.7180, 124.9785
388.9160, 222.3223
390.1130, 138.6353
391.3100, 117.9043
392.5060, 93.14209
393.7030, 120.3188
394.9000, 43.43115
396.0960, 146.4595
397.2920, 224.4497
398.4880, 179.4058
399.6840, 243.3018
400.8800, 142.1270
402.0750, 245.9170
403.2710, 119.6953
404.4660, 210.4712
405.6610, 278.2461
406.8560, 259.0190
408.0510, 281.7896
409.2450, 256.5576
410.4400, 297.3232
411.6340, 320.0879
412.8280, 335.8506
414.0220, 325.6123
415.2160, 356.3730
416.4100, 383.1323
417.6030, 432.8911
418.7970, 508.6484
419.9900, 421.4058
421.1830, 523.1626
422.3760, 618.9185
423.5690, 537.6738
424.7610, 676.4268
425.9540, 719.1782
427.1460, 795.9277
428.3380, 962.6753
429.5300, 923.4214
430.7220, 1102.164
431.9140, 1078.905
433.1050, 1328.643
434.2970, 1516.377
435.4880, 1738.110
436.6790, 1973.840
437.8700, 2552.566
439.0610, 3093.290
440.2510, 3725.011
441.4420, 4676.729
442.6320, 6100.444
443.8220, 8155.156
445.0120, 11644.87
446.2020, 17697.57
447.3910, 29051.28
448.5810, 45286.56
449.7700, 59300.69
450.9600, 59440.39
452.1490, 45952.70
453.3370, 29149.98
454.5260, 17578.60
455.7150, 10901.40
456.9030, 7388.018
458.0910, 5447.371
459.2800, 4105.262
460.4670, 3486.985
461.6550, 3047.721
462.8430, 2486.908
464.0300, 2412.565
465.2180, 2187.218
466.4050, 2071.876
467.5920, 1943.528
468.7790, 1818.176
469.9650, 1754.820
471.1520, 1850.458
472.3380, 1761.091
473.5250, 1788.720
474.7110, 1758.935
475.8970, 1549.963
477.0820, 1651.578
478.2680, 1578.747
479.4540, 1466.433
480.6390, 1523.033
481.8240, 1434.917
483.0090, 1539.508
484.1940, 1432.094
485.3780, 1570.676
486.5630, 1458.254
487.7470, 1431.827
488.9320, 1608.396
490.1160, 1696.960
491.3000, 1616.521
492.4830, 1844.077
493.6670, 2041.629
494.8500, 2258.177
496.0340, 2536.721
497.2170, 3219.261
498.4000, 4366.268
499.5820, 6080.357
500.7650, 7596.895
501.9480, 7105.036
503.1300, 5226.415
504.3120, 3633.899
505.4940, 2544.156
506.6760, 2111.036
507.8580, 1711.629
509.0390, 1526.392
510.2210, 1423.947
511.4020, 1316.887
512.5830, 1179.068
513.7640, 1295.432
514.9450, 1115.541
516.1250, 1053.893
517.3060, 1156.524
518.4860, 1057.066
519.6660, 1054.833
520.8460, 980.8545
522.0260, 1054.705
523.2060, 1009.612
524.3850, 865.1870
525.5650, 1030.688
526.7440, 918.1895
527.9230, 933.6924
529.1020, 970.1953
530.2810, 910.7002
531.4590, 902.2056
532.6380, 865.7119
533.8160, 774.2202
534.9940, 792.7158
536.1720, 791.2266
537.3500, 678.3799
538.5270, 754.8960
539.7050, 773.4146
540.8820, 662.9360
542.0590, 764.4609
543.2360, 670.9893
544.4130, 756.5225
545.5900, 840.0596
546.7660, 717.6025
547.9430, 802.1499
549.1190, 981.7119
550.2950, 1107.278
551.4710, 1396.852
552.6470, 1797.435
553.8220, 2317.025
554.9980, 2822.640
556.1730, 2663.289
557.3480, 2374.943
558.5230, 1744.606
559.6980, 1172.283
560.8730, 984.9829
562.0470, 633.7236
563.2220, 622.4697
564.3960, 610.2485
565.5700, 583.0977
566.7440, 499.4775
567.9170, 296.8584
569.0910, 367.7964
570.2640, 208.7407
571.4380, 277.7041
572.6110, 283.6895
573.7840, 134.6807
574.9570, 169.6938
576.1290, 56.71338
577.3020, 35.20361
578.4740, 59.78711
579.6460, 21.85059
580.8180, 32.91943
581.9900, 95.01318
583.1620, 81.11475
584.3330, 110.2197
585.5040, 93.71729
586.6760, 34.44531
587.8470, 54.56689
589.0180, 41.30811
590.1880, 38.19531
591.3590, 18.90576
592.5290, 58.98926
593.7000, 153.9058
594.8700, 27.89209
596.0400, 98.88525
597.2090, 111.9209
598.3790, 76.00537
599.5490, 9.120117
600.7180, 50.23535
601.8870, 2.366699
603.0560, 18.49658
604.2250, 209.3706
605.3940, 63.24023
606.5620, 204.1133
607.7300, 295.9893
608.8990, 269.8682
610.0670, 345.7500
611.2350, 345.6343
612.4020, 340.5215
613.5700, 239.4116
614.7370, 156.3047
615.9050, 111.2007
617.0720, 21.09912
618.2390, 19.99951
619.4060, 3.102051
620.5720, 84.79688
621.7390, 12.30127
622.9050, 17.59912
624.0710, 149.5024
625.2370, 143.4077
626.4030, 33.31689
627.5690, 14.22803
628.7340, 33.14111
629.9000, 148.0581
631.0650, 82.97705
632.2300, 165.8984
633.3950, 111.8232
634.5600, 59.74951
635.7240, 130.6792
636.8890, 257.6108
638.0530, 190.5454
639.2170, 281.4980
640.3810, 279.4556
641.5450, 329.4297
642.7080, 407.4209
643.8720, 476.4248
645.0350, 331.4409
646.1980, 466.4917
647.3610, 563.5566
648.5240, 519.6494
649.6870, 680.7656
650.8490, 768.9019
652.0120, 812.0859
653.1740, 926.2993
654.3360, 984.5156
655.4980, 1169.736
656.6600, 1403.339
657.8210, 1710.255
658.9830, 2009.552
660.1440, 2448.868
661.3050, 2846.226
662.4660, 3525.590
663.6270, 4044.980
664.7870, 4862.381
665.9480, 5391.784
667.1080, 5642.190
668.2680, 5863.598
669.4280, 5782.007
670.5880, 5324.417
671.7480, 4648.831
672.9070, 4104.246
674.0670, 3515.662
675.2260, 3132.081
676.3850, 2663.500
677.5440, 2357.029
678.7030, 2073.454
679.8610, 1842.881
681.0200, 1705.308
682.1780, 1624.845
683.3360, 1527.471
684.4940, 1474.127
685.6520, 1358.983
686.8090, 1186.553
687.9670, 1270.474
689.1240, 1213.994
690.2810, 1308.206
691.4380, 1164.743
692.5950, 1164.238
693.7520, 1277.182
694.9080, 1215.617
696.0650, 1282.457
697.2210, 1252.904
698.3770, 1339.525
699.5330, 1259.269
700.6880, 1218.331
701.8440, 1396.218
702.9990, 1293.259
704.1550, 1324.208
705.3100, 1391.919
706.4650, 1373.829
707.6190, 1456.257
708.7740, 1429.563
709.9290, 1277.297
711.0830, 1438.856
712.2370, 1323.697
713.3910, 1345.220
714.5450, 1375.301
715.6980, 1344.027
716.8520, 1354.653
718.0050, 1374.022
719.1580, 1397.455
720.3110, 1393.714
721.4640, 1485.921
722.6170, 1460.448
723.7700, 1444.233
724.9220, 1521.657
726.0740, 1408.808
727.2260, 1548.185
728.3780, 1468.906
729.5300, 1407.775
730.6810, 1463.064
731.8330, 1477.895
732.9840, 1441.993
734.1350, 1489.328
735.2860, 1516.465
736.4370, 1452.022
737.5880, 1576.642
738.7380, 1572.660
739.8880, 1483.933
741.0390, 1476.167
742.1890, 1389.858
743.3380, 1364.071
744.4880, 1388.278
745.6380, 1357.479
746.7870, 1375.672
747.9360, 1356.859
749.0850, 1388.040
750.2340, 1276.212
751.3830, 1225.378
752.5310, 1297.537
753.6800, 1239.689
754.8280, 1275.833
755.9760, 1205.971
757.1240, 1269.541
758.2720, 1139.582
759.4190, 1235.697
760.5670, 1255.518
761.7140, 1165.617
762.8610, 1096.709
764.0080, 1156.794
765.1550, 1197.871
766.3020, 1149.940
767.4480, 1071.001
768.5950, 985.0547
769.7410, 1065.100
770.8870, 1146.137
772.0330, 914.1660
773.1780, 1088.187
774.3240, 971.1992
775.4690, 859.2036
776.6140, 980.1992
777.7590, 968.1865
778.9040, 750.1650
780.0490, 940.1353
781.1940, 902.0962
782.3380, 890.0474
783.4820, 975.9902
784.6260, 940.9238
785.7700, 829.8477
786.9140, 802.7622
788.0580, 712.6670
789.2010, 851.5615
790.3450, 726.4463
791.4880, 724.3203
792.6310, 828.1841
793.7730, 753.0376
794.9160, 638.8799
796.0590, 704.7124
797.2010, 663.5332
798.3430, 465.3623
799.4850, 642.1890
800.6270, 516.0259
801.7690, 495.8867
802.9100, 527.7349
804.0520, 424.5825
805.1930, 445.4189
806.3340, 379.2563
807.4750, 334.0967
808.6160, 265.9258
809.7560, 321.7446
810.8970, 171.5518
812.0370, 257.3491
813.1770, 219.1343
814.3170, 108.9082
815.4570, 155.6685
816.5960, 137.4165
817.7360, 206.1636
818.8750, 110.8984
820.0140, 90.61914
821.1530, 84.34717
822.2920, 48.06055
823.4310, 106.7578
824.5690, 12.53955
825.7070, 120.1279
826.8460, 23.78223
827.9840, 12.41650
829.1220, 14.02881
830.2590, 43.38184
831.3970, 82.84521
832.5340, 55.61768
833.6710, 17.06348
834.8080, 5.512695
835.9450, 39.12402
837.0820, 107.7861
838.2190, 51.46338
839.3550, 75.30420
840.4910, 217.1431
841.6270, 22.12744
842.7630, 57.15576
843.8990, 113.2451
845.0350, 23.57422
846.1700, 22.62891
847.3060, 35.87500
848.4410, 53.82764
849.5760, 35.48682
850.7100, 33.14795
851.8450, 9.762695
852.9800, 5.649414
854.1140, 28.09570
855.2480, 56.41113
856.3820, 48.09912
857.5160, 24.33398
858.6500, 100.7456
859.7830, 51.14160
860.9170, 121.5205
862.0500, 24.88574
863.1830, 128.2285
864.3160, 143.5576
865.4480, 157.8813
866.5810, 164.1982
867.7130, 101.5029
868.8460, 54.80420
869.9780, 146.1270
871.1100, 197.4399
872.2410, 83.76367
873.3730, 129.0977
874.5050, 211.4355
875.6360, 117.7612
876.7670, 121.0830
877.8980, 225.3916
879.0290, 171.6899
880.1590, 237.9756
881.2900, 228.2480
882.4200, 248.5073
883.5500, 350.7539
884.6800, 374.9868
885.8100, 290.2065
886.9400, 365.4141
888.0690, 349.6079
889.1990, 428.7886
890.3280, 450.9565
891.4570, 505.1113
892.5860, 500.2529
893.7140, 469.3848
894.8430, 445.5054
895.9710, 527.6118
897.1000, 540.7085
898.2280, 691.7915
899.3560, 566.8623
900.4830, 641.9199
901.6110, 644.9653
902.7380, 594.9980
903.8660, 797.0176
904.9930, 719.0254
906.1200, 921.0200
907.2460, 748.0029
908.3730, 778.9727
909.5000, 927.9312
910.6260, 908.8779
911.7520, 904.8120
912.8780, 934.7344
914.0040, 1087.645
915.1290, 944.5449
916.2550, 1080.433
917.3800, 1106.308
918.5050, 1039.172
919.6300, 1108.024
920.7550, 1140.865
921.8800, 1045.695
923.0040, 1113.513
924.1290, 1183.320
925.2530, 1155.116
926.3770, 1151.900
927.5010, 1022.674
928.6250, 1093.436
929.7480, 1376.187
930.8720, 1106.926
931.9950, 1114.655
933.1180, 1307.566
934.2410, 1205.312
935.3640, 1202.663
936.4860, 1379.562
937.6090, 1256.234
938.7310, 1365.176
939.8530, 1309.825
940.9750, 1267.275
942.0970, 1365.262
943.2180, 1387.876
944.3400, 1342.841
945.4610, 1386.432
946.5820, 1390.446
947.7030, 1457.014
948.8240, 1362.630
949.9450, 1439.067
951.0650, 1442.600
952.1860, 1514.592
953.3060, 1501.102
954.4260, 1315.491
955.5460, 1537.595
956.6650, 1405.845
957.7850, 1434.883
958.9040, 1634.657
960.0230, 1531.729
961.1420, 1526.071
962.2610, 1517.713
963.3800, 1510.371
964.4990, 1371.706
965.6170, 1504.583
966.7350, 1403.092
967.8530, 1487.051
968.9710, 1569.393
970.0890, 1435.550
971.2070, 1442.574
972.3240, 1409.267
973.4410, 1374.125
974.5580, 1342.040
975.6750, 1423.595
976.7920, 1298.597
977.9090, 1270.390
979.0250, 1374.653
980.1410, 1291.028
981.2580, 1252.965
982.3740, 1389.064
983.4890, 1174.873
984.6050, 1261.988
985.7200, 1334.534
986.8360, 1064.423
987.9510, 1240.403
989.0660, 1302.974
990.1810, 1215.780
991.2950, 1250.094
992.4100, 1230.612
993.5240, 1131.474
994.6390, 1184.229
995.7530, 1199.335
996.8660, 1141.703
997.9800, 1338.835
999.0940, 1115.027
1000.207, 1176.217
1001.320, 1483.405
1002.433, 1275.417
1003.546, 1526.193
1004.659, 1491.372
1005.772, 1191.546
1006.884, 1112.477
1007.996, 1096.595
1009.108, 993.7607
1010.220, 932.8271
1011.332, 1032.905
1012.444, 1013.062
1013.555, 955.2178
1014.666, 984.3701
1015.777, 915.5186
1016.888, 854.6650
1017.999, 888.8096
1019.110, 730.9512
1020.220, 821.0898
1021.331, 785.2275
1022.441, 678.3623
1023.551, 765.4961
1024.661, 753.6260
1025.770, 730.7549
1026.880, 790.8818
1027.989, 679.0068
1029.098, 651.1299
1030.207, 788.2549
1031.316, 714.3770
1032.425, 520.4980
1033.533, 584.6201
1034.642, 558.7412
1035.750, 557.8604
1036.858, 593.9844
1037.966, 593.5508
1039.073, 624.0850
1040.181, 628.4062
1041.288, 660.6123
1042.396, 660.8369
1043.503, 632.0596
1044.610, 816.3027
1045.716, 782.5439
1046.823, 1050.785
1047.929, 1208.041
1049.036, 1373.297
1050.142, 1496.553
1051.248, 1296.809
1052.353, 1060.063
1053.459, 748.3174
1054.564, 553.5762
1055.670, 365.8340
1056.775, 325.0957
1057.880, 317.3564
1058.985, 92.61914
1060.089, 207.8809
1061.194, 197.1426
1062.298, 28.40527
1063.402, 205.6689
1064.506, 67.93652
1065.610, 71.79297
1066.713, 37.54883
1067.817, 79.30859
1068.920, 136.1094
1070.023, 41.02051
1071.126, 41.83008
1072.229, 9.297852
1073.332, 50.57227
1074.435, 59.46680
1075.537, 21.61133
1076.639, 8.308594
1077.741, 14.76758
1078.843, 10.15430
1079.945, 108.9189
1081.046, 5.8590001E-03
1082.148, 130.0703
1083.249, 90.14746
1084.350, 46.77246
1085.451, 152.2852
1086.551, 58.34473
1087.652, 84.58887
1088.752, 124.4385
1089.853, 25.46777
1090.953, 79.49902
1092.053, 2.500977
1093.152, 4.506836
1094.252, 48.51953
1095.351, 9.463867
1096.451, 10.55664
1097.550, 50.58496
1098.649, 3.364258
1099.748, 118.7178
1100.846, 89.80469
1101.945, 179.8984
1103.043, 53.00684
1104.141, 47.13574
1105.239, 45.30664
1106.337, 190.4824
1107.434, 94.68848
1108.532, 148.9658
1109.629, 107.2607
1110.726, 220.5840
1111.823, 240.9492
1112.920, 183.3213
1114.017, 274.7129
1115.113, 174.1250
1116.210, 277.5430
1117.306, 381.9844
1118.402, 554.4326
1119.498, 614.8896
1120.593, 581.3623
1121.689, 546.8545
1122.784, 709.3525
1123.879, 740.8770
1124.974, 578.4082
1126.069, 505.9453
1127.164, 572.4873
1128.259, 560.0342
1129.353, 634.5889
1130.447, 605.8154
1131.541, 620.7129
1132.635, 544.2803
1133.729, 556.8516
1134.822, 504.4277
1135.916, 628.0107
1137.009, 525.5967
1138.102, 718.1885
1139.195, 552.7852
1140.288, 618.3848
1141.380, 635.9902
1142.473, 712.6006
1143.565, 586.2158
1144.657, 691.8340
1145.749, 838.4580
1146.841, 679.0869
1147.932, 895.7197
1149.024, 852.3574
1150.115, 816.9990
1151.206, 866.6445
1152.297, 843.2969
1153.388, 816.9531
1154.479, 1028.612
1155.569, 895.2783
1156.659, 803.9482
1157.750, 1001.624
1158.839, 1172.305
1159.929, 919.9893
1161.019, 1066.089
1162.108, 962.7842
1163.198, 1017.484
1164.287, 1055.312
1165.376, 1132.241
1166.465, 1083.956
1167.553, 1161.790
1168.642, 1110.562
1169.730, 1051.293
1170.818, 1297.694
1171.906, 1216.657
1172.994, 1128.662
1174.082, 1263.410
1175.170, 1287.544
1176.257, 1371.300
1177.344, 1376.059
1178.431, 1344.322
1179.518, 1273.088
1180.605, 1303.857
1181.691, 1436.631
1182.778, 1380.407
1183.864, 1669.188
1184.950, 1672.574
1186.036, 1912.361
1187.122, 2087.698
1188.207, 2478.492
1189.292, 2631.291
1190.378, 2726.973
1191.463, 2810.896
1192.548, 2694.705
1193.632, 2512.517
1194.717, 2228.322
1195.801, 2039.142
1196.886, 2011.438
1197.970, 1895.457
1199.054, 1579.631
1200.137, 1582.250
1201.221, 1546.509
1202.305, 1359.070
1203.388, 1416.915
1204.471, 1264.952
1205.554, 1347.957
1206.637, 1425.815
1207.719, 1078.316
1208.802, 1226.183
1209.884, 1250.619
1210.966, 1289.495
1212.048, 1215.315
1213.130, 1176.201
1214.212, 1180.092
1215.293, 1075.515
1216.374, 1086.414
1217.456, 1081.126
1218.536, 1128.223
1219.617, 1093.619
1220.698, 1076.058
1221.778, 1036.523
1222.859, 1073.336
1223.939, 1035.271
1225.019, 932.2129
1226.099, 982.1465
1227.178, 961.7578
1228.258, 989.7158
1229.337, 968.5449
1230.417, 932.5117
1231.496, 941.4844
1232.574, 849.4629
1233.653, 866.4453
1234.732, 877.4336
1235.810, 919.4268
1236.888, 844.4248
1237.966, 902.4268
1239.044, 873.4336
1240.122, 949.4443
1241.199, 676.4600
1242.277, 815.4785
1243.354, 719.5020
1244.431, 757.5293
1245.508, 899.5596
1246.585, 642.5947
1247.661, 784.6348
1248.738, 673.6768
1249.814, 608.7227
1250.890, 545.7725
1251.966, 647.8262
1253.042, 625.8828
1254.117, 483.9434
1255.193, 691.0068
1256.268, 531.0752
1257.343, 552.1455
1258.418, 616.2197
1259.493, 465.2988
1260.567, 334.3799
1261.642, 480.4648
1262.716, 406.5527
1263.790, 373.6455
1264.864, 507.7402
1265.938, 313.8379
1267.011, 363.9414
1268.085, 516.0459
1269.158, 314.1553
1270.231, 415.2686
1271.304, 339.3848
1272.377, 387.5039
1273.450, 255.6270
1274.522, 342.7549
1275.594, 190.8848
1276.666, 233.0186
1277.738, 305.1572
1278.810, 234.2979
1279.882, 200.4434
1280.953, 239.5918
1282.025, 203.7676
1283.096, 102.9473
1284.167, 190.1309
1285.238, 136.3184
1286.308, 183.5098
1287.379, 183.7041
1288.449, 157.9033
1289.519, 5.894531
1290.589, 155.3076
1291.659, 65.51367
1292.729, 4.266602
1293.798, 78.96973
1294.868, 52.20898
1295.937, 18.54492
1297.006, 17.30371
1298.075, 60.92969
1299.143, 154.8311
1300.212, 147.6689
1301.280, 68.58203
1302.348, 33.47168
1303.416, 70.47168
1304.484, 17.55176
1305.552, 33.57812
1306.620, 56.39160
1307.687, 59.61133
