##NAMES=Dioptase
##RRUFFID=R040028
##IDEAL CHEMISTRY=Cu^2+^SiO_3_&#183;H_2_O
##LOCALITY=Tantara mine, Democratic Republic of the Congo
##OWNER=RRUFF
##SOURCE=University of Arizona Mineral Museum
##DESCRIPTION=Bluish green coarsely crystallized fragment
##STATUS=The identification of this mineral has been confirmed by X-ray diffraction and chemical analysis
##URL=rruff.info/R040028
##MEASURED CHEMISTRY=Cu_1.00_Si_1.00_O_3_Â·H_2_O; H_2_O estimated by difference
##PIN_ID=M00034
##ORIENTATION=Laser parallel to -c* (0 0 -1). Fiducial mark perpendicular to laser is parallel to -a [-1 0 0]
87.106, 0.000
88.503, 255.756
89.901, 15.592
91.298, 231.648
92.695, 596.125
94.092, 1357.709
95.488, 2720.023
96.884, 4447.443
98.281, 7621.803
99.676, 8293.488
101.072, 6210.150
102.467, 3062.633
103.863, 1116.895
105.258, 406.744
106.652, 556.664
108.047, 1131.648
109.441, 1536.713
110.835, 2110.928
112.229, 2595.854
113.623, 3343.803
115.016, 4225.559
116.409, 4559.711
117.802, 5480.375
119.195, 5132.506
120.587, 5020.500
121.980, 4409.748
123.372, 4378.279
124.764, 4536.564
126.155, 5084.504
127.546, 6772.806
128.938, 9585.293
130.329, 16938.012
131.719, 22221.291
133.110, 23963.500
134.500, 27483.307
135.890, 22925.066
137.280, 27034.586
138.669, 23212.787
140.059, 16022.032
141.448, 8506.295
142.837, 4013.760
144.225, 1862.578
145.614, 561.213
147.002, 2.915
148.390, 457.882
149.778, 314.349
151.166, 520.975
152.553, 107.936
153.940, 424.037
155.327, 1014.767
156.714, 2744.319
158.100, 4492.754
159.486, 8110.125
160.872, 10066.483
162.258, 10261.872
163.644, 8576.339
165.029, 5449.918
166.414, 3799.941
167.799, 2113.820
169.184, 1434.633
170.568, 1018.789
171.952, 1084.882
173.336, 1512.619
174.720, 2308.697
176.104, 4184.960
177.487, 5671.371
178.870, 7837.889
180.253, 8114.446
181.636, 7061.023
183.018, 5937.596
184.400, 4384.141
185.782, 3580.625
187.164, 2526.947
188.546, 2053.077
189.927, 1529.016
191.308, 1334.766
192.689, 1300.323
194.070, 1545.686
195.450, 2223.198
196.830, 2579.922
198.210, 2873.040
199.590, 2304.197
200.970, 1805.819
202.349, 2040.029
203.728, 1865.146
205.107, 2086.177
206.486, 2054.875
207.864, 2439.282
209.243, 2984.909
210.621, 3304.097
211.998, 4138.650
213.376, 4940.968
214.753, 6357.753
216.130, 7741.016
217.507, 10218.471
218.884, 13464.830
220.261, 16797.100
221.637, 22319.281
223.013, 25511.307
224.389, 30293.209
225.764, 31035.014
227.140, 29986.709
228.515, 26808.236
229.890, 21239.582
231.264, 17720.785
232.639, 12801.855
234.013, 9972.786
235.387, 7143.579
236.761, 5494.232
238.135, 4204.748
239.508, 3165.134
240.881, 3045.385
242.254, 2365.502
243.627, 2235.485
244.999, 1565.336
246.372, 885.057
247.744, 624.646
249.116, 104.091
250.487, 83.299
251.859, 167.877
253.230, 160.229
254.601, 125.006
255.972, 237.892
257.342, 802.683
258.712, 1367.080
260.083, 2811.053
261.452, 4794.565
262.822, 8197.418
264.192, 12359.746
265.561, 15071.556
266.930, 16902.869
268.299, 14093.611
269.667, 10783.568
271.036, 7701.660
272.404, 6079.417
273.772, 5057.408
275.139, 3944.875
276.507, 3791.859
277.874, 3588.414
279.241, 3734.568
280.608, 3940.349
281.974, 3995.568
283.341, 4878.781
284.707, 4709.662
286.073, 5909.568
287.439, 6569.293
288.804, 7578.902
290.170, 9108.409
291.535, 9767.830
292.899, 10967.114
294.264, 9746.146
295.629, 8744.908
296.993, 6643.527
298.357, 4422.006
299.720, 3100.316
301.084, 1658.497
302.447, 1066.502
303.811, 1025.285
305.173, 574.796
306.536, 36.082
307.899, 135.872
309.261, 173.167
310.623, 478.801
311.985, 271.464
313.346, 563.912
314.708, 516.072
316.069, 350.549
317.430, 406.976
318.790, 28.371
320.151, 137.733
321.511, 743.350
322.871, 1398.053
324.231, 2191.295
325.591, 3014.978
326.950, 2808.025
328.310, 2780.662
329.669, 1883.281
331.027, 2205.582
332.386, 1223.954
333.744, 565.415
335.102, 473.893
336.460, 200.762
337.818, 203.814
339.175, 149.991
340.533, 154.227
341.890, 382.268
343.247, 244.093
344.603, 680.424
345.960, 730.602
347.316, 1350.629
348.672, 1976.516
350.028, 2905.273
351.383, 4783.904
352.738, 7292.020
354.094, 12427.817
355.448, 18692.680
356.803, 24717.279
358.158, 28222.779
359.512, 23670.607
360.866, 18528.215
362.220, 13115.405
363.573, 9141.968
364.927, 6705.537
366.280, 4889.076
367.633, 4121.267
368.986, 3184.195
370.338, 2926.923
371.690, 2481.209
373.043, 2245.581
374.394, 2319.851
375.746, 2013.955
377.098, 2317.859
378.449, 2131.561
379.800, 2325.084
381.151, 2548.471
382.501, 2691.819
383.852, 3135.042
385.202, 3298.429
386.552, 4151.770
387.901, 4814.773
389.251, 5588.457
390.600, 7151.314
391.949, 8534.099
393.298, 11516.812
394.647, 14509.456
395.995, 18512.027
397.344, 23604.527
398.692, 25676.963
400.039, 28489.320
401.387, 25701.615
402.734, 22463.836
404.082, 18345.996
405.429, 13728.079
406.775, 11079.734
408.122, 8188.546
409.468, 6783.640
410.814, 5696.546
412.160, 4941.026
413.506, 4694.974
414.851, 4334.634
416.197, 4674.595
417.542, 4509.428
418.886, 4846.553
420.231, 5150.167
421.575, 4977.024
422.920, 5547.640
424.264, 5288.095
425.607, 5769.136
426.951, 5729.684
428.294, 5731.198
429.637, 6132.447
430.980, 5764.124
432.323, 6386.027
433.666, 6047.359
435.008, 6269.371
436.350, 6464.902
437.692, 6030.334
439.033, 6427.995
440.375, 5856.825
441.716, 6485.082
443.057, 5862.093
444.398, 5178.301
445.738, 5648.945
447.079, 4874.795
448.419, 4775.939
449.759, 4653.203
451.099, 4503.123
452.438, 4935.542
453.777, 4538.865
455.116, 4796.699
456.455, 4542.178
457.794, 4137.555
459.132, 3843.429
460.471, 3152.128
461.809, 3008.249
463.147, 2378.563
464.484, 2098.385
465.822, 1974.519
467.159, 1692.726
468.496, 1726.841
469.832, 1376.112
471.169, 1337.747
472.505, 1145.294
473.842, 1088.721
475.177, 1120.016
476.513, 833.245
477.849, 935.222
479.184, 795.158
480.519, 945.569
481.854, 873.075
483.189, 797.872
484.523, 1096.708
485.857, 945.505
487.191, 1052.211
488.525, 1230.829
489.859, 1066.363
491.192, 1144.874
492.525, 1000.238
493.858, 968.855
495.191, 910.691
496.524, 812.739
497.856, 917.833
499.188, 761.952
500.520, 935.337
501.852, 929.780
503.183, 933.890
504.514, 1174.418
505.846, 1126.958
507.176, 1415.889
508.507, 1360.479
509.838, 1548.640
511.168, 1776.997
512.498, 1796.290
513.828, 2183.519
515.157, 2003.702
516.487, 2276.834
517.816, 2417.914
519.145, 2298.939
520.474, 2545.917
521.802, 2264.830
523.131, 2230.682
524.459, 2239.490
525.787, 2004.260
527.114, 2014.982
528.442, 1711.664
529.769, 1908.302
531.096, 1564.896
532.423, 1546.443
533.750, 1431.940
535.076, 1203.390
536.403, 1218.789
537.729, 1092.140
539.055, 926.443
540.380, 977.699
541.706, 797.912
543.031, 976.077
544.356, 740.201
545.681, 727.278
547.005, 886.309
548.330, 597.294
549.654, 899.229
550.978, 767.118
552.302, 948.965
553.625, 1209.772
554.949, 1260.549
556.272, 1757.282
557.595, 1944.983
558.917, 2399.652
560.240, 2923.277
561.562, 3265.868
562.884, 3758.438
564.206, 3480.978
565.528, 3643.504
566.849, 3415.993
568.171, 3058.484
569.492, 3020.974
570.813, 2673.462
572.133, 2756.008
573.454, 2478.599
574.774, 2248.312
576.094, 2231.123
577.414, 1630.964
578.733, 1497.838
580.053, 1183.704
581.372, 963.555
582.691, 741.368
584.010, 435.146
585.328, 509.886
586.647, 235.588
587.965, 256.243
589.283, 111.852
590.601, 16.410
591.918, 112.915
593.235, 7.628
594.553, 98.230
595.869, 98.924
597.186, 142.708
598.503, 164.604
599.819, 157.623
601.135, 138.760
602.451, 127.006
603.767, 202.353
605.082, 124.839
606.397, 214.426
607.713, 154.157
609.027, 199.002
610.342, 240.982
611.657, 87.120
612.971, 172.337
614.285, 133.675
615.599, 134.112
616.912, 145.647
618.226, 29.714
619.539, 154.962
620.852, 98.255
622.165, 71.451
623.477, 163.635
624.790, 192.812
626.102, 223.999
627.414, 291.239
628.726, 346.311
630.037, 319.452
631.349, 510.171
632.660, 414.934
633.971, 636.246
635.281, 578.745
636.592, 812.964
637.902, 978.913
639.212, 989.591
640.522, 1189.049
641.832, 1402.231
643.142, 1647.689
644.451, 1979.526
645.760, 2161.823
647.069, 2943.358
648.378, 3294.743
649.686, 3986.250
650.994, 5217.390
652.303, 6018.428
653.610, 8529.274
654.918, 10439.765
656.226, 13680.771
657.533, 17831.203
658.840, 20092.432
660.147, 23643.723
661.453, 22545.092
662.760, 20376.811
664.066, 18438.557
665.372, 13990.305
666.678, 11982.057
667.984, 9413.799
669.289, 7436.097
670.594, 6547.818
671.899, 4921.783
673.204, 4493.483
674.509, 3625.177
675.813, 3126.860
677.117, 2782.051
678.421, 2151.715
679.725, 2174.372
681.029, 1796.473
682.332, 1655.710
683.635, 1470.342
684.938, 1196.965
686.241, 1180.580
687.544, 986.187
688.846, 978.056
690.148, 842.744
691.450, 727.509
692.752, 820.088
694.054, 663.670
695.355, 542.235
696.656, 639.794
697.957, 405.638
699.258, 632.133
700.559, 466.707
701.859, 522.004
703.159, 588.437
704.459, 398.962
705.759, 536.729
707.058, 444.246
708.358, 466.373
709.657, 537.133
710.956, 569.005
712.254, 626.505
713.553, 632.491
714.851, 775.147
716.149, 846.636
717.447, 810.908
718.745, 983.144
720.043, 955.273
721.340, 1123.651
722.637, 1408.215
723.934, 1374.729
725.231, 1791.017
726.527, 1882.478
727.823, 2251.915
729.120, 2635.298
730.415, 3059.415
731.711, 3760.858
733.007, 4402.297
734.302, 5156.103
735.597, 6377.529
736.892, 6989.931
738.187, 8901.347
739.481, 9582.756
740.775, 10284.324
742.070, 11565.309
743.363, 10415.163
744.657, 10715.121
745.951, 9594.494
747.244, 8163.489
748.537, 7582.904
749.830, 5961.496
751.123, 5406.421
752.415, 4501.300
753.707, 3533.812
754.999, 3405.010
756.291, 2670.646
757.583, 2375.390
758.874, 2008.802
760.166, 1678.655
761.457, 1607.187
762.748, 1305.310
764.038, 1186.208
765.329, 993.341
766.619, 810.864
767.909, 751.857
769.199, 727.271
770.489, 599.414
771.778, 586.556
773.067, 468.097
774.357, 552.709
775.645, 414.798
776.934, 394.771
778.223, 592.671
779.511, 575.993
780.799, 547.783
782.087, 273.125
783.374, 380.094
784.662, 363.331
785.949, 196.491
787.236, 461.066
788.523, 263.656
789.810, 252.258
791.096, 400.875
792.383, 221.505
793.669, 333.149
794.955, 237.805
796.240, 319.471
797.526, 380.151
798.811, 202.839
800.096, 355.539
801.381, 348.246
802.666, 279.961
803.950, 381.684
805.234, 186.419
806.518, 272.164
807.802, 233.919
809.086, 169.698
810.370, 214.490
811.653, 108.293
812.936, 292.110
814.219, 221.936
815.502, 118.780
816.784, 260.633
818.066, 137.493
819.348, 18.362
820.630, 131.238
821.912, 27.124
823.194, 0.982
824.475, 29.855
825.756, 38.184
827.037, 30.707
828.318, 40.606
829.598, 27.514
830.878, 64.569
832.158, 36.324
833.438, 78.227
834.718, 62.860
835.998, 22.970
837.277, 37.914
838.556, 47.275
839.835, 45.287
841.114, 176.624
842.392, 7.547
843.671, 13.477
844.949, 10.414
846.227, 100.358
847.504, 19.313
848.782, 38.278
850.059, 83.255
851.337, 7.242
852.613, 59.236
853.890, 9.759
855.167, 21.248
856.443, 11.266
857.719, 133.294
858.995, 74.569
860.271, 54.618
861.547, 0.543
862.822, 8.530
864.097, 59.390
865.372, 78.673
866.647, 41.251
867.922, 34.185
869.196, 25.873
870.470, 26.056
871.744, 86.988
873.018, 44.950
874.292, 129.922
875.565, 14.058
876.838, 132.949
878.111, 49.005
879.384, 41.928
880.657, 112.126
881.929, 30.217
883.201, 106.313
884.473, 26.556
885.745, 72.439
887.017, 40.663
888.288, 123.228
889.559, 10.866
890.831, 66.044
892.101, 152.970
893.372, 10.089
894.643, 192.861
895.913, 130.829
897.183, 228.819
898.453, 272.830
899.722, 264.866
900.992, 439.929
902.261, 275.017
903.530, 404.134
904.799, 647.299
906.068, 529.509
907.336, 750.778
908.605, 895.110
909.873, 962.505
911.141, 1270.956
912.408, 1361.461
913.676, 1567.040
914.943, 1750.673
916.211, 1676.382
917.477, 1729.152
918.744, 1531.996
920.011, 1427.923
921.277, 1245.895
922.543, 917.933
923.809, 1045.026
925.075, 818.176
926.341, 754.384
927.606, 773.617
928.871, 661.911
930.136, 790.229
931.401, 767.226
932.666, 892.937
933.930, 853.324
935.194, 637.733
936.458, 701.163
937.722, 726.611
938.986, 543.080
940.249, 710.566
941.512, 719.071
942.776, 563.593
944.038, 809.134
945.301, 641.692
946.564, 817.270
947.826, 840.864
949.088, 900.477
950.350, 1157.108
951.611, 1552.757
952.873, 1124.425
954.134, 1312.111
955.395, 1206.818
956.656, 1665.349
957.917, 1632.571
959.178, 2199.887
960.438, 1783.472
961.698, 1511.280
962.958, 1499.263
964.218, 1594.109
965.477, 1205.977
966.737, 1227.651
967.996, 1047.555
969.255, 1039.485
970.514, 1133.436
971.772, 963.403
973.031, 1121.655
974.289, 975.682
975.547, 1069.161
976.805, 1209.224
978.062, 967.053
979.320, 1232.153
980.577, 1165.278
981.834, 1224.431
983.091, 1356.085
984.348, 1322.294
985.604, 1447.521
986.861, 1658.313
988.117, 1636.982
989.373, 1972.269
990.628, 2017.574
991.884, 2256.904
993.139, 2555.253
994.394, 2715.357
995.649, 3219.653
996.904, 3663.894
998.158, 4028.353
999.413, 5202.821
1000.667, 5917.321
1001.921, 7661.858
1003.175, 9256.126
1004.428, 10400.717
1005.682, 12744.292
1006.935, 12248.925
1008.188, 12313.429
1009.441, 11878.122
1010.693, 10302.833
1011.946, 10567.578
1013.198, 9981.734
1014.450, 9836.300
1015.702, 10677.776
1016.954, 9852.646
1018.205, 10565.040
1019.457, 10257.785
1020.708, 9502.711
1021.959, 10045.872
1023.209, 9116.085
1024.460, 9138.424
1025.710, 9016.535
1026.960, 8001.485
1028.210, 8319.502
1029.460, 7251.760
1030.710, 6596.866
1031.959, 6476.021
1033.208, 5319.246
1034.457, 4918.755
1035.706, 4313.956
1036.955, 3489.175
1038.203, 3442.051
1039.451, 2829.319
1040.699, 2688.629
1041.947, 2454.940
1043.195, 2014.274
1044.442, 1968.718
1045.690, 1642.100
1046.937, 1626.504
1048.184, 1647.930
1049.430, 1300.380
1050.677, 1348.852
1051.923, 1200.348
1053.169, 1000.864
1054.415, 1167.402
1055.661, 950.960
1056.907, 988.539
1058.152, 909.142
1059.397, 681.767
1060.642, 842.412
1061.887, 648.077
1063.132, 653.764
1064.376, 735.469
1065.620, 600.198
1066.864, 606.944
1068.108, 580.708
1069.352, 466.491
1070.595, 674.289
1071.839, 440.103
1073.082, 448.935
1074.325, 425.782
1075.567, 276.646
1076.810, 444.525
1078.052, 385.420
1079.294, 224.340
1080.536, 332.275
1081.778, 280.224
1083.020, 261.188
1084.261, 255.167
1085.502, 205.162
1086.743, 303.178
1087.984, 275.211
1089.225, 172.262
1090.465, 213.328
1091.706, 130.409
1092.946, 154.510
1094.186, 111.624
1095.425, 51.752
1096.665, 155.921
1097.904, 48.078
1099.143, 62.247
1100.382, 204.431
1101.621, 70.628
1102.859, 25.974
1104.098, 71.647
1105.336, 37.112
1106.574, 171.186
1107.812, 2.549
1109.049, 79.950
1110.287, 43.325
1111.524, 12.398
1112.761, 41.144
1113.998, 14.891
1115.235, 58.797
1116.471, 124.510
1117.707, 60.996
1118.944, 6.395
1120.180, 109.739
1121.415, 17.906
1122.651, 67.702
1123.886, 102.077
1125.121, 141.467
1126.356, 117.866
1127.591, 119.286
1128.826, 80.277
1130.060, 124.592
1131.294, 54.041
1132.528, 122.846
1133.762, 129.328
1134.996, 124.819
1136.229, 138.700
1137.463, 194.314
1138.696, 139.853
1139.929, 164.624
1141.162, 106.180
1142.394, 145.748
1143.626, 169.320
1144.859, 131.738
1146.091, 240.003
1147.322, 206.600
1148.554, 208.862
1149.785, 288.885
1151.017, 152.547
1152.248, 267.931
1153.479, 224.871
1154.709, 167.258
1155.940, 287.735
1157.170, 223.388
1158.400, 305.403
1159.630, 300.774
1160.860, 249.551
1162.089, 287.069
1163.319, 283.678
1164.548, 221.540
1165.777, 423.255
1167.006, 679.972
1168.234, 479.595
1169.463, 541.734
1170.691, 248.436
1171.919, 306.339
1173.147, 326.607
1174.375, 201.596
1175.602, 336.963
1176.830, 212.853
1178.057, 269.310
1179.284, 274.535
1180.511, 207.003
1181.737, 261.481
1182.963, 195.957
1184.190, 182.883
1185.416, 336.855
1186.642, 70.792
1187.867, 343.728
1189.093, 163.771
1190.318, 158.786
1191.543, 210.731
1192.768, 183.104
1193.993, 133.045
1195.217, 218.199
1196.442, 15.131
1197.666, 89.067
1198.890, 115.833
1200.114, 115.816
1201.337, 94.859
1202.561, 149.823
1203.784, 134.747
1205.007, 137.796
1206.230, 119.319
1207.452, 165.234
1208.675, 142.825
1209.897, 103.143
1211.119, 192.047
1212.341, 161.260
1213.563, 156.287
1214.785, 144.179
1216.006, 79.066
1217.227, 239.952
1218.448, 129.841
1219.669, 82.812
1220.890, 266.680
1222.110, 137.826
1223.330, 104.683
1224.551, 221.534
1225.771, 60.755
1226.990, 120.595
1228.210, 179.430
1229.429, 98.259
1230.648, 109.083
1231.867, 102.506
1233.086, 76.016
1234.305, 121.149
1235.523, 95.604
1236.741, 77.227
1237.960, 110.050
1239.177, 29.290
1240.395, 87.083
1241.613, 87.049
1242.830, 23.943
1244.047, 60.731
1245.264, 46.517
1246.481, 93.504
1247.697, 130.275
1248.914, 18.277
1250.130, 4.031
1251.346, 74.780
1252.562, 27.146
1253.778, 38.931
1254.993, 26.385
1256.209, 31.675
1257.424, 120.341
1258.639, 11.956
1259.853, 4.754
1261.068, 70.492
1262.282, 43.540
1263.497, 23.711
1264.711, 27.869
1265.924, 55.937
1267.138, 107.479
1268.352, 71.227
1269.565, 56.734
1270.778, 75.244
1271.991, 64.621
1273.204, 150.088
1274.416, 10.568
1275.629, 15.201
1276.841, 109.110
1278.053, 53.603
1279.265, 59.761
1280.476, 126.995
1281.688, 18.216
1282.899, 37.427
1284.110, 74.621
1285.321, 1.974
1286.532, 57.416
1287.743, 2.187
1288.953, 86.473
1290.163, 10.418
1291.373, 55.330
1292.583, 82.729
1293.793, 13.762
1295.002, 50.223
1296.211, 50.758
1297.421, 23.284
1298.629, 31.746
1299.838, 13.666
1301.047, 55.430
1302.255, 90.523
1303.463, 32.360
1304.671, 20.819
1305.879, 11.023
1307.087, 70.270
1308.294, 23.568
1309.502, 48.103
1310.709, 69.744
1311.916, 82.367
1313.122, 96.867
1314.329, 49.562
1315.535, 60.119
1316.741, 54.645
1317.948, 14.850
1319.153, 51.625
1320.359, 31.078
1321.564, 72.505
1322.770, 29.910
1323.975, 4.288
1325.180, 139.634
1326.385, 25.962
1327.589, 149.266
1328.794, 132.697
1329.998, 13.817
1331.202, 108.059
1332.406, 132.361
1333.609, 67.561
1334.813, 74.742
1336.016, 91.902
1337.219, 5.042
1338.422, 157.155
1339.625, 59.247
1340.827, 18.318
1342.030, 162.362
1343.232, 25.386
1344.434, 86.385
1345.636, 72.365
1346.838, 91.323
1348.039, 147.262
1349.240, 15.256
1350.442, 38.152
1351.643, 120.025
1352.843, 35.008
1354.044, 50.843
1355.244, 153.658
1356.445, 10.567
1357.645, 74.339
1358.845, 118.093
1360.044, 114.831
1361.244, 106.550
1362.443, 105.318
1363.642, 85.006
1364.841, 139.680
1366.040, 63.334
1367.239, 302.966
1368.437, 198.887
1369.635, 7.773
1370.833, 196.800
1372.031, 199.847
1373.229, 344.386
1374.427, 146.914
1375.624, 44.423
1376.821, 3.965
1378.018, 63.274
1379.215, 23.362
1380.412, 66.458
1381.608, 80.528
1382.804, 11.572
1384.000, 153.570
1385.196, 83.576
1386.392, 99.418
1387.588, 215.898
1388.783, 134.775
1389.978, 81.170
1391.173, 183.782
1392.368, 21.156
1393.563, 147.606
1394.757, 152.343
1395.952, 10.194
1397.146, 108.907
1398.340, 171.601
1399.534, 84.268
1400.727, 118.785
1401.921, 94.332
1403.114, 86.321
1404.307, 97.736
1405.500, 77.575
1406.692, 88.736
1407.885, 83.278
1409.077, 51.175
1410.270, 104.812
1411.462, 97.610
1412.653, 35.427
1413.845, 83.414
1415.036, 104.760
1416.228, 63.411
1417.419, 134.145
1418.610, 82.631
1419.801, 100.023
1420.991, 142.930
1422.182, 63.685
1423.372, 149.418
1424.562, 100.890
1425.752, 152.359
1426.941, 169.229
1428.131, 42.470
1429.320, 85.715
1430.509, 114.824
1431.698, 164.200
1432.887, 143.102
1434.076, 124.024
1435.264, 111.123
1436.452, 146.357
1437.641, 136.267
1438.828, 81.578
1440.016, 140.035
1441.204, 56.943
1442.391, 166.794
1443.578, 183.460
1444.765, 58.746
1445.952, 177.046
1447.139, 187.710
1448.325, 159.335
1449.512, 265.367
1450.698, 164.087
1451.884, 155.472
1453.070, 170.702
1454.255, 100.193
1455.441, 153.159
1456.626, 174.594
1457.811, 134.647
1458.996, 206.069
1460.181, 145.503
1461.365, 99.681
1462.549, 196.562
1463.734, 172.219
1464.918, 147.926
1466.102, 159.362
1467.285, 109.390
1468.469, 77.810
1469.652, 165.240
1470.835, 111.780
1472.018, 168.120
1473.201, 175.759
1474.383, 25.333
1475.566, 234.117
1476.748, 132.579
1477.930, 75.006
1479.112, 160.374
1480.294, 117.723
1481.475, 109.714
1482.657, 181.938
1483.838, 94.820
1485.019, 155.988
1486.200, 92.260
1487.381, 76.587
1488.561, 117.929
1489.741, 113.293
1490.922, 14.812
1492.101, 79.354
1493.281, 103.958
1494.461, 4.662
1495.640, 160.415
1496.820, 73.187
1497.999, 5.483
1499.178, 105.297
