##NAMES=Diopside
##RRUFFID=R040097
##IDEAL CHEMISTRY=CaMgSi_2_O_6_
##LOCALITY=Fassathal, Tyrol
##OWNER=RRUFF
##SOURCE=University of Arizona Mineral Museum
##DESCRIPTION=Green prismatic crystals
##STATUS=The identification of this mineral has been confirmed by X-ray diffraction and chemical analysis
##URL=rruff.info/R040097
##MEASURED CHEMISTRY=Ca_1.00_(Mg_0.83_Al_0.10_Fe_0.09_Ca_0.02_Ti_0.02_)(Si_0.88_Al_0.12_)_2_O_6_
##PIN_ID=L00421
##ORIENTATION=Laser parallel to [1 0 1]. Fiducial mark perpendicular to laser is parallel to -b* (0 -1 0)
116.218, 0.000
117.602, 72.410
118.987, 101.113
120.371, 55.991
121.755, 65.464
123.138, 112.817
124.522, 2.039
125.905, 181.046
127.288, 47.325
128.671, 240.602
130.053, 35.556
131.436, 160.535
132.818, 311.153
134.200, 194.140
135.582, 451.950
136.963, 442.074
138.345, 824.701
139.726, 1074.235
141.107, 1309.415
142.488, 1373.307
143.868, 1243.237
145.248, 1202.213
146.629, 836.569
148.008, 621.494
149.388, 474.956
150.768, 234.289
152.147, 308.501
153.526, 89.604
154.905, 148.858
156.284, 71.268
157.662, 159.243
159.040, 56.475
160.418, 18.977
161.796, 5.862
163.174, 16.640
164.551, 61.061
165.929, 5.340
167.306, 123.157
168.683, 148.635
170.059, 172.065
171.436, 187.452
172.812, 57.798
174.188, 180.107
175.564, 26.384
176.939, 62.631
178.315, 41.853
179.690, 135.050
181.065, 314.225
182.440, 477.596
183.814, 672.725
185.188, 733.838
186.563, 584.935
187.937, 374.019
189.310, 192.091
190.684, 213.153
192.057, 27.973
193.430, 177.919
194.803, 119.355
196.176, 210.271
197.549, 228.214
198.921, 267.944
200.293, 227.163
201.665, 110.252
203.037, 77.110
204.408, 20.830
205.779, 77.541
207.150, 111.304
208.521, 36.882
209.892, 128.973
211.262, 69.861
212.633, 76.773
214.003, 77.709
215.373, 76.668
216.742, 230.646
218.112, 147.634
219.481, 333.629
220.850, 280.557
222.219, 485.437
223.588, 609.290
224.956, 723.139
226.324, 970.006
227.692, 1020.880
229.060, 1318.755
230.428, 1300.634
231.795, 1578.527
233.162, 1365.436
234.529, 1151.360
235.896, 930.300
237.263, 597.247
238.629, 572.205
239.995, 294.173
241.361, 261.151
242.727, 278.127
244.093, 203.100
245.458, 270.038
246.823, 116.979
248.188, 334.923
249.553, 247.877
250.917, 328.842
252.282, 505.818
253.646, 407.805
255.010, 617.805
256.374, 418.814
257.737, 528.835
259.101, 468.867
260.464, 317.909
261.827, 300.963
263.189, 225.028
264.552, 157.125
265.914, 157.191
267.276, 35.292
268.638, 82.408
270.000, 10.459
271.362, 10.309
272.723, 82.137
274.084, 27.056
275.445, 72.226
276.806, 65.985
278.166, 18.751
279.526, 103.505
280.887, 61.616
282.246, 37.371
283.606, 90.979
284.966, 98.399
286.325, 53.765
287.684, 215.327
289.043, 77.035
290.402, 314.291
291.760, 102.276
293.118, 347.220
294.477, 421.767
295.834, 331.539
297.192, 626.401
298.550, 580.044
299.907, 750.644
301.264, 904.174
302.621, 972.446
303.978, 1282.794
305.334, 1160.777
306.690, 1340.739
308.046, 1295.692
309.402, 1572.625
310.758, 1780.924
312.113, 1938.792
313.469, 2357.752
314.824, 2684.533
316.179, 3242.405
317.533, 3789.904
318.888, 4407.564
320.242, 5314.786
321.596, 5922.493
322.950, 7254.562
324.304, 7731.428
325.657, 7956.691
327.010, 7910.953
328.363, 6947.919
329.716, 6343.631
331.069, 5081.041
332.421, 4608.566
333.774, 3839.487
335.126, 3044.056
336.478, 2771.102
337.829, 2148.897
339.181, 2045.573
340.532, 1802.918
341.883, 1649.875
343.234, 1577.429
344.585, 1435.192
345.935, 1512.957
347.285, 1280.728
348.635, 1518.502
349.985, 1466.281
351.335, 1644.064
352.684, 1771.852
354.034, 1819.643
355.383, 2096.676
356.731, 2184.464
358.080, 2141.973
359.429, 2119.680
360.777, 1887.352
362.125, 1984.978
363.473, 1762.605
364.820, 1899.907
366.168, 1877.081
367.515, 1853.659
368.862, 2040.862
370.209, 1748.219
371.556, 1931.783
372.902, 1779.237
374.249, 1696.454
375.595, 1803.712
376.940, 1850.984
378.286, 1958.264
379.632, 2115.945
380.977, 2593.542
382.322, 3051.231
383.667, 3378.925
385.012, 4476.623
386.356, 5214.324
387.700, 6652.029
389.044, 7839.737
390.388, 9197.451
391.732, 10015.166
393.075, 9902.888
394.419, 9480.609
395.762, 7938.338
397.105, 6756.068
398.447, 5403.805
399.790, 4101.545
401.132, 3299.299
402.474, 2317.054
403.816, 1994.827
405.158, 1412.607
406.499, 1150.392
407.841, 1028.213
409.182, 695.950
410.523, 683.798
411.864, 553.651
413.204, 460.533
414.544, 385.433
415.884, 179.334
417.224, 418.708
418.564, 213.662
419.904, 341.902
421.243, 239.922
422.582, 258.205
423.921, 302.620
425.260, 137.680
426.598, 263.919
427.937, 69.042
429.275, 403.509
430.613, 217.050
431.951, 14.409
433.288, 162.259
434.625, 62.895
435.963, 190.954
437.300, 68.881
438.636, 132.998
439.973, 153.090
441.309, 4.820
442.646, 150.561
443.981, 97.520
445.317, 93.134
446.653, 266.521
447.988, 12.497
449.323, 166.171
450.658, 53.947
451.993, 72.519
453.328, 190.594
454.662, 111.803
455.996, 281.096
457.331, 60.528
458.664, 268.053
459.998, 213.719
461.331, 156.730
462.665, 340.322
463.998, 41.881
465.330, 297.364
466.663, 325.649
467.996, 184.340
469.328, 322.705
470.660, 12.788
471.992, 169.179
473.323, 207.579
474.655, 175.535
475.986, 263.706
477.317, 81.644
478.648, 169.573
479.979, 117.495
481.309, 165.411
482.640, 143.317
483.970, 11.238
485.300, 239.152
486.629, 187.066
487.959, 204.997
489.288, 112.921
490.617, 190.844
491.946, 288.760
493.275, 86.666
494.603, 284.562
495.932, 122.447
497.260, 100.324
498.588, 348.192
499.916, 76.055
501.243, 333.906
502.571, 251.750
503.898, 189.584
505.225, 337.406
506.552, 265.217
507.878, 493.016
509.205, 320.804
510.531, 448.579
511.857, 546.342
513.183, 414.094
514.508, 661.833
515.834, 529.562
517.159, 567.280
518.484, 714.985
519.809, 552.680
521.133, 750.360
522.458, 548.029
523.782, 765.685
525.106, 873.330
526.430, 890.963
527.754, 1058.590
529.077, 936.203
530.400, 1143.806
531.723, 961.413
533.046, 839.006
534.369, 996.588
535.692, 824.158
537.014, 771.715
538.336, 659.261
539.658, 496.792
540.980, 564.308
542.301, 252.012
543.623, 509.499
544.944, 376.973
546.265, 394.430
547.585, 421.871
548.906, 319.493
550.226, 496.905
551.547, 174.302
552.867, 511.697
554.186, 489.062
555.506, 397.186
556.825, 514.646
558.145, 432.201
559.464, 561.742
560.783, 529.025
562.101, 329.879
563.420, 577.882
564.738, 165.684
566.056, 420.799
567.374, 398.404
568.692, 220.516
570.009, 348.428
571.326, 251.309
572.643, 322.066
573.960, 279.371
575.277, 97.815
576.594, 305.381
577.910, 133.242
579.226, 374.176
580.542, 151.168
581.858, 136.649
583.173, 233.690
584.489, 14.991
585.804, 261.785
587.119, 68.829
588.434, 112.105
589.748, 209.070
591.063, 14.163
592.377, 183.207
593.691, 29.881
595.005, 47.637
596.318, 94.565
597.632, 118.448
598.945, 118.619
600.258, 84.712
601.571, 32.421
602.884, 109.216
604.196, 124.157
605.508, 224.820
606.821, 0.753
608.132, 57.496
609.444, 134.129
610.756, 69.812
612.067, 216.628
613.378, 32.647
614.689, 159.084
616.000, 135.485
617.311, 78.592
618.621, 268.335
619.931, 114.138
621.241, 120.395
622.551, 136.460
623.861, 182.173
625.170, 93.108
626.479, 168.780
627.788, 234.423
629.097, 161.426
630.406, 157.011
631.714, 443.268
633.023, 208.794
634.331, 424.291
635.639, 399.821
636.946, 335.264
638.254, 430.680
639.561, 436.141
640.868, 481.520
642.175, 566.412
643.482, 501.716
644.789, 607.435
646.095, 574.435
647.401, 755.830
648.707, 848.389
650.013, 970.313
651.319, 1195.306
652.624, 1320.414
653.929, 1755.493
655.234, 1770.887
656.539, 2215.910
657.844, 2690.701
659.148, 3595.697
660.453, 4080.636
661.757, 4825.546
663.061, 5580.428
664.364, 7125.281
665.668, 7210.107
666.971, 7814.902
668.274, 7559.672
669.577, 6764.411
670.880, 6139.123
672.183, 4893.806
673.485, 4248.460
674.787, 3343.088
676.089, 2717.684
677.391, 2422.254
678.693, 1836.795
679.994, 1731.308
681.296, 1445.792
682.597, 1110.248
683.898, 1194.676
685.198, 699.074
686.499, 873.445
687.799, 777.788
689.099, 452.102
690.399, 766.388
691.699, 360.646
692.998, 514.874
694.298, 429.074
695.597, 423.247
696.896, 425.160
698.195, 211.506
699.493, 355.593
700.792, 289.651
702.090, 263.682
703.388, 367.686
704.686, 211.661
705.984, 585.606
707.281, 449.524
708.578, 253.415
709.876, 287.278
711.172, 71.113
712.469, 224.916
713.766, 198.690
715.062, 12.435
716.358, 366.131
717.654, 10.198
718.950, 73.411
720.246, 116.987
721.541, 79.467
722.836, 153.983
724.131, 32.597
725.426, 70.754
726.721, 45.930
728.015, 12.689
729.310, 200.491
730.604, 136.356
731.898, 126.250
733.191, 49.248
734.485, 178.066
735.778, 294.753
737.071, 92.714
738.364, 219.626
739.657, 27.705
740.950, 116.262
742.242, 196.232
743.535, 62.000
744.827, 200.338
746.118, 122.558
747.410, 81.639
748.702, 183.688
749.993, 31.688
751.284, 165.416
752.575, 147.002
753.866, 92.330
755.156, 120.926
756.447, 45.253
757.737, 116.221
759.027, 147.723
760.316, 20.553
761.606, 291.409
762.896, 60.822
764.185, 41.957
765.474, 323.403
766.763, 88.277
768.051, 250.023
769.340, 70.655
770.628, 32.114
771.916, 193.447
773.204, 2.393
774.492, 259.389
775.780, 50.559
777.067, 21.732
778.354, 353.403
779.641, 75.207
780.928, 220.785
782.215, 172.016
783.501, 16.498
784.787, 304.645
786.073, 5.750
787.359, 237.269
788.645, 188.547
789.930, 110.031
791.216, 201.497
792.501, 182.950
793.786, 134.384
795.071, 145.802
796.355, 217.203
797.640, 328.592
798.924, 30.038
800.208, 161.296
801.492, 252.614
802.775, 63.916
804.059, 305.201
805.342, 226.469
806.625, 217.723
807.908, 318.962
809.191, 30.185
810.474, 341.391
811.756, 312.582
813.038, 123.761
814.320, 424.926
815.602, 216.076
816.884, 457.229
818.165, 418.367
819.446, 299.492
820.727, 700.603
822.008, 381.699
823.289, 562.784
824.569, 423.855
825.850, 384.915
827.130, 665.963
828.410, 196.998
829.690, 508.022
830.969, 359.034
832.249, 220.033
833.528, 521.025
834.807, 182.007
836.086, 402.976
837.364, 393.938
838.643, 124.888
839.921, 575.826
841.199, 216.757
842.477, 247.676
843.755, 238.600
845.033, 179.515
846.310, 520.418
847.587, 291.312
848.864, 362.195
850.141, 623.100
851.418, 253.995
852.694, 794.682
853.971, 525.627
855.247, 506.563
856.523, 917.490
857.798, 618.419
859.074, 819.146
860.349, 630.061
861.624, 530.970
862.899, 881.854
864.174, 352.799
865.449, 672.962
866.723, 593.771
867.998, 304.472
869.272, 633.163
870.545, 314.091
871.819, 381.428
873.093, 611.591
874.366, 181.947
875.639, 494.966
876.912, 285.470
878.185, 461.451
879.458, 341.606
880.730, 336.776
882.002, 364.048
883.274, 314.750
884.546, 334.292
885.818, 374.691
887.090, 154.773
888.361, 211.777
889.632, 512.699
890.903, 115.112
892.174, 365.944
893.444, 142.494
894.715, 123.527
895.985, 344.286
897.255, 31.209
898.525, 289.585
899.795, 240.060
901.064, 120.400
902.334, 421.178
903.603, 88.675
904.872, 282.065
906.140, 232.738
907.409, 63.267
908.677, 303.927
909.946, 104.338
911.214, 165.062
912.482, 395.927
913.749, 5.624
915.017, 445.538
916.284, 166.167
917.551, 246.729
918.818, 547.926
920.085, 218.763
921.352, 460.000
922.618, 210.791
923.884, 121.432
925.150, 492.693
926.416, 192.894
927.682, 274.196
928.947, 385.024
930.213, 34.258
931.478, 507.062
932.743, 156.865
934.008, 394.521
935.272, 315.820
936.537, 105.329
937.801, 376.640
939.065, 297.271
940.329, 208.608
941.593, 389.960
942.856, 121.120
944.119, 373.019
945.383, 514.387
946.646, 145.687
947.908, 347.450
949.171, 298.838
950.433, 350.229
951.696, 549.436
952.958, 120.842
954.220, 572.315
955.481, 293.409
956.743, 334.834
958.004, 616.325
959.265, 207.766
960.526, 709.211
961.787, 500.324
963.048, 411.785
964.308, 823.851
965.569, 355.297
966.829, 656.776
968.089, 841.867
969.348, 353.362
970.608, 964.860
971.867, 716.363
973.126, 817.875
974.385, 869.531
975.644, 671.057
976.903, 992.936
978.161, 774.738
979.420, 836.283
980.678, 1128.395
981.936, 629.945
983.193, 1161.508
984.451, 1044.184
985.708, 945.760
986.966, 1477.348
988.223, 1209.896
989.479, 1451.547
990.736, 1753.469
991.993, 1515.398
993.249, 1997.074
994.505, 2072.174
995.761, 2353.859
997.017, 3085.826
998.272, 3127.592
999.528, 3969.301
1000.783, 4697.727
1002.038, 5230.184
1003.293, 6741.916
1004.548, 7459.494
1005.802, 9071.242
1007.057, 11333.029
1008.311, 12677.066
1009.565, 15648.877
1010.818, 17811.564
1012.072, 18013.842
1013.326, 17949.043
1014.579, 17139.662
1015.832, 14591.500
1017.085, 11655.527
1018.338, 8368.723
1019.590, 6820.643
1020.842, 5193.518
1022.095, 3696.064
1023.347, 3498.025
1024.599, 2443.139
1025.850, 2585.100
1027.102, 2137.156
1028.353, 1780.311
1029.604, 2062.387
1030.855, 1435.494
1032.106, 1388.213
1033.356, 1780.475
1034.607, 1133.996
1035.857, 1626.188
1037.107, 1509.439
1038.357, 1385.461
1039.607, 1517.707
1040.856, 1291.326
1042.106, 1554.240
1043.355, 1716.660
1044.604, 1290.293
1045.852, 2052.625
1047.101, 1655.676
1048.350, 1398.721
1049.598, 1851.080
1050.846, 1095.129
1052.094, 1477.857
1053.342, 1170.207
1054.589, 675.160
1055.837, 1307.512
1057.084, 839.855
1058.331, 682.830
1059.578, 935.162
1060.824, 498.188
1062.071, 910.510
1063.317, 642.820
1064.563, 536.416
1065.809, 788.750
1067.055, 221.246
1068.301, 655.609
1069.546, 597.918
1070.791, 281.264
1072.036, 653.553
1073.281, 375.832
1074.526, 439.623
1075.771, 591.879
1077.015, 314.617
1078.259, 377.689
1079.503, 509.914
1080.747, 122.277
1081.991, 624.598
1083.234, 71.785
1084.478, 216.014
1085.721, 588.256
1086.964, 120.492
1088.206, 906.830
1089.449, 604.121
1090.691, 312.928
1091.934, 625.238
1093.176, 2.469
1094.418, 430.906
1095.659, 573.162
1096.901, 25.398
1098.142, 558.922
1099.384, 181.127
1100.625, 193.789
1101.865, 256.756
1103.106, 118.916
1104.347, 222.133
1105.587, 414.252
1106.827, 126.354
1108.067, 349.959
1109.307, 392.018
1110.546, 124.398
1111.786, 497.814
1113.025, 9.811
1114.264, 462.814
1115.503, 524.768
1116.742, 83.301
1117.980, 570.193
1119.219, 212.059
1120.457, 253.984
1121.695, 326.537
1122.933, 138.328
1124.171, 381.760
1125.408, 93.594
1126.645, 115.311
1127.883, 488.719
1129.120, 50.385
1130.356, 302.039
1131.593, 274.924
1132.829, 13.492
1134.066, 399.600
1135.302, 373.359
1136.538, 5.121
1137.773, 339.227
1139.009, 151.115
1140.244, 152.586
1141.480, 256.959
1142.715, 61.631
1143.950, 470.797
1145.184, 164.061
1146.419, 215.346
1147.653, 408.275
1148.887, 110.500
1150.121, 60.631
1151.355, 506.010
1152.589, 252.930
1153.822, 270.500
1155.056, 280.021
1156.289, 29.154
1157.522, 476.838
1158.755, 58.238
1159.987, 159.207
1161.220, 295.203
1162.452, 183.762
1163.684, 426.711
1164.916, 15.094
1166.148, 5.287
1167.379, 306.506
1168.611, 78.219
1169.842, 158.578
1171.073, 391.785
1172.304, 28.061
1173.534, 342.021
1174.765, 327.209
1175.995, 67.207
1177.225, 407.471
1178.455, 88.762
1179.685, 188.611
1180.915, 315.637
1182.144, 35.844
1183.374, 535.543
1184.603, 96.449
1185.832, 23.953
1187.060, 395.660
1188.289, 47.791
1189.518, 207.201
1190.746, 326.598
1191.974, 56.271
1193.202, 435.518
1194.430, 198.430
1195.657, 87.570
1196.884, 556.654
1198.112, 27.760
1199.339, 286.730
1200.566, 475.641
1201.792, 32.416
1203.019, 766.359
1204.245, 575.080
1205.471, 234.156
1206.697, 432.770
1207.923, 222.270
1209.149, 410.770
1210.374, 449.217
1211.600, 94.941
1212.825, 443.270
1214.050, 361.672
1215.275, 31.129
1216.499, 839.270
1217.724, 158.111
1218.948, 456.133
1220.172, 714.096
1221.396, 82.672
1222.620, 840.510
1223.843, 298.293
1225.067, 216.936
1226.290, 894.594
1227.513, 291.178
1228.736, 409.836
1229.959, 637.320
1231.181, 60.627
1232.404, 798.023
1233.626, 545.365
1234.848, 12.742
1236.070, 899.932
1237.291, 127.062
1238.513, 626.637
1239.734, 683.637
1240.955, 210.803
1242.177, 617.672
1243.397, 584.484
1244.618, 172.217
1245.838, 1028.920
1247.059, 365.572
1248.279, 292.805
1249.499, 709.363
1250.719, 225.809
1251.938, 633.088
1253.158, 599.492
1254.377, 155.791
1255.596, 702.092
1256.815, 408.346
1258.034, 174.795
1259.253, 800.941
1260.471, 246.438
1261.689, 684.168
1262.907, 860.154
1264.125, 152.475
1265.343, 800.439
1266.561, 476.182
1267.778, 321.871
1268.995, 827.500
1270.212, 152.928
1271.429, 479.127
1272.646, 824.205
1273.862, 149.271
1275.079, 765.699
1276.295, 500.299
1277.511, 205.410
1278.727, 720.996
1279.943, 174.775
1281.158, 116.328
1282.373, 1011.102
1283.589, 105.242
1284.804, 430.912
1286.019, 955.043
1287.233, 89.109
1288.448, 584.312
1289.662, 265.082
1290.876, 149.217
1292.090, 643.598
1293.304, 177.523
1294.518, 892.320
1295.731, 659.465
1296.944, 42.506
1298.158, 546.838
1299.371, 94.648
1300.583, 41.766
1301.796, 842.520
1303.008, 13.641
1304.221, 346.936
1305.433, 439.297
1306.645, 12.010
1307.856, 405.102
1309.068, 525.930
1310.280, 191.168
1311.491, 639.551
1312.702, 280.779
1313.913, 183.221
1315.124, 464.555
1316.334, 66.150
1317.545, 568.273
1318.755, 817.182
1319.965, 150.824
1321.175, 611.035
1322.385, 411.734
1323.594, 183.469
1324.804, 604.102
1326.013, 24.936
1327.222, 376.432
1328.431, 606.445
1329.639, 197.770
1330.848, 587.959
1332.056, 455.309
1333.265, 76.410
1334.473, 766.064
1335.680, 466.309
1336.888, 386.977
1338.096, 736.238
1339.303, 36.758
1340.510, 646.486
1341.717, 785.666
1342.924, 105.939
1344.131, 724.439
1345.337, 534.184
1346.544, 54.217
1347.750, 819.217
1348.956, 459.088
1350.162, 358.885
1351.367, 647.977
1352.573, 227.635
1353.778, 656.525
1354.983, 546.049
1356.188, 34.492
1357.393, 1073.555
1358.598, 412.848
1359.802, 171.906
1361.007, 919.021
1362.211, 258.115
1363.415, 506.104
1364.619, 785.084
1365.822, 274.014
1367.026, 661.371
1368.229, 780.205
1369.432, 208.508
1370.635, 986.424
1371.838, 64.859
1373.041, 173.225
1374.243, 861.766
1375.446, 14.582
1376.648, 552.012
1377.850, 560.576
1379.052, 240.854
1380.253, 723.621
1381.455, 442.156
1382.656, 121.271
1383.857, 906.748
1385.058, 224.701
1386.259, 411.498
1387.459, 1269.432
1388.660, 127.602
1389.860, 898.557
1391.060, 899.439
1392.260, 250.420
1393.460, 972.414
1394.660, 702.734
1395.859, 202.725
1397.059, 1193.357
1398.258, 504.986
1399.457, 524.812
1400.655, 1055.383
1401.854, 314.932
1403.052, 536.115
1404.251, 715.391
1405.449, 105.035
1406.647, 954.289
1407.845, 772.605
1409.042, 67.875
1410.240, 984.857
1411.437, 393.912
1412.634, 531.840
1413.831, 909.959
1415.028, 204.842
1416.224, 631.783
1417.421, 941.002
1418.617, 123.457
1419.813, 916.027
1421.009, 855.158
1422.205, 181.645
1423.401, 1417.971
1424.596, 46.910
1425.791, 322.301
1426.986, 1000.783
1428.181, 132.697
1429.376, 756.006
1430.571, 1013.998
1431.765, 100.777
1432.960, 1045.324
1434.154, 463.725
1435.348, 151.594
1436.541, 1394.379
1437.735, 99.484
1438.929, 467.680
1440.122, 1321.051
1441.315, 128.518
1442.508, 735.074
1443.701, 1083.086
1444.893, 88.977
1446.086, 964.471
1447.278, 890.934
1448.470, 288.641
1449.662, 1185.152
1450.854, 541.168
1452.046, 382.627
1453.237, 1267.922
1454.428, 204.117
1455.619, 863.289
1456.810, 869.686
1458.001, 171.727
1459.192, 656.129
1460.382, 869.156
1461.573, 304.770
1462.763, 1258.875
1463.953, 422.330
1465.143, 607.301
1466.332, 1372.068
1467.522, 475.850
1468.711, 716.338
1469.900, 1380.420
1471.089, 439.504
1472.278, 1243.428
1473.467, 935.473
1474.655, 239.195
1475.843, 1289.979
1477.032, 612.174
1478.220, 258.023
1479.407, 1591.539
1480.595, 392.500
1481.783, 642.678
1482.970, 1455.328
1484.157, 66.016
1485.344, 1085.533
1486.531, 795.553
1487.718, 347.209
1488.904, 1286.051
1490.090, 747.365
1491.277, 28.354
1492.463, 1369.502
1493.648, 530.857
1494.834, 683.328
1496.020, 1356.076
1497.205, 98.691
1498.390, 671.197
1499.575, 1213.545
1500.760, 125.900
1501.945, 838.322
1503.129, 910.693
1504.314, 233.100
1505.498, 976.279
1506.682, 651.125
1507.866, 276.297
1509.049, 1302.020
1510.233, 388.318
1511.416, 385.279
1512.600, 1222.961
1513.783, 321.346
1514.966, 510.535
1516.148, 1280.742
1517.331, 87.775
1518.513, 995.293
1519.695, 570.006
1520.878, 226.627
1522.059, 1235.535
1523.241, 497.275
1524.423, 412.895
1525.604, 1418.408
1526.785, 66.068
1527.967, 434.570
1529.147, 1153.074
1530.328, 0.000
##END=



