##NAMES=Dioptase
##RRUFFID=R050010
##IDEAL CHEMISTRY=Cu^2+^SiO_3_&#183;H_2_O
##LOCALITY=Tsumeb mine, Tsumeb, Otavi District, Oshikoto, Namibia
##OWNER=RRUFF
##SOURCE=Eugene Schlepp
##DESCRIPTION=Bluish green single crystals
##STATUS=The identification of this mineral has been confirmed by X-ray diffraction and chemical analysis
##URL=rruff.info/R050010
##MEASURED CHEMISTRY=Cu_1.00_Si_1.00_O_3_Â·H_2_O ; trace amounts of Mg and Al; OH estimated by difference
##PIN_ID=M00232
##ORIENTATION=Laser parallel to a* (1 0 0). Fiducial mark perpendicular to laser is parallel to c [0 0 1]
87.064, 0.000
88.463, 23.502
89.863, 26.575
91.262, 32.627
92.661, 20.939
94.059, 73.632
95.458, 69.132
96.856, 348.033
98.254, 516.192
99.652, 542.724
101.049, 513.961
102.446, 461.440
103.843, 551.785
105.240, 654.646
106.637, 771.717
108.033, 1269.733
109.429, 1401.195
110.825, 1469.891
112.220, 1884.306
113.616, 1559.145
115.011, 1591.290
116.406, 1806.662
117.800, 1956.250
119.195, 2361.896
120.589, 2867.468
121.983, 3748.854
123.377, 5060.963
124.770, 7256.718
126.163, 10110.057
127.556, 13393.923
128.949, 15608.266
130.342, 15933.039
131.734, 14768.194
133.126, 11763.695
134.518, 8679.518
135.909, 6265.632
137.301, 4493.026
138.692, 3225.759
140.083, 2389.298
141.473, 1809.312
142.864, 1537.650
144.254, 1148.547
145.644, 1059.285
147.034, 845.297
148.423, 753.233
149.812, 664.107
151.201, 585.932
152.590, 522.718
153.979, 455.984
155.367, 414.217
156.755, 351.947
158.143, 337.498
159.530, 306.399
160.918, 301.132
162.305, 315.875
163.692, 296.633
165.078, 183.409
166.465, 347.206
167.851, 474.028
169.237, 775.878
170.623, 1088.724
172.008, 1646.464
173.393, 2041.126
174.778, 2460.741
176.163, 2616.336
177.548, 2395.929
178.932, 1921.534
180.316, 1442.165
181.700, 972.830
183.083, 666.539
184.467, 427.298
185.850, 267.112
187.233, 81.987
188.616, 52.926
189.998, 1.931
191.380, 6.998
192.762, 12.857
194.144, 26.649
195.525, 29.370
196.907, 18.192
198.288, 24.316
199.669, 92.854
201.049, 59.132
202.429, 138.193
203.810, 266.443
205.189, 341.129
206.569, 415.889
207.949, 590.745
209.328, 812.694
210.707, 1019.735
212.085, 1349.867
213.464, 1758.088
214.842, 2315.395
216.220, 2953.788
217.598, 3726.265
218.976, 4485.823
220.353, 5465.463
221.730, 6007.183
223.107, 6708.978
224.483, 6860.840
225.860, 7032.772
227.236, 6944.768
228.612, 6546.824
229.988, 6348.937
231.363, 5681.106
232.738, 5185.329
234.113, 4433.609
235.488, 3622.942
236.863, 3046.331
238.237, 2421.772
239.611, 1853.268
240.985, 1540.816
242.359, 1162.418
243.732, 717.072
245.105, 581.778
246.478, 328.536
247.851, 185.344
249.223, 206.204
250.595, 140.113
251.967, 239.072
253.339, 414.456
254.711, 776.880
256.082, 1289.529
257.453, 2279.761
258.824, 3552.743
260.195, 5104.683
261.565, 6690.924
262.935, 7902.433
264.305, 8104.182
265.675, 7426.171
267.044, 6168.387
268.414, 4759.800
269.783, 3538.396
271.151, 2571.180
272.520, 1893.147
273.888, 1508.276
275.256, 1172.558
276.624, 1109.988
277.992, 1166.560
279.359, 1275.260
280.726, 1558.095
282.093, 2154.042
283.460, 2832.104
284.827, 4068.268
286.193, 5396.517
287.559, 6740.860
288.925, 7855.281
290.290, 8039.776
291.656, 7564.342
293.021, 6168.972
294.386, 4836.663
295.750, 3531.412
297.115, 2466.215
298.479, 1660.069
299.843, 1065.974
301.207, 589.928
302.570, 339.931
303.933, 151.979
305.296, 47.932
306.659, 188.823
308.022, 199.726
309.384, 208.641
310.746, 286.581
312.108, 292.565
313.470, 296.595
314.831, 257.672
316.193, 289.787
317.554, 118.946
318.914, 86.111
320.275, 20.275
321.635, 27.424
322.995, 115.439
324.355, 164.326
325.715, 177.235
327.074, 309.168
328.434, 322.124
329.792, 361.102
331.151, 416.103
332.510, 477.126
333.868, 598.172
335.226, 795.239
336.584, 899.330
337.941, 1174.443
339.299, 1524.580
340.656, 1966.740
342.013, 2356.923
343.370, 3155.129
344.726, 4185.358
346.082, 5783.611
347.438, 8068.886
348.794, 11794.183
350.150, 17519.502
351.505, 25244.842
352.860, 33870.203
354.215, 42485.559
355.570, 46450.887
356.924, 44106.180
358.278, 36701.340
359.632, 28576.480
360.986, 20961.754
362.339, 14936.782
363.693, 10921.981
365.046, 8047.003
366.399, 6181.868
367.751, 4910.685
369.104, 4183.502
370.456, 3571.343
371.808, 3047.211
373.159, 2774.104
374.511, 2672.021
375.862, 2598.963
377.213, 2541.929
378.564, 2598.918
379.914, 2816.930
381.265, 3021.965
382.615, 3211.023
383.965, 3686.104
385.315, 4282.212
386.664, 4924.350
388.013, 6201.511
389.362, 7526.697
390.711, 9411.908
392.060, 11817.141
393.408, 14942.407
394.756, 17727.693
396.104, 20263.004
397.451, 21378.332
398.799, 21263.684
400.146, 18879.053
401.493, 16374.447
402.840, 13979.864
404.186, 11565.300
405.533, 9890.764
406.879, 8936.245
408.225, 8471.748
409.570, 8557.271
410.916, 8902.809
412.261, 9838.365
413.606, 10533.935
414.951, 11549.522
416.295, 11995.141
417.639, 12790.794
418.983, 13246.614
420.327, 13333.463
421.671, 13631.421
423.014, 13440.087
424.357, 13748.651
425.700, 13607.240
427.043, 13559.936
428.386, 13393.790
429.728, 13254.850
431.070, 12925.252
432.412, 12699.767
433.753, 12225.947
435.095, 11868.901
436.436, 11591.710
437.777, 10885.378
439.118, 10108.901
440.458, 9650.402
441.798, 8965.530
443.138, 8226.128
444.478, 7719.039
445.818, 6789.559
447.157, 6318.069
448.496, 5842.708
449.835, 5191.550
451.174, 4931.431
452.513, 4390.234
453.851, 3985.196
455.189, 3508.662
456.527, 3286.053
457.864, 2938.022
459.202, 2635.997
460.539, 2352.994
461.876, 2157.988
463.212, 2011.999
464.549, 1842.012
465.885, 1665.035
467.221, 1635.509
468.557, 1562.913
469.893, 1499.671
471.228, 1395.891
472.563, 1335.713
473.898, 1340.126
475.233, 1400.247
476.567, 1408.593
477.902, 1506.007
479.236, 1585.734
480.570, 1832.079
481.903, 2092.454
483.237, 2346.509
484.570, 2744.497
485.903, 3105.484
487.235, 3309.467
488.568, 3115.448
489.900, 3028.425
491.232, 2515.399
492.564, 2044.370
493.896, 1757.337
495.227, 1335.300
496.558, 1185.259
497.889, 1060.214
499.220, 868.167
500.551, 763.115
501.881, 742.058
503.211, 688.996
504.541, 643.928
505.870, 689.854
507.200, 651.775
508.529, 590.689
509.858, 646.597
511.187, 650.499
512.515, 696.393
513.844, 718.281
515.172, 746.162
516.500, 758.035
517.827, 773.902
519.155, 739.763
520.482, 775.619
521.809, 813.469
523.136, 765.315
524.462, 726.156
525.789, 809.992
527.115, 801.821
528.441, 729.646
529.766, 640.468
531.092, 720.288
532.417, 673.102
533.742, 577.912
535.067, 550.716
536.391, 548.514
537.716, 432.370
539.040, 394.164
540.364, 460.052
541.688, 396.052
543.011, 369.312
544.334, 306.952
545.657, 292.552
546.980, 275.314
548.303, 290.949
549.625, 319.345
550.947, 308.955
552.269, 334.028
553.591, 379.870
554.913, 455.710
556.234, 563.633
557.555, 550.904
558.876, 724.295
560.197, 755.559
561.517, 827.017
562.837, 792.205
564.157, 678.935
565.477, 563.925
566.797, 581.884
568.116, 478.341
569.435, 426.417
570.754, 274.414
572.073, 232.257
573.391, 231.062
574.709, 182.624
576.027, 120.089
577.345, 78.540
578.663, 33.972
579.980, 8.378
581.297, 2.255
582.614, 0.068
583.931, 0.346
585.248, 64.418
586.564, 82.262
587.880, 37.193
589.196, 26.188
590.511, 91.243
591.827, 117.391
593.142, 65.647
594.457, 62.983
595.772, 76.399
597.086, 73.901
598.401, 41.489
599.715, 99.145
601.029, 26.900
602.343, 63.716
603.656, 25.612
604.969, 6.432
606.282, 27.569
607.595, 20.369
608.908, 19.721
610.220, 21.585
611.532, 47.939
612.844, 69.682
614.156, 74.359
615.468, 142.464
616.779, 154.733
618.090, 199.123
619.401, 211.886
620.712, 279.167
622.022, 330.856
623.332, 353.406
624.642, 434.674
625.952, 496.855
627.262, 548.775
628.571, 625.426
629.880, 699.625
631.189, 765.828
632.498, 870.600
633.807, 955.068
635.115, 1051.280
636.423, 1180.188
637.731, 1310.104
639.039, 1467.020
640.346, 1657.924
641.653, 1808.818
642.960, 2185.690
644.267, 2447.541
645.574, 2892.370
646.880, 3444.179
648.186, 4211.966
649.492, 5019.731
650.798, 6251.476
652.103, 8089.198
653.409, 9903.014
654.714, 12396.696
656.019, 14750.795
657.323, 16304.431
658.628, 16958.043
659.932, 16041.640
661.236, 14235.210
662.540, 12158.762
663.843, 9742.288
665.147, 7825.794
666.450, 6209.279
667.753, 5036.742
669.056, 3986.184
670.358, 3099.603
671.660, 2604.000
672.963, 2077.377
674.264, 1740.731
675.566, 1413.063
676.868, 1226.374
678.169, 987.246
679.470, 898.570
680.771, 723.449
682.071, 626.672
683.372, 496.938
684.672, 475.428
685.972, 390.012
687.271, 318.101
688.571, 266.371
689.870, 253.896
691.169, 180.220
692.468, 204.368
693.767, 131.557
695.065, 139.559
696.364, 125.538
697.662, 112.493
698.960, 123.424
700.257, 55.332
701.555, 36.205
702.852, 64.040
704.149, 68.843
705.446, 79.616
706.742, 68.360
708.038, 3.074
709.335, 116.735
710.631, 56.373
711.926, 105.979
713.222, 80.560
714.517, 73.113
715.812, 78.637
717.107, 33.134
718.402, 80.593
719.696, 25.024
720.990, 44.415
722.284, 90.771
723.578, 62.103
724.872, 80.404
726.165, 83.679
727.458, 92.929
728.751, 94.154
730.044, 116.355
731.336, 183.534
732.629, 140.692
733.921, 288.690
735.213, 262.663
736.504, 230.538
737.796, 396.710
739.087, 349.985
740.378, 376.234
741.669, 400.377
742.960, 396.361
744.250, 355.137
745.540, 382.568
746.830, 310.883
748.120, 277.526
749.410, 269.390
750.699, 239.396
751.988, 252.537
753.277, 189.814
754.566, 128.107
755.854, 85.767
757.143, 141.947
758.431, 120.805
759.719, 78.045
761.006, 43.288
762.294, 40.391
763.581, 6.719
764.868, 23.119
766.155, 8.025
767.442, 5.761
768.728, 7.018
770.014, 23.736
771.300, 27.051
772.586, 93.389
773.872, 0.213
775.157, 77.196
776.442, 20.654
777.727, 51.132
779.012, 14.645
780.297, 13.174
781.581, 6.718
782.865, 4.323
784.149, 8.682
785.433, 6.586
786.716, 19.004
787.999, 15.412
789.282, 9.811
790.565, 40.201
791.848, 73.581
793.130, 62.952
794.413, 55.314
795.695, 69.666
796.977, 46.010
798.258, 70.344
799.540, 49.670
800.821, 52.988
802.102, 84.298
803.382, 112.602
804.663, 77.898
805.943, 51.191
807.224, 3.523
808.504, 40.755
809.783, 13.974
811.063, 20.287
812.342, 85.541
813.621, 47.788
814.900, 62.031
816.179, 45.271
817.457, 26.681
818.736, 70.732
820.014, 4.952
821.292, 3.167
822.569, 19.376
823.847, 50.579
825.124, 20.777
826.401, 20.969
827.678, 33.156
828.954, 53.338
830.231, 12.515
831.507, 20.312
832.783, 2.150
834.059, 21.993
835.334, 23.153
836.610, 2.705
837.885, 12.567
839.160, 16.437
840.435, 31.314
841.709, 7.203
842.983, 17.097
844.258, 11.192
845.532, 4.905
846.805, 7.815
848.079, 12.205
849.352, 5.279
850.625, 61.249
851.898, 23.097
853.171, 6.051
854.443, 82.866
855.715, 37.085
856.988, 50.134
858.259, 107.299
859.531, 84.694
860.803, 70.865
862.074, 30.563
863.345, 51.482
864.616, 40.896
865.886, 66.214
867.157, 58.674
868.427, 125.006
869.697, 146.455
870.967, 128.699
872.236, 105.204
873.506, 108.157
874.775, 115.840
876.044, 143.543
877.313, 163.739
878.581, 171.193
879.849, 193.632
881.118, 196.723
882.386, 216.531
883.653, 247.573
884.921, 242.701
886.188, 227.834
887.455, 295.973
888.722, 326.123
889.989, 308.290
891.255, 354.477
892.522, 365.683
893.788, 357.909
895.054, 344.171
896.319, 419.475
897.585, 432.810
898.850, 445.171
900.115, 530.578
901.380, 543.037
902.645, 544.534
903.909, 666.068
905.174, 725.645
906.438, 739.262
907.701, 833.912
908.965, 944.610
910.229, 992.337
911.492, 1050.104
912.755, 1149.898
914.018, 1144.714
915.280, 1107.559
916.543, 1120.970
917.805, 1010.851
919.067, 1025.749
920.329, 924.661
921.590, 936.209
922.852, 902.788
924.113, 967.193
925.374, 948.468
926.635, 1004.359
927.895, 1047.722
929.156, 1119.667
930.416, 1209.743
931.676, 1179.090
932.936, 1343.527
934.195, 1256.260
935.454, 1353.297
936.714, 1542.346
937.973, 1599.406
939.231, 1692.478
940.490, 1820.562
941.748, 1996.656
943.006, 2135.764
944.264, 2358.883
945.522, 2679.015
946.780, 2978.159
948.037, 3371.315
949.294, 3957.566
950.551, 4426.749
951.808, 5197.099
953.064, 5930.307
954.320, 6731.248
955.577, 7412.484
956.832, 7685.856
958.088, 7468.257
959.344, 6819.845
960.599, 5941.133
961.854, 5069.542
963.109, 4053.859
964.364, 3460.309
965.618, 2873.191
966.872, 2396.459
968.127, 2098.838
969.380, 1732.236
970.634, 1577.649
971.888, 1424.130
973.141, 1284.580
974.394, 1169.043
975.647, 1139.521
976.900, 1048.018
978.152, 1018.535
979.404, 965.075
980.656, 950.633
981.908, 946.205
983.160, 890.210
984.411, 987.757
985.663, 924.744
986.914, 954.381
988.165, 1000.976
989.415, 1027.965
990.666, 1115.622
991.916, 1180.399
993.166, 1273.997
994.416, 1408.340
995.665, 1549.885
996.915, 1771.605
998.164, 2109.286
999.413, 2479.153
1000.662, 2933.043
1001.911, 3436.960
1003.159, 3726.898
1004.407, 3983.861
1005.655, 3911.846
1006.903, 3721.857
1008.151, 3483.888
1009.398, 3297.942
1010.646, 3163.016
1011.893, 3126.114
1013.139, 3091.243
1014.386, 2954.391
1015.633, 2874.560
1016.879, 2786.748
1018.125, 2637.955
1019.371, 2397.183
1020.616, 2200.429
1021.862, 2042.701
1023.107, 1884.991
1024.352, 1664.307
1025.597, 1537.646
1026.842, 1398.002
1028.086, 1326.379
1029.330, 1159.774
1030.574, 1104.188
1031.818, 988.619
1033.062, 947.067
1034.305, 877.532
1035.548, 740.013
1036.791, 672.510
1038.034, 664.023
1039.277, 663.551
1040.519, 633.095
1041.762, 546.655
1043.004, 558.230
1044.246, 509.821
1045.487, 539.427
1046.729, 521.049
1047.970, 538.684
1049.211, 520.335
1050.452, 494.000
1051.692, 534.680
1052.933, 463.374
1054.173, 537.082
1055.413, 455.803
1056.653, 454.539
1057.893, 426.288
1059.132, 474.050
1060.371, 414.824
1061.610, 438.612
1062.849, 392.412
1064.088, 388.226
1065.326, 351.051
1066.565, 364.892
1067.803, 320.745
1069.041, 326.611
1070.278, 298.489
1071.516, 253.382
1072.753, 279.294
1073.990, 221.226
1075.227, 233.195
1076.464, 196.177
1077.700, 162.193
1078.936, 210.226
1080.173, 140.286
1081.408, 141.364
1082.644, 144.458
1083.880, 118.569
1085.115, 167.693
1086.350, 105.830
1087.585, 99.981
1088.820, 133.149
1090.054, 39.330
1091.288, 79.527
1092.522, 96.738
1093.756, 7.036
1094.990, 23.273
1096.224, 22.526
1097.457, 7.128
1098.690, 39.147
1099.923, 11.562
1101.156, 16.004
1102.388, 33.671
1103.621, 8.659
1104.853, 45.727
1106.085, 10.379
1107.316, 23.018
1108.548, 25.352
1109.779, 27.268
1111.010, 7.510
1112.241, 8.905
1113.472, 26.495
1114.703, 38.036
1115.933, 11.398
1117.163, 8.299
1118.393, 37.020
1119.623, 4.344
1120.853, 109.583
1122.082, 138.167
1123.311, 82.667
1124.540, 92.018
1125.769, 91.819
1126.997, 122.426
1128.226, 104.481
1129.454, 102.089
1130.682, 91.020
1131.910, 103.689
1133.138, 115.542
1134.365, 115.577
1135.592, 98.567
1136.819, 170.201
1138.046, 177.168
1139.273, 124.602
1140.499, 178.123
1141.725, 153.085
1142.951, 207.375
1144.177, 192.678
1145.403, 238.751
1146.628, 201.904
1147.854, 200.271
1149.079, 225.103
1150.304, 251.022
1151.528, 236.284
1152.753, 283.130
1153.977, 259.139
1155.201, 254.895
1156.425, 281.955
1157.649, 286.137
1158.872, 248.281
1160.096, 312.072
1161.319, 273.046
1162.542, 295.741
1163.764, 321.000
1164.987, 310.699
1166.209, 330.500
1167.431, 318.203
1168.653, 271.047
1169.875, 296.752
1171.097, 287.458
1172.318, 298.165
1173.539, 283.872
1174.760, 270.578
1175.981, 312.285
1177.202, 281.877
1178.422, 258.698
1179.642, 273.404
1180.862, 216.109
1182.082, 240.813
1183.302, 250.515
1184.521, 242.216
1185.740, 227.916
1186.959, 219.614
1188.178, 181.310
1189.397, 183.003
1190.615, 184.695
1191.834, 184.384
1193.052, 197.070
1194.269, 175.754
1195.487, 160.434
1196.705, 177.111
1197.922, 154.789
1199.139, 173.459
1200.356, 162.126
1201.573, 215.788
1202.789, 182.447
1204.006, 168.101
1205.222, 209.751
1206.438, 192.396
1207.653, 204.036
1208.869, 218.671
1210.084, 189.301
1211.299, 214.926
1212.514, 235.602
1213.729, 194.255
1214.944, 244.863
1216.158, 203.503
1217.372, 162.138
1218.586, 147.841
1219.800, 181.605
1221.014, 164.332
1222.227, 168.906
1223.440, 112.843
1224.654, 104.554
1225.866, 87.718
1227.079, 108.632
1228.292, 73.853
1229.504, 51.040
1230.716, 89.976
1231.928, 88.122
1233.139, 24.128
1234.351, 71.031
1235.562, 46.087
1236.773, 48.626
1237.984, 15.991
1239.195, 4.918
1240.406, 18.070
1241.616, 30.683
1242.826, 5.401
1244.036, 24.223
1245.246, 20.964
1246.456, 1.243
1247.665, 23.362
1248.874, 14.522
1250.083, 2.422
1251.292, 37.175
1252.501, 23.482
1253.709, 33.014
1254.917, 23.667
1256.125, 0.167
1257.333, 4.924
1258.541, 20.490
1259.748, 10.046
1260.956, 18.734
1262.163, 16.785
1263.370, 3.184
1264.576, 6.047
1265.783, 15.532
1266.989, 10.397
1268.195, 29.194
1269.401, 4.218
1270.607, 10.903
1271.813, 23.211
1273.018, 2.045
1274.223, 20.245
1275.428, 5.586
1276.633, 14.177
1277.838, 8.750
1279.042, 5.296
1280.246, 10.066
1281.450, 3.956
1282.654, 24.730
1283.858, 31.731
1285.061, 16.717
1286.265, 7.378
1287.468, 12.165
1288.671, 11.938
1289.873, 7.907
1291.076, 8.774
1292.278, 11.831
1293.480, 18.907
1294.682, 4.002
1295.884, 9.144
1297.086, 23.659
1298.287, 16.454
1299.488, 45.192
1300.689, 15.967
1301.890, 12.746
1303.091, 14.439
1304.291, 44.114
1305.491, 21.768
1306.691, 78.400
1307.891, 13.011
1309.091, 81.590
1310.290, 49.141
1311.490, 91.687
1312.689, 41.188
1313.888, 94.659
1315.086, 95.082
1316.285, 86.472
1317.483, 84.831
1318.681, 121.167
1319.879, 97.474
1321.077, 127.756
1322.275, 99.014
1323.472, 95.241
1324.669, 106.430
1325.866, 137.590
1327.063, 146.724
1328.260, 120.837
1329.456, 139.926
1330.653, 130.992
1331.849, 125.029
1333.045, 139.042
1334.240, 151.030
1335.436, 103.987
1336.631, 115.917
1337.826, 99.820
1339.021, 94.698
1340.216, 91.550
1341.411, 90.950
1342.605, 106.176
1343.799, 93.949
1344.993, 115.695
1346.187, 106.414
1347.381, 109.106
1348.574, 136.771
1349.767, 97.411
1350.961, 114.025
1352.153, 102.614
1353.346, 108.177
1354.539, 100.716
1355.731, 84.229
1356.923, 88.717
1358.115, 110.181
1359.307, 89.619
1360.498, 90.033
1361.690, 72.422
1362.881, 56.787
1364.072, 64.127
1365.263, 99.459
1366.453, 37.793
1367.644, 64.062
1368.834, 25.384
1370.024, 38.605
1371.214, 22.804
1372.404, 23.978
1373.593, 36.129
1374.783, 25.254
1375.972, 31.491
1377.161, 3.563
1378.349, 28.609
1379.538, 11.651
1380.726, 16.484
1381.915, 35.201
1383.103, 24.966
1384.290, 10.621
1385.478, 54.057
1386.665, 38.720
1387.853, 8.077
1389.040, 16.689
1390.227, 15.134
1391.413, 41.233
1392.600, 4.628
1393.786, 39.215
1394.972, 13.853
1396.158, 33.133
1397.344, 55.085
1398.530, 24.425
1399.715, 41.171
1400.900, 46.947
1402.085, 24.964
1403.270, 40.077
1404.455, 54.503
1405.639, 14.897
1406.824, 16.075
1408.008, 39.002
1409.192, 11.445
1410.375, 10.091
1411.559, 20.291
1412.742, 44.855
1413.925, 12.787
1415.108, 49.041
1416.291, 58.887
1417.474, 35.315
1418.656, 55.659
1419.839, 33.169
1421.021, 57.656
1422.202, 12.120
1423.384, 66.561
1424.566, 41.980
1425.747, 85.379
1426.928, 76.757
1428.109, 25.115
1429.290, 35.453
1430.470, 31.773
1431.651, 57.074
1432.831, 39.351
1434.011, 70.618
1435.191, 70.870
1436.370, 71.106
1437.550, 78.328
1438.729, 87.537
1439.908, 86.569
1441.087, 105.684
1442.266, 85.587
1443.444, 81.147
1444.623, 110.596
1445.801, 107.286
1446.979, 114.376
1448.157, 117.982
1449.334, 105.141
1450.512, 103.183
1451.689, 108.123
1452.866, 83.527
1454.043, 97.459
1455.220, 93.073
1456.396, 99.561
1457.573, 104.528
1458.749, 100.235
1459.925, 113.293
1461.100, 126.684
1462.276, 124.111
1463.451, 128.520
1464.627, 106.036
1465.802, 115.792
1466.977, 129.759
1468.151, 113.388
1469.326, 128.150
1470.500, 110.449
1471.674, 126.546
1472.848, 102.661
1474.022, 132.913
1475.195, 97.364
1476.369, 84.134
1477.542, 117.315
1478.715, 142.013
1479.888, 111.610
1481.061, 47.343
1482.233, 107.998
1483.405, 73.396
1484.577, 107.903
1485.749, 61.313
1486.921, 85.721
1488.093, 75.017
1489.264, 67.493
1490.435, 52.136
1491.606, 55.784
1492.777, 48.429
1493.948, 54.167
1495.118, 81.006
1496.288, 66.790
1497.459, 29.558
1498.628, 49.321
1499.798, 32.156
1500.968, 61.019
1502.137, 54.899
1503.306, 23.823
1504.475, 60.808
1505.644, 14.878
1506.813, 8.012
1507.981, 38.214
1509.149, 0.479
1510.318, 29.829
1511.485, 25.281
1512.653, 15.857
1513.821, 22.288
1514.988, 42.222
1516.155, 0.995
1517.322, 55.327
