##NAMES=Diopside
##RRUFFID=R060861
##IDEAL CHEMISTRY=CaMgSi_2_O_6_
##LOCALITY=Red Mountain Volcano, NW of Flagstaff, Arizona, USA
##OWNER=RRUFF
##SOURCE=Jennifer Sano
##DESCRIPTION=Worn brown fragment
##STATUS=The identification of this mineral has been confirmed by X-ray diffraction and chemical analysis
##URL=rruff.info/R060861
##MEASURED CHEMISTRY=(Ca_0.72_Fe^2+^_0.23_Na_0.05_)_Σ=1_(Mg_0.80_Al_0.15_Ti_0.03_Fe^3+^_0.02_)_Σ=1_(Si_1.82_Al_0.18_)_Σ=2_O_6_
##PIN_ID=M01653
##ORIENTATION=Laser parallel to -c* (0 0 -1). Fiducial mark perpendicular to laser is parallel to a [1 0 0]
174.7000, 0.0000000E+00
175.9330, 0.6982420
177.1660, 9.112305
178.3990, 198.2168
179.6310, 82.63867
180.8640, 34.08789
182.0960, 212.5264
183.3280, 159.5625
184.5600, 426.4277
185.7910, 611.0986
187.0220, 693.3369
188.2540, 635.8604
189.4840, 875.1289
190.7150, 864.4893
191.9460, 983.1475
193.1760, 1054.695
194.4060, 1094.688
195.6360, 944.4180
196.8660, 928.2227
198.0960, 799.0332
199.3250, 736.7822
200.5540, 832.4121
201.7830, 854.8701
203.0120, 687.1113
204.2400, 494.0957
205.4690, 115.7881
206.6970, 52.84180
207.9250, 138.8223
209.1530, 50.17871
210.3800, 8.929688
211.6080, 25.84277
212.8350, 29.29688
214.0620, 24.79688
215.2880, 86.59473
216.5150, 53.44727
217.7410, 188.7373
218.9680, 308.4463
220.1940, 262.5547
221.4190, 391.0459
222.6450, 466.9033
223.8700, 414.1211
225.0960, 576.6875
226.3210, 580.5977
227.5450, 508.8418
228.7700, 423.4150
229.9940, 390.9727
231.2190, 344.7246
232.4430, 313.0488
233.6660, 309.8770
234.8900, 356.0078
236.1140, 382.4346
237.3370, 422.1514
238.5600, 388.1562
239.7830, 349.4414
241.0050, 361.0049
242.2280, 381.8438
243.4500, 420.9766
244.6720, 520.4570
245.8940, 473.2012
247.1160, 592.2129
248.3370, 530.4580
249.5580, 605.6357
250.7790, 691.1904
252.0000, 735.7188
253.2210, 743.3701
254.4410, 834.1494
255.6620, 852.0635
256.8820, 796.1084
258.1020, 831.2861
259.3210, 816.1270
260.5410, 753.8486
261.7600, 742.6455
262.9790, 637.3896
264.1980, 438.2666
265.4170, 388.1846
266.6360, 329.2334
267.8540, 349.4297
269.0720, 158.7842
270.2900, 107.3018
271.5080, 168.9834
272.7260, 7.828125
273.9430, 137.8398
275.1600, 145.0146
276.3770, 190.3535
277.5940, 257.8574
278.8100, 311.5225
280.0270, 402.3516
281.2430, 327.3428
282.4590, 560.4961
283.6750, 456.8076
284.8910, 703.2793
286.1060, 954.9102
287.3210, 865.6963
288.5360, 1141.640
289.7510, 1285.737
290.9660, 1518.990
292.1800, 1559.395
293.3950, 1807.949
294.6090, 1928.655
295.8230, 2213.510
297.0360, 2349.514
298.2500, 2603.662
299.4630, 2817.955
300.6760, 2987.395
301.8890, 3375.975
303.1020, 3459.696
304.3150, 3774.559
305.5270, 4054.558
306.7390, 4240.295
307.9510, 4729.967
309.1630, 4816.394
310.3750, 5397.290
311.5860, 5949.238
312.7970, 6128.387
314.0080, 6754.270
315.2190, 7045.490
316.4300, 7732.762
317.6400, 8257.448
318.8510, 8774.606
320.0610, 9299.321
321.2710, 10219.40
322.4800, 10781.96
323.6900, 11269.44
324.8990, 11520.26
326.1080, 12327.39
327.3170, 12769.78
328.5260, 13266.39
329.7340, 13333.19
330.9430, 13828.16
332.1510, 13917.28
333.3590, 13978.57
334.5670, 13978.02
335.7740, 13921.98
336.9820, 14019.32
338.1890, 13684.89
339.3960, 13735.59
340.6030, 13564.45
341.8100, 13313.50
343.0160, 13003.72
344.2220, 12965.11
345.4280, 12695.67
346.6340, 12701.39
347.8400, 12416.26
349.0460, 12314.30
350.2510, 12032.49
351.4560, 12145.83
352.6610, 12122.93
353.8660, 12088.59
355.0700, 12158.37
356.2750, 11862.85
357.4790, 11909.01
358.6830, 11971.18
359.8870, 11785.78
361.0910, 11471.22
362.2940, 11402.78
363.4970, 11148.46
364.7000, 11123.27
365.9030, 10776.20
367.1060, 10724.24
368.3080, 10380.41
369.5110, 10176.69
370.7130, 10093.08
371.9150, 9746.582
373.1170, 9685.712
374.3180, 9508.923
375.5200, 9493.757
376.7210, 9313.695
377.9220, 9294.739
379.1230, 9322.887
380.3230, 9337.133
381.5240, 9649.485
382.7240, 9609.933
383.9240, 9733.479
385.1240, 10175.12
386.3240, 10280.86
387.5230, 10659.69
388.7230, 11143.62
389.9220, 11452.63
391.1210, 11700.35
392.3200, 11810.93
393.5180, 11959.21
394.7170, 11809.57
395.9150, 11659.02
397.1130, 11316.56
398.3110, 11063.18
399.5080, 10270.88
400.7060, 9338.672
401.9030, 8688.543
403.1000, 7880.496
404.2970, 7145.527
405.4940, 6025.642
406.6910, 5299.836
407.8870, 4718.107
409.0830, 3997.458
410.2790, 3366.887
411.4750, 3048.392
412.6710, 2582.972
413.8660, 2124.629
415.0610, 1827.358
416.2560, 1454.163
417.4510, 1214.038
418.6460, 1165.986
419.8410, 892.0049
421.0350, 926.0918
422.2290, 611.2500
423.4230, 587.4756
424.6170, 545.7666
425.8100, 478.1250
427.0040, 413.5488
428.1970, 357.0371
429.3900, 307.9883
430.5830, 248.2012
431.7760, 225.8760
432.9680, 173.6113
434.1610, 140.4062
435.3530, 128.9502
436.5450, 58.17188
437.7360, 106.1406
438.9280, 133.1650
440.1190, 115.4355
441.3110, 8.379883
442.5020, 50.56738
443.6930, 39.19336
444.8830, 61.90625
446.0740, 60.56934
447.2640, 178.1875
448.4540, 40.76660
449.6440, 16.70410
450.8340, 28.25098
452.0240, 23.09473
453.2130, 87.62988
454.4020, 223.7568
455.5910, 266.0137
456.7800, 415.2480
457.9690, 389.2178
459.1570, 596.9902
460.3460, 645.8936
461.5340, 589.6074
462.7220, 1052.504
463.9090, 958.0732
465.0970, 1336.077
466.2840, 1048.825
467.4720, 1031.606
468.6590, 1037.836
469.8460, 1147.057
471.0320, 1159.644
472.2190, 1198.983
473.4050, 1164.312
474.5910, 1119.729
475.7770, 1183.116
476.9630, 1094.918
478.1490, 1167.792
479.3340, 1094.740
480.5190, 1260.758
481.7040, 1302.805
482.8890, 1253.880
484.0740, 1298.981
485.2580, 1366.108
486.4430, 1310.260
487.6270, 1384.434
488.8110, 1389.631
489.9950, 1226.847
491.1780, 1300.082
492.3620, 1327.336
493.5450, 1371.606
494.7280, 1425.893
495.9110, 1552.205
497.0940, 1464.557
498.2760, 1368.928
499.4590, 1498.313
500.6410, 1652.714
501.8230, 1506.123
503.0050, 1610.544
504.1860, 1643.971
505.3680, 1721.405
506.5490, 1876.844
507.7300, 1854.206
508.9110, 1929.731
510.0920, 1915.177
511.2730, 2025.625
512.4530, 2160.072
513.6330, 2300.520
514.8130, 2497.964
515.9930, 2502.405
517.1730, 2810.843
518.3520, 2717.273
519.5320, 2940.700
520.7110, 3020.119
521.8900, 3300.531
523.0690, 3278.934
524.2470, 3512.325
525.4260, 3834.708
526.6040, 3908.078
527.7820, 4007.436
528.9600, 4265.779
530.1380, 4362.111
531.3150, 4559.426
532.4930, 4626.725
533.6700, 4732.010
534.8470, 4754.273
536.0240, 4886.520
537.2000, 4900.746
538.3770, 4994.953
539.5530, 4851.137
540.7290, 4771.303
541.9050, 4893.443
543.0810, 4863.559
544.2570, 4655.653
545.4320, 4776.721
546.6080, 4443.762
547.7830, 4343.775
548.9580, 4446.763
550.1320, 4244.723
551.3070, 4162.650
552.4810, 4105.551
553.6550, 4099.418
554.8300, 3996.254
556.0030, 3953.881
557.1770, 3889.830
558.3510, 3815.568
559.5240, 3760.271
560.6970, 3677.938
561.8700, 3608.568
563.0430, 3415.163
564.2160, 3304.720
565.3880, 3179.237
566.5600, 2911.717
567.7320, 2969.156
568.9040, 2648.555
570.0760, 2743.912
571.2480, 2576.229
572.4190, 2439.501
573.5900, 2223.731
574.7610, 2203.917
575.9320, 2014.059
577.1030, 2037.155
578.2740, 1809.206
579.4440, 1708.209
580.6140, 1554.166
581.7840, 1446.075
582.9540, 1278.778
584.1240, 1154.898
585.2930, 948.1582
586.4630, 844.2588
587.6320, 703.3232
588.8010, 449.4600
589.9700, 495.1680
591.1380, 368.7578
592.3070, 195.6074
593.4750, 187.7021
594.6430, 1.667969
595.8110, 162.8486
596.9790, 91.84863
598.1460, 204.6250
599.3140, 193.3896
600.4810, 81.18359
601.6480, 301.1367
602.8150, 254.6436
603.9820, 275.1094
605.1480, 254.2188
606.3150, 164.1416
607.4810, 32.90137
608.6470, 7.253906
609.8130, 83.03516
610.9790, 262.0762
612.1440, 237.6094
613.3100, 387.3447
614.4750, 455.6299
615.6400, 538.3184
616.8050, 702.6270
617.9690, 771.5273
619.1340, 803.2480
620.2980, 1002.326
621.4620, 1042.196
622.6260, 1363.967
623.7900, 1603.639
624.9540, 1629.212
626.1170, 1775.685
627.2810, 1843.057
628.4440, 2114.329
629.6070, 2362.451
630.7690, 2712.572
631.9320, 3043.543
633.0950, 3347.413
634.2570, 3774.182
635.4190, 4124.849
636.5810, 4516.413
637.7430, 4754.878
638.9040, 5449.238
640.0660, 5806.500
641.2270, 6410.658
642.3880, 7144.714
643.5490, 7477.668
644.7100, 8301.520
645.8700, 9321.267
647.0310, 10352.92
648.1910, 11633.46
649.3510, 12708.90
650.5110, 14397.24
651.6710, 16090.47
652.8300, 18142.61
653.9900, 20165.64
655.1490, 22615.57
656.3080, 25197.40
657.4670, 28178.12
658.6250, 31583.75
659.7840, 34931.27
660.9420, 38204.69
662.1010, 41420.01
663.2590, 44257.21
664.4170, 46936.33
665.5740, 48799.34
666.7320, 49578.26
667.8890, 49280.07
669.0460, 48256.78
670.2030, 45861.38
671.3600, 42913.90
672.5170, 39707.30
673.6740, 36227.60
674.8300, 32707.81
675.9860, 29305.91
677.1420, 26362.92
678.2980, 23327.83
679.4540, 20741.63
680.6090, 18349.34
681.7650, 16519.96
682.9200, 14317.47
684.0750, 13069.89
685.2300, 11700.21
686.3840, 10393.43
687.5390, 9338.551
688.6930, 8352.579
689.8470, 7821.510
691.0010, 6988.343
692.1550, 6404.084
693.3090, 5713.728
694.4620, 5274.278
695.6160, 4781.733
696.7690, 4518.095
697.9220, 4152.191
699.0750, 3962.535
700.2280, 3626.616
701.3800, 3423.605
702.5320, 3253.502
703.6850, 3023.310
704.8370, 2843.023
705.9880, 2760.647
707.1400, 2400.182
708.2920, 2422.627
709.4430, 2215.982
710.5940, 2117.250
711.7450, 1875.429
712.8960, 1875.521
714.0470, 1707.525
715.1970, 1528.443
716.3480, 1340.274
717.4980, 1204.350
718.6480, 1222.683
719.7980, 926.2607
720.9470, 871.7539
722.0970, 733.1660
723.2460, 554.4941
724.3960, 464.7422
725.5450, 422.9131
726.6940, 326.0068
727.8420, 309.0264
728.9910, 136.9609
730.1390, 22.23633
731.2870, 131.3613
732.4350, 33.17090
733.5830, 176.2021
734.7310, 166.5039
735.8790, 293.2461
737.0260, 214.2451
738.1730, 389.5000
739.3200, 320.0635
740.4670, 380.5938
741.6140, 433.4775
742.7610, 429.0068
743.9070, 453.5391
745.0530, 506.7520
746.1990, 416.1602
747.3450, 504.1523
748.4910, 416.3242
749.6370, 432.9717
750.7820, 270.4521
751.9270, 383.0547
753.0720, 317.8623
754.2170, 155.7393
755.3620, 139.0869
756.5070, 160.5537
757.6510, 157.1465
758.7950, 314.1406
759.9400, 127.3916
761.0840, 188.6094
762.2270, 147.7939
763.3710, 34.94824
764.5140, 260.0703
765.6580, 326.1641
766.8010, 406.2324
767.9440, 444.1758
769.0870, 422.2910
770.2290, 452.2842
771.3720, 414.2588
772.5140, 491.2119
773.6560, 480.1465
774.7990, 604.0635
775.9400, 735.9658
777.0820, 755.8545
778.2240, 665.7295
779.3650, 766.5938
780.5060, 698.4482
781.6470, 764.2930
782.7880, 673.1318
783.9290, 725.9639
785.0690, 781.7930
786.2100, 813.6182
787.3500, 836.4414
788.4900, 829.2656
789.6300, 860.4814
790.7700, 866.9199
791.9090, 871.7520
793.0490, 877.5898
794.1880, 828.4346
795.3270, 878.2871
796.4660, 826.1484
797.6050, 895.0225
798.7440, 961.9072
799.8820, 795.8066
801.0200, 871.7207
802.1590, 850.6514
803.2970, 875.5996
804.4340, 974.5664
805.5720, 1068.555
806.7100, 1010.562
807.8470, 978.5938
808.9840, 1101.650
810.1210, 1029.730
811.2580, 1058.838
812.3950, 1131.973
813.5310, 1109.138
814.6680, 1010.331
815.8040, 1250.557
816.9400, 1156.815
818.0760, 1319.107
819.2120, 1065.435
820.3470, 1133.798
821.4830, 1097.199
822.6180, 1123.641
823.7530, 1112.121
824.8880, 1068.643
826.0230, 1077.207
827.1580, 1027.813
828.2920, 1064.466
829.4270, 935.1650
830.5610, 1034.909
831.6950, 800.7031
832.8290, 802.5459
833.9620, 885.4395
835.0960, 893.3867
836.2290, 743.3857
837.3620, 812.4375
838.4950, 626.5459
839.6280, 532.7109
840.7610, 559.9316
841.8940, 602.2129
843.0260, 580.9551
844.1580, 497.9551
845.2910, 625.4199
846.4230, 649.9473
847.5540, 688.5391
848.6860, 797.1963
849.8170, 818.9199
850.9490, 888.7119
852.0800, 1035.032
853.2110, 1193.503
854.3420, 1397.504
855.4730, 1536.578
856.6030, 1846.725
857.7340, 1970.946
858.8640, 2343.242
859.9940, 2380.617
861.1240, 2627.068
862.2540, 2846.598
863.3830, 3126.837
864.5130, 3226.022
865.6420, 3385.711
866.7710, 3570.168
867.9000, 3519.208
869.0290, 3693.609
870.1570, 3603.498
871.2860, 3725.828
872.4140, 3501.907
873.5430, 3483.916
874.6710, 3318.896
875.7980, 3336.003
876.9260, 3411.570
878.0540, 3287.012
879.1810, 3161.007
880.3080, 3049.721
881.4360, 2771.202
882.5630, 2722.236
883.6890, 2882.598
884.8160, 2672.217
885.9420, 2587.381
887.0690, 2563.398
888.1950, 2489.947
889.3210, 2189.186
890.4470, 2314.905
891.5730, 2163.128
892.6980, 2365.638
893.8240, 2215.888
894.9490, 2084.442
896.0740, 2178.188
897.1990, 2152.125
898.3240, 2075.254
899.4480, 2268.587
900.5730, 2074.115
901.6970, 2161.845
902.8210, 2138.771
903.9450, 2226.918
905.0690, 2222.986
906.1930, 2220.194
907.3160, 2211.615
908.4400, 2176.613
909.5630, 2131.809
910.6860, 2062.193
911.8090, 2232.797
912.9320, 2169.598
914.0550, 2289.596
915.1770, 2288.776
916.2990, 2227.172
917.4210, 2245.777
918.5440, 2306.600
919.6650, 2368.609
920.7870, 2385.935
921.9090, 2434.888
923.0300, 2455.840
924.1510, 2506.644
925.2720, 2580.640
926.3930, 2640.285
927.5140, 2579.220
928.6350, 2699.792
929.7550, 2749.541
930.8760, 2683.492
931.9960, 2771.653
933.1160, 2573.015
934.2360, 2852.574
935.3550, 2775.306
936.4750, 2756.215
937.5940, 2876.293
938.7140, 2868.549
939.8330, 2906.976
940.9520, 2902.571
942.0710, 3062.329
943.1890, 3136.270
944.3080, 3228.377
945.4260, 3214.659
946.5440, 3310.113
947.6620, 3373.728
948.7800, 3525.508
949.8980, 3720.454
951.0160, 3712.562
952.1330, 3794.835
953.2500, 3992.273
954.3680, 4066.878
955.4850, 4219.646
956.6010, 4369.577
957.7180, 4335.670
958.8350, 4518.924
959.9510, 4689.335
961.0670, 4783.676
962.1830, 4975.635
963.2990, 5117.521
964.4150, 5243.567
965.5310, 5477.771
966.6460, 5597.130
967.7620, 6023.649
968.8770, 6236.321
969.9920, 6339.154
971.1070, 6575.143
972.2210, 6724.285
973.3360, 7129.584
974.4500, 7277.041
975.5650, 7700.650
976.6790, 8146.415
977.7930, 8549.334
978.9070, 8680.405
980.0200, 9232.634
981.1340, 9545.013
982.2470, 10135.55
983.3610, 10633.23
984.4740, 11375.07
985.5870, 11948.06
986.6990, 12649.21
987.8120, 13522.02
988.9250, 14240.94
990.0370, 15371.54
991.1490, 16229.28
992.2610, 17248.18
993.3730, 18793.21
994.4850, 20099.40
995.5960, 21463.73
996.7080, 23036.21
997.8190, 24541.85
998.9300, 26060.63
1000.041, 27379.59
1001.152, 28938.75
1002.263, 30189.08
1003.373, 31249.62
1004.484, 32145.41
1005.594, 32991.43
1006.704, 33572.70
1007.814, 33598.23
1008.924, 32925.04
1010.034, 32199.10
1011.143, 30969.45
1012.253, 29740.07
1013.362, 27839.97
1014.471, 25921.14
1015.580, 24112.60
1016.689, 22172.54
1017.797, 20252.15
1018.906, 18640.49
1020.014, 16922.42
1021.122, 15539.21
1022.230, 14206.39
1023.338, 13129.72
1024.446, 12104.87
1025.554, 11040.83
1026.661, 10425.08
1027.768, 9653.489
1028.875, 8960.202
1029.983, 8711.313
1031.089, 8095.348
1032.196, 7798.836
1033.303, 7409.270
1034.409, 7105.357
1035.515, 6834.592
1036.622, 6494.816
1037.728, 6302.326
1038.833, 6014.627
1039.939, 5951.656
1041.045, 5466.455
1042.150, 5482.664
1043.255, 5043.872
1044.360, 5033.181
1045.465, 4724.678
1046.570, 4598.008
1047.675, 4386.857
1048.779, 4201.520
1049.884, 4139.283
1050.988, 3688.102
1052.092, 3756.190
1053.196, 3586.434
1054.300, 3270.649
1055.404, 3210.077
1056.507, 3103.457
1057.610, 2938.102
1058.714, 2871.417
1059.817, 2807.357
1060.920, 2677.909
1062.022, 2566.294
1063.125, 2491.890
1064.228, 2260.052
1065.330, 2320.642
1066.432, 2237.598
1067.534, 2085.842
1068.636, 2102.168
1069.738, 2001.034
1070.840, 2066.408
1071.941, 1897.229
1073.042, 1936.273
1074.144, 1856.209
1075.245, 2031.388
1076.346, 1856.328
1077.446, 1924.869
1078.547, 1939.999
1079.647, 1829.849
1080.748, 1804.624
1081.848, 1915.414
1082.948, 1967.211
1084.048, 1882.348
1085.148, 2004.563
1086.247, 1837.703
1087.347, 1992.878
1088.446, 1811.791
1089.545, 1846.401
1090.644, 1835.848
1091.743, 1751.712
1092.842, 1903.183
1093.940, 1786.984
1095.039, 1788.056
1096.137, 1793.515
1097.235, 1749.375
1098.333, 1766.372
1099.431, 1770.656
1100.529, 1738.199
1101.627, 1765.771
1102.724, 1753.783
1103.822, 1882.742
1104.919, 1734.644
1106.016, 1791.011
1107.113, 1729.909
1108.209, 1834.849
1109.306, 1743.766
1110.402, 1759.544
1111.499, 1655.548
1112.595, 1672.493
1113.691, 1780.875
1114.787, 1796.669
1115.883, 1817.645
1116.978, 1898.748
1118.074, 2043.423
1119.169, 2129.251
1120.264, 2120.090
1121.359, 2195.703
1122.454, 2076.625
1123.549, 2036.438
1124.644, 1765.812
1125.738, 1670.241
1126.832, 1560.807
1127.927, 1340.737
1129.021, 1204.190
1130.115, 920.4971
1131.208, 766.3809
1132.302, 712.4785
1133.396, 474.8579
1134.489, 535.1021
1135.582, 463.9580
1136.675, 423.0259
1137.768, 476.9712
1138.861, 375.3672
1139.954, 291.7856
1141.046, 246.6348
1142.138, 151.3936
1143.231, 83.47266
1144.323, 80.06885
1145.415, 106.7739
1146.507, 60.18604
1147.598, 57.40234
1148.690, 161.0649
1149.781, 145.7021
1150.872, 228.4375
1151.964, 264.5381
1153.054, 260.7603
1154.145, 285.4429
1155.236, 221.9028
1156.327, 266.7095
1157.417, 226.7607
1158.507, 204.9971
1159.597, 186.4121
1160.687, 185.4062
1161.777, 176.7998
1162.867, 208.6738
1163.956, 168.8091
1165.046, 188.1235
1166.135, 167.6309
1167.224, 240.3237
1168.313, 206.2427
1169.402, 196.3750
1170.491, 153.7183
1171.580, 239.2544
1172.668, 128.0308
1173.756, 89.99268
1174.845, 181.1230
1175.933, 114.4736
1177.020, 90.01172
1178.108, 44.72900
1179.196, 147.6025
1180.283, 127.6914
1181.371, 154.9634
1182.458, 26.48389
1183.545, 135.1636
1184.632, 13.93701
1185.719, 64.10693
1186.805, 58.33838
1187.892, 25.75781
1188.978, 55.34961
1190.065, 2.866699
1191.151, 5.919922
1192.237, 49.80908
1193.323, 33.44629
1194.408, 69.89209
1195.494, 24.54834
1196.579, 10.20605
1197.664, 106.5732
1198.750, 85.40723
1199.835, 130.4092
1200.919, 95.65625
1202.004, 145.0708
1203.089, 144.3555
1204.173, 250.5063
1205.258, 75.54395
1206.342, 207.4214
1207.426, 125.1763
1208.510, 173.7847
1209.594, 311.2593
1210.677, 199.6211
1211.761, 252.8521
1212.844, 259.9619
1213.927, 247.9497
1215.010, 250.8120
1216.093, 261.2915
1217.176, 266.0991
1218.259, 288.6431
1219.341, 317.0034
1220.424, 337.2427
1221.506, 417.3613
1222.588, 349.3652
1223.670, 452.2490
1224.752, 410.0186
1225.834, 370.6719
1226.915, 465.2041
1227.997, 440.6211
1229.078, 411.9204
1230.159, 564.0996
1231.240, 390.1650
1232.321, 466.1104
1233.402, 484.9380
1234.483, 504.6475
1235.563, 436.2388
1236.644, 515.7080
1237.724, 511.0596
1238.804, 520.2920
1239.884, 557.4077
1240.964, 507.4053
1242.044, 524.2832
1243.123, 464.0410
1244.203, 565.6753
1245.282, 524.1909
1246.361, 506.5850
1247.440, 598.8569
1248.519, 563.0103
1249.598, 561.0425
1250.676, 614.9561
1251.755, 540.7505
1252.833, 566.4292
1253.911, 669.9873
1254.989, 655.4297
1256.067, 620.7539
1257.145, 542.9590
1258.223, 643.0405
1259.300, 675.0029
1260.378, 548.8857
1261.455, 717.6050
1262.532, 646.2075
1263.609, 673.6914
1264.686, 770.0566
1265.763, 705.3057
1266.840, 728.4399
1267.916, 735.4561
1268.992, 719.3555
1270.069, 730.3540
1271.145, 744.0186
1272.221, 658.6768
1273.296, 765.1035
1274.372, 729.4146
1275.448, 839.6074
1276.523, 778.6846
1277.598, 780.4141
1278.673, 743.6270
1279.749, 737.6113
1280.823, 780.4229
1281.898, 753.8120
1282.973, 763.9321
1284.047, 824.0054
1285.122, 726.5737
1286.196, 784.8438
1287.270, 719.1406
1288.344, 801.3301
1289.418, 689.2173
1290.491, 745.7041
1291.565, 725.2734
1292.638, 770.3901
1293.712, 704.5620
1294.785, 736.0820
1295.858, 714.4521
1296.931, 693.0576
1298.003, 738.1523
1299.076, 607.4512
1300.149, 700.0166
1301.221, 694.8091
1302.293, 603.1855
1303.365, 655.5576
1304.437, 609.8228
1305.509, 634.8911
1306.581, 592.1187
1307.652, 564.3545
1308.724, 553.6987
1309.795, 490.4658
1310.866, 503.1670
1311.937, 509.5830
1313.008, 679.8359
1314.079, 582.0986
1315.150, 663.1313
1316.220, 610.9766
1317.291, 594.9736
1318.361, 478.5737
1319.431, 594.5098
1320.501, 559.3242
1321.571, 601.2842
1322.641, 600.0132
1323.710, 499.1533
1324.780, 510.8442
1325.849, 556.1445
1326.918, 441.1333
1327.987, 518.0142
1329.056, 542.3291
1330.125, 473.1094
1331.194, 653.4170
1332.263, 550.3848
1333.331, 531.6050
1334.399, 502.5459
1335.467, 387.6157
1336.535, 455.0527
1337.603, 474.8667
1338.671, 456.9292
1339.739, 445.1211
1340.806, 475.1748
1341.874, 519.2471
