##NAMES=Diopside
##RRUFFID=R060171
##IDEAL CHEMISTRY=CaMgSi_2_O_6_
##LOCALITY=Jeffrey mine, Asbestos, Quebec, Canada
##OWNER=RRUFF
##SOURCE=Guy Ouellet
##DESCRIPTION=Yellowish-brown tabular crystals associated with vesuvianite, R060170
##STATUS=The identification of this mineral has been confirmed by X-ray diffraction and chemical analysis
##URL=rruff.info/R060171
##MEASURED CHEMISTRY=Ca_1.00_(Mg_0.98_Mn_0.02_)_Î£=1_Si_2.00_O_6_
##PIN_ID=L00630
##ORIENTATION=Laser parallel to (-1 0 -1). Fiducial mark perpendicular to laser is parallel to -b [0 -1 0]
109.5120, 0.0000000E+00
110.7440, 125.3467
111.9760, 7.302734
113.2080, 82.47070
114.4400, 132.0420
115.6710, 99.82520
116.9030, 80.05176
118.1340, 225.4736
119.3650, 324.1855
120.5960, 210.5068
121.8270, 247.9062
123.0580, 113.9648
124.2880, 243.3438
125.5190, 185.7705
126.7490, 259.0225
127.9790, 139.9141
129.2090, 270.2861
130.4390, 262.9932
131.6680, 411.9121
132.8980, 394.9326
134.1270, 477.9639
135.3560, 835.9229
136.5850, 749.7441
137.8140, 1137.363
139.0430, 1392.732
140.2710, 2069.803
141.5000, 2760.533
142.7280, 3655.889
143.9560, 3574.832
145.1840, 2653.338
146.4120, 1805.375
147.6390, 1341.900
148.8670, 806.8711
150.0940, 770.2500
151.3210, 674.0137
152.5490, 543.1367
153.7750, 638.6035
155.0020, 615.3965
156.2290, 548.5059
157.4550, 476.9258
158.6810, 607.6406
159.9080, 420.6445
161.1340, 416.9238
162.3590, 655.4766
163.5850, 468.2910
164.8110, 827.3613
166.0360, 667.6816
167.2610, 931.2520
168.4860, 871.0586
169.7110, 630.1016
170.9360, 791.3711
172.1610, 506.8633
173.3850, 508.5762
174.6100, 573.5059
175.8340, 499.6504
177.0580, 637.9961
178.2820, 531.5430
179.5050, 576.2793
180.7290, 825.2051
181.9520, 1089.314
183.1760, 1490.555
184.3990, 1677.758
185.6220, 1327.949
186.8450, 970.1621
188.0670, 663.4121
189.2900, 541.7109
190.5120, 339.0723
191.7340, 440.5039
192.9560, 430.0078
194.1780, 476.5938
195.4000, 373.2617
196.6220, 510.1191
197.8430, 558.9668
199.0640, 598.9355
200.2860, 418.0254
201.5070, 505.2402
202.7270, 454.6621
203.9480, 375.2031
205.1690, 597.8516
206.3890, 431.5918
207.6090, 412.4238
208.8290, 414.3496
210.0490, 274.4219
211.2690, 458.5957
212.4890, 306.8867
213.7080, 379.2949
214.9280, 227.7930
216.1470, 432.3828
217.3660, 450.0801
218.5850, 277.8652
219.8030, 751.8184
221.0220, 662.8867
222.2400, 640.0918
223.4590, 523.3906
224.6770, 505.7695
225.8950, 632.2500
227.1120, 791.8086
228.3300, 984.4902
229.5480, 1346.256
230.7650, 1847.154
231.9820, 2123.127
233.1990, 2178.172
234.4160, 2094.299
235.6330, 1767.559
236.8490, 1485.980
238.0660, 1275.518
239.2820, 985.9570
240.4980, 807.8008
241.7140, 488.5391
242.9300, 491.3398
244.1460, 266.1992
245.3610, 568.1211
246.5770, 210.1035
247.7920, 280.1465
249.0070, 407.2461
250.2220, 336.4023
251.4370, 416.6172
252.6510, 591.8887
253.8660, 526.2148
255.0800, 795.5957
256.2940, 1076.039
257.5080, 1082.812
258.7220, 971.9180
259.9360, 738.5332
261.1490, 457.4863
262.3630, 373.7363
263.5760, 126.2520
264.7890, 186.0098
266.0020, 137.9863
267.2150, 173.1660
268.4270, 63.53711
269.6400, 158.0820
270.8520, 254.8008
272.0640, 142.6777
273.2760, 155.7031
274.4880, 214.8652
275.7000, 69.16211
276.9120, 189.5859
278.1230, 157.1309
279.3340, 140.7930
280.5450, 135.5664
281.7560, 244.4473
282.9670, 8.570313
284.1780, 266.5156
285.3880, 388.6953
286.5980, 31.96875
287.8090, 250.2891
289.0190, 142.7402
290.2290, 171.2734
291.4380, 95.07227
292.6480, 197.7695
293.8570, 238.4414
295.0670, 241.5781
296.2760, 398.5059
297.4850, 455.1914
298.6930, 437.5254
299.9020, 666.6602
301.1110, 831.8633
302.3190, 919.1660
303.5270, 1228.531
304.7350, 1165.957
305.9430, 1190.447
307.1510, 1028.998
308.3580, 962.9512
309.5660, 1091.627
310.7730, 1214.363
311.9800, 1313.477
313.1870, 1765.324
314.3940, 2070.877
315.6010, 2302.590
316.8070, 2540.637
318.0130, 3031.734
319.2200, 3711.941
320.4260, 4811.143
321.6310, 6658.412
322.8370, 8977.178
324.0430, 11326.56
325.2480, 12931.00
326.4540, 12901.47
327.6590, 10748.86
328.8640, 8030.959
330.0680, 5774.557
331.2730, 3952.133
332.4780, 2760.936
333.6820, 2252.709
334.8860, 1785.469
336.0900, 1436.551
337.2940, 1172.393
338.4980, 1084.275
339.7010, 772.9766
340.9050, 725.9355
342.1080, 522.9355
343.3110, 877.9727
344.5140, 640.0195
345.7170, 708.6230
346.9200, 570.7734
348.1220, 602.9590
349.3240, 547.0176
350.5270, 773.2754
351.7290, 694.5664
352.9310, 975.8906
354.1320, 1110.250
355.3340, 1584.643
356.5350, 1891.066
357.7370, 2312.836
358.9380, 2436.324
360.1390, 2251.445
361.3400, 1958.994
362.5400, 1566.873
363.7410, 1336.479
364.9410, 1320.008
366.1410, 1293.672
367.3410, 1620.359
368.5410, 1770.076
369.7410, 1724.814
370.9400, 1591.582
372.1400, 1321.373
373.3390, 1165.191
374.5380, 997.0312
375.7370, 981.9062
376.9360, 1155.783
378.1350, 1129.697
379.3330, 1285.631
380.5310, 1530.590
381.7300, 2006.568
382.9280, 2281.566
384.1260, 2784.588
385.3230, 3624.629
386.5210, 4859.688
387.7180, 6640.770
388.9160, 9205.867
390.1130, 11872.99
391.3100, 13385.12
392.5060, 12867.29
393.7030, 10635.46
394.9000, 7619.652
396.0960, 5278.865
397.2920, 3270.092
398.4880, 2432.340
399.6840, 1904.602
400.8800, 1366.906
402.0750, 1048.121
403.2710, 775.8652
404.4660, 824.0508
405.6610, 491.5195
406.8560, 415.0273
408.0510, 361.5684
409.2450, 175.1445
410.4400, 337.7520
411.6340, 254.3906
412.8280, 431.0625
414.0220, 144.9355
415.2160, 211.8867
416.4100, 237.6445
417.6030, 311.4297
418.7970, 103.2422
419.9900, 95.08008
421.1830, 3.943359
422.3760, 134.8320
423.5690, 80.74414
424.7610, 89.68359
425.9540, 124.6426
427.1460, 77.56641
428.3380, 130.5703
429.5300, 27.59766
430.7220, 110.3555
431.9140, 13.67578
433.1050, 74.73047
434.2970, 67.18750
435.4880, 107.1445
436.6790, 145.7539
437.8700, 111.7480
439.0610, 56.30469
440.2510, 109.3750
441.4420, 31.53711
442.6320, 90.98438
443.8220, 68.09766
445.0120, 134.5703
446.2020, 90.72070
447.3910, 5.884766
448.5810, 7.892578
449.7700, 112.0859
450.9600, 99.68945
452.1490, 129.4941
453.3370, 29.68555
454.5260, 31.87891
455.7150, 15.32617
456.9030, 60.01562
458.0910, 15.91602
459.2800, 48.21875
460.4670, 69.44531
461.6550, 7.312500
462.8430, 54.32617
464.0300, 210.2578
465.2180, 23.40625
466.4050, 98.89453
467.5920, 14.44141
468.7790, 148.7617
469.9650, 89.91406
471.1520, 62.62305
472.3380, 30.64258
473.5250, 29.08008
474.7110, 51.81055
475.8970, 8.558594
477.0820, 63.68945
478.2680, 10.94336
479.4540, 116.2012
480.6390, 202.4648
481.8240, 20.26367
483.0090, 215.9961
484.1940, 42.26758
485.3780, 207.5527
486.5630, 60.15625
487.7470, 11.10352
488.9320, 189.3633
490.1160, 225.6289
491.3000, 91.10156
492.4830, 67.12500
493.6670, 74.35938
494.8500, 112.5996
496.0340, 161.8516
497.2170, 50.10742
498.4000, 242.3672
499.5820, 0.3730470
500.7650, 251.8770
501.9480, 184.8652
503.1300, 234.2910
504.3120, 109.5469
505.4940, 124.5566
506.6760, 8.339844
507.8580, 92.74609
509.0390, 210.8320
510.2210, 129.9199
511.4020, 181.0078
512.5830, 85.13867
513.7640, 446.2812
514.9450, 231.4219
516.1250, 341.5645
517.3060, 162.7109
518.4860, 353.8965
519.6660, 504.0781
520.8460, 514.2598
522.0260, 213.4395
523.2060, 215.6172
524.3850, 498.7969
525.5650, 679.9766
526.7440, 721.1582
527.9230, 957.3418
529.1020, 1116.523
530.2810, 1060.701
531.4590, 1153.906
532.6380, 1049.973
533.8160, 1099.312
534.9940, 755.5117
536.1720, 652.7070
537.3500, 418.8965
538.5270, 482.0820
539.7050, 322.2637
540.8820, 305.4434
542.0590, 484.6211
543.2360, 34.79883
544.4130, 206.9648
545.5900, 68.12695
546.7660, 196.2852
547.9430, 135.4375
549.1190, 275.5840
550.2950, 264.7227
551.4710, 251.8574
552.6470, 90.98828
553.8220, 290.1113
554.9980, 33.23242
556.1730, 68.33594
557.3480, 323.4336
558.5230, 515.5195
559.6980, 735.5996
560.8730, 277.6719
562.0470, 310.7363
563.2220, 243.7910
564.3960, 298.8398
565.5700, 250.8672
566.7440, 205.1152
567.9170, 204.9238
569.0910, 156.9336
570.2640, 178.9336
571.4380, 297.9219
572.6110, 159.9414
573.7840, 182.9121
574.9570, 99.00781
576.1290, 74.49023
577.3020, 136.1113
578.4740, 42.12305
579.6460, 106.5527
580.8180, 111.4297
581.9900, 146.2930
583.1620, 59.66406
584.3330, 330.0078
585.5040, 73.56445
586.6760, 102.2617
587.8470, 218.9824
589.0180, 45.68945
590.1880, 181.3750
591.3590, 15.04688
592.5290, 180.3457
593.7000, 115.9668
594.8700, 31.57422
596.0400, 230.9180
597.2090, 25.87109
598.3790, 116.1250
599.5490, 97.01758
600.7180, 197.4160
601.8870, 50.06445
603.0560, 44.57031
604.2250, 45.49219
605.3940, 19.60156
606.5620, 271.5000
607.7300, 75.74609
608.8990, 285.4453
610.0670, 335.6582
611.2350, 189.4590
612.4020, 166.0977
613.5700, 198.3203
614.7370, 254.0586
615.9050, 159.7324
617.0720, 353.7949
618.2390, 149.9062
619.4060, 179.3086
620.5720, 287.6699
621.7390, 225.6309
622.9050, 241.2754
624.0710, 156.0781
625.2370, 168.1152
626.4030, 276.0918
627.5690, 309.0488
628.7340, 208.5234
629.9000, 104.9727
631.0650, 200.9102
632.2300, 86.58008
633.3950, 182.6367
634.5600, 166.8164
635.7240, 191.7480
636.8890, 189.0137
638.0530, 276.5918
639.2170, 276.1348
640.3810, 431.0547
641.5450, 419.6035
642.7080, 381.8965
643.8720, 503.3184
645.0350, 507.9531
646.1980, 714.2090
647.3610, 419.0039
648.5240, 542.8516
649.6870, 601.3906
650.8490, 774.2363
652.0120, 1065.883
653.1740, 1195.693
654.3360, 1108.268
655.4980, 1409.646
656.6600, 1553.891
657.8210, 1956.146
658.9830, 2374.977
660.1440, 3024.443
661.3050, 3834.311
662.4660, 4626.236
663.6270, 6030.543
664.7870, 7331.115
665.9480, 8591.430
667.1080, 9295.135
668.2680, 9416.707
669.4280, 8355.355
670.5880, 7546.031
671.7480, 5784.121
672.9070, 4588.344
674.0670, 3650.480
675.2260, 2824.682
676.3850, 2532.799
677.5440, 1968.623
678.7030, 1505.979
679.8610, 1365.750
681.0200, 1100.123
682.1780, 1059.131
683.3360, 704.3516
684.4940, 843.3535
685.6520, 608.9902
686.8090, 411.7109
687.9670, 641.0566
689.1240, 221.2871
690.2810, 650.5449
691.4380, 447.2695
692.5950, 442.8008
693.7520, 380.1680
694.9080, 288.5352
696.0650, 312.7090
697.2210, 324.1445
698.3770, 359.5371
699.5330, 249.4688
700.6880, 335.8359
701.8440, 211.5742
702.9990, 359.6484
704.1550, 503.2012
705.3100, 359.0586
706.4650, 322.9941
707.6190, 460.9023
708.7740, 470.1035
709.9290, 593.8223
711.0830, 352.0430
712.2370, 355.5098
713.3910, 11.82227
714.5450, 297.0762
715.6980, 116.0586
716.8520, 241.2520
718.0050, 69.49805
719.1580, 258.6582
720.3110, 348.7852
721.4640, 108.8750
722.6170, 100.5059
723.7700, 89.51953
724.9220, 199.1562
726.0740, 254.0918
727.2260, 285.5547
728.3780, 342.6875
729.5300, 345.3574
730.6810, 363.1348
731.8330, 347.6270
732.9840, 279.4629
734.1350, 208.8906
735.2860, 136.7461
736.4370, 142.9375
737.5880, 49.53516
738.7380, 234.4023
739.8880, 170.3828
741.0390, 185.6719
742.1890, 92.59180
743.3380, 373.9395
744.4880, 110.7598
745.6380, 252.7266
746.7870, 105.6230
747.9360, 404.4766
749.0850, 110.6816
750.2340, 287.1758
751.3830, 38.84180
752.5310, 13.18555
753.6800, 75.69727
754.8280, 269.4453
755.9760, 230.5625
757.1240, 93.16406
758.2720, 167.8457
759.4190, 53.23828
760.5670, 146.0273
761.7140, 66.78906
762.8610, 18.60547
764.0080, 327.0371
765.1550, 50.77734
766.3020, 405.3203
767.4480, 132.1152
768.5950, 350.3926
769.7410, 23.67578
770.8870, 50.85938
772.0330, 40.77734
773.1780, 3.667969
774.3240, 174.4258
775.4690, 362.1133
776.6140, 168.4922
777.7590, 170.6211
778.9040, 92.71094
780.0490, 243.3320
781.1940, 19.80469
782.3380, 226.3438
783.4820, 147.5508
784.6260, 379.0645
785.7700, 237.6367
786.9140, 81.95117
788.0580, 230.5625
789.2010, 125.1660
790.3450, 16.54688
791.4880, 386.1289
792.6310, 94.67188
793.7730, 20.83398
794.9160, 104.0469
796.0590, 210.8555
797.2010, 386.7793
798.3430, 193.4199
799.4850, 174.8164
800.6270, 87.93164
801.7690, 57.14648
802.9100, 86.50195
804.0520, 48.73438
805.1930, 246.7422
806.3340, 222.5547
807.4750, 81.50781
808.6160, 107.3887
809.7560, 357.6973
810.8970, 93.80078
812.0370, 376.5039
813.1770, 488.0586
814.3170, 143.5352
815.4570, 250.0352
816.5960, 145.1016
817.7360, 52.81641
818.8750, 93.42773
820.0140, 97.44922
821.1530, 104.0137
822.2920, 165.1230
823.4310, 165.5703
824.5690, 248.5684
825.7070, 269.7793
826.8460, 257.5176
827.9840, 139.8770
829.1220, 178.6309
830.2590, 54.60156
831.3970, 166.2031
832.5340, 194.8574
833.6710, 179.4277
834.8080, 183.3574
835.9450, 287.3809
837.0820, 175.9258
838.2190, 319.0254
839.3550, 60.38086
840.4910, 363.1270
841.6270, 270.1641
842.7630, 243.3613
843.8990, 244.9453
845.0350, 167.5508
846.1700, 274.8242
847.3060, 147.9316
848.4410, 325.2441
849.5760, 513.2520
850.7100, 657.1973
851.8450, 718.1035
852.9800, 1020.547
854.1140, 1163.652
855.2480, 1243.590
856.3820, 1142.320
857.5160, 995.9766
858.6500, 890.1055
859.7830, 732.1523
860.9170, 637.3281
862.0500, 404.4570
863.1830, 462.9023
864.3160, 324.3008
865.4480, 281.6445
866.5810, 432.9414
867.7130, 314.1953
868.8460, 220.3984
869.9780, 137.5430
871.1100, 322.5547
872.2410, 427.2070
873.3730, 130.8477
874.5050, 339.7031
875.6360, 259.6523
876.7670, 266.3164
877.8980, 312.0234
879.0290, 54.29297
880.1590, 372.0820
881.2900, 89.98438
882.4200, 147.6758
883.5500, 206.8203
884.6800, 114.4062
885.8100, 74.44531
886.9400, 234.9062
888.0690, 300.2578
889.1990, 251.0781
890.3280, 187.7070
891.4570, 330.9453
892.5860, 44.11328
893.7140, 177.6367
894.8430, 238.4062
895.9710, 389.5117
897.1000, 131.0898
898.2280, 159.2148
899.3560, 425.0469
900.4830, 338.8750
901.6110, 72.31250
902.7380, 311.3555
903.8660, 5.539063
904.9930, 86.00391
906.1200, 192.8516
907.2460, 244.0781
908.3730, 53.10938
909.5000, 255.3086
910.6260, 64.09766
911.7520, 326.2422
912.8780, 411.9102
914.0040, 631.5352
915.1290, 237.7656
916.2550, 275.5781
917.3800, 245.7891
918.5050, 94.41016
919.6300, 238.6484
920.7550, 217.3750
921.8800, 267.9531
923.0040, 185.6875
924.1290, 257.0352
925.2530, 134.5078
926.3770, 15.25391
927.5010, 124.9023
928.6250, 204.7812
929.7480, 33.36328
930.8720, 219.3555
931.9950, 203.6602
933.1180, 55.78516
934.2410, 308.4258
935.3640, 537.9180
936.4860, 89.16016
937.6090, 37.50781
938.7310, 20.63672
939.8530, 103.5547
940.9750, 139.2227
942.0970, 338.4102
943.2180, 80.58984
944.3400, 205.8516
945.4610, 44.33203
946.5820, 329.2812
947.7030, 115.2578
948.8240, 452.5781
949.9450, 106.1445
951.0650, 198.0859
952.1860, 270.9961
953.3060, 39.85156
954.4260, 174.6523
955.5460, 222.1680
956.6650, 87.31250
957.7850, 11.04297
958.9040, 128.9531
960.0230, 305.1406
961.1420, 166.8398
962.2610, 246.1914
963.3800, 339.7930
964.4990, 112.4492
965.6170, 6.882813
966.7350, 125.3555
967.8530, 134.3203
968.9710, 57.36719
970.0890, 238.9414
971.2070, 342.7422
972.3240, 196.8711
973.4410, 505.7734
974.5580, 255.6289
975.6750, 174.9609
976.7920, 441.6172
977.9090, 49.05078
979.0250, 308.5508
980.1410, 286.1445
981.2580, 677.8750
982.3740, 325.4414
983.4890, 407.6562
984.6050, 354.9727
985.7200, 431.8242
986.8360, 538.0430
987.9510, 314.2148
989.0660, 711.3281
990.1810, 381.3945
991.2950, 860.4062
992.4100, 731.3633
993.5240, 800.6836
994.6390, 859.4883
995.7530, 808.1914
996.8660, 740.3945
997.9800, 1230.688
999.0940, 1294.180
1000.207, 1482.898
1001.320, 1837.582
1002.433, 2324.535
1003.546, 2651.371
1004.659, 3464.930
1005.772, 4267.402
1006.884, 5636.781
1007.996, 7298.375
1009.108, 9802.672
1010.220, 13453.22
1011.332, 18023.37
1012.444, 22905.70
1013.555, 26680.54
1014.666, 26843.60
1015.777, 23555.31
1016.888, 18710.83
1017.999, 13772.09
1019.110, 9781.809
1020.220, 7259.625
1021.331, 5264.027
1022.441, 4144.605
1023.551, 2945.020
1024.661, 2556.012
1025.770, 2290.711
1026.880, 1835.879
1027.989, 1643.082
1029.098, 1300.316
1030.207, 1435.129
1031.316, 1392.160
1032.425, 1031.918
1033.533, 1052.438
1034.642, 821.7422
1035.750, 880.7969
1036.858, 739.5391
1037.966, 851.6758
1039.073, 734.3945
1040.181, 645.5781
1041.288, 988.8555
1042.396, 853.9336
1043.503, 841.0547
1044.610, 751.3203
1045.716, 917.7695
1046.823, 814.5312
1047.929, 883.2461
1049.036, 798.9648
1050.142, 884.7852
1051.248, 678.4258
1052.353, 718.7227
1053.459, 505.9297
1054.564, 363.9648
1055.670, 530.3320
1056.775, 441.5977
1057.880, 541.1836
1058.985, 584.6758
1060.089, 200.6016
1061.194, 295.3320
1062.298, 559.9141
1063.402, 56.99219
1064.506, 270.6406
1065.610, 508.8945
1066.713, 406.6289
1067.817, 145.1406
1068.920, 95.15234
1070.023, 236.1758
1071.126, 413.1562
1072.229, 188.0430
1073.332, 325.2461
1074.435, 161.3828
1075.537, 428.9844
1076.639, 239.0430
1077.741, 461.7930
1078.843, 61.06641
1079.945, 236.0859
1081.046, 399.1953
1082.148, 399.4102
1083.249, 434.5039
1084.350, 60.00391
1085.451, 284.6797
1086.551, 95.79688
1087.652, 417.9531
1088.752, 193.9219
1089.853, 49.68750
1090.953, 353.6328
1092.053, 365.4961
1093.152, 239.9609
1094.252, 295.2383
1095.351, 105.3477
1096.451, 418.8477
1097.550, 17.44141
1098.649, 374.9922
1099.748, 40.55859
1100.846, 199.1992
1101.945, 299.1250
1103.043, 96.14844
1104.141, 132.2539
1105.239, 74.69922
1106.337, 225.7852
1107.434, 213.3711
1108.532, 281.5703
1109.629, 62.50781
1110.726, 96.04297
1111.823, 103.5352
1112.920, 163.2656
1114.017, 389.2266
1115.113, 115.5898
1116.210, 426.9883
1117.306, 206.2070
1118.402, 383.5078
1119.498, 579.0156
1120.593, 392.9180
1121.689, 393.1211
1122.784, 494.2148
1123.879, 472.2852
1124.974, 241.3086
1126.069, 113.2891
1127.164, 124.2344
1128.259, 230.1016
1129.353, 195.4258
1130.447, 369.1953
1131.541, 224.9180
1132.635, 300.5938
1133.729, 173.2305
1134.822, 404.8086
1135.916, 300.3516
1137.009, 253.8477
1138.102, 68.30078
1139.195, 30.69922
1140.288, 32.94922
1141.380, 131.7656
1142.473, 98.01953
1143.565, 206.0820
1144.657, 221.5469
1145.749, 302.5586
1146.841, 348.5273
1147.932, 194.4531
1149.024, 62.33984
1150.115, 359.1797
1151.206, 214.9766
1152.297, 252.7305
1153.388, 264.4414
1154.479, 242.2344
1155.569, 265.0391
1156.659, 225.4375
1157.750, 214.9766
1158.839, 162.4766
1159.929, 12.92969
1161.019, 6.628906
1162.108, 115.2109
1163.198, 22.07031
1164.287, 20.84766
1165.376, 223.3008
1166.465, 517.4062
1167.553, 301.5000
1168.642, 356.5547
1169.730, 145.2734
1170.818, 287.0547
1171.906, 423.1250
1172.994, 120.1914
1174.082, 133.4375
1175.170, 43.07031
1176.257, 139.8438
1177.344, 101.4141
1178.431, 409.7617
1179.518, 188.3750
1180.605, 187.0000
1181.691, 190.5195
1182.778, 5.996094
1183.864, 258.4062
1184.950, 18.78125
1186.036, 221.0117
1187.122, 151.2812
1188.207, 130.5039
1189.292, 18.68750
1190.378, 7.003906
1191.463, 183.1172
1192.548, 0.7851560
1193.632, 150.7500
1194.717, 270.1602
1195.801, 95.57812
1196.886, 263.4180
1197.970, 112.2227
1199.054, 270.9922
1200.137, 5.492188
1201.221, 172.5430
1202.305, 195.1680
1203.388, 147.9688
1204.471, 184.3984
1205.554, 257.9180
1206.637, 126.3984
1207.719, 0.7460940
1208.802, 8.562500
1209.884, 103.4961
1210.966, 93.17578
1212.048, 362.4141
1213.130, 420.6211
1214.212, 45.78906
1215.293, 326.4570
1216.374, 187.1602
1217.456, 349.0625
1218.536, 135.1523
1219.617, 237.4922
1220.698, 489.1484
1221.778, 265.1523
1222.859, 405.1367
1223.939, 177.5977
1225.019, 413.2578
1226.099, 270.0898
1227.178, 245.9375
1228.258, 286.0586
1229.337, 238.8477
1230.417, 214.1719
1231.496, 279.2500
1232.574, 200.7266
1233.653, 330.3203
1234.732, 465.0312
1235.810, 472.4766
1236.888, 418.5273
1237.966, 338.4922
1239.044, 439.7148
1240.122, 588.9648
1241.199, 449.0586
1242.277, 304.6484
1243.354, 669.4609
1244.431, 190.8281
1245.508, 362.1953
1246.585, 515.5039
1247.661, 356.1953
1248.738, 165.4453
1249.814, 448.6641
1250.890, 212.8516
1251.966, 465.0156
1253.042, 266.1484
1254.117, 620.2578
1255.193, 456.9258
1256.268, 209.0352
1257.343, 451.1680
1258.418, 91.71484
1259.493, 518.0938
1260.567, 320.0352
1261.642, 489.4883
1262.716, 221.2422
1263.790, 488.4375
1264.864, 350.2773
1265.938, 258.9609
1267.011, 311.4297
1268.085, 318.1016
1269.158, 324.3984
1270.231, 92.02344
1271.304, 300.7695
1272.377, 278.9062
1273.450, 82.97656
1274.522, 345.0938
1275.594, 310.5273
1276.666, 176.0508
1277.738, 528.9961
1278.810, 395.3711
1279.882, 409.8320
1280.953, 240.8125
1282.025, 224.9375
1283.096, 138.0898
1284.167, 264.1367
1285.238, 341.2656
1286.308, 376.2109
