##NAMES=Diopside
##RRUFFID=R060861
##IDEAL CHEMISTRY=CaMgSi_2_O_6_
##LOCALITY=Red Mountain Volcano, NW of Flagstaff, Arizona, USA
##OWNER=RRUFF
##SOURCE=Jennifer Sano
##DESCRIPTION=Worn brown fragment
##STATUS=The identification of this mineral has been confirmed by X-ray diffraction and chemical analysis
##URL=rruff.info/R060861
##MEASURED CHEMISTRY=(Ca_0.72_Fe^2+^_0.23_Na_0.05_)_Σ=1_(Mg_0.80_Al_0.15_Ti_0.03_Fe^3+^_0.02_)_Σ=1_(Si_1.82_Al_0.18_)_Σ=2_O_6_
##PIN_ID=M00947
##ORIENTATION=Laser parallel to a* (1 0 0). Fiducial mark perpendicular to laser is parallel to b [0 1 0]
148.7570, 0.0000000E+00
149.9950, 86.82031
151.2320, 111.0654
152.4690, 229.4756
153.7060, 266.1934
154.9420, 510.8770
156.1790, 334.6016
157.4150, 175.6738
158.6510, 115.9150
159.8870, 28.16113
161.1220, 117.0127
162.3570, 142.9570
163.5930, 274.3916
164.8280, 520.0088
166.0620, 394.5742
167.2970, 272.8535
168.5310, 450.6406
169.7650, 506.7402
170.9990, 720.9688
172.2330, 659.1680
173.4670, 727.2002
174.7000, 880.9453
175.9330, 715.3018
177.1660, 1109.179
178.3990, 983.5010
179.6310, 1202.228
180.8640, 1092.483
182.0960, 1206.990
183.3280, 1164.680
184.5600, 1137.509
185.7910, 1271.437
187.0220, 1205.398
188.2540, 1178.312
189.4840, 1002.102
190.7150, 1070.709
191.9460, 1098.094
193.1760, 1094.218
194.4060, 1220.058
195.6360, 1227.590
196.8660, 1367.800
198.0960, 1188.673
199.3250, 1579.198
200.5540, 1717.364
201.7830, 2050.160
203.0120, 2021.576
204.2400, 1880.604
205.4690, 1450.235
206.6970, 1397.458
207.9250, 1348.264
209.1530, 1402.641
210.3800, 1703.405
211.6080, 1822.828
212.8350, 1985.521
214.0620, 2299.009
215.2880, 2388.027
216.5150, 2667.575
217.7410, 2682.637
218.9680, 2887.204
220.1940, 3140.272
221.4190, 3274.830
222.6450, 3410.628
223.8700, 3410.891
225.0960, 3543.115
226.3210, 3489.430
227.5450, 3428.849
228.7700, 3535.246
229.9940, 3325.758
231.2190, 3365.467
232.4430, 3137.374
233.6660, 2909.494
234.8900, 2730.844
236.1140, 2628.441
237.3370, 2504.307
238.5600, 2263.455
239.7830, 2058.897
241.0050, 2068.650
242.2280, 2073.725
243.4500, 1791.127
244.6720, 1716.864
245.8940, 1853.941
247.1160, 1804.361
248.3370, 1617.121
249.5580, 1766.223
250.7790, 1627.663
252.0000, 1729.438
253.2210, 1594.547
254.4410, 1489.985
255.6620, 1465.748
256.8820, 1281.833
258.1020, 1605.238
259.3210, 1271.619
260.5410, 1162.190
261.7600, 884.3330
262.9790, 642.9814
264.1980, 551.9287
265.4170, 213.1768
266.6360, 199.7178
267.8540, 14.55273
269.0720, 137.6768
270.2900, 5.085938
271.5080, 49.22266
272.7260, 144.2529
273.9430, 60.00879
275.1600, 50.49316
276.3770, 91.29102
277.5940, 153.3398
278.8100, 217.6504
280.0270, 168.2168
281.2430, 348.0371
282.4590, 441.1064
283.6750, 724.4189
284.8910, 765.9551
286.1060, 1020.726
287.3210, 1232.731
288.5360, 1514.967
289.7510, 1584.432
290.9660, 2032.121
292.1800, 2473.030
293.3950, 2709.154
294.6090, 2871.493
295.8230, 3445.462
297.0360, 3796.296
298.2500, 4389.905
299.4630, 4713.150
300.6760, 5145.301
301.8890, 5856.307
303.1020, 6525.822
304.3150, 6972.726
305.5270, 7818.570
306.7390, 8695.222
307.9510, 9445.642
309.1630, 10136.66
310.3750, 11261.32
311.5860, 12179.26
312.7970, 13147.37
314.0080, 14345.58
315.2190, 15329.27
316.4300, 16740.29
317.6400, 18058.75
318.8510, 19181.69
320.0610, 20389.03
321.2710, 21454.68
322.4800, 22445.20
323.6900, 23578.96
324.8990, 24345.18
326.1080, 25546.87
327.3170, 26492.00
328.5260, 26901.55
329.7340, 27255.56
330.9430, 27706.98
332.1510, 27537.79
333.3590, 27284.01
334.5670, 27427.63
335.7740, 26487.62
336.9820, 26018.94
338.1890, 25176.60
339.3960, 24510.60
340.6030, 23525.90
341.8100, 22654.45
343.0160, 21589.26
344.2220, 20693.31
345.4280, 19655.58
346.6340, 19010.06
347.8400, 18176.57
349.0460, 17401.61
350.2510, 16751.67
351.4560, 15998.90
352.6610, 15271.31
353.8660, 14872.88
355.0700, 14067.63
356.2750, 13773.54
357.4790, 13425.59
358.6830, 13156.79
359.8870, 12522.16
361.0910, 12464.67
362.2940, 12239.34
363.4970, 12244.16
364.7000, 12017.12
365.9030, 12025.23
367.1060, 11861.48
368.3080, 11951.86
369.5110, 12538.39
370.7130, 12742.05
371.9150, 12976.85
373.1170, 13203.78
374.3180, 13454.85
375.5200, 14407.05
376.7210, 15040.39
377.9220, 15763.86
379.1230, 16835.45
380.3230, 17687.19
381.5240, 18796.04
382.7240, 20006.02
383.9240, 21464.12
385.1240, 22973.35
386.3240, 24540.69
387.5230, 25986.15
388.7230, 28029.73
389.9220, 29790.43
391.1210, 31320.23
392.3200, 32836.14
393.5180, 33726.16
394.7170, 34301.30
395.9150, 34414.54
397.1130, 34001.87
398.3110, 33032.30
399.5080, 31497.84
400.7060, 29288.46
401.9030, 27106.20
403.1000, 25140.01
404.2970, 22427.91
405.4940, 19899.91
406.6910, 17705.98
407.8870, 15396.15
409.0830, 13371.40
410.2790, 11777.72
411.4750, 10091.12
412.6710, 8887.606
413.8660, 7649.158
415.0610, 6669.754
416.2560, 5796.137
417.4510, 5174.607
418.6460, 4507.039
419.8410, 3876.613
421.0350, 3530.574
422.2290, 3132.597
423.4230, 2793.679
424.6170, 2496.818
425.8100, 2145.015
427.0040, 1948.266
428.1970, 1683.567
429.3900, 1418.921
430.5830, 1483.323
431.7760, 1112.771
432.9680, 1007.268
434.1610, 966.8057
435.3530, 791.3867
436.5450, 701.0078
437.7360, 600.6182
438.9280, 500.3652
440.1190, 371.1396
441.3110, 312.9893
442.5020, 157.9189
443.6930, 11.92773
444.8830, 43.01953
446.0740, 3.208984
447.2640, 70.51758
448.4540, 35.85840
449.6440, 38.35645
450.8340, 99.03711
452.0240, 65.10840
453.2130, 68.00684
454.4020, 57.83203
455.5910, 33.10742
456.7800, 28.40625
457.9690, 0.7666020
459.1570, 164.5098
460.3460, 284.4619
461.5340, 284.2812
462.7220, 389.0781
463.9090, 536.8574
465.0970, 567.6465
466.2840, 669.8535
467.4720, 655.8672
468.6590, 706.4570
469.8460, 802.2793
471.0320, 872.8564
472.2190, 835.4697
473.4050, 936.9561
474.5910, 773.5264
475.7770, 944.5547
476.9630, 966.2666
478.1490, 1124.837
479.3340, 1154.409
480.5190, 1287.403
481.7040, 1365.572
482.8890, 1390.208
484.0740, 1475.784
485.2580, 1437.009
486.4430, 1417.521
487.6270, 1467.978
488.8110, 1497.915
489.9950, 1537.819
491.1780, 1591.962
492.3620, 1536.166
493.5450, 1620.535
494.7280, 1742.800
495.9110, 1612.008
497.0940, 1623.154
498.2760, 1818.239
499.4590, 1719.261
500.6410, 1783.218
501.8230, 1816.108
503.0050, 1952.930
504.1860, 1984.682
505.3680, 2290.362
506.5490, 2359.970
507.7300, 2351.503
508.9110, 2447.960
510.0920, 2764.338
511.2730, 3002.639
512.4530, 3268.856
513.6330, 3270.992
514.8130, 3455.045
515.9930, 3671.011
517.1730, 3962.892
518.3520, 4056.684
519.5320, 4389.383
520.7110, 4601.991
521.8900, 4739.510
523.0690, 5068.932
524.2470, 5111.258
525.4260, 5417.486
526.6040, 5736.617
527.7820, 5769.646
528.9600, 6079.572
530.1380, 5927.398
531.3150, 6219.117
532.4930, 6115.731
533.6700, 6122.236
534.8470, 6333.635
536.0240, 6294.922
537.2000, 6218.098
538.3770, 6104.161
539.5530, 6002.419
540.7290, 5874.943
541.9050, 5698.658
543.0810, 5548.258
544.2570, 5306.736
545.4320, 5186.097
546.6080, 5078.333
547.7830, 5658.447
548.9580, 5105.938
550.1320, 5063.150
551.3070, 4573.039
552.4810, 4522.646
553.6550, 4639.129
554.8300, 4581.479
556.0030, 4906.699
557.1770, 4304.783
558.3510, 4034.741
559.5240, 4157.566
560.6970, 4448.261
561.8700, 4211.088
563.0430, 4236.971
564.2160, 4136.523
565.3880, 3916.664
566.5600, 4092.666
567.7320, 3903.523
568.9040, 3659.240
570.0760, 3744.812
571.2480, 3606.239
572.4190, 3580.521
573.5900, 3167.655
574.7610, 3402.641
575.9320, 3121.479
577.1030, 3093.167
578.2740, 2989.704
579.4440, 2745.091
580.6140, 2798.324
581.7840, 2367.404
582.9540, 2231.664
584.1240, 2046.456
585.2930, 1783.023
586.4630, 1641.120
587.6320, 1434.338
588.8010, 1338.396
589.9700, 1103.445
591.1380, 963.8457
592.3070, 854.2295
593.4750, 618.2119
594.6430, 426.7480
595.8110, 413.6846
596.9790, 293.8486
598.1460, 18.34668
599.3140, 57.42969
600.4810, 158.7197
601.6480, 286.5781
602.8150, 192.0850
603.9820, 275.0000
605.1480, 282.2324
606.3150, 322.9971
607.4810, 341.2539
608.6470, 326.1084
609.8130, 367.4619
610.9790, 179.4883
612.1440, 374.6270
613.3100, 204.5264
614.4750, 146.8428
615.6400, 178.8291
616.8050, 215.2432
617.9690, 79.48047
619.1340, 34.14941
620.2980, 0.1669920
621.4620, 21.03125
622.6260, 128.4561
623.7900, 390.0518
624.9540, 378.9238
626.1170, 367.8672
627.2810, 634.5742
628.4440, 605.9590
629.6070, 799.0898
630.7690, 876.9951
631.9320, 1031.680
633.0950, 1213.154
634.2570, 1340.427
635.4190, 1605.494
636.5810, 1890.361
637.7430, 2022.027
638.9040, 2312.491
640.0660, 2565.754
641.2270, 2903.815
642.3880, 3358.676
643.5490, 3828.336
644.7100, 4257.797
645.8700, 4891.057
647.0310, 5462.115
648.1910, 6243.977
649.3510, 6744.639
650.5110, 7720.102
651.6710, 8779.367
652.8300, 9915.433
653.9900, 11229.30
655.1490, 12589.98
656.3080, 14292.45
657.4670, 16144.73
658.6250, 18294.82
659.7840, 20554.71
660.9420, 22550.40
662.1010, 24881.90
663.2590, 26925.21
664.4170, 29021.33
665.5740, 30407.25
666.7320, 30983.98
667.8890, 31383.52
669.0460, 30660.87
670.2030, 29222.03
671.3600, 27371.99
672.5170, 25163.78
673.6740, 22858.37
674.8300, 21017.78
675.9860, 18650.99
677.1420, 16993.04
678.2980, 15082.88
679.4540, 13486.55
680.6090, 12001.03
681.7650, 10851.33
682.9200, 9578.446
684.0750, 8652.382
685.2300, 7859.138
686.3840, 6901.715
687.5390, 6393.115
688.6930, 5760.334
689.8470, 5136.381
691.0010, 4705.249
692.1550, 4139.943
693.3090, 3814.464
694.4620, 3497.811
695.6160, 3345.985
696.7690, 3168.990
697.9220, 2833.824
699.0750, 2552.490
700.2280, 2452.986
701.3800, 2689.316
702.5320, 2135.480
703.6850, 2084.480
704.8370, 1874.316
705.9880, 1580.989
707.1400, 1584.500
708.2920, 1554.852
709.4430, 1223.043
710.5940, 1334.075
711.7450, 1160.602
712.8960, 1097.671
714.0470, 919.2363
715.1970, 795.6475
716.3480, 541.9072
717.4980, 580.0146
718.6480, 504.9727
719.7980, 612.7812
720.9470, 373.4404
722.0970, 432.9492
723.2460, 251.3135
724.3960, 181.5166
725.5450, 245.5449
726.6940, 86.41992
727.8420, 20.09570
728.9910, 146.5400
730.1390, 161.1846
731.2870, 45.35742
732.4350, 79.83691
733.5830, 94.20020
734.7310, 72.47168
735.8790, 52.22266
737.0260, 94.50781
738.1730, 232.3145
739.3200, 228.5000
740.4670, 278.7217
741.6140, 234.0957
742.7610, 146.6133
743.9070, 311.2705
745.0530, 239.5156
746.1990, 195.7158
747.3450, 269.6211
748.4910, 251.9004
749.6370, 384.0684
750.7820, 288.4346
751.9270, 384.8066
753.0720, 270.4150
754.2170, 261.6035
755.3620, 266.5996
756.5070, 74.57031
757.6510, 278.6328
758.7950, 137.2354
759.9400, 32.73633
761.0840, 12.68359
762.2270, 174.9697
763.3710, 142.8447
764.5140, 5.290039
765.6580, 107.7129
766.8010, 210.5781
767.9440, 196.4004
769.0870, 262.9043
770.2290, 371.2744
771.3720, 260.3994
772.5140, 425.5547
773.6560, 349.6934
774.7990, 506.8174
775.9400, 497.9287
777.0820, 462.0293
778.2240, 641.1230
779.3650, 503.2090
780.5060, 620.2920
781.6470, 654.3711
782.7880, 597.4521
783.9290, 700.5352
785.0690, 747.6230
786.2100, 732.7158
787.3500, 659.8174
788.4900, 734.6094
789.6300, 725.6367
790.7700, 804.1973
791.9090, 800.3545
793.0490, 791.5322
794.1880, 837.7314
795.3270, 924.9531
796.4660, 780.1992
797.6050, 973.4736
798.7440, 899.7754
799.8820, 983.1094
801.0200, 1075.477
802.1590, 1031.338
803.2970, 1129.647
804.4340, 1008.795
805.5720, 1211.314
806.7100, 1188.875
807.8470, 1177.481
808.9840, 1497.134
810.1210, 1464.835
811.2580, 1699.586
812.3950, 1635.389
813.5310, 1593.248
814.6680, 1663.162
815.8040, 1611.135
816.9400, 1666.917
818.0760, 1814.262
819.2120, 1755.420
820.3470, 1760.644
821.4830, 1792.935
822.6180, 1790.295
823.7530, 1812.727
824.8880, 1864.231
826.0230, 1839.811
827.1580, 1842.248
828.2920, 1893.201
829.4270, 1809.018
830.5610, 1760.914
831.6950, 1765.896
832.8290, 1690.963
833.9620, 1609.117
835.0960, 1542.362
836.2290, 1533.696
837.3620, 1641.124
838.4950, 1644.646
839.6280, 1522.264
840.7610, 1546.981
841.8940, 1438.798
843.0260, 1461.807
844.1580, 1537.736
845.2910, 1472.863
846.4230, 1509.095
847.5540, 1442.435
848.6860, 1484.886
849.8170, 1625.449
850.9490, 1669.125
852.0800, 1611.916
853.2110, 1636.822
854.3420, 1800.848
855.4730, 1869.994
856.6030, 1922.421
857.7340, 1974.817
858.8640, 2004.812
859.9940, 1976.482
861.1240, 1973.611
862.2540, 1923.886
863.3830, 1936.062
864.5130, 2022.153
865.6420, 2042.867
866.7710, 1932.613
867.9000, 2139.156
869.0290, 1867.071
870.1570, 1848.645
871.2860, 1949.154
872.4140, 1763.546
873.5430, 1778.184
874.6710, 1650.021
875.7980, 1695.410
876.9260, 1704.258
878.0540, 1631.344
879.1810, 1764.555
880.3080, 1596.102
881.4360, 1610.935
882.5630, 1439.166
883.6890, 1498.692
884.8160, 1548.712
885.9420, 1543.693
887.0690, 1502.292
888.1950, 1540.171
889.3210, 1647.607
890.4470, 1542.477
891.5730, 1438.730
892.6980, 1495.186
893.8240, 1379.538
894.9490, 1549.322
896.0740, 1416.853
897.1990, 1318.172
898.3240, 1426.236
899.4480, 1437.232
900.5730, 1328.494
901.6970, 1301.102
902.8210, 1351.033
903.9450, 1427.236
905.0690, 1404.726
906.1930, 1557.507
907.3160, 1338.570
908.4400, 1552.883
909.5630, 1379.451
910.6860, 1272.267
911.8090, 1307.336
912.9320, 1630.673
914.0550, 1582.293
915.1770, 1562.168
916.2990, 1759.299
917.4210, 1587.700
918.5440, 1703.354
919.6650, 1827.257
920.7870, 1857.403
921.9090, 1944.824
923.0300, 1972.513
924.1510, 2130.482
925.2720, 2187.719
926.3930, 2094.213
927.5140, 2264.966
928.6350, 2507.956
929.7550, 2488.184
930.8760, 2436.646
931.9960, 2507.331
933.1160, 2486.244
934.2360, 2580.382
935.3550, 2703.760
936.4750, 2694.363
937.5940, 2703.201
938.7140, 2923.277
939.8330, 2717.590
940.9520, 2972.129
942.0710, 3054.904
943.1890, 3120.906
944.3080, 3327.130
945.4260, 3472.580
946.5440, 3460.254
947.6620, 3714.155
948.7800, 3647.284
949.8980, 4041.646
951.0160, 4236.238
952.1330, 4363.061
953.2500, 4659.109
954.3680, 4865.377
955.4850, 5021.863
956.6010, 5151.566
957.7180, 5423.500
958.8350, 5608.660
959.9510, 5908.045
961.0670, 6153.014
962.1830, 6508.462
963.2990, 6744.494
964.4150, 7091.746
965.5310, 7522.212
966.6460, 7835.484
967.7620, 8266.795
968.8770, 8634.909
969.9920, 9200.241
971.1070, 9713.782
972.2210, 10295.13
973.3360, 10623.51
974.4500, 11516.69
975.5650, 12229.07
976.6790, 12764.67
977.7930, 13229.47
978.9070, 14225.49
980.0200, 14946.71
981.1340, 15917.14
982.2470, 16838.78
983.3610, 17794.62
984.4740, 18929.67
985.5870, 20199.93
986.6990, 21323.39
987.8120, 23044.06
988.9250, 24457.07
990.0370, 26110.00
991.1490, 27671.27
992.2610, 29527.88
993.3730, 31624.42
994.4850, 33496.30
995.5960, 35500.41
996.7080, 37729.70
997.8190, 40515.23
998.9300, 42565.00
1000.041, 44284.00
1001.152, 46133.27
1002.263, 47754.80
1003.373, 49082.57
1004.484, 49981.63
1005.594, 50388.93
1006.704, 50562.47
1007.814, 50088.26
1008.924, 48805.32
1010.034, 47626.69
1011.143, 45403.30
1012.253, 43052.20
1013.362, 40646.55
1014.471, 37601.96
1015.580, 35154.09
1016.689, 32261.39
1017.797, 29555.97
1018.906, 26710.00
1020.014, 24808.42
1021.122, 22723.04
1022.230, 21283.30
1023.338, 19637.98
1024.446, 18384.32
1025.554, 17103.49
1026.661, 16405.38
1027.768, 15298.15
1028.875, 14742.12
1029.983, 14104.05
1031.089, 13405.72
1032.196, 12897.25
1033.303, 12602.16
1034.409, 12309.46
1035.515, 12003.93
1036.622, 11569.62
1037.728, 11312.28
1038.833, 10862.11
1039.939, 10678.71
1041.045, 10318.72
1042.150, 9996.966
1043.255, 9548.876
1044.360, 9232.976
1045.465, 9037.145
1046.570, 8607.302
1047.675, 8288.438
1048.779, 8035.349
1049.884, 7662.402
1050.988, 7288.402
1052.092, 7004.044
1053.196, 6866.365
1054.300, 6386.630
1055.404, 6305.022
1056.507, 6027.527
1057.610, 5648.416
1058.714, 5564.740
1059.817, 5226.904
1060.920, 5233.672
1062.022, 4807.272
1063.125, 4524.354
1064.228, 4633.580
1065.330, 4343.701
1066.432, 4121.783
1067.534, 3755.073
1068.636, 3934.297
1069.738, 3664.025
1070.840, 3489.406
1071.941, 3456.614
1073.042, 3225.572
1074.144, 3360.047
1075.245, 3238.334
1076.346, 3121.100
1077.446, 2997.896
1078.547, 2811.072
1079.647, 2984.152
1080.748, 2735.799
1081.848, 2737.461
1082.948, 2745.758
1084.048, 2522.186
1085.148, 2608.839
1086.247, 2430.960
1087.347, 2496.777
1088.446, 2366.580
1089.545, 2320.180
1090.644, 2409.310
1091.743, 2386.714
1092.842, 2251.874
1093.940, 2208.408
1095.039, 2136.654
1096.137, 2178.893
1097.235, 2172.459
1098.333, 2180.431
1099.431, 2187.699
1100.529, 2132.817
1101.627, 2091.075
1102.724, 2093.979
1103.822, 2069.894
1104.919, 2031.867
1106.016, 2091.492
1107.113, 2087.821
1108.209, 2033.940
1109.306, 1835.758
1110.402, 1927.382
1111.499, 1913.210
1112.595, 1996.424
1113.691, 2010.413
1114.787, 2014.559
1115.883, 2027.909
1116.978, 1980.567
1118.074, 1939.705
1119.169, 2008.541
1120.264, 1919.755
1121.359, 1817.732
1122.454, 1752.339
1123.549, 1839.105
1124.644, 1644.896
1125.738, 1572.495
1126.832, 1498.703
1127.927, 1291.953
1129.021, 1250.219
1130.115, 1039.567
1131.208, 834.7178
1132.302, 729.6387
1133.396, 719.4932
1134.489, 644.3311
1135.582, 454.0088
1136.675, 340.1709
1137.768, 378.7949
1138.861, 374.3447
1139.954, 328.4912
1141.046, 120.6924
1142.138, 122.2695
1143.231, 39.79492
1144.323, 6.482422
1145.415, 15.68750
1146.507, 111.5889
1147.598, 52.16992
1148.690, 225.3828
1149.781, 146.8936
1150.872, 367.1289
1151.964, 231.6172
1153.054, 262.8125
1154.145, 120.5498
1155.236, 306.4141
1156.327, 261.7217
1157.417, 295.2666
1158.507, 331.0635
1159.597, 372.9160
1160.687, 235.4609
1161.777, 270.3096
1162.867, 211.1719
1163.956, 288.1484
1165.046, 158.4893
1166.135, 328.2256
1167.224, 164.1172
1168.313, 235.2515
1169.402, 261.7485
1170.491, 234.4692
1171.580, 90.10840
1172.668, 117.9902
1173.756, 73.41113
1174.845, 100.9404
1175.933, 126.7251
1177.020, 199.0459
1178.108, 64.31006
1179.196, 85.70410
1180.283, 113.1382
1181.371, 41.84082
1182.458, 32.77832
1183.545, 1.001465
1184.632, 106.4512
1185.719, 79.13965
1186.805, 121.0537
1187.892, 66.21875
1188.978, 19.50049
1190.065, 27.09375
1191.151, 73.10303
1192.237, 84.13525
1193.323, 81.00439
1194.408, 198.7368
1195.494, 145.1538
1196.579, 187.1245
1197.664, 83.06543
1198.750, 201.1699
1199.835, 134.1338
1200.919, 124.9341
1202.004, 136.6807
1203.089, 212.1440
1204.173, 144.4590
1205.258, 256.6035
1206.342, 246.6060
1207.426, 254.4624
1208.510, 248.1719
1209.594, 260.7310
1210.677, 246.7178
1211.761, 219.3970
1212.844, 239.4888
1213.927, 242.4204
1215.010, 279.1895
1216.093, 361.8032
1217.176, 389.2754
1218.259, 400.6089
1219.341, 271.8027
1220.424, 297.8325
1221.506, 336.7017
1222.588, 412.4170
1223.670, 469.9883
1224.752, 423.4219
1225.834, 431.7104
1226.915, 495.8545
1227.997, 402.8599
1229.078, 453.7129
1230.159, 473.4204
1231.240, 469.9834
1232.321, 505.4009
1233.402, 511.7598
1234.483, 513.8052
1235.563, 555.7910
1236.644, 599.6494
1237.724, 657.3682
1238.804, 552.9502
1239.884, 582.3916
1240.964, 563.6895
1242.044, 658.8428
1243.123, 600.8574
1244.203, 615.7280
1245.282, 540.4722
1246.361, 609.0674
1247.440, 696.5176
1248.519, 595.8276
1249.598, 683.0015
1250.676, 741.0347
1251.755, 632.9272
1252.833, 792.6733
1253.911, 787.2808
1254.989, 640.7485
1256.067, 687.0698
1257.145, 688.2466
1258.223, 685.2793
1259.300, 676.1665
1260.378, 700.4902
1261.455, 741.5059
1262.532, 752.9595
1263.609, 752.2705
1264.686, 785.4385
1265.763, 703.4644
1266.840, 739.3442
1267.916, 737.9072
1268.992, 898.6719
1270.069, 731.1250
1271.145, 887.4326
1272.221, 821.6094
1273.296, 770.6450
1274.372, 832.3257
1275.448, 724.0674
1276.523, 748.1836
1277.598, 871.2148
1278.673, 899.0674
1279.749, 800.5415
1280.823, 788.7422
1281.898, 697.8169
1282.973, 615.3369
1284.047, 738.5049
1285.122, 776.0767
1286.196, 770.8652
1287.270, 760.9658
1288.344, 696.2461
1289.418, 774.5396
1290.491, 797.7251
1291.565, 715.1514
1292.638, 679.7495
1293.712, 688.9810
1294.785, 727.8247
1295.858, 676.4976
1296.931, 675.2524
1298.003, 694.7471
1299.076, 661.0972
1300.149, 564.8691
1301.221, 668.0923
1302.293, 566.1851
1303.365, 617.8418
1304.437, 633.0986
1305.509, 454.0835
1306.581, 601.0737
1307.652, 571.0776
1308.724, 521.3022
1309.795, 519.3721
1310.866, 521.4912
1311.937, 535.7593
1313.008, 585.7339
1314.079, 594.6396
1315.150, 671.7715
1316.220, 525.9912
1317.291, 467.4038
1318.361, 520.1055
1319.431, 480.9512
