##NAMES=Dioptase
##RRUFFID=R040028
##IDEAL CHEMISTRY=Cu^2+^SiO_3_&#183;H_2_O
##LOCALITY=Tantara mine, Democratic Republic of the Congo
##OWNER=RRUFF
##SOURCE=University of Arizona Mineral Museum
##DESCRIPTION=Bluish green coarsely crystallized fragment
##STATUS=The identification of this mineral has been confirmed by X-ray diffraction and chemical analysis
##URL=rruff.info/R040028
##MEASURED CHEMISTRY=Cu_1.00_Si_1.00_O_3_Â·H_2_O; H_2_O estimated by difference
##PIN_ID=M00307
##ORIENTATION=Laser parallel to a* (1 0 0). Fiducial mark perpendicular to laser is parallel to b [0 1 0]
109.9870, 0.0000000E+00
111.3820, 114.4209
112.7770, 7.486328
114.1710, 91.77441
115.5650, 750.0234
116.9590, 935.8398
118.3530, 887.1650
119.7470, 898.8018
121.1400, 875.9287
122.5330, 1158.077
123.9260, 1661.798
125.3180, 2660.347
126.7110, 3969.606
128.1030, 5818.272
129.4950, 8385.632
130.8860, 13301.67
132.2780, 18244.67
133.6690, 19824.72
135.0600, 16526.02
136.4510, 11214.99
137.8410, 6777.527
139.2310, 4353.512
140.6210, 2950.527
142.0110, 2218.415
143.4010, 1528.479
144.7900, 1156.172
146.1790, 732.8438
147.5680, 591.4248
148.9570, 426.8887
150.3450, 314.4160
151.7330, 242.0322
153.1210, 223.9854
154.5090, 266.6855
155.8960, 309.4697
157.2840, 351.5352
158.6710, 315.0732
160.0580, 325.3418
161.4440, 203.1450
162.8300, 254.2192
164.2170, 186.0889
165.6020, 74.01465
166.9880, 48.17725
168.3740, 52.41650
169.7590, 38.20117
171.1440, 122.9800
172.5280, 324.9639
173.9130, 755.7373
175.2970, 1256.292
176.6810, 2073.632
178.0650, 2622.764
179.4490, 2957.723
180.8320, 2774.312
182.2150, 2014.311
183.5980, 1286.130
184.9810, 782.4048
186.3630, 458.4526
187.7450, 111.4009
189.1270, 114.2505
190.5090, 21.99121
191.8910, 37.30957
193.2720, 142.5479
194.6530, 178.3223
196.0340, 98.67822
197.4140, 26.65039
198.7950, 72.28271
200.1750, 29.62158
201.5550, 63.71045
202.9350, 62.58887
204.3140, 0.6992190
205.6930, 49.11426
207.0720, 24.61621
208.4510, 96.12939
209.8300, 189.5679
211.2080, 412.1733
212.5860, 472.8818
213.9640, 747.0010
215.3420, 1008.675
216.7190, 1545.256
218.0960, 1849.588
219.4730, 2535.955
220.8500, 3186.315
222.2260, 4235.483
223.6030, 5093.190
224.9790, 6009.858
226.3550, 6636.504
227.7300, 6863.134
229.1050, 7199.750
230.4810, 6736.340
231.8560, 6612.847
233.2300, 6269.198
234.6050, 5715.279
235.9790, 5030.979
237.3530, 4236.444
238.7270, 3611.694
240.1000, 2806.742
241.4740, 2131.680
242.8470, 1733.534
244.2200, 1168.350
245.5920, 970.1611
246.9650, 526.9756
248.3370, 452.7949
249.7090, 165.6147
251.0800, 2.562500
252.4520, 2.738770
253.8230, 8.912598
255.1940, 69.91455
256.5650, 164.7441
257.9360, 523.5747
259.3060, 914.4067
260.6760, 1698.242
262.0460, 2864.061
263.4160, 4528.826
264.7850, 6423.507
266.1550, 8178.135
267.5240, 8982.755
268.8920, 8207.463
270.2610, 6162.279
271.6290, 4607.215
272.9970, 3022.296
274.3650, 2177.487
275.7330, 1534.445
277.1000, 1244.113
278.4680, 986.4980
279.8350, 809.5674
281.2010, 1118.282
282.5680, 1074.575
283.9340, 1462.426
285.3000, 1823.812
286.6660, 2502.697
288.0320, 3711.082
289.3970, 5008.960
290.7620, 6856.285
292.1270, 8263.103
293.4920, 9049.442
294.8570, 8445.271
296.2210, 6650.508
297.5850, 4955.081
298.9490, 3379.044
300.3120, 2352.433
301.6760, 1412.257
303.0390, 1019.499
304.4020, 671.0151
305.7650, 393.9272
307.1270, 189.1021
308.4890, 49.05273
309.8510, 6.615723
311.2130, 47.22119
312.5750, 167.2856
313.9360, 45.67236
315.2970, 60.43848
316.6580, 88.04492
318.0190, 78.03125
319.3790, 66.28857
320.7400, 137.7930
322.1000, 28.43945
323.4600, 103.4023
324.8190, 104.2207
326.1780, 189.7285
327.5380, 275.9160
328.8970, 322.2856
330.2550, 395.7144
331.6140, 341.1436
332.9720, 473.1543
334.3300, 460.4756
335.6880, 507.1572
337.0450, 704.1084
338.4030, 874.3223
339.7600, 1039.730
341.1170, 1172.120
342.4730, 1770.490
343.8300, 1896.817
345.1860, 2463.051
346.5420, 3169.176
347.8980, 4065.228
349.2530, 5460.314
350.6090, 7154.062
351.9640, 10594.92
353.3190, 15045.87
354.6730, 22352.82
356.0280, 32158.94
357.3820, 42708.57
358.7360, 49466.08
360.0900, 47268.71
361.4430, 38105.96
362.7970, 27560.47
364.1500, 18437.74
365.5030, 12872.97
366.8560, 9288.370
368.2080, 7027.824
369.5600, 5508.373
370.9120, 4508.547
372.2640, 3899.799
373.6160, 3221.988
374.9670, 3095.604
376.3180, 2849.435
377.6690, 2774.307
379.0200, 2599.727
380.3700, 2565.027
381.7200, 2810.285
383.0700, 2735.512
384.4200, 3010.717
385.7700, 3245.904
387.1190, 3571.080
388.4680, 4006.249
389.8170, 4611.420
391.1660, 5596.584
392.5140, 6911.741
393.8630, 8406.893
395.2110, 10822.04
396.5580, 13447.18
397.9060, 16972.32
399.2530, 19567.45
400.6000, 21982.58
401.9470, 21637.72
403.2940, 19832.85
404.6410, 17317.98
405.9870, 13813.11
407.3330, 11548.24
408.6790, 9873.376
410.0240, 8587.380
411.3700, 8391.096
412.7150, 8283.289
414.0600, 9103.634
415.4050, 9534.031
416.7490, 10644.30
418.0930, 11495.83
419.4370, 12069.32
420.7810, 12743.68
422.1250, 12908.82
423.4680, 13312.63
424.8110, 13328.38
426.1540, 13418.80
427.4970, 13474.31
428.8400, 13223.86
430.1820, 13355.60
431.5240, 13079.10
432.8660, 12922.96
434.2080, 12634.79
435.5490, 12482.53
436.8900, 11862.46
438.2310, 11608.01
439.5720, 11085.35
440.9130, 10517.88
442.2530, 9855.371
443.5930, 9395.076
444.9330, 8465.681
446.2730, 8222.430
447.6120, 7417.410
448.9510, 6807.281
450.2900, 6297.479
451.6290, 5482.877
452.9680, 5018.950
454.3060, 4663.207
455.6440, 4147.411
456.9820, 3841.562
458.3200, 3345.673
459.6570, 3069.738
460.9950, 2763.777
462.3320, 2507.780
463.6680, 2181.743
465.0050, 1955.688
466.3410, 1798.124
467.6780, 1642.330
469.0140, 1584.193
470.3490, 1524.870
471.6850, 1494.763
473.0200, 1345.407
474.3550, 1317.059
475.6900, 1288.380
477.0250, 1228.447
478.3590, 1294.433
479.6930, 1331.088
481.0270, 1398.529
482.3610, 1501.536
483.6950, 1710.948
485.0280, 1942.241
486.3610, 2243.572
487.6940, 2545.580
489.0270, 3077.977
490.3590, 3210.601
491.6920, 3043.581
493.0240, 2916.431
494.3560, 2199.885
495.6870, 2153.379
497.0190, 1597.106
498.3500, 1251.050
499.6810, 957.9854
501.0120, 882.9102
502.3420, 835.8262
503.6720, 549.7334
505.0020, 714.6289
506.3320, 560.5156
507.6620, 600.3916
508.9920, 632.2607
510.3210, 509.1221
511.6500, 560.9863
512.9790, 538.8711
514.3070, 547.7705
515.6360, 515.7002
516.9640, 482.6641
518.2920, 638.6895
519.6190, 678.7852
520.9470, 638.9287
522.2740, 693.1016
523.6010, 591.3145
524.9280, 736.5566
526.2550, 617.8418
527.5810, 622.1621
528.9070, 638.5029
530.2330, 559.8584
531.5590, 602.2305
532.8850, 599.6143
534.2100, 662.0039
535.5350, 597.3975
536.8600, 432.7900
538.1850, 441.1797
539.5090, 399.5625
540.8340, 418.9404
542.1580, 311.3145
543.4820, 299.6816
544.8050, 348.0449
546.1290, 196.4023
547.4520, 199.7559
548.7750, 253.7295
550.0980, 260.2910
551.4200, 239.6309
552.7420, 266.3096
554.0650, 286.5742
555.3860, 324.9004
556.7080, 281.3740
558.0300, 416.6914
559.3510, 361.0039
560.6720, 512.3115
561.9930, 541.6162
563.3130, 778.9531
564.6340, 635.2500
565.9540, 629.5420
567.2740, 631.8301
568.5940, 461.1133
569.9130, 431.7139
571.2330, 352.3818
572.5520, 253.8867
573.8710, 256.2002
575.1890, 126.5283
576.5080, 179.8760
577.8260, 20.23535
579.1440, 66.59082
580.4620, 151.9443
581.7800, 111.7061
583.0970, 42.56152
584.4140, 53.17969
585.7310, 138.9736
587.0480, 37.86230
588.3650, 74.79395
589.6810, 104.7891
590.9970, 110.8613
592.3130, 76.01270
593.6290, 6.227539
594.9440, 210.4717
596.2600, 140.8457
597.5750, 172.3154
598.8900, 91.89453
600.2040, 6.543945
601.5190, 46.21973
602.8330, 62.94141
604.1470, 3.282227
605.4610, 53.48633
606.7740, 54.31445
608.0880, 61.16406
609.4010, 28.93652
610.7140, 10.02734
612.0260, 91.11133
613.3390, 120.1914
614.6510, 135.0254
615.9630, 158.2861
617.2750, 155.3730
618.5870, 137.9990
619.8980, 184.0137
621.2100, 211.6084
622.5210, 249.7969
623.8320, 301.7070
625.1420, 315.2275
626.4530, 376.7490
627.7630, 318.2393
629.0730, 482.7236
630.3830, 525.9043
631.6920, 581.5703
633.0010, 724.7852
634.3110, 598.0186
635.6190, 734.6797
636.9280, 857.9736
638.2370, 1101.306
639.5450, 1104.673
640.8530, 1188.095
642.1610, 1501.935
643.4690, 1435.400
644.7760, 1699.520
646.0830, 1973.018
647.3900, 2246.529
648.6970, 2770.053
650.0040, 3123.588
651.3100, 4007.136
652.6160, 4481.438
653.9220, 5765.004
655.2280, 7408.579
656.5340, 9042.161
657.8390, 11635.75
659.1440, 13959.76
660.4490, 15863.37
661.7540, 17206.98
663.0580, 15800.63
664.3620, 14434.26
665.6660, 11817.91
666.9700, 9421.562
668.2740, 7465.225
669.5770, 5790.863
670.8810, 4695.037
672.1840, 3708.732
673.4870, 2952.437
674.7890, 2596.150
676.0920, 1879.875
677.3940, 1693.610
678.6960, 1477.354
679.9970, 1171.108
681.2990, 1104.874
682.6000, 739.2871
683.9010, 823.0723
685.2020, 576.8672
686.5030, 470.6738
687.8040, 524.4893
689.1040, 298.3154
690.4040, 362.1533
691.7040, 256.0020
693.0040, 239.8613
694.3030, 273.7324
695.6020, 123.6133
696.9010, 341.5078
698.2000, 135.4150
699.4990, 131.3320
700.7970, 253.2637
702.0950, 197.2080
703.3930, 171.1650
704.6910, 18.13477
705.9890, 63.10156
707.2860, 193.0791
708.5830, 59.07129
709.8800, 89.07422
711.1770, 105.0928
712.4730, 64.12500
713.7700, 153.1689
715.0660, 167.2295
716.3620, 81.30469
717.6580, 95.39648
718.9530, 69.50391
720.2480, 153.6260
721.5430, 117.7646
722.8380, 91.91992
724.1330, 156.0918
725.4270, 50.28125
726.7220, 164.4844
728.0160, 38.70508
729.3100, 122.9375
730.6030, 227.1865
731.8970, 161.4551
733.1900, 155.7412
734.4830, 148.9316
735.7760, 123.0869
737.0680, 337.4297
738.3610, 133.1201
739.6530, 226.8984
740.9450, 146.0215
742.2360, 320.0820
743.5280, 250.1143
744.8190, 217.9922
746.1100, 244.1250
747.4010, 289.9160
748.6920, 327.7666
749.9830, 369.7236
751.2730, 189.5205
752.5630, 233.6387
753.8530, 165.9229
755.1430, 52.97070
756.4320, 225.0234
757.7210, 84.81934
759.0100, 233.6758
760.2990, 66.35156
761.5880, 130.7598
762.8760, 30.24609
764.1650, 89.37695
765.4530, 113.2783
766.7400, 6.482422
768.0280, 91.47559
769.3150, 26.50391
770.6030, 48.43262
771.8900, 26.64746
773.1760, 108.2373
774.4630, 33.12891
775.7490, 12.00391
777.0360, 102.8271
778.3220, 47.66016
779.6070, 62.47363
780.8930, 47.27344
782.1780, 107.9482
783.4630, 36.79395
784.7480, 18.48926
786.0330, 66.19141
787.3180, 19.14355
788.6020, 94.51660
789.8860, 90.07324
791.1700, 75.34473
792.4540, 10.80273
793.7370, 36.29688
795.0200, 61.83105
796.3030, 12.59570
797.5860, 133.0107
798.8690, 21.34375
800.1510, 114.3350
801.4340, 70.05176
802.7160, 25.80957
803.9980, 131.6074
805.2790, 177.4443
806.5610, 26.67773
807.8420, 79.23242
809.1230, 115.1846
810.4040, 51.19141
811.6850, 137.2402
812.9650, 16.66406
814.2450, 179.4688
815.5250, 75.64355
816.8050, 1.862305
818.0850, 68.12305
819.3640, 104.4258
820.6430, 50.77344
821.9220, 7.165039
823.2010, 66.39551
824.4800, 21.92969
825.7580, 46.57617
827.0360, 73.13086
828.3140, 9.730469
829.5920, 46.37793
830.8690, 53.07031
832.1470, 49.80957
833.4240, 136.5957
834.7010, 63.42773
835.9780, 29.69434
837.2540, 137.2246
838.5310, 24.19043
839.8070, 121.2041
841.0830, 148.2646
842.3580, 5.374023
843.6340, 242.5322
844.9090, 159.7383
846.1840, 120.6719
847.4590, 264.2969
848.7340, 11.65039
850.0080, 229.0547
851.2830, 246.5078
852.5570, 204.0127
853.8310, 271.5674
855.1040, 109.1729
856.3780, 306.8291
857.6510, 164.5371
858.9240, 110.6729
860.1970, 238.2676
861.4700, 176.1309
862.7420, 133.7695
864.0150, 381.7393
865.2870, 249.7607
866.5590, 407.6855
867.8300, 245.8135
869.1020, 263.9971
870.3730, 262.2344
871.6440, 120.5264
872.9150, 198.8350
874.1850, 177.2363
875.4560, 245.6934
876.7260, 294.2041
877.9960, 242.7705
879.2660, 301.0781
880.5360, 299.7559
881.8050, 197.9004
883.0740, 296.6914
884.3430, 235.5391
885.6120, 364.4443
886.8810, 383.4072
888.1490, 292.4316
889.4180, 501.5156
890.6860, 270.6582
891.9530, 439.8955
893.2210, 439.1953
894.4880, 348.5771
895.7560, 468.0645
897.0230, 507.6309
898.2900, 527.2852
899.5560, 637.0352
900.8230, 446.8838
902.0890, 696.8223
903.3550, 636.8330
904.6210, 556.9678
905.8860, 683.0986
907.1520, 674.2939
908.4170, 768.0127
909.6820, 848.5361
910.9470, 909.1406
912.2110, 1069.833
913.4760, 1000.597
914.7400, 1161.424
916.0040, 1282.336
917.2680, 1296.006
918.5310, 1724.402
919.7950, 1385.530
921.0580, 1426.728
922.3210, 1417.987
923.5840, 847.3779
924.8460, 1098.760
926.1090, 995.6699
927.3710, 1035.898
928.6330, 1087.465
929.8950, 1044.877
931.1560, 1224.769
932.4180, 1304.121
933.6790, 1244.189
934.9400, 1436.073
936.2010, 1526.693
937.4610, 1518.703
938.7220, 1688.310
939.9820, 1460.446
941.2420, 1672.649
942.5020, 1811.507
943.7610, 1813.837
945.0210, 2216.231
946.2800, 2068.691
947.5390, 2501.215
948.7980, 2553.411
950.0560, 2966.064
951.3150, 3338.146
952.5730, 3660.933
953.8310, 4293.785
955.0890, 4966.703
956.3460, 5439.685
957.6040, 6502.732
958.8610, 7055.107
960.1180, 7298.295
961.3750, 7624.736
962.6310, 6548.058
963.8880, 6322.404
965.1440, 5125.451
966.4000, 4179.115
967.6560, 3742.716
968.9110, 2836.364
970.1670, 2560.096
971.4220, 2164.135
972.6770, 1918.005
973.9320, 1742.612
975.1860, 1554.989
976.4410, 1408.586
977.6950, 1423.847
978.9490, 1208.080
980.2030, 1132.385
981.4560, 1187.229
982.7100, 1041.665
983.9630, 1146.167
985.2160, 1070.735
986.4690, 1155.383
987.7210, 1069.458
988.9740, 1074.241
990.2260, 1069.104
991.4780, 1114.033
992.7300, 1139.058
993.9820, 1206.914
995.2330, 1199.317
996.4840, 1374.550
997.7350, 1519.846
998.9860, 1625.209
1000.237, 1850.644
1001.487, 2026.143
1002.738, 2321.742
1003.988, 2977.408
1005.237, 3183.141
1006.487, 3908.974
1007.737, 3794.874
1008.986, 3660.845
1010.235, 3756.891
1011.484, 3103.004
1012.732, 3169.192
1013.981, 2995.448
1015.229, 2951.775
1016.477, 3058.167
1017.725, 2734.623
1018.973, 2821.144
1020.220, 2677.733
1021.468, 2514.388
1022.715, 2571.112
1023.962, 2227.903
1025.208, 2084.763
1026.455, 2101.697
1027.701, 1718.696
1028.947, 1645.758
1030.193, 1472.898
1031.439, 1380.104
1032.684, 1357.373
1033.930, 1054.708
1035.175, 1082.104
1036.420, 1009.563
1037.665, 837.0840
1038.909, 974.6660
1040.154, 752.3105
1041.398, 730.0166
1042.642, 767.7832
1043.885, 655.6211
1045.129, 713.5186
1046.372, 741.4766
1047.615, 699.4951
1048.858, 767.5723
1050.101, 635.7109
1051.344, 673.9072
1052.586, 742.1650
1053.828, 480.4805
1055.070, 618.8545
1056.312, 647.2871
1057.554, 635.7754
1058.795, 624.3213
1060.036, 602.9268
1061.277, 651.5889
1062.518, 560.3066
1063.759, 489.0801
1064.999, 577.9102
1066.240, 516.7939
1067.480, 505.7324
1068.719, 554.7275
1069.959, 403.7773
1071.199, 462.8818
1072.438, 472.0430
1073.677, 391.2754
1074.916, 470.5654
1076.154, 329.9287
1077.393, 419.3525
1078.631, 388.8301
1079.869, 318.3799
1081.107, 337.9893
1082.345, 347.6641
1083.582, 267.3994
1084.820, 277.1865
1086.057, 267.0332
1087.294, 266.9307
1088.530, 248.2217
1089.767, 222.8750
1091.003, 216.9775
1092.239, 163.1172
1093.475, 175.3057
1094.711, 158.5488
1095.947, 73.84180
1097.182, 12.18848
1098.417, 100.5879
1099.652, 61.03711
1100.887, 138.1768
1102.122, 53.73730
1103.356, 55.32227
1104.590, 251.2168
1105.824, 27.96582
1107.058, 14.47070
1108.292, 67.32910
1109.525, 128.7656
1110.758, 29.14941
1111.991, 56.86621
1113.224, 79.20801
1114.457, 14.57812
1115.689, 43.83887
1116.922, 53.00586
1118.154, 80.22461
1119.385, 21.50781
1120.617, 97.21191
1121.849, 43.41992
1123.080, 26.04590
1124.311, 130.0000
1125.542, 57.98730
1126.773, 82.54590
1128.003, 83.10352
1129.234, 32.27637
1130.464, 62.37988
1131.694, 66.07715
1132.923, 217.8984
1134.153, 143.9072
1135.382, 67.72461
1136.612, 150.7002
1137.841, 148.6484
1139.069, 92.59082
1140.298, 195.3477
1141.526, 115.0645
1142.755, 156.4883
1143.983, 189.8662
1145.210, 71.03125
1146.438, 218.6094
1147.665, 259.7793
1148.893, 262.0146
1150.120, 258.4814
1151.347, 112.3301
1152.573, 227.6982
1153.800, 347.6816
1155.026, 209.0840
1156.252, 287.2637
1157.478, 172.2295
1158.704, 367.7275
1159.929, 360.0684
1161.155, 263.6279
1162.380, 256.7754
1163.605, 340.3945
1164.829, 179.0439
1166.054, 364.7227
1167.278, 311.8672
1168.503, 288.6025
1169.727, 359.7783
1170.950, 315.2822
1172.174, 255.7061
1173.397, 403.5439
1174.621, 215.4150
1175.844, 314.5234
1177.066, 324.8369
1178.289, 271.7842
1179.512, 325.7539
1180.734, 346.9990
1181.956, 351.0176
1183.178, 349.3428
1184.399, 268.1201
1185.621, 291.2041
1186.842, 260.3096
1188.063, 199.4375
1189.284, 237.5840
1190.505, 208.6807
1191.726, 291.8682
1192.946, 263.1270
1194.166, 153.3779
1195.386, 279.6230
1196.606, 248.8867
1197.826, 235.1855
1199.045, 246.8115
1200.264, 115.1279
1201.483, 182.4707
1202.702, 274.8203
1203.921, 70.18555
1205.139, 339.5664
1206.357, 156.6074
1207.575, 204.0186
1208.793, 252.4453
1210.011, 266.8848
1211.228, 316.3379
1212.446, 311.6387
1213.663, 307.0420
1214.880, 284.7803
1216.097, 278.4346
1217.313, 231.1367
1218.529, 238.2695
1219.746, 165.5293
1220.962, 220.2861
1222.177, 169.8506
1223.393, 190.6328
1224.608, 214.2373
1225.824, 124.8369
1227.039, 201.5059
1228.254, 155.4082
1229.468, 73.14160
1230.683, 114.9541
1231.897, 221.5889
1233.111, 18.50488
1234.325, 96.29004
1235.539, 112.4355
1236.752, 51.93359
1237.965, 172.8193
1239.179, 65.50488
1240.392, 70.43848
1241.604, 84.11523
1242.817, 84.72656
1244.029, 61.92578
1245.241, 99.91797
1246.453, 2.864746
1247.665, 61.85107
1248.877, 9.005371
1250.088, 73.11963
1251.300, 52.77979
1252.511, 19.32861
1253.722, 76.29492
1254.932, 30.06592
1256.143, 4.709473
1257.353, 119.6606
1258.563, 19.64062
1259.773, 6.846680
1260.983, 27.47998
1262.192, 27.38232
1263.402, 81.37207
1264.611, 40.53320
1265.820, 7.780273
1267.029, 160.0859
1268.237, 35.86084
1269.446, 10.07861
1270.654, 44.68750
1271.862, 43.77393
1273.070, 2.308594
1274.278, 39.31982
1275.485, 140.3750
1276.692, 59.17627
1277.900, 33.07324
1279.106, 36.35596
1280.313, 49.33984
1281.520, 3.810059
1282.726, 31.05615
1283.932, 98.37305
1285.138, 93.16650
1286.344, 4.664063
1287.550, 28.72510
1288.755, 33.11084
1289.960, 49.48145
1291.165, 29.86084
1292.370, 13.24512
1293.575, 84.00000
1294.779, 111.6494
1295.984, 28.66260
1297.188, 57.96826
1298.392, 116.7344
1299.595, 70.52246
1300.799, 1.773926
1302.002, 35.01367
1303.206, 170.2432
1304.409, 14.54980
1305.611, 575.6299
1306.814, 8.802246
1308.016, 96.95996
1309.219, 657.1079
1310.421, 230.2471
1311.623, 14.37646
1312.824, 97.47168
1314.026, 16.55713
1315.227, 37.61768
1316.428, 42.65381
1317.629, 11.34814
1318.830, 108.6240
1320.031, 66.49219
1321.231, 16.68115
1322.431, 111.0913
1323.631, 143.8413
1324.831, 67.55029
1326.031, 126.2285
1327.230, 220.8423
1328.429, 113.4360
1329.628, 137.9990
1330.827, 115.5347
1332.026, 212.0479
1333.225, 119.5347
1334.423, 15.00000
1335.621, 218.4302
1336.819, 96.82910
1338.017, 104.1934
1339.214, 127.5366
1340.412, 116.8574
1341.609, 109.1494
1342.806, 79.41748
1344.003, 127.6592
1345.200, 113.8755
1346.396, 165.0649
1347.592, 137.2271
1348.788, 198.3608
1349.984, 66.46484
1351.180, 213.5356
1352.376, 126.5757
1353.571, 126.5840
1354.766, 157.5640
1355.961, 178.5161
1357.156, 210.4404
1358.351, 166.0308
1359.545, 106.9028
1360.739, 104.7480
1361.933, 76.21729
1363.127, 31.35596
1364.321, 49.11279
1365.515, 134.9180
1366.708, 106.6948
1367.901, 128.3677
1369.094, 131.0151
1370.287, 124.6367
1371.479, 102.9961
1372.672, 121.0571
1373.864, 113.0728
1375.056, 148.2148
1376.248, 106.8330
1377.440, 121.2622
1378.631, 90.66357
1379.822, 32.00195
1381.014, 113.2993
1382.205, 139.5435
1383.395, 52.74658
1384.586, 162.9058
1385.776, 68.03369
1386.966, 92.14062
1388.157, 111.8931
1389.346, 19.97363
1390.536, 155.4546
1391.725, 104.2827
1392.915, 75.17676
1394.104, 38.31982
1395.293, 136.5552
1396.482, 14.55957
1397.670, 158.9639
1398.858, 20.79248
1400.047, 90.09424
1401.235, 126.4541
1402.422, 80.55762
1403.610, 42.73633
1404.798, 135.1011
1405.985, 59.90967
1407.172, 51.41260
1408.359, 0.4291990
1409.546, 121.5229
1410.732, 144.8228
1411.918, 96.45654
1413.105, 69.51807
1414.291, 179.4556
1415.476, 51.77734
1416.662, 80.60205
1417.848, 189.4312
1419.033, 98.77441
1420.218, 84.07910
1421.403, 129.4561
