##NAMES=Diopside
##RRUFFID=R060276
##IDEAL CHEMISTRY=CaMgSi_2_O_6_
##LOCALITY=Inagli, Yakutia, Siberia, Russia
##OWNER=RRUFF
##SOURCE=Herb Obodda
##DESCRIPTION=Transparent green cleavage fragment
##STATUS=The identification of this mineral has been confirmed by X-ray diffraction and chemical analysis
##URL=rruff.info/R060276
##MEASURED CHEMISTRY=(Ca_0.97_Na_0.03_)_Σ=1_(Mg_0.96_Fe_0.03_Cr_0.01_)_Σ=1_(Si_1.98_Al_0.02_)_Σ=2_O_6_
##PIN_ID=L01049
##ORIENTATION=Laser parallel to a* (1 0 0). Fiducial mark perpendicular to laser is parallel to -b [0 -1 0]
109.5120, 0.0000000E+00
110.7440, 161.1965
111.9760, 2.602051
113.2080, 151.2244
114.4400, 148.7676
115.6710, 148.1189
116.9030, 162.7080
118.1340, 140.8523
119.3650, 157.0000
120.5960, 109.1069
121.8270, 106.2788
123.0580, 105.4746
124.2880, 77.52539
125.5190, 22.28564
126.7490, 117.6467
127.9790, 90.52539
129.2090, 201.8557
130.4390, 255.5999
131.6680, 306.7664
132.8980, 322.3101
134.1270, 381.6333
135.3560, 407.8333
136.5850, 393.8208
137.8140, 487.1218
139.0430, 526.5522
140.2710, 602.1074
141.5000, 518.7825
142.7280, 524.5730
143.9560, 523.4758
145.1840, 388.4878
146.4120, 278.6050
147.6390, 190.8213
148.8670, 154.1277
150.0940, 176.6135
151.3210, 190.4045
152.5490, 71.65869
153.7750, 127.9626
155.0020, 67.28394
156.2290, 72.62598
157.4550, 131.9919
158.6810, 134.1045
159.9080, 140.1731
161.1340, 81.03149
162.3590, 132.1252
163.5850, 83.27588
164.8110, 107.4846
166.0360, 235.7510
167.2610, 302.0752
168.4860, 250.4570
169.7110, 390.8960
170.9360, 366.3918
172.1610, 424.9421
173.3850, 423.5469
174.6100, 412.2056
175.8340, 465.9180
177.0580, 472.6841
178.2820, 583.5044
179.5050, 718.3774
180.7290, 934.3042
181.9520, 1223.284
183.1760, 1528.316
184.3990, 1618.342
185.6220, 1323.355
186.8450, 1057.381
188.0670, 695.4241
189.2900, 427.9680
190.5120, 251.7410
191.7340, 200.3262
192.9560, 63.50879
194.1780, 146.9563
195.4000, 112.6438
196.6220, 179.6523
197.8430, 220.5854
199.0640, 167.5601
200.2860, 243.5752
201.5070, 185.6328
202.7270, 71.73193
203.9480, 87.87207
205.1690, 19.05518
206.3890, 30.67725
207.6090, 127.3452
208.8290, 14.03564
210.0490, 12.53516
211.2690, 93.95508
212.4890, 89.48340
213.7080, 30.05078
214.9280, 94.65771
216.1470, 148.3042
217.3660, 159.9902
218.5850, 206.7168
219.8030, 294.4829
221.0220, 372.5386
222.2400, 457.7769
223.4590, 585.0215
224.6770, 670.9448
225.8950, 763.9053
227.1120, 919.9023
228.3300, 1108.935
229.5480, 1267.004
230.7650, 1480.108
231.9820, 1526.213
233.1990, 1714.326
234.4160, 1677.473
235.6330, 1497.656
236.8490, 1178.876
238.0660, 953.1309
239.2820, 696.4229
240.4980, 548.7490
241.7140, 427.1108
242.9300, 445.5073
244.1460, 397.9385
245.3610, 374.4038
246.5770, 442.9028
247.7920, 449.4365
249.0070, 558.0029
250.2220, 456.6030
251.4370, 591.2363
252.6510, 762.9023
253.8660, 876.6006
255.0800, 1097.332
256.2940, 1095.348
257.5080, 1168.338
258.7220, 1182.901
259.9360, 909.3555
261.1490, 414.9404
262.3630, 358.6260
263.5760, 142.4019
264.7890, 109.2598
266.0020, 143.1924
267.2150, 32.19385
268.4270, 47.73975
269.6400, 4.620605
270.8520, 14.44629
272.0640, 11.77881
273.2760, 77.94678
274.4880, 6.636230
275.7000, 84.28174
276.9120, 124.8960
278.1230, 49.48926
279.3340, 39.04932
280.5450, 16.42139
281.7560, 3.074707
282.9670, 19.46045
284.1780, 26.02832
285.3880, 115.6265
286.5980, 174.2559
287.8090, 111.9150
289.0190, 281.6040
290.2290, 259.3218
291.4380, 340.0693
292.6480, 360.8442
293.8570, 489.6475
295.0670, 545.4775
296.2760, 684.3354
297.4850, 788.2178
298.6930, 901.1235
299.9020, 1106.435
301.1110, 1275.976
302.3190, 1540.358
303.5270, 1778.360
304.7350, 2018.752
305.9430, 2332.757
307.1510, 2620.791
308.3580, 3107.853
309.5660, 3617.660
310.7730, 4417.549
311.9800, 5420.727
313.1870, 6574.960
314.3940, 7659.220
315.6010, 8695.532
316.8070, 9661.877
318.0130, 10554.24
319.2200, 11482.64
320.4260, 13166.07
321.6310, 14968.53
322.8370, 17582.02
324.0430, 19281.54
325.2480, 20749.10
326.4540, 20618.68
327.6590, 19390.30
328.8640, 16951.95
330.0680, 13994.61
331.2730, 11338.29
332.4780, 9217.998
333.6820, 7284.726
334.8860, 5945.461
336.0900, 4958.215
337.2940, 4142.968
338.4980, 3538.722
339.7010, 3091.450
340.9050, 2823.191
342.1080, 2453.955
343.3110, 2353.739
344.5140, 2168.546
345.7170, 2053.374
346.9200, 2068.223
348.1220, 2038.094
349.3240, 1973.985
350.5270, 2012.897
351.7290, 2099.940
352.9310, 2070.778
354.1320, 2157.752
355.3340, 2188.437
356.5350, 2381.448
357.7370, 2411.480
358.9380, 2520.533
360.1390, 2474.604
361.3400, 2414.692
362.5400, 2277.802
363.7410, 2284.929
364.9410, 2240.075
366.1410, 2237.239
367.3410, 2377.421
368.5410, 2458.622
369.7410, 2551.841
370.9400, 2549.076
372.1400, 2743.330
373.3390, 2866.601
374.5380, 3086.889
375.7370, 3352.194
376.9360, 3952.517
378.1350, 4689.855
379.3330, 5656.211
380.5310, 6933.584
381.7300, 8181.974
382.9280, 9372.379
384.1260, 10434.80
385.3230, 11778.24
386.5210, 13500.70
387.7180, 15497.16
388.9160, 18043.65
390.1130, 20709.15
391.3100, 22335.67
392.5060, 23095.21
393.7030, 21738.75
394.9000, 18771.32
396.0960, 15625.90
397.2920, 12234.49
398.4880, 9438.104
399.6840, 7215.728
400.8800, 5463.367
402.0750, 4303.029
403.2710, 3337.721
404.4660, 2721.433
405.6610, 2215.165
406.8560, 1760.917
408.0510, 1439.689
409.2450, 1182.480
410.4400, 974.2900
411.6340, 846.1182
412.8280, 686.5146
414.0220, 728.3789
415.2160, 511.9497
416.4100, 513.8491
417.6030, 514.2153
418.7970, 409.0166
419.9900, 402.1484
421.1830, 363.4717
422.3760, 282.0205
423.5690, 276.9551
424.7610, 284.9736
425.9540, 215.9395
427.1460, 157.9907
428.3380, 243.0581
429.5300, 235.1421
430.7220, 154.2412
431.9140, 100.3564
433.1050, 8.486816
434.2970, 87.63281
435.4880, 82.79395
436.6790, 48.96924
437.8700, 16.16016
439.0610, 56.36621
440.2510, 15.58691
441.4420, 51.82129
442.6320, 4.929688
443.8220, 56.66797
445.0120, 68.67578
446.2020, 72.57471
447.3910, 45.34863
448.5810, 26.62305
449.7700, 62.07617
450.9600, 23.01611
452.1490, 49.66016
453.3370, 26.02930
454.5260, 124.3281
455.7150, 56.35498
456.9030, 90.97021
458.0910, 204.2935
459.2800, 87.42773
460.4670, 176.8149
461.6550, 153.3262
462.8430, 171.2734
464.0300, 184.3535
465.2180, 266.0645
466.4050, 190.6060
467.5920, 209.4526
468.7790, 159.1230
469.9650, 151.4097
471.1520, 206.7812
472.3380, 159.6343
473.5250, 180.1982
474.7110, 230.7759
475.8970, 157.3643
477.0820, 137.9639
478.2680, 70.57080
479.4540, 71.19629
480.6390, 103.8286
481.8240, 94.51904
483.0090, 100.4492
484.1940, 94.81787
485.3780, 98.47754
486.5630, 131.1440
487.7470, 138.8188
488.9320, 85.50049
490.1160, 66.18750
491.3000, 142.8809
492.4830, 50.57910
493.6670, 89.28320
494.8500, 153.9971
496.0340, 163.7378
497.2170, 161.0508
498.4000, 107.2358
499.5820, 93.99316
500.7650, 97.98047
501.9480, 92.52002
503.1300, 125.2905
504.3120, 139.0649
505.4940, 171.8433
506.6760, 280.6255
507.8580, 237.4111
509.0390, 330.1997
510.2210, 345.9927
511.4020, 335.7886
512.5830, 463.5869
513.7640, 445.3887
514.9450, 506.1953
516.1250, 665.0039
517.3060, 726.8149
518.4860, 709.6284
519.6660, 839.4443
520.8460, 999.2622
522.0260, 1121.082
523.2060, 1125.903
524.3850, 1335.726
525.5650, 1508.552
526.7440, 1661.377
527.9230, 1927.217
529.1020, 2026.059
530.2810, 2035.938
531.4590, 2183.864
532.6380, 2017.806
533.8160, 1757.748
534.9940, 1531.689
536.1720, 1336.999
537.3500, 1125.591
538.5270, 936.5420
539.7050, 755.4922
540.8820, 638.8428
542.0590, 548.4111
543.2360, 478.3745
544.4130, 418.3364
545.5900, 413.2983
546.7660, 388.2695
547.9430, 462.2407
549.1190, 394.2183
550.2950, 431.2007
551.4710, 480.1836
552.6470, 367.1738
553.8220, 428.1611
554.9980, 379.1675
556.1730, 364.1802
557.3480, 525.2070
558.5230, 518.2305
559.6980, 523.2622
560.8730, 654.2920
562.0470, 427.3442
563.2220, 389.4160
564.3960, 439.4941
565.5700, 295.5732
566.7440, 383.6528
567.9170, 351.7285
569.0910, 206.7998
570.2640, 299.8662
571.4380, 179.9282
572.6110, 262.9854
573.7840, 253.0371
574.9570, 163.0835
576.1290, 242.1250
577.3020, 132.1611
578.4740, 205.1909
579.6460, 108.2153
580.8180, 177.2334
581.9900, 162.2461
583.1620, 133.2520
584.3330, 96.15723
585.5040, 11.27295
586.6760, 84.84912
587.8470, 8.138184
589.0180, 86.62695
590.1880, 2.134766
591.3590, 12.99902
592.5290, 70.47559
593.7000, 23.94531
594.8700, 137.9038
596.0400, 100.1655
597.2090, 26.49854
598.3790, 87.84863
599.5490, 4.540527
600.7180, 87.14746
601.8870, 7.486328
603.0560, 13.96143
604.2250, 22.35449
605.3940, 22.92480
606.5620, 3.732910
607.7300, 10.10107
608.8990, 35.05908
610.0670, 22.72168
611.2350, 26.59033
612.4020, 41.36963
613.5700, 77.65820
614.7370, 121.3281
615.9050, 139.3394
617.0720, 138.6362
618.2390, 136.6904
619.4060, 102.5020
620.5720, 99.72510
621.7390, 59.97754
622.9050, 130.1763
624.0710, 109.3633
625.2370, 167.6182
626.4030, 279.7812
627.5690, 203.4536
628.7340, 205.6265
629.9000, 339.7837
631.0650, 250.8984
632.2300, 312.0005
633.3950, 323.0908
634.5600, 336.1675
635.7240, 475.2324
636.8890, 517.2842
638.0530, 429.3232
639.2170, 620.3491
640.3810, 752.3623
641.5450, 654.3623
642.7080, 787.3491
643.8720, 899.3223
645.0350, 978.2822
646.1980, 1063.229
647.3610, 1281.163
648.5240, 1479.082
649.6870, 1755.988
650.8490, 1903.900
652.0120, 2216.779
653.1740, 2663.655
654.3360, 3322.766
655.4980, 4051.604
656.6600, 4862.426
657.8210, 5801.204
658.9830, 6842.641
660.1440, 7934.812
661.3050, 9242.578
662.4660, 10538.33
663.6270, 11985.07
664.7870, 13605.79
665.9480, 15009.56
667.1080, 15940.87
668.2680, 15841.71
669.4280, 14831.80
670.5880, 13182.57
671.7480, 11283.10
672.9070, 8934.718
674.0670, 7405.320
675.2260, 5959.776
676.3850, 4660.346
677.5440, 3877.899
678.7030, 3161.437
679.8610, 2670.934
681.0200, 2255.354
682.1780, 1978.840
683.3360, 1540.311
684.4940, 1439.765
685.6520, 1263.741
686.8090, 1157.215
687.9670, 983.3428
689.1240, 906.0776
690.2810, 808.9458
691.4380, 803.0576
692.5950, 607.3916
693.7520, 581.8271
694.9080, 591.1206
696.0650, 651.5938
697.2210, 517.8623
698.3770, 453.1079
699.5330, 501.3354
700.6880, 419.4517
701.8440, 416.2124
702.9990, 530.0166
704.1550, 370.1699
705.3100, 321.0190
706.4650, 467.1353
707.6190, 420.2329
708.7740, 342.3120
709.9290, 319.3730
711.0830, 414.4150
712.2370, 228.4385
713.3910, 415.4434
714.5450, 336.4297
715.6980, 319.3970
716.8520, 323.3462
718.0050, 287.2773
719.1580, 265.9565
720.3110, 190.0830
721.4640, 183.9585
722.6170, 257.8149
723.7700, 188.6548
724.9220, 194.7510
726.0740, 128.5732
727.2260, 223.5645
728.3780, 62.64990
729.5300, 169.2451
730.6810, 3.650879
731.8330, 86.04883
732.9840, 105.4277
734.1350, 122.0703
735.2860, 121.3511
736.4370, 110.4136
737.5880, 45.07568
738.7380, 75.91699
739.8880, 36.49902
741.0390, 95.93408
742.1890, 7.075195
743.3380, 14.23438
744.4880, 33.95459
745.6380, 19.69580
746.7870, 12.32666
747.9360, 39.51318
749.0850, 33.97754
750.2340, 35.85205
751.3830, 126.5234
752.5310, 8.785156
753.6800, 24.02002
754.8280, 20.23389
755.9760, 131.4268
757.1240, 12.39453
758.2720, 112.7476
759.4190, 60.87598
760.5670, 79.94092
761.7140, 82.04297
762.8610, 50.13232
764.0080, 141.2080
765.1550, 24.27051
766.3020, 57.31543
767.4480, 57.34814
768.5950, 112.3672
769.7410, 155.3735
770.8870, 111.3687
772.0330, 169.3516
773.1780, 151.3228
774.3240, 248.2812
775.4690, 115.2285
776.6140, 215.1641
777.7590, 239.0884
778.9040, 253.0005
780.0490, 288.9019
781.1940, 269.8613
782.3380, 184.6714
783.4820, 225.5396
784.6260, 184.3970
785.7700, 144.2441
786.9140, 144.0806
788.0580, 41.90625
789.2010, 122.7217
790.3450, 41.52783
791.4880, 14.32275
792.6310, 121.1055
793.7730, 159.8784
794.9160, 152.6421
796.0590, 92.39648
797.2010, 58.14111
798.3430, 89.87646
799.4850, 61.60352
800.6270, 110.3213
801.7690, 60.03076
802.9100, 18.73145
804.0520, 33.57666
805.1930, 7.082520
806.3340, 127.2681
807.4750, 170.6997
808.6160, 40.23389
809.7560, 73.19727
810.8970, 94.62158
812.0370, 25.96191
813.1770, 97.42920
814.3170, 35.81396
815.4570, 47.19141
816.5960, 14.43750
817.7360, 30.08398
818.8750, 115.2456
820.0140, 78.56885
821.1530, 138.8857
822.2920, 42.80371
823.4310, 0.4780270
824.5690, 31.24707
825.7070, 25.99414
826.8460, 13.01611
827.9840, 34.00488
829.1220, 7.664063
830.2590, 57.13965
831.3970, 39.97656
832.5340, 59.83691
833.6710, 2.269531
834.8080, 28.37109
835.9450, 30.46875
837.0820, 58.43750
838.2190, 20.37402
839.3550, 22.32080
840.4910, 120.7231
841.6270, 25.23682
842.7630, 38.79248
843.8990, 106.8188
845.0350, 46.84277
846.1700, 162.8643
847.3060, 183.8838
848.4410, 231.9009
849.5760, 265.9155
850.7100, 322.0400
851.8450, 500.9404
852.9800, 444.9502
854.1140, 570.9585
855.2480, 639.9663
856.3820, 606.9722
857.5160, 642.8936
858.6500, 578.9829
859.7830, 589.9873
860.9170, 465.9912
862.0500, 424.9990
863.1830, 405.9658
864.3160, 397.9819
865.4480, 349.1494
866.5810, 280.2017
867.7130, 374.6313
868.8460, 374.3413
869.9780, 230.3047
871.1100, 279.4092
872.2410, 327.5479
873.3730, 275.6899
874.5050, 339.1401
875.6360, 420.1958
876.7670, 313.5674
877.8980, 239.7646
879.0290, 388.1528
880.1590, 336.1265
881.2900, 321.6079
882.4200, 311.4316
883.5500, 303.2378
884.6800, 317.0781
885.8100, 418.8203
886.9400, 359.6436
888.0690, 357.9492
889.1990, 295.8672
890.3280, 447.4375
891.4570, 202.9180
892.5860, 374.2510
893.7140, 433.0117
894.8430, 406.3564
895.9710, 360.6729
897.1000, 316.0410
898.2280, 227.4160
899.3560, 301.7178
900.4830, 320.1104
901.6110, 321.0039
902.7380, 261.3945
903.8660, 317.7949
904.9930, 231.2334
906.1200, 246.6797
907.2460, 265.1377
908.3730, 269.7041
909.5000, 245.0947
910.6260, 313.5947
911.7520, 407.1016
912.8780, 363.6172
914.0040, 269.1406
915.1290, 218.6719
916.2550, 417.2109
917.3800, 322.7598
918.5050, 344.3203
919.6300, 305.9238
920.7550, 228.5439
921.8800, 244.1738
923.0040, 316.8145
924.1290, 285.4512
925.2530, 276.1182
926.3770, 254.8037
927.5010, 229.2549
928.6250, 218.9932
929.7480, 240.7539
930.8720, 174.5234
931.9950, 179.3115
933.1180, 145.1084
934.2410, 241.9170
935.3640, 231.7344
936.4860, 223.5625
937.6090, 57.40039
938.7310, 158.2070
939.8530, 114.4561
940.9750, 189.1855
942.0970, 180.6484
943.2180, 180.4502
944.3400, 47.49414
945.4610, 239.4424
946.5820, 77.40332
947.7030, 124.5078
948.8240, 91.51758
949.9450, 237.5400
951.0650, 267.5801
952.1860, 148.6582
953.3060, 251.8115
954.4260, 315.9121
955.5460, 389.0332
956.6650, 391.0918
957.7850, 361.7812
958.9040, 326.9082
960.0230, 426.3789
961.1420, 341.2402
962.2610, 409.9639
963.3800, 375.4434
964.4990, 299.6973
965.6170, 414.8477
966.7350, 439.1367
967.8530, 591.2432
968.9710, 554.5557
970.0890, 536.8906
971.2070, 623.2412
972.3240, 564.6992
973.4410, 758.5107
974.5580, 821.2939
975.6750, 731.7266
976.7920, 717.4600
977.9090, 863.9277
979.0250, 870.4092
980.1410, 959.9062
981.2580, 1173.420
982.3740, 1157.951
983.4890, 1143.498
984.6050, 1303.063
985.7200, 1506.644
986.8360, 1490.239
987.9510, 1783.853
989.0660, 1876.481
990.1810, 1996.128
991.2950, 2403.791
992.4100, 2512.470
993.5240, 2886.167
994.6390, 3361.883
995.7530, 3792.615
996.8660, 4297.369
997.9800, 5124.141
999.0940, 5914.928
1000.207, 7192.735
1001.320, 8310.559
1002.433, 10314.41
1003.546, 12368.29
1004.659, 15534.18
1005.772, 18852.08
1006.884, 22846.00
1007.996, 27041.94
1009.108, 31649.89
1010.220, 36327.88
1011.332, 41023.88
1012.444, 45438.91
1013.555, 47824.95
1014.666, 46691.03
1015.777, 42393.12
1016.888, 35709.25
1017.999, 28717.41
1019.110, 22010.57
1020.220, 17013.76
1021.331, 13028.96
1022.441, 10047.18
1023.551, 8152.420
1024.661, 6669.480
1025.770, 5577.758
1026.880, 4606.049
1027.989, 3925.368
1029.098, 3463.179
1030.207, 3110.324
1031.316, 2832.699
1032.425, 2587.089
1033.533, 2402.779
1034.642, 2209.330
1035.750, 2098.602
1036.858, 2159.822
1037.966, 1966.288
1039.073, 2018.768
1040.181, 2050.432
1041.288, 2053.908
1042.396, 1996.435
1043.503, 1929.943
1044.610, 2067.563
1045.716, 1904.130
1046.823, 1948.709
1047.929, 1879.301
1049.036, 1922.905
1050.142, 1788.522
1051.248, 1706.183
1052.353, 1586.335
1053.459, 1409.942
1054.564, 1336.612
1055.670, 1292.104
1056.775, 1301.427
1057.880, 1213.724
1058.985, 1132.121
1060.089, 1097.037
1061.194, 1025.812
1062.298, 900.1445
1063.402, 905.9102
1064.506, 869.3848
1065.610, 781.1777
1066.713, 887.9971
1067.817, 888.7969
1068.920, 855.6064
1070.023, 592.5166
1071.126, 630.1348
1072.229, 704.0400
1073.332, 550.9014
1074.435, 617.0098
1075.537, 705.6162
1076.639, 620.7061
1077.741, 671.6045
1078.843, 568.1270
1079.945, 610.3965
1081.046, 523.6299
1082.148, 398.6670
1083.249, 431.9414
1084.350, 377.0684
1085.451, 364.4814
1086.551, 482.8740
1087.652, 352.7021
1088.752, 397.9160
1089.853, 347.5029
1090.953, 442.3262
1092.053, 409.3320
1093.152, 405.8926
1094.252, 381.0439
1095.351, 346.4736
1096.451, 312.8896
1097.550, 375.0684
1098.649, 294.2646
1099.748, 289.7334
1100.846, 408.0684
1101.945, 363.4854
1103.043, 226.9316
1104.141, 424.1768
1105.239, 288.4395
1106.337, 119.4502
1107.434, 310.7275
1108.532, 271.0068
1109.629, 387.0254
1110.726, 303.3164
1111.823, 256.6104
1112.920, 301.9805
1114.017, 263.7002
1115.113, 254.0029
1116.210, 259.6875
1117.306, 330.9961
1118.402, 449.3672
1119.498, 430.8271
1120.593, 377.1445
1121.689, 541.0215
1122.784, 437.3604
1123.879, 412.7012
1124.974, 497.6201
1126.069, 284.5859
1127.164, 297.9287
1128.259, 244.5000
1129.353, 282.1104
1130.447, 934.5742
1131.541, 565.0811
1132.635, 592.8525
1133.729, 346.6250
1134.822, 189.3633
1135.916, 309.7129
1137.009, 233.1475
1138.102, 240.5488
1139.195, 215.8965
1140.288, 151.2451
1141.380, 279.5928
1142.473, 180.9365
1143.565, 193.2793
1144.657, 268.6201
1145.749, 199.9570
1146.841, 188.2930
1147.932, 191.6279
1149.024, 296.9688
1150.115, 105.3135
1151.206, 168.6553
1152.297, 37.00391
1153.388, 119.3486
1154.479, 110.3398
1155.569, 45.32227
1156.659, 158.9961
1157.750, 74.32031
1158.839, 114.7148
1159.929, 36.00684
1161.019, 21.70898
1162.108, 32.80859
1163.198, 53.35254
1164.287, 30.28809
1165.376, 60.46191
1166.465, 15.18555
1167.553, 86.12793
1168.642, 35.52441
1169.730, 96.84375
1170.818, 24.65820
1171.906, 37.82617
1172.994, 29.31445
1174.082, 36.48535
1175.170, 9.631836
1176.257, 39.79004
1177.344, 70.99902
1178.431, 114.2422
1179.518, 51.34180
1180.605, 69.44336
1181.691, 16.46973
1182.778, 119.4990
1183.864, 30.30371
1184.950, 43.66406
1186.036, 10.30957
1187.122, 6.368164
1188.207, 4.332031
1189.292, 71.50977
1190.378, 14.63770
1191.463, 58.78418
1192.548, 36.32422
1193.632, 53.61914
1194.717, 20.61621
1195.801, 54.93262
1196.886, 51.85156
1197.970, 86.57227
1199.054, 112.3203
1200.137, 42.26465
1201.221, 34.63770
1202.305, 51.05371
1203.388, 127.7324
1204.471, 13.40234
1205.554, 46.94043
1206.637, 44.67480
1207.719, 8.275391
1208.802, 59.00293
1209.884, 15.61328
1210.966, 68.54102
1212.048, 84.26270
1213.130, 4.249023
1214.212, 65.21289
1215.293, 30.66113
1216.374, 53.90625
1217.456, 10.52441
1218.536, 59.82715
1219.617, 12.16309
1220.698, 40.51465
1221.778, 84.75977
1222.859, 29.39453
1223.939, 224.6367
1225.019, 31.86621
1226.099, 40.07715
1227.178, 132.2725
1228.258, 104.4531
1229.337, 40.61914
1230.417, 4.767578
1231.496, 60.89062
1232.574, 55.99707
1233.653, 143.1963
1234.732, 143.2715
1235.810, 51.37402
1236.888, 137.6504
1237.966, 125.6348
1239.044, 16.60352
1240.122, 126.5498
1241.199, 170.4795
1242.277, 98.74023
1243.354, 30.68555
1244.431, 177.6396
1245.508, 36.81055
1246.585, 201.7363
1247.661, 107.9326
1248.738, 87.80859
1249.814, 145.0068
1250.890, 32.39160
1251.966, 177.2031
1253.042, 269.9287
1254.117, 32.63770
1255.193, 31.32324
1256.268, 142.9854
1257.343, 15.04004
1258.418, 72.72266
1259.493, 109.8350
1260.567, 148.6328
1261.642, 210.0615
1262.716, 140.6016
1263.790, 55.20898
1264.864, 163.7061
1265.938, 123.1943
1267.011, 132.0107
1268.085, 156.6543
1269.158, 181.6465
1270.231, 181.0537
1271.304, 193.2627
1272.377, 168.8086
1273.450, 193.1562
1274.522, 191.8320
1275.594, 185.3389
1276.666, 226.7070
1277.738, 162.3594
1278.810, 171.0713
1279.882, 209.3613
1280.953, 206.0225
1282.025, 168.2275
1283.096, 48.78125
1284.167, 195.1455
1285.238, 180.4580
1286.308, 322.9980
1287.379, 148.5869
