##NAMES=Diopside
##RRUFFID=R060861
##IDEAL CHEMISTRY=CaMgSi_2_O_6_
##LOCALITY=Red Mountain Volcano, NW of Flagstaff, Arizona, USA
##OWNER=RRUFF
##SOURCE=Jennifer Sano
##DESCRIPTION=Worn brown fragment
##STATUS=The identification of this mineral has been confirmed by X-ray diffraction and chemical analysis
##URL=rruff.info/R060861
##MEASURED CHEMISTRY=(Ca_0.72_Fe^2+^_0.23_Na_0.05_)_Σ=1_(Mg_0.80_Al_0.15_Ti_0.03_Fe^3+^_0.02_)_Σ=1_(Si_1.82_Al_0.18_)_Σ=2_O_6_
##PIN_ID=M01674
##ORIENTATION=Laser parallel to b* (0 1 0). Fiducial mark perpendicular to laser is parallel to c [0 0 1]
174.7000, 0.0000000E+00
175.9330, 54.53809
177.1660, 116.7178
178.3990, 113.8291
179.6310, 205.4385
180.8640, 112.4600
182.0960, 10.46582
183.3280, 76.31934
184.5600, 266.1611
185.7910, 288.0625
187.0220, 283.8389
188.2540, 486.2256
189.4840, 448.4082
190.7150, 443.1445
191.9460, 682.4561
193.1760, 822.1758
194.4060, 871.8584
195.6360, 815.2354
196.8660, 712.5137
198.0960, 728.8691
199.3250, 779.8369
200.5540, 843.3652
201.7830, 977.2314
203.0120, 840.2158
204.2400, 556.3564
205.4690, 183.6885
206.6970, 24.23828
207.9250, 37.97070
209.1530, 35.91992
210.3800, 65.59375
211.6080, 7.021484
212.8350, 16.06836
214.0620, 19.13086
215.2880, 74.61816
216.5150, 0.3886720
217.7410, 62.56152
218.9680, 37.76270
220.1940, 61.28809
221.4190, 154.5674
222.6450, 198.0225
223.8700, 198.8623
225.0960, 188.8516
226.3210, 288.3564
227.5450, 464.2686
228.7700, 1016.489
229.9940, 892.0166
231.2190, 1026.850
232.4430, 864.9834
233.6660, 1273.416
234.8900, 1003.148
236.1140, 1122.176
237.3370, 514.4893
238.5600, 56.08789
239.7830, 61.97168
241.0050, 223.1377
242.2280, 234.5859
243.4500, 136.3145
244.6720, 371.3242
245.8940, 298.6104
247.1160, 443.1797
248.3370, 404.0186
249.5580, 503.0479
250.7790, 450.2568
252.0000, 428.6328
253.2210, 585.1719
254.4410, 539.8828
255.6620, 596.7637
256.8820, 496.8076
258.1020, 616.0020
259.3210, 504.3887
260.5410, 379.5859
261.7600, 372.4883
262.9790, 68.29297
264.1980, 62.24512
265.4170, 26.75586
266.6360, 42.70898
267.8540, 47.53223
269.0720, 122.1865
270.2900, 111.7139
271.5080, 135.0605
272.7260, 141.2275
273.9430, 191.2158
275.1600, 50.02637
276.3770, 169.6592
277.5940, 19.11230
278.8100, 159.6172
280.0270, 159.5264
281.2430, 138.6182
282.4590, 259.8926
283.6750, 428.3486
284.8910, 550.9873
286.1060, 580.8096
287.3210, 650.8125
288.5360, 939.9990
289.7510, 892.3672
290.9660, 1336.916
292.1800, 1444.647
293.3950, 1475.558
294.6090, 1859.635
295.8230, 1840.854
297.0360, 2218.200
298.2500, 2336.666
299.4630, 2543.276
300.6760, 2808.067
301.8890, 3140.037
303.1020, 3360.189
304.3150, 3589.520
305.5270, 4063.029
306.7390, 4400.715
307.9510, 4748.578
309.1630, 5070.618
310.3750, 5643.832
311.5860, 6152.219
312.7970, 6656.779
314.0080, 6987.512
315.2190, 7832.420
316.4300, 8341.510
317.6400, 9098.802
318.8510, 9777.456
320.0610, 10500.67
321.2710, 11293.31
322.4800, 11884.98
323.6900, 12712.63
324.8990, 13194.16
326.1080, 13819.82
327.3170, 14492.60
328.5260, 15179.09
329.7340, 15399.90
330.9430, 15913.91
332.1510, 15947.96
333.3590, 16095.07
334.5670, 16045.26
335.7740, 15963.54
336.9820, 15895.84
338.1890, 15709.93
339.3960, 15353.92
340.6030, 15181.98
341.8100, 14910.18
343.0160, 14692.46
344.2220, 14281.91
345.4280, 14255.52
346.6340, 14060.28
347.8400, 14062.21
349.0460, 13893.29
350.2510, 13943.53
351.4560, 13687.92
352.6610, 13573.65
353.8660, 13744.35
355.0700, 13869.79
356.2750, 13656.01
357.4790, 13692.92
358.6830, 13537.05
359.8870, 13628.20
361.0910, 13626.80
362.2940, 13678.90
363.4970, 13644.84
364.7000, 13666.38
365.9030, 13518.55
367.1060, 13472.85
368.3080, 13332.81
369.5110, 13395.69
370.7130, 13146.22
371.9150, 13113.86
373.1170, 13057.63
374.3180, 13310.55
375.5200, 13221.61
376.7210, 13599.81
377.9220, 13502.15
379.1230, 13829.62
380.3230, 14018.23
381.5240, 14323.98
382.7240, 15124.86
383.9240, 15461.87
385.1240, 16082.01
386.3240, 16783.47
387.5230, 17339.59
388.7230, 18169.21
389.9220, 18627.86
391.1210, 19279.64
392.3200, 19800.53
393.5180, 19886.56
394.7170, 20020.70
395.9150, 19828.96
397.1130, 19211.36
398.3110, 18590.86
399.5080, 17408.48
400.7060, 16131.22
401.9030, 14863.08
403.1000, 13587.06
404.2970, 12083.15
405.4940, 10762.35
406.6910, 9503.675
407.8870, 8248.109
409.0830, 7226.658
410.2790, 6361.025
411.4750, 5657.277
412.6710, 4819.574
413.8660, 4194.362
415.0610, 3782.562
416.2560, 3290.318
417.4510, 2882.057
418.6460, 2561.487
419.8410, 2316.477
421.0350, 2030.544
422.2290, 1828.443
423.4230, 1633.306
424.6170, 1485.272
425.8100, 1393.342
427.0040, 1307.514
428.1970, 1148.787
429.3900, 987.1631
430.5830, 940.6367
431.7760, 874.2100
432.9680, 745.8818
434.1610, 824.6494
435.3530, 758.5137
436.5450, 644.4736
437.7360, 606.5273
438.9280, 551.7549
440.1190, 475.0752
441.3110, 512.2461
442.5020, 354.6699
443.6930, 390.1836
444.8830, 347.7881
446.0740, 447.4912
447.2640, 387.3037
448.4540, 475.2393
449.6440, 319.3164
450.8340, 461.5469
452.0240, 535.9434
453.2130, 435.5156
454.4020, 632.2725
455.5910, 651.2832
456.7800, 646.4795
457.9690, 839.3711
459.1570, 860.1846
460.3460, 1034.856
461.5340, 1118.598
462.7220, 1098.735
463.9090, 1282.096
465.0970, 1214.209
466.2840, 1340.993
467.4720, 1372.476
468.6590, 1489.543
469.8460, 1482.178
471.0320, 1570.345
472.2190, 1588.008
473.4050, 1564.334
474.5910, 1652.549
475.7770, 1629.948
476.9630, 1721.349
478.1490, 1625.149
479.3340, 1689.058
480.5190, 1652.060
481.7040, 1691.168
482.8890, 1614.371
484.0740, 1774.640
485.2580, 1584.973
486.4430, 1761.367
487.6270, 1735.824
488.8110, 1689.342
489.9950, 1784.918
491.1780, 1704.552
492.3620, 1797.242
493.5450, 1860.989
494.7280, 1812.790
495.9110, 1847.653
497.0940, 1786.590
498.2760, 1787.598
499.4590, 1861.681
500.6410, 1877.979
501.8230, 1892.014
503.0050, 1985.257
504.1860, 1997.547
505.3680, 1993.882
506.5490, 2231.277
507.7300, 2155.715
508.9110, 2373.191
510.0920, 2407.708
511.2730, 2509.264
512.4530, 2608.857
513.6330, 2757.488
514.8130, 2958.154
515.9930, 3158.856
517.1730, 3314.593
518.3520, 3380.360
519.5320, 3763.161
520.7110, 3889.992
521.8900, 4416.851
523.0690, 4507.740
524.2470, 4694.654
525.4260, 5069.594
526.6040, 5196.562
527.7820, 5483.551
528.9600, 5795.562
530.1380, 5978.596
531.3150, 6272.650
532.4930, 6327.723
533.6700, 6470.815
534.8470, 6612.924
536.0240, 6766.050
537.2000, 6866.189
538.3770, 6890.344
539.5530, 6708.512
540.7290, 6603.691
541.9050, 6679.881
543.0810, 6581.081
544.2570, 6472.289
545.4320, 6203.506
546.6080, 6334.729
547.7830, 6103.898
548.9580, 5929.230
550.1320, 5820.427
551.3070, 5541.665
552.4810, 5342.908
553.6550, 5237.153
554.8300, 5140.402
556.0030, 4944.660
557.1770, 4906.923
558.3510, 4773.196
559.5240, 4627.474
560.6970, 4567.766
561.8700, 4399.054
563.0430, 4361.349
564.2160, 4168.638
565.3880, 4086.917
566.5600, 4042.185
567.7320, 4020.441
568.9040, 3728.685
570.0760, 3661.916
571.2480, 3561.132
572.4190, 3456.333
573.5900, 3237.517
574.7610, 3238.685
575.9320, 3090.833
577.1030, 2854.962
578.2740, 2895.072
579.4440, 2580.161
580.6140, 2416.638
581.7840, 2174.272
582.9540, 1967.292
584.1240, 1744.287
585.2930, 1537.358
586.4630, 1387.948
587.6320, 1123.280
588.8010, 1039.325
589.9700, 787.9136
591.1380, 704.1948
592.3070, 400.7085
593.4750, 253.1499
594.6430, 174.4614
595.8110, 11.66504
596.9790, 13.55762
598.1460, 57.72119
599.3140, 163.2344
600.4810, 237.7812
601.6480, 410.9399
602.8150, 204.1846
603.9820, 393.3706
605.1480, 320.0195
606.3150, 324.9429
607.4810, 235.3643
608.6470, 224.1987
609.8130, 102.1709
610.9790, 28.56348
612.1440, 65.11377
613.3100, 111.9380
614.4750, 222.9780
615.6400, 292.7134
616.8050, 416.9355
617.9690, 446.9824
619.1340, 529.6309
620.2980, 680.2832
621.4620, 762.9102
622.6260, 1003.181
623.7900, 1072.008
624.9540, 1263.740
626.1170, 1425.377
627.2810, 1579.918
628.4440, 1800.362
629.6070, 2105.710
630.7690, 2254.960
631.9320, 2673.112
633.0950, 2948.167
634.2570, 3207.121
635.4190, 3718.976
636.5810, 4093.731
637.7430, 4509.387
638.9040, 5019.940
640.0660, 5561.542
641.2270, 6188.740
642.3880, 6882.987
643.5490, 7741.131
644.7100, 8656.172
645.8700, 9562.109
647.0310, 10710.94
648.1910, 12014.67
649.3510, 13468.29
650.5110, 15154.50
651.6710, 16902.22
652.8300, 19067.53
653.9900, 21419.72
655.1490, 23910.81
656.3080, 27136.80
657.4670, 30083.67
658.6250, 33647.46
659.7840, 37042.11
660.9420, 40569.67
662.1010, 44086.11
663.2590, 47148.46
664.4170, 49634.67
665.5740, 51874.80
666.7320, 52401.80
667.8890, 52279.70
669.0460, 50528.50
670.2030, 48151.18
671.3600, 44939.75
672.5170, 41424.22
673.6740, 37733.57
674.8300, 34240.82
675.9860, 30509.95
677.1420, 27273.96
678.2980, 24166.88
679.4540, 21491.68
680.6090, 18876.37
681.7650, 16895.94
682.9200, 15139.41
684.0750, 13432.77
685.2300, 11980.02
686.3840, 10712.16
687.5390, 9725.179
688.6930, 8817.091
689.8470, 8066.896
691.0010, 7273.589
692.1550, 6459.170
693.3090, 5923.641
694.4620, 5237.002
695.6160, 4984.252
696.7690, 4499.391
697.9220, 4214.420
699.0750, 3920.338
700.2280, 3761.146
701.3800, 3393.843
702.5320, 3194.429
703.6850, 2868.906
704.8370, 2800.273
705.9880, 2635.530
707.1400, 2445.677
708.2920, 2065.715
709.4430, 1933.643
710.5940, 1814.462
711.7450, 1641.172
712.8960, 1604.773
714.0470, 1509.267
715.1970, 1261.651
716.3480, 1065.928
717.4980, 1104.097
718.6480, 837.1582
719.7980, 692.1128
720.9470, 600.9600
722.0970, 533.7007
723.2460, 457.3350
724.3960, 308.8613
725.5450, 196.2622
726.6940, 120.5122
727.8420, 28.58545
728.9910, 17.55811
730.1390, 71.94238
731.2870, 121.5928
732.4350, 154.5361
733.5830, 235.7861
734.7310, 218.4346
735.8790, 219.4092
737.0260, 317.2178
738.1730, 311.1128
739.3200, 331.0283
740.4670, 430.1758
741.6140, 428.9082
742.7610, 443.0483
743.9070, 458.1143
745.0530, 454.5352
746.1990, 449.5801
747.3450, 433.3027
748.4910, 408.5342
749.6370, 373.4395
750.7820, 320.9634
751.9270, 356.2646
753.0720, 231.5757
754.2170, 237.9062
755.3620, 257.8252
756.5070, 114.9819
757.6510, 58.29834
758.7950, 112.7412
759.9400, 82.33447
761.0840, 46.94238
762.2270, 206.1519
763.3710, 155.2959
764.5140, 370.3760
765.6580, 205.3931
766.8010, 267.3477
767.9440, 356.2417
769.0870, 378.0767
770.2290, 380.8530
771.3720, 567.5723
772.5140, 510.2368
773.6560, 617.8462
774.7990, 600.4033
775.9400, 639.4912
777.0820, 707.7593
778.2240, 749.7681
779.3650, 784.1250
780.5060, 835.9839
781.6470, 864.7017
782.7880, 897.9233
783.9290, 932.1021
785.0690, 917.2393
786.2100, 997.3364
787.3500, 1012.323
788.4900, 1111.416
789.6300, 1078.400
790.7700, 1083.350
791.9090, 1094.266
793.0490, 1183.149
794.1880, 1182.002
795.3270, 1190.824
796.4660, 1331.618
797.6050, 1238.385
798.7440, 1243.125
799.8820, 1172.842
801.0200, 1242.535
802.1590, 1383.206
803.2970, 1304.855
804.4340, 1427.486
805.5720, 1454.099
806.7100, 1574.693
807.8470, 1527.273
808.9840, 1562.837
810.1210, 1604.389
811.2580, 1447.928
812.3950, 1530.455
813.5310, 1418.974
814.6680, 1611.484
815.8040, 1675.986
816.9400, 1747.483
818.0760, 1631.975
819.2120, 1670.463
820.3470, 1601.948
821.4830, 1686.433
822.6180, 1615.918
823.7530, 1694.404
824.8880, 1757.893
826.0230, 1625.384
827.1580, 1654.881
828.2920, 1446.384
829.4270, 1657.894
830.5610, 1548.544
831.6950, 1422.939
832.8290, 1450.478
833.9620, 1500.027
835.0960, 1335.591
836.2290, 1388.169
837.3620, 1349.762
838.4950, 1212.372
839.6280, 1316.000
840.7610, 1399.646
841.8940, 1315.312
843.0260, 1341.001
844.1580, 1309.712
845.2910, 1453.446
846.4230, 1494.206
847.5540, 1525.990
848.6860, 1697.804
849.8170, 1763.645
850.9490, 2045.515
852.0800, 2106.417
853.2110, 2381.351
854.3420, 2603.374
855.4730, 2930.317
856.6030, 3125.353
857.7340, 3543.426
858.8640, 3874.535
859.9940, 4272.582
861.1240, 4542.125
862.2540, 4819.938
863.3830, 5062.054
864.5130, 5024.639
865.6420, 5293.545
866.7710, 5504.236
867.9000, 5339.012
869.0290, 5558.935
870.1570, 5669.980
871.2860, 5523.352
872.4140, 5452.909
873.5430, 5396.698
874.6710, 5272.494
875.7980, 5175.850
876.9260, 5046.189
878.0540, 4872.429
879.1810, 4592.027
880.3080, 4500.813
881.4360, 4308.001
882.5630, 4334.525
883.6890, 4021.118
884.8160, 3921.104
885.9420, 3871.013
887.0690, 3521.785
888.1950, 3585.884
889.3210, 3465.294
890.4470, 3369.787
891.5730, 3169.514
892.6980, 3287.712
893.8240, 3123.989
894.9490, 3077.375
896.0740, 2926.198
897.1990, 2927.536
898.3240, 2965.050
899.4480, 2917.718
900.5730, 2924.546
901.6970, 2863.301
902.8210, 2783.259
903.9450, 2736.016
905.0690, 2603.530
906.1930, 2567.216
907.3160, 2518.083
908.4400, 2536.089
909.5630, 2478.318
910.6860, 2626.709
911.8090, 2619.290
912.9320, 2630.044
914.0550, 2613.962
915.1770, 2640.056
916.2990, 2573.319
917.4210, 2538.758
918.5440, 2497.373
919.6650, 2520.163
920.7870, 2523.086
921.9090, 2586.274
923.0300, 2570.587
924.1510, 2645.062
925.2720, 2645.689
926.3930, 2582.495
927.5140, 2595.465
928.6350, 2574.606
929.7550, 2619.925
930.8760, 2595.417
931.9960, 2587.081
933.1160, 2473.919
934.2360, 2439.931
935.3550, 2542.097
936.4750, 2531.429
937.5940, 2604.917
938.7140, 2648.577
939.8330, 2630.379
940.9520, 2599.343
942.0710, 2581.455
943.1890, 2679.732
944.3080, 2780.155
945.4260, 2767.730
946.5440, 2909.457
947.6620, 3010.340
948.7800, 3009.379
949.8980, 3046.583
951.0160, 3110.937
952.1330, 3296.436
953.2500, 3458.082
954.3680, 3520.881
955.4850, 3499.825
956.6010, 3642.915
957.7180, 3685.150
958.8350, 3896.528
959.9510, 3908.052
961.0670, 3964.723
962.1830, 4013.538
963.2990, 4326.499
964.4150, 4375.604
965.5310, 4458.852
966.6460, 4794.246
967.7620, 4580.787
968.8770, 4824.475
969.9920, 4852.304
971.1070, 5214.279
972.2210, 5441.398
973.3360, 5501.661
974.4500, 5504.070
975.5650, 5940.621
976.6790, 6137.315
977.7930, 6353.152
978.9070, 6588.129
980.0200, 6952.253
981.1340, 7180.518
982.2470, 7580.926
983.3610, 7881.475
984.4740, 8226.168
985.5870, 8513.002
986.6990, 9084.979
987.8120, 9760.097
988.9250, 10289.35
990.0370, 11076.76
991.1490, 11557.31
992.2610, 12245.99
993.3730, 12832.82
994.4850, 13770.80
995.5960, 14768.92
996.7080, 15655.20
997.8190, 16648.66
998.9300, 17581.32
1000.041, 18675.19
1001.152, 19511.27
1002.263, 20207.59
1003.373, 21110.15
1004.484, 21455.96
1005.594, 21829.04
1006.704, 21795.36
1007.814, 21631.97
1008.924, 21369.84
1010.034, 20738.99
1011.143, 19891.73
1012.253, 18863.47
1013.362, 17764.39
1014.471, 17254.71
1015.580, 15586.31
1016.689, 14170.82
1017.797, 12579.08
1018.906, 11744.75
1020.014, 10779.93
1021.122, 9851.637
1022.230, 9025.788
1023.338, 8425.877
1024.446, 7664.264
1025.554, 7168.161
1026.661, 6717.665
1027.768, 6242.559
1028.875, 5994.546
1029.983, 5612.294
1031.089, 5361.938
1032.196, 5088.940
1033.303, 4795.517
1034.409, 4734.298
1035.515, 4436.429
1036.622, 4367.209
1037.728, 4091.975
1038.833, 4060.950
1039.939, 3935.848
1041.045, 3722.211
1042.150, 3545.520
1043.255, 3471.633
1044.360, 3519.564
1045.465, 3251.856
1046.570, 3164.331
1047.675, 3169.830
1048.779, 2919.966
1049.884, 2770.189
1050.988, 2661.878
1052.092, 2553.269
1053.196, 2461.552
1054.300, 2451.044
1055.404, 2423.247
1056.507, 2382.814
1057.610, 2386.960
1058.714, 2315.530
1059.817, 2084.463
1060.920, 2070.843
1062.022, 1938.555
1063.125, 1936.965
1064.228, 1885.894
1065.330, 1848.539
1066.432, 1898.777
1067.534, 1756.130
1068.636, 1709.378
1069.738, 1771.831
1070.840, 1765.285
1071.941, 1651.195
1073.042, 1720.415
1074.144, 1760.049
1075.245, 1684.319
1076.346, 1656.370
1077.446, 1558.925
1078.547, 1687.252
1079.647, 1637.561
1080.748, 1676.995
1081.848, 1560.096
1082.948, 1563.178
1084.048, 1637.862
1085.148, 1617.684
1086.247, 1552.625
1087.347, 1539.902
1088.446, 1527.898
1089.545, 1653.399
1090.644, 1544.255
1091.743, 1588.704
1092.842, 1639.595
1093.940, 1555.135
1095.039, 1584.815
1096.137, 1598.259
1097.235, 1593.184
1098.333, 1597.793
1099.431, 1519.766
1100.529, 1555.667
1101.627, 1576.227
1102.724, 1500.572
1103.822, 1593.338
1104.919, 1523.034
1106.016, 1554.413
1107.113, 1435.933
1108.209, 1459.659
1109.306, 1419.330
1110.402, 1476.083
1111.499, 1456.832
1112.595, 1468.606
1113.691, 1495.409
1114.787, 1655.179
1115.883, 1639.025
1116.978, 1793.716
1118.074, 2035.449
1119.169, 2129.279
1120.264, 2186.298
1121.359, 2275.218
1122.454, 2188.300
1123.549, 2169.283
1124.644, 1899.398
1125.738, 1628.253
1126.832, 1541.017
1127.927, 1158.771
1129.021, 1074.672
1130.115, 837.4653
1131.208, 629.2461
1132.302, 494.7886
1133.396, 398.3994
1134.489, 324.7217
1135.582, 420.3525
1136.675, 306.9302
1137.768, 396.6255
1138.861, 252.4976
1139.954, 165.1636
1141.046, 70.61865
1142.138, 111.1846
1143.231, 15.29346
1144.323, 54.25195
1145.415, 166.7178
1146.507, 23.11963
1147.598, 76.98682
1148.690, 164.0884
1149.781, 163.2207
1150.872, 164.5747
1151.964, 165.7417
1153.054, 181.9507
1154.145, 188.5239
1155.236, 184.0581
1156.327, 230.7822
1157.417, 263.8662
1158.507, 261.9614
1159.597, 239.3267
1160.687, 195.6777
1161.777, 234.4487
1162.867, 137.3149
1163.956, 155.2397
1165.046, 135.4658
1166.135, 181.8301
1167.224, 169.3594
1168.313, 226.0527
1169.402, 158.9419
1170.491, 182.9956
1171.580, 104.2295
1172.668, 176.6064
1173.756, 167.1680
1174.845, 189.9106
1175.933, 125.8511
1177.020, 74.91943
1178.108, 117.1699
1179.196, 89.58984
1180.283, 101.1670
1181.371, 102.9106
1182.458, 83.82471
1183.545, 78.18408
1184.632, 115.1338
1185.719, 25.55908
1186.805, 26.12549
1187.892, 36.16309
1188.978, 63.66162
1190.065, 16.65723
1191.151, 18.79932
1192.237, 51.09180
1193.323, 25.55566
1194.408, 13.17871
1195.494, 19.95752
1196.579, 8.897949
1197.664, 66.00342
1198.750, 33.78027
1199.835, 75.41577
1200.919, 21.92627
1202.004, 163.2847
1203.089, 75.54248
1204.173, 151.6682
1205.258, 63.68506
1206.342, 189.5603
1207.426, 142.3330
1208.510, 155.9883
1209.594, 132.5291
1210.677, 134.9465
1211.761, 98.23926
1212.844, 191.3923
1213.927, 271.4324
1215.010, 215.3728
1216.093, 217.2019
1217.176, 256.9197
1218.259, 282.5310
1219.341, 340.0388
1220.424, 310.4485
1221.506, 276.7559
1222.588, 323.9573
1223.670, 379.0581
1224.752, 284.0618
1225.834, 426.9558
1226.915, 354.7515
1227.997, 406.4460
1229.078, 294.0400
1230.159, 382.5208
1231.240, 454.8979
1232.321, 353.1743
1233.402, 425.3423
1234.483, 451.4138
1235.563, 369.3835
1236.644, 511.2446
1237.724, 470.0046
1238.804, 491.6614
1239.884, 479.2151
1240.964, 487.6655
1242.044, 488.1770
1243.123, 488.0674
1244.203, 502.3916
1245.282, 489.4246
1246.361, 532.3530
1247.440, 527.1777
1248.519, 508.8982
1249.598, 477.5132
1250.676, 496.0203
1251.755, 477.6135
1252.833, 493.2012
1253.911, 480.8960
1254.989, 523.9702
1256.067, 547.9375
1257.145, 551.7988
1258.223, 518.5532
1259.300, 545.2000
1260.378, 548.7385
1261.455, 606.1699
1262.532, 589.4973
1263.609, 657.7332
1264.686, 582.8496
1265.763, 593.8586
1266.840, 563.7610
1267.916, 659.5552
1268.992, 663.2446
1270.069, 611.8291
1271.145, 669.3064
1272.221, 589.3906
1273.296, 589.6543
1274.372, 699.9187
1275.448, 586.9731
1276.523, 714.9202
1277.598, 687.1277
1278.673, 669.7512
1279.749, 716.2734
1280.823, 625.2642
1281.898, 606.9248
1282.973, 661.4934
1284.047, 616.9307
1285.122, 626.1650
1286.196, 675.9883
1287.270, 615.2639
1288.344, 625.1924
1289.418, 570.1128
1290.491, 631.2869
1291.565, 594.6074
1292.638, 571.5547
1293.712, 657.0203
1294.785, 645.2114
1295.858, 590.0649
1296.931, 656.2783
1298.003, 632.5154
1299.076, 684.5527
1300.149, 671.6750
1301.221, 663.1167
1302.293, 618.0662
1303.365, 597.0430
1304.437, 572.1614
1305.509, 487.9216
1306.581, 564.5054
1307.652, 569.0684
1308.724, 482.9985
1309.795, 635.8433
1310.866, 512.2266
1311.937, 556.4590
1313.008, 438.7002
1314.079, 504.2803
1315.150, 551.1448
1316.220, 517.6406
1317.291, 530.8923
1318.361, 570.0400
1319.431, 452.2549
1320.501, 474.9351
1321.571, 416.2610
1322.641, 436.8823
1323.710, 425.9771
1324.780, 484.3477
1325.849, 412.1172
1326.918, 500.7625
1327.987, 382.5391
1329.056, 399.0630
1330.125, 371.5752
1331.194, 476.7539
1332.263, 484.4751
1333.331, 454.7690
1334.399, 422.4124
1335.467, 463.3013
1336.535, 451.7227
1337.603, 503.1648
1338.671, 492.8965
1339.739, 515.3755
1340.806, 552.0845
1341.874, 489.7917
