##NAMES=Diopside
##RRUFFID=R040009
##IDEAL CHEMISTRY=CaMgSi_2_O_6_
##LOCALITY=Otter Lake, Quebec, Canada
##OWNER=RRUFF
##SOURCE=University of Arizona Mineral Museum
##DESCRIPTION=Green square prismatic crystal associated with pale orange calcite
##STATUS=The identification of this mineral has been confirmed by X-ray diffraction and chemical analysis
##URL=rruff.info/R040009
##MEASURED CHEMISTRY=(Ca_0.97_Fe_0.02_Na_0.01_)_Σ=1_(Mg_0.97_Fe_0.02_Al_0.01_)_Σ=1_Si_2.00_O_6_; trace amounts of Mn and Ti
##PIN_ID=M00056
##ORIENTATION=Laser parallel to -c [0 0 -1]. Fiducial mark perpendicular to laser is parallel to b* (0 1 0)
85.009, 0.000
86.404, 34.167
87.798, 23.695
89.193, 64.385
90.587, 54.390
91.981, 88.765
93.375, 91.375
94.768, 72.495
96.161, 44.615
97.554, 62.371
98.947, 80.501
100.340, 57.800
101.732, 49.140
103.124, 76.342
104.516, 75.303
105.908, 135.934
107.300, 200.163
108.691, 328.934
110.082, 236.217
111.473, 324.962
112.864, 286.120
114.254, 348.648
115.644, 304.524
117.034, 213.099
118.424, 64.554
119.813, 107.272
121.203, 79.237
122.592, 105.431
123.981, 55.841
125.369, 8.451
126.758, 83.251
128.146, 61.223
129.534, 144.351
130.922, 144.633
132.309, 118.327
133.696, 116.173
135.083, 227.164
136.470, 214.246
137.857, 188.415
139.243, 209.667
140.630, 161.002
142.016, 135.088
143.401, 71.902
144.787, 45.639
146.172, 42.268
147.557, 11.028
148.942, 6.847
150.327, 50.711
151.711, 32.657
153.096, 54.678
154.480, 78.771
155.863, 77.935
157.247, 113.166
158.630, 118.460
160.013, 192.817
161.396, 351.233
162.779, 424.707
164.161, 358.236
165.544, 347.817
166.926, 208.450
168.308, 135.111
169.689, 10.750
171.070, 119.380
172.452, 52.013
173.833, 91.676
175.213, 97.353
176.594, 93.575
177.974, 235.249
179.354, 303.844
180.734, 210.467
182.114, 182.459
183.493, 171.151
184.872, 180.907
186.251, 263.706
187.630, 281.535
189.008, 452.396
190.387, 715.287
191.765, 843.208
193.143, 937.160
194.520, 885.142
195.898, 671.153
197.275, 538.194
198.652, 314.265
200.029, 213.363
201.405, 30.489
202.782, 7.354
204.158, 2.829
205.534, 79.044
206.909, 45.328
208.285, 4.689
209.660, 112.152
211.035, 4.242
212.410, 60.498
213.784, 37.286
215.159, 98.091
216.533, 86.910
217.907, 167.744
219.281, 139.591
220.654, 206.453
222.027, 392.328
223.400, 462.217
224.773, 723.120
226.146, 891.036
227.518, 1013.965
228.891, 1101.906
230.263, 1040.861
231.634, 984.828
233.006, 776.807
234.377, 727.798
235.748, 523.802
237.119, 415.817
238.490, 371.843
239.860, 248.880
241.231, 231.928
242.601, 174.987
243.970, 185.055
245.340, 273.134
246.709, 288.224
248.079, 403.322
249.448, 466.430
250.816, 610.297
252.185, 678.474
253.553, 711.867
254.921, 674.426
256.289, 433.123
257.657, 369.938
259.024, 234.855
260.391, 220.107
261.758, 56.204
263.125, 81.375
264.492, 5.613
265.858, 30.914
267.224, 18.729
268.590, 72.318
269.956, 100.867
271.321, 82.619
272.687, 8.162
274.052, 21.748
275.416, 30.372
276.781, 41.965
278.146, 45.249
279.510, 40.975
280.874, 2.376
282.237, 75.179
283.601, 91.475
284.964, 49.602
286.327, 120.490
287.690, 99.406
289.053, 77.401
290.416, 299.366
291.778, 186.354
293.140, 302.365
294.502, 394.397
295.863, 564.451
297.225, 730.523
298.586, 839.613
299.947, 991.401
301.308, 1128.844
302.668, 1217.985
304.029, 1298.142
305.389, 1346.314
306.749, 1521.502
308.108, 1819.704
309.468, 2025.921
310.827, 2436.151
312.186, 2538.319
313.545, 2672.576
314.903, 2869.848
316.262, 3253.132
317.620, 3883.429
318.978, 4669.736
320.336, 5537.056
321.693, 6174.387
323.051, 6365.729
324.408, 5781.758
325.765, 5099.201
327.121, 3976.345
328.478, 3154.730
329.834, 2482.244
331.190, 1957.889
332.546, 1466.890
333.902, 1267.144
335.257, 1030.661
336.612, 884.410
337.967, 804.923
339.322, 721.802
340.677, 649.535
342.031, 629.965
343.385, 679.403
344.739, 761.850
346.093, 841.289
347.446, 977.735
348.799, 1307.189
350.153, 1681.650
351.505, 2207.119
352.858, 2647.594
354.210, 3089.075
355.563, 3268.563
356.915, 3085.059
358.267, 2678.559
359.618, 2129.065
360.969, 1877.578
362.321, 1482.096
363.672, 1221.620
365.022, 1104.148
366.373, 867.618
367.723, 845.157
369.073, 798.701
370.423, 730.248
371.773, 713.800
373.122, 695.355
374.471, 746.907
375.821, 872.438
377.169, 976.000
378.518, 1139.563
379.866, 1423.129
381.215, 1846.695
382.563, 2247.264
383.910, 2989.833
385.258, 3949.403
386.605, 4927.973
387.952, 5626.544
389.299, 6120.117
390.646, 6129.690
391.992, 5540.262
393.339, 4782.836
394.685, 4084.410
396.031, 3355.985
397.376, 2480.559
398.722, 1934.133
400.067, 1398.708
401.412, 1043.284
402.757, 875.867
404.101, 620.452
405.446, 459.036
406.790, 417.619
408.134, 316.203
409.478, 263.789
410.821, 241.376
412.165, 94.962
413.508, 212.568
414.851, 180.184
416.193, 56.808
417.536, 119.441
418.878, 77.082
420.220, 52.729
421.562, 13.618
422.904, 29.634
424.245, 79.287
425.586, 68.942
426.927, 112.637
428.268, 53.305
429.609, 66.730
430.949, 52.538
432.289, 49.435
433.629, 61.205
434.969, 74.162
436.309, 63.962
437.648, 72.971
438.987, 16.993
440.326, 36.922
441.665, 38.584
443.003, 61.252
444.342, 21.515
445.680, 18.423
447.018, 55.089
448.355, 47.048
449.693, 17.044
451.030, 22.717
452.367, 55.517
453.704, 47.542
455.041, 71.335
456.377, 143.047
457.713, 196.756
459.049, 307.486
460.385, 416.211
461.721, 526.934
463.056, 551.654
464.391, 444.371
465.726, 557.083
467.061, 458.792
468.395, 288.499
469.730, 320.202
471.064, 55.904
472.398, 160.606
473.731, 50.305
475.065, 30.023
476.398, 70.738
477.731, 295.448
479.064, 320.166
480.397, 293.880
481.729, 365.597
483.062, 91.310
484.394, 9.043
485.725, 1.771
487.057, 42.491
488.389, 56.219
489.720, 63.077
491.051, 16.423
492.382, 37.796
493.712, 57.208
495.043, 108.671
496.373, 80.014
497.703, 35.190
499.032, 17.415
500.362, 26.949
501.691, 93.305
503.020, 52.653
504.349, 142.994
505.678, 211.334
507.007, 268.667
508.335, 331.993
509.663, 263.311
510.991, 345.622
512.319, 312.925
513.646, 370.230
514.973, 262.529
516.300, 363.823
517.627, 357.108
518.954, 111.384
520.280, 220.649
521.607, 178.910
522.933, 251.161
524.259, 330.401
525.584, 238.630
526.910, 413.848
528.235, 335.054
529.560, 382.249
530.885, 341.428
532.209, 276.595
533.534, 285.750
534.858, 295.890
536.182, 201.016
537.506, 195.125
538.829, 256.220
540.152, 137.299
541.476, 223.362
542.799, 114.409
544.121, 324.440
545.444, 198.455
546.766, 407.453
548.088, 373.435
549.410, 664.400
550.732, 810.349
552.053, 1043.429
553.375, 1532.344
554.696, 1920.256
556.017, 2519.135
557.337, 2826.231
558.658, 2798.289
559.978, 2339.744
561.298, 1777.011
562.618, 1299.335
563.938, 924.319
565.257, 703.252
566.576, 454.490
567.895, 422.982
569.214, 438.140
570.533, 354.011
571.851, 210.151
573.170, 343.548
574.488, 227.785
575.805, 139.159
577.123, 164.439
578.440, 139.668
579.758, 267.930
581.075, 11.800
582.391, 194.988
583.708, 155.852
585.024, 132.924
586.341, 154.112
587.657, 113.160
588.972, 148.948
590.288, 66.847
591.603, 11.867
592.918, 84.326
594.233, 123.287
595.548, 74.985
596.863, 22.153
598.177, 18.168
599.491, 12.060
600.805, 111.708
602.119, 45.058
603.432, 91.552
604.746, 181.479
606.059, 93.673
607.372, 86.956
608.685, 167.812
609.997, 143.775
611.309, 90.408
612.621, 157.901
613.933, 206.565
615.245, 282.988
616.557, 355.600
617.868, 343.875
619.179, 384.444
620.490, 411.485
621.801, 469.156
623.111, 416.253
624.421, 537.710
625.731, 451.102
627.041, 682.708
628.351, 532.431
629.660, 528.691
630.970, 684.729
632.279, 649.828
633.588, 738.041
634.896, 704.332
636.205, 871.265
637.513, 914.656
638.821, 1003.637
640.129, 1204.880
641.437, 1335.142
642.744, 1403.917
644.051, 1549.018
645.358, 1826.639
646.665, 1994.714
647.972, 2267.670
649.278, 2629.216
650.584, 3088.424
651.890, 3817.082
653.196, 4296.882
654.502, 5437.291
655.807, 6338.705
657.113, 8314.892
658.418, 10873.562
659.722, 13612.349
661.027, 17361.232
662.331, 21589.109
663.636, 25495.102
664.940, 27569.643
666.244, 27988.338
667.547, 25258.322
668.851, 21972.713
670.154, 17426.639
671.457, 13477.672
672.760, 10755.941
674.062, 8236.456
675.365, 6476.537
676.667, 5101.799
677.969, 4157.984
679.271, 3409.369
680.572, 2837.387
681.874, 2489.416
683.175, 2193.240
684.476, 1792.104
685.777, 1545.951
687.077, 1266.140
688.378, 1254.683
689.678, 1101.464
690.978, 1003.546
692.278, 659.673
693.577, 927.687
694.877, 605.669
696.176, 723.614
697.475, 603.527
698.774, 529.407
700.072, 610.252
701.371, 466.063
702.669, 387.841
703.967, 518.585
705.265, 450.294
706.562, 386.970
707.860, 202.611
709.157, 377.217
710.454, 235.789
711.751, 331.326
713.047, 184.830
714.344, 190.297
715.640, 91.729
716.936, 17.121
718.232, 115.474
719.527, 192.890
720.823, 201.201
722.118, 124.709
723.413, 60.167
724.708, 136.321
726.002, 200.438
727.297, 4.077
728.591, 67.024
729.885, 101.394
731.179, 64.729
732.472, 83.381
733.766, 91.963
735.059, 79.811
736.352, 111.131
737.645, 84.445
738.937, 157.152
740.230, 103.133
741.522, 4.735
742.814, 99.503
744.106, 157.291
745.397, 127.792
746.689, 32.917
747.980, 41.247
749.271, 91.398
750.562, 148.621
751.853, 30.812
753.143, 55.805
754.433, 6.414
755.723, 5.904
757.013, 7.767
758.303, 22.142
759.592, 2.695
760.881, 7.357
762.170, 7.273
763.459, 31.245
764.748, 53.544
766.036, 86.102
767.325, 79.391
768.613, 66.290
769.901, 117.872
771.188, 67.586
772.476, 140.871
773.763, 64.571
775.050, 162.137
776.337, 50.608
777.624, 158.907
778.910, 66.170
780.196, 75.853
781.482, 18.212
782.768, 3.351
784.054, 6.107
785.339, 134.935
786.625, 84.809
787.910, 79.406
789.195, 54.281
790.479, 36.884
791.764, 16.339
793.048, 23.375
794.332, 38.814
795.616, 93.330
796.900, 17.604
798.183, 93.850
799.467, 34.430
800.750, 42.950
802.033, 35.292
803.316, 96.621
804.598, 94.474
805.880, 145.208
807.163, 50.479
808.445, 83.749
809.726, 10.989
811.008, 95.228
812.289, 8.421
813.570, 37.579
814.851, 6.699
816.132, 22.217
817.413, 5.178
818.693, 67.835
819.973, 22.857
821.253, 8.145
822.533, 80.813
823.813, 44.258
825.092, 12.393
826.371, 18.567
827.650, 21.211
828.929, 116.951
830.208, 66.657
831.486, 20.674
832.764, 21.950
834.042, 101.538
835.320, 91.095
836.598, 132.613
837.875, 115.102
839.152, 111.555
840.429, 260.975
841.706, 168.368
842.983, 103.733
844.259, 292.066
845.536, 244.371
846.812, 326.646
848.088, 361.894
849.363, 733.111
850.639, 995.302
851.914, 1150.473
853.189, 1339.616
854.464, 1370.284
855.739, 1316.887
857.013, 1313.932
858.288, 1042.991
859.562, 907.023
860.836, 746.029
862.110, 536.857
863.383, 665.809
864.656, 503.719
865.930, 436.617
867.203, 391.255
868.475, 409.899
869.748, 286.102
871.020, 264.447
872.292, 240.690
873.564, 257.230
874.836, 201.778
876.108, 204.973
877.379, 296.864
878.650, 294.041
879.922, 171.472
881.192, 248.585
882.463, 175.398
883.733, 174.322
885.004, 89.059
886.274, 96.268
887.544, 262.621
888.813, 140.326
890.083, 228.128
891.352, 346.830
892.621, 195.817
893.890, 268.563
895.159, 225.164
896.427, 179.859
897.695, 347.767
898.964, 290.530
900.232, 364.867
901.499, 261.237
902.767, 308.787
904.034, 222.546
905.301, 314.779
906.568, 323.100
907.835, 280.014
909.102, 280.972
910.368, 310.798
911.634, 417.716
912.900, 183.844
914.166, 324.661
915.432, 170.334
916.697, 180.320
917.962, 357.199
919.227, 237.350
920.492, 230.589
921.757, 271.599
923.021, 317.793
924.285, 364.742
925.550, 194.973
926.813, 217.863
928.077, 232.130
929.341, 329.897
930.604, 387.090
931.867, 154.883
933.130, 222.679
934.393, 327.199
935.655, 159.543
936.918, 378.291
938.180, 207.200
939.442, 191.098
940.703, 276.364
941.965, 296.011
943.226, 155.944
944.488, 132.404
945.749, 141.191
947.009, 212.668
948.270, 217.832
949.530, 198.618
950.791, 322.527
952.051, 257.706
953.311, 261.181
954.570, 403.550
955.830, 298.905
957.089, 425.474
958.348, 435.847
959.607, 458.997
960.866, 443.268
962.124, 311.539
963.383, 445.090
964.641, 451.960
965.899, 572.814
967.156, 601.087
968.414, 563.482
969.671, 658.624
970.928, 587.859
972.185, 670.583
973.442, 693.614
974.699, 822.263
975.955, 774.231
977.211, 774.400
978.468, 1026.749
979.723, 917.571
980.979, 1029.298
982.234, 1372.764
983.490, 995.467
984.745, 1202.300
986.000, 1369.747
987.254, 1195.585
988.509, 1526.309
989.763, 1722.342
991.017, 1927.595
992.271, 2126.314
993.525, 2391.137
994.779, 2821.191
996.032, 3146.463
997.285, 3789.615
998.538, 4239.602
999.791, 5394.656
1001.044, 6092.008
1002.296, 7637.791
1003.548, 9317.646
1004.800, 11707.903
1006.052, 15248.150
1007.304, 20291.197
1008.555, 27327.039
1009.807, 35592.129
1011.058, 44035.133
1012.309, 48616.395
1013.559, 46289.348
1014.810, 38738.605
1016.060, 30300.734
1017.310, 22546.771
1018.560, 16412.709
1019.810, 12421.527
1021.060, 9490.448
1022.309, 7516.001
1023.558, 6265.746
1024.807, 4931.523
1026.056, 4463.023
1027.305, 3959.692
1028.553, 3743.756
1029.801, 3262.445
1031.049, 3178.250
1032.297, 3071.621
1033.545, 3178.581
1034.793, 3108.858
1036.040, 3221.688
1037.287, 3573.839
1038.534, 3739.478
1039.781, 4152.210
1041.027, 4455.238
1042.274, 5237.596
1043.520, 6326.748
1044.766, 7060.984
1046.012, 7891.199
1047.257, 8258.449
1048.503, 8150.168
1049.748, 6838.672
1050.993, 5956.981
1052.238, 4764.131
1053.483, 3719.533
1054.727, 2956.351
1055.971, 2642.417
1057.216, 2109.939
1058.459, 1888.800
1059.703, 1613.338
1060.947, 1391.648
1062.190, 1216.603
1063.433, 1207.436
1064.676, 997.248
1065.919, 765.112
1067.162, 1024.405
1068.404, 717.862
1069.646, 695.979
1070.888, 787.016
1072.130, 628.519
1073.372, 582.214
1074.613, 686.030
1075.855, 500.629
1077.096, 497.473
1078.337, 627.222
1079.578, 605.637
1080.818, 561.970
1082.059, 503.725
1083.299, 536.996
1084.539, 430.085
1085.779, 515.181
1087.018, 463.783
1088.258, 406.637
1089.497, 277.504
1090.736, 393.812
1091.975, 159.601
1093.213, 148.857
1094.452, 408.674
1095.690, 138.262
1096.928, 209.659
1098.166, 241.895
1099.404, 265.111
1100.642, 136.244
1101.879, 130.578
1103.116, 141.347
1104.353, 199.854
1105.590, 141.601
1106.827, 232.520
1108.063, 184.750
1109.299, 182.959
1110.536, 228.905
1111.771, 123.301
1113.007, 191.940
1114.243, 221.347
1115.478, 100.650
1116.713, 60.621
1117.948, 58.903
1119.183, 163.530
1120.418, 46.883
1121.652, 80.178
1122.886, 59.385
1124.120, 318.835
1125.354, 230.174
1126.588, 354.521
1127.821, 166.604
1129.055, 280.583
1130.288, 284.744
1131.521, 231.318
1132.753, 137.206
1133.986, 67.902
1135.218, 430.151
1136.450, 44.608
1137.682, 396.337
1138.914, 94.626
1140.146, 128.295
1141.377, 42.761
1142.609, 113.109
1143.840, 212.241
1145.071, 212.394
1146.301, 270.797
1147.532, 245.440
1148.762, 166.653
1149.992, 10.675
1151.222, 60.882
1152.452, 160.143
1153.682, 69.374
1154.911, 189.906
1156.140, 47.473
1157.369, 168.534
1158.598, 179.914
1159.827, 109.584
1161.055, 171.312
1162.284, 99.654
1163.512, 116.232
1164.740, 125.791
1165.967, 32.108
1167.195, 166.269
1168.422, 138.125
1169.650, 213.531
1170.877, 17.105
1172.103, 128.229
1173.330, 128.267
1174.557, 317.012
1175.783, 273.872
1177.009, 28.533
1178.235, 214.705
1179.461, 27.025
1180.686, 158.429
1181.912, 307.591
1183.137, 108.072
1184.362, 67.331
1185.587, 86.300
1186.811, 127.068
1188.036, 88.078
1189.260, 11.359
1190.484, 29.545
1191.708, 58.436
1192.932, 80.072
1194.155, 48.566
1195.378, 3.768
1196.602, 186.287
1197.825, 63.822
1199.047, 229.148
1200.270, 164.064
1201.492, 237.615
1202.715, 63.223
1203.937, 326.668
1205.159, 231.891
1206.380, 294.012
1207.602, 125.070
1208.823, 164.820
1210.044, 329.402
1211.265, 167.523
1212.486, 276.734
1213.707, 165.791
1214.927, 205.053
1216.147, 79.760
1217.367, 242.240
1218.587, 154.543
1219.807, 319.633
1221.027, 101.539
1222.246, 5.830
1223.465, 186.613
1224.684, 202.875
1225.903, 110.959
1227.121, 33.145
1228.340, 300.639
1229.558, 224.143
1230.776, 290.461
1231.994, 55.682
1233.212, 366.617
1234.429, 224.783
1235.646, 194.340
1236.864, 377.553
1238.081, 87.213
1239.297, 240.027
1240.514, 296.596
1241.730, 137.062
1242.947, 198.807
1244.163, 83.045
1245.378, 71.201
1246.594, 254.301
1247.810, 15.621
1249.025, 291.807
1250.240, 133.754
1251.455, 91.994
1252.670, 177.553
1253.885, 127.299
1255.099, 116.639
1256.313, 8.760
1257.527, 0.758
1258.741, 144.479
1259.955, 13.854
1261.168, 99.910
1262.382, 71.535
1263.595, 32.713
1264.808, 28.391
1266.021, 49.580
1267.233, 18.215
1268.446, 173.918
1269.658, 35.729
1270.870, 126.443
1272.082, 110.482
1273.294, 127.791
1274.505, 4.080
1275.716, 94.949
1276.928, 52.904
1278.139, 111.844
1279.349, 38.312
1280.560, 62.676
1281.770, 44.285
1282.981, 3.004
1284.191, 46.342
1285.401, 1.957
1286.610, 94.758
1287.820, 91.510
1289.029, 106.564
1290.239, 245.908
1291.448, 33.158
1292.656, 132.352
1293.865, 64.389
1295.073, 261.699
1296.282, 261.439
1297.490, 126.346
1298.698, 223.416
1299.906, 240.443
1301.113, 19.951
1302.320, 9.842
1303.528, 161.436
1304.735, 99.227
1305.942, 68.271
1307.148, 272.414
1308.355, 19.338
1309.561, 384.510
1310.767, 25.156
1311.973, 21.035
1313.179, 14.221
1314.384, 303.803
1315.590, 235.939
1316.795, 313.504
1318.000, 121.377
1319.205, 344.074
1320.410, 287.332
1321.614, 126.320
1322.819, 364.387
1324.023, 302.713
1325.227, 511.828
1326.431, 277.234
1327.634, 68.240
1328.838, 192.742
1330.041, 231.090
1331.244, 491.568
1332.447, 189.279
1333.650, 414.797
1334.852, 357.066
1336.055, 235.688
1337.257, 362.682
1338.459, 119.619
1339.661, 459.252
1340.862, 295.301
1342.064, 364.002
1343.265, 362.096
1344.466, 485.607
1345.667, 231.852
1346.868, 504.141
1348.068, 466.756
1349.269, 183.352
1350.469, 406.260
1351.669, 363.834
1352.869, 437.643
1354.069, 433.629
1355.268, 193.002
1356.468, 568.998
1357.667, 509.436
1358.866, 268.992
1360.065, 515.969
1361.263, 112.930
1362.462, 362.275
1363.660, 502.832
1364.858, 454.578
1366.056, 296.023
1367.254, 402.314
1368.451, 355.908
1369.649, 310.795
1370.846, 350.699
1372.043, 248.645
1373.240, 367.156
1374.436, 251.500
1375.633, 225.430
1376.829, 269.152
1378.025, 135.592
1379.221, 198.562
1380.417, 99.193
1381.613, 64.941
1382.808, 352.934
1384.003, 203.590
1385.199, 293.133
1386.393, 34.016
1387.588, 395.266
1388.783, 11.477
1389.977, 159.252
1391.171, 192.941
1392.365, 136.057
1393.559, 284.383
1394.753, 90.463
1395.946, 284.816
1397.140, 192.033
1398.333, 247.812
1399.526, 216.699
1400.719, 70.602
1401.911, 252.646
1403.104, 123.158
1404.296, 84.602
1405.488, 206.166
1406.680, 29.465
1407.872, 158.912
1409.063, 275.818
1410.255, 1.934
1411.446, 190.961
1412.637, 217.309
1413.828, 0.873
1415.018, 131.684
1416.209, 180.621
1417.399, 0.000
##END=



