##NAMES=Diopside
##RRUFFID=R050406
##IDEAL CHEMISTRY=CaMgSi_2_O_6_
##LOCALITY=unknown
##OWNER=RRUFF
##SOURCE=University of Arizona Mineral Museum
##DESCRIPTION=Brownish gray massive
##STATUS=The identification of this mineral has been confirmed by X-ray diffraction and chemical analysis
##URL=rruff.info/R050406
##MEASURED CHEMISTRY=(Ca_0.95_Na_0.05_)(Mg_0.75_Fe^2+^_0.18_Fe^3+^_0.05_Al_0.01_Ti_0.01_Mn^2+^_0.01_)(Si_0.98_Al_0.02_)_2_O_6_
##PIN_ID=M00407
##ORIENTATION=Laser parallel to a* (1 0 0). Fiducial mark perpendicular to laser is parallel to b [0 1 0]
116.9030, 0.0000000E+00
118.1340, 96.47070
119.3650, 11.34668
120.5960, 179.4092
121.8270, 595.2236
123.0580, 1258.289
124.2880, 1650.992
125.5190, 2389.710
126.7490, 3507.878
127.9790, 5231.860
129.2090, 7084.268
130.4390, 9530.624
131.6680, 12733.50
132.8980, 16860.49
134.1270, 21575.25
135.3560, 25394.52
136.5850, 26428.98
137.8140, 24088.09
139.0430, 20215.83
140.2710, 15380.75
141.5000, 11674.97
142.7280, 8392.200
143.9560, 6117.209
145.1840, 4414.822
146.4120, 3088.902
147.6390, 2179.341
148.8670, 1402.053
150.0940, 983.9678
151.3210, 724.0342
152.5490, 439.2041
153.7750, 178.3145
155.0020, 46.13477
156.2290, 61.76367
157.4550, 107.0869
158.6810, 73.57910
159.9080, 3.912109
161.1340, 114.7930
162.3590, 163.6299
163.5850, 279.6807
164.8110, 296.0205
166.0360, 147.7090
167.2610, 48.80176
168.4860, 105.3447
169.7110, 149.3838
170.9360, 229.9561
172.1610, 125.0977
173.3850, 343.8379
174.6100, 321.2041
175.8340, 560.2197
177.0580, 658.9033
178.2820, 604.2754
179.5050, 584.3545
180.7290, 602.1543
181.9520, 294.6895
183.1760, 297.9756
184.3990, 199.0254
185.6220, 399.8496
186.8450, 369.4619
188.0670, 360.8711
189.2900, 355.5469
190.5120, 526.6416
191.7340, 488.3232
192.9560, 761.1660
194.1780, 801.9150
195.4000, 769.1465
196.6220, 823.9043
197.8430, 867.7666
199.0640, 996.7188
200.2860, 949.2920
201.5070, 858.1270
202.7270, 903.3643
203.9480, 593.7373
205.1690, 508.2461
206.3890, 446.8936
207.6090, 365.6670
208.8290, 409.5830
210.0490, 441.6592
211.2690, 320.8223
212.4890, 591.0557
213.7080, 563.3584
214.9280, 724.7295
216.1470, 747.1641
217.3660, 835.6543
218.5850, 936.1973
219.8030, 945.7920
221.0220, 1011.436
222.2400, 1039.123
223.4590, 1049.855
224.6770, 1208.629
225.8950, 1174.443
227.1120, 1116.292
228.3300, 1243.165
229.5480, 1121.042
230.7650, 1133.913
231.9820, 1004.773
233.1990, 1034.618
234.4160, 766.4531
235.6330, 851.2744
236.8490, 636.0820
238.0660, 540.8760
239.2820, 681.6562
240.4980, 633.4238
241.7140, 506.1758
242.9300, 563.9160
244.1460, 592.6426
245.3610, 675.3574
246.5770, 647.0576
247.7920, 607.7451
249.0070, 693.4209
250.2220, 724.0830
251.4370, 600.7305
252.6510, 558.3662
253.8660, 321.9883
255.0800, 404.5977
256.2940, 383.1934
257.5080, 771.7764
258.7220, 481.5254
259.9360, 558.9043
261.1490, 102.4492
262.3630, 18.02832
263.5760, 123.8252
264.7890, 220.2549
266.0020, 233.7715
267.2150, 184.9492
268.4270, 216.0312
269.6400, 236.9053
270.8520, 222.6367
272.0640, 197.2676
273.2760, 189.8281
274.4880, 199.3652
275.7000, 93.89746
276.9120, 21.41211
278.1230, 62.90234
279.3340, 57.61035
280.5450, 6.146484
281.7560, 64.68652
282.9670, 76.18848
284.1780, 296.5986
285.3880, 202.9561
286.5980, 491.8037
287.8090, 564.5723
289.0190, 658.5469
290.2290, 881.4434
291.4380, 1102.682
292.6480, 1100.615
293.8570, 1249.065
295.0670, 1680.168
296.2760, 1780.582
297.4850, 1995.127
298.6930, 2258.640
299.9020, 2395.574
301.1110, 2578.508
302.3190, 2961.488
303.5270, 3314.020
304.7350, 3832.783
305.9430, 4189.014
307.1510, 4879.816
308.3580, 5644.552
309.5660, 6754.409
310.7730, 7532.199
311.9800, 8874.296
313.1870, 10336.83
314.3940, 11701.38
315.6010, 13484.89
316.8070, 15107.38
318.0130, 16261.86
319.2200, 17042.29
320.4260, 17389.72
321.6310, 17104.16
322.8370, 16485.59
324.0430, 15466.01
325.2480, 14299.39
326.4540, 13230.74
327.6590, 11696.05
328.8640, 10703.33
330.0680, 9643.752
331.2730, 8876.050
332.4780, 8110.306
333.6820, 7356.531
334.8860, 6794.688
336.0900, 6428.716
337.2940, 6081.229
338.4980, 5825.695
339.7010, 5675.521
340.9050, 5582.457
342.1080, 5606.492
343.3110, 5688.599
344.5140, 5914.911
345.7170, 6225.877
346.9200, 6570.838
348.1220, 6922.892
349.3240, 7191.926
350.5270, 7711.135
351.7290, 7988.188
352.9310, 8269.133
354.1320, 8307.073
355.3340, 8390.009
356.5350, 8198.936
357.7370, 8008.859
358.9380, 7851.772
360.1390, 7552.682
361.3400, 7456.580
362.5400, 7143.471
363.7410, 6839.355
364.9410, 6827.228
366.1410, 6712.094
367.3410, 6747.948
368.5410, 6549.796
369.7410, 6571.633
370.9400, 6863.460
372.1400, 6987.277
373.3390, 7485.083
374.5380, 7944.879
375.7370, 8696.665
376.9360, 9855.438
378.1350, 11337.20
379.3330, 12375.96
380.5310, 14218.71
381.7300, 15865.44
382.9280, 17723.16
384.1260, 19207.88
385.3230, 20293.58
386.5210, 20176.28
387.7180, 19539.96
388.9160, 18102.63
390.1130, 16290.29
391.3100, 14134.95
392.5060, 12090.59
393.7030, 10024.22
394.9000, 8558.847
396.0960, 7033.459
397.2920, 5888.059
398.4880, 4812.650
399.6840, 3904.230
400.8800, 3356.801
402.0750, 2868.359
403.2710, 2476.909
404.4660, 2152.527
405.6610, 1803.251
406.8560, 1719.430
408.0510, 1423.946
409.2450, 1343.393
410.4400, 1131.979
411.6340, 1135.584
412.8280, 913.1855
414.0220, 706.4219
415.2160, 820.4912
416.4100, 682.0918
417.6030, 666.0957
418.7970, 613.4385
419.9900, 532.7197
421.1830, 393.7275
422.3760, 394.4482
423.5690, 352.0430
424.7610, 243.9727
425.9540, 248.7266
427.1460, 171.2900
428.3380, 200.0312
429.5300, 69.77246
430.7220, 88.91016
431.9140, 47.02344
433.1050, 55.11133
434.2970, 15.17188
435.4880, 47.20508
436.6790, 0.7880860
437.8700, 22.18555
439.0610, 23.13184
440.2510, 12.04980
441.4420, 26.06152
442.6320, 30.78320
443.8220, 24.81152
445.0120, 141.6084
446.2020, 79.53125
447.3910, 44.55566
448.5810, 79.24316
449.7700, 253.7988
450.9600, 203.0518
452.1490, 144.1523
453.3370, 146.8252
454.5260, 60.32715
455.7150, 257.1660
456.9030, 410.9229
458.0910, 269.5205
459.2800, 230.5039
460.4670, 306.6426
461.6550, 247.9854
462.8430, 343.7754
464.0300, 396.7695
465.2180, 266.6641
466.4050, 268.2812
467.5920, 277.3525
468.7790, 262.3389
469.9650, 288.8037
471.1520, 242.7236
472.3380, 198.6143
473.5250, 219.0811
474.7110, 220.9678
475.8970, 220.2607
477.0820, 224.7207
478.2680, 202.9893
479.4540, 349.2549
480.6390, 168.5127
481.8240, 356.7568
483.0090, 435.0195
484.1940, 188.2959
485.3780, 262.5791
486.5630, 165.8711
487.7470, 325.1719
488.9320, 342.4590
490.1160, 211.7529
491.3000, 216.0352
492.4830, 173.3076
493.6670, 209.5908
494.8500, 327.8574
496.0340, 461.1084
497.2170, 322.3438
498.4000, 492.5801
499.5820, 581.8047
500.7650, 827.0146
501.9480, 911.2178
503.1300, 974.4082
504.3120, 1022.587
505.4940, 1077.330
506.6760, 1133.067
507.8580, 1171.043
509.0390, 1256.171
510.2210, 1331.311
511.4020, 1426.476
512.5830, 1422.623
513.7640, 1473.764
514.9450, 1473.893
516.1250, 1667.006
517.3060, 1434.136
518.4860, 1670.289
519.6660, 1586.431
520.8460, 1774.562
522.0260, 1858.692
523.2060, 1787.806
524.3850, 2061.905
525.5650, 1950.997
526.7440, 1999.070
527.9230, 2130.137
529.1020, 2192.212
530.2810, 2038.287
531.4590, 2146.348
532.6380, 2040.389
533.8160, 1952.410
534.9940, 1919.412
536.1720, 1798.392
537.3500, 1947.352
538.5270, 1937.294
539.7050, 1831.227
540.8820, 1949.136
542.0590, 1804.034
543.2360, 1685.910
544.4130, 1618.777
545.5900, 1590.082
546.7660, 1658.445
547.9430, 1648.254
549.1190, 1588.074
550.2950, 1690.934
551.4710, 1640.855
552.6470, 1679.846
553.8220, 1532.889
554.9980, 1667.997
556.1730, 1518.172
557.3480, 1560.411
558.5230, 1781.708
559.6980, 1653.061
560.8730, 1617.473
562.0470, 1453.915
563.2220, 1378.369
564.3960, 1265.847
565.5700, 1288.316
566.7440, 1387.791
567.9170, 1383.258
569.0910, 1369.653
570.2640, 1270.085
571.4380, 1301.010
572.6110, 1081.988
573.7840, 1074.730
574.9570, 1001.519
576.1290, 1078.927
577.3020, 857.6025
578.4740, 789.7168
579.6460, 671.1367
580.8180, 572.5420
581.9900, 477.8076
583.1620, 385.6602
584.3330, 284.2598
585.5040, 263.6865
586.6760, 139.7637
587.8470, 165.3740
589.0180, 243.4258
590.1880, 56.98438
591.3590, 99.40137
592.5290, 10.30957
593.7000, 40.81836
594.8700, 56.89746
596.0400, 21.80957
597.2090, 179.0371
598.3790, 64.89062
599.5490, 55.08398
600.7180, 72.82910
601.8870, 3.757813
603.0560, 114.6855
604.2250, 117.9873
605.3940, 100.5674
606.5620, 79.44141
607.7300, 79.63867
608.8990, 93.29688
610.0670, 109.1172
611.2350, 28.61133
612.4020, 144.6211
613.5700, 221.9648
614.7370, 153.9150
615.9050, 277.2939
617.0720, 235.9170
618.2390, 327.9863
619.4060, 429.7793
620.5720, 541.3262
621.7390, 612.1562
622.9050, 554.4141
624.0710, 851.7031
625.2370, 877.5723
626.4030, 958.3369
627.5690, 844.8291
628.7340, 1187.564
629.9000, 1258.497
631.0650, 1369.744
632.2300, 1526.105
633.3950, 1599.545
634.5600, 1682.608
635.7240, 1938.094
636.8890, 2064.191
638.0530, 2354.434
639.2170, 2739.243
640.3810, 2763.700
641.5450, 3240.667
642.7080, 3548.148
643.8720, 3989.317
645.0350, 4410.370
646.1980, 5052.478
647.3610, 5877.979
648.5240, 7034.729
649.6870, 7794.899
650.8490, 9276.887
652.0120, 11020.53
653.1740, 13334.23
654.3360, 15857.41
655.4980, 19243.19
656.6600, 23745.21
657.8210, 27999.81
658.9830, 33385.75
660.1440, 38705.86
661.3050, 43975.26
662.4660, 47735.87
663.6270, 49199.26
664.7870, 48852.95
665.9480, 45801.32
667.1080, 41608.21
668.2680, 36380.86
669.4280, 30758.12
670.5880, 26144.18
671.7480, 21922.22
672.9070, 18385.59
674.0670, 15272.51
675.2260, 12765.39
676.3850, 10661.22
677.5440, 9204.066
678.7030, 7988.707
679.8610, 6741.424
681.0200, 5895.986
682.1780, 5122.621
683.3360, 4638.020
684.4940, 4238.575
685.6520, 3578.090
686.8090, 3182.564
687.9670, 3241.000
689.1240, 2680.396
690.2810, 2542.749
691.4380, 2283.062
692.5950, 2136.335
693.7520, 2158.566
694.9080, 2017.756
696.0650, 1759.903
697.2210, 1809.009
698.3770, 1720.071
699.5330, 1583.090
700.6880, 1546.066
701.8440, 1501.000
702.9990, 1441.889
704.1550, 1406.125
705.3100, 1332.537
706.4650, 1317.295
707.6190, 1238.090
708.7740, 1182.182
709.9290, 1116.310
711.0830, 999.8955
712.2370, 941.4404
713.3910, 811.9453
714.5450, 718.4092
715.6980, 665.8340
716.8520, 761.2197
718.0050, 650.5664
719.1580, 488.8740
720.3110, 551.1445
721.4640, 388.3750
722.6170, 392.5742
723.7700, 453.7334
724.9220, 271.8555
726.0740, 408.5293
727.2260, 157.2676
728.3780, 375.2842
729.5300, 196.3691
730.6810, 217.6924
731.8330, 200.1064
732.9840, 203.8838
734.1350, 312.7686
735.2860, 37.25293
736.4370, 150.7451
737.5880, 206.3350
738.7380, 27.47656
739.8880, 206.3916
741.0390, 35.04102
742.1890, 130.1748
743.3380, 160.0430
744.4880, 2.950195
745.6380, 32.93945
746.7870, 27.56445
747.9360, 44.81641
749.0850, 4.255859
750.2340, 149.7695
751.3830, 49.25391
752.5310, 125.0205
753.6800, 45.46582
754.8280, 37.63379
755.9760, 73.01758
757.1240, 28.19922
758.2720, 7.487305
759.4190, 15.16309
760.5670, 101.2334
761.7140, 71.32910
762.8610, 53.33594
764.0080, 50.01367
765.1550, 67.77246
766.3020, 74.38281
767.4480, 41.49609
768.5950, 15.55176
769.7410, 11.56055
770.8870, 74.47461
772.0330, 209.4043
773.1780, 68.25293
774.3240, 162.0703
775.4690, 42.14062
776.6140, 11.58105
777.7590, 29.26562
778.9040, 11.08105
780.0490, 12.52441
781.1940, 1.904297
782.3380, 79.62500
783.4820, 55.12793
784.6260, 44.39844
785.7700, 222.0156
786.9140, 90.59570
788.0580, 153.2910
789.2010, 130.8994
790.3450, 24.93359
791.4880, 18.81348
792.6310, 36.26660
793.7730, 131.6787
794.9160, 142.7227
796.0590, 21.86914
797.2010, 27.05469
798.3430, 66.27930
799.4850, 4.435547
800.6270, 18.87598
801.7690, 45.21973
802.9100, 20.39062
804.0520, 53.02051
805.1930, 114.4795
806.3340, 79.01758
807.4750, 23.61230
808.6160, 30.76172
809.7560, 8.882813
810.8970, 51.44922
812.0370, 38.76270
813.1770, 30.05957
814.3170, 30.66211
815.4570, 50.41113
816.5960, 105.8047
817.7360, 52.99707
818.8750, 264.1680
820.0140, 73.68164
821.1530, 46.42480
822.2920, 267.5176
823.4310, 189.5957
824.5690, 65.66016
825.7070, 130.7109
826.8460, 211.7500
827.9840, 185.7744
829.1220, 261.7871
830.2590, 279.7881
831.3970, 174.7773
832.5340, 210.7549
833.6710, 285.7207
834.8080, 133.6777
835.9450, 224.6240
837.0820, 533.5605
838.2190, 428.4873
839.3550, 493.4062
840.4910, 658.3154
841.6270, 611.2168
842.7630, 1118.109
843.8990, 1232.996
845.0350, 1543.875
846.1700, 2116.747
847.3060, 2767.613
848.4410, 3262.474
849.5760, 4147.327
850.7100, 4837.176
851.8450, 5325.020
852.9800, 5926.859
854.1140, 6079.694
855.2480, 6037.527
856.3820, 5519.357
857.5160, 4941.182
858.6500, 4323.004
859.7830, 4188.826
860.9170, 3537.645
862.0500, 3133.293
863.1830, 2934.111
864.3160, 2447.296
865.4480, 2062.114
866.5810, 2201.482
867.7130, 1808.951
868.8460, 1876.373
869.9780, 1774.824
871.1100, 1633.674
872.2410, 1599.523
873.3730, 1460.917
874.5050, 1567.602
875.6360, 1392.789
876.7670, 1423.592
877.8980, 1507.393
879.0290, 1253.989
880.1590, 1444.799
881.2900, 1387.843
882.4200, 1483.881
883.5500, 1411.313
884.6800, 1327.560
885.8100, 1563.108
886.9400, 1394.114
888.0690, 1575.597
889.1990, 1455.539
890.3280, 1435.039
891.4570, 1457.275
892.5860, 1326.062
893.7140, 1214.033
894.8430, 1260.377
895.9710, 1509.168
897.1000, 1438.809
898.2280, 1390.409
899.3560, 1327.246
900.4830, 1268.370
901.6110, 1251.492
902.7380, 1148.652
903.8660, 1248.610
904.9930, 1264.142
906.1200, 1048.562
907.2460, 1083.727
908.3730, 1146.403
909.5000, 1015.745
910.6260, 1151.481
911.7520, 1133.059
912.8780, 1026.096
914.0040, 1166.514
915.1290, 1182.435
916.2550, 1139.849
917.3800, 1056.562
918.5050, 1161.383
919.6300, 1166.137
920.7550, 1171.499
921.8800, 1115.597
923.0040, 1048.263
924.1290, 897.0977
925.2530, 858.3008
926.3770, 691.4482
927.5010, 914.1143
928.6250, 873.1729
929.7480, 759.9766
930.8720, 753.1992
931.9950, 669.0703
933.1180, 641.7520
934.2410, 621.1279
935.3640, 529.2891
936.4860, 512.6582
937.6090, 737.7305
938.7310, 566.1445
939.8530, 520.0137
940.9750, 614.1543
942.0970, 369.6719
943.2180, 565.3789
944.3400, 486.1094
945.4610, 627.4971
946.5820, 443.3350
947.7030, 667.2119
948.8240, 575.1328
949.9450, 560.0518
951.0650, 644.1680
952.1860, 704.2168
953.3060, 718.2715
954.4260, 869.5234
955.5460, 816.8672
956.6650, 875.0449
957.7850, 1013.255
958.9040, 1129.498
960.0230, 904.7842
961.1420, 1044.123
962.2610, 1029.495
963.3800, 1317.904
964.4990, 1052.348
965.6170, 1438.827
966.7350, 1271.340
967.8530, 1382.887
968.9710, 1396.469
970.0890, 1568.089
971.2070, 1465.743
972.3240, 1464.453
973.4410, 1573.198
974.5580, 1659.979
975.6750, 1833.798
976.7920, 1687.656
977.9090, 1790.552
979.0250, 1843.480
980.1410, 1700.445
981.2580, 1980.445
982.3740, 1981.482
983.4890, 2285.586
984.6050, 2438.725
985.7200, 2439.901
986.8360, 2603.354
987.9510, 2708.163
989.0660, 2795.646
990.1810, 3028.964
991.2950, 3302.317
992.4100, 3616.707
993.5240, 4157.133
994.6390, 4677.594
995.7530, 5340.125
996.8660, 5884.691
997.9800, 6886.315
999.0940, 7994.976
1000.207, 9366.673
1001.320, 10953.42
1002.433, 12859.21
1003.546, 15609.03
1004.659, 18421.89
1005.772, 21914.79
1006.884, 26319.74
1007.996, 30637.72
1009.108, 34189.75
1010.220, 37287.82
1011.332, 38447.92
1012.444, 37709.07
1013.555, 34655.28
1014.666, 30375.50
1015.777, 25983.78
1016.888, 21286.11
1017.999, 17617.50
1019.110, 14154.93
1020.220, 11998.40
1021.331, 9762.911
1022.441, 8388.470
1023.551, 7445.062
1024.661, 6236.729
1025.770, 5691.417
1026.880, 5327.049
1027.989, 4597.706
1029.098, 4488.610
1030.207, 4175.811
1031.316, 4005.192
1032.425, 3667.306
1033.533, 3779.360
1034.642, 3687.985
1035.750, 3685.723
1036.858, 3711.773
1037.966, 3578.026
1039.073, 3437.316
1040.181, 3605.414
1041.288, 3498.799
1042.396, 3478.213
1043.503, 3410.521
1044.610, 3288.021
1045.716, 3175.222
1046.823, 3093.076
1047.929, 2839.248
1049.036, 2864.269
1050.142, 2694.951
1051.248, 2520.813
1052.353, 2514.590
1053.459, 2445.730
1054.564, 2333.580
1055.670, 2280.382
1056.775, 2195.908
1057.880, 2074.742
1058.985, 2060.130
1060.089, 1975.080
1061.194, 1901.167
1062.298, 1801.205
1063.402, 1767.305
1064.506, 1728.465
1065.610, 1741.656
1066.713, 1640.893
1067.817, 1594.155
1068.920, 1546.443
1070.023, 1439.496
1071.126, 1222.617
1072.229, 1452.207
1073.332, 1246.123
1074.435, 1247.299
1075.537, 1531.167
1076.639, 1241.025
1077.741, 1155.559
1078.843, 1185.234
1079.945, 1220.494
1081.046, 1150.936
1082.148, 1109.230
1083.249, 1014.017
1084.350, 1044.022
1085.451, 1062.802
1086.551, 1114.518
1087.652, 1018.233
1088.752, 1007.978
1089.853, 981.7363
1090.953, 937.7920
1092.053, 1118.133
1093.152, 847.6631
1094.252, 870.4795
1095.351, 730.1465
1096.451, 919.2109
1097.550, 904.2090
1098.649, 897.3301
1099.748, 835.2119
1100.846, 840.0391
1101.945, 888.1592
1103.043, 823.0752
1104.141, 863.6250
1105.239, 869.9092
1106.337, 710.8584
1107.434, 789.0146
1108.532, 801.6025
1109.629, 730.2871
1110.726, 629.2744
1111.823, 631.3574
1112.920, 666.3623
1114.017, 686.5312
1115.113, 624.0234
1116.210, 843.0518
1117.306, 834.8535
1118.402, 1023.078
1119.498, 879.1260
1120.593, 929.1807
1121.689, 1037.241
1122.784, 1068.307
1123.879, 946.3770
1124.974, 1032.453
1126.069, 947.5322
1127.164, 786.0977
1128.259, 578.2539
1129.353, 780.2490
1130.447, 694.4424
1131.541, 674.1641
1132.635, 635.4600
1133.729, 562.8428
1134.822, 532.9434
1135.916, 339.0430
1137.009, 414.1465
1138.102, 334.2490
1139.195, 396.3525
1140.288, 412.5547
1141.380, 510.9121
1142.473, 316.0781
1143.565, 401.8184
1144.657, 346.4131
1145.749, 112.5088
1146.841, 168.6035
1147.932, 254.6953
1149.024, 40.78320
1150.115, 158.8672
1151.206, 112.9482
1152.297, 58.33496
1153.388, 56.20703
1154.479, 23.02734
1155.569, 0.5517580
1156.659, 82.56348
1157.750, 72.38574
1158.839, 30.87891
1159.929, 136.8789
1161.019, 57.94922
1162.108, 58.71680
1163.198, 132.8496
1164.287, 33.94727
1165.376, 136.2656
1166.465, 37.55273
1167.553, 58.86523
1168.642, 74.91016
1169.730, 103.7168
1170.818, 69.54590
1171.906, 54.04297
1172.994, 26.62402
1174.082, 82.80664
1175.170, 7.708008
1176.257, 156.7910
1177.344, 165.3867
1178.431, 89.08496
1179.518, 84.84473
1180.605, 21.33301
1181.691, 14.50293
1182.778, 19.49414
1183.864, 48.24414
1184.950, 23.83301
1186.036, 83.92480
1187.122, 72.97852
1188.207, 125.9824
1189.292, 5.966797
1190.378, 82.10742
1191.463, 40.75000
1192.548, 67.59180
1193.632, 113.4160
1194.717, 108.9248
1195.801, 136.2852
1196.886, 67.78906
1197.970, 96.54590
1199.054, 136.2842
1200.137, 20.99609
1201.221, 68.32031
1202.305, 10.70605
1203.388, 20.86719
1204.471, 48.58398
1205.554, 27.90234
1206.637, 7.365234
1207.719, 102.7959
1208.802, 70.20605
1209.884, 4.594727
1210.966, 13.05273
1212.048, 25.43945
1213.130, 71.50098
1214.212, 18.27051
1215.293, 87.90430
1216.374, 111.0566
1217.456, 163.1895
1218.536, 122.3008
1219.617, 163.3887
1220.698, 87.45508
1221.778, 15.51074
1222.859, 33.47266
1223.939, 133.4785
1225.019, 39.40820
1226.099, 81.30469
1227.178, 102.1768
1228.258, 78.02539
1229.337, 239.8477
1230.417, 102.6484
1231.496, 42.43652
1232.574, 196.1914
1233.653, 24.06738
1234.732, 74.60059
1235.810, 251.2412
1236.888, 41.85547
1237.966, 63.43555
1239.044, 60.98633
1240.122, 162.5068
1241.199, 140.0010
1242.277, 179.4707
1243.354, 126.9150
1244.431, 62.66602
1245.508, 189.6777
1246.585, 66.99414
1247.661, 127.2783
1248.738, 220.5352
1249.814, 187.7676
1250.890, 266.9746
1251.966, 189.1562
1253.042, 235.3105
1254.117, 214.4414
1255.193, 242.5430
1256.268, 72.37891
1257.343, 168.5977
1258.418, 1.548828
1259.493, 163.4395
1260.567, 88.30078
1261.642, 36.13086
1262.716, 123.9141
1263.790, 210.6680
1264.864, 74.39453
1265.938, 280.0879
1267.011, 343.7500
1268.085, 206.3906
1269.158, 174.9980
1270.231, 138.5840
1271.304, 185.1348
1272.377, 97.66016
1273.450, 108.1523
1274.522, 333.6133
1275.594, 282.0488
1276.666, 230.4551
1277.738, 380.8340
1278.810, 319.1895
1279.882, 221.5137
1280.953, 135.8125
1282.025, 57.35547
1283.096, 98.58008
1284.167, 159.8066
1285.238, 166.9336
1286.308, 226.6211
1287.379, 116.2559
1288.449, 263.4473
1289.519, 225.4121
1290.589, 126.0938
1291.659, 316.6387
1292.729, 362.4824
