##NAMES=Diopside
##RRUFFID=R060171
##IDEAL CHEMISTRY=CaMgSi_2_O_6_
##LOCALITY=Jeffrey mine, Asbestos, Quebec, Canada
##OWNER=RRUFF
##SOURCE=Guy Ouellet
##DESCRIPTION=Yellowish-brown tabular crystals associated with vesuvianite, R060170
##STATUS=The identification of this mineral has been confirmed by X-ray diffraction and chemical analysis
##URL=rruff.info/R060171
##MEASURED CHEMISTRY=Ca_1.00_(Mg_0.98_Mn_0.02_)_Î£=1_Si_2.00_O_6_
##PIN_ID=M00055
##ORIENTATION=Laser parallel to c* (0 0 1). Fiducial mark perpendicular to laser is parallel to a [1 0 0]
123.0580, 0.0000000E+00
124.2880, 1.708008
125.5190, 5.197754
126.7490, 22.99707
127.9790, 70.86914
129.2090, 36.15771
130.4390, 58.85303
131.6680, 150.2368
132.8980, 76.79199
134.1270, 117.1660
135.3560, 109.1079
136.5850, 151.3828
137.8140, 267.0054
139.0430, 280.4185
140.2710, 321.7217
141.5000, 228.8228
142.7280, 236.6455
143.9560, 237.1279
145.1840, 112.3423
146.4120, 82.10938
147.6390, 81.33984
148.8670, 40.99512
150.0940, 97.04248
151.3210, 3.544434
152.5490, 107.2095
153.7750, 139.2856
155.0020, 223.6665
156.2290, 147.3354
157.4550, 230.2764
158.6810, 209.5044
159.9080, 300.0054
161.1340, 432.7271
162.3590, 494.7139
163.5850, 544.9497
164.8110, 588.3486
166.0360, 545.4980
167.2610, 444.5312
168.4860, 396.2979
169.7110, 433.2056
170.9360, 449.2490
172.1610, 441.4233
173.3850, 450.7246
174.6100, 573.1475
175.8340, 652.6899
177.0580, 848.3516
178.2820, 965.1294
179.5050, 1112.028
180.7290, 1096.038
181.9520, 1126.188
183.1760, 942.4458
184.3990, 833.8154
185.6220, 628.2944
186.8450, 610.8794
188.0670, 459.5664
189.2900, 526.3516
190.5120, 589.2324
191.7340, 719.2061
192.9560, 830.2715
194.1780, 762.9458
195.4000, 760.2227
196.6220, 522.4927
197.8430, 457.7451
199.0640, 429.0151
200.2860, 335.6533
201.5070, 190.8965
202.7270, 138.7607
203.9480, 72.03955
205.1690, 18.35352
206.3890, 3.705566
207.6090, 25.89404
208.8290, 15.40479
210.0490, 24.13135
211.2690, 31.28906
212.4890, 32.33496
213.7080, 85.00391
214.9280, 162.7246
216.1470, 160.4956
217.3660, 185.3135
218.5850, 307.1772
219.8030, 382.0874
221.0220, 526.0444
222.2400, 798.0474
223.4590, 783.0967
224.6770, 1068.192
225.8950, 1304.334
227.1120, 1446.522
228.3300, 1614.817
229.5480, 1853.175
230.7650, 1667.596
231.9820, 1759.072
233.1990, 1587.614
234.4160, 1371.348
235.6330, 1176.193
236.8490, 696.0996
238.0660, 585.0786
239.2820, 405.1372
240.4980, 423.2441
241.7140, 364.3809
242.9300, 287.5503
244.1460, 345.7515
245.3610, 358.9839
246.5770, 439.2471
247.7920, 434.5420
249.0070, 522.8691
250.2220, 578.2266
251.4370, 681.6152
252.6510, 712.0347
253.8660, 752.4844
255.0800, 730.9639
256.2940, 653.4727
257.5080, 593.0112
258.7220, 531.5786
259.9360, 219.1753
261.1490, 244.8008
262.3630, 134.4546
263.5760, 42.86377
264.7890, 151.8457
266.0020, 3.416504
267.2150, 97.34082
268.4270, 92.12500
269.6400, 25.21533
270.8520, 39.06396
272.0640, 68.41016
273.2760, 4.8340000E-02
274.4880, 91.65820
275.7000, 16.48926
276.9120, 14.49170
278.1230, 51.41016
279.3340, 37.20996
280.5450, 23.90625
281.7560, 60.47119
282.9670, 2.941895
284.1780, 85.49121
285.3880, 73.11523
286.5980, 60.81006
287.8090, 114.5723
289.0190, 231.3989
290.2290, 328.3306
291.4380, 394.9146
292.6480, 399.3667
293.8570, 501.9004
295.0670, 571.0044
296.2760, 734.1567
297.4850, 1046.338
298.6930, 1252.587
299.9020, 1342.887
301.1110, 1629.231
302.3190, 1661.617
303.5270, 1827.043
304.7350, 1944.510
305.9430, 2023.592
307.1510, 2316.134
308.3580, 2697.713
309.5660, 3283.326
310.7730, 4005.974
311.9800, 5022.646
313.1870, 6156.350
314.3940, 7375.086
315.6010, 8495.856
316.8070, 9408.656
318.0130, 10946.49
319.2200, 12374.36
320.4260, 13798.26
321.6310, 14754.19
322.8370, 15145.14
324.0430, 13946.13
325.2480, 12269.14
326.4540, 10104.19
327.6590, 7767.264
328.8640, 5946.370
330.0680, 4620.500
331.2730, 3392.723
332.4780, 2559.904
333.6820, 1990.114
334.8860, 1604.508
336.0900, 1294.760
337.2940, 1263.038
338.4980, 1125.528
339.7010, 1001.301
340.9050, 1015.638
342.1080, 1084.984
343.3110, 1188.439
344.5140, 1272.078
345.7170, 1416.677
346.9200, 1784.632
348.1220, 1985.468
349.3240, 2347.938
350.5270, 2692.992
351.7290, 3236.164
352.9310, 3527.609
354.1320, 3877.939
355.3340, 3657.756
356.5350, 3622.929
357.7370, 3162.542
358.9380, 2656.176
360.1390, 2154.834
361.3400, 1924.506
362.5400, 1528.197
363.7410, 1291.905
364.9410, 1308.634
366.1410, 1192.379
367.3410, 1117.145
368.5410, 1179.927
369.7410, 1318.727
370.9400, 1526.544
372.1400, 1465.379
373.3390, 1766.231
374.5380, 2160.102
375.7370, 2601.987
376.9360, 3373.889
378.1350, 4465.806
379.3330, 5709.739
380.5310, 7181.689
381.7300, 8755.651
382.9280, 10237.63
384.1260, 11972.62
385.3230, 13813.62
386.5210, 15553.64
387.7180, 16980.67
388.9160, 17523.71
390.1130, 16523.77
391.3100, 14662.84
392.5060, 12400.92
393.7030, 10170.02
394.9000, 7853.128
396.0960, 5840.250
397.2920, 4455.384
398.4880, 3370.529
399.6840, 2529.688
400.8800, 1851.858
402.0750, 1563.041
403.2710, 1231.235
404.4660, 1090.441
405.6610, 850.6587
406.8560, 803.8877
408.0510, 543.3843
409.2450, 438.6367
410.4400, 485.8687
411.6340, 475.1436
412.8280, 264.4297
414.0220, 402.7397
415.2160, 296.0742
416.4100, 264.4312
417.6030, 237.8003
418.7970, 237.2002
419.9900, 204.4209
421.1830, 209.5557
422.3760, 179.0610
423.5690, 184.1938
424.7610, 137.3569
425.9540, 58.87012
427.1460, 57.40039
428.3380, 119.9482
429.5300, 153.5127
430.7220, 60.09375
431.9140, 53.69092
433.1050, 6.303711
434.2970, 10.06934
435.4880, 49.43359
436.6790, 5.804688
437.8700, 14.83398
439.0610, 47.48730
440.2510, 93.46094
441.4420, 103.1426
442.6320, 85.63281
443.8220, 56.34180
445.0120, 58.06348
446.2020, 35.79883
447.3910, 15.83984
448.5810, 5.397461
449.7700, 121.3750
450.9600, 31.16016
452.1490, 188.9600
453.3370, 290.7812
454.5260, 185.6152
455.7150, 300.0498
456.9030, 326.1572
458.0910, 461.0244
459.2800, 620.9121
460.4670, 617.9766
461.6550, 561.8887
462.8430, 625.8125
464.0300, 562.7471
465.2180, 495.6934
466.4050, 473.0596
467.5920, 323.3096
468.7790, 325.2891
469.9650, 104.1895
471.1520, 168.1885
472.3380, 63.19629
473.5250, 85.76758
474.7110, 35.23340
475.8970, 20.26367
477.0820, 49.69727
478.2680, 72.32324
479.4540, 23.37207
480.6390, 12.42969
481.8240, 15.50586
483.0090, 41.55176
484.1940, 44.36621
485.3780, 169.2988
486.5630, 48.30859
487.7470, 65.33301
488.9320, 15.38672
490.1160, 12.44531
491.3000, 42.49023
492.4830, 15.55371
493.6670, 54.58984
494.8500, 8.651367
496.0340, 40.71582
497.2170, 14.20020
498.4000, 44.12207
499.5820, 87.05273
500.7650, 115.9902
501.9480, 26.93457
503.1300, 166.8848
504.3120, 144.8418
505.4940, 57.80566
506.6760, 177.7764
507.8580, 176.7539
509.0390, 238.7373
510.2210, 260.7285
511.4020, 290.0908
512.5830, 427.7334
513.7640, 350.7490
514.9450, 375.7725
516.1250, 400.8008
517.3060, 541.8350
518.4860, 621.8750
519.6660, 712.8789
520.8460, 948.9756
522.0260, 954.0430
523.2060, 1134.116
524.3850, 1346.195
525.5650, 1335.278
526.7440, 1388.367
527.9230, 1606.461
529.1020, 1618.561
530.2810, 1425.667
531.4590, 1234.781
532.6380, 1047.901
533.8160, 844.0264
534.9940, 727.1572
536.1720, 553.2920
537.3500, 435.4316
538.5270, 349.8389
539.7050, 375.7393
540.8820, 272.9053
542.0590, 261.0771
543.2360, 374.2529
544.4130, 256.4336
545.5900, 499.6406
546.7660, 545.8516
547.9430, 711.0654
549.1190, 1020.284
550.2950, 1116.512
551.4710, 1363.745
552.6470, 1747.982
553.8220, 2172.226
554.9980, 2649.473
556.1730, 2848.723
557.3480, 2807.977
558.5230, 2823.242
559.6980, 2463.508
560.8730, 1983.778
562.0470, 1629.054
563.2220, 1229.331
564.3960, 860.6152
565.5700, 588.9033
566.7440, 463.1963
567.9170, 455.4902
569.0910, 205.7861
570.2640, 176.0820
571.4380, 186.3789
572.6110, 197.6768
573.7840, 208.9756
574.9570, 112.2295
576.1290, 63.88965
577.3020, 45.73828
578.4740, 49.55762
579.6460, 147.8574
580.8180, 22.15723
581.9900, 66.45508
583.1620, 11.24707
584.3330, 98.03320
585.5040, 88.31348
586.6760, 102.5947
587.8470, 23.87402
589.0180, 95.54199
590.1880, 90.97852
591.3590, 126.2549
592.5290, 122.9688
593.7000, 92.49414
594.8700, 108.7695
596.0400, 15.04395
597.2090, 27.31055
598.3790, 116.5723
599.5490, 82.60352
600.7180, 1.861328
601.8870, 66.59570
603.0560, 134.3223
604.2250, 103.5645
605.3940, 135.8740
606.5620, 22.77637
607.7300, 28.00781
608.8990, 119.2754
610.0670, 10.50195
611.2350, 60.70215
612.4020, 92.12109
613.5700, 78.42871
614.7370, 117.5684
615.9050, 123.2617
617.0720, 136.9912
618.2390, 151.8877
619.4060, 172.6348
620.5720, 215.8213
621.7390, 247.8154
622.9050, 266.7891
624.0710, 207.1768
625.2370, 259.4297
626.4030, 340.5303
627.5690, 216.8096
628.7340, 315.8027
629.9000, 375.5146
631.0650, 219.3467
632.2300, 452.7070
633.3950, 492.2432
634.5600, 395.7373
635.7240, 358.6543
636.8890, 442.8740
638.0530, 476.8721
639.2170, 547.0361
640.3810, 552.1943
641.5450, 747.3496
642.7080, 710.4990
643.8720, 858.6504
645.0350, 988.8047
646.1980, 1218.047
647.3610, 1420.461
648.5240, 1487.598
649.6870, 1924.301
650.8490, 2199.498
652.0120, 2648.921
653.1740, 3316.105
654.3360, 3983.402
655.4980, 4995.553
656.6600, 6130.787
657.8210, 7341.930
658.9830, 8868.269
660.1440, 10412.25
661.3050, 12006.88
662.4660, 13243.26
663.6270, 14287.38
664.7870, 14639.49
665.9480, 14006.75
667.1080, 12889.88
668.2680, 11115.08
669.4280, 9318.864
670.5880, 7648.581
671.7480, 6218.039
672.9070, 5039.245
674.0670, 3894.570
675.2260, 3249.785
676.3850, 2513.859
677.5440, 2031.108
678.7030, 1898.666
679.8610, 1570.718
681.0200, 1253.764
682.1780, 1177.195
683.3360, 992.3320
684.4940, 785.5332
685.6520, 739.8213
686.8090, 710.8828
687.9670, 573.2266
689.1240, 506.5518
690.2810, 417.3154
691.4380, 412.4336
692.5950, 515.0283
693.7520, 322.1289
694.9080, 382.3555
696.0650, 361.5654
697.2210, 260.2188
698.3770, 447.4033
699.5330, 212.3037
700.6880, 169.8223
701.8440, 107.7734
702.9990, 185.8564
704.1550, 84.71680
705.3100, 212.7412
706.4650, 374.5889
707.6190, 133.4189
708.7740, 75.23828
709.9290, 149.0459
711.0830, 193.8447
712.2370, 139.6328
713.3910, 94.41016
714.5450, 110.1758
715.6980, 101.9346
716.8520, 151.6934
718.0050, 127.4443
719.1580, 140.0947
720.3110, 87.60742
721.4640, 157.3242
722.6170, 119.2363
723.7700, 162.9316
724.9220, 74.61621
726.0740, 182.2891
727.2260, 19.81348
728.3780, 6.458984
729.5300, 166.4014
730.6810, 8.021484
731.8330, 15.37695
732.9840, 135.5771
734.1350, 119.3525
735.2860, 88.34570
736.4370, 108.6318
737.5880, 11.84277
738.7380, 119.6533
739.8880, 15.97168
741.0390, 16.44043
742.1890, 106.0215
743.3380, 50.46191
744.4880, 9.145508
745.6380, 107.1484
746.7870, 59.26367
747.9360, 187.7441
749.0850, 90.24512
750.2340, 32.41602
751.3830, 50.23730
752.5310, 123.6572
753.6800, 56.03516
754.8280, 21.45898
755.9760, 122.6992
757.1240, 57.05762
758.2720, 93.29883
759.4190, 109.6650
760.5670, 33.10645
761.7140, 35.73535
762.8610, 1.617188
764.0080, 83.08105
765.1550, 5.617188
766.3020, 160.0322
767.4480, 67.41016
768.5950, 71.69336
769.7410, 35.18652
770.8870, 31.08105
772.0330, 147.3730
773.1780, 134.6973
774.3240, 109.2871
775.4690, 72.76465
776.6140, 112.5918
777.7590, 99.53711
778.9040, 97.61035
780.0490, 102.7412
781.1940, 150.7178
782.3380, 96.84766
783.4820, 75.99316
784.6260, 42.92578
785.7700, 128.6904
786.9140, 20.59277
788.0580, 87.34473
789.2010, 50.09863
790.3450, 4.950195
791.4880, 79.48535
792.6310, 155.2988
793.7730, 93.63086
794.9160, 141.4131
796.0590, 67.35645
797.2010, 14.10742
798.3430, 2.075195
799.4850, 58.01367
800.6270, 144.9619
801.7690, 131.1025
802.9100, 82.78906
804.0520, 112.4268
805.1930, 96.86133
806.3340, 23.46680
807.4750, 32.05762
808.6160, 53.66797
809.7560, 58.66992
810.8970, 122.2012
812.0370, 97.85547
813.1770, 133.3545
814.3170, 87.12012
815.4570, 31.41406
816.5960, 209.0068
817.7360, 147.4521
818.8750, 51.84082
820.0140, 107.2129
821.1530, 58.43457
822.2920, 67.86035
823.4310, 120.1377
824.5690, 58.39941
825.7070, 59.64453
826.8460, 21.87012
827.9840, 100.0742
829.1220, 31.26367
830.2590, 100.4326
831.3970, 68.58887
832.5340, 70.72949
833.6710, 4.145508
834.8080, 72.94727
835.9450, 143.0264
837.0820, 32.08984
838.2190, 123.1318
839.3550, 89.17969
840.4910, 173.2129
841.6270, 99.23047
842.7630, 139.2305
843.8990, 202.2178
845.0350, 283.1895
846.1700, 293.1475
847.3060, 398.0869
848.4410, 490.0127
849.5760, 600.9238
850.7100, 842.8184
851.8450, 880.6982
852.9800, 743.5615
854.1140, 819.4111
855.2480, 625.2441
856.3820, 629.0615
857.5160, 529.8643
858.6500, 348.6523
859.7830, 188.4336
860.9170, 193.1982
862.0500, 276.9492
863.1830, 109.6865
864.3160, 205.0156
865.4480, 71.98633
866.5810, 192.6748
867.7130, 232.6533
868.8460, 56.32031
869.9780, 93.96191
871.1100, 137.5986
872.2410, 189.2217
873.3730, 210.0244
874.5050, 206.8643
875.6360, 216.2451
876.7670, 195.3281
877.8980, 114.4043
879.0290, 151.9473
880.1590, 84.40527
881.2900, 215.2500
882.4200, 176.7480
883.5500, 123.1914
884.6800, 136.6631
885.8100, 13.12988
886.9400, 156.3594
888.0690, 8.315430
889.1990, 179.0879
890.3280, 82.98242
891.4570, 144.9531
892.5860, 153.3115
893.7140, 96.10352
894.8430, 91.45410
895.9710, 70.79004
897.1000, 136.8672
898.2280, 191.9756
899.3560, 13.78516
900.4830, 94.50488
901.6110, 23.43750
902.7380, 74.69531
903.8660, 95.86719
904.9930, 145.0361
906.1200, 124.4883
907.2460, 32.30273
908.3730, 63.48242
909.5000, 15.64746
910.6260, 46.19238
911.7520, 20.15430
912.8780, 210.9355
914.0040, 229.0117
915.1290, 9.924805
916.2550, 177.1162
917.3800, 90.14355
918.5050, 83.15039
919.6300, 204.0518
920.7550, 4.239258
921.8800, 179.7256
923.0040, 4.893555
924.1290, 86.02539
925.2530, 159.5723
926.3770, 51.61133
927.5010, 201.0596
928.6250, 15.85547
929.7480, 210.5488
930.8720, 88.31641
931.9950, 138.8711
933.1180, 108.7666
934.2410, 35.98730
935.3640, 65.46191
936.4860, 21.19922
937.6090, 120.9219
938.7310, 143.5029
939.8530, 22.80859
940.9750, 163.7764
942.0970, 73.84570
943.2180, 118.1689
944.3400, 22.41895
945.4610, 164.6914
946.5820, 95.24121
947.7030, 180.6729
948.8240, 61.22363
949.9450, 158.5762
951.0650, 215.6006
952.1860, 116.1084
953.3060, 163.6035
954.4260, 245.6885
955.5460, 331.0479
956.6650, 179.3223
957.7850, 264.2607
958.9040, 188.2676
960.0230, 242.5137
961.1420, 273.7275
962.2610, 217.3662
963.3800, 232.8975
964.4990, 286.1025
965.6170, 140.1748
966.7350, 284.6982
967.8530, 233.3291
968.9710, 214.9502
970.0890, 229.5762
971.2070, 251.9053
972.3240, 313.6250
973.4410, 354.0801
974.5580, 465.5371
975.6750, 372.9316
976.7920, 477.0820
977.9090, 435.5820
979.0250, 501.0557
980.1410, 553.2852
981.2580, 553.5000
982.3740, 755.7090
983.4890, 771.0391
984.6050, 815.1738
985.7200, 771.4473
986.8360, 877.6211
987.9510, 943.7803
989.0660, 1016.929
990.1810, 1122.152
991.2950, 1345.273
992.4100, 1669.384
993.5240, 1788.479
994.6390, 1873.563
995.7530, 2416.102
996.8660, 2732.258
997.9800, 3009.150
999.0940, 3961.188
1000.207, 4661.242
1001.320, 6034.708
1002.433, 7697.021
1003.546, 10056.65
1004.659, 13642.82
1005.772, 18029.99
1006.884, 23897.58
1007.996, 29996.53
1009.108, 36371.48
1010.220, 42123.41
1011.332, 45937.58
1012.444, 46374.70
1013.555, 42849.59
1014.666, 36696.23
1015.777, 29285.12
1016.888, 22220.44
1017.999, 16486.65
1019.110, 12150.66
1020.220, 9115.979
1021.331, 7080.262
1022.441, 5361.486
1023.551, 4499.297
1024.661, 3761.286
1025.770, 3316.379
1026.880, 2727.769
1027.989, 2562.947
1029.098, 2300.787
1030.207, 2176.053
1031.316, 1989.638
1032.425, 1973.907
1033.533, 1791.327
1034.642, 1772.283
1035.750, 1531.964
1036.858, 1656.467
1037.966, 1833.062
1039.073, 1979.758
1040.181, 2370.525
1041.288, 2457.812
1042.396, 3084.654
1043.503, 3573.167
1044.610, 4038.378
1045.716, 4253.225
1046.823, 4421.146
1047.929, 4300.950
1049.036, 3835.028
1050.142, 3286.895
1051.248, 2693.907
1052.353, 2098.518
1053.459, 1746.011
1054.564, 1260.087
1055.670, 1134.206
1056.775, 926.4824
1057.880, 762.1201
1058.985, 620.0566
1060.089, 496.9824
1061.194, 450.6006
1062.298, 393.0586
1063.402, 304.7500
1064.506, 278.4688
1065.610, 170.9951
1066.713, 294.3193
1067.817, 233.3896
1068.920, 332.7646
1070.023, 239.7500
1071.126, 318.7119
1072.229, 153.0674
1073.332, 192.5986
1074.435, 41.95996
1075.537, 189.1250
1076.639, 176.3848
1077.741, 186.4033
1078.843, 203.6836
1079.945, 212.6885
1081.046, 224.2666
1082.148, 244.3672
1083.249, 250.6240
1084.350, 251.8545
1085.451, 278.8525
1086.551, 226.7559
1087.652, 233.4482
1088.752, 135.0703
1089.853, 99.76855
1090.953, 82.47559
1092.053, 104.0488
1093.152, 111.9258
1094.252, 143.2236
1095.351, 75.48828
1096.451, 35.06250
1097.550, 3.843750
1098.649, 36.44141
1099.748, 13.45605
1100.846, 173.6973
1101.945, 11.73145
1103.043, 162.8047
1104.141, 133.1934
1105.239, 74.58008
1106.337, 50.62988
1107.434, 113.5479
1108.532, 127.4502
1109.629, 80.33887
1110.726, 85.21289
1111.823, 179.0781
1112.920, 176.9229
1114.017, 177.2549
1115.113, 110.0713
1116.210, 186.8721
1117.306, 136.2676
1118.402, 251.0410
1119.498, 239.7998
1120.593, 290.5459
1121.689, 124.3252
1122.784, 156.0420
1123.879, 149.8027
1124.974, 178.4902
1126.069, 158.2812
1127.164, 34.04688
1128.259, 122.9639
1129.353, 157.9893
1130.447, 256.8594
1131.541, 65.74512
1132.635, 39.62305
1133.729, 73.19043
1134.822, 221.9590
1135.916, 26.50293
1137.009, 93.00098
1138.102, 10.49023
1139.195, 207.9590
1140.288, 266.4141
1141.380, 147.8545
1142.473, 88.63867
1143.565, 68.04980
1144.657, 269.4453
1145.749, 186.8252
1146.841, 191.1943
1147.932, 37.54688
1149.024, 38.88477
1150.115, 97.20215
1151.206, 75.50488
1152.297, 34.79395
1153.388, 150.4580
1154.479, 206.7344
1155.569, 49.00781
1156.659, 78.26562
1157.750, 13.83789
1158.839, 59.66406
1159.929, 90.50684
1161.019, 15.29297
1162.108, 16.16699
1163.198, 26.92676
1164.287, 22.99707
1165.376, 57.05176
1166.465, 36.32617
1167.553, 141.3418
1168.642, 137.3438
1169.730, 149.3535
1170.818, 123.9473
1171.906, 151.2891
1172.994, 44.23535
1174.082, 40.83398
1175.170, 2.511719
1176.257, 148.3682
1177.344, 78.24219
1178.431, 103.1719
1179.518, 12.01367
1180.605, 81.83984
1181.691, 13.64941
1182.778, 89.44043
1183.864, 198.2197
1184.950, 69.98340
1186.036, 14.73535
1187.122, 10.46484
1188.207, 95.19141
1189.292, 88.92676
1190.378, 111.6465
1191.463, 112.3682
1192.548, 22.07324
1193.632, 88.76074
1194.717, 9.567383
1195.801, 122.0771
1196.886, 169.7070
1197.970, 66.67676
1199.054, 53.79395
1200.137, 3.284180
1201.221, 75.79590
1202.305, 156.6299
1203.388, 197.0420
1204.471, 139.4492
1205.554, 0.4492190
1206.637, 175.8408
1207.719, 104.2344
1208.802, 168.6133
1209.884, 106.9785
1210.966, 105.3291
1212.048, 173.6660
1213.130, 139.9893
1214.212, 193.8076
1215.293, 175.1816
1216.374, 219.8740
1217.456, 142.1406
1218.536, 40.39453
1219.617, 24.63770
1220.698, 90.27539
1221.778, 47.64551
1222.859, 2.829102
1223.939, 106.6436
1225.019, 111.7471
1226.099, 34.57422
1227.178, 207.2305
1228.258, 94.47559
1229.337, 107.1084
1230.417, 230.6123
1231.496, 167.6475
1232.574, 131.1094
1233.653, 52.11523
1234.732, 87.94824
1235.810, 73.83691
1236.888, 178.4229
1237.966, 158.2578
1239.044, 244.1377
1240.122, 184.8057
1241.199, 137.4805
1242.277, 305.3760
1243.354, 12.74219
1244.431, 301.1133
1245.508, 138.8252
1246.585, 46.34277
1247.661, 177.4082
1248.738, 216.1846
1249.814, 211.9453
1250.890, 126.7295
1251.966, 142.3750
1253.042, 124.0391
1254.117, 199.8066
1255.193, 109.5029
1256.268, 112.2012
1257.343, 71.40430
1258.418, 41.91602
1259.493, 75.60645
1260.567, 68.23145
1261.642, 66.50488
1262.716, 215.7148
1263.790, 83.99316
1264.864, 137.8340
1265.938, 247.9902
1267.011, 210.3115
1268.085, 308.3252
1269.158, 337.8457
1270.231, 210.3525
1271.304, 47.85547
1272.377, 324.1006
1273.450, 220.3545
1274.522, 298.8184
1275.594, 134.5068
1276.666, 169.9443
1277.738, 178.9121
1278.810, 140.8730
1279.882, 153.0645
1280.953, 355.1523
1282.025, 38.06445
1283.096, 302.4893
1284.167, 253.0078
1285.238, 207.5322
1286.308, 56.82520
1287.379, 69.60156
1288.449, 165.3623
1289.519, 120.4189
1290.589, 257.9355
1291.659, 186.3828
1292.729, 198.1357
1293.798, 167.1260
1294.868, 68.98145
1295.937, 332.7373
1297.006, 181.9199
1298.075, 121.0742
