##NAMES=Diopside
##RRUFFID=R060861
##IDEAL CHEMISTRY=CaMgSi_2_O_6_
##LOCALITY=Red Mountain Volcano, NW of Flagstaff, Arizona, USA
##OWNER=RRUFF
##SOURCE=Jennifer Sano
##DESCRIPTION=Worn brown fragment
##STATUS=The identification of this mineral has been confirmed by X-ray diffraction and chemical analysis
##URL=rruff.info/R060861
##MEASURED CHEMISTRY=(Ca_0.72_Fe^2+^_0.23_Na_0.05_)_Σ=1_(Mg_0.80_Al_0.15_Ti_0.03_Fe^3+^_0.02_)_Σ=1_(Si_1.82_Al_0.18_)_Σ=2_O_6_
##PIN_ID=M01599
##ORIENTATION=Laser parallel to (1 0 1). Fiducial mark perpendicular to laser is parallel to b [0 1 0]
174.7000, 0.0000000E+00
175.9330, 42.76758
177.1660, 28.55176
178.3990, 112.5186
179.6310, 41.43750
180.8640, 39.25293
182.0960, 62.99805
183.3280, 216.0664
184.5600, 286.7188
185.7910, 435.2627
187.0220, 510.6152
188.2540, 705.1318
189.4840, 617.9785
190.7150, 825.0518
191.9460, 800.4121
193.1760, 975.0420
194.4060, 1013.670
195.6360, 879.0732
196.8660, 985.0693
198.0960, 794.6660
199.3250, 972.9443
200.5540, 1110.818
201.7830, 1100.436
203.0120, 1073.641
204.2400, 650.4395
205.4690, 348.8271
206.6970, 92.20117
207.9250, 70.65527
209.1530, 105.4561
210.3800, 214.1279
211.6080, 346.3682
212.8350, 508.0898
214.0620, 658.3174
215.2880, 864.0088
216.5150, 1036.147
217.7410, 1266.721
218.9680, 1517.719
220.1940, 1652.892
221.4190, 1882.315
222.6450, 1976.771
223.8700, 2105.812
225.0960, 2242.092
226.3210, 2268.979
227.5450, 2305.974
228.7700, 2283.533
229.9940, 2246.246
231.2190, 2147.379
232.4430, 2054.720
233.6660, 1722.862
234.8900, 1754.190
236.1140, 1593.894
237.3370, 1342.953
238.5600, 1329.359
239.7830, 1065.106
241.0050, 1057.184
242.2280, 905.5830
243.4500, 898.3389
244.6720, 864.4531
245.8940, 904.8760
247.1160, 773.6094
248.3370, 721.5918
249.5580, 583.6113
250.7790, 545.7256
252.0000, 682.9707
253.2210, 657.3721
254.4410, 689.9473
255.6620, 641.7139
256.8820, 640.6777
258.1020, 731.8457
259.3210, 701.4326
260.5410, 568.3018
261.7600, 639.6162
262.9790, 286.6348
264.1980, 24.85059
265.4170, 26.23926
266.6360, 83.15820
267.8540, 25.65527
269.0720, 26.32227
270.2900, 301.0918
271.5080, 219.6562
272.7260, 205.0215
273.9430, 165.1943
275.1600, 82.54883
276.3770, 101.9756
277.5940, 66.41113
278.8100, 164.9814
280.0270, 224.7324
281.2430, 435.6631
282.4590, 534.7686
283.6750, 656.0479
284.8910, 854.4971
286.1060, 1066.115
287.3210, 1270.898
288.5360, 1472.844
289.7510, 1842.951
290.9660, 2107.215
292.1800, 2368.633
293.3950, 2708.205
294.6090, 2979.905
295.8230, 3258.702
297.0360, 3651.512
298.2500, 4029.387
299.4630, 4317.375
300.6760, 4580.504
301.8890, 5236.773
303.1020, 5575.168
304.3150, 6235.714
305.5270, 6477.381
306.7390, 7264.174
307.9510, 7595.090
309.1630, 8125.127
310.3750, 8772.347
311.5860, 9448.108
312.7970, 10142.86
314.0080, 11040.91
315.2190, 11786.13
316.4300, 12693.45
317.6400, 13464.85
318.8510, 14175.88
320.0610, 15026.49
321.2710, 15831.00
322.4800, 16518.66
323.6900, 17433.21
324.8990, 18192.52
326.1080, 18918.46
327.3170, 19520.96
328.5260, 19992.95
329.7340, 20315.37
330.9430, 20594.20
332.1510, 20616.39
333.3590, 20764.32
334.5670, 20591.14
335.7740, 20676.00
336.9820, 20242.38
338.1890, 19876.96
339.3960, 19959.80
340.6030, 19114.77
341.8100, 18613.18
343.0160, 17651.69
344.2220, 17612.38
345.4280, 16876.26
346.6340, 16567.28
347.8400, 15926.44
349.0460, 15515.75
350.2510, 15209.20
351.4560, 14852.77
352.6610, 14639.26
353.8660, 14213.51
355.0700, 14141.47
356.2750, 13973.54
357.4790, 13617.74
358.6830, 13488.05
359.8870, 13179.47
361.0910, 13225.00
362.2940, 12970.64
363.4970, 12709.38
364.7000, 12649.23
365.9030, 12387.18
367.1060, 12478.20
368.3080, 12143.19
369.5110, 11938.14
370.7130, 12264.12
371.9150, 12137.16
373.1170, 12072.31
374.3180, 12339.07
375.5200, 12572.87
376.7210, 12771.28
377.9220, 13288.79
379.1230, 13650.37
380.3230, 14202.04
381.5240, 14789.79
382.7240, 15592.62
383.9240, 16438.51
385.1240, 17392.49
386.3240, 18483.54
387.5230, 19575.66
388.7230, 20566.85
389.9220, 21768.09
391.1210, 22665.41
392.3200, 23452.78
393.5180, 23959.22
394.7170, 24253.71
395.9150, 24529.27
397.1130, 24026.88
398.3110, 23862.54
399.5080, 23094.27
400.7060, 21902.05
401.9030, 20446.87
403.1000, 19063.75
404.2970, 17319.68
405.4940, 15598.65
406.6910, 13770.67
407.8870, 12236.74
409.0830, 10897.85
410.2790, 9581.001
411.4750, 8174.461
412.6710, 7147.691
413.8660, 6091.525
415.0610, 5375.212
416.2560, 4670.825
417.4510, 4127.991
418.6460, 3622.488
419.8410, 2963.326
421.0350, 2538.720
422.2290, 2428.207
423.4230, 2035.723
424.6170, 1916.262
425.8100, 1489.823
427.0040, 1473.407
428.1970, 1419.012
429.3900, 1169.454
430.5830, 873.2744
431.7760, 872.9307
432.9680, 786.6016
434.1610, 679.2861
435.3530, 490.9824
436.5450, 520.6895
437.7360, 431.4072
438.9280, 358.1338
440.1190, 103.8760
441.3110, 229.6279
442.5020, 100.3877
443.6930, 0.1689450
444.8830, 36.95996
446.0740, 177.2227
447.2640, 16.36719
448.4540, 22.10547
449.6440, 51.54688
450.8340, 46.88379
452.0240, 36.41895
453.2130, 80.44727
454.4020, 126.3057
455.5910, 178.5859
456.7800, 194.1592
457.9690, 268.3535
459.1570, 265.7285
460.3460, 345.7969
461.5340, 530.7402
462.7220, 493.6904
463.9090, 554.7285
465.0970, 670.2188
466.2840, 596.7832
467.4720, 897.6357
468.6590, 850.9248
469.8460, 954.1289
471.0320, 1068.784
472.2190, 1080.446
473.4050, 1040.789
474.5910, 1091.677
475.7770, 1104.260
476.9630, 1031.399
478.1490, 1048.181
479.3340, 1044.838
480.5190, 1053.564
481.7040, 1064.551
482.8890, 1107.943
484.0740, 1123.819
485.2580, 1142.649
486.4430, 1199.169
487.6270, 1361.149
488.8110, 1297.603
489.9950, 1324.659
491.1780, 1349.852
492.3620, 1301.789
493.5450, 1389.658
494.7280, 1328.456
495.9110, 1383.192
497.0940, 1403.862
498.2760, 1465.458
499.4590, 1499.976
500.6410, 1540.287
501.8230, 1571.979
503.0050, 1619.060
504.1860, 1656.259
505.3680, 1687.375
506.5490, 1805.796
507.7300, 1929.352
508.9110, 2129.211
510.0920, 2229.980
511.2730, 2326.662
512.4530, 2517.253
513.6330, 2563.754
514.8130, 2724.162
515.9930, 2780.478
517.1730, 2995.699
518.3520, 3198.824
519.5320, 3239.853
520.7110, 3513.783
521.8900, 3473.613
523.0690, 3862.346
524.2470, 3968.463
525.4260, 4118.499
526.6040, 4331.921
527.7820, 4455.237
528.9600, 4645.446
530.1380, 4664.548
531.3150, 4885.543
532.4930, 4969.427
533.6700, 5116.200
534.8470, 5022.862
536.0240, 5059.411
537.2000, 4991.844
538.3770, 5047.164
539.5530, 5005.367
540.7290, 4850.455
541.9050, 4773.423
543.0810, 4813.271
544.2570, 4820.000
545.4320, 4625.608
546.6080, 4529.094
547.7830, 4514.456
548.9580, 4640.694
550.1320, 4622.807
551.3070, 4588.795
552.4810, 4647.654
553.6550, 4653.396
554.8300, 4562.007
556.0030, 4505.492
557.1770, 4763.885
558.3510, 4558.170
559.5240, 4548.348
560.6970, 4525.411
561.8700, 4366.347
563.0430, 4137.157
564.2160, 4132.832
565.3880, 3876.369
566.5600, 3599.771
567.7320, 3482.034
568.9040, 3365.159
570.0760, 3230.144
571.2480, 3084.478
572.4190, 2880.692
573.5900, 2759.254
574.7610, 2678.673
575.9320, 2492.950
577.1030, 2405.083
578.2740, 2260.310
579.4440, 1949.152
580.6140, 1948.299
581.7840, 1699.375
582.9540, 1650.133
584.1240, 1460.298
585.2930, 1145.619
586.4630, 1094.701
587.6320, 904.8652
588.8010, 769.9805
589.9700, 726.3999
591.1380, 563.5757
592.3070, 588.9336
593.4750, 390.1992
594.6430, 224.9795
595.8110, 15.41455
596.9790, 5.949219
598.1460, 209.3569
599.3140, 120.6714
600.4810, 181.2104
601.6480, 83.48340
602.8150, 101.7368
603.9820, 253.2471
605.1480, 134.2378
606.3150, 200.0786
607.4810, 235.2378
608.6470, 150.1108
609.8130, 121.5186
610.9790, 41.49658
612.1440, 53.12402
613.3100, 0.1445310
614.4750, 143.8062
615.6400, 179.0342
616.8050, 170.7510
617.9690, 253.4414
619.1340, 295.3037
620.2980, 319.5229
621.4620, 483.1289
622.6260, 430.4336
623.7900, 521.4556
624.9540, 670.2178
626.1170, 687.7466
627.2810, 780.0439
628.4440, 955.1226
629.6070, 1028.997
630.7690, 1214.670
631.9320, 1342.150
633.0950, 1464.438
634.2570, 1674.535
635.4190, 1701.440
636.5810, 1910.156
637.7430, 2212.681
638.9040, 2458.016
640.0660, 2803.160
641.2270, 3137.115
642.3880, 3477.881
643.5490, 3839.458
644.7100, 4326.846
645.8700, 4823.046
647.0310, 5339.058
648.1910, 6148.883
649.3510, 6790.521
650.5110, 7668.972
651.6710, 8568.237
652.8300, 9769.317
653.9900, 10974.21
655.1490, 12452.92
656.3080, 13899.45
657.4670, 15754.79
658.6250, 17459.95
659.7840, 19363.92
660.9420, 21246.72
662.1010, 23477.34
663.2590, 24934.76
664.4170, 26656.02
665.5740, 27953.09
666.7320, 28605.98
667.8890, 28825.70
669.0460, 28410.23
670.2030, 27184.60
671.3600, 25817.78
672.5170, 24175.79
673.6740, 22511.62
674.8300, 20256.29
675.9860, 18302.77
677.1420, 16359.08
678.2980, 14600.23
679.4540, 13070.20
680.6090, 11625.00
681.7650, 10170.63
682.9200, 9372.097
684.0750, 8258.391
685.2300, 7396.520
686.3840, 6540.483
687.5390, 5947.280
688.6930, 5243.914
689.8470, 4855.385
691.0010, 4310.693
692.1550, 3746.840
693.3090, 3374.826
694.4620, 3318.652
695.6160, 2978.321
696.7690, 2654.831
697.9220, 2581.186
699.0750, 2270.383
700.2280, 2151.426
701.3800, 1928.314
702.5320, 1742.050
703.6850, 1614.633
704.8370, 1422.065
705.9880, 1414.349
707.1400, 1236.482
708.2920, 1176.469
709.4430, 960.3076
710.5940, 977.0020
711.7450, 855.5522
712.8960, 814.9590
714.0470, 645.2241
715.1970, 631.3481
716.3480, 430.3330
717.4980, 522.1758
718.6480, 212.8818
719.7980, 316.4316
720.9470, 341.8413
722.0970, 129.1128
723.2460, 176.2168
724.3960, 82.17139
725.5450, 37.05127
726.6940, 58.49170
727.8420, 72.52637
728.9910, 178.0430
730.1390, 292.6455
731.2870, 215.5947
732.4350, 243.0864
733.5830, 179.6650
734.7310, 213.4668
735.8790, 324.2095
737.0260, 285.9438
738.1730, 383.0811
739.3200, 411.1865
740.4670, 396.3521
741.6140, 262.8062
742.7610, 422.5483
743.9070, 448.9414
745.0530, 534.6118
746.1990, 408.7969
747.3450, 394.6035
748.4910, 343.5073
749.6370, 407.0264
750.7820, 333.7290
751.9270, 316.2695
753.0720, 271.5073
754.2170, 200.5791
755.3620, 239.3364
756.5070, 78.86768
757.6510, 38.11768
758.7950, 16.97217
759.9400, 126.8979
761.0840, 129.3584
762.2270, 293.2378
763.3710, 326.0708
764.5140, 275.2192
765.6580, 394.6133
766.8010, 541.5420
767.9440, 583.7734
769.0870, 491.7764
770.2290, 615.9434
771.3720, 618.0869
772.5140, 624.2129
773.6560, 728.3193
774.7990, 696.4111
775.9400, 718.4902
777.0820, 732.5586
778.2240, 822.6182
779.3650, 721.6699
780.5060, 894.7168
781.6470, 779.7627
782.7880, 900.8066
783.9290, 892.8535
785.0690, 830.9033
786.2100, 776.9600
787.3500, 878.0244
788.4900, 883.0986
789.6300, 868.4365
790.7700, 854.2852
791.9090, 828.4023
793.0490, 857.5371
794.1880, 811.6924
795.3270, 961.8691
796.4660, 906.0713
797.6050, 983.2998
798.7440, 941.5566
799.8820, 1004.843
801.0200, 1096.162
802.1590, 1087.515
803.2970, 1131.904
804.4340, 1219.332
805.5720, 1101.800
806.7100, 1258.309
807.8470, 1146.863
808.9840, 1220.462
810.1210, 1477.110
811.2580, 1416.808
812.3950, 1619.556
813.5310, 1552.358
814.6680, 1590.216
815.8040, 1806.131
816.9400, 1618.104
818.0760, 1662.141
819.2120, 1735.237
820.3470, 1791.400
821.4830, 1752.629
822.6180, 1705.926
823.7530, 1869.292
824.8880, 1721.731
826.0230, 1793.244
827.1580, 1688.831
828.2920, 1836.496
829.4270, 1593.241
830.5610, 1722.065
831.6950, 1654.974
832.8290, 1560.965
833.9620, 1443.043
835.0960, 1568.209
836.2290, 1407.465
837.3620, 1395.812
838.4950, 1529.251
839.6280, 1376.785
840.7610, 1305.416
841.8940, 1343.145
843.0260, 1255.974
844.1580, 1268.904
845.2910, 1264.938
846.4230, 1307.077
847.5540, 1295.042
848.6860, 1455.675
849.8170, 1350.138
850.9490, 1445.713
852.0800, 1606.400
853.2110, 1711.963
854.3420, 1818.881
855.4730, 1760.467
856.6030, 1755.098
857.7340, 1860.680
858.8640, 1958.510
859.9940, 2048.762
861.1240, 2144.137
862.2540, 2228.372
863.3830, 2315.707
864.5130, 2369.618
865.6420, 2418.130
866.7710, 2461.307
867.9000, 2471.067
869.0290, 2507.417
870.1570, 2527.369
871.2860, 2513.032
872.4140, 2558.643
873.5430, 2467.011
874.6710, 2478.475
875.7980, 2468.524
876.9260, 2392.681
878.0540, 2485.463
879.1810, 2372.808
880.3080, 2417.871
881.4360, 2394.116
882.5630, 2277.925
883.6890, 2338.143
884.8160, 2264.832
885.9420, 2387.844
887.0690, 2277.691
888.1950, 2284.167
889.3210, 2133.537
890.4470, 2205.308
891.5730, 2183.094
892.6980, 2094.713
893.8240, 2318.325
894.9490, 2250.903
896.0740, 2215.580
897.1990, 2244.723
898.3240, 2056.584
899.4480, 2210.712
900.5730, 2119.123
901.6970, 2141.812
902.8210, 2241.780
903.9450, 2227.018
905.0690, 2236.502
906.1930, 2233.855
907.3160, 2207.354
908.4400, 2244.699
909.5630, 2252.313
910.6860, 2249.349
911.8090, 2193.381
912.9320, 2292.807
914.0550, 2350.501
915.1770, 2460.471
916.2990, 2239.729
917.4210, 2328.262
918.5440, 2427.051
919.6650, 2587.125
920.7870, 2653.456
921.9090, 2752.057
923.0300, 2697.920
924.1510, 2791.054
925.2720, 2790.443
926.3930, 2815.074
927.5140, 2884.941
928.6350, 2889.062
929.7550, 2954.260
930.8760, 2967.069
931.9960, 3044.965
933.1160, 3112.095
934.2360, 3115.503
935.3550, 3241.146
936.4750, 3177.030
937.5940, 3222.158
938.7140, 3327.534
939.8330, 3434.166
940.9520, 3330.033
942.0710, 3535.142
943.1890, 3586.482
944.3080, 3698.066
945.4260, 3822.885
946.5440, 3995.936
947.6620, 4213.219
948.7800, 4291.736
949.8980, 4365.485
951.0160, 4575.465
952.1330, 4864.678
953.2500, 5020.113
954.3680, 5279.777
955.4850, 5389.668
956.6010, 5711.781
957.7180, 5946.123
958.8350, 6137.689
959.9510, 6518.485
961.0670, 6629.508
962.1830, 6864.763
963.2990, 7335.238
964.4150, 7418.937
965.5310, 7928.858
966.6460, 8117.004
967.7620, 8523.370
968.8770, 8971.959
969.9920, 9568.762
971.1070, 9845.785
972.2210, 10366.02
973.3360, 10652.49
974.4500, 11113.16
975.5650, 11860.06
976.6790, 12193.17
977.7930, 12909.50
978.9070, 13428.05
980.0200, 14230.81
981.1340, 14929.78
982.2470, 15708.96
983.3610, 16499.36
984.4740, 17257.97
985.5870, 18317.80
986.6990, 19372.83
987.8120, 20839.08
988.9250, 21822.53
990.0370, 23266.21
991.1490, 24867.10
992.2610, 26332.20
993.3730, 27891.52
994.4850, 29808.05
995.5960, 31481.82
996.7080, 33228.85
997.8190, 35123.12
998.9300, 36952.67
1000.041, 39057.50
1001.152, 40628.66
1002.263, 42307.10
1003.373, 43310.83
1004.484, 44440.84
1005.594, 45057.14
1006.704, 45182.76
1007.814, 44775.65
1008.924, 44064.86
1010.034, 42999.38
1011.143, 41281.20
1012.253, 39451.92
1013.362, 37394.46
1014.471, 34872.66
1015.580, 32283.40
1016.689, 29950.68
1017.797, 27702.25
1018.906, 25389.28
1020.014, 23347.10
1021.122, 21518.56
1022.230, 20086.88
1023.338, 18703.82
1024.446, 17102.84
1025.554, 16180.49
1026.661, 15109.21
1027.768, 14379.18
1028.875, 13783.09
1029.983, 13056.06
1031.089, 12747.62
1032.196, 12097.08
1033.303, 11728.57
1034.409, 11253.24
1035.515, 11056.97
1036.622, 10438.45
1037.728, 10427.10
1038.833, 10133.12
1039.939, 9702.155
1041.045, 9484.139
1042.150, 9067.486
1043.255, 8893.050
1044.360, 8534.862
1045.465, 8364.021
1046.570, 7841.578
1047.675, 7522.811
1048.779, 7115.033
1049.884, 7003.686
1050.988, 6661.255
1052.092, 6429.861
1053.196, 6171.896
1054.300, 5837.528
1055.404, 5568.371
1056.507, 5327.463
1057.610, 5069.529
1058.714, 4843.513
1059.817, 4677.820
1060.920, 4416.811
1062.022, 4363.002
1063.125, 4099.827
1064.228, 3963.137
1065.330, 3669.876
1066.432, 3597.900
1067.534, 3441.206
1068.636, 3148.381
1069.738, 3271.425
1070.840, 3279.694
1071.941, 2824.527
1073.042, 2915.858
1074.144, 2809.042
1075.245, 2775.798
1076.346, 2598.830
1077.446, 2494.162
1078.547, 2591.251
1079.647, 2424.605
1080.748, 2501.752
1081.848, 2352.924
1082.948, 2278.848
1084.048, 2344.126
1085.148, 2321.808
1086.247, 2152.989
1087.347, 2138.993
1088.446, 2171.138
1089.545, 2156.582
1090.644, 2100.653
1091.743, 2027.355
1092.842, 1957.070
1093.940, 2125.293
1095.039, 2014.371
1096.137, 1976.561
1097.235, 1984.396
1098.333, 1909.225
1099.431, 1815.423
1100.529, 1923.272
1101.627, 1876.624
1102.724, 1934.019
1103.822, 1857.582
1104.919, 1887.946
1106.016, 1819.354
1107.113, 1782.223
1108.209, 1851.015
1109.306, 1791.701
1110.402, 1851.563
1111.499, 1822.065
1112.595, 1878.232
1113.691, 1811.728
1114.787, 1698.177
1115.883, 1775.013
1116.978, 1727.475
1118.074, 1825.890
1119.169, 1791.141
1120.264, 2026.613
1121.359, 2145.248
1122.454, 2167.551
1123.549, 1821.398
1124.644, 1643.464
1125.738, 1465.314
1126.832, 1118.464
1127.927, 974.5132
1129.021, 878.7935
1130.115, 860.0225
1131.208, 776.2432
1132.302, 703.3604
1133.396, 560.1182
1134.489, 466.2935
1135.582, 436.0015
1136.675, 284.9209
1137.768, 237.3379
1138.861, 225.1670
1139.954, 158.8208
1141.046, 68.96631
1142.138, 26.44287
1143.231, 34.88281
1144.323, 91.43359
1145.415, 173.9556
1146.507, 151.0513
1147.598, 174.1836
1148.690, 229.5801
1149.781, 227.1880
1150.872, 230.5483
1151.964, 314.0586
1153.054, 268.5083
1154.145, 298.8955
1155.236, 305.5190
1156.327, 288.8208
1157.417, 311.5601
1158.507, 273.7822
1159.597, 295.0068
1160.687, 222.5127
1161.777, 222.5620
1162.867, 147.9170
1163.956, 202.7896
1165.046, 196.6768
1166.135, 220.3716
1167.224, 175.8462
1168.313, 169.7769
1169.402, 183.0024
1170.491, 222.5654
1171.580, 229.3750
1172.668, 147.3042
1173.756, 190.5034
1174.845, 162.0283
1175.933, 65.38965
1177.020, 119.1416
1178.108, 138.3027
1179.196, 162.5503
1180.283, 130.1914
1181.371, 42.06836
1182.458, 131.1377
1183.545, 35.45166
1184.632, 69.96338
1185.719, 34.69482
1186.805, 59.63037
1187.892, 2.434082
1188.978, 70.08936
1190.065, 93.58301
1191.151, 27.92236
1192.237, 69.07373
1193.323, 33.94434
1194.408, 34.81104
1195.494, 160.3726
1196.579, 39.21484
1197.664, 156.9590
1198.750, 141.9771
1199.835, 127.8325
1200.919, 106.5176
1202.004, 80.02295
1203.089, 202.3335
1204.173, 156.4873
1205.258, 241.4697
1206.342, 176.3008
1207.426, 238.9624
1208.510, 257.4683
1209.594, 256.3701
1210.677, 273.9453
1211.761, 282.0630
1212.844, 300.9526
1213.927, 295.6890
1215.010, 386.2705
1216.093, 366.7495
1217.176, 387.5747
1218.259, 389.1484
1219.341, 381.1489
1220.424, 412.9995
1221.506, 384.7041
1222.588, 344.2559
1223.670, 431.6465
1224.752, 390.8887
1225.834, 542.9761
1226.915, 420.9243
1227.997, 497.7236
1229.078, 477.3774
1230.159, 513.8823
1231.240, 575.2402
1232.321, 579.4556
1233.402, 568.5283
1234.483, 505.4658
1235.563, 604.2539
1236.644, 559.8994
1237.724, 574.3965
1238.804, 594.7466
1239.884, 580.9492
1240.964, 631.0029
1242.044, 698.9097
1243.123, 644.6743
1244.203, 656.2920
1245.282, 615.7637
1246.361, 738.0864
1247.440, 650.2656
1248.519, 684.2959
1249.598, 679.1787
1250.676, 663.9131
1251.755, 707.4980
1252.833, 645.9351
1253.911, 767.4902
1254.989, 819.6289
1256.067, 748.6792
1257.145, 772.5254
1258.223, 727.2261
1259.300, 735.0083
1260.378, 737.4097
1261.455, 750.6611
1262.532, 832.7637
1263.609, 744.7197
1264.686, 836.5254
1265.763, 781.1948
1266.840, 895.7041
1267.916, 791.0767
1268.992, 826.2930
1270.069, 940.3608
1271.145, 853.2847
1272.221, 797.0615
1273.296, 839.0664
1274.372, 814.1367
1275.448, 922.2007
1276.523, 903.8975
1277.598, 935.0557
1278.673, 1068.928
1279.749, 841.5859
1280.823, 832.4102
1281.898, 755.7397
1282.973, 840.2231
1284.047, 916.1895
1285.122, 878.0947
1286.196, 814.4336
1287.270, 901.8682
1288.344, 794.0845
1289.418, 790.2217
1290.491, 753.2041
1291.565, 740.7339
1292.638, 922.3784
1293.712, 953.1289
1294.785, 843.9082
1295.858, 663.5942
1296.931, 712.8628
1298.003, 722.5010
1299.076, 767.6509
1300.149, 728.9746
1301.221, 676.1733
1302.293, 678.0166
1303.365, 685.7900
1304.437, 576.7969
1305.509, 618.3804
1306.581, 695.1284
1307.652, 606.3193
1308.724, 632.5186
1309.795, 658.3960
1310.866, 633.0898
1311.937, 605.6631
1313.008, 627.7998
1314.079, 596.3320
1315.150, 588.6455
1316.220, 503.3071
1317.291, 563.6924
1318.361, 637.8281
1319.431, 591.1572
1320.501, 648.3340
1321.571, 579.0332
1322.641, 617.8286
1323.710, 571.3789
1324.780, 584.8525
1325.849, 648.0156
1326.918, 543.6934
1327.987, 525.7061
1329.056, 525.6118
1330.125, 584.9609
1331.194, 523.0161
1332.263, 542.5474
1333.331, 562.1968
1334.399, 609.3252
1335.467, 594.8271
1336.535, 526.7979
1337.603, 569.7090
1338.671, 585.1738
1339.739, 551.1074
1340.806, 573.7236
1341.874, 569.7334
