##NAMES=Diopside
##RRUFFID=R060861
##IDEAL CHEMISTRY=CaMgSi_2_O_6_
##LOCALITY=Red Mountain Volcano, NW of Flagstaff, Arizona, USA
##OWNER=RRUFF
##SOURCE=Jennifer Sano
##DESCRIPTION=Worn brown fragment
##STATUS=The identification of this mineral has been confirmed by X-ray diffraction and chemical analysis
##URL=rruff.info/R060861
##MEASURED CHEMISTRY=(Ca_0.72_Fe^2+^_0.23_Na_0.05_)_Σ=1_(Mg_0.80_Al_0.15_Ti_0.03_Fe^3+^_0.02_)_Σ=1_(Si_1.82_Al_0.18_)_Σ=2_O_6_
##PIN_ID=M00947
##ORIENTATION=Laser parallel to a* (1 0 0). Fiducial mark perpendicular to laser is parallel to b [0 1 0]
156.1790, 0.0000000E+00
157.4150, 150.4062
158.6510, 0.2226560
159.8870, 30.15234
161.1220, 115.9082
162.3570, 318.4746
163.5930, 735.9824
164.8280, 826.8750
166.0620, 1101.994
167.2970, 1254.268
168.5310, 1466.027
169.7650, 1907.014
170.9990, 2356.418
172.2330, 2502.785
173.4670, 2769.670
174.7000, 2986.904
175.9330, 3166.561
177.1660, 3336.059
178.3990, 3510.705
179.6310, 3593.234
180.8640, 3683.779
182.0960, 3794.176
183.3280, 3859.611
184.5600, 3939.262
185.7910, 4337.395
187.0220, 4572.818
188.2540, 4695.719
189.4840, 4918.252
190.7150, 5033.602
191.9460, 5140.922
193.1760, 5445.363
194.4060, 5245.051
195.6360, 5302.086
196.8660, 5387.551
198.0960, 5054.520
199.3250, 4853.059
200.5540, 4951.232
201.7830, 4935.096
203.0120, 4795.699
204.2400, 4174.086
205.4690, 3321.293
206.6970, 2807.361
207.9250, 2300.312
209.1530, 2443.174
210.3800, 2767.883
211.6080, 2722.742
212.8350, 3132.582
214.0620, 3349.445
215.2880, 3394.746
216.5150, 3643.840
217.7410, 3907.492
218.9680, 4260.723
220.1940, 4295.281
221.4190, 4452.152
222.6450, 4687.293
223.8700, 4812.676
225.0960, 4971.281
226.3210, 4959.133
227.5450, 4906.164
228.7700, 4784.537
229.9940, 4512.416
231.2190, 4263.473
232.4430, 3743.693
233.6660, 3713.111
234.8900, 3276.756
236.1140, 3102.609
237.3370, 2905.652
238.5600, 2690.887
239.7830, 2508.305
241.0050, 2307.289
242.2280, 2068.801
243.4500, 1996.869
244.6720, 1681.166
245.8940, 1678.688
247.1160, 1459.436
248.3370, 1306.406
249.5580, 1393.598
250.7790, 1160.045
252.0000, 1133.945
253.2210, 1065.025
254.4410, 955.6992
255.6620, 683.7246
256.8820, 622.1836
258.1020, 476.6035
259.3210, 327.8359
260.5410, 296.3145
261.7600, 49.00586
262.9790, 15.97266
264.1980, 102.4199
265.4170, 181.5820
266.6360, 345.3477
267.8540, 412.0645
269.0720, 412.4023
270.2900, 347.6348
271.5080, 578.7656
272.7260, 329.7930
273.9430, 517.7227
275.1600, 294.5547
276.3770, 236.2930
277.5940, 1.943359
278.8100, 98.49609
280.0270, 16.02148
281.2430, 211.6289
282.4590, 329.3184
283.6750, 547.0566
284.8910, 940.6797
286.1060, 1201.982
287.3210, 1422.941
288.5360, 1853.555
289.7510, 2129.941
290.9660, 2367.369
292.1800, 2560.879
293.3950, 2947.494
294.6090, 3453.150
295.8230, 3695.902
297.0360, 4055.734
298.2500, 4420.500
299.4630, 4561.230
300.6760, 5281.033
301.8890, 5924.236
303.1020, 6929.133
304.3150, 7209.092
305.5270, 7864.217
306.7390, 8346.164
307.9510, 9090.770
309.1630, 9690.303
310.3750, 10593.13
311.5860, 11386.73
312.7970, 12513.30
314.0080, 13250.62
315.2190, 14205.51
316.4300, 15362.12
317.6400, 16277.36
318.8510, 17730.43
320.0610, 18740.70
321.2710, 20092.24
322.4800, 20790.04
323.6900, 21981.14
324.8990, 23094.52
326.1080, 23732.17
327.3170, 24772.08
328.5260, 25423.25
329.7340, 25903.64
330.9430, 26399.26
332.1510, 26325.04
333.3590, 26412.97
334.5670, 26512.07
335.7740, 26243.29
336.9820, 26050.59
338.1890, 25261.04
339.3960, 25062.63
340.6030, 24220.32
341.8100, 24162.10
343.0160, 23123.96
344.2220, 22587.90
345.4280, 21577.91
346.6340, 21330.97
347.8400, 20686.09
349.0460, 20541.59
350.2510, 19758.37
351.4560, 20258.53
352.6610, 19667.71
353.8660, 18976.91
355.0700, 18330.12
356.2750, 17835.28
357.4790, 17405.15
358.6830, 17046.58
359.8870, 16805.50
361.0910, 16421.99
362.2940, 16158.28
363.4970, 15725.60
364.7000, 15665.96
365.9030, 15440.37
367.1060, 15511.82
368.3080, 15307.31
369.5110, 15221.83
370.7130, 15466.39
371.9150, 15163.98
373.1170, 15342.61
374.3180, 15181.27
375.5200, 15549.95
376.7210, 15699.66
377.9220, 16048.39
379.1230, 16077.15
380.3230, 16585.92
381.5240, 17115.72
382.7240, 17523.53
383.9240, 18499.36
385.1240, 19194.20
386.3240, 20406.05
387.5230, 21087.92
388.7230, 22379.79
389.9220, 23595.68
391.1210, 24363.57
392.3200, 25499.45
393.5180, 26092.35
394.7170, 26331.24
395.9150, 26534.13
397.1130, 26075.01
398.3110, 25399.90
399.5080, 24253.78
400.7060, 22777.64
401.9030, 21175.50
403.1000, 19324.34
404.2970, 17556.18
405.4940, 16000.99
406.6910, 13931.79
407.8870, 12179.52
409.0830, 10578.27
410.2790, 9225.564
411.4750, 8121.621
412.6710, 7176.531
413.8660, 6027.461
415.0610, 5277.500
416.2560, 4510.062
417.4510, 3978.281
418.6460, 3255.734
419.8410, 2985.146
421.0350, 2689.854
422.2290, 2303.027
423.4230, 2085.490
424.6170, 1951.922
425.8100, 1705.322
427.0040, 1565.170
428.1970, 1390.797
429.3900, 1235.316
430.5830, 1014.578
431.7760, 800.8027
432.9680, 680.9062
434.1610, 485.1562
435.3530, 456.2812
436.5450, 300.3711
437.7360, 245.4219
438.9280, 164.0410
440.1190, 5.603516
441.3110, 51.31250
442.5020, 71.82227
443.6930, 44.03125
444.8830, 184.3184
446.0740, 130.7500
447.2640, 11.27734
448.4540, 17.85547
449.6440, 50.47852
450.8340, 129.8379
452.0240, 31.09961
453.2130, 30.32812
454.4020, 7.208984
455.5910, 166.3867
456.7800, 204.2520
457.9690, 375.1582
459.1570, 518.1855
460.3460, 435.8828
461.5340, 613.4980
462.7220, 593.9336
463.9090, 618.9512
465.0970, 976.3145
466.2840, 784.5410
467.4720, 812.7695
468.6590, 1183.629
469.8460, 1084.885
471.0320, 1199.855
472.2190, 1141.859
473.4050, 1122.994
474.5910, 1116.473
475.7770, 1050.932
476.9630, 1098.637
478.1490, 1078.992
479.3340, 1198.564
480.5190, 1228.582
481.7040, 1237.768
482.8890, 1424.387
484.0740, 1368.607
485.2580, 1400.326
486.4430, 1522.299
487.6270, 1677.959
488.8110, 1599.992
489.9950, 1754.088
491.1780, 1771.750
492.3620, 1864.025
493.5450, 2028.230
494.7280, 2073.990
495.9110, 2225.988
497.0940, 2321.492
498.2760, 2539.670
499.4590, 2813.703
500.6410, 3092.590
501.8230, 3318.332
503.0050, 3708.934
504.1860, 4226.391
505.3680, 4568.709
506.5490, 5134.879
507.7300, 5506.908
508.9110, 6375.791
510.0920, 6691.527
511.2730, 7307.116
512.4530, 7614.716
513.6330, 7664.842
514.8130, 8005.981
515.9930, 8249.967
517.1730, 8285.797
518.3520, 8550.479
519.5320, 8522.998
520.7110, 8421.363
521.8900, 8544.568
523.0690, 8400.617
524.2470, 8482.508
525.4260, 8467.231
526.6040, 8696.795
527.7820, 8652.200
528.9600, 8848.439
530.1380, 8750.514
531.3150, 8745.422
532.4930, 8682.164
533.6700, 8690.736
534.8470, 8715.142
536.0240, 8564.381
537.2000, 8751.445
538.3770, 8382.340
539.5530, 8325.063
540.7290, 8141.613
541.9050, 8216.990
543.0810, 8135.191
544.2570, 7897.218
545.4320, 7738.069
546.6080, 7664.742
547.7830, 7609.238
548.9580, 7573.557
550.1320, 7485.697
551.3070, 7381.676
552.4810, 7359.511
553.6550, 7311.550
554.8300, 7279.160
556.0030, 7275.429
557.1770, 7279.868
558.3510, 7254.262
559.5240, 7323.539
560.6970, 7251.748
561.8700, 7128.832
563.0430, 7153.777
564.2160, 7223.535
565.3880, 6975.107
566.5600, 6970.490
567.7320, 6849.217
568.9040, 6590.691
570.0760, 6550.506
571.2480, 6467.131
572.4190, 6199.561
573.5900, 5975.801
574.7610, 5753.848
575.9320, 5753.702
577.1030, 5731.359
578.2740, 5433.167
579.4440, 5720.258
580.6140, 4842.409
581.7840, 4706.492
582.9540, 4315.721
584.1240, 4499.906
585.2930, 3868.581
586.4630, 3481.115
587.6320, 3426.690
588.8010, 2977.316
589.9700, 2659.141
591.1380, 2345.251
592.3070, 2089.921
593.4750, 1743.542
594.6430, 1306.955
595.8110, 1266.236
596.9790, 836.7852
598.1460, 715.6758
599.3140, 435.5107
600.4810, 276.7559
601.6480, 220.5791
602.8150, 126.3516
603.9820, 120.0400
605.1480, 181.0146
606.3150, 329.9395
607.4810, 289.1631
608.6470, 306.2705
609.8130, 206.8945
610.9790, 208.5352
612.1440, 182.9707
613.3100, 190.4150
614.4750, 138.3525
615.6400, 191.0791
616.8050, 153.7295
617.9690, 132.4062
619.1340, 117.7451
620.2980, 41.46875
621.4620, 35.55273
622.6260, 267.6494
623.7900, 365.8896
624.9540, 348.8135
626.1170, 396.2012
627.2810, 548.7588
628.4440, 572.7754
629.6070, 873.2344
630.7690, 1436.745
631.9320, 1246.888
633.0950, 1697.017
634.2570, 1588.918
635.4190, 1916.178
636.5810, 2210.886
637.7430, 2713.033
638.9040, 2830.629
640.0660, 3133.004
641.2270, 3394.850
642.3880, 4138.098
643.5490, 4452.815
644.7100, 5093.318
645.8700, 5670.603
647.0310, 6255.671
648.1910, 7118.524
649.3510, 8153.162
650.5110, 9311.587
651.6710, 10414.80
652.8300, 11870.80
653.9900, 13488.58
655.1490, 15322.33
656.3080, 17517.53
657.4670, 19674.68
658.6250, 22324.63
659.7840, 25052.37
660.9420, 27643.91
662.1010, 30652.23
663.2590, 33092.37
664.4170, 35665.29
665.5740, 37952.00
666.7320, 39063.52
667.8890, 39173.84
669.0460, 38966.95
670.2030, 37399.87
671.3600, 35217.59
672.5170, 32990.12
673.6740, 30115.44
674.8300, 27136.58
675.9860, 24622.51
677.1420, 21833.26
678.2980, 19482.82
679.4540, 17251.18
680.6090, 15616.36
681.7650, 13888.34
682.9200, 11982.15
684.0750, 11004.76
685.2300, 9805.192
686.3840, 8788.440
687.5390, 7782.506
688.6930, 7002.543
689.8470, 6293.738
691.0010, 5758.625
692.1550, 5203.977
693.3090, 4863.150
694.4620, 4506.148
695.6160, 4193.975
696.7690, 3939.624
697.9220, 3472.103
699.0750, 3299.408
700.2280, 3000.544
701.3800, 2870.510
702.5320, 2683.307
703.6850, 2609.937
704.8370, 2267.400
705.9880, 2243.698
707.1400, 2172.834
708.2920, 2168.810
709.4430, 1902.623
710.5940, 1674.277
711.7450, 1400.775
712.8960, 1236.118
714.0470, 1427.306
715.1970, 1175.341
716.3480, 1006.224
717.4980, 1118.959
718.6480, 967.5498
719.7980, 979.9971
720.9470, 873.3076
722.0970, 942.4824
723.2460, 737.5293
724.3960, 655.4512
725.5450, 433.2773
726.6940, 479.9902
727.8420, 325.5752
728.9910, 239.0322
730.1390, 197.3633
731.2870, 61.55957
732.4350, 126.5820
733.5830, 35.06055
734.7310, 19.40527
735.8790, 26.84473
737.0260, 26.36523
738.1730, 3.229492
739.3200, 144.9785
740.4670, 215.8945
741.6140, 244.8945
742.7610, 227.7461
743.9070, 239.2080
745.0530, 282.9668
746.1990, 300.3125
747.3450, 356.3711
748.4910, 364.7764
749.6370, 393.1641
750.7820, 421.8545
751.9270, 413.9443
753.0720, 461.6367
754.2170, 436.4629
755.3620, 477.0293
756.5070, 418.3857
757.6510, 336.2031
758.7950, 403.9834
759.9400, 270.6758
761.0840, 358.1211
762.2270, 186.4727
763.3710, 122.5137
764.5140, 383.9883
765.6580, 285.3672
766.8010, 169.3184
767.9440, 149.5098
769.0870, 120.5586
770.2290, 69.89844
771.3720, 140.8672
772.5140, 44.87695
773.6560, 146.5332
774.7990, 95.18359
775.9400, 65.83008
777.0820, 167.4785
778.2240, 339.1270
779.3650, 219.7812
780.5060, 306.4434
781.6470, 90.11719
782.7880, 352.8027
783.9290, 264.5039
785.0690, 413.2207
786.2100, 514.9570
787.3500, 529.7188
788.4900, 403.5020
789.6300, 540.3145
790.7700, 641.1543
791.9090, 606.0273
793.0490, 746.9336
794.1880, 774.8770
795.3270, 899.8574
796.4660, 812.8809
797.6050, 965.9453
798.7440, 1061.057
799.8820, 1327.217
801.0200, 1363.426
802.1590, 1791.686
803.2970, 1451.002
804.4340, 1724.373
805.5720, 1490.805
806.7100, 1785.295
807.8470, 1976.850
808.9840, 2012.471
810.1210, 2194.398
811.2580, 2190.914
812.3950, 2349.744
813.5310, 2350.646
814.6680, 2373.625
815.8040, 2490.682
816.9400, 2474.518
818.0760, 2620.039
819.2120, 2623.344
820.3470, 2615.734
821.4830, 2916.213
822.6180, 2790.783
823.7530, 2764.445
824.8880, 2921.201
826.0230, 2844.055
827.1580, 2965.008
828.2920, 2783.061
829.4270, 2872.215
830.5610, 3018.475
831.6950, 2914.842
832.8290, 2933.316
833.9620, 2913.613
835.0960, 2862.600
836.2290, 2830.414
837.3620, 2797.521
838.4950, 2723.387
839.6280, 2724.555
840.7610, 2668.062
841.8940, 2619.256
843.0260, 2631.795
844.1580, 2547.459
845.2910, 2580.254
846.4230, 2615.902
847.5540, 2593.400
848.6860, 2670.436
849.8170, 2655.770
850.9490, 2528.238
852.0800, 2635.850
853.2110, 2696.602
854.3420, 2906.500
855.4730, 2859.543
856.6030, 3198.734
857.7340, 3197.072
858.8640, 2911.564
859.9940, 3143.207
861.1240, 3212.006
862.2540, 3225.660
863.3830, 3150.754
864.5130, 3254.447
865.6420, 3381.029
866.7710, 3188.686
867.9000, 3424.914
869.0290, 3142.287
870.1570, 3274.264
871.2860, 3367.938
872.4140, 3181.348
873.5430, 3238.443
874.6710, 3103.598
875.7980, 3054.707
876.9260, 3037.164
878.0540, 3047.682
879.1810, 2936.621
880.3080, 3120.326
881.4360, 2875.119
882.5630, 2898.615
883.6890, 3090.422
884.8160, 2800.270
885.9420, 2780.945
887.0690, 2591.379
888.1950, 2764.844
889.3210, 2740.006
890.4470, 2785.936
891.5730, 2605.939
892.6980, 2616.678
893.8240, 2663.018
894.9490, 2648.059
896.0740, 2546.816
897.1990, 2609.535
898.3240, 2481.557
899.4480, 2699.076
900.5730, 2587.432
901.6970, 2394.367
902.8210, 2701.920
903.9450, 2443.457
905.0690, 2655.631
906.1930, 2688.176
907.3160, 2540.029
908.4400, 2825.203
909.5630, 2648.691
910.6860, 2709.504
911.8090, 2732.637
912.9320, 2843.098
914.0550, 2991.906
915.1770, 3172.039
916.2990, 3055.492
917.4210, 3188.266
918.5440, 3142.332
919.6650, 3178.740
920.7870, 3411.498
921.9090, 3573.543
923.0300, 3600.906
924.1510, 3641.543
925.2720, 3838.473
926.3930, 3770.699
927.5140, 3831.219
928.6350, 3765.027
929.7550, 4055.109
930.8760, 3989.492
931.9960, 3949.172
933.1160, 3853.148
934.2360, 4026.379
935.3550, 3932.598
936.4750, 3980.381
937.5940, 3875.756
938.7140, 4049.102
939.8330, 3967.738
940.9520, 4042.637
942.0710, 4098.809
943.1890, 4080.240
944.3080, 4137.953
945.4260, 4154.941
946.5440, 4150.193
947.6620, 4253.715
948.7800, 4398.506
949.8980, 4594.559
951.0160, 4740.879
952.1330, 5008.469
953.2500, 5280.332
954.3680, 5306.537
955.4850, 5549.820
956.6010, 5409.453
957.7180, 5845.338
958.8350, 5989.480
959.9510, 6353.875
961.0670, 6768.527
962.1830, 6997.424
963.2990, 7002.572
964.4150, 7313.309
965.5310, 7585.506
966.6460, 7816.527
967.7620, 8202.682
968.8770, 8794.086
969.9920, 8969.730
971.1070, 9805.625
972.2210, 9917.758
973.3360, 10472.14
974.4500, 10885.77
975.5650, 11681.63
976.6790, 12017.74
977.7930, 12655.09
978.9070, 13498.68
980.0200, 13915.51
981.1340, 14821.57
982.2470, 15534.89
983.3610, 16147.44
984.4740, 17298.22
985.5870, 17939.24
986.6990, 19019.87
987.8120, 20254.38
988.9250, 21256.75
990.0370, 22856.72
991.1490, 24259.93
992.2610, 25564.39
993.3730, 27205.07
994.4850, 28945.98
995.5960, 30449.13
996.7080, 32466.51
997.8190, 34405.12
998.9300, 36198.97
1000.041, 37789.03
1001.152, 39777.34
1002.263, 41112.89
1003.373, 42052.69
1004.484, 43082.73
1005.594, 43758.04
1006.704, 43914.61
1007.814, 43545.44
1008.924, 43030.51
1010.034, 41753.87
1011.143, 40308.52
1012.253, 38542.62
1013.362, 36411.85
1014.471, 34158.00
1015.580, 31721.13
1016.689, 29422.33
1017.797, 26869.74
1018.906, 25017.17
1020.014, 23139.16
1021.122, 21312.61
1022.230, 19896.02
1023.338, 18527.28
1024.446, 17453.01
1025.554, 16626.63
1026.661, 15737.79
1027.768, 15343.64
1028.875, 14595.38
1029.983, 14102.58
1031.089, 13451.18
1032.196, 13262.75
1033.303, 12777.70
1034.409, 12613.04
1035.515, 12402.05
1036.622, 12045.48
1037.728, 11613.37
1038.833, 11343.04
1039.939, 11264.43
1041.045, 11070.14
1042.150, 10832.03
1043.255, 10555.14
1044.360, 10115.27
1045.465, 9887.203
1046.570, 9579.986
1047.675, 9262.541
1048.779, 9057.676
1049.884, 8703.621
1050.988, 8451.297
1052.092, 8062.410
1053.196, 7926.230
1054.300, 7498.051
1055.404, 7253.209
1056.507, 7113.555
1057.610, 6758.551
1058.714, 6483.494
1059.817, 6232.320
1060.920, 6023.439
1062.022, 5854.766
1063.125, 5651.771
1064.228, 5450.695
1065.330, 5094.895
1066.432, 5163.551
1067.534, 4745.279
1068.636, 4857.020
1069.738, 4687.379
1070.840, 4553.189
1071.941, 4428.176
1073.042, 4355.910
1074.144, 4098.051
1075.245, 4075.538
1076.346, 3899.273
1077.446, 3809.854
1078.547, 3874.467
1079.647, 3715.776
1080.748, 3566.071
1081.848, 3647.660
1082.948, 3592.666
1084.048, 3635.688
1085.148, 3452.057
1086.247, 3447.857
1087.347, 3403.633
1088.446, 3266.514
1089.545, 3327.891
1090.644, 3252.581
1091.743, 3146.492
1092.842, 3044.942
1093.940, 2960.406
1095.039, 3011.936
1096.137, 2795.689
1097.235, 2853.837
1098.333, 2731.601
1099.431, 2810.066
1100.529, 2770.026
1101.627, 2703.335
1102.724, 2590.852
1103.822, 2563.921
1104.919, 2590.372
1106.016, 2659.436
1107.113, 2541.065
1108.209, 2626.002
1109.306, 2558.464
1110.402, 2574.468
1111.499, 2232.619
1112.595, 2300.834
1113.691, 2306.520
1114.787, 2401.558
1115.883, 2157.328
1116.978, 2265.625
1118.074, 2090.783
1119.169, 2362.900
1120.264, 2145.760
1121.359, 2077.906
1122.454, 2084.283
1123.549, 1974.864
1124.644, 1922.594
1125.738, 1724.488
1126.832, 1601.838
1127.927, 1376.734
1129.021, 1229.053
1130.115, 1022.265
1131.208, 749.8721
1132.302, 771.5771
1133.396, 566.4072
1134.489, 597.5938
1135.582, 423.5156
1136.675, 380.7100
1137.768, 291.8184
1138.861, 202.6719
1139.954, 234.6240
1141.046, 242.5635
1142.138, 161.1348
1143.231, 0.5312500
1144.323, 131.0557
1145.415, 75.69531
1146.507, 197.0205
1147.598, 50.59961
1148.690, 81.33789
1149.781, 146.1787
1150.872, 295.0801
1151.964, 393.3643
1153.054, 379.4443
1154.145, 197.3467
1155.236, 212.4736
1156.327, 280.3086
1157.417, 371.8936
1158.507, 354.8516
1159.597, 389.0117
1160.687, 321.1445
1161.777, 220.4619
1162.867, 129.3281
1163.956, 252.3076
1165.046, 295.4307
1166.135, 342.8789
1167.224, 164.2480
1168.313, 257.2568
1169.402, 419.4072
1170.491, 193.0605
1171.580, 234.0449
1172.668, 206.8066
1173.756, 229.3057
1174.845, 215.7539
1175.933, 234.3818
1177.020, 306.3789
1178.108, 190.5020
1179.196, 183.0967
1180.283, 177.3857
1181.371, 53.70898
1182.458, 244.1328
1183.545, 247.8154
1184.632, 33.28027
1185.719, 111.0850
1186.805, 38.23633
1187.892, 14.60254
1188.978, 22.74609
1190.065, 14.08984
1191.151, 20.08789
1192.237, 103.3027
1193.323, 28.91309
1194.408, 10.62402
1195.494, 12.60547
1196.579, 230.0684
1197.664, 114.9863
1198.750, 22.71191
1199.835, 238.2002
1200.919, 114.5264
1202.004, 55.65039
1203.089, 257.6250
1204.173, 156.3535
1205.258, 291.8857
1206.342, 132.2539
1207.426, 185.4121
1208.510, 253.3740
1209.594, 224.1582
1210.677, 233.7520
1211.761, 307.1680
1212.844, 261.3984
1213.927, 235.4414
1215.010, 266.2891
1216.093, 388.9463
1217.176, 401.4355
1218.259, 353.7588
1219.341, 446.9023
1220.424, 437.8818
1221.506, 434.6953
1222.588, 412.3389
1223.670, 594.8076
1224.752, 490.1211
1225.834, 573.2666
1226.915, 411.2510
1227.997, 595.0547
1229.078, 465.6963
1230.159, 593.1621
1231.240, 731.4639
1232.321, 557.6084
1233.402, 960.5850
1234.483, 579.4053
1235.563, 628.0557
1236.644, 708.5420
1237.724, 659.8662
1238.804, 766.0254
1239.884, 667.0234
1240.964, 855.8545
1242.044, 847.5264
1243.123, 617.0391
1244.203, 689.3779
1245.282, 731.5488
1246.361, 669.5527
1247.440, 691.3877
1248.519, 701.0527
1249.598, 634.5469
1250.676, 705.8662
1251.755, 682.0146
1252.833, 668.9902
1253.911, 765.7881
1254.989, 650.7900
1256.067, 761.1777
1257.145, 828.3574
1258.223, 854.6289
1259.300, 718.0361
1260.378, 791.3672
1261.455, 780.3389
1262.532, 765.6797
1263.609, 868.0889
1264.686, 754.3105
1265.763, 854.5078
1266.840, 869.0566
1267.916, 922.5576
1268.992, 891.1719
1270.069, 885.7891
1271.145, 964.9795
1272.221, 997.0820
1273.296, 955.1523
1274.372, 1010.139
1275.448, 890.1289
1276.523, 917.2568
1277.598, 1015.043
1278.673, 976.6680
1279.749, 1027.658
1280.823, 1047.318
1281.898, 884.5146
1282.973, 1005.577
1284.047, 1014.218
1285.122, 895.5186
1286.196, 1010.991
1287.270, 898.4424
1288.344, 865.4082
1289.418, 889.0703
1290.491, 854.2969
1291.565, 923.0117
1292.638, 902.5674
1293.712, 865.3486
1294.785, 861.5469
1295.858, 750.0078
1296.931, 842.2568
1298.003, 796.0977
1299.076, 804.7656
1300.149, 812.4570
1301.221, 679.1533
1302.293, 777.9854
1303.365, 682.8477
1304.437, 644.0049
1305.509, 645.4473
1306.581, 573.8330
1307.652, 604.9629
1308.724, 689.0381
1309.795, 615.1826
1310.866, 578.1484
1311.937, 542.8838
1313.008, 635.9014
1314.079, 609.9072
1315.150, 584.5576
1316.220, 531.0039
1317.291, 542.7822
1318.361, 526.2461
1319.431, 644.5039
1320.501, 509.1016
1321.571, 615.4697
1322.641, 563.1387
1323.710, 535.8633
1324.780, 528.2930
1325.849, 549.3330
