##NAMES=Diopside
##RRUFFID=R070123
##IDEAL CHEMISTRY=CaMgSi_2_O_6_
##LOCALITY=Yates mine, Otter Lake, Huddersfield Township, Pontiac County, Québec, Canada
##OWNER=RRUFF
##SOURCE=Michael Scott
##DESCRIPTION=Black prismatic crystals associated with orange calcite
##STATUS=The identification of this mineral has been confirmed by X-ray diffraction and chemical analysis
##URL=rruff.info/R070123
##MEASURED CHEMISTRY=(Ca_0.95_Na_0.04_Mn_0.01_)_Σ=1_(Mg_0.63_Fe_0.33_Al_0.04_)_Σ=1_Si_2.00_O_6_
##PIN_ID=M01501
##ORIENTATION=Laser parallel to -b* (0 -1 0). Fiducial mark perpendicular to laser is parallel to c [0 0 1]
115.5700, 0.0000000E+00
116.8080, 77.89990
118.0460, 110.7119
119.2830, 18.59863
120.5210, 3.913086
121.7580, 32.52783
122.9950, 129.4453
124.2320, 162.4883
125.4690, 96.42212
126.7050, 182.9983
127.9410, 216.1968
129.1780, 301.9827
130.4140, 380.3169
131.6490, 427.6758
132.8850, 429.5405
134.1200, 503.1958
135.3560, 578.9258
136.5910, 506.0762
137.8260, 492.6130
139.0610, 452.3792
140.2950, 388.7319
141.5290, 295.2625
142.7640, 211.0786
143.9980, 67.16089
145.2320, 7.491455
146.4650, 34.94482
147.6990, 115.8372
148.9320, 28.82446
150.1650, 3.004639
151.3980, 27.36670
152.6310, 14.09937
153.8640, 18.59399
155.0960, 102.4343
156.3280, 53.41357
157.5600, 24.53418
158.7920, 100.7922
160.0240, 210.1826
161.2560, 197.6985
162.4870, 222.3320
163.7180, 386.0776
164.9490, 439.9285
166.1800, 575.8796
167.4110, 628.9260
168.6410, 662.0659
169.8720, 905.2961
171.1020, 1041.613
172.3320, 1102.013
173.5620, 1325.491
174.7910, 1340.045
176.0210, 1416.671
177.2500, 1495.366
178.4790, 1274.129
179.7080, 1208.956
180.9370, 903.8442
182.1650, 695.7917
183.3940, 590.7969
184.6220, 457.8579
185.8500, 429.9724
187.0780, 403.1387
188.3050, 457.3557
189.5330, 411.2390
190.7600, 418.4812
191.9870, 385.1475
193.2140, 402.4592
194.4410, 414.7961
195.6680, 412.1677
196.8940, 384.6201
198.1200, 428.2439
199.3470, 417.9609
200.5720, 460.7051
201.7980, 400.4932
203.0240, 481.3374
204.2490, 267.2319
205.4740, 203.1279
206.6990, 129.0452
207.9240, 150.9832
209.1490, 141.9417
210.3740, 182.9255
211.5980, 194.9250
212.8220, 205.8845
214.0460, 194.9795
215.2700, 254.0337
216.4930, 244.1042
217.7170, 313.1919
218.9400, 350.3230
220.1630, 480.4961
221.3860, 701.7231
222.6090, 788.9717
223.8320, 991.2427
225.0540, 1234.529
226.2760, 1399.832
227.4980, 1809.149
228.7200, 2058.482
229.9420, 2448.829
231.1630, 2582.193
232.3850, 2726.570
233.6060, 2680.963
234.8270, 2466.372
236.0480, 2251.796
237.2690, 2015.234
238.4890, 1686.687
239.7090, 1569.155
240.9290, 1375.637
242.1490, 1327.134
243.3690, 1256.645
244.5890, 1242.171
245.8080, 1279.710
247.0270, 1222.264
248.2470, 1258.832
249.4650, 1237.203
250.6840, 1223.956
251.9030, 1207.615
253.1210, 1205.236
254.3390, 1187.871
255.5570, 1179.518
256.7750, 1215.178
257.9930, 1223.850
259.2100, 1228.535
260.4280, 1201.232
261.6450, 1009.942
262.8620, 1028.215
264.0790, 864.7520
265.2950, 927.0295
266.5120, 786.1411
267.7280, 903.8982
268.9440, 826.9387
270.1600, 720.5657
271.3760, 705.2852
272.5920, 862.0366
273.8070, 717.8447
275.0220, 802.6326
276.2370, 765.5461
277.4520, 749.1995
278.6670, 735.9233
279.8820, 755.4490
281.0960, 777.4312
282.3100, 804.2664
283.5240, 862.4070
284.7380, 881.8843
285.9520, 945.4229
287.1650, 961.2542
288.3780, 1025.656
289.5920, 1024.967
290.8050, 1165.699
292.0170, 1190.068
293.2300, 1321.729
294.4430, 1421.151
295.6550, 1498.600
296.8670, 1766.133
298.0790, 1866.629
299.2910, 2050.980
300.5020, 2409.586
301.7140, 2723.639
302.9250, 3150.552
304.1360, 3458.155
305.3470, 3873.777
306.5580, 4535.419
307.7680, 5226.078
308.9780, 5762.941
310.1890, 6538.636
311.3990, 7461.384
312.6090, 8468.110
313.8180, 9506.853
315.0280, 10382.61
316.2370, 11581.38
317.4460, 12193.17
318.6550, 13116.97
319.8640, 13314.79
321.0730, 13403.74
322.2810, 12881.58
323.4890, 12223.44
324.6980, 11445.05
325.9060, 10263.48
327.1130, 9094.367
328.3210, 8030.476
329.5280, 7212.672
330.7360, 6398.600
331.9430, 5675.541
333.1500, 5188.492
334.3560, 4727.455
335.5630, 4423.428
336.7690, 4100.412
337.9760, 3903.407
339.1820, 3680.413
340.3870, 3413.430
341.5930, 3446.458
342.7990, 3357.495
344.0040, 3423.542
345.2090, 3322.599
346.4140, 3211.664
347.6190, 3239.739
348.8240, 3193.822
350.0280, 3467.913
351.2330, 3292.174
352.4370, 3273.121
353.6410, 3087.237
354.8440, 2917.362
356.0480, 2791.495
357.2520, 2519.635
358.4550, 2385.783
359.6580, 2117.938
360.8610, 2085.101
362.0640, 1724.272
363.2660, 1641.450
364.4690, 1505.635
365.6710, 1290.827
366.8730, 1231.025
368.0750, 1184.231
369.2770, 1108.443
370.4780, 1047.662
371.6800, 998.8862
372.8810, 899.1172
374.0820, 805.3545
375.2830, 911.5977
376.4830, 879.8474
377.6840, 776.1030
378.8840, 824.3647
380.0840, 730.6321
381.2840, 697.9060
382.4840, 822.1855
383.6840, 697.4705
384.8830, 792.7617
386.0830, 648.0586
387.2820, 683.3616
388.4810, 607.6699
389.6800, 532.9839
390.8780, 574.3040
392.0770, 600.6294
393.2750, 431.9602
394.4730, 347.2964
395.6710, 316.6377
396.8690, 278.9844
398.0660, 212.3359
399.2640, 152.6924
400.4610, 82.05420
401.6580, 72.42041
402.8550, 21.79126
404.0520, 25.16724
405.2490, 29.54736
406.4450, 10.06763
407.6410, 41.32104
408.8370, 40.71973
410.0330, 33.13013
411.2290, 21.44800
412.4240, 46.02271
413.6200, 24.38965
414.8150, 19.18823
416.0100, 19.23267
417.2050, 3.662354
418.4000, 51.90015
419.5940, 16.51953
420.7880, 97.05298
421.9830, 81.66748
423.1770, 93.31592
424.3700, 46.00513
425.5640, 23.28882
426.7580, 14.58960
427.9510, 39.10278
429.1440, 2.809814
430.3370, 43.51489
431.5300, 1.762939
432.7220, 50.04443
433.9150, 56.66846
435.1070, 44.59424
436.2990, 12.86206
437.4910, 31.13867
438.6830, 22.42017
439.8750, 15.29370
441.0660, 60.98706
442.2570, 11.27222
443.4480, 4.562988
444.6390, 4.144043
445.8300, 0.8525390
447.0210, 86.43896
448.2110, 117.7402
449.4010, 50.04468
450.5910, 64.36133
451.7810, 2.681641
452.9710, 12.91357
454.1610, 7.373291
455.3500, 37.72461
456.5390, 71.07935
457.7280, 100.4548
458.9170, 84.84692
460.1060, 15.26074
461.2940, 34.68311
462.4830, 12.11792
463.6710, 63.42798
464.8590, 29.00024
466.0470, 15.44629
467.2350, 40.09058
468.4220, 1.626709
469.6090, 26.85303
470.7970, 5.344482
471.9840, 3.846924
473.1700, 17.73926
474.3570, 15.87231
475.5440, 32.41577
476.7300, 27.98438
477.9160, 26.57983
479.1020, 57.18823
480.2880, 85.81885
481.4740, 147.4570
482.6590, 131.1040
483.8440, 124.7578
485.0300, 236.4121
486.2140, 289.0686
487.3990, 345.7280
488.5840, 492.4067
489.7680, 551.0850
490.9530, 670.7729
492.1370, 908.4602
493.3210, 1081.147
494.5040, 1408.834
495.6880, 1749.520
496.8720, 2171.212
498.0550, 2825.903
499.2380, 3412.593
500.4210, 3939.283
501.6040, 4572.970
502.7860, 4778.658
503.9690, 4944.342
505.1510, 4736.027
506.3330, 4278.708
507.5150, 3670.388
508.6970, 3040.072
509.8780, 2450.761
511.0600, 2001.458
512.2410, 1708.155
513.4220, 1432.849
514.6030, 1268.542
515.7840, 1141.231
516.9640, 1047.929
518.1440, 938.6401
519.3250, 917.3533
520.5050, 857.0657
521.6850, 826.7810
522.8640, 825.5142
524.0440, 852.2568
525.2230, 895.0088
526.4020, 899.7725
527.5820, 914.5425
528.7600, 943.3213
529.9390, 952.1006
531.1180, 926.3118
532.2960, 896.6699
533.4740, 853.4500
534.6520, 871.2256
535.8300, 834.9971
537.0080, 892.7642
538.1850, 798.5269
539.3630, 841.2847
540.5400, 869.0378
541.7170, 749.7861
542.8940, 768.5298
544.0700, 779.2683
545.2470, 723.0017
546.4230, 736.7295
547.5990, 785.4524
548.7750, 803.6860
549.9510, 733.3982
551.1270, 832.1042
552.3020, 772.8047
553.4780, 759.3950
554.6530, 777.5957
555.8280, 748.2783
557.0030, 776.9268
558.1770, 670.5972
559.3520, 744.2610
560.5260, 689.9937
561.7000, 734.6450
562.8740, 689.5991
564.0480, 707.4927
565.2220, 716.7568
566.3950, 695.3774
567.5680, 732.2163
568.7420, 696.8318
569.9150, 667.1421
571.0870, 695.4204
572.2600, 597.4336
573.4320, 614.9036
574.6050, 574.4883
575.7770, 452.6760
576.9490, 507.2490
578.1210, 424.8154
579.2920, 408.3760
580.4640, 393.9302
581.6350, 318.4175
582.8060, 329.9590
583.9770, 223.4937
585.1480, 192.9570
586.3190, 226.9878
587.4890, 195.1719
588.6590, 155.8201
589.8290, 117.3208
590.9990, 71.65063
592.1690, 81.13721
593.3390, 91.44507
594.5080, 41.36304
595.6770, 54.96753
596.8470, 98.43140
598.0160, 48.86475
599.1840, 99.39136
600.3530, 82.08423
601.5210, 133.8191
602.6900, 136.2502
603.8580, 161.5581
605.0260, 148.5325
606.1930, 204.4219
607.3610, 205.1667
608.5280, 241.1545
609.6960, 286.1482
610.8630, 319.9636
612.0300, 361.6914
613.1970, 419.7046
614.3630, 431.0747
615.5300, 431.3606
616.6960, 489.1362
617.8620, 540.2817
619.0280, 655.1587
620.1940, 768.2290
621.3590, 800.7827
622.5250, 886.7114
623.6900, 918.2009
624.8550, 1074.398
626.0200, 1115.868
627.1850, 1246.474
628.3490, 1355.918
629.5140, 1457.060
630.6780, 1638.189
631.8420, 1827.301
633.0060, 1821.400
634.1700, 2027.484
635.3330, 2200.553
636.4970, 2337.955
637.6600, 2583.996
638.8230, 2778.023
639.9860, 2991.034
641.1490, 3292.030
642.3110, 3665.012
643.4740, 4051.980
644.6360, 4523.931
645.7980, 4974.868
646.9600, 5795.792
648.1220, 6604.671
649.2840, 7479.159
650.4450, 8796.909
651.6060, 10232.98
652.7670, 12127.83
653.9280, 14575.66
655.0890, 17368.48
656.2500, 20897.53
657.4100, 24754.85
658.5700, 29374.41
659.7300, 34345.42
660.8900, 39347.30
662.0500, 43526.68
663.2100, 47207.05
664.3690, 48565.39
665.5280, 48534.31
666.6880, 45776.98
667.8460, 41723.18
669.0050, 36479.61
670.1640, 30871.28
671.3220, 25615.28
672.4810, 20992.85
673.6390, 17245.41
674.7970, 14340.94
675.9540, 11803.46
677.1120, 9832.957
678.2690, 8223.441
679.4270, 6972.908
680.5840, 6003.357
681.7410, 5165.789
682.8980, 4463.203
684.0540, 3933.601
685.2110, 3446.981
686.3670, 3006.345
687.5230, 2690.691
688.6790, 2449.023
689.8350, 2257.339
690.9900, 1975.638
692.1460, 1772.919
693.3010, 1651.190
694.4560, 1595.455
695.6110, 1338.703
696.7660, 1284.940
697.9210, 1151.161
699.0750, 1055.365
700.2290, 907.5659
701.3840, 895.7505
702.5370, 842.9434
703.6910, 772.1411
704.8450, 758.3462
705.9980, 603.5476
707.1520, 539.7329
708.3050, 543.9019
709.4580, 470.0657
710.6110, 478.2151
711.7630, 391.3606
712.9160, 369.4915
714.0680, 367.6064
715.2200, 305.7209
716.3720, 293.8196
717.5240, 218.9031
718.6760, 233.9707
719.8270, 202.0232
720.9780, 205.0657
722.1300, 226.0928
723.2810, 158.1047
724.4310, 108.1023
725.5820, 100.0879
726.7330, 25.06055
727.8830, 125.0071
729.0330, 8.939453
730.1830, 123.8396
731.3330, 43.27466
732.4830, 42.55371
733.6320, 54.36279
734.7810, 70.15649
735.9310, 29.06470
737.0800, 15.33545
738.2290, 34.64819
739.3770, 12.98755
740.5260, 0.1425780
741.6740, 30.82764
742.8220, 3.700195
743.9700, 25.78394
745.1180, 24.31274
746.2660, 56.88550
747.4130, 42.56421
748.5610, 8.176025
749.7080, 14.87939
750.8550, 5.618652
752.0020, 8.613037
753.1490, 71.17896
754.2950, 64.03564
755.4420, 70.95239
756.5880, 19.93286
757.7340, 55.94971
758.8800, 1.020996
760.0250, 8.117188
761.1710, 2.241455
762.3160, 43.61011
763.4620, 14.45093
764.6070, 9.276611
765.7520, 53.91357
766.8960, 48.84766
768.0410, 19.40161
769.1850, 45.32007
770.3300, 47.03198
771.4740, 84.73462
772.6180, 17.42773
773.7610, 13.88818
774.9050, 49.77295
776.0480, 25.42554
777.1920, 15.06982
778.3350, 67.70605
779.4780, 28.33423
780.6200, 50.95508
781.7630, 15.56860
782.9060, 34.17480
784.0480, 57.77417
785.1900, 17.63330
786.3320, 29.05762
787.4740, 34.50464
788.6150, 5.976074
789.7570, 22.54321
790.8980, 64.05737
792.0390, 56.56616
793.1800, 45.92993
794.3210, 67.45239
795.4620, 23.01172
796.6020, 10.58423
797.7420, 31.16455
798.8830, 89.76074
800.0230, 59.40210
801.1620, 60.07202
802.3020, 70.77026
803.4420, 51.50146
804.5810, 62.12329
805.7200, 30.03418
806.8590, 55.82422
807.9980, 19.63599
809.1370, 12.54565
810.2750, 16.72656
811.4140, 99.90674
812.5520, 98.08618
813.6900, 167.2654
814.8280, 304.4448
815.9650, 257.6248
817.1030, 280.8049
818.2400, 355.9858
819.3780, 277.1680
820.5150, 430.3513
821.6520, 415.5361
822.7880, 411.7227
823.9250, 397.9111
825.0610, 413.1021
826.1980, 342.2952
827.3340, 318.4912
828.4700, 249.6899
829.6050, 228.8916
830.7410, 190.0969
831.8760, 224.3059
833.0120, 202.5183
834.1470, 131.7344
835.2820, 162.9548
836.4160, 140.1797
837.5510, 66.40918
838.6860, 81.64331
839.8200, 13.88257
840.9540, 45.12671
842.0880, 69.37622
843.2220, 30.63110
844.3550, 61.89185
845.4890, 98.15820
846.6220, 36.43042
847.7550, 21.70898
848.8880, 128.9939
850.0210, 137.2856
851.1540, 134.5842
852.2860, 169.8899
853.4190, 237.2029
854.5510, 259.5229
855.6830, 226.8511
856.8150, 322.1868
857.9460, 392.5308
859.0780, 320.8831
860.2090, 329.2439
861.3410, 419.6133
862.4720, 438.9917
863.6020, 466.2390
864.7330, 551.6362
865.8640, 512.2065
866.9940, 484.6233
868.1240, 534.0337
869.2540, 640.0244
870.3840, 618.2949
871.5140, 687.7461
872.6440, 710.2317
873.7730, 694.6270
874.9020, 762.8604
876.0320, 774.0552
877.1600, 828.5579
878.2890, 853.9290
879.4180, 903.0386
880.5460, 929.2158
881.6750, 959.3018
882.8030, 976.5217
883.9310, 1000.701
885.0590, 1023.941
886.1860, 1024.209
887.3140, 1036.827
888.4410, 1016.440
889.5680, 989.1421
890.6950, 967.3608
891.8220, 984.2163
892.9490, 923.3508
894.0750, 959.2981
895.2020, 984.7776
896.3280, 945.8931
897.4540, 959.0510
898.5800, 931.6914
899.7050, 908.9602
900.8310, 885.4585
901.9560, 815.1340
903.0820, 813.1211
904.2070, 706.1279
905.3320, 781.1692
906.4560, 705.2354
907.5810, 655.3386
908.7050, 702.4785
909.8300, 629.3013
910.9540, 580.5110
912.0780, 683.7493
913.2010, 556.0234
914.3250, 658.3320
915.4480, 583.6697
916.5720, 623.0459
917.6950, 582.4536
918.8180, 618.9009
919.9410, 563.3823
921.0630, 627.9233
922.1860, 692.8875
923.3080, 637.6101
924.4300, 683.0242
925.5520, 633.6938
926.6740, 612.3923
927.7960, 628.1428
928.9170, 640.6841
930.0390, 656.9761
931.1600, 627.0378
932.2810, 563.6584
933.4020, 580.4482
934.5230, 526.7603
935.6430, 531.0886
936.7640, 405.4766
937.8840, 508.3115
939.0040, 422.4148
940.1240, 529.9963
941.2440, 363.3848
942.3630, 480.5413
943.4830, 428.3875
944.6020, 397.6914
945.7210, 434.0298
946.8400, 438.4048
947.9590, 493.8298
949.0770, 538.2874
950.1960, 568.7754
951.3140, 638.3015
952.4320, 748.8608
953.5500, 652.4575
954.6680, 806.0842
955.7860, 791.7410
956.9030, 850.4272
958.0210, 922.1436
959.1380, 860.8936
960.2550, 939.6736
961.3720, 950.4829
962.4890, 900.3257
963.6050, 893.1985
964.7220, 1011.103
965.8380, 1075.038
966.9540, 1090.004
968.0700, 1230.000
969.1860, 1153.027
970.3010, 1191.086
971.4170, 1255.176
972.5320, 1288.302
973.6470, 1384.464
974.7620, 1442.657
975.8770, 1494.881
976.9910, 1619.137
978.1060, 1712.425
979.2200, 1855.742
980.3340, 1861.089
981.4480, 1959.467
982.5620, 2137.876
983.6760, 2268.314
984.7890, 2454.783
985.9030, 2573.282
987.0160, 2873.811
988.1290, 3124.371
989.2420, 3395.961
990.3550, 3790.581
991.4670, 4223.213
992.5800, 4552.912
993.6920, 5307.624
994.8040, 5986.365
995.9160, 6700.134
997.0280, 7816.937
998.1390, 8983.775
999.2510, 10442.64
1000.362, 12201.55
1001.473, 14632.48
1002.584, 17226.47
1003.695, 20680.49
1004.805, 25171.54
1005.916, 30394.62
1007.026, 36222.75
1008.136, 42781.93
1009.246, 49145.14
1010.356, 54148.39
1011.466, 57571.70
1012.576, 58209.04
1013.685, 55610.43
1014.794, 50114.85
1015.903, 42949.32
1017.012, 35452.85
1018.121, 28413.42
1019.229, 22571.03
1020.338, 18305.68
1021.446, 15224.37
1022.554, 12798.10
1023.662, 11021.88
1024.770, 9526.712
1025.878, 8370.442
1026.985, 7459.372
1028.092, 6725.167
1029.200, 6104.180
1030.307, 5605.625
1031.413, 5282.504
1032.520, 4933.246
1033.627, 4754.087
1034.733, 4563.818
1035.839, 4420.163
1036.945, 4240.404
1038.051, 4118.583
1039.157, 3883.630
1040.262, 3885.203
1041.368, 3789.622
1042.473, 3676.401
1043.578, 3489.713
1044.683, 3264.026
1045.788, 3213.300
1046.893, 2981.025
1047.997, 2852.575
1049.101, 2641.402
1050.205, 2510.150
1051.309, 2303.606
1052.413, 2259.235
1053.517, 2094.635
1054.621, 1973.759
1055.724, 1810.530
1056.827, 1751.584
1057.930, 1701.669
1059.033, 1578.959
1060.136, 1475.732
1061.238, 1463.398
1062.341, 1362.657
1063.443, 1295.518
1064.545, 1256.359
1065.647, 1205.045
1066.749, 1120.650
1067.850, 1055.055
1068.952, 993.0898
1070.053, 970.6655
1071.154, 903.2654
1072.255, 965.8560
1073.356, 975.8179
1074.457, 1006.947
1075.557, 774.3589
1076.658, 873.8938
1077.758, 785.1807
1078.858, 770.9111
1079.958, 804.8848
1081.057, 836.7285
1082.157, 860.1851
1083.256, 862.3423
1084.356, 754.2803
1085.455, 793.2803
1086.554, 745.6594
1087.653, 847.9783
1088.751, 713.2964
1089.850, 788.6260
1090.948, 779.7566
1092.046, 761.1086
1093.144, 679.4719
1094.242, 692.5244
1095.340, 712.9089
1096.437, 663.7019
1097.534, 656.1064
1098.632, 629.6897
1099.729, 621.1743
1100.826, 583.6077
1101.922, 501.6152
1103.019, 650.0664
1104.115, 557.9236
1105.212, 624.6562
1106.308, 539.1895
1107.404, 487.9199
1108.499, 517.8733
1109.595, 549.3721
1110.691, 536.8779
1111.786, 507.3904
1112.881, 517.9099
1113.976, 504.4355
1115.071, 527.9675
1116.166, 458.5054
1117.260, 393.0488
1118.355, 431.5977
1119.449, 404.2029
1120.543, 481.7112
1121.637, 442.2754
1122.731, 469.8440
1123.824, 497.4167
1124.918, 479.9941
1126.011, 495.5750
1127.104, 457.1594
1128.197, 439.7476
1129.290, 422.3389
1130.382, 377.9421
1131.475, 368.2607
1132.567, 388.1382
1133.659, 348.7397
1134.751, 343.3433
1135.843, 372.9480
1136.935, 338.5547
1138.027, 259.1626
1139.118, 234.7712
1140.209, 255.3804
1141.300, 251.9900
1142.391, 112.5994
1143.482, 149.2483
1144.573, 145.8567
1145.663, 124.4644
1146.754, 193.0710
1147.844, 139.6758
1148.934, 73.27930
1150.024, 68.88062
1151.113, 90.47949
1152.203, 19.07593
1153.292, 79.66895
1154.381, 83.26050
1155.470, 3.848389
1156.559, 28.54565
1157.648, 8.027344
1158.737, 46.40430
1159.825, 29.67847
1160.913, 22.14844
1162.001, 69.63110
1163.089, 19.15137
1164.177, 38.68408
1165.265, 35.23975
1166.352, 3.817139
1167.440, 17.59668
1168.527, 43.99561
1169.614, 7.617676
1170.701, 56.25073
1171.788, 52.27075
1172.874, 24.62671
1173.961, 63.35474
1175.047, 14.12573
1176.133, 43.91479
1177.219, 33.73828
1178.305, 13.59131
1179.390, 48.46436
1180.476, 19.37646
1181.561, 50.31299
1182.646, 25.29028
1183.731, 20.29663
1184.816, 62.33008
1185.901, 23.41284
1186.985, 26.52563
1188.070, 41.67065
1189.154, 4.143311
1190.238, 82.05981
1191.322, 47.32617
1192.406, 7.638184
1193.489, 30.02441
1194.573, 14.32471
1195.656, 10.70410
1196.739, 40.11206
1197.822, 19.56470
1198.905, 31.94775
1199.988, 41.55298
1201.070, 13.10083
1202.153, 1.681885
1203.235, 38.29053
1204.317, 53.05347
1205.399, 28.38403
1206.481, 44.30249
1207.562, 8.959473
1208.644, 2.196289
1209.725, 48.59497
1210.806, 22.55835
1211.887, 37.69092
1212.968, 1.193359
1214.049, 23.89038
1215.129, 2.952881
1216.209, 51.98438
1217.290, 67.00024
1218.370, 124.0015
1219.450, 134.9873
1220.529, 25.95801
1221.609, 151.9062
1222.688, 89.83936
1223.768, 31.75684
1224.847, 82.65283
1225.926, 43.53271
1227.005, 149.3931
1228.083, 58.23804
1229.162, 71.06543
1230.240, 109.8762
1231.318, 41.67114
1232.396, 91.44434
1233.474, 20.20166
1234.552, 23.93018
1235.629, 79.63110
1236.707, 61.31494
1237.784, 50.98486
1238.861, 137.6340
1239.938, 146.2666
1241.015, 125.8823
1242.092, 136.4812
1243.168, 115.0635
1244.244, 158.6287
1245.321, 123.1770
1246.397, 163.7080
1247.473, 187.2224
1248.548, 151.7195
1249.624, 164.0662
1250.699, 130.6614
1251.775, 136.1069
1252.850, 134.5347
1253.925, 132.9453
1254.999, 132.3384
1256.074, 123.7136
1257.148, 177.0715
1258.223, 160.4121
1259.297, 114.7346
1260.371, 213.0396
1261.445, 156.3264
1262.519, 200.5959
1263.592, 192.8489
1264.666, 209.0842
1265.739, 169.3459
1266.812, 156.5454
1267.885, 157.7273
1268.958, 165.8914
1270.030, 141.0376
1271.103, 156.1653
1272.175, 117.2756
1273.247, 164.3672
1274.319, 232.4412
1275.391, 199.4968
1276.463, 166.5344
1277.535, 141.5615
1278.606, 133.5703
1279.677, 141.2964
1280.748, 177.5342
1281.819, 186.4888
1282.890, 203.6433
1283.961, 233.5637
1285.031, 129.7827
1286.102, 175.9294
1287.172, 165.7957
1288.242, 99.82544
