##NAMES=Diopside
##RRUFFID=R060861
##IDEAL CHEMISTRY=CaMgSi_2_O_6_
##LOCALITY=Red Mountain Volcano, NW of Flagstaff, Arizona, USA
##OWNER=RRUFF
##SOURCE=Jennifer Sano
##DESCRIPTION=Worn brown fragment
##STATUS=The identification of this mineral has been confirmed by X-ray diffraction and chemical analysis
##URL=rruff.info/R060861
##MEASURED CHEMISTRY=(Ca_0.72_Fe^2+^_0.23_Na_0.05_)_Σ=1_(Mg_0.80_Al_0.15_Ti_0.03_Fe^3+^_0.02_)_Σ=1_(Si_1.82_Al_0.18_)_Σ=2_O_6_
##PIN_ID=M01674
##ORIENTATION=Laser parallel to b* (0 1 0). Fiducial mark perpendicular to laser is parallel to c [0 0 1]
169.7650, 0.0000000E+00
170.9990, 139.9277
172.2330, 134.7178
173.4670, 129.0469
174.7000, 101.8838
175.9330, 5.748047
177.1660, 165.6895
178.3990, 458.3906
179.6310, 325.0215
180.8640, 575.0566
182.0960, 418.6963
183.3280, 539.1240
184.5600, 880.8203
185.7910, 939.5234
187.0220, 1309.033
188.2540, 1273.088
189.4840, 1231.071
190.7150, 1408.965
191.9460, 1570.541
193.1760, 1333.559
194.4060, 1631.548
195.6360, 1477.988
196.8660, 1517.672
198.0960, 1302.707
199.3250, 1358.461
200.5540, 1378.110
201.7830, 1442.274
203.0120, 1362.136
204.2400, 924.6943
205.4690, 389.7715
206.6970, 52.45801
207.9250, 51.10059
209.1530, 22.27832
210.3800, 17.34082
211.6080, 52.02734
212.8350, 53.37012
214.0620, 102.3203
215.2880, 28.04785
216.5150, 46.17969
217.7410, 38.12988
218.9680, 10.31738
220.1940, 129.3369
221.4190, 266.4160
222.6450, 202.5400
223.8700, 114.6885
225.0960, 314.9717
226.3210, 119.3896
227.5450, 286.9385
228.7700, 138.6162
229.9940, 233.4238
231.2190, 158.3564
232.4430, 68.41113
233.6660, 180.5752
234.8900, 175.8486
236.1140, 90.23145
237.3370, 78.72266
238.5600, 181.3213
239.7830, 245.0615
241.0050, 75.02441
242.2280, 249.1621
243.4500, 169.4160
244.6720, 238.8340
245.8940, 327.4033
247.1160, 443.1035
248.3370, 397.9482
249.5580, 682.9287
250.7790, 583.0371
252.0000, 624.2676
253.2210, 699.6104
254.4410, 619.0498
255.6620, 741.5723
256.8820, 626.1738
258.1020, 883.8516
259.3210, 822.1465
260.5410, 647.4385
261.7600, 777.3320
262.9790, 258.2324
264.1980, 79.09863
265.4170, 10.91211
266.6360, 121.7510
267.8540, 1.393555
269.0720, 161.4844
270.2900, 80.50684
271.5080, 247.4600
272.7260, 102.3428
273.9430, 95.15430
275.1600, 138.1006
276.3770, 78.42871
277.5940, 125.8223
278.8100, 343.2900
280.0270, 248.8291
281.2430, 402.4424
282.4590, 553.1270
283.6750, 630.8848
284.8910, 703.7119
286.1060, 796.6113
287.3210, 1070.580
288.5360, 1313.617
289.7510, 1281.723
290.9660, 1456.894
292.1800, 1809.129
293.3950, 1841.335
294.6090, 2151.442
295.8230, 2552.564
297.0360, 2689.756
298.2500, 2838.014
299.4630, 3289.341
300.6760, 3595.730
301.8890, 3896.186
303.1020, 4184.705
304.3150, 4631.285
305.5270, 4897.928
306.7390, 5453.630
307.9510, 5822.613
309.1630, 6240.932
310.3750, 6813.004
311.5860, 7322.094
312.7970, 7845.573
314.0080, 8522.559
315.2190, 8905.742
316.4300, 9460.210
317.6400, 10316.65
318.8510, 10926.02
320.0610, 11441.24
321.2710, 12172.54
322.4800, 12872.79
323.6900, 13788.17
324.8990, 13816.56
326.1080, 14774.94
327.3170, 15283.30
328.5260, 15571.60
329.7340, 16296.86
330.9430, 16359.11
332.1510, 16317.33
333.3590, 16254.54
334.5670, 16394.69
335.7740, 16434.62
336.9820, 16075.30
338.1890, 16042.82
339.3960, 15615.19
340.6030, 15431.52
341.8100, 15309.87
343.0160, 14724.25
344.2220, 14684.65
345.4280, 14631.09
346.6340, 14432.58
347.8400, 13774.09
349.0460, 13709.64
350.2510, 13462.23
351.4560, 13295.87
352.6610, 13238.83
353.8660, 13151.93
355.0700, 13123.64
356.2750, 12868.95
357.4790, 12508.26
358.6830, 12505.72
359.8870, 12442.13
361.0910, 12030.76
362.2940, 12239.38
363.4970, 11762.51
364.7000, 11783.82
365.9030, 11526.49
367.1060, 11215.39
368.3080, 11086.07
369.5110, 10881.44
370.7130, 10798.45
371.9150, 10615.04
373.1170, 10600.15
374.3180, 10447.99
375.5200, 10483.20
376.7210, 10652.27
377.9220, 10646.02
379.1230, 10694.34
380.3230, 10763.71
381.5240, 11019.79
382.7240, 11280.90
383.9240, 11680.43
385.1240, 11977.00
386.3240, 12280.29
387.5230, 12825.94
388.7230, 13052.63
389.9220, 13585.36
391.1210, 13987.12
392.3200, 14576.92
393.5180, 14486.76
394.7170, 14566.63
395.9150, 14440.53
397.1130, 14154.47
398.3110, 13652.43
399.5080, 12760.43
400.7060, 11964.46
401.9030, 10841.51
403.1000, 9930.604
404.2970, 8949.716
405.4940, 7845.857
406.6910, 6913.027
407.8870, 6328.226
409.0830, 5353.447
410.2790, 4560.533
411.4750, 4171.808
412.6710, 3380.865
413.8660, 3172.635
415.0610, 2613.192
416.2560, 2148.892
417.4510, 2003.646
418.6460, 1631.826
419.8410, 1507.270
421.0350, 1325.734
422.2290, 1235.221
423.4230, 848.7266
424.6170, 819.2021
425.8100, 831.7969
427.0040, 616.3604
428.1970, 703.9404
429.3900, 616.5381
430.5830, 490.1514
431.7760, 454.7803
432.9680, 294.4238
434.1610, 294.0820
435.3530, 201.7539
436.5450, 146.7871
437.7360, 174.1338
438.9280, 58.84375
440.1190, 119.5645
441.3110, 78.29785
442.5020, 15.04102
443.6930, 21.20508
444.8830, 15.43848
446.0740, 124.6631
447.2640, 45.87500
448.4540, 103.0518
449.6440, 138.1865
450.8340, 93.70898
452.0240, 89.74121
453.2130, 19.00879
454.4020, 13.23926
455.5910, 127.4277
456.7800, 214.7539
457.9690, 336.6553
459.1570, 243.7881
460.3460, 519.1523
461.5340, 507.3203
462.7220, 447.0264
463.9090, 813.3379
465.0970, 622.4893
466.2840, 981.4346
467.4720, 876.7529
468.6590, 1003.168
469.8460, 946.7510
471.0320, 799.8955
472.2190, 927.2021
473.4050, 981.7588
474.5910, 987.7852
475.7770, 1138.668
476.9630, 1029.754
478.1490, 976.0996
479.3340, 1075.917
480.5190, 1017.402
481.7040, 1101.145
482.8890, 1166.336
484.0740, 1092.492
485.2580, 1090.618
486.4430, 1184.715
487.6270, 1204.779
488.8110, 1230.812
489.9950, 1401.813
491.1780, 1435.780
492.3620, 1455.715
493.5450, 1580.614
494.7280, 1561.477
495.9110, 1687.311
497.0940, 1721.113
498.2760, 1912.899
499.4590, 2096.659
500.6410, 2225.407
501.8230, 2469.143
503.0050, 2747.840
504.1860, 3031.498
505.3680, 3168.139
506.5490, 3522.738
507.7300, 3776.307
508.9110, 3880.831
510.0920, 3930.311
511.2730, 4076.745
512.4530, 4030.137
513.6330, 4094.480
514.8130, 4092.776
515.9930, 4013.915
517.1730, 4036.226
518.3520, 3970.375
519.5320, 3962.475
520.7110, 4215.523
521.8900, 4257.519
523.0690, 4412.460
524.2470, 4671.350
525.4260, 4711.184
526.6040, 4688.962
527.7820, 5096.684
528.9600, 5224.348
530.1380, 5342.955
531.3150, 5646.501
532.4930, 5716.986
533.6700, 5789.414
534.8470, 5927.775
536.0240, 5969.748
537.2000, 6024.887
538.3770, 6061.490
539.5530, 6056.600
540.7290, 6022.645
541.9050, 5968.533
543.0810, 5927.595
544.2570, 5880.379
545.4320, 5780.154
546.6080, 5735.862
547.7830, 5600.198
548.9580, 5497.185
550.1320, 5409.561
551.3070, 5252.986
552.4810, 5179.340
553.6550, 5076.619
554.8300, 4994.827
556.0030, 4862.994
557.1770, 4787.100
558.3510, 4804.186
559.5240, 4620.212
560.6970, 4617.178
561.8700, 4653.065
563.0430, 4371.874
564.2160, 4344.604
565.3880, 4322.257
566.5600, 4149.828
567.7320, 4056.318
568.9040, 4019.729
570.0760, 3875.057
571.2480, 3710.303
572.4190, 3677.467
573.5900, 3529.547
574.7610, 3322.543
575.9320, 3166.456
577.1030, 3099.282
578.2740, 2987.025
579.4440, 2732.680
580.6140, 2584.248
581.7840, 2538.729
582.9540, 2213.124
584.1240, 2052.430
585.2930, 1723.303
586.4630, 1711.797
587.6320, 1372.940
588.8010, 1343.444
589.9700, 1038.940
591.1380, 914.3584
592.3070, 852.3594
593.4750, 588.1201
594.6430, 390.8770
595.8110, 203.1660
596.9790, 20.13965
598.1460, 67.81934
599.3140, 11.86523
600.4810, 110.5947
601.6480, 203.3262
602.8150, 223.0742
603.9820, 242.7080
605.1480, 107.9541
606.3150, 197.9980
607.4810, 2.961914
608.6470, 88.91016
609.8130, 16.78320
610.9790, 180.1719
612.1440, 195.6582
613.3100, 186.1924
614.4750, 443.2998
615.6400, 419.4209
616.8050, 508.9326
617.9690, 625.7842
619.1340, 775.3809
620.2980, 824.9707
621.4620, 995.8926
622.6260, 1120.833
623.7900, 1130.506
624.9540, 1344.041
626.1170, 1508.438
627.2810, 1693.698
628.4440, 1951.821
629.6070, 2110.807
630.7690, 2371.654
631.9320, 2618.366
633.0950, 2930.940
634.2570, 3309.378
635.4190, 3577.677
636.5810, 3946.840
637.7430, 4486.865
638.9040, 4843.754
640.0660, 5300.508
641.2270, 6007.121
642.3880, 6546.598
643.5490, 7348.939
644.7100, 8314.144
645.8700, 9206.211
647.0310, 10347.39
648.1910, 11388.93
649.3510, 12908.59
650.5110, 14392.12
651.6710, 16082.50
652.8300, 18097.76
653.9900, 20278.87
655.1490, 22817.86
656.3080, 25914.70
657.4670, 28684.41
658.6250, 31678.99
659.7840, 35373.43
660.9420, 38644.75
662.1010, 42547.93
663.2590, 45178.96
664.4170, 48235.88
665.5740, 50128.65
666.7320, 50890.30
667.8890, 51063.82
669.0460, 49615.20
670.2030, 47609.46
671.3600, 44948.58
672.5170, 41420.58
673.6740, 37754.44
674.8300, 33979.17
675.9860, 30638.78
677.1420, 27517.26
678.2980, 24332.60
679.4540, 21702.83
680.6090, 19201.93
681.7650, 17041.90
682.9200, 15271.75
684.0750, 13466.47
685.2300, 12096.06
686.3840, 10786.53
687.5390, 9645.884
688.6930, 8631.109
689.8470, 7715.211
691.0010, 7047.193
692.1550, 6374.055
693.3090, 5706.794
694.4620, 5330.414
695.6160, 4724.914
696.7690, 4525.297
697.9220, 4052.561
699.0750, 3619.707
700.2280, 3471.736
701.3800, 3091.646
702.5320, 2921.443
703.6850, 2779.124
704.8370, 2631.690
705.9880, 2506.143
707.1400, 2239.482
708.2920, 1939.711
709.4430, 1917.827
710.5940, 1709.831
711.7450, 1662.725
712.8960, 1326.511
714.0470, 1460.188
715.1970, 1285.756
716.3480, 1026.218
717.4980, 1025.572
718.6480, 773.8232
719.7980, 729.9688
720.9470, 566.0117
722.0970, 633.9502
723.2460, 264.7881
724.3960, 327.5156
725.5450, 173.1377
726.6940, 72.83398
727.8420, 26.98730
728.9910, 89.84082
730.1390, 133.3984
731.2870, 166.2061
732.4350, 217.9453
733.5830, 229.8945
734.7310, 231.9980
735.8790, 332.4404
737.0260, 303.6758
738.1730, 394.3506
739.3200, 378.4951
740.4670, 541.6729
741.6140, 590.6562
742.7610, 568.5205
743.9070, 504.4873
745.0530, 447.4854
746.1990, 431.0801
747.3450, 513.9834
748.4910, 430.2891
749.6370, 435.3604
750.7820, 464.7979
751.9270, 391.6924
753.0720, 259.2412
754.2170, 192.7939
755.3620, 190.6748
756.5070, 34.93848
757.6510, 119.7607
758.7950, 28.35059
759.9400, 36.58984
761.0840, 112.1797
762.2270, 217.8184
763.3710, 282.7441
764.5140, 184.8613
765.6580, 297.1143
766.8010, 325.0684
767.9440, 349.5352
769.0870, 491.2031
770.2290, 416.7666
771.3720, 563.5547
772.5140, 531.7695
773.6560, 460.9600
774.7990, 588.1279
775.9400, 540.2764
777.0820, 703.4053
778.2240, 654.5176
779.3650, 809.6162
780.5060, 893.7002
781.6470, 845.7725
782.7880, 910.8350
783.9290, 835.8896
785.0690, 822.9385
786.2100, 918.9814
787.3500, 883.0225
788.4900, 928.5615
789.6300, 888.1016
790.7700, 1013.144
791.9090, 1072.189
793.0490, 1184.241
794.1880, 1096.300
795.3270, 1172.367
796.4660, 1124.446
797.6050, 1205.537
798.7440, 1214.642
799.8820, 1319.761
801.0200, 1277.898
802.1590, 1360.055
803.2970, 1274.230
804.4340, 1438.429
805.5720, 1441.649
806.7100, 1589.896
807.8470, 1688.169
808.9840, 1557.471
810.1210, 1613.803
811.2580, 1609.166
812.3950, 1798.561
813.5310, 1759.991
814.6680, 1855.456
815.8040, 1925.960
816.9400, 1972.503
818.0760, 1865.086
819.2120, 1976.712
820.3470, 1900.381
821.4830, 1891.094
822.6180, 1928.854
823.7530, 1863.663
824.8880, 1850.521
826.0230, 1852.430
827.1580, 1845.393
828.2920, 1847.407
829.4270, 1859.478
830.5610, 1823.604
831.6950, 1820.791
832.8290, 1672.038
833.9620, 1734.345
835.0960, 1650.715
836.2290, 1555.147
837.3620, 1656.647
838.4950, 1634.215
839.6280, 1534.849
840.7610, 1442.553
841.8940, 1478.328
843.0260, 1446.177
844.1580, 1409.099
845.2910, 1518.097
846.4230, 1520.171
847.5540, 1562.323
848.6860, 1619.555
849.8170, 1744.868
850.9490, 1843.263
852.0800, 2063.740
853.2110, 2218.303
854.3420, 2309.952
855.4730, 2607.689
856.6030, 2858.516
857.7340, 3034.432
858.8640, 3289.438
859.9940, 3424.672
861.1240, 3668.339
862.2540, 3900.291
863.3830, 3982.617
864.5130, 4405.822
865.6420, 4542.092
866.7710, 4517.019
867.9000, 4606.286
869.0290, 4536.713
870.1570, 4464.814
871.2860, 4558.225
872.4140, 4456.904
873.5430, 4421.924
874.6710, 4355.950
875.7980, 4250.904
876.9260, 4237.779
878.0540, 3933.821
879.1810, 3933.581
880.3080, 3658.441
881.4360, 3367.211
882.5630, 3527.936
883.6890, 3427.275
884.8160, 3305.938
885.9420, 3204.061
887.0690, 3129.141
888.1950, 3047.672
889.3210, 2976.256
890.4470, 3002.511
891.5730, 2818.498
892.6980, 2863.809
893.8240, 2793.209
894.9490, 2938.344
896.0740, 2876.547
897.1990, 2823.256
898.3240, 2817.900
899.4480, 2645.931
900.5730, 2714.172
901.6970, 2619.629
902.8210, 2619.330
903.9450, 2758.267
905.0690, 2513.468
906.1930, 2666.930
907.3160, 2772.633
908.4400, 2736.570
909.5630, 2558.760
910.6860, 2547.189
911.8090, 2660.872
912.9320, 2610.779
914.0550, 2768.938
915.1770, 2644.321
916.2990, 2919.956
917.4210, 2679.825
918.5440, 2779.935
919.6650, 2781.287
920.7870, 2789.867
921.9090, 3036.703
923.0300, 2835.748
924.1510, 2899.026
925.2720, 3002.533
926.3930, 3183.280
927.5140, 3111.247
928.6350, 3183.446
929.7550, 3150.872
930.8760, 3208.516
931.9960, 3230.377
933.1160, 3249.859
934.2360, 3317.727
935.3550, 3322.223
936.4750, 3290.932
937.5940, 3341.879
938.7140, 3411.025
939.8330, 3488.388
940.9520, 3383.965
942.0710, 3547.751
943.1890, 3555.745
944.3080, 3470.949
945.4260, 3659.366
946.5440, 3711.978
947.6620, 3655.785
948.7800, 3929.788
949.8980, 3878.992
951.0160, 4015.391
952.1330, 4416.992
953.2500, 4446.807
954.3680, 4549.816
955.4850, 4689.019
956.6010, 4795.418
957.7180, 4920.018
958.8350, 4956.812
959.9510, 5298.799
961.0670, 5341.982
962.1830, 5554.367
963.2990, 6061.956
964.4150, 6015.104
965.5310, 6269.793
966.6460, 6253.859
967.7620, 6554.214
968.8770, 6834.758
969.9920, 7103.494
971.1070, 7251.418
972.2210, 7609.533
973.3360, 7939.682
974.4500, 8257.326
975.5650, 8702.009
976.6790, 8996.877
977.7930, 9328.936
978.9070, 9717.178
980.0200, 10214.61
981.1340, 10676.22
982.2470, 11107.02
983.3610, 11821.01
984.4740, 12448.18
985.5870, 13159.53
986.6990, 14022.19
987.8120, 14771.78
988.9250, 15760.68
990.0370, 16939.75
991.1490, 17724.01
992.2610, 18962.45
993.3730, 20454.06
994.4850, 21476.86
995.5960, 22951.85
996.7080, 24480.02
997.8190, 25827.40
998.9300, 27322.01
1000.041, 28721.86
1001.152, 29718.97
1002.263, 31219.34
1003.373, 32059.99
1004.484, 32701.91
1005.594, 32998.11
1006.704, 33350.61
1007.814, 33021.40
1008.924, 32300.49
1010.034, 31617.06
1011.143, 30058.79
1012.253, 28699.03
1013.362, 26987.45
1014.471, 25233.32
1015.580, 23399.17
1016.689, 21690.29
1017.797, 19814.13
1018.906, 18222.45
1020.014, 16719.83
1021.122, 15319.14
1022.230, 14270.11
1023.338, 13160.96
1024.446, 12270.56
1025.554, 11295.46
1026.661, 10839.14
1027.768, 9980.134
1028.875, 9546.114
1029.983, 9104.386
1031.089, 8725.080
1032.196, 8320.688
1033.303, 7925.634
1034.409, 7638.066
1035.515, 7346.079
1036.622, 7128.190
1037.728, 6889.900
1038.833, 6703.438
1039.939, 6500.530
1041.045, 6232.521
1042.150, 6146.436
1043.255, 5820.752
1044.360, 5629.939
1045.465, 5482.275
1046.570, 5406.946
1047.675, 4968.593
1048.779, 4981.896
1049.884, 4553.951
1050.988, 4437.096
1052.092, 4350.518
1053.196, 4028.035
1054.300, 3942.402
1055.404, 3675.562
1056.507, 3483.396
1057.610, 3551.912
1058.714, 3353.815
1059.817, 3246.523
1060.920, 3006.941
1062.022, 2928.381
1063.125, 2837.166
1064.228, 2905.846
1065.330, 2745.090
1066.432, 2647.651
1067.534, 2593.467
1068.636, 2535.748
1069.738, 2480.637
1070.840, 2351.291
1071.941, 2436.961
1073.042, 2390.623
1074.144, 2371.125
1075.245, 2224.878
1076.346, 2216.562
1077.446, 2249.889
1078.547, 2140.165
1079.647, 2246.753
1080.748, 2042.003
1081.848, 2009.683
1082.948, 2011.403
1084.048, 1958.859
1085.148, 1973.991
1086.247, 2013.789
1087.347, 2008.252
1088.446, 2084.169
1089.545, 2164.672
1090.644, 2095.126
1091.743, 2058.144
1092.842, 1887.685
1093.940, 1886.179
1095.039, 2035.646
1096.137, 1895.021
1097.235, 1968.364
1098.333, 1891.158
1099.431, 1918.307
1100.529, 1867.540
1101.627, 1828.906
1102.724, 1828.034
1103.822, 1773.110
1104.919, 1781.320
1106.016, 1816.343
1107.113, 1765.220
1108.209, 1826.325
1109.306, 1807.903
1110.402, 1768.920
1111.499, 1801.181
1112.595, 1764.084
1113.691, 1801.897
1114.787, 1748.533
1115.883, 1723.302
1116.978, 1756.211
1118.074, 1691.990
1119.169, 1675.826
1120.264, 1609.617
1121.359, 1565.487
1122.454, 1432.364
1123.549, 1478.105
1124.644, 1292.896
1125.738, 1225.664
1126.832, 1083.375
1127.927, 981.0244
1129.021, 836.6431
1130.115, 889.5469
1131.208, 689.9204
1132.302, 672.2373
1133.396, 673.6802
1134.489, 431.4404
1135.582, 409.8462
1136.675, 341.2388
1137.768, 299.7637
1138.861, 168.6714
1139.954, 76.76953
1141.046, 8.411621
1142.138, 75.67285
1143.231, 6.484863
1144.323, 32.28125
1145.415, 152.7837
1146.507, 83.27002
1147.598, 109.7876
1148.690, 244.8384
1149.781, 142.6436
1150.872, 195.4326
1151.964, 283.2188
1153.054, 298.3984
1154.145, 285.7910
1155.236, 287.2822
1156.327, 234.3921
1157.417, 253.1323
1158.507, 168.9980
1159.597, 223.3062
1160.687, 218.8770
1161.777, 248.6416
1162.867, 238.6113
1163.956, 123.8027
1165.046, 146.8711
1166.135, 233.3940
1167.224, 207.1406
1168.313, 293.9541
1169.402, 283.1787
1170.491, 188.6118
1171.580, 163.3164
1172.668, 218.2285
1173.756, 169.3813
1174.845, 207.7524
1175.933, 91.36670
1177.020, 185.1675
1178.108, 82.20557
1179.196, 165.4326
1180.283, 106.8950
1181.371, 117.5659
1182.458, 115.4546
1183.545, 60.51514
1184.632, 151.8184
1185.719, 19.63281
1186.805, 49.07471
1187.892, 37.98096
1188.978, 70.08252
1190.065, 2.599121
1191.151, 18.89941
1192.237, 13.59326
1193.323, 36.23340
1194.408, 44.45508
1195.494, 131.2222
1196.579, 22.84814
1197.664, 101.2856
1198.750, 82.56738
1199.835, 15.31689
1200.919, 197.5825
1202.004, 90.34619
1203.089, 96.93896
1204.173, 132.3608
1205.258, 160.6221
1206.342, 141.7290
1207.426, 131.6733
1208.510, 317.4497
1209.594, 255.9121
1210.677, 308.3838
1211.761, 245.9854
1212.844, 300.2178
1213.927, 246.3140
1215.010, 179.2617
1216.093, 311.0415
1217.176, 354.6812
1218.259, 335.1865
1219.341, 311.5522
1220.424, 321.7734
1221.506, 437.8516
1222.588, 332.7983
1223.670, 295.6035
1224.752, 303.2544
1225.834, 436.7529
1226.915, 450.1157
1227.997, 549.3496
1229.078, 401.4531
1230.159, 403.4136
1231.240, 501.2295
1232.321, 500.9116
1233.402, 537.4575
1234.483, 525.8691
1235.563, 453.1455
1236.644, 471.2793
1237.724, 562.2715
1238.804, 510.1284
1239.884, 597.8457
1240.964, 669.4287
1242.044, 536.8784
1243.123, 685.1875
1244.203, 532.3638
1245.282, 684.3994
1246.361, 609.3008
1247.440, 736.0640
1248.519, 679.6953
1249.598, 693.1899
1250.676, 676.5498
1251.755, 676.9062
1252.833, 710.8589
1253.911, 699.8101
1254.989, 705.6240
1256.067, 719.3018
1257.145, 733.8462
1258.223, 740.2549
1259.300, 670.5283
1260.378, 795.6631
1261.455, 806.6626
1262.532, 773.5278
1263.609, 694.2563
1264.686, 774.8457
1265.763, 773.3008
1266.840, 736.6182
1267.916, 889.9443
1268.992, 826.5820
1270.069, 888.9028
1271.145, 814.5132
1272.221, 864.1558
1273.296, 872.5073
1274.372, 822.8828
1275.448, 904.9834
1276.523, 889.2686
1277.598, 756.4409
1278.673, 898.0425
1279.749, 863.3096
1280.823, 825.6807
1281.898, 865.2554
1282.973, 857.2852
1284.047, 750.5200
1285.122, 743.0791
1286.196, 769.3818
1287.270, 741.9404
1288.344, 804.2168
1289.418, 821.5298
1290.491, 858.5728
1291.565, 788.2065
1292.638, 791.9370
1293.712, 706.3457
1294.785, 927.7817
1295.858, 807.2705
1296.931, 706.8950
1298.003, 801.6211
1299.076, 695.4727
1300.149, 865.7700
1301.221, 776.1577
1302.293, 714.6572
1303.365, 696.7378
1304.437, 690.9531
1305.509, 738.0186
1306.581, 731.7480
1307.652, 654.4971
1308.724, 789.5850
1309.795, 632.9160
1310.866, 602.1533
1311.937, 559.1025
1313.008, 574.6997
1314.079, 571.8789
1315.150, 657.1123
1316.220, 631.6064
1317.291, 594.4048
1318.361, 625.8018
1319.431, 567.3799
1320.501, 636.2324
1321.571, 638.0464
1322.641, 560.4990
1323.710, 547.0376
1324.780, 538.9941
1325.849, 543.6143
1326.918, 552.7900
1327.987, 590.8174
1329.056, 649.0469
1330.125, 555.4858
1331.194, 653.8853
1332.263, 660.2671
1333.331, 567.7842
1334.399, 591.0205
1335.467, 503.2979
1336.535, 625.9038
1337.603, 578.9907
