##NAMES=Diopside
##RRUFFID=R050666
##IDEAL CHEMISTRY=CaMgSi_2_O_6_
##LOCALITY=Franklin, Sussex County, New Jersey, USA
##OWNER=RRUFF
##SOURCE=University of Arizona Mineral Museum
##DESCRIPTION=Brown cleavage fragment with white hardystonite
##STATUS=The identification of this mineral has been confirmed by X-ray diffraction and chemical analysis
##URL=rruff.info/R050666
##MEASURED CHEMISTRY=Ca(Mg_0.66_Mn_0.33_Fe_0.01_)Si_2_O_6_
##PIN_ID=L01400
##ORIENTATION=Laser parallel to -a* (-1 0 0). Fiducial mark perpendicular to laser is parallel to -b [0 -1 0]
129.2090, 0.0000000E+00
130.4390, 488.2578
131.6680, 697.2949
132.8980, 1314.303
134.1270, 1717.943
135.3560, 1472.777
136.5850, 1191.045
137.8140, 792.3965
139.0430, 647.1211
140.2710, 438.1348
141.5000, 206.2188
142.7280, 220.5508
143.9560, 143.9277
145.1840, 37.91406
146.4120, 104.1934
147.6390, 286.4082
148.8670, 402.9668
150.0940, 167.8301
151.3210, 404.4570
152.5490, 394.7988
153.7750, 103.9102
155.0020, 68.27539
156.2290, 292.1172
157.4550, 167.0527
158.6810, 119.5137
159.9080, 54.52539
161.1340, 58.04297
162.3590, 114.1641
163.5850, 31.79297
164.8110, 43.02344
166.0360, 201.2734
167.2610, 34.94141
168.4860, 0.9863280
169.7110, 236.4668
170.9360, 471.2793
172.1610, 268.4258
173.3850, 405.8867
174.6100, 216.6426
175.8340, 446.6738
177.0580, 417.9746
178.2820, 250.1699
179.5050, 127.9082
180.7290, 245.9102
181.9520, 269.1680
183.1760, 252.4688
184.3990, 219.4434
185.6220, 259.4590
186.8450, 310.7168
188.0670, 284.2188
189.2900, 243.9688
190.5120, 380.9570
191.7340, 435.1855
192.9560, 344.6543
194.1780, 320.3574
195.4000, 227.2988
196.6220, 381.4746
197.8430, 561.8848
199.0640, 647.5293
200.2860, 662.4062
201.5070, 594.5156
202.7270, 653.8477
203.9480, 777.3594
205.1690, 375.0430
206.3890, 41.90234
207.6090, 359.8867
208.8290, 336.9883
210.0490, 273.1875
211.2690, 350.3906
212.4890, 287.6797
213.7080, 200.0430
214.9280, 292.5000
216.1470, 94.94531
217.3660, 118.5000
218.5850, 200.0586
219.8030, 246.5742
221.0220, 389.2031
222.2400, 157.9648
223.4590, 182.8594
224.6770, 257.8906
225.8950, 78.93750
227.1120, 239.3750
228.3300, 305.8281
229.5480, 426.4219
230.7650, 331.1875
231.9820, 437.0938
233.1990, 664.1484
234.4160, 696.3438
235.6330, 452.6875
236.8490, 661.1797
238.0660, 361.8203
239.2820, 393.6055
240.4980, 388.5430
241.7140, 376.6289
242.9300, 414.8633
244.1460, 402.2461
245.3610, 405.5820
246.5770, 415.6719
247.7920, 362.2969
249.0070, 441.2812
250.2220, 347.4180
251.4370, 398.6953
252.6510, 112.1250
253.8660, 317.7070
255.0800, 295.4414
256.2940, 347.3281
257.5080, 492.3711
258.7220, 399.2266
259.9360, 358.4727
261.1490, 365.4180
262.3630, 300.1055
263.5760, 269.8828
264.7890, 256.8516
266.0020, 163.9727
267.2150, 187.2500
268.4270, 388.6836
269.6400, 437.2656
270.8520, 388.7930
272.0640, 329.9102
273.2760, 317.9609
274.4880, 176.1680
275.7000, 313.3828
276.9120, 296.7852
278.1230, 530.1406
279.3340, 214.3711
280.5450, 278.3672
281.7560, 327.2656
282.9670, 450.9141
284.1780, 550.2695
285.3880, 458.2578
286.5980, 327.2109
287.8090, 551.1562
289.0190, 483.7109
290.2290, 672.0000
291.4380, 546.9141
292.6480, 513.1406
293.8570, 507.5625
295.0670, 545.8281
296.2760, 608.2031
297.4850, 779.1133
298.6930, 914.1719
299.9020, 1165.746
301.1110, 1218.211
302.3190, 1413.715
303.5270, 1692.387
304.7350, 1768.203
305.9430, 2252.055
307.1510, 2612.270
308.3580, 2820.535
309.5660, 3204.457
310.7730, 3368.008
311.9800, 3848.695
313.1870, 4131.523
314.3940, 4365.406
315.6010, 4365.918
316.8070, 4468.711
318.0130, 3997.055
319.2200, 3761.527
320.4260, 3288.121
321.6310, 3062.848
322.8370, 2702.836
324.0430, 2451.789
325.2480, 2140.867
326.4540, 2016.066
327.6590, 1986.391
328.8640, 1737.977
330.0680, 1849.207
331.2730, 1456.898
332.4780, 1607.711
333.6820, 1657.648
334.8860, 1484.699
336.0900, 1688.910
337.2940, 1558.199
338.4980, 1734.605
339.7010, 1841.129
340.9050, 1869.770
342.1080, 1931.527
343.3110, 2247.398
344.5140, 2415.387
345.7170, 2664.484
346.9200, 2744.699
348.1220, 2822.027
349.3240, 2622.473
350.5270, 2537.023
351.7290, 2568.695
352.9310, 2416.473
354.1320, 2251.367
355.3340, 1989.375
356.5350, 1757.492
357.7370, 1923.727
358.9380, 1772.078
360.1390, 1216.535
361.3400, 1388.113
362.5400, 1400.805
363.7410, 1374.609
364.9410, 1457.531
366.1410, 1664.566
367.3410, 1579.719
368.5410, 1965.992
369.7410, 1968.375
370.9400, 1966.645
372.1400, 2267.258
373.3390, 2759.992
374.5380, 3233.840
375.7370, 3722.801
376.9360, 4276.879
378.1350, 4763.066
379.3330, 5563.371
380.5310, 5697.797
381.7300, 6309.328
382.9280, 6515.980
384.1260, 5980.742
385.3230, 5757.621
386.5210, 5102.613
387.7180, 3966.715
388.9160, 3311.938
390.1130, 2620.270
391.3100, 2097.715
392.5060, 1746.273
393.7030, 1249.949
394.9000, 1072.730
396.0960, 1046.629
397.2920, 976.6406
398.4880, 539.7695
399.6840, 621.0039
400.8800, 410.3516
402.0750, 390.8164
403.2710, 363.3867
404.4660, 441.0703
405.6610, 381.8672
406.8560, 326.7773
408.0510, 321.3867
409.2450, 538.9297
410.4400, 238.1719
411.6340, 106.5195
412.8280, 61.98828
414.0220, 283.5625
415.2160, 292.2461
416.4100, 262.0391
417.6030, 92.94531
418.7970, 169.9570
419.9900, 209.0898
421.1830, 153.3320
422.3760, 91.69531
423.5690, 209.1719
424.7610, 84.23438
425.9540, 154.4688
427.1460, 35.70703
428.3380, 117.2422
429.5300, 59.30859
430.7220, 152.5039
431.9140, 88.82422
433.1050, 57.27344
434.2970, 211.8750
435.4880, 119.5938
436.6790, 84.53906
437.8700, 197.3125
439.0610, 358.6367
440.2510, 185.0625
441.4420, 195.4414
442.6320, 104.9453
443.8220, 193.5859
445.0120, 106.3867
446.2020, 174.6992
447.3910, 263.8359
448.5810, 273.9023
449.7700, 267.2656
450.9600, 204.7812
452.1490, 198.2773
453.3370, 129.1055
454.5260, 107.0625
455.7150, 72.57812
456.9030, 96.53516
458.0910, 278.0273
459.2800, 236.8945
460.4670, 111.5078
461.6550, 290.2461
462.8430, 66.12500
464.0300, 172.1328
465.2180, 15.73438
466.4050, 78.55859
467.5920, 120.9805
468.7790, 260.5234
469.9650, 140.1953
471.1520, 15.00781
472.3380, 95.08984
473.5250, 255.9336
474.7110, 126.5391
475.8970, 318.8125
477.0820, 66.23828
478.2680, 3.199219
479.4540, 56.48828
480.6390, 9.300781
481.8240, 177.2344
483.0090, 213.2852
484.1940, 178.4609
485.3780, 172.7578
486.5630, 7.179688
487.7470, 130.7227
488.9320, 115.4023
490.1160, 132.2227
491.3000, 290.1680
492.4830, 76.24219
493.6670, 274.4531
494.8500, 429.7812
496.0340, 364.2461
497.2170, 410.8281
498.4000, 1317.535
499.5820, 1370.359
500.7650, 543.3047
501.9480, 1082.375
503.1300, 677.5625
504.3120, 885.8711
505.4940, 681.3086
506.6760, 513.8711
507.8580, 490.5781
509.0390, 420.4062
510.2210, 286.3594
511.4020, 315.1328
512.5830, 542.6250
513.7640, 327.9375
514.9450, 442.3789
516.1250, 476.9336
517.3060, 403.6055
518.4860, 511.3984
519.6660, 521.9062
520.8460, 679.3594
522.0260, 687.5312
523.2060, 532.8281
524.3850, 729.2461
525.5650, 628.7812
526.7440, 589.4414
527.9230, 537.2148
529.1020, 665.1094
530.2810, 348.1445
531.4590, 710.2930
532.6380, 314.6094
533.8160, 356.0430
534.9940, 379.5898
536.1720, 479.2539
537.3500, 406.0703
538.5270, 205.9570
539.7050, 272.9961
540.8820, 259.1445
542.0590, 182.4102
543.2360, 175.7969
544.4130, 246.3242
545.5900, 304.8594
546.7660, 447.6484
547.9430, 559.5156
549.1190, 689.5273
550.2950, 854.6562
551.4710, 694.9023
552.6470, 932.2656
553.8220, 1304.746
554.9980, 1125.336
556.1730, 887.0430
557.3480, 1051.859
558.5230, 874.7891
559.6980, 767.8281
560.8730, 594.9844
562.0470, 532.2539
563.2220, 553.6328
564.3960, 334.1211
565.5700, 216.7227
566.7440, 525.3789
567.9170, 337.1992
569.0910, 457.8242
570.2640, 423.8906
571.4380, 194.0273
572.6110, 229.2930
573.7840, 103.6641
574.9570, 132.8438
576.1290, 233.7461
577.3020, 198.4141
578.4740, 33.93359
579.6460, 78.05859
580.8180, 106.2656
581.9900, 105.7773
583.1620, 135.9297
584.3330, 50.18750
585.5040, 128.5508
586.6760, 162.9766
587.8470, 2.207031
589.0180, 246.1602
590.1880, 47.21875
591.3590, 152.4531
592.5290, 88.99609
593.7000, 208.7070
594.8700, 41.76172
596.0400, 11.08594
597.2090, 25.16797
598.3790, 27.49219
599.5490, 8.472656
600.7180, 40.28125
601.8870, 26.98438
603.0560, 110.7188
604.2250, 156.3906
605.3940, 113.3359
606.5620, 288.0039
607.7300, 82.14844
608.8990, 195.3906
610.0670, 164.1719
611.2350, 295.6133
612.4020, 162.0039
613.5700, 292.9766
614.7370, 36.30469
615.9050, 123.5117
617.0720, 202.8828
618.2390, 74.29297
619.4060, 168.3477
620.5720, 93.54297
621.7390, 413.8281
622.9050, 388.2109
624.0710, 73.68359
625.2370, 409.2539
626.4030, 643.9102
627.5690, 376.6641
628.7340, 459.1133
629.9000, 379.5977
631.0650, 468.7227
632.2300, 461.3125
633.3950, 505.8945
634.5600, 671.5742
635.7240, 515.7188
636.8890, 524.2148
638.0530, 669.8828
639.2170, 717.5195
640.3810, 962.3125
641.5450, 1037.160
642.7080, 993.0977
643.8720, 1139.125
645.0350, 1483.484
646.1980, 1650.938
647.3610, 1935.102
648.5240, 2487.086
649.6870, 2874.574
650.8490, 3361.125
652.0120, 4198.758
653.1740, 5052.480
654.3360, 5714.281
655.4980, 6868.176
656.6600, 7644.148
657.8210, 8771.684
658.9830, 9451.828
660.1440, 9889.680
661.3050, 9950.668
662.4660, 9208.059
663.6270, 8305.984
664.7870, 7304.539
665.9480, 6328.875
667.1080, 5187.586
668.2680, 4225.383
669.4280, 3368.746
670.5880, 2913.699
671.7480, 2351.922
672.9070, 2313.102
674.0670, 1877.355
675.2260, 1710.691
676.3850, 1325.988
677.5440, 1442.090
678.7030, 1234.668
679.8610, 798.3164
681.0200, 802.0391
682.1780, 976.0898
683.3360, 795.0430
684.4940, 740.4531
685.6520, 860.7109
686.8090, 665.4883
687.9670, 664.7266
689.1240, 642.1367
690.2810, 329.0586
691.4380, 412.4375
692.5950, 548.8945
693.7520, 406.4141
694.9080, 576.0078
696.0650, 545.6680
697.2210, 413.3984
698.3770, 518.1992
699.5330, 446.0703
700.6880, 485.0117
701.8440, 473.0117
702.9990, 450.0898
704.1550, 479.2344
705.3100, 490.1445
706.4650, 419.7266
707.6190, 467.0742
708.7740, 444.4922
709.9290, 246.9766
711.0830, 242.5234
712.2370, 218.1406
713.3910, 97.82031
714.5450, 75.53516
715.6980, 156.3438
716.8520, 156.2148
718.0050, 114.6680
719.1580, 38.08203
720.3110, 92.97266
721.4640, 104.0977
722.6170, 293.2891
723.7700, 250.5430
724.9220, 213.8555
726.0740, 9.152344
727.2260, 126.1953
728.3780, 54.19531
729.5300, 43.30078
730.6810, 35.85547
731.8330, 15.34375
732.9840, 262.3047
734.1350, 255.0156
735.2860, 133.3555
736.4370, 115.1875
737.5880, 16.83203
738.7380, 35.17578
739.8880, 69.07031
741.0390, 36.91797
742.1890, 33.12500
743.3380, 147.2188
744.4880, 144.6328
745.6380, 228.5469
746.7870, 283.7344
747.9360, 51.17188
749.0850, 278.4688
750.2340, 110.8281
751.3830, 146.2422
752.5310, 33.72266
753.6800, 239.7969
754.8280, 79.61719
755.9760, 21.03125
757.1240, 148.5820
758.2720, 96.25000
759.4190, 350.9727
760.5670, 109.7500
761.7140, 136.5898
762.8610, 382.4805
764.0080, 125.4297
765.1550, 409.4336
766.3020, 2.503906
767.4480, 57.32422
768.5950, 83.83984
769.7410, 0.9882810
770.8870, 28.42188
772.0330, 68.44531
773.1780, 3.019531
774.3240, 148.2852
775.4690, 90.64062
776.6140, 194.0469
777.7590, 216.5039
778.9040, 109.0234
780.0490, 214.5820
781.1940, 106.1992
782.3380, 9.113281
783.4820, 36.43750
784.6260, 20.82422
785.7700, 25.47656
786.9140, 45.44141
788.0580, 158.5586
789.2010, 111.4453
790.3450, 199.3164
791.4880, 203.3047
792.6310, 188.3438
793.7730, 142.4375
794.9160, 32.57422
796.0590, 258.1250
797.2010, 67.35547
798.3430, 32.37109
799.4850, 384.9062
800.6270, 35.23047
801.7690, 146.1680
802.9100, 64.58203
804.0520, 194.0391
805.1930, 277.5430
806.3340, 64.88672
807.4750, 182.6602
808.6160, 132.0469
809.7560, 151.2344
810.8970, 339.8359
812.0370, 411.4766
813.1770, 70.17578
814.3170, 23.09375
815.4570, 381.7070
816.5960, 190.4922
817.7360, 375.3203
818.8750, 111.1953
820.0140, 131.1094
821.1530, 96.07031
822.2920, 26.07812
823.4310, 43.10547
824.5690, 85.83203
825.7070, 62.20312
826.8460, 88.50391
827.9840, 276.3828
829.1220, 263.5352
830.2590, 345.7305
831.3970, 378.9688
832.5340, 199.2539
833.6710, 436.5820
834.8080, 485.9570
835.9450, 357.3789
837.0820, 437.8438
838.2190, 306.3477
839.3550, 388.8984
840.4910, 236.4922
841.6270, 505.1289
842.7630, 861.8125
843.8990, 747.5312
845.0350, 1067.305
846.1700, 1119.117
847.3060, 1132.969
848.4410, 1164.867
849.5760, 1084.801
850.7100, 1241.785
851.8450, 853.7930
852.9800, 914.8789
854.1140, 529.0078
855.2480, 696.1836
856.3820, 745.5859
857.5160, 564.8672
858.6500, 460.1914
859.7830, 343.5586
860.9170, 518.9688
862.0500, 423.4219
863.1830, 459.2773
864.3160, 526.8438
865.4480, 432.7695
866.5810, 331.9805
867.7130, 410.0234
868.8460, 149.0508
869.9780, 339.8750
871.1100, 426.7422
872.2410, 318.6523
873.3730, 353.6094
874.5050, 86.69141
875.6360, 184.8828
876.7670, 201.9141
877.8980, 317.0547
879.0290, 190.3984
880.1590, 143.6133
881.2900, 103.1016
882.4200, 145.4023
883.5500, 85.73828
884.6800, 174.6797
885.8100, 259.1055
886.9400, 297.5703
888.0690, 383.0820
889.1990, 499.6484
890.3280, 488.0469
891.4570, 539.8945
892.5860, 363.7656
893.7140, 541.5117
894.8430, 238.3086
895.9710, 166.1406
897.1000, 483.0234
898.2280, 284.9531
899.3560, 409.9258
900.4830, 250.9414
901.6110, 227.0000
902.7380, 82.49609
903.8660, 6.136719
904.9930, 313.2617
906.1200, 180.0547
907.2460, 273.9922
908.3730, 24.03125
909.5000, 313.6016
910.6260, 316.0195
911.7520, 506.3945
912.8780, 582.9062
914.0040, 382.4609
915.1290, 456.0625
916.2550, 256.7305
917.3800, 49.43359
918.5050, 16.93750
919.6300, 376.4727
920.7550, 254.4219
921.8800, 340.6875
923.0040, 6.433594
924.1290, 295.5234
925.2530, 5.480469
926.3770, 280.5547
927.5010, 130.6328
928.6250, 174.7812
929.7480, 359.9688
930.8720, 18.27344
931.9950, 64.98828
933.1180, 388.6680
934.2410, 77.34375
935.3640, 323.7422
936.4860, 0.7265630
937.6090, 164.2070
938.7310, 118.0273
939.8530, 167.5977
940.9750, 52.21094
942.0970, 108.3672
943.2180, 32.93359
944.3400, 271.3945
945.4610, 48.24609
946.5820, 389.9297
947.7030, 95.65234
948.8240, 315.5352
949.9450, 66.26953
951.0650, 165.5586
952.1860, 310.4297
953.3060, 61.34375
954.4260, 193.0508
955.5460, 165.9766
956.6650, 252.5664
957.7850, 377.4219
958.9040, 441.8750
960.0230, 381.9883
961.1420, 115.0469
962.2610, 283.7070
963.3800, 178.0273
964.4990, 433.3984
965.6170, 407.8203
966.7350, 209.2773
967.8530, 282.7812
968.9710, 338.3281
970.0890, 220.9141
971.2070, 497.5430
972.3240, 694.2148
973.4410, 463.9297
974.5580, 350.6875
975.6750, 530.4883
976.7920, 354.3320
977.9090, 355.2188
979.0250, 739.1445
980.1410, 397.1133
981.2580, 567.1250
982.3740, 743.1797
983.4890, 580.2812
984.6050, 794.7734
985.7200, 652.6016
986.8360, 911.8242
987.9510, 937.0898
989.0660, 829.4023
990.1810, 1089.750
991.2950, 863.1445
992.4100, 1075.582
993.5240, 1327.059
994.6390, 1337.609
995.7530, 1653.203
996.8660, 1615.902
997.9800, 1936.699
999.0940, 2092.574
1000.207, 2428.547
1001.320, 3072.562
1002.433, 3431.625
1003.546, 4616.742
1004.659, 5824.898
1005.772, 7067.086
1006.884, 8862.316
1007.996, 11047.59
1009.108, 13622.50
1010.220, 15863.89
1011.332, 18450.31
1012.444, 20209.79
1013.555, 20225.30
1014.666, 18497.86
1015.777, 16013.45
1016.888, 12786.13
1017.999, 10103.65
1019.110, 7546.406
1020.220, 5961.230
1021.331, 4640.090
1022.441, 3745.992
1023.551, 2955.094
1024.661, 2875.082
1025.770, 2742.234
1026.880, 2057.848
1027.989, 1860.984
1029.098, 1772.160
1030.207, 2026.375
1031.316, 1985.121
1032.425, 1760.402
1033.533, 2022.723
1034.642, 1623.078
1035.750, 2335.469
1036.858, 2264.770
1037.966, 2218.195
1039.073, 2408.723
1040.181, 2235.801
1041.288, 2346.277
1042.396, 2015.066
1043.503, 1920.770
1044.610, 1729.980
1045.716, 1581.750
1046.823, 1543.234
1047.929, 1266.621
1049.036, 1305.504
1050.142, 1198.617
1051.248, 1202.102
1052.353, 1062.453
1053.459, 812.4688
1054.564, 650.6602
1055.670, 633.7617
1056.775, 640.1172
1057.880, 746.2891
1058.985, 461.5586
1060.089, 528.7969
1061.194, 415.1953
1062.298, 600.4922
1063.402, 575.8359
1064.506, 466.8281
1065.610, 686.2227
1066.713, 599.5312
1067.817, 620.3633
1068.920, 421.0156
1070.023, 897.9883
1071.126, 669.3047
1072.229, 524.7266
1073.332, 501.3594
1074.435, 296.4141
1075.537, 634.1367
1076.639, 376.1875
1077.741, 603.4844
1078.843, 431.3398
1079.945, 441.2188
1081.046, 217.1836
1082.148, 562.7773
1083.249, 754.7070
1084.350, 321.7266
1085.451, 699.7734
1086.551, 544.9570
1087.652, 407.1562
1088.752, 279.8672
1089.853, 278.1836
1090.953, 210.7578
1092.053, 269.2227
1093.152, 370.4062
1094.252, 297.7305
1095.351, 161.3203
1096.451, 306.9336
1097.550, 487.3398
1098.649, 225.7695
1099.748, 393.2930
1100.846, 351.9766
1101.945, 350.4844
1103.043, 281.0156
1104.141, 260.6602
1105.239, 275.1484
1106.337, 269.7500
1107.434, 304.2109
1108.532, 481.8555
1109.629, 300.5312
1110.726, 369.4570
1111.823, 279.1758
1112.920, 221.9141
1114.017, 316.9375
1115.113, 678.6992
1116.210, 576.5039
1117.306, 974.3320
1118.402, 995.6953
1119.498, 963.5625
1120.593, 1160.457
1121.689, 911.8242
1122.784, 977.7773
1123.879, 1043.027
1124.974, 885.3086
1126.069, 872.3438
1127.164, 797.5664
1128.259, 232.2422
1129.353, 239.1328
1130.447, 325.1211
1131.541, 288.7344
1132.635, 383.5625
1133.729, 374.3281
1134.822, 241.5625
1135.916, 217.7070
1137.009, 256.8672
1138.102, 394.0859
1139.195, 154.8652
1140.288, 435.6992
1141.380, 305.0156
1142.473, 301.3066
1143.565, 232.5508
1144.657, 268.8066
1145.749, 310.0742
1146.841, 297.3555
1147.932, 472.9883
1149.024, 233.4219
1150.115, 477.4414
1151.206, 191.9883
1152.297, 102.3320
1153.388, 225.7734
1154.479, 49.86328
1155.569, 241.6523
1156.659, 65.34180
1157.750, 17.87695
1158.839, 188.2480
1159.929, 242.6270
1161.019, 98.01562
1162.108, 18.58789
1163.198, 181.8086
1164.287, 198.3242
1165.376, 220.8125
1166.465, 107.3184
1167.553, 161.2539
1168.642, 120.1211
1169.730, 303.5254
1170.818, 47.93945
1171.906, 184.5078
1172.994, 38.93555
1174.082, 110.3770
1175.170, 37.95508
1176.257, 22.58789
1177.344, 16.95703
1178.431, 32.40625
1179.518, 72.14453
1180.605, 104.2637
1181.691, 119.7031
1182.778, 207.2852
1183.864, 141.7109
1184.950, 91.59180
1186.036, 200.0234
1187.122, 22.54492
1188.207, 279.8789
1189.292, 166.3086
1190.378, 152.3145
1191.463, 105.2148
1192.548, 268.2012
1193.632, 128.7715
1194.717, 169.1914
1195.801, 167.6230
1196.886, 13.94141
1197.970, 72.47656
1199.054, 104.8926
1200.137, 328.3066
1201.221, 28.73242
1202.305, 24.15430
1203.388, 278.5703
1204.471, 70.99023
1205.554, 147.7148
1206.637, 302.1289
1207.719, 99.55078
1208.802, 393.0371
1209.884, 202.5234
1210.966, 139.0098
1212.048, 47.77344
1213.130, 251.2539
1214.212, 378.7461
1215.293, 281.2363
1216.374, 132.9805
1217.456, 11.52539
1218.536, 2.001953
1219.617, 125.4492
1220.698, 87.89844
1221.778, 108.3418
1222.859, 31.85352
1223.939, 230.2773
1225.019, 111.7031
1226.099, 27.78320
1227.178, 221.7461
1228.258, 301.1270
1229.337, 156.8496
1230.417, 126.2188
1231.496, 270.5820
1232.574, 180.9395
1233.653, 289.2930
1234.732, 351.6387
1235.810, 566.9805
1236.888, 45.31641
1237.966, 387.6406
1239.044, 233.9609
1240.122, 128.2715
1241.199, 211.6621
1242.277, 337.9590
1243.354, 125.2461
1244.431, 37.52539
1245.508, 189.7891
1246.585, 388.0488
1247.661, 91.51172
1248.738, 245.7520
1249.814, 216.7695
1250.890, 100.9961
1251.966, 197.2109
1253.042, 121.4141
1254.117, 123.6074
1255.193, 84.20898
1256.268, 25.90430
1257.343, 222.0020
1258.418, 145.0547
1259.493, 98.20703
1260.567, 107.4414
1261.642, 73.24023
1262.716, 82.90820
1263.790, 178.5625
1264.864, 327.2012
1265.938, 421.8320
1267.011, 193.4531
1268.085, 91.06250
1269.158, 86.65234
1270.231, 182.2383
1271.304, 191.8164
1272.377, 269.3809
1273.450, 250.9336
1274.522, 234.3750
1275.594, 249.5723
1276.666, 127.5195
1277.738, 178.0195
1278.810, 80.50781
1279.882, 65.02148
1280.953, 249.5137
1282.025, 40.90430
1283.096, 342.2715
1284.167, 32.46680
1285.238, 129.2520
1286.308, 168.5879
1287.379, 322.3887
1288.449, 223.6777
1289.519, 282.4355
1290.589, 311.7031
1291.659, 253.5996
1292.729, 182.8477
1293.798, 191.0801
1294.868, 189.5293
1295.937, 339.9395
1297.006, 258.5078
1298.075, 288.6152
1299.143, 343.7793
1300.212, 173.6250
1301.280, 225.2441
1302.348, 335.9121
1303.416, 178.2148
