##NAMES=Diopside
##RRUFFID=R060171
##IDEAL CHEMISTRY=CaMgSi_2_O_6_
##LOCALITY=Jeffrey mine, Asbestos, Quebec, Canada
##OWNER=RRUFF
##SOURCE=Guy Ouellet
##DESCRIPTION=Yellowish-brown tabular crystals associated with vesuvianite, R060170
##STATUS=The identification of this mineral has been confirmed by X-ray diffraction and chemical analysis
##URL=rruff.info/R060171
##MEASURED CHEMISTRY=Ca_1.00_(Mg_0.98_Mn_0.02_)_Î£=1_Si_2.00_O_6_
##PIN_ID=M00055
##ORIENTATION=Laser parallel to c* (0 0 1). Fiducial mark perpendicular to laser is parallel to a [1 0 0]
123.0580, 0.0000000E+00
124.2880, 25.58813
125.5190, 22.30298
126.7490, 31.06763
127.9790, 37.39307
129.2090, 31.55127
130.4390, 7.302490
131.6680, 6.393066
132.8980, 7.623291
134.1270, 9.310303
135.3560, 3.992188
136.5850, 53.31519
137.8140, 187.1931
139.0430, 208.5552
140.2710, 248.3452
141.5000, 261.5244
142.7280, 128.0833
143.9560, 104.9854
145.1840, 77.18872
146.4120, 129.6587
147.6390, 7.366211
148.8670, 45.28833
150.0940, 51.40552
151.3210, 46.70142
152.5490, 6.162109
153.7750, 13.77686
155.0020, 41.13525
156.2290, 99.43359
157.4550, 122.4590
158.6810, 170.6094
159.9080, 207.1060
161.1340, 316.7861
162.3590, 530.5825
163.5850, 706.4819
164.8110, 791.4331
166.0360, 567.4346
167.2610, 456.4854
168.4860, 390.5840
169.7110, 173.7314
170.9360, 108.9258
172.1610, 179.1675
173.3850, 225.4551
174.6100, 171.7876
175.8340, 270.1646
177.0580, 257.5859
178.2820, 354.0527
179.5050, 481.5649
180.7290, 755.1240
181.9520, 727.7310
183.1760, 642.3887
184.3990, 411.0962
185.6220, 431.8506
186.8450, 341.6504
188.0670, 412.4956
189.2900, 468.3833
190.5120, 540.3140
191.7340, 823.2852
192.9560, 1108.296
194.1780, 1415.474
195.4000, 1324.051
196.6220, 1104.237
197.8430, 818.1841
199.0640, 610.1357
200.2860, 398.0942
201.5070, 289.9077
202.7270, 170.8452
203.9480, 111.8003
205.1690, 84.77490
206.3890, 77.77051
207.6090, 44.90771
208.8290, 48.85352
210.0490, 25.92871
211.2690, 8.027832
212.4890, 24.15039
213.7080, 33.90723
214.9280, 70.49609
216.1470, 81.71826
217.3660, 143.9648
218.5850, 155.2349
219.8030, 231.5283
221.0220, 343.8457
222.2400, 375.1875
223.4590, 395.5527
224.6770, 583.9419
225.8950, 794.3540
227.1120, 1077.789
228.3300, 1380.248
229.5480, 1472.735
230.7650, 1539.266
231.9820, 1410.851
233.1990, 1115.456
234.4160, 927.0952
235.6330, 654.7744
236.8490, 427.5068
238.0660, 292.2861
239.2820, 254.1177
240.4980, 233.0176
241.7140, 178.9712
242.9300, 194.9390
244.1460, 221.9219
245.3610, 184.9194
246.5770, 250.9321
247.7920, 275.9585
249.0070, 327.0000
250.2220, 502.0562
251.4370, 619.1265
252.6510, 714.2109
253.8660, 809.3105
255.0800, 786.4248
256.2940, 613.5527
257.5080, 530.6948
258.7220, 433.8511
259.9360, 321.0215
261.1490, 251.9097
262.3630, 146.7822
263.5760, 118.6152
264.7890, 4.159180
266.0020, 33.92041
267.2150, 27.66846
268.4270, 79.41602
269.6400, 4.485352
270.8520, 55.57715
272.0640, 21.73340
273.2760, 62.39941
274.4880, 1.259766
275.7000, 42.61816
276.9120, 7.038086
278.1230, 41.48535
279.3340, 12.14600
280.5450, 17.42285
281.7560, 71.03564
282.9670, 37.68945
284.1780, 2.382813
285.3880, 35.11133
286.5980, 49.99609
287.8090, 59.67041
289.0190, 134.4976
290.2290, 165.1494
291.4380, 191.0337
292.6480, 209.9448
293.8570, 314.8813
295.0670, 394.8433
296.2760, 476.8286
297.4850, 614.8364
298.6930, 885.8677
299.9020, 1187.920
301.1110, 1340.994
302.3190, 1561.087
303.5270, 1427.111
304.7350, 1289.248
305.9430, 1297.316
307.1510, 1248.487
308.3580, 1496.674
309.5660, 1734.890
310.7730, 1899.121
311.9800, 2149.368
313.1870, 2521.629
314.3940, 2818.907
315.6010, 3231.200
316.8070, 3880.505
318.0130, 4917.827
319.2200, 6355.162
320.4260, 7973.512
321.6310, 9449.875
322.8370, 10252.25
324.0430, 9815.644
325.2480, 8259.049
326.4540, 6517.467
327.6590, 4952.897
328.8640, 3683.341
330.0680, 2626.797
331.2730, 1892.266
332.4780, 1467.747
333.6820, 1188.240
334.8860, 986.7915
336.0900, 886.3081
337.2940, 783.0054
338.4980, 670.2036
339.7010, 549.7539
340.9050, 631.3003
342.1080, 745.8301
343.3110, 728.5107
344.5140, 809.0645
345.7170, 932.6152
346.9200, 1073.523
348.1220, 1310.637
349.3240, 1652.009
350.5270, 2006.142
351.7290, 2720.765
352.9310, 3278.179
354.1320, 4234.321
355.3340, 4486.550
356.5350, 4317.206
357.7370, 3745.410
358.9380, 2961.087
360.1390, 2241.775
361.3400, 1680.479
362.5400, 1401.188
363.7410, 1095.905
364.9410, 950.6333
366.1410, 737.3706
367.3410, 823.1191
368.5410, 676.8765
369.7410, 685.6440
370.9400, 663.4209
372.1400, 717.2070
373.3390, 799.0034
374.5380, 959.8091
375.7370, 1158.270
376.9360, 1303.447
378.1350, 1728.280
379.3330, 2118.122
380.5310, 2556.972
381.7300, 3247.830
382.9280, 4011.696
384.1260, 5053.571
385.3230, 6127.453
386.5210, 7798.343
387.7180, 9408.239
388.9160, 10807.15
390.1130, 10792.06
391.3100, 10179.98
392.5060, 9014.903
393.7030, 7637.838
394.9000, 6186.779
396.0960, 4801.729
397.2920, 3565.683
398.4880, 2690.646
399.6840, 1982.615
400.8800, 1574.592
402.0750, 1316.576
403.2710, 965.5659
404.4660, 848.5635
405.6610, 638.5674
406.8560, 524.5776
408.0510, 435.5952
409.2450, 350.5562
410.4400, 299.0430
411.6340, 286.8862
412.8280, 209.8931
414.0220, 221.8813
415.2160, 153.9502
416.4100, 102.0308
417.6030, 185.1230
418.7970, 201.2251
419.9900, 94.33887
421.1830, 75.46387
422.3760, 96.30518
423.5690, 117.2085
424.7610, 74.36475
425.9540, 67.53027
427.1460, 102.7051
428.3380, 37.89014
429.5300, 30.08447
430.7220, 19.83594
431.9140, 12.54346
433.1050, 14.27979
434.2970, 48.94287
435.4880, 32.17285
436.6790, 79.41211
437.8700, 51.65918
439.0610, 52.04248
440.2510, 30.17822
441.4420, 30.45508
442.6320, 19.74023
443.8220, 14.03418
445.0120, 11.33496
446.2020, 15.35645
447.3910, 7.627930
448.5810, 15.05713
449.7700, 35.25977
450.9600, 61.78613
452.1490, 136.7441
453.3370, 134.0830
454.5260, 257.4282
455.7150, 255.7803
456.9030, 404.1406
458.0910, 484.5078
459.2800, 689.8862
460.4670, 770.2715
461.6550, 933.6641
462.8430, 946.0625
464.0300, 920.4673
465.2180, 853.8789
466.4050, 792.2964
467.5920, 581.7202
468.7790, 378.1504
469.9650, 296.5864
471.1520, 169.8398
472.3380, 108.4761
473.5250, 46.93555
474.7110, 40.41504
475.8970, 18.90576
477.0820, 14.21533
478.2680, 23.90430
479.4540, 34.59326
480.6390, 25.10156
481.8240, 25.39062
483.0090, 88.88867
484.1940, 32.39746
485.3780, 15.08936
486.5630, 19.41943
487.7470, 12.06055
488.9320, 18.52344
490.1160, 21.98193
491.3000, 26.43164
492.4830, 2.926758
493.6670, 30.40430
494.8500, 7.895020
496.0340, 39.38770
497.2170, 57.89307
498.4000, 19.57520
499.5820, 56.95166
500.7650, 67.50049
501.9480, 40.95752
503.1300, 13.42188
504.3120, 88.89062
505.4940, 222.3672
506.6760, 288.8501
507.8580, 145.3379
509.0390, 277.8301
510.2210, 262.3320
511.4020, 339.8379
512.5830, 354.8047
513.7640, 390.8789
514.9450, 334.4131
516.1250, 351.9521
517.3060, 282.4956
518.4860, 307.0518
519.6660, 289.6133
520.8460, 264.1787
522.0260, 239.7480
523.2060, 274.3213
524.3850, 371.8989
525.5650, 543.4814
526.7440, 542.0698
527.9230, 625.6626
529.1020, 662.2593
530.2810, 587.8716
531.4590, 524.4878
532.6380, 447.1074
533.8160, 255.7310
534.9940, 278.3579
536.1720, 296.9893
537.3500, 205.6226
538.5270, 274.2603
539.7050, 246.9009
540.8820, 270.5562
542.0590, 189.2153
543.2360, 143.8770
544.4130, 329.5415
545.5900, 326.2090
546.7660, 437.8804
547.9430, 554.5557
549.1190, 671.2339
550.2950, 932.9150
551.4710, 1194.599
552.6470, 1502.291
553.8220, 1991.988
554.9980, 2457.704
556.1730, 3365.423
557.3480, 3913.144
558.5230, 4023.868
559.6980, 3576.595
560.8730, 2817.324
562.0470, 2213.056
563.2220, 1599.789
564.3960, 1206.531
565.5700, 927.2764
566.7440, 704.0234
567.9170, 518.7725
569.0910, 413.5229
570.2640, 331.2759
571.4380, 245.0303
572.6110, 205.7861
573.7840, 144.9619
574.9570, 169.5078
576.1290, 67.26855
577.3020, 120.0303
578.4740, 102.7935
579.6460, 91.55859
580.8180, 60.32471
581.9900, 97.34473
583.1620, 25.11328
584.3330, 41.88281
585.5040, 98.65332
586.6760, 78.42432
587.8470, 2.714355
589.0180, 145.0522
590.1880, 158.5913
591.3590, 131.3589
592.5290, 39.87256
593.7000, 51.87158
594.8700, 38.61670
596.0400, 126.3618
597.2090, 33.40186
598.3790, 62.14795
599.5490, 59.94775
600.7180, 47.45264
601.8870, 40.53955
603.0560, 73.33008
604.2250, 65.07812
605.3940, 83.82520
606.5620, 107.5728
607.7300, 102.3203
608.8990, 47.06787
610.0670, 23.81494
611.2350, 227.5815
612.4020, 155.3477
613.5700, 153.4424
614.7370, 60.33398
615.9050, 218.1675
617.0720, 151.0693
618.2390, 203.7856
619.4060, 272.5479
620.5720, 245.6572
621.7390, 219.0728
622.9050, 317.8320
624.0710, 285.6021
625.2370, 329.3584
626.4030, 271.9761
627.5690, 339.0674
628.7340, 392.6074
629.9000, 433.7793
631.0650, 470.9956
632.2300, 463.9834
633.3950, 507.2202
634.5600, 460.9780
635.7240, 594.9785
636.8890, 611.1299
638.0530, 725.3145
639.2170, 787.0801
640.3810, 850.4185
641.5450, 818.1899
642.7080, 965.3145
643.8720, 1061.076
645.0350, 1267.545
646.1980, 1370.653
647.3610, 1533.416
648.5240, 1773.181
649.6870, 2001.019
650.8490, 2451.776
652.0120, 2805.222
653.1740, 3376.976
654.3360, 4260.372
655.4980, 5021.126
656.6600, 6232.880
657.8210, 7825.816
658.9830, 9539.563
660.1440, 11886.41
661.3050, 14289.16
662.4660, 17035.90
663.6270, 19404.63
664.7870, 20814.67
665.9480, 20890.69
667.1080, 19177.71
668.2680, 16668.44
669.4280, 13724.87
670.5880, 10894.60
671.7480, 8612.315
672.9070, 6732.063
674.0670, 5395.822
675.2260, 4336.530
676.3850, 3536.236
677.5440, 2795.940
678.7030, 2450.641
679.8610, 2088.921
681.0200, 1708.614
682.1780, 1560.304
683.3360, 1260.989
684.4940, 1309.670
685.6520, 939.3481
686.8090, 967.2681
687.9670, 822.9370
689.1240, 661.6035
690.2810, 622.2646
691.4380, 602.9219
692.5950, 575.5752
693.7520, 501.6929
694.9080, 455.3374
696.0650, 426.0190
697.2210, 358.6724
698.3770, 333.4067
699.5330, 287.3682
700.6880, 273.9263
701.8440, 225.2812
702.9990, 259.8940
704.1550, 275.5410
705.3100, 264.1450
706.4650, 169.7432
707.6190, 178.3364
708.7740, 158.9258
709.9290, 136.5093
711.0830, 126.4561
712.2370, 103.8403
713.3910, 92.23291
714.5450, 75.80127
715.6980, 68.36475
716.8520, 76.92285
718.0050, 61.47607
719.1580, 100.0244
720.3110, 8.433105
721.4640, 85.09375
722.6170, 211.6147
723.7700, 73.13037
724.9220, 126.6411
726.0740, 125.1465
727.2260, 50.97412
728.3780, 0.4736330
729.5300, 95.96533
730.6810, 145.4512
731.8330, 102.1025
732.9840, 83.57812
734.1350, 64.04883
735.2860, 9.514648
736.4370, 29.97168
737.5880, 6.576172
738.7380, 137.8828
739.8880, 20.31445
741.0390, 24.86523
742.1890, 175.2847
743.3380, 145.6987
744.4880, 56.10742
745.6380, 65.51025
746.7870, 74.96729
747.9360, 46.25977
749.0850, 62.31982
750.2340, 40.70068
751.3830, 8.923340
752.5310, 37.56543
753.6800, 4.810547
754.8280, 5.931152
755.9760, 50.36230
757.1240, 41.65479
758.2720, 4.940918
759.4190, 24.77295
760.5670, 82.64014
761.7140, 4.098633
762.8610, 115.1479
764.0080, 65.38867
765.1550, 9.371582
766.3020, 64.14941
767.4480, 31.71143
768.5950, 155.0884
769.7410, 67.94238
770.8870, 76.10205
772.0330, 135.2578
773.1780, 40.84766
774.3240, 9.6680000E-02
775.4690, 61.25000
776.6140, 106.4136
777.7590, 2.454102
778.9040, 69.70215
780.0490, 15.85254
781.1940, 109.9932
782.3380, 4.127930
783.4820, 16.25049
784.6260, 92.36377
785.7700, 49.50830
786.9140, 2.390625
788.0580, 116.6934
789.2010, 12.22754
790.3450, 100.8296
791.4880, 10.94043
792.6310, 57.09033
793.7730, 70.16162
794.9160, 19.81982
796.0590, 83.17334
797.2010, 33.16064
798.3430, 70.14160
799.4850, 62.11621
800.6270, 106.1538
801.7690, 18.64600
802.9100, 18.60010
804.0520, 18.54541
805.1930, 160.4824
806.3340, 28.58691
807.4750, 95.31445
808.6160, 88.20947
809.7560, 46.09912
810.8970, 41.98242
812.0370, 55.85938
813.1770, 115.7305
814.3170, 98.07764
815.4570, 56.93750
816.5960, 27.20898
817.7360, 62.61621
818.8750, 92.43506
820.0140, 68.24902
821.1530, 109.0571
822.2920, 61.85938
823.4310, 18.65723
824.5690, 100.4463
825.7070, 185.2305
826.8460, 59.00830
827.9840, 226.7808
829.1220, 78.54688
830.2590, 6.309082
831.3970, 72.06104
832.5340, 42.80713
833.6710, 48.54785
834.8080, 30.28320
835.9450, 103.0112
837.0820, 176.7349
838.2190, 50.45312
839.3550, 117.1665
840.4910, 42.87451
841.6270, 215.5767
842.7630, 190.2734
843.8990, 171.9648
845.0350, 172.6514
846.1700, 243.3330
847.3060, 416.0098
848.4410, 651.6812
849.5760, 717.3481
850.7100, 915.0093
851.8450, 1157.667
852.9800, 1225.319
854.1140, 1191.967
855.2480, 982.6099
856.3820, 698.2485
857.5160, 637.6284
858.6500, 526.2573
859.7830, 446.8818
860.9170, 248.5015
862.0500, 226.1167
863.1830, 179.7271
864.3160, 58.33594
865.4480, 154.2544
866.5810, 130.8545
867.7130, 212.4507
868.8460, 99.05469
869.9780, 106.6543
871.1100, 154.2500
872.2410, 137.5464
873.3730, 52.13379
874.5050, 39.66309
875.6360, 93.24121
876.7670, 16.71777
877.8980, 64.24365
879.0290, 54.80908
880.1590, 132.3716
881.2900, 141.9292
882.4200, 29.49512
883.5500, 55.05713
884.6800, 67.38428
885.8100, 56.13037
886.9400, 116.6416
888.0690, 51.82031
889.1990, 115.1978
890.3280, 153.6294
891.4570, 146.9902
892.5860, 123.4863
893.7140, 109.9790
894.8430, 81.95703
895.9710, 2.136230
897.1000, 54.62354
898.2280, 72.09668
899.3560, 142.5859
900.4830, 58.07227
901.6110, 97.22266
902.7380, 17.06494
903.8660, 101.6602
904.9930, 78.85742
906.1200, 73.58252
907.2460, 115.0200
908.3730, 10.54492
909.5000, 0.8613280
910.6260, 52.39404
911.7520, 58.83936
912.8780, 36.71875
914.0040, 40.60156
915.1290, 43.02197
916.2550, 89.08838
917.3800, 142.5083
918.5050, 65.22412
919.6300, 134.2969
920.7550, 7.710938
921.8800, 77.11963
923.0040, 77.45264
924.1290, 174.8613
925.2530, 117.5840
926.3770, 27.00537
927.5010, 102.7524
928.6250, 1.157715
929.7480, 123.5605
930.8720, 53.78760
931.9950, 138.2070
933.1180, 122.5195
934.2410, 30.93604
935.3640, 1.648438
936.4860, 17.23438
937.6090, 97.87891
938.7310, 125.9922
939.8530, 25.10645
940.9750, 126.5107
942.0970, 109.2080
943.2180, 24.61230
944.3400, 7.013672
945.4610, 79.38672
946.5820, 91.74023
947.7030, 8.141602
948.8240, 17.45508
949.9450, 82.94336
951.0650, 37.89160
952.1860, 62.15625
953.3060, 57.55371
954.4260, 142.9502
955.5460, 128.3457
956.6650, 85.74414
957.7850, 129.1816
958.9040, 146.4473
960.0230, 142.8516
961.1420, 144.2549
962.2610, 150.8477
963.3800, 172.9922
964.4990, 254.5146
965.6170, 246.4795
966.7350, 316.9219
967.8530, 394.3223
968.9710, 307.7471
970.0890, 420.0869
971.2070, 287.5303
972.3240, 349.9746
973.4410, 250.4111
974.5580, 341.8555
975.6750, 338.2607
976.7920, 350.7051
977.9090, 418.1504
979.0250, 432.5947
980.1410, 430.0488
981.2580, 578.5029
982.3740, 626.9658
983.4890, 598.4297
984.6050, 615.9053
985.7200, 769.3809
986.8360, 721.8564
987.9510, 812.3311
989.0660, 906.8086
990.1810, 945.2871
991.2950, 1010.766
992.4100, 1203.250
993.5240, 1407.733
994.6390, 1563.220
995.7530, 1782.704
996.8660, 2111.191
997.9800, 2586.676
999.0940, 3048.163
1000.207, 3672.652
1001.320, 4393.146
1002.433, 5674.637
1003.546, 7291.129
1004.659, 9348.623
1005.772, 12737.12
1006.884, 16737.61
1007.996, 22466.10
1009.108, 29597.58
1010.220, 37739.08
1011.332, 45290.54
1012.444, 48586.04
1013.555, 45916.65
1014.666, 38983.15
1015.777, 30029.35
1016.888, 22151.96
1017.999, 16236.46
1019.110, 11688.40
1020.220, 8811.900
1021.331, 6621.406
1022.441, 5266.919
1023.551, 4296.447
1024.661, 3472.415
1025.770, 3162.954
1026.880, 2757.494
1027.989, 2528.288
1029.098, 2259.834
1030.207, 2052.384
1031.316, 1833.942
1032.425, 1733.450
1033.533, 1669.123
1034.642, 1648.951
1035.750, 1689.588
1036.858, 1785.802
1037.966, 1869.405
1039.073, 1954.437
1040.181, 2281.043
1041.288, 2678.647
1042.396, 3143.822
1043.503, 3752.338
1044.610, 4449.010
1045.716, 5203.699
1046.823, 5756.465
1047.929, 5996.085
1049.036, 5314.201
1050.142, 4487.010
1051.248, 3601.633
1052.353, 2739.262
1053.459, 2220.891
1054.564, 1762.585
1055.670, 1346.365
1056.775, 1118.002
1057.880, 931.7285
1058.985, 806.3730
1060.089, 768.8477
1061.194, 613.4854
1062.298, 647.0898
1063.402, 532.1357
1064.506, 480.7383
1065.610, 426.3984
1066.713, 373.7666
1067.817, 281.8945
1068.920, 331.4863
1070.023, 313.6172
1071.126, 338.2783
1072.229, 271.9424
1073.332, 261.5400
1074.435, 250.2900
1075.537, 220.1504
1076.639, 192.8252
1077.741, 231.6094
1078.843, 208.3613
1079.945, 136.0791
1081.046, 211.2822
1082.148, 145.6807
1083.249, 125.5098
1084.350, 82.02539
1085.451, 75.70801
1086.551, 93.39160
1087.652, 116.2803
1088.752, 58.20703
1089.853, 4.589844
1090.953, 209.0898
1092.053, 123.8232
1093.152, 107.5049
1094.252, 57.18359
1095.351, 196.6211
1096.451, 252.3691
1097.550, 168.1592
1098.649, 180.0176
1099.748, 116.6943
1100.846, 182.4521
1101.945, 134.1836
1103.043, 114.1221
1104.141, 85.81152
1105.239, 131.6123
1106.337, 157.2812
1107.434, 97.94727
1108.532, 156.6123
1109.629, 114.2754
1110.726, 105.9375
1111.823, 156.7412
1112.920, 58.40039
1114.017, 80.95215
1115.113, 48.95410
1116.210, 146.8301
1117.306, 213.4805
1118.402, 229.1729
1119.498, 158.8184
1120.593, 65.84082
1121.689, 94.53809
1122.784, 230.1797
1123.879, 184.8184
1124.974, 116.4658
1126.069, 248.1113
1127.164, 215.7529
1128.259, 97.39355
1129.353, 86.03027
1130.447, 118.6650
1131.541, 75.29688
1132.635, 46.14746
1133.729, 102.7744
1134.822, 54.39844
1135.916, 131.0195
1137.009, 106.6387
1138.102, 130.2549
1139.195, 175.8682
1140.288, 152.4795
1141.380, 58.08691
1142.473, 22.69238
1143.565, 76.29395
1144.657, 20.89355
1145.749, 138.4873
1146.841, 41.91602
1147.932, 5.655273
1149.024, 66.22266
1150.115, 151.7871
1151.206, 122.3682
1152.297, 124.9785
1153.388, 113.5537
1154.479, 116.3447
1155.569, 4.085938
1156.659, 69.48047
1157.750, 74.06738
1158.839, 17.33301
1159.929, 61.71387
1161.019, 16.52148
1162.108, 63.87305
1163.198, 21.52832
1164.287, 48.98242
1165.376, 8.509766
1166.465, 36.07324
1167.553, 36.43555
1168.642, 63.03418
1169.730, 23.54199
1170.818, 156.1377
1171.906, 80.61523
1172.994, 74.08789
1174.082, 157.5732
1175.170, 75.89453
1176.257, 36.62402
1177.344, 25.05371
1178.431, 156.0137
1179.518, 2.541992
1180.605, 12.89453
1181.691, 62.32520
1182.778, 71.75000
1183.864, 91.17188
1184.950, 33.58789
1186.036, 23.11621
1187.122, 125.5215
1188.207, 11.07617
1189.292, 177.3105
1190.378, 57.69336
1191.463, 24.92285
1192.548, 142.4385
1193.632, 31.20605
1194.717, 23.87598
1195.801, 93.43164
1196.886, 56.73438
1197.970, 27.03223
1199.054, 90.32324
1200.137, 81.60938
1201.221, 66.89844
1202.305, 105.1768
1203.388, 59.45020
1204.471, 71.31836
1205.554, 20.98145
1206.637, 67.23535
1207.719, 39.48633
1208.802, 47.73047
1209.884, 55.96875
1210.966, 0.2001950
1212.048, 17.42188
1213.130, 149.6387
1214.212, 95.84863
1215.293, 107.0557
1216.374, 82.49707
1217.456, 19.69238
1218.536, 12.04004
1219.617, 14.78125
1220.698, 153.2393
1221.778, 57.69336
1222.859, 158.8418
1223.939, 109.9863
1225.019, 81.87598
1226.099, 54.20703
1227.178, 7.716797
1228.258, 24.65625
1229.337, 130.3799
1230.417, 52.40918
1231.496, 58.43262
1232.574, 12.45020
1233.653, 68.45996
1234.732, 41.46484
1235.810, 78.96484
1236.888, 115.5264
1237.966, 142.6309
1239.044, 114.6113
1240.122, 112.6611
1241.199, 23.37109
1242.277, 142.7109
1243.354, 19.30566
1244.431, 6.660156
1245.508, 24.43359
1246.585, 191.4463
1247.661, 65.35059
1248.738, 161.2480
1249.814, 6.139648
1250.890, 63.02148
1251.966, 99.15527
1253.042, 126.3584
1254.117, 118.3242
1255.193, 159.3232
1256.268, 125.1719
1257.343, 113.0166
1258.418, 203.8545
1259.493, 168.6865
1260.567, 119.5117
1261.642, 27.33105
1262.716, 273.1426
1263.790, 86.94727
1264.864, 152.7461
1265.938, 291.5381
1267.011, 171.4141
1268.085, 89.22363
1269.158, 101.9971
1270.231, 153.7646
1271.304, 136.5273
1272.377, 107.1982
1273.450, 98.94727
1274.522, 113.2666
1275.594, 114.2949
1276.666, 164.6172
1277.738, 103.1797
1278.810, 134.1484
1279.882, 113.8613
1280.953, 73.56738
1282.025, 135.4717
1283.096, 29.16504
1284.167, 152.8506
1285.238, 80.09668
1286.308, 74.76953
1287.379, 71.43555
1288.449, 3.841797
1289.519, 59.56543
1290.589, 153.0889
1291.659, 64.99512
1292.729, 95.06738
1293.798, 209.6826
1294.868, 59.54297
1295.937, 122.0859
1297.006, 140.4482
1298.075, 69.04688
