##NAMES=Dioptase
##RRUFFID=R050010
##IDEAL CHEMISTRY=Cu^2+^SiO_3_&#183;H_2_O
##LOCALITY=Tsumeb mine, Tsumeb, Otavi District, Oshikoto, Namibia
##OWNER=RRUFF
##SOURCE=Eugene Schlepp
##DESCRIPTION=Bluish green single crystals
##STATUS=The identification of this mineral has been confirmed by X-ray diffraction and chemical analysis
##URL=rruff.info/R050010
##MEASURED CHEMISTRY=Cu_1.00_Si_1.00_O_3_Â·H_2_O ; trace amounts of Mg and Al; OH estimated by difference
##PIN_ID=L00476
##ORIENTATION=Laser parallel to c* (0 0 1). Fiducial mark perpendicular to laser is parallel to a [1 0 0]
104.600, 0.000
105.994, 13.897
107.387, 265.153
108.781, 277.474
110.174, 876.057
111.566, 1525.504
112.959, 2042.470
114.351, 2779.604
115.744, 3095.189
117.136, 3303.717
118.527, 2997.584
119.919, 2759.012
121.310, 2669.288
122.701, 2669.136
124.092, 3388.979
125.482, 3949.059
126.873, 5834.146
128.263, 8917.333
129.653, 13493.567
131.042, 18362.131
132.432, 19093.539
133.821, 18237.410
135.210, 18113.357
136.599, 17098.945
137.987, 13988.546
139.376, 13650.526
140.764, 7521.904
142.152, 3544.316
143.539, 1737.559
144.927, 529.414
146.314, 125.797
147.701, 239.367
149.088, 329.129
150.474, 209.525
151.861, 168.588
153.247, 439.656
154.633, 940.181
156.018, 2299.621
157.404, 3845.279
158.789, 6234.898
160.174, 8104.195
161.559, 8272.785
162.943, 7330.811
164.327, 4768.734
165.711, 3326.167
167.095, 2063.064
168.479, 1339.469
169.862, 1065.421
171.246, 960.956
172.628, 1436.104
174.011, 1910.896
175.394, 3425.351
176.776, 4739.488
178.158, 5993.936
179.540, 6311.959
180.922, 5475.172
182.303, 4768.143
183.684, 3510.883
185.065, 2843.408
186.446, 2215.729
187.826, 1727.852
189.207, 1529.800
190.587, 1151.657
191.967, 1443.466
193.346, 1495.247
194.726, 2167.013
196.105, 2518.771
197.484, 2390.528
198.862, 2142.283
200.241, 1554.018
201.619, 1595.730
202.997, 1437.433
204.375, 1599.131
205.753, 1714.581
207.130, 1976.192
208.507, 2736.321
209.884, 3116.825
211.261, 4104.604
212.638, 4721.615
214.014, 5996.447
215.390, 7451.412
216.766, 9156.510
218.141, 12001.731
219.517, 14737.073
220.892, 18858.016
222.267, 21706.170
223.642, 23957.199
225.016, 25002.830
226.391, 22868.408
227.765, 20804.078
229.139, 16559.828
230.512, 13445.666
231.886, 10351.586
233.259, 7827.578
234.632, 6083.647
236.005, 4549.785
237.377, 3665.990
238.749, 2762.256
240.122, 2368.560
241.493, 2224.882
242.865, 1730.219
244.237, 1540.569
245.608, 1329.935
246.979, 722.311
248.350, 366.701
249.720, 247.101
251.090, 187.512
252.461, 110.936
253.830, 266.370
255.200, 334.816
256.570, 879.273
257.939, 1521.740
259.308, 2648.219
260.677, 4464.705
262.045, 6921.174
263.414, 10757.656
264.782, 12744.150
266.150, 13800.651
267.517, 11987.161
268.885, 9023.689
270.252, 6800.698
271.619, 4968.004
272.986, 4176.988
274.353, 3216.722
275.719, 3026.969
277.085, 2987.607
278.451, 2918.541
279.817, 3259.719
281.182, 3381.052
282.548, 3892.431
283.913, 4203.882
285.278, 4515.419
286.642, 5377.048
288.007, 6018.767
289.371, 7330.559
290.735, 7652.450
292.099, 8063.583
293.462, 7594.362
294.826, 6335.298
296.189, 4946.337
297.552, 3257.495
298.914, 2264.726
300.277, 1179.018
301.639, 758.362
303.001, 393.750
304.363, 67.822
305.724, 99.418
307.086, 379.052
308.447, 353.802
309.808, 481.665
311.168, 460.676
312.529, 464.209
313.889, 534.640
315.249, 369.730
316.609, 346.781
317.969, 160.494
319.328, 67.724
320.687, 485.916
322.046, 1074.074
323.405, 1582.181
324.764, 2158.238
326.122, 2062.248
327.480, 1911.211
328.838, 1520.129
330.196, 934.004
331.553, 614.838
332.910, 347.632
334.267, 234.388
335.624, 92.105
336.981, 53.771
338.337, 64.634
339.693, 94.171
341.049, 232.445
342.405, 290.915
343.760, 481.331
345.116, 619.719
346.471, 924.081
347.826, 1653.418
349.180, 2386.731
350.535, 3956.021
351.889, 6355.287
353.243, 10344.532
354.597, 16253.754
355.950, 20512.955
357.304, 23022.133
358.657, 19121.297
360.010, 14490.427
361.362, 10059.540
362.715, 6848.635
364.067, 5157.706
365.419, 3616.755
366.771, 2965.782
368.123, 2428.787
369.474, 2010.570
370.825, 1810.897
372.176, 1505.691
373.527, 1584.949
374.877, 1380.811
376.228, 1608.532
377.578, 1676.261
378.928, 1595.998
380.277, 1899.740
381.627, 1928.489
382.976, 2360.243
384.325, 2601.974
385.674, 3117.646
387.023, 3884.296
388.371, 4450.950
389.719, 5847.607
391.067, 7164.268
392.415, 9560.932
393.762, 12287.602
395.110, 15514.271
396.457, 19880.945
397.804, 21797.619
399.150, 23064.291
400.497, 21150.973
401.843, 17687.652
403.189, 14604.329
404.535, 10571.008
405.881, 8317.688
407.226, 6264.368
408.571, 4741.048
409.916, 3997.729
411.261, 3394.410
412.605, 3411.089
413.950, 3137.500
415.294, 3332.142
416.638, 3538.821
417.981, 3505.500
419.325, 3992.178
420.668, 3808.855
422.011, 4125.533
423.354, 4122.208
424.697, 4188.883
426.039, 4625.559
427.381, 4272.229
428.723, 4659.216
430.065, 4685.886
431.406, 4763.363
432.748, 4862.287
434.089, 4729.042
435.430, 5084.675
436.770, 4711.875
438.111, 4697.113
439.451, 4649.612
440.791, 4272.699
442.131, 4295.245
443.471, 3747.879
444.810, 3782.156
446.149, 3497.607
447.488, 3453.278
448.827, 3488.669
450.166, 3253.954
451.504, 3608.557
452.842, 3401.174
454.180, 3476.348
455.518, 3453.706
456.855, 2979.326
458.193, 2867.401
459.530, 2283.905
460.867, 2099.349
462.203, 1897.531
463.540, 1591.679
464.876, 1515.797
466.212, 1174.453
467.548, 1159.035
468.883, 1017.975
470.219, 912.413
471.554, 864.741
472.889, 662.309
474.224, 711.025
475.558, 550.876
476.892, 446.391
478.227, 516.579
479.561, 369.400
480.894, 552.662
482.228, 339.659
483.561, 506.638
484.894, 676.599
486.227, 620.543
487.559, 812.469
488.892, 682.378
490.224, 738.270
491.556, 540.144
492.888, 483.001
494.220, 479.841
495.551, 395.142
496.882, 470.591
498.213, 442.655
499.544, 292.094
500.874, 582.470
502.205, 443.558
503.535, 648.174
504.865, 601.889
506.194, 668.588
507.524, 847.273
508.853, 883.943
510.182, 1125.599
511.511, 1028.240
512.840, 1233.867
514.168, 1288.485
515.496, 1354.089
516.824, 1442.679
518.152, 1372.272
519.480, 1421.851
520.807, 1459.423
522.134, 1230.983
523.461, 1235.542
524.788, 1133.087
526.114, 1162.623
527.441, 921.160
528.767, 855.683
530.093, 914.200
531.418, 654.708
532.744, 827.208
534.069, 605.711
535.394, 646.210
536.719, 605.710
538.044, 521.212
539.368, 461.718
540.693, 406.254
542.017, 401.786
543.340, 478.314
544.664, 335.853
545.987, 297.400
547.311, 433.958
548.634, 467.520
549.956, 573.084
551.279, 597.649
552.601, 795.030
553.923, 918.771
555.245, 1240.333
556.567, 1571.890
557.889, 1889.446
559.210, 2414.997
560.531, 2503.550
561.852, 3034.105
563.173, 2953.658
564.493, 2748.221
565.813, 2706.780
567.133, 2352.335
568.453, 2389.886
569.773, 2028.432
571.092, 2164.974
572.412, 2098.511
573.731, 1726.045
575.049, 1752.587
576.368, 1291.125
577.686, 1201.658
579.005, 880.187
580.323, 681.710
581.640, 594.231
582.958, 310.747
584.275, 383.258
585.593, 259.766
586.909, 40.268
588.226, 180.761
589.543, 7.249
590.859, 20.279
592.175, 63.164
593.491, 127.400
594.807, 18.949
596.122, 121.713
597.438, 78.458
598.753, 88.264
600.068, 80.135
601.382, 82.066
602.697, 108.821
604.011, 128.129
605.325, 132.284
606.639, 128.525
607.952, 63.853
609.266, 181.230
610.579, 86.720
611.892, 128.273
613.205, 163.909
614.518, 9.647
615.830, 113.406
617.142, 21.760
618.454, 22.920
619.766, 52.073
621.078, 183.223
622.389, 126.370
623.700, 228.515
625.011, 274.713
626.322, 238.976
627.632, 399.375
628.943, 314.907
630.253, 466.602
631.563, 429.458
632.872, 419.472
634.182, 679.662
635.491, 536.982
636.800, 835.427
638.109, 813.946
639.418, 1083.482
640.726, 1272.017
642.035, 1332.548
643.343, 1653.078
644.651, 1895.606
645.958, 2273.134
647.266, 2864.658
648.573, 3219.181
649.880, 4284.704
651.187, 5280.224
652.494, 6925.743
653.800, 9171.264
655.106, 11286.800
656.412, 15092.359
657.718, 16807.941
659.024, 18783.537
660.329, 18529.131
661.634, 16284.729
662.939, 14440.326
664.244, 11375.923
665.549, 9251.519
666.853, 7657.114
668.157, 5802.708
669.461, 5028.303
670.765, 4095.027
672.069, 3486.622
673.372, 3030.215
674.675, 2390.481
675.978, 2253.074
677.281, 1900.604
678.583, 1724.195
679.886, 1573.690
681.188, 1285.282
682.490, 1263.505
683.792, 1051.521
685.093, 903.111
686.394, 948.965
687.696, 742.807
688.997, 832.395
690.297, 633.083
691.598, 638.670
692.898, 622.113
694.198, 490.077
695.498, 601.152
696.798, 476.581
698.097, 525.165
699.397, 501.748
700.696, 351.457
701.995, 541.740
703.293, 503.467
704.592, 433.813
705.890, 507.600
707.188, 424.923
708.486, 531.876
709.784, 532.447
711.081, 592.121
712.378, 603.709
713.675, 608.698
714.972, 792.264
716.269, 703.604
717.565, 886.938
718.862, 964.505
720.158, 945.445
721.453, 1191.001
722.749, 1283.556
724.045, 1512.107
725.340, 1790.659
726.635, 2032.208
727.930, 2463.755
729.224, 2758.300
730.519, 3265.845
731.813, 3898.388
733.107, 4530.929
734.401, 5556.468
735.694, 6112.007
736.988, 7347.765
738.281, 8463.300
739.574, 8648.833
740.867, 9634.367
742.160, 9309.897
743.452, 8655.115
744.744, 8410.644
746.036, 6825.367
747.328, 6228.640
748.620, 5164.081
749.911, 4320.633
751.202, 3881.605
752.493, 3002.523
753.784, 2743.163
755.075, 2242.194
756.365, 1910.748
757.655, 1789.192
758.945, 1374.972
760.235, 1362.557
761.525, 1094.900
762.814, 958.501
764.103, 914.187
765.392, 783.533
766.681, 676.840
767.969, 599.572
769.258, 596.102
770.546, 612.352
771.834, 411.129
773.122, 514.458
774.409, 422.830
775.697, 354.443
776.984, 396.071
778.271, 293.708
779.558, 300.354
780.844, 307.009
782.131, 306.673
783.417, 354.344
784.703, 304.022
785.989, 290.708
787.274, 375.399
788.560, 225.096
789.845, 330.799
791.130, 298.505
792.415, 325.215
793.699, 305.929
794.983, 256.646
796.268, 361.367
797.552, 252.091
798.835, 314.819
800.119, 509.551
801.402, 196.286
802.686, 267.026
803.969, 256.770
805.251, 121.517
806.534, 189.268
807.816, 101.024
809.098, 210.785
810.380, 164.551
811.662, 124.321
812.944, 204.094
814.225, 35.873
815.506, 161.656
816.787, 193.443
818.068, 132.234
819.349, 118.031
820.629, 82.831
821.909, 55.636
823.189, 94.444
824.469, 19.742
825.749, 47.065
827.028, 9.875
828.307, 68.309
829.586, 39.479
830.865, 35.729
832.144, 89.049
833.422, 54.167
834.700, 13.595
835.978, 8.638
837.256, 63.873
838.534, 44.867
839.811, 22.389
841.088, 0.349
842.365, 12.088
843.642, 39.167
844.919, 76.564
846.195, 13.699
847.472, 24.965
848.748, 27.238
850.023, 141.521
851.299, 69.135
852.575, 12.797
853.850, 59.535
855.125, 51.889
856.400, 60.261
857.674, 33.656
858.949, 22.371
860.223, 12.484
861.497, 3.881
862.771, 21.710
864.045, 20.692
865.318, 5.902
866.591, 5.497
867.864, 9.105
869.137, 14.285
870.410, 35.676
871.682, 5.923
872.955, 67.470
874.227, 27.114
875.499, 18.705
876.770, 43.304
878.042, 16.912
879.313, 10.526
880.584, 21.150
881.855, 19.781
883.126, 16.420
884.396, 53.068
885.667, 11.725
886.937, 79.389
888.207, 84.062
889.476, 3.256
890.746, 211.431
892.015, 148.127
893.284, 100.832
894.553, 221.545
895.822, 86.268
897.090, 283.000
898.359, 202.743
899.627, 255.500
900.895, 375.278
902.163, 357.067
903.430, 521.906
904.698, 547.757
905.965, 629.656
907.232, 802.593
908.499, 864.570
909.765, 1054.585
911.032, 1313.637
912.298, 1358.735
913.564, 1618.882
914.830, 1487.082
916.095, 1444.331
917.361, 1397.612
918.626, 1169.959
919.891, 1109.344
921.156, 892.779
922.420, 751.273
923.685, 761.785
924.949, 620.343
926.213, 686.912
927.477, 597.494
928.740, 530.084
930.004, 652.685
931.267, 573.296
932.530, 624.917
933.793, 682.548
935.056, 465.190
936.318, 636.842
937.581, 473.504
938.843, 523.178
940.104, 593.861
941.366, 426.558
942.628, 576.263
943.889, 523.985
945.150, 552.719
946.411, 675.462
947.672, 594.216
948.932, 728.981
950.193, 720.757
951.453, 827.545
952.713, 1005.347
953.973, 986.172
955.232, 1077.008
956.491, 1324.866
957.751, 1133.736
959.010, 1281.629
960.268, 1147.777
961.527, 1147.679
962.785, 1062.594
964.044, 856.522
965.302, 910.565
966.559, 863.593
967.817, 909.559
969.075, 803.634
970.332, 790.633
971.589, 854.645
972.846, 881.668
974.102, 882.853
975.359, 910.755
976.615, 907.694
977.871, 934.788
979.127, 982.905
980.383, 907.361
981.638, 1115.506
982.893, 1017.727
984.149, 1149.896
985.404, 1371.171
986.658, 1406.370
987.913, 2287.946
989.167, 2803.741
990.421, 3890.990
991.675, 2570.992
992.929, 2362.018
994.183, 2594.317
995.436, 2995.536
996.689, 3264.878
997.942, 4111.384
999.195, 5123.392
1000.448, 6022.307
1001.700, 7481.881
1002.952, 8299.318
1004.204, 9606.765
1005.456, 9941.099
1006.708, 9285.869
1007.959, 9070.216
1009.210, 8315.954
1010.461, 7832.263
1011.712, 8009.055
1012.963, 7726.230
1014.213, 8153.810
1015.464, 8220.300
1016.714, 7967.904
1017.964, 8385.120
1019.214, 7882.773
1020.463, 7799.666
1021.712, 7685.575
1022.962, 7083.265
1024.210, 7197.592
1025.459, 6785.315
1026.708, 6303.051
1027.956, 6300.800
1029.204, 5422.558
1030.452, 5136.330
1031.700, 4566.117
1032.948, 4036.915
1034.195, 3699.726
1035.442, 3023.548
1036.689, 2730.381
1037.936, 2566.229
1039.183, 2059.089
1040.429, 2064.736
1041.676, 1833.620
1042.922, 1600.514
1044.168, 1519.421
1045.413, 1256.338
1046.659, 1284.267
1047.904, 1195.206
1049.149, 949.156
1050.394, 1042.118
1051.639, 875.093
1052.884, 861.079
1054.128, 763.077
1055.372, 686.085
1056.616, 728.104
1057.860, 669.132
1059.104, 598.169
1060.347, 623.216
1061.590, 485.273
1062.833, 518.339
1064.076, 459.415
1065.319, 431.498
1066.561, 404.588
1067.803, 384.688
1069.046, 293.794
1070.287, 432.908
1071.529, 316.030
1072.771, 339.159
1074.012, 271.294
1075.253, 252.458
1076.494, 315.607
1077.735, 225.764
1078.975, 192.099
1080.216, 224.268
1081.456, 146.479
1082.696, 166.750
1083.936, 173.064
1085.175, 131.429
1086.415, 177.880
1087.654, 151.165
1088.893, 146.625
1090.132, 113.241
1091.371, 81.506
1092.609, 187.278
1093.847, 100.569
1095.085, 67.997
1096.323, 102.436
1097.561, 11.885
1098.799, 25.464
1100.036, 44.064
1101.273, 10.222
1102.510, 3.621
1103.747, 6.028
1104.983, 45.228
1106.220, 92.799
1107.456, 0.852
1108.692, 19.229
1109.928, 49.219
1111.163, 7.142
1112.399, 21.403
1113.634, 10.160
1114.869, 7.698
1116.104, 62.864
1117.339, 9.215
1118.573, 71.407
1119.808, 61.383
1121.042, 74.152
1122.276, 302.094
1123.509, 312.115
1124.743, 243.891
1125.976, 197.251
1127.210, 88.758
1128.443, 90.341
1129.675, 124.108
1130.908, 74.012
1132.141, 132.358
1133.373, 41.822
1134.605, 153.254
1135.837, 125.859
1137.068, 130.389
1138.300, 140.645
1139.531, 107.555
1140.762, 118.332
1141.993, 144.285
1143.224, 135.467
1144.455, 99.463
1145.685, 160.656
1146.915, 131.294
1148.145, 198.586
1149.375, 153.196
1150.605, 167.358
1151.834, 185.214
1153.063, 141.738
1154.292, 209.751
1155.521, 242.101
1156.750, 156.700
1157.978, 258.675
1159.207, 149.947
1160.435, 231.015
1161.663, 242.631
1162.891, 204.496
1164.118, 247.836
1165.345, 278.465
1166.573, 238.008
1167.800, 215.671
1169.026, 198.317
1170.253, 215.179
1171.480, 177.979
1172.706, 156.658
1173.932, 210.154
1175.158, 179.845
1176.383, 126.204
1177.609, 180.823
1178.834, 153.630
1180.059, 148.087
1181.284, 198.566
1182.509, 115.926
1183.734, 149.367
1184.958, 151.459
1186.182, 66.668
1187.406, 160.149
1188.630, 120.781
1189.854, 104.033
1191.077, 143.542
1192.301, 36.734
1193.524, 155.057
1194.747, 39.414
1195.969, 31.803
1197.192, 132.910
1198.414, 43.100
1199.636, 111.179
1200.858, 117.006
1202.080, 90.307
1203.302, 80.374
1204.523, 114.834
1205.744, 79.544
1206.966, 170.991
1208.186, 74.460
1209.407, 93.858
1210.628, 153.944
1211.848, 111.105
1213.068, 208.144
1214.288, 160.678
1215.508, 99.469
1216.727, 106.654
1217.947, 96.911
1219.166, 87.251
1220.385, 123.164
1221.604, 41.654
1222.822, 138.623
1224.041, 70.809
1225.259, 10.268
1226.477, 126.116
1227.695, 45.085
1228.913, 34.103
1230.130, 26.119
1231.348, 17.270
1232.565, 6.671
1233.782, 42.394
1234.999, 9.513
1236.215, 1.291
1237.432, 55.012
1238.648, 16.131
1239.864, 53.570
1241.080, 23.409
1242.296, 23.354
1243.511, 23.037
1244.726, 10.638
1245.942, 10.420
1247.156, 2.974
1248.371, 38.211
1249.586, 44.193
1250.800, 34.141
1252.014, 19.412
1253.228, 63.771
1254.442, 17.200
1255.656, 42.839
1256.869, 4.608
1258.083, 1.056
1259.296, 50.184
1260.509, 3.583
1261.722, 29.515
1262.934, 10.253
1264.147, 5.230
1265.359, 6.875
1266.571, 15.816
1267.783, 9.082
1268.994, 7.115
1270.206, 22.029
1271.417, 30.937
1272.628, 32.986
1273.839, 36.646
1275.050, 4.489
1276.260, 15.165
1277.471, 92.928
1278.681, 65.335
1279.891, 13.784
1281.101, 42.107
1282.310, 54.627
1283.520, 41.874
1284.729, 4.329
1285.938, 29.100
1287.147, 20.427
1288.356, 7.958
1289.564, 20.621
1290.773, 23.605
1291.981, 14.542
1293.189, 8.779
1294.397, 2.414
1295.604, 14.633
1296.812, 29.766
1298.019, 72.913
1299.226, 21.994
1300.433, 7.955
1301.640, 62.058
1302.846, 26.042
1304.053, 6.005
1305.259, 21.911
1306.465, 27.205
1307.671, 33.635
1308.876, 38.558
1310.082, 5.201
1311.287, 72.927
1312.492, 4.622
1313.697, 54.280
1314.902, 33.907
1316.106, 38.501
1317.310, 51.063
1318.515, 80.594
1319.719, 48.094
1320.922, 109.563
1322.126, 55.003
1323.329, 36.412
1324.533, 79.790
1325.736, 72.137
1326.939, 98.455
1328.141, 76.742
1329.344, 20.001
1330.546, 134.228
1331.748, 63.429
1332.950, 45.597
1334.152, 109.736
1335.354, 56.848
1336.555, 118.930
1337.757, 84.985
1338.958, 74.011
1340.159, 66.009
1341.359, 127.978
1342.560, 13.920
1343.760, 128.830
1344.960, 26.712
1346.160, 69.564
1347.360, 122.389
1348.560, 48.187
1349.759, 92.956
1350.959, 131.698
1352.158, 44.415
1353.357, 49.104
1354.555, 97.765
1355.754, 76.400
1356.952, 102.010
1358.151, 66.594
1359.349, 72.152
1360.546, 63.684
1361.744, 53.192
1362.941, 44.673
1364.139, 110.129
1365.336, 32.562
1366.533, 88.949
1367.730, 52.333
1368.926, 31.693
1370.123, 106.123
1371.319, 73.437
1372.515, 64.694
1373.711, 62.877
1374.906, 47.021
1376.102, 31.082
1377.297, 104.042
1378.492, 45.118
1379.687, 87.989
1380.882, 95.666
1382.077, 65.663
1383.271, 90.071
1384.465, 63.652
1385.659, 51.043
1386.853, 85.655
1388.047, 97.085
1389.240, 57.473
1390.434, 84.749
1391.627, 56.564
1392.820, 120.984
1394.013, 61.996
1395.205, 69.276
1396.398, 111.464
1397.590, 86.351
1398.782, 76.453
1399.974, 109.747
1401.166, 79.601
1402.357, 98.558
1403.549, 67.878
1404.740, 94.046
1405.931, 71.614
1407.122, 85.126
1408.313, 70.205
1409.503, 104.668
1410.693, 27.732
1411.883, 59.481
1413.073, 116.665
1414.263, 35.083
1415.453, 82.134
1416.642, 73.542
1417.831, 34.792
1419.020, 75.894
1420.209, 42.839
1421.398, 49.744
1422.587, 74.962
1423.775, 14.365
1424.963, 113.250
1426.151, 88.626
1427.339, 51.870
1428.526, 72.223
1429.714, 55.172
1430.901, 47.268
1432.088, 90.268
1433.275, 58.420
1434.462, 93.218
1435.648, 94.070
1436.835, 98.727
1438.021, 52.841
1439.207, 105.625
1440.393, 54.275
1441.579, 108.796
1442.764, 128.991
1443.949, 65.513
1445.135, 130.179
1446.320, 88.094
1447.504, 88.527
1448.689, 103.343
1449.873, 71.601
1451.058, 82.705
1452.242, 66.012
1453.426, 84.708
1454.609, 112.222
1455.793, 84.308
1456.976, 64.642
1458.159, 96.733
1459.342, 52.138
1460.525, 111.571
1461.708, 81.834
1462.890, 86.469
1464.073, 46.812
1465.255, 120.251
1466.437, 37.800
1467.619, 74.050
1468.800, 58.778
1469.982, 45.080
1471.163, 127.644
1472.344, 71.455
1473.525, 86.305
1474.706, 83.419
1475.886, 62.197
1477.066, 68.961
1478.247, 145.567
1479.427, 53.272
1480.607, 117.118
1481.786, 85.730
1482.966, 71.340
1484.145, 101.063
1485.324, 42.785
1486.503, 55.508
1487.682, 96.252
1488.860, 31.021
1490.039, 56.808
1491.217, 97.633
1492.395, 25.493
1493.573, 47.385
1494.751, 51.309
1495.928, 48.270
1497.106, 60.265
1498.283, 61.836
1499.460, 27.353
1500.637, 70.450
1501.814, 22.585
1502.990, 17.754
1504.166, 61.979
1505.342, 24.258
1506.518, 33.598
1507.694, 17.006
1508.870, 20.485
1510.045, 19.378
1511.221, 4.317
1512.396, 11.421
1513.571, 28.269
1514.745, 10.242
1515.920, 4.361
1517.094, 76.645
1518.269, 0.099
1519.443, 40.793
1520.616, 31.156
1521.790, 19.473
1522.964, 0.000
##END=



