##NAMES=Diopside
##RRUFFID=R060861
##IDEAL CHEMISTRY=CaMgSi_2_O_6_
##LOCALITY=Red Mountain Volcano, NW of Flagstaff, Arizona, USA
##OWNER=RRUFF
##SOURCE=Jennifer Sano
##DESCRIPTION=Worn brown fragment
##STATUS=The identification of this mineral has been confirmed by X-ray diffraction and chemical analysis
##URL=rruff.info/R060861
##MEASURED CHEMISTRY=(Ca_0.72_Fe^2+^_0.23_Na_0.05_)_Σ=1_(Mg_0.80_Al_0.15_Ti_0.03_Fe^3+^_0.02_)_Σ=1_(Si_1.82_Al_0.18_)_Σ=2_O_6_
##PIN_ID=M01653
##ORIENTATION=Laser parallel to -c* (0 0 -1). Fiducial mark perpendicular to laser is parallel to a [1 0 0]
172.2330, 0.0000000E+00
173.4670, 3.823242
174.7000, 129.9062
175.9330, 39.55273
177.1660, 6.535156
178.3990, 205.3379
179.6310, 43.11914
180.8640, 275.5410
182.0960, 240.2773
183.3280, 313.3047
184.5600, 589.2246
185.7910, 473.9766
187.0220, 651.3145
188.2540, 493.7441
189.4840, 650.5664
190.7150, 837.4023
191.9460, 939.0020
193.1760, 1157.193
194.4060, 1286.859
195.6360, 1340.318
196.8660, 1241.533
198.0960, 947.8730
199.3250, 864.0391
200.5540, 1210.129
201.7830, 884.3223
203.0120, 922.7734
204.2400, 761.6055
205.4690, 417.9219
206.6970, 190.8086
207.9250, 83.33594
209.1530, 210.5723
210.3800, 219.5645
211.6080, 409.3574
212.8350, 549.9863
214.0620, 901.4922
215.2880, 985.9102
216.5150, 1193.268
217.7410, 1356.482
218.9680, 1438.914
220.1940, 1656.012
221.4190, 1943.498
222.6450, 2051.089
223.8700, 2243.440
225.0960, 2234.633
226.3210, 2403.953
227.5450, 2332.571
228.7700, 2182.477
229.9940, 2326.663
231.2190, 2014.121
232.4430, 1962.844
233.6660, 1811.816
234.8900, 1666.014
236.1140, 1493.423
237.3370, 1522.040
238.5600, 1213.864
239.7830, 1250.890
241.0050, 1265.115
242.2280, 1091.535
243.4500, 1052.150
244.6720, 921.9668
245.8940, 877.9766
247.1160, 769.0830
248.3370, 928.3291
249.5580, 691.7363
250.7790, 879.3203
252.0000, 786.0879
253.2210, 784.0459
254.4410, 649.1953
255.6620, 581.5361
256.8820, 567.0645
258.1020, 659.7803
259.3210, 632.5059
260.5410, 480.7373
261.7600, 630.9883
262.9790, 145.3965
264.1980, 24.02930
265.4170, 88.29785
266.6360, 285.4102
267.8540, 216.3672
269.0720, 124.1738
270.2900, 417.8418
271.5080, 284.3857
272.7260, 299.8545
273.9430, 10.12598
275.1600, 174.3223
276.3770, 112.4023
277.5940, 9.630859
278.8100, 137.7783
280.0270, 111.0381
281.2430, 360.4092
282.4590, 376.8906
283.6750, 417.4824
284.8910, 667.1816
286.1060, 857.9883
287.3210, 870.9004
288.5360, 1228.918
289.7510, 1572.037
290.9660, 1814.259
292.1800, 1998.547
293.3950, 2187.739
294.6090, 2507.833
295.8230, 2655.739
297.0360, 3272.648
298.2500, 3585.591
299.4630, 4018.641
300.6760, 4300.793
301.8890, 4763.049
303.1020, 5326.409
304.3150, 5930.864
305.5270, 6428.105
306.7390, 6906.063
307.9510, 7489.804
309.1630, 8202.635
310.3750, 8718.552
311.5860, 9512.562
312.7970, 10339.68
314.0080, 11073.94
315.2190, 11848.48
316.4300, 12809.42
317.6400, 13822.92
318.8510, 14591.81
320.0610, 15691.54
321.2710, 16457.49
322.4800, 17224.57
323.6900, 18091.77
324.8990, 18730.34
326.1080, 19571.27
327.3170, 19935.47
328.5260, 20422.96
329.7340, 20846.69
330.9430, 21051.62
332.1510, 21006.73
333.3590, 21132.99
334.5670, 20635.39
335.7740, 20253.93
336.9820, 19862.57
338.1890, 19343.31
339.3960, 18812.13
340.6030, 18306.05
341.8100, 17581.04
343.0160, 16874.09
344.2220, 16134.16
345.4280, 15521.26
346.6340, 15070.40
347.8400, 14403.57
349.0460, 14001.60
350.2510, 13625.47
351.4560, 13219.35
352.6610, 12983.70
353.8660, 12739.10
355.0700, 12391.55
356.2750, 12200.23
357.4790, 12017.98
358.6830, 11874.20
359.8870, 11665.85
361.0910, 11772.55
362.2940, 11453.30
363.4970, 11349.11
364.7000, 11546.90
365.9030, 10985.46
367.1060, 11200.76
368.3080, 11194.82
369.5110, 11290.85
370.7130, 11487.92
371.9150, 11588.05
373.1170, 11958.25
374.3180, 12207.52
375.5200, 12621.86
376.7210, 13092.26
377.9220, 13650.81
379.1230, 14316.26
380.3230, 15111.85
381.5240, 16112.50
382.7240, 17206.21
383.9240, 18071.97
385.1240, 19184.79
386.3240, 20599.66
387.5230, 21875.59
388.7230, 23325.57
389.9220, 24464.60
391.1210, 25643.68
392.3200, 26552.81
393.5180, 27121.99
394.7170, 27678.22
395.9150, 27765.48
397.1130, 27088.80
398.3110, 26136.16
399.5080, 25032.55
400.7060, 23300.99
401.9030, 21605.47
403.1000, 19644.99
404.2970, 17630.54
405.4940, 15918.13
406.6910, 14023.76
407.8870, 12230.41
409.0830, 10943.14
410.2790, 9215.634
411.4750, 8233.987
412.6710, 7051.979
413.8660, 6153.271
415.0610, 5336.547
416.2560, 4467.487
417.4510, 4033.738
418.6460, 3525.289
419.8410, 3136.890
421.0350, 2791.199
422.2290, 2607.187
423.4230, 2454.195
424.6170, 1944.226
425.8100, 1860.276
427.0040, 1475.345
428.1970, 1437.432
429.3900, 1495.536
430.5830, 1284.657
431.7760, 1083.793
432.9680, 979.9424
434.1610, 796.1055
435.3530, 796.2822
436.5450, 820.4707
437.7360, 638.6689
438.9280, 633.5107
440.1190, 473.4033
441.3110, 504.3379
442.5020, 229.5830
443.6930, 201.8369
444.8830, 257.1016
446.0740, 403.3730
447.2640, 224.6514
448.4540, 299.2393
449.6440, 134.0898
450.8340, 26.44824
452.0240, 205.3896
453.2130, 109.1504
454.4020, 93.68262
455.5910, 64.01367
456.7800, 72.63379
457.9690, 228.7744
459.1570, 291.1777
460.3460, 406.8857
461.5340, 280.4277
462.7220, 504.1025
463.9090, 481.6074
465.0970, 593.0400
466.2840, 647.1318
467.4720, 810.9072
468.6590, 755.0684
469.8460, 782.7949
471.0320, 765.1230
472.2190, 876.4961
473.4050, 936.7207
474.5910, 811.8516
475.7770, 1007.872
476.9630, 713.1963
478.1490, 897.2021
479.3340, 1084.794
480.5190, 902.2920
481.7040, 1073.267
482.8890, 1019.073
484.0740, 1039.854
485.2580, 1047.586
486.4430, 1060.270
487.6270, 1122.906
488.8110, 1175.493
489.9950, 1144.030
491.1780, 1275.515
492.3620, 1216.949
493.5450, 1439.331
494.7280, 1388.658
495.9110, 1520.931
497.0940, 1512.148
498.2760, 1584.309
499.4590, 1744.413
500.6410, 1677.458
501.8230, 1825.445
503.0050, 1891.372
504.1860, 2023.239
505.3680, 2245.043
506.5490, 2460.786
507.7300, 2545.466
508.9110, 2961.083
510.0920, 3326.639
511.2730, 3399.131
512.4530, 3623.562
513.6330, 3760.519
514.8130, 3875.772
515.9930, 3931.473
517.1730, 4112.646
518.3520, 4126.752
519.5320, 4230.791
520.7110, 4421.762
521.8900, 4316.662
523.0690, 4562.494
524.2470, 4679.254
525.4260, 4715.941
526.6040, 4843.555
527.7820, 4940.095
528.9600, 5048.562
530.1380, 5054.701
531.3150, 5079.235
532.4930, 5025.501
533.6700, 5026.659
534.8470, 4998.740
536.0240, 4944.739
537.2000, 5004.660
538.3770, 4777.498
539.5530, 4721.252
540.7290, 4698.926
541.9050, 4511.516
543.0810, 4589.021
544.2570, 4323.441
545.4320, 4381.775
546.6080, 4242.023
547.7830, 4162.183
548.9580, 4236.256
550.1320, 4097.238
551.3070, 3967.138
552.4810, 3989.962
553.6550, 3964.751
554.8300, 4072.486
556.0030, 3903.152
557.1770, 3920.809
558.3510, 3720.426
559.5240, 3701.004
560.6970, 3559.490
561.8700, 3567.910
563.0430, 3537.250
564.2160, 3501.494
565.3880, 3435.601
566.5600, 3150.689
567.7320, 3229.640
568.9040, 2961.491
570.0760, 2767.242
571.2480, 2743.893
572.4190, 2616.441
573.5900, 2629.891
574.7610, 2371.235
575.9320, 2275.479
577.1030, 2223.618
578.2740, 2052.654
579.4440, 1811.587
580.6140, 1776.413
581.7840, 1583.135
582.9540, 1435.750
584.1240, 1321.261
585.2930, 1157.322
586.4630, 1011.958
587.6320, 911.1455
588.8010, 746.2246
589.9700, 687.8008
591.1380, 341.2314
592.3070, 305.7061
593.4750, 318.8281
594.6430, 44.62207
595.8110, 29.44141
596.9790, 43.90430
598.1460, 74.88965
599.3140, 228.0234
600.4810, 285.8555
601.6480, 353.2148
602.8150, 327.6963
603.9820, 425.7666
605.1480, 252.5977
606.3150, 171.6357
607.4810, 199.7627
608.6470, 127.6436
609.8130, 5.630859
610.9790, 37.34570
612.1440, 59.37500
613.3100, 208.1025
614.4750, 249.7637
615.6400, 442.2285
616.8050, 329.8359
617.9690, 464.8389
619.1340, 650.9375
620.2980, 849.6748
621.4620, 928.0693
622.6260, 1237.952
623.7900, 1243.315
624.9540, 1586.977
626.1170, 1672.495
627.2810, 2101.869
628.4440, 2215.101
629.6070, 2353.188
630.7690, 2789.132
631.9320, 3071.934
633.0950, 3510.593
634.2570, 3677.109
635.4190, 3796.481
636.5810, 4113.714
637.7430, 4203.803
638.9040, 4500.750
640.0660, 4418.557
641.2270, 4738.221
642.3880, 4806.744
643.5490, 5086.129
644.7100, 5291.373
645.8700, 5682.475
647.0310, 5800.438
648.1910, 6403.259
649.3510, 6815.942
650.5110, 7558.487
651.6710, 8282.894
652.8300, 9333.162
653.9900, 10448.29
655.1490, 11559.28
656.3080, 12783.14
657.4670, 14192.85
658.6250, 16101.44
659.7840, 17876.88
660.9420, 19565.19
662.1010, 21323.37
663.2590, 22889.41
664.4170, 24721.31
665.5740, 25705.09
666.7320, 26081.73
667.8890, 26332.23
669.0460, 25457.61
670.2030, 24568.85
671.3600, 22904.96
672.5170, 21237.94
673.6740, 19686.80
674.8300, 18064.51
675.9860, 16361.11
677.1420, 14897.40
678.2980, 13168.91
679.4540, 11963.12
680.6090, 10723.19
681.7650, 9407.151
682.9200, 8737.984
684.0750, 7787.689
685.2300, 7207.272
686.3840, 6620.729
687.5390, 5838.064
688.6930, 5448.279
689.8470, 4892.371
691.0010, 4617.342
692.1550, 4196.193
693.3090, 3971.925
694.4620, 3763.537
695.6160, 3536.031
696.7690, 3179.409
697.9220, 3127.668
699.0750, 2904.811
700.2280, 2660.836
701.3800, 2569.746
702.5320, 2372.541
703.6850, 2267.222
704.8370, 2256.790
705.9880, 1999.245
707.1400, 1975.589
708.2920, 1946.822
709.4430, 1764.945
710.5940, 1609.959
711.7450, 1626.864
712.8960, 1506.663
714.0470, 1343.354
715.1970, 1259.941
716.3480, 1156.422
717.4980, 1100.800
718.6480, 978.0752
719.7980, 899.2480
720.9470, 875.3203
722.0970, 696.2920
723.2460, 616.1641
724.3960, 507.9395
725.5450, 528.6162
726.6940, 506.1973
727.8420, 263.3799
728.9910, 258.2080
730.1390, 121.4355
731.2870, 235.9688
732.4350, 76.40918
733.5830, 40.71680
734.7310, 46.96582
735.8790, 147.6504
737.0260, 192.0225
738.1730, 217.8340
739.3200, 201.1309
740.4670, 273.4346
741.6140, 258.0459
742.7610, 339.6445
743.9070, 328.3506
745.0530, 427.8857
746.1990, 438.7119
747.3450, 461.8379
748.4910, 458.0576
749.6370, 455.6113
750.7820, 407.3984
751.9270, 323.2109
753.0720, 412.0791
754.2170, 252.0078
755.3620, 326.3682
756.5070, 220.5508
757.6510, 177.4385
758.7950, 177.6699
759.9400, 123.8232
761.0840, 117.2324
762.2270, 61.29297
763.3710, 143.7939
764.5140, 187.1631
765.6580, 69.73145
766.8010, 260.1699
767.9440, 289.5918
769.0870, 274.9980
770.2290, 385.3877
771.3720, 355.9170
772.5140, 311.1348
773.6560, 422.4932
774.7990, 297.8467
775.9400, 462.1924
777.0820, 226.5352
778.2240, 565.8770
779.3650, 466.2188
780.5060, 490.5615
781.6470, 340.9082
782.7880, 518.2598
783.9290, 505.6172
785.0690, 240.9834
786.2100, 409.3584
787.3500, 315.7461
788.4900, 522.1465
789.6300, 480.5625
790.7700, 421.9941
791.9090, 442.4443
793.0490, 530.9160
794.1880, 355.4062
795.3270, 551.9209
796.4660, 484.4600
797.6050, 398.0244
798.7440, 659.6172
799.8820, 494.2402
801.0200, 658.8926
802.1590, 872.5781
803.2970, 628.2979
804.4340, 790.0527
805.5720, 879.8457
806.7100, 779.6768
807.8470, 940.5479
808.9840, 940.4609
810.1210, 928.4170
811.2580, 1131.417
812.3950, 986.4639
813.5310, 1067.557
814.6680, 1067.700
815.8040, 1277.893
816.9400, 1334.138
818.0760, 1538.436
819.2120, 1418.788
820.3470, 1221.197
821.4830, 1472.662
822.6180, 1224.188
823.7530, 1289.772
824.8880, 1354.420
826.0230, 1341.130
827.1580, 1158.904
828.2920, 1208.744
829.4270, 1093.652
830.5610, 1329.628
831.6950, 1176.674
832.8290, 1200.791
833.9620, 1050.981
835.0960, 1068.245
836.2290, 1073.584
837.3620, 1100.000
838.4950, 1094.714
839.6280, 1080.799
840.7610, 1110.722
841.8940, 1099.727
843.0260, 1092.275
844.1580, 1101.359
845.2910, 1075.019
846.4230, 1065.245
847.5540, 1068.410
848.6860, 1080.665
849.8170, 1116.011
850.9490, 1064.448
852.0800, 1223.980
853.2110, 1191.605
854.3420, 1382.329
855.4730, 1589.150
856.6030, 1487.067
857.7340, 1605.086
858.8640, 1614.205
859.9940, 1840.426
861.1240, 1812.752
862.2540, 1800.181
863.3830, 1892.716
864.5130, 1884.750
865.6420, 1874.928
866.7710, 1967.046
867.9000, 1976.500
869.0290, 1908.266
870.1570, 1984.840
871.2860, 1796.745
872.4140, 1896.058
873.5430, 1870.056
874.6710, 1975.506
875.7980, 1854.881
876.9260, 1835.217
878.0540, 1722.986
879.1810, 1705.330
880.3080, 1889.743
881.4360, 1571.134
882.5630, 1680.183
883.6890, 1867.011
884.8160, 1660.028
885.9420, 1964.301
887.0690, 1568.537
888.1950, 1633.820
889.3210, 1565.296
890.4470, 1739.651
891.5730, 1444.641
892.6980, 1550.581
893.8240, 1509.950
894.9490, 1550.742
896.0740, 1633.132
897.1990, 1477.129
898.3240, 1475.927
899.4480, 1611.974
900.5730, 1422.263
901.6970, 1413.784
902.8210, 1587.508
903.9450, 1590.483
905.0690, 1462.664
906.1930, 1617.072
907.3160, 1444.720
908.4400, 1753.613
909.5630, 1349.757
910.6860, 1681.177
911.8090, 1569.822
912.9320, 1717.689
914.0550, 1655.792
915.1770, 1743.132
916.2990, 1891.696
917.4210, 1817.450
918.5440, 1800.404
919.6650, 2001.583
920.7870, 2056.980
921.9090, 1976.623
923.0300, 1946.500
924.1510, 2207.618
925.2720, 2144.955
926.3930, 2398.493
927.5140, 2271.233
928.6350, 2340.168
929.7550, 2447.324
930.8760, 2256.676
931.9960, 2443.243
933.1160, 2435.025
934.2360, 2580.002
935.3550, 2506.201
936.4750, 2583.615
937.5940, 2589.226
938.7140, 2617.037
939.8330, 2632.043
940.9520, 2687.297
942.0710, 2756.582
943.1890, 2848.228
944.3080, 2954.998
945.4260, 3120.959
946.5440, 3280.102
947.6620, 3266.430
948.7800, 3362.949
949.8980, 3395.654
951.0160, 3479.546
952.1330, 3943.615
953.2500, 4186.867
954.3680, 4376.302
955.4850, 4696.919
956.6010, 4805.713
957.7180, 5036.691
958.8350, 5182.848
959.9510, 5474.184
961.0670, 5830.691
962.1830, 5804.377
963.2990, 6321.236
964.4150, 6520.271
965.5310, 6937.482
966.6460, 7185.874
967.7620, 7613.441
968.8770, 8042.184
969.9920, 8346.099
971.1070, 8680.185
972.2210, 9189.441
973.3360, 9520.871
974.4500, 9947.472
975.5650, 10564.25
976.6790, 11244.20
977.7930, 11824.31
978.9070, 12329.60
980.0200, 13115.06
981.1340, 13656.69
982.2470, 14371.48
983.3610, 15195.45
984.4740, 16341.59
985.5870, 16982.89
986.6990, 18400.37
987.8120, 19405.01
988.9250, 20375.80
990.0370, 21638.77
991.1490, 23111.90
992.2610, 24476.20
993.3730, 26211.65
994.4850, 28131.27
995.5960, 29656.47
996.7080, 31463.01
997.8190, 33168.11
998.9300, 34535.38
1000.041, 36543.82
1001.152, 38224.43
1002.263, 39624.21
1003.373, 40819.01
1004.484, 41632.42
1005.594, 42258.85
1006.704, 42154.50
1007.814, 41930.41
1008.924, 41231.55
1010.034, 39858.93
1011.143, 38801.55
1012.253, 36687.41
1013.362, 34679.52
1014.471, 31923.09
1015.580, 29618.96
1016.689, 27428.82
1017.797, 25442.38
1018.906, 23103.10
1020.014, 21136.35
1021.122, 19720.10
1022.230, 18052.77
1023.338, 17172.59
1024.446, 15718.45
1025.554, 14670.08
1026.661, 14083.76
1027.768, 13489.18
1028.875, 12666.30
1029.983, 12335.60
1031.089, 12052.41
1032.196, 11727.75
1033.303, 11360.11
1034.409, 10828.15
1035.515, 10498.85
1036.622, 10096.66
1037.728, 9666.459
1038.833, 9472.238
1039.939, 9277.497
1041.045, 8963.915
1042.150, 8730.564
1043.255, 8489.247
1044.360, 8213.949
1045.465, 7958.859
1046.570, 7622.222
1047.675, 7314.291
1048.779, 7040.789
1049.884, 6752.428
1050.988, 6468.471
1052.092, 6190.758
1053.196, 5927.137
1054.300, 5712.221
1055.404, 5649.038
1056.507, 5396.424
1057.610, 5231.797
1058.714, 4956.734
1059.817, 4733.048
1060.920, 4618.938
1062.022, 4430.335
1063.125, 4170.463
1064.228, 3910.188
1065.330, 3943.612
1066.432, 3885.299
1067.534, 3685.505
1068.636, 3480.104
1069.738, 3512.579
1070.840, 3453.857
1071.941, 3400.919
1073.042, 3153.895
1074.144, 3054.223
1075.245, 2947.574
1076.346, 3007.475
1077.446, 2967.007
1078.547, 2904.080
1079.647, 2778.462
1080.748, 2718.785
1081.848, 3009.717
1082.948, 3199.664
1084.048, 3567.689
1085.148, 3675.722
1086.247, 3487.235
1087.347, 2899.998
1088.446, 2519.405
1089.545, 2573.769
1090.644, 2350.437
1091.743, 2592.779
1092.842, 2327.341
1093.940, 2152.787
1095.039, 2083.361
1096.137, 2089.396
1097.235, 2129.203
1098.333, 2105.584
1099.431, 1958.798
1100.529, 1979.959
1101.627, 1999.660
1102.724, 2051.734
1103.822, 2037.632
1104.919, 2038.193
1106.016, 1963.496
1107.113, 2002.792
1108.209, 1916.240
1109.306, 1901.098
1110.402, 1934.425
1111.499, 1919.417
1112.595, 1984.552
1113.691, 2077.587
1114.787, 2254.057
1115.883, 2447.275
1116.978, 2464.094
1118.074, 2905.457
1119.169, 3212.875
1120.264, 3157.408
1121.359, 3286.000
1122.454, 3056.622
1123.549, 2937.532
1124.644, 2687.279
1125.738, 2495.139
1126.832, 1846.795
1127.927, 1591.542
1129.021, 1367.374
1130.115, 1051.918
1131.208, 906.8027
1132.302, 734.4541
1133.396, 693.6777
1134.489, 556.9922
1135.582, 446.1797
1136.675, 364.2695
1137.768, 278.8604
1138.861, 200.7324
1139.954, 186.9238
1141.046, 103.1885
1142.138, 129.9951
1143.231, 43.16992
1144.323, 27.57715
1145.415, 83.94238
1146.507, 186.1797
1147.598, 225.1709
1148.690, 123.4883
1149.781, 217.4932
1150.872, 199.4121
1151.964, 115.5273
1153.054, 158.9756
1154.145, 158.5537
1155.236, 218.3027
1156.327, 237.1084
1157.417, 245.2500
1158.507, 248.6035
1159.597, 251.1729
1160.687, 229.9668
1161.777, 261.9766
1162.867, 286.2256
1163.956, 242.7275
1165.046, 204.4648
1166.135, 78.42090
1167.224, 257.5332
1168.313, 84.89941
1169.402, 148.4336
1170.491, 197.1709
1171.580, 209.1406
1172.668, 222.3545
1173.756, 309.8203
1174.845, 117.5898
1175.933, 96.56348
1177.020, 129.7334
1178.108, 151.1211
1179.196, 83.74219
1180.283, 62.43848
1181.371, 9.491211
1182.458, 68.61133
1183.545, 48.75879
1184.632, 134.4131
1185.719, 93.15039
1186.805, 113.1104
1187.892, 28.30566
1188.978, 52.30664
1190.065, 50.76367
1191.151, 88.64160
1192.237, 9.782227
1193.323, 96.17871
1194.408, 9.991211
1195.494, 19.61719
1196.579, 129.0566
1197.664, 0.6464840
1198.750, 30.44922
1199.835, 126.3584
1200.919, 111.1162
1202.004, 151.7168
1203.089, 131.1699
1204.173, 156.4688
1205.258, 239.6182
1206.342, 221.6348
1207.426, 246.5156
1208.510, 279.2646
1209.594, 268.8828
1210.677, 194.3691
1211.761, 311.7051
1212.844, 262.9121
1213.927, 432.9824
1215.010, 328.9316
1216.093, 306.7520
1217.176, 366.4385
1218.259, 411.9951
1219.341, 336.4297
1220.424, 397.7285
1221.506, 444.9014
1222.588, 632.9482
1223.670, 447.8789
1224.752, 668.6826
1225.834, 546.3691
1226.915, 425.9316
1227.997, 385.3652
1229.078, 526.6631
1230.159, 545.8359
1231.240, 661.8848
1232.321, 578.8115
1233.402, 626.6152
1234.483, 599.2949
1235.563, 651.8486
1236.644, 545.2822
1237.724, 523.5898
1238.804, 656.7695
1239.884, 547.8242
1240.964, 630.7500
1242.044, 598.5508
1243.123, 624.2236
1244.203, 541.7773
1245.282, 582.2100
1246.361, 678.5254
1247.440, 561.7227
1248.519, 778.7939
1249.598, 745.7422
1250.676, 730.5684
1251.755, 721.2686
1252.833, 650.8428
1253.911, 687.2891
1254.989, 657.6084
1256.067, 702.8115
1257.145, 677.8887
1258.223, 653.3252
1259.300, 717.6729
1260.378, 631.3740
1261.455, 681.9453
1262.532, 778.3887
1263.609, 750.7080
1264.686, 773.9014
1265.763, 790.9688
1266.840, 660.9121
1267.916, 831.7256
1268.992, 739.4160
1270.069, 715.9805
1271.145, 815.4170
1272.221, 748.7285
1273.296, 868.9131
1274.372, 892.9766
1275.448, 774.6953
1276.523, 841.4268
1277.598, 790.1230
1278.673, 910.2471
1279.749, 781.3477
1280.823, 783.0498
1281.898, 834.3418
1282.973, 821.5312
1284.047, 888.2305
1285.122, 778.6660
1286.196, 845.4131
1287.270, 867.1484
1288.344, 851.1807
1289.418, 880.5625
1290.491, 937.7949
1291.565, 817.5469
1292.638, 844.3076
1293.712, 881.3389
1294.785, 952.3213
1295.858, 932.6855
1296.931, 747.5342
1298.003, 855.6992
1299.076, 881.4492
1300.149, 764.7178
1301.221, 856.8184
1302.293, 834.6797
1303.365, 694.6494
1304.437, 651.2920
1305.509, 645.8652
1306.581, 628.5654
1307.652, 616.3652
1308.724, 694.6152
1309.795, 705.1074
1310.866, 762.4834
1311.937, 644.6025
1313.008, 780.6143
1314.079, 648.8975
1315.150, 652.4287
1316.220, 635.3711
1317.291, 650.3047
1318.361, 691.6533
1319.431, 656.6084
1320.501, 730.9609
1321.571, 731.7822
1322.641, 596.8525
1323.710, 743.3008
1324.780, 612.0225
1325.849, 759.4570
1326.918, 556.3457
1327.987, 722.8135
1329.056, 627.3770
1330.125, 576.1055
1331.194, 731.0225
1332.263, 585.9922
1333.331, 699.5791
1334.399, 715.1084
1335.467, 660.0537
1336.535, 631.3330
1337.603, 713.0361
1338.671, 766.3906
1339.739, 623.7695
