##NAMES=Dioptase
##RRUFFID=R040028
##IDEAL CHEMISTRY=Cu^2+^SiO_3_&#183;H_2_O
##LOCALITY=Tantara mine, Democratic Republic of the Congo
##OWNER=RRUFF
##SOURCE=University of Arizona Mineral Museum
##DESCRIPTION=Bluish green coarsely crystallized fragment
##STATUS=The identification of this mineral has been confirmed by X-ray diffraction and chemical analysis
##URL=rruff.info/R040028
##MEASURED CHEMISTRY=Cu_1.00_Si_1.00_O_3_Â·H_2_O; H_2_O estimated by difference
##PIN_ID=M00034
##ORIENTATION=Laser parallel to -c* (0 0 -1). Fiducial mark perpendicular to laser is parallel to -a [-1 0 0]
80.114, 0.000
81.513, 180.600
82.911, 16.555
84.310, 50.582
85.708, 143.060
87.106, 93.648
88.503, 405.458
89.901, 431.898
91.298, 1048.556
92.695, 1519.749
94.092, 2292.688
95.488, 3275.984
96.884, 5120.717
98.281, 8089.572
99.676, 8480.581
101.072, 7163.289
102.467, 4049.518
103.863, 2210.661
105.258, 1497.515
106.652, 1470.704
108.047, 2160.736
109.441, 1978.205
110.835, 2724.212
112.229, 2989.098
113.623, 3829.433
115.016, 4806.088
116.409, 5260.957
117.802, 5538.275
119.195, 4697.254
120.587, 4516.602
121.980, 3956.269
123.372, 4487.772
124.764, 4721.641
126.155, 5495.533
127.546, 7609.193
128.938, 10832.631
130.329, 18965.865
131.719, 24608.883
133.110, 25601.703
134.500, 28704.451
135.890, 28181.941
137.280, 26619.848
138.669, 23027.445
140.059, 16220.760
141.448, 8505.727
142.837, 3989.618
144.225, 1962.597
145.614, 605.471
147.002, 38.185
148.390, 389.882
149.778, 408.928
151.166, 508.897
152.553, 119.744
153.940, 188.577
155.327, 946.104
156.714, 2442.872
158.100, 4238.914
159.486, 7614.266
160.872, 9418.952
162.258, 9913.004
163.644, 7980.435
165.029, 5349.271
166.414, 3608.727
167.799, 2023.682
169.184, 1531.700
170.568, 1052.621
171.952, 1193.494
173.336, 1614.309
174.720, 3495.050
176.104, 4875.707
177.487, 6646.274
178.870, 8966.744
180.253, 8697.115
181.636, 7707.345
183.018, 6447.398
184.400, 4557.284
185.782, 3807.008
187.164, 2596.572
188.546, 2245.981
189.927, 1485.239
191.308, 1414.378
192.689, 1516.504
194.070, 1772.713
195.450, 2837.201
196.830, 3184.366
198.210, 3443.295
199.590, 2815.737
200.970, 2208.357
202.349, 2405.729
203.728, 2135.106
205.107, 2484.470
206.486, 2305.958
207.864, 2977.430
209.243, 3340.904
210.621, 3774.703
211.998, 4804.562
213.376, 5678.242
214.753, 7460.447
216.130, 8818.465
217.507, 11686.443
218.884, 15084.377
220.261, 19092.258
221.637, 25160.082
223.013, 28537.818
224.389, 34135.445
225.764, 34032.977
227.140, 32800.406
228.515, 29117.727
229.890, 22814.941
231.264, 18952.047
232.639, 13479.054
234.013, 10815.950
235.387, 7702.740
236.761, 5869.428
238.135, 4566.014
239.508, 3332.496
240.881, 3138.879
242.254, 2495.160
243.627, 2271.344
244.999, 1677.428
246.372, 1048.010
247.744, 567.869
249.116, 276.993
250.487, 137.524
251.859, 68.162
253.230, 118.804
254.601, 139.397
255.972, 359.877
257.342, 1130.208
258.712, 1600.391
260.083, 3390.420
261.452, 5580.290
262.822, 9669.993
264.192, 14339.380
265.561, 17298.439
266.930, 19057.201
268.299, 15155.703
269.667, 11653.960
271.036, 8291.997
272.404, 6239.822
273.772, 5137.467
275.139, 4144.933
276.507, 4172.241
277.874, 3749.422
279.241, 4016.285
280.608, 4181.680
281.974, 4305.863
283.341, 5089.960
284.707, 4974.039
286.073, 6228.078
287.439, 6872.072
288.804, 8116.004
290.170, 9649.877
291.535, 10333.698
292.899, 11177.447
294.264, 9871.130
295.629, 8804.750
296.993, 6508.309
298.357, 4351.806
299.720, 3025.206
301.084, 1668.533
302.447, 1141.759
303.811, 466.854
305.173, 220.773
306.536, 69.511
307.899, 368.048
309.261, 239.912
310.623, 491.010
311.985, 403.081
313.346, 631.448
314.708, 478.964
316.069, 473.413
317.430, 430.563
318.790, 179.118
320.151, 66.719
321.511, 656.433
322.871, 1196.690
324.231, 1875.767
325.591, 2594.723
326.950, 2523.564
328.310, 2412.273
329.669, 1700.760
331.027, 1188.930
332.386, 819.797
333.744, 409.472
335.102, 368.674
336.460, 50.604
337.818, 178.418
339.175, 125.200
340.533, 128.652
341.890, 361.841
343.247, 188.622
344.603, 786.151
345.960, 885.934
347.316, 1457.229
348.672, 2183.418
350.028, 3309.504
351.383, 5435.488
352.738, 8291.367
354.094, 14347.146
355.448, 21142.820
356.803, 27918.338
358.158, 30963.551
359.512, 24858.203
360.866, 19702.203
362.220, 13395.502
363.573, 9558.207
364.927, 6990.619
366.280, 5262.936
367.633, 4355.188
368.986, 3387.381
370.338, 3149.502
371.690, 2641.509
373.043, 2493.348
374.394, 2495.019
375.746, 2226.538
377.098, 2317.933
378.449, 2379.252
379.800, 2530.514
381.151, 2851.717
382.501, 2902.861
383.852, 3553.948
385.202, 3614.978
386.552, 4545.994
387.901, 5226.909
389.251, 6197.766
390.600, 8158.564
391.949, 9649.308
393.298, 13159.994
394.647, 16210.624
395.995, 21291.199
397.344, 26691.717
398.692, 28512.178
400.039, 31182.590
401.387, 27882.943
402.734, 24223.240
404.082, 19363.488
405.429, 14413.678
406.775, 11793.813
408.122, 8523.899
409.468, 7291.908
410.814, 5956.906
412.160, 5338.404
413.506, 5046.967
414.851, 4693.178
416.197, 5100.924
417.542, 4949.062
418.886, 5460.986
420.231, 5608.278
421.575, 5597.250
422.920, 6056.109
424.264, 5744.857
425.607, 6313.736
426.951, 6222.339
428.294, 6301.846
429.637, 6691.246
430.980, 6231.011
432.323, 6991.268
433.666, 6610.960
435.008, 6953.386
436.350, 7174.556
437.692, 6608.910
439.033, 6899.885
440.375, 6133.738
441.716, 6254.660
443.057, 5896.599
444.398, 5399.268
445.738, 5480.372
447.079, 5055.838
448.419, 5131.193
449.759, 4813.933
451.099, 5230.333
452.438, 5249.209
453.777, 4861.657
455.116, 5266.332
456.455, 4630.988
457.794, 4296.692
459.132, 3841.377
460.471, 3118.955
461.809, 2960.925
463.147, 2407.799
464.484, 2282.610
465.822, 2047.061
467.159, 1725.392
468.496, 1832.971
469.832, 1408.107
471.169, 1366.186
472.505, 1215.411
473.842, 1023.122
475.177, 1147.340
476.513, 869.023
477.849, 1030.161
479.184, 761.289
480.519, 867.159
481.854, 843.312
483.189, 674.216
484.523, 1081.652
485.857, 923.637
487.191, 1123.551
488.525, 1138.393
489.859, 1047.164
491.192, 1202.867
492.525, 895.857
493.858, 894.237
495.191, 721.492
496.524, 747.190
497.856, 726.233
499.188, 690.521
500.520, 724.009
501.852, 741.887
503.183, 800.226
504.514, 911.123
505.846, 723.796
507.176, 1067.827
508.507, 1048.195
509.838, 1172.980
511.168, 1375.707
512.498, 1365.375
513.828, 1663.012
515.157, 1473.599
516.487, 1760.133
517.816, 1843.621
519.145, 1747.055
520.474, 2050.458
521.802, 1697.812
523.131, 1857.123
524.459, 1732.391
525.787, 1609.614
527.114, 1655.809
528.442, 1385.975
529.769, 1502.098
531.096, 1311.191
532.423, 1301.241
533.750, 1315.254
535.076, 1006.226
536.403, 1138.156
537.729, 906.049
539.055, 843.907
540.380, 852.749
541.706, 698.552
543.031, 818.315
544.356, 664.040
545.681, 645.726
547.005, 758.389
548.330, 675.026
549.654, 859.625
550.978, 812.187
552.302, 1070.724
553.625, 1313.223
554.949, 1399.695
556.272, 1888.130
557.595, 2200.557
558.917, 2822.945
560.240, 3255.308
561.562, 3697.646
562.884, 4189.955
564.206, 3932.235
565.528, 4004.487
566.849, 3556.709
568.171, 3298.901
569.492, 3021.069
570.813, 2883.222
572.133, 2805.382
573.454, 2487.557
574.774, 2429.761
576.094, 2211.984
577.414, 1618.222
578.733, 1482.462
580.053, 1059.676
581.372, 915.860
582.691, 758.012
584.010, 457.134
585.328, 492.223
586.647, 245.281
587.965, 240.301
589.283, 123.282
590.601, 4.222
591.918, 81.111
593.235, 52.041
594.553, 31.268
595.869, 86.556
597.186, 193.935
598.503, 82.459
599.819, 197.071
601.135, 55.829
602.451, 228.659
603.767, 205.652
605.082, 117.794
606.397, 118.037
607.713, 78.384
609.027, 138.811
610.342, 180.348
611.657, 80.019
612.971, 117.768
614.285, 119.615
615.599, 138.561
616.912, 124.614
618.226, 18.234
619.539, 85.952
620.852, 123.785
622.165, 59.494
623.477, 234.184
624.790, 330.879
626.102, 207.601
627.414, 401.401
628.726, 454.360
630.037, 554.449
631.349, 653.731
632.660, 416.688
633.971, 822.371
635.281, 751.494
636.592, 893.539
637.902, 1204.893
639.212, 1081.889
640.522, 1435.869
641.832, 1631.167
643.142, 1873.507
644.451, 2319.835
645.760, 2461.146
647.069, 3352.445
648.378, 3733.729
649.686, 4605.001
650.994, 5916.266
652.303, 6777.532
653.610, 9708.154
654.918, 11768.929
656.226, 15719.708
657.533, 20130.398
658.840, 22661.305
660.147, 23747.279
661.453, 24433.707
662.760, 22335.188
664.066, 19596.301
665.372, 15097.788
666.678, 12899.270
667.984, 10000.741
669.289, 8022.206
670.594, 6889.767
671.899, 5332.438
673.204, 4964.804
674.509, 3958.875
675.813, 3430.295
677.117, 3086.656
678.421, 2468.127
679.725, 2380.714
681.029, 1918.104
682.332, 1663.485
683.635, 1547.709
684.938, 1305.624
686.241, 1340.984
687.544, 1228.864
688.846, 1131.210
690.148, 913.247
691.450, 881.579
692.752, 857.905
694.054, 625.226
695.355, 749.132
696.656, 708.320
697.957, 418.624
699.258, 776.919
700.559, 507.209
701.859, 598.495
703.159, 594.155
704.459, 479.289
705.759, 650.558
707.058, 516.822
708.358, 645.964
709.657, 654.218
710.956, 659.857
712.254, 750.103
713.553, 677.536
714.851, 871.772
716.149, 747.277
717.447, 936.965
718.745, 1046.504
720.043, 1238.870
721.340, 1229.500
722.637, 1441.329
723.934, 1506.186
725.231, 1844.510
726.527, 1946.710
727.823, 2385.012
729.120, 2756.205
730.415, 3088.416
731.711, 3919.604
733.007, 4530.787
734.302, 5272.313
735.597, 6393.489
736.892, 7214.662
738.187, 9035.831
739.481, 9536.994
740.775, 10437.917
742.070, 11369.006
743.363, 10419.073
744.657, 10719.138
745.951, 9348.736
747.244, 8077.730
748.537, 7347.185
749.830, 5773.799
751.123, 5401.563
752.415, 4326.042
753.707, 3473.797
754.999, 3298.569
756.291, 2546.172
757.583, 2402.666
758.874, 1968.340
760.166, 1636.491
761.457, 1618.192
762.748, 1192.917
764.038, 1203.172
765.329, 1077.678
766.619, 830.622
767.909, 915.913
769.199, 669.886
770.489, 611.797
771.778, 533.575
773.067, 462.286
774.357, 449.280
775.645, 361.286
776.934, 414.540
778.223, 354.563
779.511, 312.355
780.799, 349.590
782.087, 324.347
783.374, 337.715
784.662, 302.098
785.949, 142.493
787.236, 366.900
788.523, 93.322
789.810, 307.754
791.096, 314.200
792.383, 230.655
793.669, 306.123
794.955, 234.600
796.240, 326.087
797.526, 277.587
798.811, 103.096
800.096, 357.614
801.381, 188.141
802.666, 322.676
803.950, 263.220
805.234, 150.774
806.518, 313.337
807.802, 186.910
809.086, 205.496
810.370, 267.093
811.653, 39.702
812.936, 243.323
814.219, 69.957
815.502, 151.601
816.784, 243.256
818.066, 60.920
819.348, 114.600
820.630, 41.290
821.912, 47.990
823.194, 86.701
824.475, 117.579
825.756, 16.903
827.037, 10.229
828.318, 47.556
829.598, 53.104
830.878, 94.226
832.158, 12.410
833.438, 15.944
834.718, 46.700
835.998, 113.355
837.277, 51.978
838.556, 66.326
839.835, 64.305
841.114, 45.052
842.392, 52.579
843.671, 4.777
844.949, 116.871
846.227, 18.531
847.504, 29.204
848.782, 25.110
850.059, 93.428
851.337, 16.224
852.613, 25.889
853.890, 17.567
855.167, 34.258
856.443, 65.037
857.719, 53.348
858.995, 90.328
860.271, 20.018
861.547, 54.277
862.822, 20.416
864.097, 43.877
865.372, 91.824
866.647, 121.461
867.922, 33.216
869.196, 42.091
870.470, 46.404
871.744, 21.724
873.018, 40.041
874.292, 24.361
875.565, 6.244
876.838, 29.987
878.111, 5.706
879.384, 38.412
880.657, 18.864
881.929, 105.865
883.201, 17.387
884.473, 98.367
885.745, 55.139
887.017, 2.072
888.288, 207.730
889.559, 82.551
890.831, 111.390
892.101, 129.247
893.372, 149.122
894.643, 264.018
895.913, 213.932
897.183, 200.870
898.453, 329.832
899.722, 264.820
900.992, 471.839
902.261, 440.883
903.530, 566.970
904.799, 735.094
906.068, 692.270
907.336, 981.526
908.605, 1065.833
909.873, 1095.220
911.141, 1500.651
912.408, 1517.170
913.676, 1822.774
914.943, 1967.437
916.211, 1825.160
917.477, 1952.931
918.744, 1702.768
920.011, 1513.682
921.277, 1387.644
922.543, 957.667
923.809, 1180.748
925.075, 877.894
926.341, 809.101
927.606, 887.335
928.871, 767.620
930.136, 799.931
931.401, 773.268
932.666, 757.629
933.930, 881.012
935.194, 706.419
936.458, 739.848
937.722, 823.297
938.986, 653.769
940.249, 834.262
941.512, 709.777
942.776, 657.313
944.038, 873.879
945.301, 735.468
946.564, 889.078
947.826, 880.709
949.088, 950.363
950.350, 1155.040
951.611, 1100.737
952.873, 1347.457
954.134, 1436.199
955.395, 1361.962
956.656, 1817.750
957.917, 1707.560
959.178, 1827.392
960.438, 1861.249
961.698, 1666.129
962.958, 1740.034
964.218, 1446.958
965.477, 1307.906
966.737, 1390.043
967.996, 1099.035
969.255, 1228.050
970.514, 1251.889
971.772, 1192.226
973.031, 1290.417
974.289, 1103.595
975.547, 1214.733
976.805, 1298.786
978.062, 1175.746
979.320, 1361.025
980.577, 1282.627
981.834, 1373.908
983.091, 1583.263
984.348, 1565.531
985.604, 1694.708
986.861, 1727.101
988.117, 1862.525
989.373, 2160.124
990.628, 2093.049
991.884, 2555.546
993.139, 2787.542
994.394, 2892.098
995.649, 3635.986
996.904, 3870.597
998.158, 4515.240
999.413, 5509.909
1000.667, 6303.012
1001.921, 8192.879
1003.175, 9717.647
1004.428, 11212.445
1005.682, 13437.280
1006.935, 13002.137
1008.188, 13153.610
1009.441, 12515.677
1010.693, 10980.628
1011.946, 11245.640
1013.198, 10747.795
1014.450, 10652.891
1015.702, 11545.619
1016.954, 10540.780
1018.205, 11389.788
1019.457, 11085.035
1020.708, 10308.036
1021.959, 10910.897
1023.209, 9554.935
1024.460, 9698.170
1025.710, 9422.162
1026.960, 8206.980
1028.210, 8740.792
1029.460, 7546.158
1030.710, 7071.671
1031.959, 6736.110
1033.208, 5421.680
1034.457, 5146.257
1035.706, 4451.879
1036.955, 3687.529
1038.203, 3652.855
1039.451, 2968.557
1040.699, 2824.285
1041.947, 2620.039
1043.195, 2041.819
1044.442, 2171.625
1045.690, 1831.461
1046.937, 1707.322
1048.184, 1685.213
1049.430, 1298.152
1050.677, 1357.094
1051.923, 1345.063
1053.169, 1079.058
1054.415, 1101.077
1055.661, 993.122
1056.907, 970.192
1058.152, 854.286
1059.397, 719.407
1060.642, 890.551
1061.887, 803.724
1063.132, 717.923
1064.376, 819.146
1065.620, 577.394
1066.864, 661.664
1068.108, 611.956
1069.352, 496.272
1070.595, 635.609
1071.839, 473.969
1073.082, 460.350
1074.325, 561.751
1075.567, 344.173
1076.810, 499.617
1078.052, 344.080
1079.294, 296.568
1080.536, 311.077
1081.778, 236.607
1083.020, 270.177
1084.261, 256.771
1085.502, 169.391
1086.743, 271.033
1087.984, 268.694
1089.225, 61.381
1090.465, 172.088
1091.706, 72.813
1092.946, 203.379
1094.186, 84.144
1095.425, 103.929
1096.665, 79.732
1097.904, 134.554
1099.143, 26.397
1100.382, 122.259
1101.621, 9.139
1102.859, 68.049
1104.098, 145.965
1105.336, 36.040
1106.574, 100.996
1107.812, 12.994
1109.049, 81.578
1110.287, 72.585
1111.524, 2.611
1112.761, 62.653
1113.998, 60.712
1115.235, 16.211
1116.471, 78.889
1117.707, 3.006
1118.944, 44.691
1120.180, 22.559
1121.415, 11.413
1122.651, 7.110
1123.886, 29.006
1125.121, 16.194
1126.356, 69.424
1127.591, 52.675
1128.826, 63.783
1130.060, 105.287
1131.294, 30.597
1132.528, 190.344
1133.762, 201.085
1134.996, 136.466
1136.229, 123.437
1137.463, 131.907
1138.696, 213.338
1139.929, 250.056
1141.162, 143.528
1142.394, 210.845
1143.626, 136.387
1144.859, 127.138
1146.091, 254.409
1147.322, 149.175
1148.554, 103.991
1149.785, 221.744
1151.017, 162.350
1152.248, 377.966
1153.479, 258.940
1154.709, 184.667
1155.940, 376.960
1157.170, 169.875
1158.400, 314.566
1159.630, 246.008
1160.860, 181.947
1162.089, 336.353
1163.319, 266.088
1164.548, 217.200
1165.777, 392.979
1167.006, 260.651
1168.234, 292.055
1169.463, 416.083
1170.691, 290.421
1171.919, 308.646
1173.147, 270.506
1174.375, 274.634
1175.602, 246.513
1176.830, 203.404
1178.057, 338.301
1179.284, 234.033
1180.511, 199.942
1181.737, 325.854
1182.963, 204.775
1184.190, 168.699
1185.416, 244.625
1186.642, 111.557
1187.867, 235.489
1189.093, 176.424
1190.318, 197.362
1191.543, 194.302
1192.768, 101.062
1193.993, 181.004
1195.217, 134.588
1196.442, 0.325
1197.666, 199.619
1198.890, 88.908
1200.114, 22.852
1201.337, 111.797
1202.561, 119.741
1203.784, 115.685
1205.007, 105.628
1206.230, 65.183
1207.452, 125.123
1208.675, 112.945
1209.897, 73.882
1211.119, 123.819
1212.341, 109.354
1213.563, 160.288
1214.785, 184.298
1216.006, 165.450
1217.227, 250.507
1218.448, 167.696
1219.669, 78.615
1220.890, 146.531
1222.110, 124.765
1223.330, 181.713
1224.551, 169.619
1225.771, 18.681
1226.990, 149.021
1228.210, 121.212
1229.429, 23.989
1230.648, 125.970
1231.867, 95.347
1233.086, 187.093
1234.305, 198.072
1235.523, 140.453
1236.741, 75.433
1237.960, 96.373
1239.177, 27.950
1240.395, 158.923
1241.613, 79.012
1242.830, 23.985
1244.047, 178.862
1245.264, 39.742
1246.481, 45.715
1247.697, 44.590
1248.914, 17.705
1250.130, 32.009
1251.346, 9.443
1252.562, 33.541
1253.778, 19.403
1254.993, 0.243
1256.209, 65.174
1257.424, 77.979
1258.639, 66.441
1259.853, 82.803
1261.068, 46.581
1262.282, 28.731
1263.497, 29.486
1264.711, 16.201
1265.924, 57.218
1267.138, 101.636
1268.352, 20.804
1269.565, 80.812
1270.778, 42.372
1271.991, 42.964
1273.204, 156.445
1274.416, 30.116
1275.629, 35.490
1276.841, 128.900
1278.053, 5.718
1279.265, 20.769
1280.476, 71.574
1281.688, 7.036
1282.899, 35.283
1284.110, 56.592
1285.321, 22.893
1286.532, 48.177
1287.743, 8.555
1288.953, 4.693
1290.163, 27.925
1291.373, 5.853
1292.583, 30.377
1293.793, 29.557
1295.002, 75.284
1296.211, 93.833
1297.421, 82.936
1298.629, 12.977
1299.838, 44.089
1301.047, 32.861
1302.255, 37.150
1303.463, 79.142
1304.671, 96.931
1305.879, 7.929
1307.087, 79.247
1308.294, 63.532
1309.502, 25.712
1310.709, 19.991
1311.916, 49.311
1313.122, 28.330
1314.329, 54.055
1315.535, 33.507
1316.741, 40.045
1317.948, 98.561
1319.153, 48.052
1320.359, 72.516
1321.564, 92.958
1322.770, 79.376
1323.975, 24.774
1325.180, 111.147
1326.385, 78.502
1327.589, 86.835
1328.794, 136.142
1329.998, 124.428
1331.202, 91.694
1332.406, 192.939
1333.609, 87.165
1334.813, 129.368
1336.016, 101.905
1337.219, 30.065
1338.422, 129.199
1339.625, 38.310
1340.827, 68.395
1342.030, 197.436
1343.232, 55.479
1344.434, 123.500
1345.636, 168.500
1346.838, 130.480
1348.039, 108.440
1349.240, 122.407
1350.442, 43.329
1351.643, 201.229
1352.843, 32.110
1354.044, 27.970
1355.244, 193.807
1356.445, 45.625
1357.645, 156.414
1358.845, 85.183
1360.044, 60.936
1361.244, 144.670
1362.443, 68.484
1363.642, 188.184
1364.841, 233.869
1366.040, 65.585
1367.239, 100.241
1368.437, 154.885
1369.635, 25.518
1370.833, 59.129
1372.031, 69.726
1373.229, 40.612
1374.427, 28.646
1375.624, 16.965
1376.821, 38.006
1378.018, 93.296
1379.215, 18.555
1380.412, 93.927
1381.608, 106.109
1382.804, 45.310
1384.000, 175.464
1385.196, 86.586
1386.392, 104.550
1387.588, 139.605
1388.783, 40.020
1389.978, 109.054
1391.173, 207.068
1392.368, 92.039
1393.563, 142.811
1394.757, 152.385
1395.952, 34.305
1397.146, 176.206
1398.340, 132.971
1399.534, 108.100
1400.727, 194.998
1401.921, 100.715
1403.114, 110.067
1404.307, 158.458
1405.500, 62.483
1406.692, 185.574
1407.885, 149.868
1409.077, 103.283
1410.270, 155.492
1411.462, 160.690
1412.653, 98.615
1413.845, 148.062
1415.036, 89.458
1416.228, 135.455
1417.419, 156.081
1418.610, 46.463
1419.801, 169.686
1420.991, 138.247
1422.182, 17.558
1423.372, 150.049
1424.562, 75.512
1425.752, 136.948
1426.941, 195.358
1428.131, 125.738
1429.320, 101.794
1430.509, 162.846
1431.698, 100.550
1432.887, 182.779
1434.076, 121.981
1435.264, 81.117
1436.452, 182.732
1437.641, 89.071
1438.828, 111.034
1440.016, 178.233
1441.204, 145.688
1442.391, 185.591
1443.578, 186.788
1444.765, 124.399
1445.952, 198.727
1447.139, 160.615
1448.325, 113.333
1449.512, 210.364
1450.698, 79.182
1451.884, 123.533
1453.070, 166.751
1454.255, 92.304
1455.441, 167.679
1456.626, 242.586
1457.811, 118.071
1458.996, 228.264
1460.181, 132.195
1461.365, 121.723
1462.549, 179.368
1463.734, 146.376
1464.918, 169.078
1466.102, 183.982
1467.285, 96.188
1468.469, 99.841
1469.652, 207.918
1470.835, 47.781
1472.018, 207.073
1473.201, 224.416
1474.383, 123.660
1475.566, 173.845
1476.748, 149.914
1477.930, 7.205
1479.112, 227.745
1480.294, 51.610
1481.475, 87.357
1482.657, 169.070
1483.838, 42.159
1485.019, 133.365
1486.200, 98.585
1487.381, 86.861
1488.561, 173.197
1489.741, 137.601
1490.922, 17.083
1492.101, 129.638
1493.281, 66.242
