##NAMES=Diopside
##RRUFFID=R050406
##IDEAL CHEMISTRY=CaMgSi_2_O_6_
##LOCALITY=unknown
##OWNER=RRUFF
##SOURCE=University of Arizona Mineral Museum
##DESCRIPTION=Brownish gray massive
##STATUS=The identification of this mineral has been confirmed by X-ray diffraction and chemical analysis
##URL=rruff.info/R050406
##MEASURED CHEMISTRY=(Ca_0.95_Na_0.05_)(Mg_0.75_Fe^2+^_0.18_Fe^3+^_0.05_Al_0.01_Ti_0.01_Mn^2+^_0.01_)(Si_0.98_Al_0.02_)_2_O_6_
##PIN_ID=M00407
##ORIENTATION=Laser parallel to a* (1 0 0). Fiducial mark perpendicular to laser is parallel to b [0 1 0]
116.9030, 0.0000000E+00
118.1340, 187.3208
119.3650, 305.5415
120.5960, 141.7886
121.8270, 6.342285
123.0580, 189.4429
124.2880, 64.16211
125.5190, 72.18896
126.7490, 73.67920
127.9790, 279.4707
129.2090, 393.3291
130.4390, 663.1929
131.6680, 892.9956
132.8980, 1163.669
134.1270, 1609.151
135.3560, 1955.384
136.5850, 2227.006
137.8140, 2227.304
139.0430, 2137.888
140.2710, 1871.093
141.5000, 1360.873
142.7280, 1047.186
143.9560, 670.9946
145.1840, 457.2671
146.4120, 423.9741
147.6390, 164.0913
148.8670, 54.59668
150.0940, 172.4683
151.3210, 52.68848
152.5490, 27.24170
153.7750, 8.111328
155.0020, 56.72510
156.2290, 1.768555
157.4550, 30.41846
158.6810, 18.61670
159.9080, 110.8599
161.1340, 204.3022
162.3590, 343.9380
163.5850, 483.7686
164.8110, 297.7920
166.0360, 353.0049
167.2610, 181.3999
168.4860, 350.9697
169.7110, 380.7100
170.9360, 398.6152
172.1610, 403.6807
173.3850, 581.9033
174.6100, 745.2798
175.8340, 877.8047
177.0580, 959.2598
178.2820, 952.5078
179.5050, 983.2427
180.7290, 827.3320
181.9520, 638.5562
183.1760, 525.9102
184.3990, 476.3940
185.6220, 438.0034
186.8450, 382.7363
188.0670, 400.5903
189.2900, 316.5635
190.5120, 396.6260
191.7340, 347.6479
192.9560, 381.7588
194.1780, 358.3140
195.4000, 362.8584
196.6220, 468.8301
197.8430, 426.0620
199.0640, 399.2324
200.2860, 530.4546
201.5070, 495.7285
202.7270, 598.0586
203.9480, 454.4565
205.1690, 358.9604
206.3890, 390.5562
207.6090, 428.2344
208.8290, 457.1172
210.0490, 487.1104
211.2690, 557.2329
212.4890, 737.4424
213.7080, 687.7251
214.9280, 751.0674
216.1470, 960.4697
217.3660, 922.9326
218.5850, 1165.458
219.8030, 1031.049
221.0220, 1215.706
222.2400, 1273.429
223.4590, 1374.219
224.6770, 1396.075
225.8950, 1515.998
227.1120, 1541.986
228.3300, 1650.041
229.5480, 1561.161
230.7650, 1506.345
231.9820, 1443.593
233.1990, 1084.904
234.4160, 1001.278
235.6330, 898.7148
236.8490, 880.2139
238.0660, 736.7734
239.2820, 672.3936
240.4980, 588.0752
241.7140, 617.8154
242.9300, 694.6143
244.1460, 635.4717
245.3610, 608.3867
246.5770, 581.3594
247.7920, 750.3877
249.0070, 653.4727
250.2220, 597.6133
251.4370, 735.8076
252.6510, 492.0566
253.8660, 594.3584
255.0800, 468.7129
256.2940, 629.1201
257.5080, 597.5781
258.7220, 519.8076
259.9360, 506.6475
261.1490, 361.2559
262.3630, 247.9150
263.5760, 181.7529
264.7890, 107.4912
266.0020, 41.10645
267.2150, 6.920898
268.4270, 12.92773
269.6400, 22.91992
270.8520, 32.37500
272.0640, 3.194336
273.2760, 70.64062
274.4880, 34.98145
275.7000, 1.216797
276.9120, 6.349609
278.1230, 26.61523
279.3340, 68.67578
280.5450, 201.8262
281.7560, 235.0645
282.9670, 335.3467
284.1780, 379.6963
285.3880, 490.2939
286.5980, 615.6377
287.8090, 729.2256
289.0190, 878.8838
290.2290, 1027.796
291.4380, 1115.781
292.6480, 1328.990
293.8570, 1482.919
295.0670, 1739.912
296.2760, 1955.965
297.4850, 2141.189
298.6930, 2427.126
299.9020, 2575.301
301.1110, 2955.385
302.3190, 3187.625
303.5270, 3720.337
304.7350, 4022.784
305.9430, 4612.404
307.1510, 5221.638
308.3580, 6028.438
309.5660, 6800.124
310.7730, 7951.961
311.9800, 9144.762
313.1870, 10431.64
314.3940, 12189.59
315.6010, 13969.62
316.8070, 15504.73
318.0130, 16741.94
319.2200, 17926.22
320.4260, 18365.58
321.6310, 18206.02
322.8370, 17509.51
324.0430, 16431.06
325.2480, 15057.65
326.4540, 13639.28
327.6590, 12395.97
328.8640, 10849.71
330.0680, 9849.485
331.2730, 8715.307
332.4780, 7790.178
333.6820, 7006.088
334.8860, 6426.033
336.0900, 5878.015
337.2940, 5480.031
338.4980, 5107.039
339.7010, 4799.164
340.9050, 4600.271
342.1080, 4359.408
343.3110, 4243.576
344.5140, 4380.777
345.7170, 4502.012
346.9200, 4457.277
348.1220, 4784.576
349.3240, 4758.906
350.5270, 5022.269
351.7290, 5085.660
352.9310, 5277.084
354.1320, 5253.538
355.3340, 5148.020
356.5350, 5124.529
357.7370, 5048.069
358.9380, 5017.636
360.1390, 4914.301
361.3400, 4779.852
362.5400, 4730.500
363.7410, 4794.175
364.9410, 4782.876
366.1410, 4855.602
367.3410, 4911.353
368.5410, 5099.131
369.7410, 5237.932
370.9400, 5740.759
372.1400, 5979.609
373.3390, 6578.483
374.5380, 7579.381
375.7370, 8666.302
376.9360, 9775.245
378.1350, 11332.21
379.3330, 12957.20
380.5310, 15076.21
381.7300, 17162.24
382.9280, 19161.30
384.1260, 21178.37
385.3230, 22900.47
386.5210, 23464.58
387.7180, 22618.72
388.9160, 21320.87
390.1130, 18913.05
391.3100, 16574.25
392.5060, 14199.46
393.7030, 11819.69
394.9000, 9658.947
396.0960, 7851.217
397.2920, 6581.504
398.4880, 5336.809
399.6840, 4270.131
400.8800, 3519.470
402.0750, 2815.524
403.2710, 2449.195
404.4660, 1998.582
405.6610, 1718.986
406.8560, 1641.404
408.0510, 1259.852
409.2450, 1251.326
410.4400, 1063.831
411.6340, 938.3643
412.8280, 973.9287
414.0220, 718.2666
415.2160, 757.8828
416.4100, 552.4932
417.6030, 746.8711
418.7970, 525.1045
419.9900, 488.7959
421.1830, 445.4727
422.3760, 437.2314
423.5690, 328.0107
424.7610, 263.8115
425.9540, 207.6328
427.1460, 167.4746
428.3380, 31.33594
429.5300, 115.2168
430.7220, 4.116211
431.9140, 43.03320
433.1050, 36.03125
434.2970, 5.090820
435.4880, 108.1357
436.6790, 60.79590
437.8700, 20.74414
439.0610, 10.70801
440.2510, 79.31152
441.4420, 133.3457
442.6320, 136.3545
443.8220, 16.47559
445.0120, 94.61426
446.2020, 91.72559
447.3910, 43.84766
448.5810, 30.07617
449.7700, 42.59668
450.9600, 2.006836
452.1490, 119.3652
453.3370, 0.8701170
454.5260, 186.0723
455.7150, 105.8027
456.9030, 239.6279
458.0910, 289.4561
459.2800, 265.4404
460.4670, 296.7930
461.6550, 319.7354
462.8430, 293.1650
464.0300, 332.2510
465.2180, 255.7588
466.4050, 334.6650
467.5920, 323.2734
468.7790, 246.7920
469.9650, 244.2256
471.1520, 219.4004
472.3380, 187.6084
473.5250, 167.3965
474.7110, 167.0137
475.8970, 262.5771
477.0820, 287.2666
478.2680, 162.0449
479.4540, 155.1826
480.6390, 285.3105
481.8240, 327.1562
483.0090, 348.2939
484.1940, 393.4463
485.3780, 295.6152
486.5630, 183.8057
487.7470, 267.0078
488.9320, 325.2158
490.1160, 169.4209
491.3000, 259.6221
492.4830, 424.8193
493.6670, 275.0107
494.8500, 378.1943
496.0340, 340.3730
497.2170, 378.5693
498.4000, 454.7725
499.5820, 360.9707
500.7650, 426.1621
501.9480, 564.3457
503.1300, 577.5244
504.3120, 603.6924
505.4940, 812.8525
506.6760, 834.0049
507.8580, 814.1475
509.0390, 964.2803
510.2210, 1186.403
511.4020, 1326.516
512.5830, 1303.617
513.7640, 1286.708
514.9450, 1490.787
516.1250, 1458.882
517.3060, 1611.979
518.4860, 1683.065
519.6660, 1901.154
520.8460, 1978.262
522.0260, 2218.355
523.2060, 2267.441
524.3850, 2407.514
525.5650, 2437.573
526.7440, 2512.655
527.9230, 2569.723
529.1020, 2352.793
530.2810, 2174.871
531.4590, 1946.937
532.6380, 1828.986
533.8160, 1618.033
534.9940, 1587.064
536.1720, 1498.078
537.3500, 1312.077
538.5270, 1381.057
539.7050, 1250.159
540.8820, 1279.967
542.0590, 1169.896
543.2360, 1081.809
544.4130, 1132.702
545.5900, 995.5791
546.7660, 1104.438
547.9430, 1035.275
549.1190, 1114.098
550.2950, 1111.900
551.4710, 1074.682
552.6470, 1021.441
553.8220, 1042.180
554.9980, 1168.897
556.1730, 1143.595
557.3480, 1119.273
558.5230, 905.9336
559.6980, 999.5781
560.8730, 828.2021
562.0470, 911.8271
563.2220, 978.4297
564.3960, 947.0068
565.5700, 1068.564
566.7440, 812.0977
567.9170, 763.6055
569.0910, 799.0889
570.2640, 718.5459
571.4380, 738.9766
572.6110, 601.3789
573.7840, 623.7578
574.9570, 635.9268
576.1290, 535.0664
577.3020, 524.0205
578.4740, 409.2910
579.6460, 403.5342
580.8180, 288.7510
581.9900, 305.8271
583.1620, 315.2227
584.3330, 264.4102
585.5040, 281.5146
586.6760, 212.7588
587.8470, 55.22656
589.0180, 132.2305
590.1880, 5.591797
591.3590, 55.64551
592.5290, 13.18164
593.7000, 103.1094
594.8700, 0.6191410
596.0400, 54.50391
597.2090, 38.66797
598.3790, 53.43848
599.5490, 70.24023
600.7180, 107.3916
601.8870, 83.93262
603.0560, 46.05176
604.2250, 47.91992
605.3940, 1.109375
606.5620, 15.18262
607.7300, 126.9346
608.8990, 81.71875
610.0670, 6.558594
611.2350, 36.50879
612.4020, 136.2695
613.5700, 95.57129
614.7370, 9.292969
615.9050, 148.8682
617.0720, 139.4238
618.2390, 134.3193
619.4060, 239.0117
620.5720, 274.1494
621.7390, 87.24512
622.9050, 328.6514
624.0710, 336.0996
625.2370, 335.7549
626.4030, 500.3721
627.5690, 491.0020
628.7340, 434.3398
629.9000, 599.7617
631.0650, 603.7949
632.2300, 521.0186
633.3950, 845.7871
634.5600, 838.5527
635.7240, 664.5693
636.8890, 926.7588
638.0530, 1070.287
639.2170, 1065.647
640.3810, 1290.438
641.5450, 1296.971
642.7080, 1476.899
643.8720, 1777.320
645.0350, 1901.920
646.1980, 2168.507
647.3610, 2304.098
648.5240, 2876.362
649.6870, 3279.586
650.8490, 3774.014
652.0120, 4353.159
653.1740, 5255.473
654.3360, 6309.538
655.4980, 7586.791
656.6600, 9102.217
657.8210, 11101.16
658.9830, 13133.64
660.1440, 15264.70
661.3050, 17315.52
662.4660, 19369.50
663.6270, 20697.24
664.7870, 20994.94
665.9480, 20051.66
667.1080, 18575.27
668.2680, 16416.79
669.4280, 14285.40
670.5880, 12120.28
671.7480, 10252.01
672.9070, 8613.208
674.0670, 7118.686
675.2260, 5945.006
676.3850, 5079.285
677.5440, 4467.518
678.7030, 3852.728
679.8610, 3332.225
681.0200, 2872.487
682.1780, 2567.812
683.3360, 2319.934
684.4940, 2075.144
685.6520, 1861.084
686.8090, 1657.008
687.9670, 1515.553
689.1240, 1359.361
690.2810, 1260.127
691.4380, 1204.851
692.5950, 1184.531
693.7520, 1128.171
694.9080, 1098.175
696.0650, 978.2158
697.2210, 1033.386
698.3770, 926.0977
699.5330, 885.5244
700.6880, 1028.338
701.8440, 870.6816
702.9990, 674.9824
704.1550, 1010.106
705.3100, 739.3232
706.4650, 788.4980
707.6190, 748.6318
708.7740, 711.7217
709.9290, 579.7705
711.0830, 622.7783
712.2370, 453.7451
713.3910, 479.6689
714.5450, 551.5586
715.6980, 328.4082
716.8520, 449.2363
718.0050, 503.0234
719.1580, 498.7686
720.3110, 434.4746
721.4640, 357.1533
722.6170, 297.8174
723.7700, 423.4678
724.9220, 274.0771
726.0740, 239.6641
727.2260, 315.5225
728.3780, 207.8506
729.5300, 286.7422
730.6810, 141.4873
731.8330, 120.4189
732.9840, 136.1816
734.1350, 70.93555
735.2860, 36.68262
736.4370, 45.01172
737.5880, 16.79590
738.7380, 125.3799
739.8880, 36.06348
741.0390, 89.11719
742.1890, 159.4824
743.3380, 151.6758
744.4880, 117.8906
745.6380, 173.8555
746.7870, 155.0869
747.9360, 127.3779
749.0850, 53.27539
750.2340, 105.2705
751.3830, 49.33008
752.5310, 23.38379
753.6800, 100.6025
754.8280, 93.61230
755.9760, 17.46289
757.1240, 14.81543
758.2720, 32.50195
759.4190, 7.792969
760.5670, 19.32422
761.7140, 33.47266
762.8610, 38.33594
764.0080, 55.26953
765.1550, 25.27832
766.3020, 6.347656
767.4480, 33.53516
768.5950, 78.38672
769.7410, 37.20898
770.8870, 196.0039
772.0330, 106.7725
773.1780, 39.51758
774.3240, 63.76562
775.4690, 23.12207
776.6140, 10.47070
777.7590, 41.03125
778.9040, 90.56543
780.0490, 13.07812
781.1940, 117.5615
782.3380, 38.02441
783.4820, 28.46387
784.6260, 16.87891
785.7700, 169.2705
786.9140, 96.64258
788.0580, 16.99512
789.2010, 130.3232
790.3450, 19.63184
791.4880, 151.9189
792.6310, 93.81152
793.7730, 50.61621
794.9160, 133.5283
796.0590, 55.34473
797.2010, 114.2686
798.3430, 103.7256
799.4850, 21.29590
800.6270, 161.6533
801.7690, 59.58398
802.9100, 150.5000
804.0520, 79.32129
805.1930, 71.87402
806.3340, 91.12109
807.4750, 9.427734
808.6160, 6.754883
809.7560, 59.09961
810.8970, 1.484375
812.0370, 30.11426
813.1770, 72.70020
814.3170, 5.273438
815.4570, 1.834961
816.5960, 14.61719
817.7360, 8.085938
818.8750, 13.30859
820.0140, 5.335938
821.1530, 12.57520
822.2920, 0.9033200
823.4310, 2.370117
824.5690, 31.17285
825.7070, 69.26758
826.8460, 74.69824
827.9840, 34.12109
829.1220, 73.53613
830.2590, 20.00195
831.3970, 3.771484
832.5340, 41.26660
833.6710, 33.89062
834.8080, 16.52832
835.9450, 20.82422
837.0820, 135.8291
838.2190, 50.46387
839.3550, 29.75098
840.4910, 43.96680
841.6270, 119.3037
842.7630, 168.5684
843.8990, 219.8291
845.0350, 121.0869
846.1700, 240.3408
847.3060, 351.5918
848.4410, 481.8418
849.5760, 540.0879
850.7100, 664.1025
851.8450, 867.5771
852.9800, 888.8203
854.1140, 1068.062
855.2480, 1227.304
856.3820, 1121.545
857.5160, 991.7871
858.6500, 1095.029
859.7830, 1052.272
860.9170, 888.5166
862.0500, 816.6885
863.1830, 759.7246
864.3160, 733.9814
865.4480, 595.9150
866.5810, 650.1982
867.7130, 756.6406
868.8460, 638.8252
869.9780, 788.2949
871.1100, 647.4580
872.2410, 684.6006
873.3730, 783.2949
874.5050, 615.9609
875.6360, 762.9131
876.7670, 863.1104
877.8980, 656.9580
879.0290, 849.4277
880.1590, 782.9414
881.2900, 869.3662
882.4200, 1040.070
883.5500, 877.7168
884.6800, 965.2744
885.8100, 999.6787
886.9400, 960.2373
888.0690, 1076.225
889.1990, 1040.765
890.3280, 1067.410
891.4570, 991.0498
892.5860, 935.3447
893.7140, 907.2764
894.8430, 825.8203
895.9710, 849.8428
897.1000, 893.5332
898.2280, 942.1855
899.3560, 902.6533
900.4830, 893.1357
901.6110, 819.5840
902.7380, 876.3389
903.8660, 694.9863
904.9930, 698.0215
906.1200, 686.8848
907.2460, 749.1816
908.3730, 652.4668
909.5000, 701.4033
910.6260, 699.3193
911.7520, 740.8379
912.8780, 662.5332
914.0040, 724.7871
915.1290, 604.3047
916.2550, 640.4180
917.3800, 779.0303
918.5050, 700.4727
919.6300, 706.9062
920.7550, 682.3193
921.8800, 607.0508
923.0040, 579.8027
924.1290, 535.3330
925.2530, 518.1279
926.3770, 488.2578
927.5010, 553.6377
928.6250, 457.3008
929.7480, 426.7773
930.8720, 461.7148
931.9950, 554.0967
933.1180, 452.9023
934.2410, 532.9258
935.3640, 453.7783
936.4860, 385.8486
937.6090, 468.9453
938.7310, 320.0107
939.8530, 520.1611
940.9750, 349.3867
942.0970, 469.5322
943.2180, 405.4014
944.3400, 399.4004
945.4610, 292.9180
946.5820, 345.1377
947.7030, 399.5020
948.8240, 449.9385
949.9450, 635.4150
951.0650, 489.8994
952.1860, 661.0820
953.3060, 693.4844
954.4260, 662.8105
955.5460, 819.3242
956.6650, 886.7656
957.7850, 933.4453
958.9040, 851.1709
960.0230, 920.2441
961.1420, 1088.038
962.2610, 1096.860
963.3800, 1249.711
964.4990, 1102.590
965.6170, 1246.500
966.7350, 1269.430
967.8530, 1321.508
968.9710, 1441.846
970.0890, 1345.628
971.2070, 1564.683
972.3240, 1606.338
973.4410, 1743.451
974.5580, 1593.595
975.6750, 1886.904
976.7920, 1840.107
977.9090, 2037.343
979.0250, 2007.607
980.1410, 2148.901
981.2580, 2313.226
982.3740, 2538.580
983.4890, 2688.970
984.6050, 2759.398
985.7200, 2826.857
986.8360, 3128.347
987.9510, 3454.867
989.0660, 3710.420
990.1810, 4106.010
991.2950, 4370.629
992.4100, 5032.281
993.5240, 5500.983
994.6390, 6098.717
995.7530, 6863.480
996.8660, 7985.277
997.9800, 9174.107
999.0940, 10433.97
1000.207, 12206.86
1001.320, 14014.79
1002.433, 16386.75
1003.546, 19863.75
1004.659, 23247.78
1005.772, 27714.86
1006.884, 33070.97
1007.996, 38726.13
1009.108, 43915.34
1010.220, 48064.58
1011.332, 50149.85
1012.444, 49583.17
1013.555, 46527.52
1014.666, 41318.88
1015.777, 34868.29
1016.888, 29169.72
1017.999, 23682.18
1019.110, 19194.67
1020.220, 15625.22
1021.331, 12635.80
1022.441, 10604.40
1023.551, 8941.456
1024.661, 7816.141
1025.770, 6862.252
1026.880, 6181.003
1027.989, 5613.775
1029.098, 5114.982
1030.207, 4923.160
1031.316, 4567.668
1032.425, 4287.837
1033.533, 4285.825
1034.642, 3952.866
1035.750, 4131.353
1036.858, 3955.477
1037.966, 3855.427
1039.073, 3982.103
1040.181, 3992.312
1041.288, 3886.537
1042.396, 3823.389
1043.503, 3817.406
1044.610, 3581.055
1045.716, 3649.190
1046.823, 3382.431
1047.929, 3285.334
1049.036, 3056.667
1050.142, 3010.276
1051.248, 2881.990
1052.353, 2536.508
1053.459, 2607.086
1054.564, 2579.487
1055.670, 2421.061
1056.775, 2168.693
1057.880, 2255.310
1058.985, 2044.450
1060.089, 2017.104
1061.194, 1910.795
1062.298, 1958.721
1063.402, 1720.476
1064.506, 1831.249
1065.610, 1661.872
1066.713, 1690.852
1067.817, 1716.774
1068.920, 1601.672
1070.023, 1347.661
1071.126, 1291.594
1072.229, 1222.568
1073.332, 1087.193
1074.435, 1361.941
1075.537, 956.4316
1076.639, 1146.528
1077.741, 1168.702
1078.843, 1068.907
1079.945, 878.0664
1081.046, 1089.862
1082.148, 855.6055
1083.249, 912.9160
1084.350, 944.1328
1085.451, 989.3652
1086.551, 1096.694
1087.652, 1096.973
1088.752, 862.6367
1089.853, 956.0742
1090.953, 753.7090
1092.053, 818.0225
1093.152, 909.3535
1094.252, 947.6953
1095.351, 800.0488
1096.451, 820.4121
1097.550, 771.7871
1098.649, 810.1719
1099.748, 788.8076
1100.846, 790.9785
1101.945, 784.4023
1103.043, 737.8369
1104.141, 760.2812
1105.239, 714.8496
1106.337, 731.4258
1107.434, 633.0049
1108.532, 700.5146
1109.629, 790.0312
1110.726, 662.5566
1111.823, 613.0908
1112.920, 667.6318
1114.017, 761.1895
1115.113, 825.4648
1116.210, 997.8193
1117.306, 1009.587
1118.402, 1107.004
1119.498, 1353.958
1120.593, 1213.547
1121.689, 1411.639
1122.784, 1425.238
1123.879, 1508.953
1124.974, 1328.232
1126.069, 1328.847
1127.164, 1102.465
1128.259, 1011.087
1129.353, 1001.214
1130.447, 771.9277
1131.541, 673.7686
1132.635, 630.1562
1133.729, 685.7949
1134.822, 489.4346
1135.916, 533.0781
1137.009, 515.7246
1138.102, 555.3711
1139.195, 446.0195
1140.288, 449.6689
1141.380, 336.3184
1142.473, 203.9697
1143.565, 434.6211
1144.657, 291.2725
1145.749, 350.0938
1146.841, 336.7441
1147.932, 171.3945
1149.024, 144.0439
1150.115, 172.6914
1151.206, 252.3379
1152.297, 236.0127
1153.388, 71.65527
1154.479, 13.70312
1155.569, 34.92969
1156.659, 86.43945
1157.750, 175.1484
1158.839, 50.73242
1159.929, 63.31348
1161.019, 37.10938
1162.108, 115.5547
1163.198, 156.0332
1164.287, 12.51855
1165.376, 20.03809
1166.465, 139.4443
1167.553, 51.73730
1168.642, 63.78809
1169.730, 153.5156
1170.818, 62.03809
1171.906, 14.78613
1172.994, 6.626953
1174.082, 41.41602
1175.170, 145.3018
1176.257, 103.7061
1177.344, 24.31152
1178.431, 81.37305
1179.518, 39.17578
1180.605, 26.31152
1181.691, 90.47461
1182.778, 26.29590
1183.864, 19.16504
1184.950, 34.08203
1186.036, 93.63574
1187.122, 27.34277
1188.207, 105.3496
1189.292, 104.9629
1190.378, 53.64941
1191.463, 41.25000
1192.548, 16.84082
1193.632, 113.4160
1194.717, 53.99023
1195.801, 41.44434
1196.886, 26.07422
1197.970, 45.57910
1199.054, 90.07910
1200.137, 43.56641
1201.221, 170.0430
1202.305, 8.514648
1203.388, 142.9639
1204.471, 27.59961
1205.554, 28.20801
1206.637, 177.1396
1207.719, 60.47461
1208.802, 61.79590
1209.884, 194.1025
1210.966, 139.6045
1212.048, 10.41602
1213.130, 57.73340
1214.212, 100.8682
1215.293, 125.9883
1216.374, 69.09668
1217.456, 86.18750
1218.536, 83.73535
1219.617, 58.27246
1220.698, 15.26465
1221.778, 145.3955
1222.859, 99.34375
1223.939, 216.2793
1225.019, 134.1973
1226.099, 107.1006
1227.178, 123.9883
1228.258, 218.8604
1229.337, 218.7158
1230.417, 122.5557
1231.496, 165.3799
1232.574, 137.1885
1233.653, 115.9824
1234.732, 92.77734
1235.810, 94.55762
1236.888, 97.31934
1237.966, 155.0615
1239.044, 205.7900
1240.122, 165.5000
1241.199, 260.1943
1242.277, 240.8701
1243.354, 123.5283
1244.431, 49.16992
1245.508, 20.78711
1246.585, 82.37109
1247.661, 204.9346
1248.738, 82.48145
1249.814, 217.0098
1250.890, 30.51953
1251.966, 286.9961
1253.042, 110.4551
1254.117, 24.10352
1255.193, 155.2773
1256.268, 254.6406
1257.343, 193.9863
1258.418, 69.31250
1259.493, 123.6172
1260.567, 94.90430
1261.642, 60.16797
1262.716, 253.4062
1263.790, 210.6250
1264.864, 236.8262
1265.938, 361.1836
1267.011, 291.3438
1268.085, 244.4883
1269.158, 296.6152
1270.231, 273.7344
1271.304, 267.8359
1272.377, 199.9180
1273.450, 283.9805
1274.522, 117.0234
1275.594, 215.1152
1276.666, 362.1211
1277.738, 321.1055
1278.810, 210.0723
1279.882, 193.0195
1280.953, 155.9473
1282.025, 203.8555
1283.096, 184.8535
1284.167, 187.2207
1285.238, 196.2266
1286.308, 184.6621
1287.379, 179.4707
1288.449, 201.5312
1289.519, 179.0332
1290.589, 227.1484
1291.659, 151.2695
1292.729, 115.7578
