##NAMES=Dioptase
##RRUFFID=R040028
##IDEAL CHEMISTRY=Cu^2+^SiO_3_&#183;H_2_O
##LOCALITY=Tantara mine, Democratic Republic of the Congo
##OWNER=RRUFF
##SOURCE=University of Arizona Mineral Museum
##DESCRIPTION=Bluish green coarsely crystallized fragment
##STATUS=The identification of this mineral has been confirmed by X-ray diffraction and chemical analysis
##URL=rruff.info/R040028
##MEASURED CHEMISTRY=Cu_1.00_Si_1.00_O_3_Â·H_2_O; H_2_O estimated by difference
##PIN_ID=M00034
##ORIENTATION=Laser parallel to -c* (0 0 -1). Fiducial mark perpendicular to laser is parallel to -a [-1 0 0]
87.106, 0.000
88.503, 372.430
89.901, 17.586
91.298, 597.829
92.695, 1045.608
94.092, 1569.320
95.488, 2664.362
96.884, 4289.646
98.281, 7023.963
99.676, 7272.086
101.072, 5691.480
102.467, 2892.520
103.863, 1335.599
105.258, 890.174
106.652, 1004.452
108.047, 1540.698
109.441, 1450.822
110.835, 1945.933
112.229, 2496.838
113.623, 3114.183
115.016, 3888.527
116.409, 4102.018
117.802, 4732.455
119.195, 4511.005
120.587, 4845.330
121.980, 4156.271
123.372, 4188.262
124.764, 4511.074
126.155, 5214.523
127.546, 7008.583
128.938, 10485.111
130.329, 18523.396
131.719, 24131.617
133.110, 24619.754
134.500, 27452.715
135.890, 26687.203
137.280, 24783.721
138.669, 21271.557
140.059, 14899.301
141.448, 7756.975
142.837, 3646.295
144.225, 1681.019
145.614, 520.798
147.002, 8.766
148.390, 469.389
149.778, 400.689
151.166, 511.595
152.553, 152.546
153.940, 215.578
155.327, 1022.757
156.714, 2359.045
158.100, 3974.492
159.486, 6999.143
160.872, 8723.036
162.258, 8946.209
163.644, 7168.692
165.029, 4520.521
166.414, 2991.718
167.799, 1739.253
169.184, 1221.395
170.568, 832.274
171.952, 924.022
173.336, 1443.340
174.720, 2480.840
176.104, 4408.344
177.487, 6505.846
178.870, 8683.337
180.253, 8580.801
181.636, 7468.221
183.018, 6135.590
184.400, 4532.898
185.782, 3670.138
187.164, 2547.242
188.546, 2164.196
189.927, 1571.007
191.308, 1417.679
192.689, 1554.217
194.070, 1630.621
195.450, 2578.334
196.830, 2709.151
198.210, 2980.185
199.590, 2468.771
200.970, 2193.721
202.349, 2175.655
203.728, 2193.421
205.107, 2455.404
206.486, 2295.285
207.864, 2961.949
209.243, 3368.625
210.621, 3611.672
211.998, 4666.459
213.376, 5525.190
214.753, 7478.578
216.130, 8795.425
217.507, 11628.045
218.884, 15003.370
220.261, 19078.678
221.637, 25073.967
223.013, 28719.240
224.389, 33804.484
225.764, 34059.707
227.140, 32394.869
228.515, 28509.963
229.890, 22454.973
231.264, 18259.900
232.639, 13384.746
234.013, 10409.503
235.387, 7634.168
236.761, 5878.742
238.135, 4513.224
239.508, 3477.615
240.881, 3061.920
242.254, 2416.133
243.627, 2340.260
244.999, 1594.298
246.372, 1158.251
247.744, 722.117
249.116, 235.899
250.487, 249.578
251.859, 53.056
253.230, 78.597
254.601, 255.024
255.972, 501.866
257.342, 1129.498
258.712, 1667.388
260.083, 3405.412
261.452, 5573.466
262.822, 9611.455
264.192, 14049.332
265.561, 17087.068
266.930, 18284.676
268.299, 14842.085
269.667, 11369.110
271.036, 7955.790
272.404, 6062.170
273.772, 5008.287
275.139, 4244.178
276.507, 3989.869
277.874, 3555.412
279.241, 3830.774
280.608, 4045.999
281.974, 4151.075
283.341, 4894.939
284.707, 4897.102
286.073, 5978.799
287.439, 6550.496
288.804, 7772.176
290.170, 9553.845
291.535, 9985.488
292.899, 10677.104
294.264, 9458.679
295.629, 8390.183
296.993, 6291.624
298.357, 4283.010
299.720, 2824.312
301.084, 1605.584
302.447, 1286.771
303.811, 447.870
305.173, 218.855
306.536, 26.289
307.899, 304.619
309.261, 244.231
310.623, 409.329
311.985, 451.528
313.346, 547.080
314.708, 457.771
316.069, 393.358
317.430, 374.112
318.790, 160.741
320.151, 25.576
321.511, 529.250
322.871, 867.529
324.231, 1754.925
325.591, 2382.198
326.950, 2199.354
328.310, 2186.395
329.669, 1523.322
331.027, 1090.140
332.386, 666.812
333.744, 309.325
335.102, 303.387
336.460, 15.784
337.818, 85.860
339.175, 6.613
340.533, 11.870
341.890, 210.820
343.247, 211.926
344.603, 649.842
345.960, 894.645
347.316, 1479.341
348.672, 2143.939
350.028, 3218.439
351.383, 5362.844
352.738, 8197.152
354.094, 14081.364
355.448, 21035.479
356.803, 27749.496
358.158, 30283.420
359.512, 24907.242
360.866, 18930.863
362.220, 13154.015
363.573, 9336.584
364.927, 6788.467
366.280, 5039.752
367.633, 4370.586
368.986, 3411.253
370.338, 2981.849
371.690, 2562.389
373.043, 2342.875
374.394, 2333.277
375.746, 2183.545
377.098, 2423.613
378.449, 2293.457
379.800, 2503.156
381.151, 2712.773
382.501, 2922.340
383.852, 3411.855
385.202, 3601.320
386.552, 4430.733
387.901, 5170.094
389.251, 6149.405
390.600, 7828.662
391.949, 9437.869
393.298, 12817.026
394.647, 16086.131
395.995, 20795.182
397.344, 25894.188
398.692, 28323.137
400.039, 30382.041
401.387, 27310.891
402.734, 23449.695
404.082, 18848.443
405.429, 14167.151
406.775, 11245.805
408.122, 8404.411
409.468, 6962.201
410.814, 5678.079
412.160, 5228.342
413.506, 4908.900
414.851, 4623.561
416.197, 5039.226
417.542, 4909.646
418.886, 5353.227
420.231, 5530.260
421.575, 5418.123
422.920, 6005.881
424.264, 5683.529
425.607, 6211.294
426.951, 6158.729
428.294, 6186.730
429.637, 6585.070
430.980, 6143.546
432.323, 6832.111
433.666, 6580.369
435.008, 6870.324
436.350, 6851.854
437.692, 6465.021
439.033, 6756.300
440.375, 6146.928
441.716, 6043.982
443.057, 5659.372
444.398, 5308.811
445.738, 5408.797
447.079, 4904.949
448.419, 4941.040
449.759, 4695.064
451.099, 4590.795
452.438, 4824.844
453.777, 4397.719
455.116, 4700.989
456.455, 4749.582
457.794, 4159.646
459.132, 3590.871
460.471, 3086.971
461.809, 2744.481
463.147, 2360.175
464.484, 2154.935
465.822, 1934.031
467.159, 1718.510
468.496, 1573.659
469.832, 1350.222
471.169, 1340.792
472.505, 1111.905
473.842, 1118.455
475.177, 1107.068
476.513, 854.211
477.849, 890.557
479.184, 776.525
480.519, 766.837
481.854, 876.705
483.189, 678.391
484.523, 992.198
485.857, 935.250
487.191, 1100.233
488.525, 1134.150
489.859, 1047.997
491.192, 1141.778
492.525, 954.095
493.858, 796.371
495.191, 810.105
496.524, 667.705
497.856, 692.472
499.188, 539.790
500.520, 736.064
501.852, 573.462
503.183, 735.344
504.514, 766.195
505.846, 770.782
507.176, 987.583
508.507, 978.542
509.838, 1153.446
511.168, 1266.299
512.498, 1189.096
513.828, 1521.851
515.157, 1364.554
516.487, 1577.202
517.816, 1699.797
519.145, 1632.337
520.474, 1774.841
521.802, 1557.291
523.131, 1619.691
524.459, 1522.060
525.787, 1434.395
527.114, 1434.554
528.442, 1341.068
529.769, 1411.255
531.096, 1193.496
532.423, 1275.703
533.750, 1147.879
535.076, 893.016
536.403, 1019.114
537.729, 904.180
539.055, 748.212
540.380, 797.239
541.706, 653.251
543.031, 873.234
544.356, 599.201
545.681, 712.137
547.005, 799.036
548.330, 623.901
549.654, 915.733
550.978, 795.530
552.302, 1010.309
553.625, 1327.052
554.949, 1468.762
556.272, 1960.441
557.595, 2182.094
558.917, 2813.713
560.240, 3195.299
561.562, 3596.858
562.884, 3928.387
564.206, 3839.886
565.528, 3901.367
566.849, 3452.816
568.171, 3244.240
569.492, 3005.635
570.813, 2507.008
572.133, 2728.386
573.454, 2389.766
574.774, 2251.181
576.094, 2002.620
577.414, 1574.063
578.733, 1485.495
580.053, 1066.900
581.372, 736.275
582.691, 732.621
584.010, 397.939
585.328, 470.226
586.647, 280.484
587.965, 169.709
589.283, 107.897
590.601, 56.048
591.918, 100.158
593.235, 29.769
594.553, 56.755
595.869, 84.815
597.186, 215.964
598.503, 48.268
599.819, 152.639
601.135, 128.130
602.451, 194.730
603.767, 205.473
605.082, 146.361
606.397, 147.365
607.713, 116.483
609.027, 145.700
610.342, 121.030
611.657, 104.459
612.971, 112.977
614.285, 40.587
615.599, 66.251
616.912, 86.983
618.226, 60.209
619.539, 191.627
620.852, 102.408
622.165, 72.419
623.477, 110.407
624.790, 289.401
626.102, 199.423
627.414, 406.516
628.726, 415.756
630.037, 437.128
631.349, 592.677
632.660, 442.412
633.971, 746.354
635.281, 702.988
636.592, 830.090
637.902, 1131.012
639.212, 1141.086
640.522, 1451.662
641.832, 1561.493
643.142, 1932.072
644.451, 2182.638
645.760, 2493.191
647.069, 3263.734
648.378, 3524.264
649.686, 4404.781
650.994, 5795.295
652.303, 6735.711
653.610, 9476.234
654.918, 11596.208
656.226, 15376.394
657.533, 19696.025
658.840, 22336.586
660.147, 23279.799
661.453, 24047.312
662.760, 21818.129
664.066, 18958.955
665.372, 14529.773
666.678, 12490.593
667.984, 9692.256
669.289, 7763.059
670.594, 6716.529
671.899, 5187.807
673.204, 4818.590
674.509, 3719.369
675.813, 3190.142
677.117, 3004.430
678.421, 2405.191
679.725, 2305.949
681.029, 1909.985
682.332, 1703.586
683.635, 1540.211
684.938, 1281.954
686.241, 1275.361
687.544, 1039.560
688.846, 1043.804
690.148, 893.716
691.450, 874.430
692.752, 831.141
694.054, 708.029
695.355, 739.478
696.656, 694.594
697.957, 588.542
699.258, 690.214
700.559, 460.287
701.859, 620.454
703.159, 601.132
704.459, 368.920
705.759, 573.590
707.058, 428.439
708.358, 535.327
709.657, 583.987
710.956, 621.645
712.254, 742.154
713.553, 761.095
714.851, 752.706
716.149, 849.354
717.447, 853.734
718.745, 904.379
720.043, 980.092
721.340, 1165.799
722.637, 1423.437
723.934, 1455.601
725.231, 1746.236
726.527, 1936.872
727.823, 2204.056
729.120, 2838.138
730.415, 2909.630
731.711, 3620.261
733.007, 4170.892
734.302, 5171.521
735.597, 6762.148
736.892, 6702.777
738.187, 8323.404
739.481, 8774.031
740.775, 9694.437
742.070, 10425.064
743.363, 9675.014
744.657, 9934.523
745.951, 8503.791
747.244, 7502.863
748.537, 6862.141
749.830, 5299.622
751.123, 4875.430
752.415, 3979.498
753.707, 3275.359
754.999, 3021.773
756.291, 2371.665
757.583, 2123.129
758.874, 1720.445
760.166, 1507.129
761.457, 1517.563
762.748, 1557.982
764.038, 1130.388
765.329, 951.010
766.619, 712.235
767.909, 800.558
769.199, 579.404
770.489, 584.855
771.778, 428.759
773.067, 380.424
774.357, 465.138
775.645, 274.366
776.934, 299.336
778.223, 338.221
779.511, 200.307
780.799, 277.181
782.087, 194.720
783.374, 218.649
784.662, 311.594
785.949, 155.555
787.236, 372.531
788.523, 131.522
789.810, 227.527
791.096, 220.548
792.383, 212.583
793.669, 356.632
794.955, 171.693
796.240, 292.768
797.526, 253.856
798.811, 181.958
800.096, 341.070
801.381, 129.196
802.666, 230.334
803.950, 279.484
805.234, 28.656
806.518, 268.843
807.802, 170.044
809.086, 184.259
810.370, 234.490
811.653, 129.739
812.936, 233.005
814.219, 103.286
815.502, 173.581
816.784, 306.891
818.066, 136.212
819.348, 87.546
820.630, 90.894
821.912, 10.615
823.194, 101.626
824.475, 50.993
825.756, 1.624
827.037, 106.752
828.318, 38.144
829.598, 93.547
830.878, 69.034
832.158, 45.367
833.438, 24.785
834.718, 63.783
835.998, 54.367
837.277, 115.963
838.556, 13.595
839.835, 50.478
841.114, 107.862
842.392, 25.533
843.671, 18.205
844.949, 34.128
846.227, 50.476
847.504, 18.160
848.782, 7.792
850.059, 127.415
851.337, 104.355
852.613, 13.772
853.890, 87.459
855.167, 2.169
856.443, 37.132
857.719, 7.451
858.995, 117.785
860.271, 5.138
861.547, 64.496
862.822, 87.860
864.097, 45.234
865.372, 12.373
866.647, 21.971
867.922, 28.438
869.196, 84.866
870.470, 33.687
871.744, 56.764
873.018, 18.768
874.292, 63.290
875.565, 51.182
876.838, 30.328
878.111, 78.167
879.384, 72.684
880.657, 25.220
881.929, 17.778
883.201, 15.644
884.473, 86.946
885.745, 128.558
887.017, 29.190
888.288, 165.845
889.559, 70.521
890.831, 189.220
892.101, 212.938
893.372, 167.681
894.643, 219.445
895.913, 229.233
897.183, 295.045
898.453, 392.885
899.722, 329.755
900.992, 564.652
902.261, 411.580
903.530, 567.547
904.799, 576.562
906.068, 606.632
907.336, 814.421
908.605, 965.872
909.873, 1176.271
911.141, 1460.613
912.408, 1603.040
913.676, 1875.553
914.943, 1968.137
916.211, 1900.792
917.477, 1933.510
918.744, 1716.298
920.011, 1539.150
921.277, 1482.062
922.543, 1070.034
923.809, 1227.049
925.075, 910.113
926.341, 942.231
927.606, 902.378
928.871, 780.607
930.136, 854.865
931.401, 781.152
932.666, 736.468
933.930, 883.809
935.194, 706.177
936.458, 696.568
937.722, 703.987
938.986, 662.431
940.249, 853.898
941.512, 678.392
942.776, 723.911
944.038, 860.456
945.301, 654.026
946.564, 915.623
947.826, 937.243
949.088, 1024.891
950.350, 1103.568
951.611, 1010.271
952.873, 1268.001
954.134, 1370.760
955.395, 1394.544
956.656, 1690.441
957.917, 1534.284
959.178, 1828.672
960.438, 1852.580
961.698, 1696.513
962.958, 1701.218
964.218, 1405.219
965.477, 1217.244
966.737, 1342.297
967.996, 1151.375
969.255, 1114.480
970.514, 1248.611
971.772, 1055.769
973.031, 1220.822
974.289, 1226.180
975.547, 1168.529
976.805, 1271.004
978.062, 1144.807
979.320, 1224.121
980.577, 1286.467
981.834, 1270.840
983.091, 1349.391
984.348, 1536.845
985.604, 1561.326
986.861, 1762.549
988.117, 1724.232
989.373, 2042.914
990.628, 1976.502
991.884, 2328.469
993.139, 2727.666
994.394, 2760.850
995.649, 3494.396
996.904, 3729.180
998.158, 4203.999
999.413, 5297.663
1000.667, 5951.792
1001.921, 7870.277
1003.175, 9309.957
1004.428, 10593.952
1005.682, 12834.571
1006.935, 12249.124
1008.188, 12444.227
1009.441, 11979.241
1010.693, 10584.401
1011.946, 10819.436
1013.198, 10171.460
1014.450, 10296.744
1015.702, 11132.071
1016.954, 10176.572
1018.205, 11000.715
1019.457, 10566.146
1020.708, 9771.610
1021.959, 10425.375
1023.209, 9290.903
1024.460, 9195.396
1025.710, 8947.927
1026.960, 7933.553
1028.210, 8307.693
1029.460, 7143.394
1030.710, 6729.121
1031.959, 6474.883
1033.208, 5220.676
1034.457, 4905.637
1035.706, 4321.488
1036.955, 3497.370
1038.203, 3643.280
1039.451, 2819.221
1040.699, 2705.190
1041.947, 2421.191
1043.195, 1917.221
1044.442, 2023.280
1045.690, 1679.373
1046.937, 1561.494
1048.184, 1595.647
1049.430, 1317.831
1050.677, 1411.043
1051.923, 1373.285
1053.169, 990.557
1054.415, 1191.857
1055.661, 1029.186
1056.907, 1053.541
1058.152, 955.927
1059.397, 812.341
1060.642, 853.782
1061.887, 855.255
1063.132, 697.755
1064.376, 818.281
1065.620, 632.845
1066.864, 649.435
1068.108, 629.049
1069.352, 485.690
1070.595, 608.356
1071.839, 519.052
1073.082, 416.775
1074.325, 556.522
1075.567, 384.301
1076.810, 587.104
1078.052, 454.424
1079.294, 441.783
1080.536, 361.661
1081.778, 175.562
1083.020, 320.489
1084.261, 331.443
1085.502, 144.427
1086.743, 305.441
1087.984, 286.477
1089.225, 174.538
1090.465, 257.621
1091.706, 139.726
1092.946, 232.856
1094.186, 142.006
1095.425, 38.177
1096.665, 125.370
1097.904, 128.584
1099.143, 41.958
1100.382, 178.215
1101.621, 60.493
1102.859, 61.514
1104.098, 87.846
1105.336, 79.802
1106.574, 90.871
1107.812, 32.755
1109.049, 32.591
1110.287, 102.039
1111.524, 40.533
1112.761, 188.397
1113.998, 60.858
1115.235, 42.338
1116.471, 12.840
1117.707, 35.526
1118.944, 71.065
1120.180, 38.627
1121.415, 43.796
1122.651, 140.790
1123.886, 56.403
1125.121, 51.034
1126.356, 163.694
1127.591, 72.375
1128.826, 114.894
1130.060, 209.617
1131.294, 36.651
1132.528, 142.838
1133.762, 184.613
1134.996, 50.402
1136.229, 164.625
1137.463, 183.475
1138.696, 77.492
1139.929, 98.076
1141.162, 44.015
1142.394, 220.704
1143.626, 169.254
1144.859, 115.734
1146.091, 264.123
1147.322, 168.171
1148.554, 217.239
1149.785, 222.536
1151.017, 108.664
1152.248, 334.965
1153.479, 202.654
1154.709, 165.868
1155.940, 342.793
1157.170, 228.034
1158.400, 315.442
1159.630, 287.074
1160.860, 293.417
1162.089, 347.024
1163.319, 263.317
1164.548, 279.898
1165.777, 333.055
1167.006, 226.528
1168.234, 298.890
1169.463, 317.401
1170.691, 231.806
1171.919, 365.892
1173.147, 219.329
1174.375, 312.761
1175.602, 319.055
1176.830, 219.510
1178.057, 278.972
1179.284, 242.265
1180.511, 197.740
1181.737, 313.277
1182.963, 154.771
1184.190, 161.269
1185.416, 298.773
1186.642, 161.284
1187.867, 254.799
1189.093, 181.580
1190.318, 127.105
1191.543, 140.635
1192.768, 156.029
1193.993, 130.568
1195.217, 164.654
1196.442, 138.731
1197.666, 117.813
1198.890, 124.889
1200.114, 68.555
1201.337, 105.116
1202.561, 109.680
1203.784, 117.247
1205.007, 197.876
1206.230, 87.948
1207.452, 172.521
1208.675, 96.297
1209.897, 97.874
1211.119, 189.452
1212.341, 67.719
1213.563, 127.300
1214.785, 252.882
1216.006, 115.954
1217.227, 226.538
1218.448, 169.111
1219.669, 116.725
1220.890, 237.314
1222.110, 138.490
1223.330, 164.164
1224.551, 234.753
1225.771, 77.792
1226.990, 164.381
1228.210, 158.969
1229.429, 33.745
1230.648, 147.995
1231.867, 85.070
1233.086, 118.763
1234.305, 218.339
1235.523, 27.506
1236.741, 87.083
1237.960, 146.664
1239.177, 10.503
1240.395, 65.092
1241.613, 112.680
1242.830, 126.338
1244.047, 98.930
1245.264, 13.483
1246.481, 30.263
1247.697, 68.820
1248.914, 3.929
1250.130, 155.628
1251.346, 48.188
1252.562, 15.271
1253.778, 71.286
1254.993, 43.676
1256.209, 16.989
1257.424, 117.498
1258.639, 51.736
1259.853, 53.757
1261.068, 55.226
1262.282, 46.422
1263.497, 12.853
1264.711, 83.275
1265.924, 28.849
1267.138, 94.250
1268.352, 79.188
1269.565, 110.137
1270.778, 58.450
1271.991, 79.750
1273.204, 52.099
1274.416, 0.650
1275.629, 33.634
1276.841, 161.855
1278.053, 95.601
1279.265, 40.563
1280.476, 128.717
1281.688, 10.926
1282.899, 56.067
1284.110, 27.202
1285.321, 59.672
1286.532, 101.428
1287.743, 11.485
1288.953, 8.420
1290.163, 38.370
1291.373, 4.344
1292.583, 154.668
1293.793, 51.668
1295.002, 27.651
1296.211, 111.625
1297.421, 30.430
1298.629, 16.487
1299.838, 106.385
1301.047, 101.734
1302.255, 61.089
1303.463, 36.890
1304.671, 79.322
1305.879, 46.425
1307.087, 2.116
1308.294, 24.217
1309.502, 34.425
1310.709, 14.050
1311.916, 25.345
1313.122, 73.232
1314.329, 7.794
1315.535, 59.309
1316.741, 1.192
1317.948, 58.282
1319.153, 68.737
1320.359, 18.824
1321.564, 66.578
1322.770, 69.962
1323.975, 20.328
1325.180, 105.662
1326.385, 58.979
1327.589, 116.277
1328.794, 105.561
1329.998, 91.827
1331.202, 184.076
1332.406, 130.308
1333.609, 50.523
1334.813, 156.720
1336.016, 115.899
1337.219, 25.061
1338.422, 164.199
1339.625, 39.320
1340.827, 46.419
1342.030, 137.500
1343.232, 61.561
1344.434, 67.605
1345.636, 174.631
1346.838, 109.641
1348.039, 113.634
1349.240, 74.610
1350.442, 46.571
1351.643, 195.513
1352.843, 19.440
1354.044, 118.347
1355.244, 194.239
1356.445, 8.883
1357.645, 145.969
1358.845, 106.859
1360.044, 51.685
1361.244, 120.494
1362.443, 30.742
1363.642, 29.524
1364.841, 177.291
1366.040, 13.048
1367.239, 84.789
1368.437, 158.728
1369.635, 17.450
1370.833, 133.165
1372.031, 102.951
1373.229, 26.518
1374.427, 49.052
1375.624, 17.545
1376.821, 3.912
1378.018, 141.395
1379.215, 54.374
1380.412, 138.513
1381.608, 117.634
1382.804, 81.741
1384.000, 225.835
1385.196, 126.724
1386.392, 103.014
1387.588, 130.019
1388.783, 139.612
1389.978, 91.355
1391.173, 186.490
1392.368, 4.617
1393.563, 172.069
1394.757, 172.916
1395.952, 110.754
1397.146, 242.570
1398.340, 202.371
1399.534, 106.191
1400.727, 220.029
1401.921, 142.702
1403.114, 147.876
1404.307, 197.690
1405.500, 49.154
1406.692, 204.472
1407.885, 139.217
1409.077, 91.354
1410.270, 189.726
1411.462, 121.389
1412.653, 22.632
1413.845, 175.185
1415.036, 181.404
1416.228, 86.039
1417.419, 208.596
1418.610, 86.873
1419.801, 141.302
1420.991, 205.026
1422.182, 132.680
1423.372, 185.152
1424.562, 81.700
1425.752, 134.305
1426.941, 118.904
1428.131, 107.882
1429.320, 106.580
1430.509, 138.746
1431.698, 103.711
1432.887, 149.852
1434.076, 175.072
1435.264, 167.441
1436.452, 219.850
1437.641, 122.124
1438.828, 178.378
1440.016, 268.919
1441.204, 119.186
1442.391, 184.500
1443.578, 210.647
1444.765, 139.509
1445.952, 267.651
1447.139, 185.443
1448.325, 84.597
1449.512, 269.139
1450.698, 137.462
1451.884, 134.877
1453.070, 258.662
1454.255, 175.735
1455.441, 192.869
1456.626, 227.616
1457.811, 109.656
1458.996, 269.324
1460.181, 178.013
1461.365, 156.383
1462.549, 289.991
1463.734, 246.799
1464.918, 138.439
1466.102, 214.624
1467.285, 84.593
1468.469, 200.364
1469.652, 270.029
1470.835, 317.776
1472.018, 277.639
1473.201, 318.660
1474.383, 135.055
1475.566, 277.708
1476.748, 185.311
1477.930, 67.839
1479.112, 270.271
1480.294, 87.659
1481.475, 160.087
1482.657, 155.504
1483.838, 80.991
1485.019, 176.442
1486.200, 194.186
1487.381, 148.906
1488.561, 179.596
1489.741, 206.377
1490.922, 88.271
1492.101, 210.190
1493.281, 150.203
1494.461, 105.321
1495.640, 163.529
1496.820, 98.770
1497.999, 102.050
