##NAMES=Diopside
##RRUFFID=R050666
##IDEAL CHEMISTRY=CaMgSi_2_O_6_
##LOCALITY=Franklin, Sussex County, New Jersey, USA
##OWNER=RRUFF
##SOURCE=University of Arizona Mineral Museum
##DESCRIPTION=Brown cleavage fragment with white hardystonite
##STATUS=The identification of this mineral has been confirmed by X-ray diffraction and chemical analysis
##URL=rruff.info/R050666
##MEASURED CHEMISTRY=Ca(Mg_0.66_Mn_0.33_Fe_0.01_)Si_2_O_6_
##PIN_ID=L00985
##ORIENTATION=Laser parallel to (1 0 1). Fiducial mark perpendicular to laser is parallel to -b [0 -1 0]
129.2090, 0.0000000E+00
130.4390, 116.6641
131.6680, 160.0742
132.8980, 315.2109
134.1270, 127.9961
135.3560, 296.5742
136.5850, 127.2383
137.8140, 110.9414
139.0430, 32.91797
140.2710, 63.05859
141.5000, 3.648438
142.7280, 0.4882810
143.9560, 209.4180
145.1840, 38.58594
146.4120, 49.87500
147.6390, 108.1016
148.8670, 48.10547
150.0940, 305.7422
151.3210, 208.5391
152.5490, 222.3984
153.7750, 211.1992
155.0020, 168.1953
156.2290, 276.3086
157.4550, 263.5781
158.6810, 281.6445
159.9080, 311.7578
161.1340, 338.7812
162.3590, 309.6680
163.5850, 215.3828
164.8110, 287.9023
166.0360, 415.1836
167.2610, 566.1914
168.4860, 544.8984
169.7110, 562.3555
170.9360, 516.0039
172.1610, 443.4180
173.3850, 418.3555
174.6100, 407.2773
175.8340, 377.7227
177.0580, 426.1211
178.2820, 444.9805
179.5050, 472.1914
180.7290, 463.6172
181.9520, 461.2383
183.1760, 466.8516
184.3990, 357.8906
185.6220, 439.3477
186.8450, 556.2109
188.0670, 424.4844
189.2900, 674.1484
190.5120, 552.2031
191.7340, 518.6523
192.9560, 668.4805
194.1780, 548.6914
195.4000, 536.2773
196.6220, 446.2383
197.8430, 511.5703
199.0640, 311.2695
200.2860, 498.3359
201.5070, 508.7656
202.7270, 725.4688
203.9480, 515.2070
205.1690, 328.9961
206.3890, 617.8594
207.6090, 712.8086
208.8290, 266.8672
210.0490, 376.0508
211.2690, 583.3789
212.4890, 688.8594
213.7080, 532.5039
214.9280, 516.3242
216.1470, 639.3203
217.3660, 420.5039
218.5850, 601.8711
219.8030, 384.4336
221.0220, 465.1992
222.2400, 607.1602
223.4590, 406.3320
224.6770, 365.7422
225.8950, 675.4062
227.1120, 676.2852
228.3300, 787.3789
229.5480, 720.6992
230.7650, 635.2812
231.9820, 708.0703
233.1990, 435.0742
234.4160, 893.3008
235.6330, 601.7891
236.8490, 482.5469
238.0660, 773.5234
239.2820, 304.7148
240.4980, 714.1289
241.7140, 638.7656
242.9300, 838.6172
244.1460, 666.6875
245.3610, 868.9805
246.5770, 684.4961
247.7920, 755.2266
249.0070, 685.1758
250.2220, 545.3438
251.4370, 492.7305
252.6510, 729.3398
253.8660, 575.1641
255.0800, 604.2109
256.2940, 835.4766
257.5080, 683.9609
258.7220, 873.6719
259.9360, 518.6055
261.1490, 789.7930
262.3630, 775.2305
263.5760, 606.8867
264.7890, 777.7617
266.0020, 739.8516
267.2150, 523.1641
268.4270, 633.6992
269.6400, 354.4453
270.8520, 786.4219
272.0640, 521.6094
273.2760, 797.0195
274.4880, 890.6484
275.7000, 452.7109
276.9120, 376.3398
278.1230, 814.3906
279.3340, 749.8398
280.5450, 554.5195
281.7560, 864.6016
282.9670, 699.0664
284.1780, 649.8984
285.3880, 763.6133
286.5980, 872.1172
287.8090, 951.8438
289.0190, 943.9570
290.2290, 869.3711
291.4380, 858.0664
292.6480, 976.0586
293.8570, 1136.316
295.0670, 1196.832
296.2760, 1013.598
297.4850, 727.6055
298.6930, 1184.852
299.9020, 1104.336
301.1110, 1502.051
302.3190, 1550.988
303.5270, 1534.148
304.7350, 1654.520
305.9430, 1755.109
307.1510, 1768.910
308.3580, 1729.914
309.5660, 1567.156
310.7730, 1718.602
311.9800, 1591.273
313.1870, 1807.133
314.3940, 1906.191
315.6010, 1872.438
316.8070, 1510.875
318.0130, 1635.504
319.2200, 1575.000
320.4260, 1151.000
321.6310, 1469.188
322.8370, 1170.551
324.0430, 1002.996
325.2480, 1071.723
326.4540, 1005.633
327.6590, 707.7227
328.8640, 1013.660
330.0680, 1122.832
331.2730, 860.4414
332.4780, 1050.223
333.6820, 844.1797
334.8860, 1104.305
336.0900, 1119.617
337.2940, 1281.098
338.4980, 1535.746
339.7010, 1689.727
340.9050, 1805.781
342.1080, 1883.508
343.3110, 1883.816
344.5140, 1900.293
345.7170, 1908.293
346.9200, 1762.730
348.1220, 1889.691
349.3240, 1734.816
350.5270, 1714.141
351.7290, 1703.523
352.9310, 1487.133
354.1320, 1433.914
355.3340, 1369.848
356.5350, 1216.949
357.7370, 1335.215
358.9380, 1156.047
360.1390, 1079.641
361.3400, 1239.398
362.5400, 1179.320
363.7410, 1243.402
364.9410, 1358.648
366.1410, 1430.059
367.3410, 1498.918
368.5410, 1499.379
369.7410, 1620.281
370.9400, 1815.348
372.1400, 1873.574
373.3390, 2489.961
374.5380, 2486.512
375.7370, 2735.227
376.9360, 2667.102
378.1350, 3010.141
379.3330, 2831.336
380.5310, 2767.695
381.7300, 2805.215
382.9280, 2707.895
384.1260, 2150.730
385.3230, 1999.727
386.5210, 1888.887
387.7180, 1591.199
388.9160, 1549.910
390.1130, 1207.543
391.3100, 1074.812
392.5060, 850.7578
393.7030, 1072.867
394.9000, 548.1289
396.0960, 233.5469
397.2920, 591.1211
398.4880, 593.8555
399.6840, 502.7422
400.8800, 467.7891
402.0750, 516.9844
403.2710, 421.3438
404.4660, 447.8555
405.6610, 458.0781
406.8560, 401.3398
408.0510, 525.3125
409.2450, 543.4414
410.4400, 632.7266
411.6340, 387.1641
412.8280, 430.5039
414.0220, 322.4961
415.2160, 365.3945
416.4100, 314.0664
417.6030, 204.6445
418.7970, 244.9961
419.9900, 279.5469
421.1830, 269.2891
422.3760, 413.2227
423.5690, 327.3438
424.7610, 455.6602
425.9540, 327.7578
427.1460, 152.4531
428.3380, 326.3398
429.5300, 53.41797
430.7220, 328.6836
431.9140, 22.13281
433.1050, 392.7695
434.2970, 415.5625
435.4880, 267.7969
436.6790, 112.0039
437.8700, 194.3984
439.0610, 210.9961
440.2510, 79.77734
441.4420, 362.7383
442.6320, 96.90234
443.8220, 220.2461
445.0120, 116.7695
446.2020, 387.4727
447.3910, 521.3516
448.5810, 212.4102
449.7700, 234.6484
450.9600, 270.0664
452.1490, 255.5000
453.3370, 343.5781
454.5260, 338.1719
455.7150, 144.6445
456.9030, 296.9570
458.0910, 483.4453
459.2800, 338.1016
460.4670, 177.9492
461.6550, 213.0273
462.8430, 203.1289
464.0300, 418.4570
465.2180, 299.9648
466.4050, 54.35938
467.5920, 171.4922
468.7790, 73.51172
469.9650, 78.73438
471.1520, 117.8633
472.3380, 85.30859
473.5250, 287.4102
474.7110, 505.3047
475.8970, 493.2891
477.0820, 403.6211
478.2680, 440.9727
479.4540, 400.6172
480.6390, 271.4336
481.8240, 157.5703
483.0090, 13.55469
484.1940, 171.1445
485.3780, 299.2930
486.5630, 132.9062
487.7470, 63.69531
488.9320, 96.64844
490.1160, 9.789063
491.3000, 46.14844
492.4830, 49.31641
493.6670, 35.38281
494.8500, 283.2500
496.0340, 272.2930
497.2170, 63.50781
498.4000, 345.8945
499.5820, 406.4609
500.7650, 22.80078
501.9480, 309.1055
503.1300, 308.1875
504.3120, 427.4336
505.4940, 137.8594
506.6760, 190.4844
507.8580, 280.2812
509.0390, 184.2500
510.2210, 381.4453
511.4020, 204.8281
512.5830, 102.3828
513.7640, 61.11328
514.9450, 58.01172
516.1250, 25.08203
517.3060, 337.3320
518.4860, 187.7656
519.6660, 439.3711
520.8460, 38.13672
522.0260, 223.0781
523.2060, 46.18750
524.3850, 137.4609
525.5650, 227.9102
526.7440, 393.5273
527.9230, 118.3164
529.1020, 195.2734
530.2810, 46.60547
531.4590, 305.6797
532.6380, 167.8711
533.8160, 163.7031
534.9940, 192.4453
536.1720, 238.3555
537.3500, 459.4297
538.5270, 111.6914
539.7050, 12.12109
540.8820, 113.7227
542.0590, 110.4883
543.2360, 351.4219
544.4130, 314.5234
545.5900, 228.7930
546.7660, 560.2266
547.9430, 145.8320
549.1190, 327.5977
550.2950, 429.5312
551.4710, 406.1328
552.6470, 244.3984
553.8220, 379.8281
554.9980, 538.4258
556.1730, 119.1914
557.3480, 541.1250
558.5230, 336.2148
559.6980, 171.4727
560.8730, 323.8984
562.0470, 19.48828
563.2220, 284.2422
564.3960, 212.1602
565.5700, 185.2461
566.7440, 12.48047
567.9170, 28.81641
569.0910, 182.5781
570.2640, 19.30469
571.4380, 168.1953
572.6110, 148.2461
573.7840, 200.4609
574.9570, 22.16406
576.1290, 137.6406
577.3020, 206.1172
578.4740, 25.12891
579.6460, 223.5898
580.8180, 211.7070
581.9900, 153.4727
583.1620, 114.9492
584.3330, 29.54297
585.5040, 181.2930
586.6760, 160.2031
587.8470, 226.2695
589.0180, 68.50781
590.1880, 152.8867
591.3590, 94.42188
592.5290, 137.8750
593.7000, 21.97656
594.8700, 116.0430
596.0400, 281.0039
597.2090, 153.2070
598.3790, 273.5664
599.5490, 238.0742
600.7180, 157.6758
601.8870, 299.4961
603.0560, 195.4297
604.2250, 157.5508
605.3940, 334.8320
606.5620, 157.2695
607.7300, 166.9727
608.8990, 273.7383
610.0670, 247.5430
611.2350, 98.60938
612.4020, 228.2773
613.5700, 384.9102
614.7370, 102.9492
615.9050, 313.6172
617.0720, 450.4336
618.2390, 58.73438
619.4060, 57.37891
620.5720, 157.6172
621.7390, 253.9961
622.9050, 248.4375
624.0710, 296.3047
625.2370, 521.7656
626.4030, 282.6250
627.5690, 195.7461
628.7340, 146.0234
629.9000, 303.7461
631.0650, 687.2930
632.2300, 433.0078
633.3950, 1004.891
634.5600, 694.9141
635.7240, 818.1836
636.8890, 633.4961
638.0530, 704.8125
639.2170, 807.4023
640.3810, 830.6055
641.5450, 1260.098
642.7080, 1200.168
643.8720, 1376.324
645.0350, 1497.617
646.1980, 1976.352
647.3610, 2423.926
648.5240, 2730.648
649.6870, 3133.746
650.8490, 4194.984
652.0120, 4805.109
653.1740, 5531.230
654.3360, 6028.633
655.4980, 6376.965
656.6600, 6597.922
657.8210, 6740.387
658.9830, 6667.406
660.1440, 6496.508
661.3050, 5838.773
662.4660, 5622.168
663.6270, 5087.695
664.7870, 4420.355
665.9480, 3860.160
667.1080, 2935.105
668.2680, 2632.180
669.4280, 2056.586
670.5880, 1723.145
671.7480, 1980.609
672.9070, 1484.723
674.0670, 1362.449
675.2260, 1095.305
676.3850, 889.4609
677.5440, 824.6016
678.7030, 833.8594
679.8610, 678.5352
681.0200, 785.7383
682.1780, 552.8867
683.3360, 410.6406
684.4940, 465.5195
685.6520, 174.5273
686.8090, 553.6562
687.9670, 311.9102
689.1240, 434.2891
690.2810, 43.79297
691.4380, 281.5625
692.5950, 374.3125
693.7520, 289.1953
694.9080, 289.1992
696.0650, 115.3281
697.2210, 394.5781
698.3770, 520.9531
699.5330, 279.5352
700.6880, 299.2305
701.8440, 206.0508
702.9990, 105.9922
704.1550, 246.0547
705.3100, 87.23438
706.4650, 79.94141
707.6190, 273.3516
708.7740, 127.8867
709.9290, 203.5352
711.0830, 270.3086
712.2370, 124.1914
713.3910, 427.1914
714.5450, 171.3320
715.6980, 57.66406
716.8520, 72.63672
718.0050, 63.96484
719.1580, 248.5391
720.3110, 60.13672
721.4640, 33.15625
722.6170, 217.6289
723.7700, 148.5273
724.9220, 275.5391
726.0740, 457.6641
727.2260, 100.8984
728.3780, 249.3789
729.5300, 215.0898
730.6810, 104.6562
731.8330, 35.50391
732.9840, 287.9883
734.1350, 217.8984
735.2860, 204.9023
736.4370, 129.0195
737.5880, 206.2383
738.7380, 10.57812
739.8880, 368.7422
741.0390, 19.28125
742.1890, 325.9297
743.3380, 336.0156
744.4880, 159.8828
745.6380, 267.0977
746.7870, 146.5742
747.9360, 64.23047
749.0850, 324.0156
750.2340, 12.36719
751.3830, 268.8242
752.5310, 30.39062
753.6800, 566.0859
754.8280, 457.8438
755.9760, 1.292969
757.1240, 124.6367
758.2720, 120.3320
759.4190, 264.4023
760.5670, 109.5742
761.7140, 76.86719
762.8610, 433.0430
764.0080, 59.59766
765.1550, 206.7773
766.3020, 259.2148
767.4480, 45.02344
768.5950, 172.0781
769.7410, 229.4531
770.8870, 279.4453
772.0330, 341.3594
773.1780, 117.8555
774.3240, 344.1523
775.4690, 70.54688
776.6140, 200.0234
777.7590, 45.60547
778.9040, 136.2656
780.0490, 130.0273
781.1940, 418.9141
782.3380, 325.8672
783.4820, 77.76953
784.6260, 255.3125
785.7700, 418.4883
786.9140, 204.2383
788.0580, 0.9960940
789.2010, 217.3125
790.3450, 79.71875
791.4880, 348.4336
792.6310, 155.1211
793.7730, 5.792969
794.9160, 47.53516
796.0590, 146.3516
797.2010, 276.5742
798.3430, 301.4023
799.4850, 194.4922
800.6270, 255.0039
801.7690, 351.4102
802.9100, 248.5586
804.0520, 283.0117
805.1930, 335.6367
806.3340, 144.3125
807.4750, 122.0312
808.6160, 278.8320
809.7560, 200.7266
810.8970, 319.7383
812.0370, 294.8320
813.1770, 152.0117
814.3170, 4.550781
815.4570, 176.8086
816.5960, 266.9062
817.7360, 583.3984
818.8750, 121.9766
820.0140, 400.7148
821.1530, 307.4570
822.2920, 248.2891
823.4310, 274.1992
824.5690, 269.1953
825.7070, 303.2773
826.8460, 247.4414
827.9840, 162.9375
829.1220, 307.2695
830.2590, 214.3906
831.3970, 203.8828
832.5340, 310.4648
833.6710, 494.1328
834.8080, 557.1172
835.9450, 360.8242
837.0820, 677.7344
838.2190, 448.7266
839.3550, 466.3555
840.4910, 908.5078
841.6270, 1138.738
842.7630, 1077.020
843.8990, 1096.316
845.0350, 1265.789
846.1700, 1090.336
847.3060, 1331.965
848.4410, 1231.676
849.5760, 1072.457
850.7100, 1042.320
851.8450, 789.2617
852.9800, 684.8398
854.1140, 692.1094
855.2480, 499.8125
856.3820, 498.0898
857.5160, 667.9570
858.6500, 711.3477
859.7830, 311.8594
860.9170, 416.4414
862.0500, 236.1016
863.1830, 599.8438
864.3160, 179.6367
865.4480, 163.5234
866.5810, 216.4922
867.7130, 648.5078
868.8460, 375.5430
869.9780, 226.7617
871.1100, 390.0820
872.2410, 295.4727
873.3730, 446.9375
874.5050, 470.4805
875.6360, 126.1680
876.7670, 645.8516
877.8980, 231.9766
879.0290, 89.81250
880.1590, 303.7109
881.2900, 13.71094
882.4200, 9.757813
883.5500, 212.8438
884.6800, 211.1211
885.8100, 358.3555
886.9400, 402.5430
888.0690, 436.6953
889.1990, 192.8711
890.3280, 453.4102
891.4570, 233.0156
892.5860, 127.8281
893.7140, 349.5625
894.8430, 526.4023
895.9710, 248.3086
897.1000, 403.2109
898.2280, 49.77734
899.3560, 181.8828
900.4830, 124.1797
901.6110, 12.42188
902.7380, 192.7148
903.8660, 195.7773
904.9930, 108.2344
906.1200, 263.7344
907.2460, 34.69531
908.3730, 138.9062
909.5000, 244.4648
910.6260, 349.1992
911.7520, 240.1328
912.8780, 494.0117
914.0040, 486.4883
915.1290, 218.4805
916.2550, 76.51172
917.3800, 388.6602
918.5050, 58.87109
919.6300, 434.8594
920.7550, 330.2031
921.8800, 298.6133
923.0040, 345.1641
924.1290, 544.1641
925.2530, 221.7852
926.3770, 42.62500
927.5010, 54.62500
928.6250, 324.1562
929.7480, 284.9688
930.8720, 585.2461
931.9950, 111.1719
933.1180, 88.77734
934.2410, 175.2812
935.3640, 316.4102
936.4860, 92.60547
937.6090, 34.13281
938.7310, 246.1641
939.8530, 43.52734
940.9750, 143.9453
942.0970, 288.2500
943.2180, 353.3516
944.3400, 407.6484
945.4610, 208.6836
946.5820, 342.4531
947.7030, 331.2852
948.8240, 34.01172
949.9450, 141.9375
951.0650, 64.94922
952.1860, 322.0273
953.3060, 420.1680
954.4260, 131.8906
955.5460, 186.1680
956.6650, 321.5117
957.7850, 297.9219
958.9040, 447.3945
960.0230, 156.9297
961.1420, 293.5312
962.2610, 55.20312
963.3800, 464.7891
964.4990, 23.41406
965.6170, 194.4219
966.7350, 210.3633
967.8530, 548.1250
968.9710, 17.16016
970.0890, 313.7539
971.2070, 203.2344
972.3240, 391.2891
973.4410, 66.40234
974.5580, 313.5820
975.6750, 211.8750
976.7920, 412.1758
977.9090, 422.5703
979.0250, 283.9961
980.1410, 328.6641
981.2580, 512.2109
982.3740, 601.8398
983.4890, 359.5352
984.6050, 211.2891
985.7200, 670.1953
986.8360, 379.0781
987.9510, 618.0430
989.0660, 312.0703
990.1810, 825.1836
991.2950, 718.3555
992.4100, 630.5977
993.5240, 920.9375
994.6390, 801.3555
995.7530, 1080.996
996.8660, 1057.535
997.9800, 1390.133
999.0940, 1324.672
1000.207, 1673.148
1001.320, 2218.930
1002.433, 2793.969
1003.546, 3779.879
1004.659, 4586.848
1005.772, 6392.875
1006.884, 7746.961
1007.996, 9143.102
1009.108, 10296.18
1010.220, 10824.71
1011.332, 11028.59
1012.444, 10344.33
1013.555, 9336.500
1014.666, 8364.621
1015.777, 7033.992
1016.888, 5682.277
1017.999, 4252.012
1019.110, 3759.023
1020.220, 2686.266
1021.331, 2471.570
1022.441, 1811.914
1023.551, 1591.258
1024.661, 1311.500
1025.770, 1492.707
1026.880, 1619.887
1027.989, 1238.250
1029.098, 1038.668
1030.207, 1052.164
1031.316, 1046.398
1032.425, 1054.574
1033.533, 1460.242
1034.642, 1476.418
1035.750, 1882.387
1036.858, 1610.246
1037.966, 2169.164
1039.073, 1696.543
1040.181, 1772.625
1041.288, 1494.941
1042.396, 1518.820
1043.503, 1334.062
1044.610, 972.3594
1045.716, 988.7227
1046.823, 924.1445
1047.929, 764.6211
1049.036, 677.1523
1050.142, 561.2812
1051.248, 475.5586
1052.353, 401.6680
1053.459, 263.4492
1054.564, 331.2734
1055.670, 157.1523
1056.775, 232.1484
1057.880, 198.4531
1058.985, 281.8359
1060.089, 212.7812
1061.194, 276.8906
1062.298, 335.1523
1063.402, 136.4805
1064.506, 324.3828
1065.610, 517.5078
1066.713, 360.6914
1067.817, 312.2266
1068.920, 317.6016
1070.023, 173.9766
1071.126, 215.8750
1072.229, 159.2969
1073.332, 121.9922
1074.435, 147.6211
1075.537, 205.6328
1076.639, 261.5664
1077.741, 241.5430
1078.843, 296.5703
1079.945, 278.5781
1081.046, 309.1484
1082.148, 267.0898
1083.249, 353.2852
1084.350, 400.8711
1085.451, 413.8594
1086.551, 85.63672
1087.652, 270.1953
1088.752, 306.6602
1089.853, 91.27734
1090.953, 187.8359
1092.053, 351.4375
1093.152, 91.08984
1094.252, 193.4102
1095.351, 126.3984
1096.451, 309.1836
1097.550, 179.5547
1098.649, 79.42969
1099.748, 14.93359
1100.846, 219.1289
1101.945, 413.9219
1103.043, 106.1211
1104.141, 113.2383
1105.239, 105.3984
1106.337, 70.04297
1107.434, 57.29297
1108.532, 172.8633
1109.629, 62.19531
1110.726, 144.5703
1111.823, 27.98438
1112.920, 356.4805
1114.017, 318.9297
1115.113, 250.7227
1116.210, 80.30078
1117.306, 50.92578
1118.402, 399.2383
1119.498, 310.9375
1120.593, 387.4102
1121.689, 502.1875
1122.784, 392.2930
1123.879, 200.5820
1124.974, 156.5273
1126.069, 544.2383
1127.164, 37.61719
1128.259, 247.5977
1129.353, 399.6250
1130.447, 241.6992
1131.541, 252.8281
1132.635, 344.0000
1133.729, 30.45312
1134.822, 186.4531
1135.916, 211.7266
1137.009, 293.8945
1138.102, 227.2344
1139.195, 153.6133
1140.288, 17.60938
1141.380, 302.6211
1142.473, 5.886719
1143.565, 5.632813
1144.657, 192.9414
1145.749, 118.3906
1146.841, 250.1797
1147.932, 162.4180
1149.024, 308.5781
1150.115, 36.27734
1151.206, 45.82812
1152.297, 16.91406
1153.388, 20.35547
1154.479, 23.12500
1155.569, 53.78125
1156.659, 106.5117
1157.750, 9.453125
1158.839, 108.3672
1159.929, 262.5742
1161.019, 136.0977
1162.108, 216.3672
1163.198, 139.2266
1164.287, 94.74609
1165.376, 115.9883
1166.465, 2.878906
1167.553, 131.2969
1168.642, 105.7109
1169.730, 198.9414
1170.818, 115.3008
1171.906, 195.3359
1172.994, 232.2148
1174.082, 299.8516
1175.170, 313.6758
1176.257, 293.4180
1177.344, 119.5352
1178.431, 174.9961
1179.518, 410.4844
1180.605, 70.67578
1181.691, 153.2148
1182.778, 13.77734
1183.864, 210.8438
1184.950, 258.7344
1186.036, 127.3086
1187.122, 343.1875
1188.207, 71.85938
1189.292, 68.63672
1190.378, 263.8555
1191.463, 326.5938
1192.548, 125.3867
1193.632, 212.1992
1194.717, 43.03125
1195.801, 169.0625
1196.886, 42.93359
1197.970, 195.1562
1199.054, 202.1484
1200.137, 361.1016
1201.221, 236.9102
1202.305, 26.91406
1203.388, 393.9375
1204.471, 19.38672
1205.554, 95.66016
1206.637, 241.7266
1207.719, 161.1172
1208.802, 215.4414
1209.884, 74.55078
1210.966, 213.8320
1212.048, 339.9688
1213.130, 182.9922
1214.212, 165.1680
1215.293, 144.3711
1216.374, 118.5820
1217.456, 93.01172
1218.536, 227.0273
1219.617, 111.2852
1220.698, 165.7578
1221.778, 345.6367
1222.859, 230.3320
1223.939, 11.17188
1225.019, 267.1445
1226.099, 281.4844
1227.178, 93.95312
1228.258, 245.3320
1229.337, 12.31641
1230.417, 135.5742
1231.496, 205.4648
1232.574, 378.9805
1233.653, 380.6445
1234.732, 246.0039
1235.810, 356.5352
1236.888, 213.0742
1237.966, 102.5977
1239.044, 474.1914
1240.122, 167.7500
1241.199, 290.6367
1242.277, 157.0781
1243.354, 62.29688
1244.431, 110.3125
1245.508, 240.9219
1246.585, 201.5469
1247.661, 64.10156
1248.738, 398.7539
1249.814, 56.41406
1250.890, 333.1328
1251.966, 110.8047
1253.042, 94.48047
1254.117, 61.76172
1255.193, 39.64844
1256.268, 98.74219
1257.343, 32.19531
1258.418, 31.81250
1259.493, 31.43359
1260.567, 255.0469
1261.642, 181.6680
1262.716, 124.4688
1263.790, 59.29297
1264.864, 414.9219
1265.938, 48.56250
1267.011, 244.2812
1268.085, 270.9180
1269.158, 108.5625
1270.231, 62.87109
1271.304, 373.5156
1272.377, 198.7148
1273.450, 154.9766
1274.522, 177.8594
1275.594, 196.9258
1276.666, 0.5000000
1277.738, 94.07031
1278.810, 192.6328
1279.882, 154.0000
1280.953, 227.3203
1282.025, 71.52344
1283.096, 103.8047
1284.167, 104.2969
1285.238, 107.9844
1286.308, 181.9922
1287.379, 229.9531
1288.449, 131.7109
1289.519, 67.78906
1290.589, 132.6680
1291.659, 89.43359
1292.729, 109.1133
1293.798, 154.4922
1294.868, 212.8828
1295.937, 271.6719
1297.006, 152.9023
1298.075, 252.3320
1299.143, 180.7266
1300.212, 69.28125
1301.280, 93.66406
1302.348, 139.0352
1303.416, 106.9453
1304.484, 27.47656
