##NAMES=Dioptase
##RRUFFID=R050010
##IDEAL CHEMISTRY=Cu^2+^SiO_3_&#183;H_2_O
##LOCALITY=Tsumeb mine, Tsumeb, Otavi District, Oshikoto, Namibia
##OWNER=RRUFF
##SOURCE=Eugene Schlepp
##DESCRIPTION=Bluish green single crystals
##STATUS=The identification of this mineral has been confirmed by X-ray diffraction and chemical analysis
##URL=rruff.info/R050010
##MEASURED CHEMISTRY=Cu_1.00_Si_1.00_O_3_Â·H_2_O ; trace amounts of Mg and Al; OH estimated by difference
##PIN_ID=L00476
##ORIENTATION=Laser parallel to c* (0 0 1). Fiducial mark perpendicular to laser is parallel to a [1 0 0]
105.994, 0.000
107.387, 35.841
108.781, 259.426
110.174, 703.330
111.566, 1366.448
112.959, 1925.952
114.351, 3005.137
115.744, 3312.577
117.136, 3556.482
118.527, 3339.925
119.919, 2777.103
121.310, 2743.312
122.701, 2441.925
124.092, 3035.114
125.482, 3414.645
126.873, 5027.293
128.263, 7922.069
129.653, 11682.990
131.042, 16712.590
132.432, 17374.859
133.821, 18040.152
135.210, 19567.984
136.599, 25347.988
137.987, 24859.812
139.376, 16473.141
140.764, 9077.720
142.152, 3933.623
143.539, 1822.918
144.927, 558.934
146.314, 57.283
147.701, 280.094
149.088, 578.237
150.474, 350.165
151.861, 192.887
153.247, 457.590
154.633, 1180.247
156.018, 2622.377
157.404, 4788.271
158.789, 7690.217
160.174, 10584.761
161.559, 10678.470
162.943, 9531.391
164.327, 6143.829
165.711, 4096.463
167.095, 2678.679
168.479, 1560.250
169.862, 1241.227
171.246, 806.654
172.628, 1132.570
174.011, 1621.013
175.394, 2690.012
176.776, 3808.592
178.158, 4559.684
179.540, 5117.480
180.922, 4277.621
182.303, 3773.398
183.684, 2708.912
185.065, 2204.167
186.446, 1629.174
187.826, 1246.941
189.207, 1168.511
190.587, 610.033
191.967, 1036.598
193.346, 1289.230
194.726, 2026.939
196.105, 2571.712
197.484, 2406.541
198.862, 2121.418
200.241, 1312.313
201.619, 1177.176
202.997, 1011.012
204.375, 1116.828
205.753, 1255.779
207.130, 1349.364
208.507, 2050.736
209.884, 2323.331
211.261, 3115.484
212.638, 3881.154
214.014, 4820.400
215.390, 6377.821
216.766, 7585.372
218.141, 10183.050
219.517, 12540.842
220.892, 16120.883
222.267, 18702.490
223.642, 20031.471
225.016, 21212.053
226.391, 18943.857
227.765, 17411.600
229.139, 13899.419
230.512, 11157.315
231.886, 8655.277
233.259, 6223.308
234.632, 4911.403
236.005, 3519.558
237.377, 2907.770
238.749, 2168.034
240.122, 1996.340
241.493, 2398.665
242.865, 1616.993
244.237, 1498.322
245.608, 861.653
246.979, 592.984
248.350, 254.312
249.720, 146.637
251.090, 78.957
252.461, 92.729
253.830, 129.582
255.200, 223.887
256.570, 679.188
257.939, 1191.485
259.308, 2162.776
260.677, 3729.024
262.045, 5817.107
263.414, 9005.059
264.782, 10643.002
266.150, 11300.945
267.517, 10058.884
268.885, 7546.829
270.252, 5814.782
271.619, 4176.511
272.986, 3600.646
274.353, 3036.038
275.719, 2882.134
277.085, 2998.673
278.451, 3005.424
279.817, 3542.297
281.182, 3639.261
282.548, 4306.078
283.913, 4662.676
285.278, 5029.124
286.642, 5885.443
288.007, 6381.706
289.371, 7787.898
290.735, 8384.069
292.099, 8899.602
293.462, 8783.318
294.826, 7376.783
296.189, 6190.360
297.552, 3924.049
298.914, 2735.824
300.277, 1600.666
301.639, 846.552
303.001, 570.474
304.363, 13.576
305.724, 51.662
307.086, 206.798
308.447, 374.045
309.808, 393.448
311.168, 457.017
312.529, 401.382
313.889, 471.428
315.249, 373.154
316.609, 256.988
317.969, 161.366
319.328, 304.158
320.687, 564.659
322.046, 1406.125
323.405, 1859.530
324.764, 2725.863
326.122, 2754.126
327.480, 2437.324
328.838, 1988.458
330.196, 1205.524
331.553, 975.528
332.910, 515.469
334.267, 327.351
335.624, 183.169
336.981, 40.918
338.337, 148.583
339.693, 38.822
341.049, 78.672
342.405, 133.028
343.760, 182.091
345.116, 632.032
346.471, 687.936
347.826, 1342.802
349.180, 1929.631
350.535, 3341.426
351.889, 5522.186
353.243, 8762.912
354.597, 13743.606
355.950, 17044.266
357.304, 18954.893
358.657, 16255.487
360.010, 12066.040
361.362, 8496.562
362.715, 5657.047
364.067, 4297.495
365.419, 3061.910
366.771, 2444.287
368.123, 2026.629
369.474, 1556.841
370.825, 1504.738
372.176, 1240.112
373.527, 1195.940
374.877, 1212.269
376.228, 1190.291
377.578, 1326.300
378.928, 1203.304
380.277, 1565.304
381.627, 1587.298
382.976, 1853.286
384.325, 2233.257
385.674, 2419.156
387.023, 3286.951
388.371, 3764.680
389.719, 4912.382
391.067, 6070.081
392.415, 7937.772
393.762, 10655.457
395.110, 13033.132
396.457, 16780.805
397.804, 18408.465
399.150, 18996.113
400.497, 17813.762
401.843, 14551.394
403.189, 12059.019
404.535, 8866.630
405.881, 6824.238
407.226, 5281.835
408.571, 3859.422
409.916, 3535.999
411.261, 2799.802
412.605, 2797.454
413.950, 2601.761
415.294, 2668.056
416.638, 3016.350
417.981, 2882.795
419.325, 3255.305
420.668, 3182.804
422.011, 3455.294
423.354, 3543.773
424.697, 3429.246
426.039, 3809.708
427.381, 3634.164
428.723, 4068.028
430.065, 4015.652
431.406, 4044.137
432.748, 4321.980
434.089, 4100.100
435.430, 4512.014
436.770, 4149.777
438.111, 4082.904
439.451, 4125.351
440.791, 3681.250
442.131, 3777.738
443.471, 3352.033
444.810, 3311.487
446.149, 3247.964
447.488, 3103.693
448.827, 3308.613
450.166, 3141.846
451.504, 3483.707
452.842, 3576.472
454.180, 3492.402
455.518, 3614.569
456.855, 3067.095
458.193, 3048.380
459.530, 2451.282
460.867, 2090.028
462.203, 1847.815
463.540, 1469.533
464.876, 1425.306
466.212, 1103.618
467.548, 1090.420
468.883, 958.403
470.219, 834.811
471.554, 853.926
472.889, 562.979
474.224, 659.096
475.558, 548.014
476.892, 497.818
478.227, 561.299
479.561, 397.731
480.894, 487.797
482.228, 399.106
483.561, 420.385
484.894, 649.634
486.227, 557.853
487.559, 688.042
488.892, 673.202
490.224, 556.332
491.556, 554.434
492.888, 459.506
494.220, 503.288
495.551, 373.070
496.882, 518.163
498.213, 440.383
499.544, 417.764
500.874, 561.151
502.205, 515.676
503.535, 660.606
504.865, 772.435
506.194, 840.240
507.524, 1020.022
508.853, 944.780
510.182, 1344.515
511.511, 1166.227
512.840, 1381.916
514.168, 1551.594
515.496, 1519.250
516.824, 1764.889
518.152, 1506.505
519.480, 1657.098
520.807, 1722.679
522.134, 1385.236
523.461, 1528.776
524.788, 1343.301
526.114, 1427.804
527.441, 1214.318
528.767, 1073.812
530.093, 1213.284
531.418, 896.741
532.744, 974.181
534.069, 725.608
535.394, 630.026
536.719, 716.444
538.044, 471.868
539.368, 577.280
540.693, 430.697
542.017, 424.104
543.340, 413.510
544.664, 289.922
545.987, 404.323
547.311, 477.712
548.634, 477.096
549.956, 584.470
551.279, 555.839
552.601, 818.200
553.923, 877.563
555.245, 1119.919
556.567, 1440.263
557.889, 1688.606
559.210, 2179.938
560.531, 2309.269
561.852, 2656.597
563.173, 2679.915
564.493, 2467.232
565.813, 2638.542
567.133, 2157.841
568.453, 2300.136
569.773, 2150.420
571.092, 2126.702
572.412, 2261.993
573.731, 1876.302
575.049, 1880.682
576.368, 1572.069
577.686, 1247.457
579.005, 1044.833
580.323, 636.200
581.640, 545.555
582.958, 406.900
584.275, 372.234
585.593, 318.557
586.909, 99.869
588.226, 154.166
589.543, 5.450
590.859, 94.711
592.175, 34.957
593.491, 56.814
594.807, 88.359
596.122, 77.482
597.438, 67.389
598.753, 91.356
600.068, 149.396
601.382, 67.539
602.697, 134.741
604.011, 136.038
605.325, 45.430
606.639, 192.869
607.952, 71.432
609.266, 194.055
610.579, 145.802
611.892, 133.647
613.205, 106.584
614.518, 49.598
615.830, 94.658
617.142, 57.788
618.454, 24.588
619.766, 81.820
621.078, 85.598
622.389, 25.366
623.700, 139.123
625.011, 160.928
626.322, 177.792
627.632, 308.757
628.943, 215.867
630.253, 386.127
631.563, 333.554
632.872, 352.131
634.182, 498.871
635.491, 496.746
636.800, 703.723
638.109, 771.778
639.418, 833.832
640.726, 1141.880
642.035, 1180.921
643.343, 1434.956
644.651, 1611.985
645.958, 1986.008
647.266, 2497.024
648.573, 2848.036
649.880, 3727.041
651.187, 4700.040
652.494, 5965.035
653.800, 8090.030
655.106, 9845.035
656.412, 12970.066
657.718, 14685.106
659.024, 16170.198
660.329, 16165.309
661.634, 13970.433
662.939, 12455.565
664.244, 9910.694
665.549, 7915.821
666.853, 6660.941
668.157, 5126.057
669.461, 4488.169
670.765, 3553.051
672.069, 2968.155
673.372, 2746.338
674.675, 2101.435
675.978, 2108.527
677.281, 1794.703
678.583, 1534.787
679.886, 1373.513
681.188, 1186.039
682.490, 1191.112
683.792, 984.712
685.093, 873.857
686.394, 949.920
687.696, 729.929
688.997, 892.983
690.297, 660.719
691.598, 654.365
692.898, 630.659
694.198, 495.813
695.498, 613.849
696.798, 505.624
698.097, 436.060
699.397, 599.264
700.696, 388.372
701.995, 565.388
703.293, 523.399
704.592, 452.482
705.890, 542.485
707.188, 482.954
708.486, 657.284
709.784, 652.062
711.081, 579.607
712.378, 653.588
713.675, 728.569
714.972, 900.542
716.269, 873.227
717.565, 965.415
718.862, 1177.374
720.158, 1170.817
721.453, 1436.171
722.749, 1535.117
724.045, 1769.513
725.340, 2135.450
726.635, 2254.383
727.930, 2900.311
729.224, 3181.234
730.519, 4631.682
731.813, 4693.597
733.107, 5149.507
734.401, 6584.411
735.694, 7269.311
736.988, 8514.255
738.281, 10219.146
739.574, 10114.032
740.867, 11598.913
742.160, 11163.791
743.452, 10188.245
744.744, 9982.928
746.036, 8076.737
747.328, 7391.174
748.620, 6285.311
749.911, 5625.617
751.202, 4776.032
752.493, 3557.039
753.784, 3216.678
755.075, 2758.814
756.365, 2214.312
757.655, 2218.954
758.945, 1643.387
760.235, 1569.749
761.525, 1403.812
762.814, 1087.635
764.103, 1108.100
765.392, 863.889
766.681, 908.731
767.969, 826.363
769.258, 626.724
770.546, 781.692
771.834, 488.868
773.122, 517.392
774.409, 562.037
775.697, 416.607
776.984, 483.209
778.271, 386.575
779.558, 366.434
780.844, 519.339
782.131, 329.250
783.417, 509.167
784.703, 311.089
785.989, 374.016
787.274, 427.947
788.560, 246.880
789.845, 346.816
791.130, 378.756
792.415, 317.699
793.699, 445.642
794.983, 265.586
796.268, 366.533
797.552, 290.480
798.835, 193.430
800.119, 415.380
801.402, 233.333
802.686, 319.287
803.969, 271.242
805.251, 232.200
806.534, 279.159
807.816, 143.121
809.098, 204.085
810.380, 193.053
811.662, 101.023
812.944, 212.996
814.225, 143.974
815.506, 187.958
816.787, 176.944
818.068, 88.932
819.349, 190.921
820.629, 39.913
821.909, 123.905
823.189, 96.901
824.469, 51.102
825.749, 134.872
827.028, 17.153
828.307, 36.814
829.586, 63.783
830.865, 37.246
832.144, 111.708
833.422, 7.335
834.700, 24.383
835.978, 52.558
837.256, 130.499
838.534, 6.381
839.811, 26.262
841.088, 13.854
842.365, 40.022
843.642, 8.098
844.919, 6.223
846.195, 40.350
847.472, 75.496
848.748, 26.326
850.023, 68.850
851.299, 2.055
852.575, 39.261
853.850, 75.484
855.125, 149.261
856.400, 249.008
857.674, 17.239
858.949, 55.508
860.223, 25.742
861.497, 1.000
862.771, 52.260
864.045, 6.540
865.318, 41.179
866.591, 37.098
867.864, 56.612
869.137, 31.674
870.410, 41.970
871.682, 56.717
872.955, 47.589
874.227, 3.913
875.499, 58.763
876.770, 27.555
878.042, 45.119
879.313, 7.797
880.584, 31.482
881.855, 40.171
883.126, 30.132
884.396, 62.556
885.667, 23.250
886.937, 58.949
888.207, 90.655
889.476, 3.368
890.746, 173.085
892.015, 93.809
893.284, 48.539
894.553, 207.276
895.822, 153.019
897.090, 262.771
898.359, 265.532
899.627, 216.304
900.895, 421.086
902.163, 273.878
903.430, 463.700
904.698, 630.531
905.965, 611.397
907.232, 889.295
908.499, 913.232
909.765, 1121.223
911.032, 1401.246
912.298, 1673.319
913.564, 1659.442
914.830, 1617.592
916.095, 1534.807
917.361, 1462.056
918.626, 1141.369
919.891, 1076.735
921.156, 914.150
922.420, 750.608
923.685, 810.093
924.949, 600.617
926.213, 599.169
927.477, 558.742
928.740, 465.325
930.004, 597.917
931.267, 501.519
932.530, 512.130
933.793, 609.757
935.056, 455.391
936.318, 517.034
937.581, 456.685
938.843, 458.345
940.104, 612.015
941.366, 444.693
942.628, 473.909
943.889, 548.606
945.150, 509.312
946.411, 671.027
947.672, 613.751
948.932, 669.483
950.193, 713.229
951.453, 734.983
952.713, 898.750
953.973, 873.527
955.232, 985.313
956.491, 1167.115
957.751, 1102.925
959.010, 1184.852
960.268, 1092.685
961.527, 995.710
962.785, 1036.799
964.044, 836.682
965.302, 802.348
966.559, 750.114
967.817, 648.024
969.075, 787.945
970.332, 728.877
971.589, 790.818
972.846, 830.769
974.102, 763.727
975.359, 812.695
976.615, 878.899
977.871, 798.886
979.127, 972.800
980.383, 929.812
981.638, 1095.843
982.893, 1034.799
984.149, 1110.862
985.404, 1378.290
986.658, 1259.930
987.913, 1500.030
989.167, 1644.610
990.421, 1640.661
991.675, 2090.803
992.929, 2160.006
994.183, 2492.189
995.436, 3056.702
996.689, 3317.320
997.942, 4138.303
999.195, 4891.431
1000.448, 5883.690
1001.700, 7916.221
1002.952, 8722.098
1004.204, 10266.225
1005.456, 10718.452
1006.708, 9654.792
1007.959, 9391.144
1009.210, 8336.427
1010.461, 7772.811
1011.712, 7717.750
1012.963, 7333.833
1014.213, 7737.488
1015.464, 7773.384
1016.714, 7409.855
1017.964, 7671.703
1019.214, 7420.826
1020.463, 7485.623
1021.712, 7559.921
1022.962, 6986.458
1024.210, 7340.521
1025.459, 6866.681
1026.708, 6463.256
1027.956, 6598.392
1029.204, 5631.992
1030.452, 5479.603
1031.700, 4864.224
1032.948, 4084.855
1034.195, 3873.970
1035.442, 3206.623
1036.689, 2836.379
1037.936, 2676.962
1039.183, 2096.648
1040.429, 2113.295
1041.676, 1777.002
1042.922, 1577.721
1044.168, 1604.451
1045.413, 1289.190
1046.659, 1277.940
1047.904, 1215.702
1049.149, 998.474
1050.394, 1005.255
1051.639, 870.047
1052.884, 814.849
1054.128, 846.661
1055.372, 686.483
1056.616, 725.315
1057.860, 677.156
1059.104, 616.006
1060.347, 631.865
1061.590, 513.733
1062.833, 505.609
1064.076, 510.493
1065.319, 473.386
1066.561, 466.286
1067.803, 499.194
1069.046, 412.337
1070.287, 420.384
1071.529, 299.959
1072.771, 331.894
1074.012, 352.835
1075.253, 234.782
1076.494, 300.737
1077.735, 281.698
1078.975, 302.827
1080.216, 279.647
1081.456, 185.908
1082.696, 189.480
1083.936, 214.469
1085.175, 136.657
1086.415, 220.671
1087.654, 117.902
1088.893, 139.376
1090.132, 120.406
1091.371, 29.374
1092.609, 112.107
1093.847, 114.286
1095.085, 21.480
1096.323, 141.587
1097.561, 25.724
1098.799, 41.119
1100.036, 110.301
1101.273, 38.186
1102.510, 84.716
1103.747, 40.945
1104.983, 56.615
1106.220, 64.865
1107.456, 9.859
1108.692, 15.417
1109.928, 14.253
1111.163, 16.532
1112.399, 40.503
1113.634, 35.234
1114.869, 37.700
1116.104, 23.436
1117.339, 10.034
1118.573, 81.644
1119.808, 57.971
1121.042, 47.275
1122.276, 281.584
1123.509, 274.783
1124.743, 220.197
1125.976, 96.517
1127.210, 50.029
1128.443, 106.361
1129.675, 57.418
1130.908, 58.186
1132.141, 86.680
1133.373, 66.083
1134.605, 72.833
1135.837, 87.738
1137.068, 71.248
1138.300, 90.653
1139.531, 134.568
1140.762, 73.066
1141.993, 150.357
1143.224, 158.522
1144.455, 95.898
1145.685, 131.573
1146.915, 132.049
1148.145, 166.731
1149.375, 116.942
1150.605, 110.326
1151.834, 210.504
1153.063, 129.024
1154.292, 155.218
1155.521, 223.246
1156.750, 89.599
1157.978, 220.987
1159.207, 149.316
1160.435, 216.789
1161.663, 251.074
1162.891, 141.289
1164.118, 209.914
1165.345, 198.580
1166.573, 131.843
1167.800, 220.767
1169.026, 103.372
1170.253, 213.973
1171.480, 205.243
1172.706, 175.756
1173.932, 216.376
1175.158, 216.083
1176.383, 135.294
1177.609, 186.578
1178.834, 179.778
1180.059, 122.909
1181.284, 188.231
1182.509, 147.349
1183.734, 111.570
1184.958, 126.961
1186.182, 143.160
1187.406, 175.361
1188.630, 71.662
1189.854, 108.985
1191.077, 114.222
1192.301, 34.405
1193.524, 88.498
1194.747, 83.985
1195.969, 44.194
1197.192, 97.162
1198.414, 27.458
1199.636, 55.531
1200.858, 74.834
1202.080, 72.943
1203.302, 67.005
1204.523, 110.132
1205.744, 66.116
1206.966, 119.143
1208.186, 79.472
1209.407, 100.454
1210.628, 118.286
1211.848, 97.547
1213.068, 123.479
1214.288, 114.564
1215.508, 89.529
1216.727, 155.583
1217.947, 82.531
1219.166, 88.482
1220.385, 151.515
1221.604, 91.758
1222.822, 112.762
1224.041, 84.710
1225.259, 8.706
1226.477, 72.354
1227.695, 18.510
1228.913, 19.586
1230.130, 84.358
1231.348, 10.947
1232.565, 72.758
1233.782, 9.704
1234.999, 1.642
1236.215, 74.338
1237.432, 19.004
1238.648, 2.559
1239.864, 32.195
1241.080, 30.854
1242.296, 53.372
1243.511, 48.938
1244.726, 9.865
1245.942, 42.663
1247.156, 0.878
1248.371, 6.874
1249.586, 37.187
1250.800, 12.121
1252.014, 36.701
1253.228, 32.139
1254.442, 4.698
1255.656, 24.596
1256.869, 11.195
1258.083, 47.916
1259.296, 41.325
1260.509, 12.897
1261.722, 69.305
1262.934, 10.339
1264.147, 10.504
1265.359, 29.588
1266.571, 33.536
1267.783, 33.688
1268.994, 60.532
1270.206, 24.484
1271.417, 36.299
1272.628, 20.197
1273.839, 1.977
1275.050, 29.197
1276.260, 10.656
1277.471, 19.592
1278.681, 32.174
1279.891, 7.221
1281.101, 8.532
1282.310, 26.090
1283.520, 16.372
1284.729, 10.268
1285.938, 30.797
1287.147, 61.667
1288.356, 4.794
1289.564, 14.813
1290.773, 3.424
1291.981, 35.910
1293.189, 2.779
1294.397, 5.614
1295.604, 52.869
1296.812, 25.897
1298.019, 37.300
1299.226, 9.528
1300.433, 12.637
1301.640, 64.749
1302.846, 28.167
1304.053, 27.122
1305.259, 44.884
1306.465, 26.137
1307.671, 99.771
1308.876, 0.650
1310.082, 30.498
1311.287, 87.328
1312.492, 3.883
1313.697, 34.867
1314.902, 35.641
1316.106, 8.332
1317.310, 42.986
1318.515, 34.611
1319.719, 29.206
1320.922, 96.790
1322.126, 77.323
1323.329, 95.828
1324.533, 110.306
1325.736, 62.758
1326.939, 111.183
1328.141, 84.590
1329.344, 50.961
1330.546, 85.304
1331.748, 82.619
1332.950, 58.909
1334.152, 55.171
1335.354, 67.405
1336.555, 77.612
1337.757, 96.877
1338.958, 37.030
1340.159, 64.083
1341.359, 147.250
1342.560, 50.320
1343.760, 88.362
1344.960, 47.376
1346.160, 74.364
1347.360, 82.326
1348.560, 64.260
1349.759, 95.168
1350.959, 82.051
1352.158, 39.908
1353.357, 86.739
1354.555, 135.546
1355.754, 42.328
1356.952, 89.084
1358.151, 56.815
1359.349, 74.522
1360.546, 57.203
1361.744, 71.858
1362.941, 67.490
1364.139, 54.781
1365.336, 69.684
1366.533, 30.247
1367.730, 59.954
1368.926, 52.471
1370.123, 119.803
1371.319, 37.279
1372.515, 57.600
1373.711, 48.447
1374.906, 5.152
1376.102, 8.965
1377.297, 44.381
1378.492, 43.496
1379.687, 69.360
1380.882, 72.671
1382.077, 31.144
1383.271, 74.924
1384.465, 67.816
1385.659, 97.311
1386.853, 44.933
1388.047, 36.003
1389.240, 82.481
1390.434, 94.772
1391.627, 39.521
1392.820, 139.545
1394.013, 42.585
1395.205, 32.362
1396.398, 71.459
1397.590, 108.517
1398.782, 98.313
1399.974, 63.969
1401.166, 42.823
1402.357, 78.893
1403.549, 53.779
1404.740, 57.390
1405.931, 126.896
1407.122, 56.987
1408.313, 68.695
1409.503, 99.436
1410.693, 44.255
1411.883, 99.069
1413.073, 66.506
1414.263, 91.897
1415.453, 47.971
1416.642, 57.480
1417.831, 62.118
1419.020, 32.505
1420.209, 48.693
1421.398, 36.818
1422.587, 74.154
1423.775, 29.012
1424.963, 75.822
1426.151, 89.722
1427.339, 36.150
1428.526, 56.601
1429.714, 48.852
1430.901, 56.419
1432.088, 67.219
1433.275, 58.564
1434.462, 92.604
1435.648, 100.843
1436.835, 37.050
1438.021, 66.713
1439.207, 110.142
1440.393, 85.784
1441.579, 154.517
1442.764, 53.176
1443.949, 82.703
1445.135, 105.579
1446.320, 66.823
1447.504, 93.142
1448.689, 114.172
1449.873, 75.087
1451.058, 52.501
1452.242, 90.726
1453.426, 39.007
1454.609, 63.165
1455.793, 62.864
1456.976, 25.935
1458.159, 81.585
1459.342, 81.958
1460.525, 70.845
1461.708, 69.508
1462.890, 25.672
1464.073, 38.828
1465.255, 95.707
1466.437, 48.717
1467.619, 81.541
1468.800, 69.673
1469.982, 21.628
1471.163, 94.473
1472.344, 75.259
1473.525, 72.130
1474.706, 115.410
1475.886, 85.088
1477.066, 64.863
1478.247, 112.846
1479.427, 1.153
1480.607, 75.418
1481.786, 73.276
1482.966, 36.993
1484.145, 36.754
1485.324, 46.488
1486.503, 51.312
1487.682, 51.261
1488.860, 57.547
1490.039, 47.930
1491.217, 48.057
1492.395, 42.767
1493.573, 40.052
1494.751, 30.207
1495.928, 27.375
1497.106, 46.506
1498.283, 21.713
1499.460, 1.932
1500.637, 45.188
1501.814, 20.904
1502.990, 27.218
1504.166, 44.597
1505.342, 4.042
1506.518, 65.559
1507.694, 30.150
1508.870, 5.184
1510.045, 25.560
1511.221, 36.399
1512.396, 23.385
1513.571, 37.557
1514.745, 13.912
1515.920, 1.842
1517.094, 40.906
1518.269, 7.897
1519.443, 23.179
1520.616, 28.572
1521.790, 0.000
##END=



