##NAMES=Diopside
##RRUFFID=R060861
##IDEAL CHEMISTRY=CaMgSi_2_O_6_
##LOCALITY=Red Mountain Volcano, NW of Flagstaff, Arizona, USA
##OWNER=RRUFF
##SOURCE=Jennifer Sano
##DESCRIPTION=Worn brown fragment
##STATUS=The identification of this mineral has been confirmed by X-ray diffraction and chemical analysis
##URL=rruff.info/R060861
##MEASURED CHEMISTRY=(Ca_0.72_Fe^2+^_0.23_Na_0.05_)_Σ=1_(Mg_0.80_Al_0.15_Ti_0.03_Fe^3+^_0.02_)_Σ=1_(Si_1.82_Al_0.18_)_Σ=2_O_6_
##PIN_ID=M01599
##ORIENTATION=Laser parallel to (1 0 1). Fiducial mark perpendicular to laser is parallel to b [0 1 0]
183.3280, 0.0000000E+00
184.5600, 40.73047
185.7910, 283.2861
187.0220, 292.2891
188.2540, 424.3408
189.4840, 704.6680
190.7150, 633.5244
191.9460, 927.5312
193.1760, 1005.211
194.4060, 839.6504
195.6360, 1192.007
196.8660, 1187.759
198.0960, 1095.270
199.3250, 1151.811
200.5540, 1161.059
201.7830, 1250.752
203.0120, 1091.681
204.2400, 753.7803
205.4690, 242.9854
206.6970, 44.32324
207.9250, 214.3232
209.1530, 99.07227
210.3800, 83.37793
211.6080, 166.9766
212.8350, 332.6787
214.0620, 712.4424
215.2880, 705.2275
216.5150, 1556.995
217.7410, 1855.714
218.9680, 1698.354
220.1940, 2174.896
221.4190, 2283.299
222.6450, 2262.511
223.8700, 2598.486
225.0960, 2748.637
226.3210, 2538.302
227.5450, 2530.906
228.7700, 2512.334
229.9940, 2401.656
231.2190, 2195.620
232.4430, 1977.205
233.6660, 1765.396
234.8900, 1541.177
236.1140, 1416.530
237.3370, 1270.445
238.5600, 1088.909
239.7830, 909.9072
241.0050, 863.4297
242.2280, 762.4619
243.4500, 731.9912
244.6720, 639.0068
245.8940, 646.5576
247.1160, 643.4570
248.3370, 688.8760
249.5580, 686.6016
250.7790, 888.0557
252.0000, 719.8154
253.2210, 795.0205
254.4410, 835.7090
255.6620, 738.9229
256.8820, 664.5869
258.1020, 859.4238
259.3210, 759.3750
260.5410, 646.8643
261.7600, 710.2070
262.9790, 296.9150
264.1980, 115.8330
265.4170, 78.02930
266.6360, 57.33789
267.8540, 73.05859
269.0720, 202.3525
270.2900, 26.56250
271.5080, 116.5137
272.7260, 205.2002
273.9430, 55.62207
275.1600, 80.22266
276.3770, 195.3350
277.5940, 228.7148
278.8100, 474.3574
280.0270, 392.2637
281.2430, 797.4316
282.4590, 840.8604
283.6750, 1161.548
284.8910, 1337.494
286.1060, 1796.695
287.3210, 1911.154
288.5360, 2108.865
289.7510, 2565.827
290.9660, 2837.038
292.1800, 3258.499
293.3950, 3667.201
294.6090, 4098.147
295.8230, 4529.330
297.0360, 4849.750
298.2500, 5448.395
299.4630, 5491.234
300.6760, 5940.270
301.8890, 6419.479
303.1020, 6689.909
304.3150, 7103.562
305.5270, 7573.008
306.7390, 8007.020
307.9510, 8581.835
309.1630, 9100.355
310.3750, 9721.080
311.5860, 10456.01
312.7970, 11106.15
314.0080, 11979.48
315.2190, 12686.01
316.4300, 13535.83
317.6400, 14554.79
318.8510, 15712.19
320.0610, 16629.64
321.2710, 17758.61
322.4800, 18825.39
323.6900, 19899.08
324.8990, 20857.74
326.1080, 21784.31
327.3170, 22624.70
328.5260, 23218.83
329.7340, 23958.16
330.9430, 24411.42
332.1510, 24922.27
333.3590, 25133.58
334.5670, 25085.25
335.7740, 25299.20
336.9820, 25049.85
338.1890, 24811.69
339.3960, 24345.29
340.6030, 23932.17
341.8100, 23189.89
343.0160, 22917.59
344.2220, 22872.71
345.4280, 22270.80
346.6340, 22917.20
347.8400, 22826.89
349.0460, 22123.86
350.2510, 22421.12
351.4560, 22252.63
352.6610, 21635.67
353.8660, 21482.03
355.0700, 21253.68
356.2750, 21548.17
357.4790, 21366.88
358.6830, 21206.81
359.8870, 21122.97
361.0910, 21133.34
362.2940, 20930.91
363.4970, 20746.70
364.7000, 20514.68
365.9030, 20171.86
367.1060, 19897.34
368.3080, 19376.77
369.5110, 19273.51
370.7130, 18821.41
371.9150, 18606.41
373.1170, 18357.57
374.3180, 18173.82
375.5200, 18144.26
376.7210, 18159.85
377.9220, 18181.62
379.1230, 18383.61
380.3230, 18485.64
381.5240, 18994.88
382.7240, 19716.28
383.9240, 20330.83
385.1240, 21336.53
386.3240, 21986.37
387.5230, 23165.36
388.7230, 23932.48
389.9220, 25057.74
391.1210, 25654.13
392.3200, 26335.67
393.5180, 26620.33
394.7170, 26714.12
395.9150, 27075.03
397.1130, 26607.07
398.3110, 25673.22
399.5080, 24821.50
400.7060, 23344.88
401.9030, 21899.39
403.1000, 20061.99
404.2970, 18240.71
405.4940, 16584.54
406.6910, 14664.48
407.8870, 12843.52
409.0830, 11335.66
410.2790, 9892.914
411.4750, 8440.260
412.6710, 7483.828
413.8660, 6347.689
415.0610, 5542.095
416.2560, 4686.217
417.4510, 4170.414
418.6460, 3663.773
419.8410, 3097.790
421.0350, 2842.897
422.2290, 2342.092
423.4230, 2096.371
424.6170, 1927.734
425.8100, 1690.181
427.0040, 1365.707
428.1970, 1266.312
429.3900, 1137.994
430.5830, 1064.752
431.7760, 970.1133
432.9680, 840.4863
434.1610, 757.4590
435.3530, 698.5000
436.5450, 479.6074
437.7360, 423.9004
438.9280, 202.0166
440.1190, 256.3184
441.3110, 104.6875
442.5020, 114.1279
443.6930, 142.6621
444.8830, 58.57422
446.0740, 76.11230
447.2640, 2.053711
448.4540, 15.16113
449.6440, 20.43945
450.8340, 28.10840
452.0240, 11.84473
453.2130, 322.7793
454.4020, 203.9941
455.5910, 363.0703
456.7800, 386.1738
457.9690, 508.4258
459.1570, 534.4404
460.3460, 786.6309
461.5340, 921.8350
462.7220, 1196.190
463.9090, 1292.730
465.0970, 1430.412
466.2840, 1399.981
467.4720, 1446.429
468.6590, 1507.208
469.8460, 1681.201
471.0320, 1785.181
472.2190, 1571.414
473.4050, 1831.252
474.5910, 1895.849
475.7770, 1696.662
476.9630, 1800.258
478.1490, 1752.768
479.3340, 1872.070
480.5190, 1768.255
481.7040, 1913.811
482.8890, 1832.354
484.0740, 1856.173
485.2580, 1839.372
486.4430, 1608.565
487.6270, 1870.752
488.8110, 1746.929
489.9950, 2007.094
491.1780, 1948.243
492.3620, 1953.377
493.5450, 1966.490
494.7280, 1923.584
495.9110, 2071.669
497.0940, 1905.780
498.2760, 1995.891
499.4590, 2118.969
500.6410, 1934.017
501.8230, 1959.029
503.0050, 2040.008
504.1860, 2096.948
505.3680, 2187.849
506.5490, 2227.709
507.7300, 2527.525
508.9110, 2618.295
510.0920, 2668.018
511.2730, 2987.692
512.4530, 2996.946
513.6330, 3364.888
514.8130, 3069.404
515.9930, 3434.865
517.1730, 3262.510
518.3520, 3788.615
519.5320, 3938.900
520.7110, 4117.123
521.8900, 4337.281
523.0690, 4485.374
524.2470, 4701.398
525.4260, 4946.356
526.6040, 5109.771
527.7820, 5210.055
528.9600, 5448.794
530.1380, 5595.457
531.3150, 5673.043
532.4930, 5836.551
533.6700, 5875.979
534.8470, 6100.323
536.0240, 6113.584
537.2000, 6202.762
538.3770, 6212.854
539.5530, 6315.854
540.7290, 6331.767
541.9050, 6247.589
543.0810, 6294.320
544.2570, 6268.837
545.4320, 6244.496
546.6080, 6275.940
547.7830, 6329.287
548.9580, 6365.534
550.1320, 6389.680
551.3070, 6537.723
552.4810, 6460.666
553.6550, 6439.506
554.8300, 6659.244
556.0030, 6615.893
557.1770, 6503.432
558.3510, 6591.870
559.5240, 6400.214
560.6970, 6241.447
561.8700, 6041.565
563.0430, 5821.971
564.2160, 5645.459
565.3880, 5372.229
566.5600, 5079.879
567.7320, 4878.409
568.9040, 4616.927
570.0760, 4265.104
571.2480, 4175.265
572.4190, 3946.302
573.5900, 3766.213
574.7610, 3299.996
575.9320, 3153.650
577.1030, 2965.176
578.2740, 2788.570
579.4440, 2712.834
580.6140, 2401.250
581.7840, 2124.524
582.9540, 1791.478
584.1240, 1693.750
585.2930, 1533.937
586.4630, 1259.260
587.6320, 1086.133
588.8010, 830.7246
589.9700, 706.4424
591.1380, 584.1084
592.3070, 356.1016
593.4750, 152.1943
594.6430, 46.63672
595.8110, 23.06445
596.9790, 190.9062
598.1460, 215.8662
599.3140, 346.0566
600.4810, 325.2637
601.6480, 267.6133
602.8150, 388.4707
603.9820, 333.9375
605.1480, 276.0264
606.3150, 154.4307
607.4810, 145.1289
608.6470, 81.52344
609.8130, 83.48730
610.9790, 62.26855
612.1440, 128.4854
613.3100, 303.2939
614.4750, 373.6953
615.6400, 435.9561
616.8050, 480.7197
617.9690, 636.8545
619.1340, 746.8994
620.2980, 978.6738
621.4620, 937.2158
622.6260, 1085.521
623.7900, 1132.600
624.9540, 1386.456
626.1170, 1423.096
627.2810, 1548.522
628.4440, 1805.732
629.6070, 2113.729
630.7690, 2391.508
631.9320, 2545.072
633.0950, 2806.420
634.2570, 3184.553
635.4190, 3363.469
636.5810, 3742.168
637.7430, 4426.652
638.9040, 4794.920
640.0660, 5289.971
641.2270, 5908.807
642.3880, 6627.422
643.5490, 7404.825
644.7100, 7996.010
645.8700, 9139.979
647.0310, 10051.73
648.1910, 11068.27
649.3510, 12450.59
650.5110, 14180.70
651.6710, 16104.59
652.8300, 18048.27
653.9900, 20333.72
655.1490, 22666.98
656.3080, 25512.01
657.4670, 28835.82
658.6250, 31788.43
659.7840, 35061.82
660.9420, 38158.00
662.1010, 42077.96
663.2590, 44682.72
664.4170, 47205.26
665.5740, 49099.59
666.7320, 49715.71
667.8890, 49943.62
669.0460, 48826.33
670.2030, 47067.81
671.3600, 44920.10
672.5170, 41197.17
673.6740, 37990.04
674.8300, 34553.70
675.9860, 30992.15
677.1420, 27652.40
678.2980, 24650.44
679.4540, 21991.28
680.6090, 19583.91
681.7650, 17520.35
682.9200, 15522.57
684.0750, 13706.60
685.2300, 12382.42
686.3840, 11105.05
687.5390, 9791.478
688.6930, 8579.705
689.8470, 7828.736
691.0010, 7080.570
692.1550, 6298.207
693.3090, 5799.648
694.4620, 5312.896
695.6160, 4831.953
696.7690, 4338.814
697.9220, 4035.484
699.0750, 3614.963
700.2280, 3339.253
701.3800, 3121.353
702.5320, 2865.266
703.6850, 2627.991
704.8370, 2767.530
705.9880, 3017.886
707.1400, 1936.057
708.2920, 2141.045
709.4430, 1690.852
710.5940, 1482.478
711.7450, 1429.924
712.8960, 1145.822
714.0470, 1024.447
715.1970, 865.1982
716.3480, 723.9385
717.4980, 649.5049
718.6480, 564.8965
719.7980, 397.1143
720.9470, 335.1445
722.0970, 176.9775
723.2460, 13.57227
724.3960, 2.855469
725.5450, 110.1729
726.6940, 163.5684
727.8420, 205.5938
728.9910, 229.5449
730.1390, 311.1523
731.2870, 415.5205
732.4350, 511.1553
733.5830, 492.3809
734.7310, 532.7676
735.8790, 540.7822
737.0260, 562.6411
738.1730, 529.9229
739.3200, 622.6416
740.4670, 612.6826
741.6140, 654.2217
742.7610, 758.1650
743.9070, 658.6191
745.0530, 651.2568
746.1990, 606.0625
747.3450, 513.4766
748.4910, 473.9648
749.6370, 457.4453
750.7820, 340.0205
751.9270, 269.3408
753.0720, 237.5420
754.2170, 167.0752
755.3620, 71.53809
756.5070, 35.06738
757.6510, 151.8037
758.7950, 237.5674
759.9400, 364.8877
761.0840, 321.4092
762.2270, 663.0684
763.3710, 789.5410
764.5140, 816.9541
765.6580, 769.3105
766.8010, 1056.613
767.9440, 1071.862
769.0870, 1065.063
770.2290, 1344.219
771.3720, 1265.328
772.5140, 1189.399
773.6560, 1372.430
774.7990, 1295.425
775.9400, 1527.388
777.0820, 1473.319
778.2240, 1432.222
779.3650, 1588.100
780.5060, 1546.445
781.6470, 1643.789
782.7880, 1645.605
783.9290, 1490.408
785.0690, 1584.197
786.2100, 1468.977
787.3500, 1613.748
788.4900, 1636.514
789.6300, 1683.278
790.7700, 1703.633
791.9090, 1617.810
793.0490, 1653.581
794.1880, 1710.360
795.3270, 1634.148
796.4660, 1508.951
797.6050, 1619.768
798.7440, 1854.603
799.8820, 1650.457
801.0200, 1794.334
802.1590, 1821.234
803.2970, 1861.163
804.4340, 2005.121
805.5720, 1992.110
806.7100, 2223.133
807.8470, 2112.193
808.9840, 2087.291
810.1210, 2486.432
811.2580, 2372.096
812.3950, 2456.845
813.5310, 2395.123
814.6680, 2636.451
815.8040, 2455.833
816.9400, 2592.270
818.0760, 2645.764
819.2120, 2705.316
820.3470, 2689.762
821.4830, 2593.611
822.6180, 2613.356
823.7530, 2610.172
824.8880, 2625.058
826.0230, 2599.016
827.1580, 2628.050
828.2920, 2580.082
829.4270, 2560.354
830.5610, 2461.627
831.6950, 2439.984
832.8290, 2317.429
833.9620, 2344.963
835.0960, 2242.586
836.2290, 2162.303
837.3620, 2100.115
838.4950, 2167.023
839.6280, 1849.033
840.7610, 2111.143
841.8940, 1905.356
843.0260, 1938.676
844.1580, 1964.104
845.2910, 1921.642
846.4230, 1906.292
847.5540, 1954.236
848.6860, 2008.197
849.8170, 2090.938
850.9490, 2216.055
852.0800, 2383.297
853.2110, 2530.664
854.3420, 2683.158
855.4730, 2798.494
856.6030, 3110.968
857.7340, 3125.762
858.8640, 3348.235
859.9940, 3556.795
861.1240, 3612.219
862.2540, 3817.093
863.3830, 4038.173
864.5130, 4085.185
865.6420, 4171.275
866.7710, 4224.840
867.9000, 4287.473
869.0290, 4351.776
870.1570, 4364.683
871.2860, 4390.094
872.4140, 4331.174
873.5430, 4404.777
874.6710, 4268.234
875.7980, 4277.673
876.9260, 4179.467
878.0540, 4057.684
879.1810, 4102.346
880.3080, 4219.183
881.4360, 4015.186
882.5630, 4033.778
883.6890, 3949.862
884.8160, 3776.143
885.9420, 3843.930
887.0690, 3750.103
888.1950, 3782.729
889.3210, 3751.539
890.4470, 3690.921
891.5730, 3739.020
892.6980, 3673.303
893.8240, 3682.840
894.9490, 3688.946
896.0740, 3685.311
897.1990, 3653.022
898.3240, 3671.095
899.4480, 3569.514
900.5730, 3550.279
901.6970, 3588.414
902.8210, 3657.896
903.9450, 3516.719
905.0690, 3609.910
906.1930, 3529.444
907.3160, 3476.324
908.4400, 3657.558
909.5630, 3619.171
910.6860, 3492.119
911.8090, 3654.414
912.9320, 3640.032
914.0550, 3711.002
915.1770, 3829.328
916.2990, 3726.994
917.4210, 3861.001
918.5440, 3761.346
919.6650, 3824.023
920.7870, 4183.027
921.9090, 3994.362
923.0300, 4017.023
924.1510, 4175.021
925.2720, 4079.342
926.3930, 4216.995
927.5140, 4240.973
928.6350, 4228.263
929.7550, 4367.883
930.8760, 4254.836
931.9960, 4379.115
933.1160, 4215.689
934.2360, 4538.564
935.3550, 4467.746
936.4750, 4639.230
937.5940, 4657.010
938.7140, 4755.099
939.8330, 4675.487
940.9520, 4826.170
942.0710, 4830.152
943.1890, 5005.438
944.3080, 5083.021
945.4260, 5350.906
946.5440, 5366.078
947.6620, 5427.547
948.7800, 5804.306
949.8980, 5982.355
951.0160, 6236.695
952.1330, 6372.318
953.2500, 6562.229
954.3680, 6856.428
955.4850, 7417.913
956.6010, 7437.682
957.7180, 7694.730
958.8350, 7670.062
959.9510, 8263.671
961.0670, 8500.566
962.1830, 8866.745
963.2990, 9180.210
964.4150, 9539.959
965.5310, 9766.983
966.6460, 10083.29
967.7620, 10586.87
968.8770, 10865.73
969.9920, 11289.87
971.1070, 11828.28
972.2210, 12475.97
973.3360, 12992.93
974.4500, 13467.17
975.5650, 13968.69
976.6790, 14608.48
977.7930, 15377.54
978.9070, 15717.88
980.0200, 16511.49
981.1340, 17206.37
982.2470, 18305.52
983.3610, 19005.94
984.4740, 20085.64
985.5870, 20906.60
986.6990, 22521.83
987.8120, 23864.31
988.9250, 24794.07
990.0370, 26593.11
991.1490, 28358.41
992.2610, 30185.00
993.3730, 32046.81
994.4850, 33961.09
995.5960, 35933.65
996.7080, 37913.56
997.8190, 40112.98
998.9300, 42362.50
1000.041, 44339.57
1001.152, 46399.02
1002.263, 48230.90
1003.373, 49531.24
1004.484, 50761.02
1005.594, 51400.26
1006.704, 51312.92
1007.814, 51063.05
1008.924, 50138.60
1010.034, 49137.59
1011.143, 46774.01
1012.253, 44923.31
1013.362, 42323.74
1014.471, 39656.91
1015.580, 36505.42
1016.689, 33708.50
1017.797, 31179.18
1018.906, 28292.10
1020.014, 26077.20
1021.122, 23640.07
1022.230, 21597.38
1023.338, 19882.85
1024.446, 18349.08
1025.554, 16990.89
1026.661, 15993.92
1027.768, 14921.28
1028.875, 13967.30
1029.983, 13407.67
1031.089, 12502.14
1032.196, 11986.74
1033.303, 11617.27
1034.409, 11003.33
1035.515, 10588.95
1036.622, 10037.30
1037.728, 9715.500
1038.833, 9293.826
1039.939, 9185.920
1041.045, 8790.677
1042.150, 8583.559
1043.255, 8155.130
1044.360, 7967.520
1045.465, 7591.638
1046.570, 7375.852
1047.675, 6970.510
1048.779, 6603.879
1049.884, 6319.098
1050.988, 6262.115
1052.092, 5931.074
1053.196, 5754.716
1054.300, 5570.372
1055.404, 5241.676
1056.507, 5132.219
1057.610, 4869.420
1058.714, 4554.682
1059.817, 4405.183
1060.920, 4195.123
1062.022, 4035.213
1063.125, 3830.888
1064.228, 3630.007
1065.330, 3455.257
1066.432, 3323.028
1067.534, 3176.685
1068.636, 3147.705
1069.738, 3088.943
1070.840, 3093.061
1071.941, 2936.754
1073.042, 2793.227
1074.144, 2764.645
1075.245, 2621.934
1076.346, 2647.386
1077.446, 2568.676
1078.547, 2509.893
1079.647, 2456.683
1080.748, 2584.674
1081.848, 2611.890
1082.948, 2383.512
1084.048, 2552.574
1085.148, 2352.114
1086.247, 2368.754
1087.347, 2402.543
1088.446, 2247.087
1089.545, 2314.855
1090.644, 2310.349
1091.743, 2384.617
1092.842, 2226.064
1093.940, 2098.325
1095.039, 2148.801
1096.137, 2293.214
1097.235, 2337.203
1098.333, 2134.955
1099.431, 2055.908
1100.529, 2191.124
1101.627, 2087.179
1102.724, 2065.348
1103.822, 2213.354
1104.919, 2101.372
1106.016, 2167.530
1107.113, 2153.924
1108.209, 2224.391
1109.306, 2198.526
1110.402, 2086.790
1111.499, 2050.601
1112.595, 2075.157
1113.691, 1931.010
1114.787, 1842.989
1115.883, 2036.819
1116.978, 1947.491
1118.074, 2127.071
1119.169, 2005.736
1120.264, 1955.010
1121.359, 1980.644
1122.454, 1859.690
1123.549, 1748.910
1124.644, 1699.861
1125.738, 1498.551
1126.832, 1403.890
1127.927, 1138.285
1129.021, 962.5835
1130.115, 856.9927
1131.208, 901.3379
1132.302, 689.4150
1133.396, 610.6123
1134.489, 511.1689
1135.582, 455.3115
1136.675, 1135.194
1137.768, 532.4556
1138.861, 831.5425
1139.954, 101.5439
1141.046, 130.1396
1142.138, 144.3428
1143.231, 25.32568
1144.323, 190.2822
1145.415, 107.7393
1146.507, 208.8418
1147.598, 309.9058
1148.690, 266.9409
1149.781, 331.3682
1150.872, 302.0620
1151.964, 427.7759
1153.054, 372.2817
1154.145, 439.8369
1155.236, 453.8589
1156.327, 396.0239
1157.417, 381.5557
1158.507, 288.5664
1159.597, 445.4409
1160.687, 342.8218
1161.777, 379.5127
1162.867, 337.6177
1163.956, 324.1709
1165.046, 384.6445
1166.135, 301.8569
1167.224, 254.2456
1168.313, 352.0601
1169.402, 247.1904
1170.491, 248.4341
1171.580, 248.0317
1172.668, 350.8760
1173.756, 176.1323
1174.845, 194.7798
1175.933, 100.5557
1177.020, 203.6113
1178.108, 200.7979
1179.196, 138.7275
1180.283, 126.7544
1181.371, 98.26758
1182.458, 88.06006
1183.545, 42.13184
1184.632, 43.09619
1185.719, 41.06543
1186.805, 45.93652
1187.892, 8.4960997E-02
1188.978, 24.49121
1190.065, 11.82715
1191.151, 84.88574
1192.237, 2.714844
1193.323, 1.269531
1194.408, 52.54492
1195.494, 191.5645
1196.579, 173.3809
1197.664, 166.9844
1198.750, 154.3687
1199.835, 273.5244
1200.919, 172.4858
1202.004, 220.2173
1203.089, 303.7314
1204.173, 251.0469
1205.258, 236.1484
1206.342, 272.0273
1207.426, 288.6909
1208.510, 379.1406
1209.594, 328.3950
1210.677, 416.4395
1211.761, 374.2891
1212.844, 411.9336
1213.927, 512.3779
1215.010, 440.6362
1216.093, 502.6948
1217.176, 452.5615
1218.259, 534.2256
1219.341, 613.6987
1220.424, 565.6172
1221.506, 728.0850
1222.588, 529.0015
1223.670, 551.7202
1224.752, 550.2388
1225.834, 636.5566
1226.915, 602.6826
1227.997, 734.6113
1229.078, 723.3530
1230.159, 704.9058
1231.240, 736.2686
1232.321, 734.4414
1233.402, 765.4233
1234.483, 775.2148
1235.563, 769.1001
1236.644, 751.2261
1237.724, 752.4414
1238.804, 801.4614
1239.884, 795.2886
1240.964, 869.9316
1242.044, 777.3828
1243.123, 876.6367
1244.203, 861.6973
1245.282, 896.5654
1246.361, 940.2402
1247.440, 967.7227
1248.519, 952.0146
1249.598, 858.4888
1250.676, 967.3931
1251.755, 861.1338
1252.833, 913.7817
1253.911, 1136.960
1254.989, 961.0854
1256.067, 1045.016
1257.145, 1030.752
1258.223, 1052.295
1259.300, 1023.645
1260.378, 1035.799
1261.455, 1095.758
1262.532, 1062.524
1263.609, 978.0957
1264.686, 1063.469
1265.763, 1118.646
1266.840, 1019.631
1267.916, 1052.418
1268.992, 1063.010
1270.069, 1149.405
1271.145, 1231.607
1272.221, 1188.620
1273.296, 1241.874
1274.372, 1090.772
1275.448, 1220.954
1276.523, 1173.997
1277.598, 1112.504
1278.673, 1156.357
1279.749, 1157.292
1280.823, 1101.718
1281.898, 1238.220
1282.973, 1139.293
1284.047, 1158.367
1285.122, 1094.689
1286.196, 1092.873
1287.270, 1132.164
1288.344, 1011.551
1289.418, 1027.376
1290.491, 1012.898
1291.565, 1014.227
1292.638, 1074.382
1293.712, 918.3823
1294.785, 1010.849
1295.858, 939.8569
1296.931, 1009.462
1298.003, 927.3398
1299.076, 866.7979
1300.149, 861.4077
1301.221, 828.5151
1302.293, 814.5298
1303.365, 825.7256
1304.437, 769.2495
1305.509, 763.8267
1306.581, 702.3462
1307.652, 817.3984
1308.724, 725.0610
1309.795, 892.4316
1310.866, 833.7075
1311.937, 852.1704
1313.008, 795.3340
1314.079, 815.7231
1315.150, 836.6113
1316.220, 725.7021
1317.291, 699.0278
1318.361, 716.4570
1319.431, 660.4336
1320.501, 793.9502
1321.571, 712.3599
1322.641, 693.0986
1323.710, 762.5938
1324.780, 665.1479
1325.849, 682.5757
1326.918, 622.1519
1327.987, 790.8188
1329.056, 639.8521
1330.125, 701.9697
1331.194, 667.5659
1332.263, 574.2456
1333.331, 771.9414
1334.399, 703.1177
1335.467, 693.7026
1336.535, 678.6016
1337.603, 701.3374
1338.671, 652.4580
1339.739, 679.3315
1340.806, 644.9355
1341.874, 562.0840
1342.941, 700.7417
1344.008, 574.8726
1345.075, 646.8511
1346.142, 528.6245
1347.209, 689.6865
1348.275, 665.3706
1349.342, 659.2720
