##NAMES=Diopside
##RRUFFID=R070123
##IDEAL CHEMISTRY=CaMgSi_2_O_6_
##LOCALITY=Yates mine, Otter Lake, Huddersfield Township, Pontiac County, Québec, Canada
##OWNER=RRUFF
##SOURCE=Michael Scott
##DESCRIPTION=Black prismatic crystals associated with orange calcite
##STATUS=The identification of this mineral has been confirmed by X-ray diffraction and chemical analysis
##URL=rruff.info/R070123
##MEASURED CHEMISTRY=(Ca_0.95_Na_0.04_Mn_0.01_)_Σ=1_(Mg_0.63_Fe_0.33_Al_0.04_)_Σ=1_Si_2.00_O_6_
##PIN_ID=M01164
##ORIENTATION=Laser parallel to c* (0 0 1). Fiducial mark perpendicular to laser is parallel to a [1 0 0]
117.2950, 0.0000000E+00
118.5340, 29.14246
119.7720, 78.00403
121.0100, 4.103271
122.2470, 105.3756
123.4850, 82.36182
124.7220, 109.0013
125.9590, 72.53040
127.1960, 39.04553
128.4330, 98.48303
129.6700, 120.8529
130.9060, 221.0771
132.1430, 252.3655
133.3790, 311.3748
134.6150, 384.0605
135.8500, 403.3527
137.0860, 449.1918
138.3210, 437.5269
139.5560, 447.3125
140.7910, 414.0557
142.0260, 199.2455
143.2610, 99.70850
144.4950, 79.43506
145.7290, 32.41504
146.9630, 39.36035
148.1970, 52.09924
149.4310, 16.78516
150.6640, 39.68933
151.8980, 72.80359
153.1310, 114.1210
154.3640, 126.6344
155.5970, 212.3311
156.8290, 261.1953
158.0620, 322.2156
159.2940, 343.3832
160.5260, 455.6934
161.7580, 448.1450
162.9890, 513.0007
164.2210, 577.9448
165.4520, 524.5059
166.6830, 451.2141
167.9140, 309.0638
169.1450, 336.0492
170.3760, 337.1656
171.6060, 285.4092
172.8360, 279.7761
174.0660, 321.2625
175.2960, 313.8655
176.5260, 309.5818
177.7550, 367.4077
178.9840, 389.3397
180.2130, 450.3755
181.4420, 455.5129
182.6710, 483.7499
183.9000, 496.0845
185.1280, 483.5146
186.3560, 447.0388
187.5840, 521.6550
188.8120, 470.3618
190.0400, 506.1573
191.2670, 522.0244
192.4950, 463.9050
193.7220, 379.7769
194.9490, 374.6677
196.1750, 316.5839
197.4020, 268.5298
198.6280, 275.5089
199.8540, 253.5237
201.0800, 257.5896
202.3060, 255.7249
203.5320, 205.9419
204.7570, 92.25122
205.9830, 20.67310
207.2080, 9.227295
208.4330, 92.08655
209.6570, 75.35095
210.8820, 5.575806
212.1060, 50.23865
213.3310, 5.093750
214.5550, 86.98950
215.7780, 67.92700
217.0020, 96.90784
218.2260, 198.9331
219.4490, 227.0040
220.6720, 237.1205
221.8950, 317.2832
223.1180, 280.4919
224.3400, 365.7468
225.5630, 388.0476
226.7850, 392.3945
228.0070, 488.7874
229.2290, 483.2258
230.4500, 515.7097
231.6720, 540.2393
232.8930, 592.8140
234.1140, 577.4338
235.3350, 556.0989
236.5560, 528.7958
237.7770, 629.5063
238.9970, 575.2617
240.2170, 637.0618
241.4370, 566.9062
242.6570, 651.7949
243.8770, 604.7273
245.0960, 663.7034
246.3160, 706.7227
247.5350, 744.7847
248.7540, 774.8896
249.9730, 789.0364
251.1910, 766.2252
252.4100, 770.4556
253.6280, 729.7273
254.8460, 707.0394
256.0640, 705.3921
257.2810, 693.7854
258.4990, 704.2185
259.7160, 660.5640
260.9330, 703.2026
262.1500, 580.7528
263.3670, 488.3420
264.5840, 455.3440
265.8000, 425.0217
267.0170, 374.4788
268.2330, 395.9268
269.4490, 390.6708
270.6640, 319.5273
271.8800, 314.4841
273.0950, 274.5323
274.3100, 367.6676
275.5260, 248.8854
276.7400, 350.1816
277.9550, 365.5525
279.1690, 391.9565
280.3840, 385.4315
281.5980, 464.9741
282.8120, 511.5818
284.0260, 542.7482
285.2390, 580.3986
286.4530, 645.2488
287.6660, 722.6550
288.8790, 859.2645
290.0920, 898.1003
291.3040, 1079.072
292.5170, 1144.868
293.7290, 1284.908
294.9410, 1400.130
296.1530, 1497.771
297.3650, 1640.999
298.5770, 1829.636
299.7880, 1951.943
301.0000, 2020.344
302.2110, 2181.731
303.4220, 2418.157
304.6320, 2617.624
305.8430, 2858.133
307.0530, 3123.693
308.2630, 3563.300
309.4730, 3893.924
310.6830, 4236.578
311.8930, 4756.292
313.1030, 5181.069
314.3120, 5768.907
315.5210, 6329.792
316.7300, 6721.385
317.9390, 7679.707
319.1470, 7363.741
320.3560, 7824.811
321.5640, 7764.920
322.7720, 7386.062
323.9800, 7114.237
325.1880, 6740.446
326.3950, 6225.688
327.6030, 5590.958
328.8100, 5188.261
330.0170, 4765.593
331.2240, 4320.954
332.4300, 4076.345
333.6370, 3747.765
334.8430, 3656.213
336.0490, 3595.690
337.2550, 3565.194
338.4610, 3566.726
339.6660, 3573.287
340.8720, 3723.875
342.0770, 3924.491
343.2820, 4083.135
344.4870, 4479.805
345.6920, 4741.505
346.8960, 5233.230
348.1010, 5680.983
349.3050, 6040.762
350.5090, 6420.568
351.7130, 6723.399
352.9160, 6922.256
354.1200, 6825.857
355.3230, 6463.075
356.5260, 6029.953
357.7290, 5724.906
358.9320, 5085.883
360.1350, 4550.883
361.3370, 4125.908
362.5390, 3846.954
363.7410, 3505.024
364.9430, 3220.117
366.1450, 3017.232
367.3470, 2863.369
368.5480, 2824.530
369.7490, 2867.050
370.9500, 2979.916
372.1510, 3193.140
373.3520, 3518.386
374.5520, 3855.654
375.7530, 4402.942
376.9530, 4853.251
378.1530, 5523.583
379.3520, 6362.932
380.5520, 7094.303
381.7510, 7818.693
382.9510, 8664.101
384.1500, 9568.533
385.3490, 9914.983
386.5480, 10164.45
387.7460, 10224.94
388.9440, 9743.449
390.1430, 9076.979
391.3410, 7968.522
392.5390, 6887.088
393.7360, 5868.672
394.9340, 4855.271
396.1310, 3953.893
397.3280, 3308.531
398.5250, 2629.187
399.7220, 2076.860
400.9190, 1773.550
402.1150, 1445.257
403.3120, 1171.982
404.5080, 979.7234
405.7040, 815.4812
406.8990, 685.7234
408.0950, 630.0454
409.2900, 512.8594
410.4860, 495.6987
411.6810, 406.5638
412.8760, 383.4595
414.0700, 365.3798
415.2650, 309.3240
416.4590, 281.2917
417.6540, 274.2828
418.8480, 217.2963
420.0420, 163.3323
421.2350, 113.3899
422.4290, 124.4691
423.6220, 90.56946
424.8150, 91.69080
426.0080, 7.832520
427.2010, 44.00574
428.3940, 28.83813
429.5860, 0.6604000
430.7790, 44.46484
431.9710, 48.26526
433.1630, 27.06311
434.3540, 75.85168
435.5460, 70.64893
436.7370, 49.45337
437.9290, 77.25317
439.1200, 125.0627
440.3110, 74.90173
441.5010, 37.74609
442.6920, 27.41553
443.8820, 0.5971680
445.0730, 18.79529
446.2630, 83.17383
447.4530, 81.45129
448.6420, 172.6497
449.8320, 265.1442
451.0210, 309.3900
452.2100, 343.7537
453.3990, 429.0222
454.5880, 389.0950
455.7770, 441.0944
456.9660, 489.6194
458.1540, 478.7080
459.3420, 450.7955
460.5300, 496.5974
461.7180, 414.5244
462.9050, 391.0267
464.0930, 350.9214
465.2800, 259.5435
466.4670, 248.4164
467.6540, 242.7314
468.8410, 230.4373
470.0280, 186.1687
471.2140, 184.9260
472.4000, 101.7051
473.5870, 167.4996
474.7720, 93.30310
475.9580, 145.1248
477.1440, 126.9631
478.3290, 115.8099
479.5140, 105.6704
480.6990, 109.6298
481.8840, 115.4113
483.0690, 116.2921
484.2540, 137.1787
485.4380, 119.0715
486.6220, 94.96985
487.8060, 161.8733
488.9900, 91.78174
490.1740, 113.6951
491.3570, 119.6129
492.5410, 154.5352
493.7240, 156.2552
494.9070, 181.3915
496.0900, 168.3253
497.2720, 178.2726
498.4550, 182.2308
499.6370, 284.1925
500.8190, 243.1571
502.0010, 291.1243
503.1830, 326.0938
504.3650, 271.0654
505.5460, 388.0392
506.7280, 424.0146
507.9090, 398.9918
509.0900, 461.9703
510.2710, 457.9500
511.4510, 560.9305
512.6320, 485.9120
513.8120, 529.8938
514.9920, 588.8763
516.1720, 567.8596
517.3520, 600.8433
518.5310, 679.8328
519.7110, 661.8248
520.8900, 765.8164
522.0690, 809.8140
523.2480, 873.8228
524.4270, 831.8495
525.6050, 951.8931
526.7840, 964.9409
527.9620, 1066.998
529.1400, 1004.067
530.3180, 1066.139
531.4960, 1060.222
532.6730, 978.3074
533.8510, 1012.395
535.0280, 960.4854
536.2050, 933.5822
537.3820, 936.6807
538.5590, 916.4209
539.7350, 926.0308
540.9120, 929.9609
542.0880, 970.0470
543.2640, 1009.129
544.4400, 1077.205
545.6150, 1142.277
546.7910, 1281.344
547.9660, 1431.406
549.1410, 1629.463
550.3170, 1887.514
551.4910, 2189.559
552.6660, 2462.597
553.8410, 2816.630
555.0150, 3050.657
556.1890, 3427.676
557.3630, 3458.689
558.5370, 3359.695
559.7110, 3053.693
560.8840, 2692.683
562.0570, 2221.666
563.2310, 1889.640
564.4040, 1528.607
565.5760, 1268.564
566.7490, 1081.514
567.9220, 901.4537
569.0940, 763.8885
570.2660, 692.8903
571.4380, 618.7412
572.6100, 526.0905
573.7820, 476.2583
574.9530, 458.2507
576.1240, 392.1461
577.2960, 318.2788
578.4670, 304.3107
579.6370, 235.2029
580.8080, 206.9021
581.9790, 167.8119
583.1490, 85.78674
584.3190, 59.41626
585.4890, 65.54382
586.6590, 36.18896
587.8280, 43.95483
588.9980, 12.56567
590.1670, 25.53467
591.3360, 4.192627
592.5050, 20.99731
593.6740, 34.18408
594.8430, 60.98767
596.0110, 57.91162
597.1790, 63.76270
598.3480, 7.411743
599.5160, 21.30664
600.6830, 0.5721440
601.8510, 32.23267
603.0180, 31.95374
604.1860, 24.84998
605.3530, 87.91089
606.5200, 67.69446
607.6870, 51.67896
608.8530, 116.0687
610.0200, 119.9474
611.1860, 98.94849
612.3520, 173.0067
613.5180, 196.6218
614.6840, 228.8176
615.8500, 272.1266
617.0150, 268.1254
618.1800, 296.3101
619.3450, 297.6287
620.5100, 331.5774
621.6750, 362.4769
622.8400, 440.5232
624.0040, 415.3834
625.1690, 516.2986
626.3330, 500.1194
627.4970, 574.9200
628.6610, 690.7007
629.8240, 668.4609
630.9880, 763.2012
632.1510, 847.9209
633.3140, 874.6206
634.4770, 950.2992
635.6400, 1008.958
636.8020, 1137.595
637.9650, 1225.212
639.1270, 1414.808
640.2890, 1494.383
641.4510, 1600.937
642.6130, 1734.470
643.7750, 1960.981
644.9360, 2180.471
646.0980, 2438.941
647.2590, 2830.388
648.4200, 3254.814
649.5810, 3720.219
650.7410, 4289.602
651.9020, 5101.964
653.0620, 6031.304
654.2220, 7235.622
655.3820, 8516.029
656.5420, 10395.30
657.7020, 12259.75
658.8610, 14624.47
660.0200, 17016.68
661.1800, 19250.20
662.3390, 21126.94
663.4970, 22650.33
664.6560, 23108.55
665.8150, 22696.62
666.9730, 21532.04
668.1310, 19338.16
669.2890, 16876.24
670.4470, 14224.86
671.6050, 11684.91
672.7620, 9680.871
673.9200, 7869.869
675.0770, 6569.810
676.2340, 5318.709
677.3910, 4591.800
678.5470, 3717.863
679.7040, 3302.677
680.8600, 2689.462
682.0160, 2447.222
683.1720, 2129.958
684.3280, 1830.669
685.4840, 1664.356
686.6390, 1446.019
687.7950, 1251.657
688.9500, 1149.270
690.1050, 1083.860
691.2600, 961.4247
692.4150, 865.9655
693.5690, 836.4819
694.7240, 708.9744
695.8780, 692.4420
697.0320, 642.9222
698.1860, 588.3418
699.3400, 569.1373
700.4930, 496.1086
701.6470, 504.4558
702.8000, 431.7792
703.9530, 378.0784
705.1060, 416.3538
706.2590, 325.6052
707.4110, 287.8330
708.5640, 287.0441
709.7160, 270.2361
710.8680, 241.4053
712.0200, 219.5580
713.1720, 158.6954
714.3230, 152.8137
715.4750, 130.9222
716.6260, 166.0194
717.7770, 116.1016
718.9280, 100.1729
720.0790, 62.24170
721.2300, 86.29089
722.3800, 71.31873
723.5300, 93.31592
724.6810, 68.28711
725.8300, 62.06689
726.9800, 66.93604
728.1300, 25.87244
729.2790, 13.49585
730.4290, 37.34839
731.5780, 19.06836
732.7270, 8.134399
733.8760, 10.16516
735.0240, 31.14648
736.1730, 6.682007
737.3210, 20.80273
738.4700, 3.947510
739.6180, 5.173218
740.7650, 29.84875
741.9130, 26.47241
743.0610, 30.51355
744.2080, 42.98926
745.3550, 15.38330
746.5020, 54.92236
747.6490, 31.88477
748.7960, 34.89868
749.9430, 20.96521
751.0890, 0.9232180
752.2350, 38.77917
753.3810, 12.38428
754.5270, 8.586426
755.6730, 31.17554
756.8190, 8.1665002E-02
757.9640, 43.63074
759.1090, 53.32617
760.2540, 28.00586
761.3990, 75.66736
762.5440, 31.31335
763.6890, 54.94275
764.8330, 64.55676
765.9780, 70.15601
767.1220, 68.74011
768.2660, 61.30969
769.4100, 95.86511
770.5530, 72.40625
771.6970, 44.93359
772.8400, 96.44702
773.9830, 87.94714
775.1260, 77.43372
776.2690, 53.90747
777.4120, 45.36841
778.5540, 68.81677
779.6970, 51.25293
780.8390, 77.67700
781.9810, 72.08911
783.1230, 46.48975
784.2650, 65.87903
785.4060, 26.25720
786.5480, 49.62439
787.6890, 34.98096
788.8300, 25.32727
789.9710, 45.66345
791.1120, 28.98962
792.2520, 3.693848
793.3930, 10.61133
794.5330, 28.09265
795.6730, 16.81824
796.8130, 7.441284
797.9530, 33.30762
799.0930, 54.07886
800.2320, 81.88208
801.3710, 80.56653
802.5110, 31.62561
803.6500, 54.53784
804.7880, 67.47937
805.9270, 35.45618
807.0660, 62.45056
808.2040, 37.47607
809.3420, 36.51880
810.4800, 38.57739
811.6180, 57.65222
812.7560, 38.76624
813.8930, 13.86743
815.0310, 13.99048
816.1680, 2.879272
817.3050, 7.570435
818.4420, 61.60583
819.5790, 59.46338
820.7150, 49.31750
821.8520, 110.1685
822.9880, 58.01672
824.1240, 70.86218
825.2600, 76.70532
826.3960, 43.54639
827.5320, 29.38562
828.6670, 39.22327
829.8020, 20.05933
830.9380, 32.89453
832.0730, 57.72852
833.2080, 2.437988
834.3420, 47.39441
835.4770, 46.22681
836.6110, 67.05920
837.7450, 52.89209
838.8790, 117.7253
840.0130, 67.55945
841.1470, 143.3947
842.2810, 163.2312
843.4140, 221.0693
844.5470, 274.9094
845.6800, 415.7512
846.8130, 632.5955
847.9460, 818.4421
849.0790, 995.2915
850.2110, 1210.144
851.3440, 1450.999
852.4760, 1607.835
853.6080, 1815.697
854.7400, 1889.427
855.8710, 1842.969
857.0030, 1785.751
858.1340, 1614.096
859.2650, 1469.153
860.3960, 1386.651
861.5270, 1257.682
862.6580, 1107.584
863.7890, 1012.637
864.9190, 942.3904
866.0490, 915.6818
867.1790, 816.1050
868.3090, 841.8914
869.4390, 780.2722
870.5690, 806.7434
871.6980, 867.1125
872.8270, 836.2480
873.9570, 835.6125
875.0860, 830.1826
876.2140, 877.4208
877.3430, 899.6918
878.4720, 922.7581
879.6000, 969.4768
880.7280, 987.0786
881.8560, 984.4739
882.9840, 1028.457
884.1120, 1044.151
885.2390, 1033.310
886.3670, 1095.612
887.4940, 1082.353
888.6210, 1092.510
889.7480, 1099.550
890.8750, 1110.897
892.0020, 1119.633
893.1280, 1149.081
894.2540, 1131.478
895.3810, 1148.924
896.5070, 1141.233
897.6320, 1103.730
898.7580, 1113.251
899.8840, 1091.711
901.0090, 1091.271
902.1340, 1058.861
903.2590, 1031.474
904.3840, 995.1132
905.5090, 981.8962
906.6340, 976.2043
907.7580, 965.1858
908.8820, 950.9255
910.0060, 962.6910
911.1300, 880.4937
912.2540, 873.3293
913.3780, 827.1899
914.5010, 736.0802
915.6250, 764.9983
916.7480, 797.9426
917.8710, 742.9143
918.9940, 729.9221
920.1160, 684.9512
921.2390, 645.0121
922.3610, 697.1106
923.4840, 688.2424
924.6060, 651.3994
925.7280, 604.5795
926.8490, 544.7878
927.9710, 564.9176
929.0930, 570.1937
930.2140, 596.2966
931.3350, 525.1423
932.4560, 470.5016
933.5770, 460.5522
934.6980, 408.3905
935.8180, 402.5710
936.9380, 409.9266
938.0590, 360.4460
939.1790, 341.6350
940.2990, 356.1119
941.4180, 306.6527
942.5380, 316.6508
943.6570, 309.2312
944.7770, 326.9102
945.8960, 321.5582
947.0150, 421.2629
948.1340, 499.0123
949.2520, 500.5724
950.3710, 525.1624
951.4890, 553.0082
952.6070, 671.8938
953.7260, 766.8052
954.8430, 823.7465
955.9610, 834.7146
957.0790, 939.7241
958.1960, 920.7605
959.3130, 1028.823
960.4310, 1081.914
961.5480, 1097.032
962.6640, 1154.176
963.7810, 1225.350
964.8970, 1255.550
966.0140, 1328.777
967.1300, 1374.034
968.2460, 1419.283
969.3620, 1471.595
970.4780, 1523.934
971.5930, 1593.299
972.7090, 1647.691
973.8240, 1692.109
974.9390, 1672.554
976.0540, 1753.025
977.1690, 1848.523
978.2830, 1906.049
979.3980, 2018.601
980.5120, 2140.182
981.6260, 2163.788
982.7400, 2238.421
983.8540, 2224.081
984.9680, 2248.767
986.0820, 2464.479
987.1950, 2463.219
988.3080, 2637.988
989.4210, 2814.784
990.5340, 2931.610
991.6470, 3249.468
992.7600, 3603.354
993.8720, 3877.271
994.9850, 4500.216
996.0970, 4959.193
997.2090, 5567.201
998.3210, 6522.238
999.4320, 7443.312
1000.544, 8784.426
1001.655, 10419.57
1002.767, 12273.75
1003.878, 14955.98
1004.989, 17956.25
1006.100, 21493.56
1007.210, 25846.91
1008.321, 30691.30
1009.431, 35151.73
1010.541, 38691.20
1011.651, 41492.71
1012.761, 41910.25
1013.871, 40232.86
1014.980, 35985.49
1016.090, 30643.17
1017.199, 25131.89
1018.308, 20275.66
1019.417, 16257.47
1020.526, 12943.31
1021.635, 10674.19
1022.743, 8880.094
1023.852, 7538.034
1024.960, 6602.007
1026.068, 5816.514
1027.176, 5336.028
1028.283, 4851.859
1029.391, 4612.726
1030.498, 4478.641
1031.606, 4284.766
1032.713, 4295.915
1033.820, 4243.502
1034.927, 4422.542
1036.033, 4313.953
1037.140, 4449.937
1038.246, 4544.999
1039.353, 4561.310
1040.459, 4639.269
1041.564, 4657.991
1042.670, 4733.850
1043.776, 4654.360
1044.881, 4386.881
1045.987, 4071.537
1047.092, 3765.151
1048.197, 3392.468
1049.302, 3044.239
1050.406, 2667.404
1051.511, 2347.596
1052.615, 2125.253
1053.720, 1902.379
1054.824, 1785.861
1055.928, 1616.322
1057.031, 1525.860
1058.135, 1431.861
1059.238, 1322.013
1060.342, 1229.070
1061.445, 1086.157
1062.548, 1007.840
1063.651, 1033.240
1064.754, 875.4382
1065.856, 855.5524
1066.959, 817.4160
1068.061, 759.2957
1069.163, 676.8271
1070.265, 655.8969
1071.367, 625.6902
1072.469, 598.3392
1073.570, 560.4901
1074.671, 578.2119
1075.773, 557.1223
1076.874, 543.4469
1077.975, 499.0712
1079.075, 522.5092
1080.176, 492.8683
1081.276, 455.2977
1082.377, 487.7661
1083.477, 450.2267
1084.577, 496.2891
1085.677, 451.4575
1086.777, 418.5642
1087.876, 460.9219
1088.975, 469.6586
1090.075, 470.0798
1091.174, 440.3071
1092.273, 448.1246
1093.372, 384.3800
1094.470, 436.8438
1095.569, 441.6780
1096.667, 366.0387
1097.765, 412.4915
1098.863, 434.4802
1099.961, 419.0846
1101.059, 388.5695
1102.157, 364.8695
1103.254, 367.9204
1104.351, 384.4600
1105.449, 369.7699
1106.546, 391.1136
1107.642, 376.4575
1108.739, 387.9335
1109.836, 361.3938
1110.932, 351.7041
1112.028, 391.3250
1113.124, 392.6470
1114.220, 414.9742
1115.316, 416.4418
1116.412, 422.7019
1117.507, 409.0619
1118.603, 418.6614
1119.698, 418.2001
1120.793, 420.6339
1121.888, 430.3754
1122.983, 416.7385
1124.077, 434.1055
1125.172, 430.4756
1126.266, 397.8488
1127.360, 455.3195
1128.454, 421.6982
1129.548, 412.0793
1130.642, 381.4625
1131.735, 376.8479
1132.829, 355.2878
1133.922, 340.3043
1135.015, 335.0609
1136.108, 302.4514
1137.201, 323.8425
1138.294, 286.2341
1139.386, 267.6256
1140.478, 285.0170
1141.571, 258.4078
1142.663, 210.7981
1143.755, 226.1873
1144.846, 193.5754
1145.938, 156.9619
1147.030, 122.3464
1148.121, 137.7290
1149.212, 115.1343
1150.303, 107.5118
1151.394, 46.91162
1152.485, 54.28296
1153.575, 15.65088
1154.666, 14.01514
1155.756, 26.37549
1156.846, 41.26831
1157.936, 17.93091
1159.026, 24.60364
1160.116, 59.28931
1161.205, 24.00525
1162.295, 6.304932
1163.384, 26.42969
1164.473, 65.02234
1165.562, 21.80859
1166.651, 27.51831
1167.739, 35.33740
1168.828, 51.17944
1169.916, 0.9465330
1171.005, 30.93506
1172.093, 25.83960
1173.181, 26.76477
1174.268, 67.71191
1175.356, 50.70300
1176.443, 19.72986
1177.531, 33.77673
1178.618, 27.85144
1179.705, 17.95178
1180.792, 23.05298
1181.879, 54.19226
1182.965, 3.637939
1184.052, 34.55920
1185.138, 55.78845
1186.224, 38.06152
1187.310, 6.369507
1188.396, 3.303467
1189.482, 14.03784
1190.567, 27.40320
1191.653, 42.80029
1192.738, 26.76233
1193.823, 45.68481
1194.908, 6.825317
1195.993, 9.803711
1197.077, 2.242798
1198.162, 20.25720
1199.246, 5.702881
1200.331, 17.86987
1201.415, 12.47400
1202.499, 9.107300
1203.582, 15.99707
1204.666, 8.214600
1205.750, 10.17737
1206.833, 7.8002997E-02
1207.916, 14.30847
1208.999, 20.52039
1210.082, 24.68237
1211.165, 23.89441
1212.248, 24.05701
1213.330, 3.202637
1214.412, 5.677612
1215.495, 46.41125
1216.577, 12.48633
1217.658, 35.53870
1218.740, 29.42468
1219.822, 35.56702
1220.903, 51.54236
1221.985, 24.50342
1223.066, 52.44458
1224.147, 39.37347
1225.228, 27.28564
1226.308, 48.17780
1227.389, 44.05829
1228.469, 25.91797
1229.550, 39.75616
1230.630, 46.57642
1231.710, 67.38062
1232.790, 68.03015
1233.869, 77.94495
1234.949, 73.70471
1236.028, 68.44958
1237.108, 71.17883
1238.187, 56.89258
1239.266, 59.58960
1240.344, 108.2700
1241.423, 51.93512
1242.502, 99.58209
1243.580, 122.2137
1244.658, 93.83002
1245.736, 78.43085
1246.814, 89.01544
1247.892, 83.58417
1248.970, 56.13684
1250.047, 69.67059
1251.125, 55.18726
1252.202, 105.6844
1253.279, 137.1656
1254.356, 111.6310
1255.433, 122.0802
1256.509, 80.51422
1257.586, 127.9314
1258.662, 141.3325
1259.738, 106.7173
1260.814, 131.0859
1261.890, 135.4380
1262.966, 115.7739
1264.042, 96.09338
1265.117, 124.3961
1266.193, 111.6824
1267.268, 128.9520
1268.343, 111.2050
1269.418, 136.4414
1270.492, 120.6612
1271.567, 131.8642
1272.642, 167.0506
1273.716, 154.2202
1274.790, 141.3729
1275.864, 130.5088
1276.938, 139.6279
1278.012, 110.7300
1279.085, 157.8151
1280.159, 111.8833
1281.232, 154.9344
1282.305, 143.9684
1283.378, 171.9857
1284.451, 166.9861
1285.524, 122.9697
1286.597, 150.4281
1287.669, 155.8943
1288.741, 132.0507
1289.813, 149.2111
