##NAMES=Diopside
##RRUFFID=R050406
##IDEAL CHEMISTRY=CaMgSi_2_O_6_
##LOCALITY=unknown
##OWNER=RRUFF
##SOURCE=University of Arizona Mineral Museum
##DESCRIPTION=Brownish gray massive
##STATUS=The identification of this mineral has been confirmed by X-ray diffraction and chemical analysis
##URL=rruff.info/R050406
##MEASURED CHEMISTRY=(Ca_0.95_Na_0.05_)(Mg_0.75_Fe^2+^_0.18_Fe^3+^_0.05_Al_0.01_Ti_0.01_Mn^2+^_0.01_)(Si_0.98_Al_0.02_)_2_O_6_
##PIN_ID=M00100
##ORIENTATION=Laser parallel to (1 0 1). Fiducial mark perpendicular to laser is parallel to -b [0 -1 0]
94.71400, 0.0000000E+00
95.94800, 61.27930
97.18200, 2.398193
98.41600, 36.87573
99.64900, 9.163086
100.8830, 32.84570
102.1160, 2.700684
103.3490, 79.54321
104.5820, 348.8557
105.8150, 722.6472
107.0470, 1568.476
108.2800, 2376.000
109.5120, 1696.102
110.7440, 880.7705
111.9760, 660.6960
113.2080, 816.6724
114.4400, 966.5198
115.6710, 1017.073
116.9030, 921.2327
118.1340, 911.0205
119.3650, 780.3323
120.5960, 798.0786
121.8270, 952.1914
123.0580, 1165.391
124.2880, 1331.491
125.5190, 1827.149
126.7490, 2268.792
127.9790, 3077.346
129.2090, 3933.938
130.4390, 4906.804
131.6680, 6114.732
132.8980, 7618.611
134.1270, 9280.416
135.3560, 10578.15
136.5850, 10889.85
137.8140, 9771.633
139.0430, 7948.687
140.2710, 6136.839
141.5000, 4595.702
142.7280, 3540.477
143.9560, 2786.168
145.1840, 2050.788
146.4120, 1637.350
147.6390, 1222.863
148.8670, 960.3379
150.0940, 859.1440
151.3210, 805.0996
152.5490, 622.2554
153.7750, 489.4150
155.0020, 450.1050
156.2290, 415.2207
157.4550, 251.2827
158.6810, 275.4087
159.9080, 267.5996
161.1340, 289.8521
162.3590, 464.1636
163.5850, 437.8848
164.8110, 383.5889
166.0360, 276.8872
167.2610, 244.4165
168.4860, 204.7896
169.7110, 202.9775
170.9360, 224.3662
172.1610, 224.7930
173.3850, 188.2656
174.6100, 142.7910
175.8340, 116.3730
177.0580, 131.0151
178.2820, 145.7192
179.5050, 118.5811
180.7290, 57.42578
181.9520, 39.14355
183.1760, 32.64453
184.3990, 36.31787
185.6220, 102.0552
186.8450, 105.5303
188.0670, 98.75293
189.2900, 107.4248
190.5120, 121.1729
191.7340, 151.9946
192.9560, 161.8892
194.1780, 152.3369
195.4000, 130.8945
196.6220, 127.0024
197.8430, 117.1758
199.0640, 122.4116
200.2860, 245.7095
201.5070, 239.0703
202.7270, 159.4941
203.9480, 67.98096
205.1690, 30.46826
206.3890, 51.85400
207.6090, 83.17480
208.8290, 103.4302
210.0490, 67.62012
211.2690, 44.74365
212.4890, 3.196777
213.7080, 32.80176
214.9280, 1.738281
216.1470, 21.61328
217.3660, 50.57422
218.5850, 56.82471
219.8030, 93.13818
221.0220, 71.51514
222.2400, 76.95557
223.4590, 55.44775
224.6770, 43.93311
225.8950, 31.38281
227.1120, 50.84717
228.3300, 57.35010
229.5480, 63.90039
230.7650, 5.521973
231.9820, 45.78711
233.1990, 20.02588
234.4160, 4.193848
235.6330, 45.29199
236.8490, 1.666504
238.0660, 9.330078
239.2820, 53.71973
240.4980, 25.83252
241.7140, 44.82373
242.9300, 6.876465
244.1460, 28.63428
245.3610, 30.48828
246.5770, 142.5518
247.7920, 132.7939
249.0070, 221.1719
250.2220, 237.7090
251.4370, 235.3701
252.6510, 166.1440
253.8660, 292.0220
255.0800, 172.9946
256.2940, 283.0562
257.5080, 452.1987
258.7220, 294.7964
259.9360, 573.7056
261.1490, 134.0615
262.3630, 12.48145
263.5760, 16.03760
264.7890, 0.5019530
266.0020, 80.91064
267.2150, 14.28027
268.4270, 25.39941
269.6400, 69.87256
270.8520, 43.11768
272.0640, 120.3340
273.2760, 128.5356
274.4880, 51.72412
275.7000, 112.8838
276.9120, 44.02832
278.1230, 4.143066
279.3340, 12.22217
280.5450, 19.73340
281.7560, 60.72852
282.9670, 96.76270
284.1780, 92.83496
285.3880, 127.9438
286.5980, 266.0864
287.8090, 215.2622
289.0190, 222.4736
290.2290, 339.7207
291.4380, 472.0039
292.6480, 422.3232
293.8570, 489.6802
295.0670, 611.0752
296.2760, 741.4785
297.4850, 786.8252
298.6930, 960.1025
299.9020, 1107.383
301.1110, 1392.671
302.3190, 1533.987
303.5270, 1911.348
304.7350, 2151.755
305.9430, 2615.211
307.1510, 2954.730
308.3580, 3356.306
309.5660, 3775.935
310.7730, 4373.607
311.9800, 4857.327
313.1870, 5556.089
314.3940, 6408.901
315.6010, 7107.771
316.8070, 7811.700
318.0130, 8583.688
319.2200, 9023.735
320.4260, 9072.842
321.6310, 8919.011
322.8370, 8676.226
324.0430, 8170.494
325.2480, 7530.802
326.4540, 6974.131
327.6590, 6578.503
328.8640, 6114.869
330.0680, 5588.089
331.2730, 5210.446
332.4780, 4840.840
333.6820, 4570.333
334.8860, 4416.773
336.0900, 4264.318
337.2940, 4238.915
338.4980, 4320.561
339.7010, 4345.260
340.9050, 4541.009
342.1080, 4743.810
343.3110, 5048.661
344.5140, 5513.563
345.7170, 5886.516
346.9200, 6406.521
348.1220, 7034.574
349.3240, 7574.678
350.5270, 8177.411
351.7290, 8907.166
352.9310, 9283.439
354.1320, 9296.789
355.3340, 9310.030
356.5350, 9084.514
357.7370, 8639.300
358.9380, 8262.518
360.1390, 7722.248
361.3400, 7183.147
362.5400, 6835.802
363.7410, 6411.505
364.9410, 6032.259
366.1410, 5768.061
367.3410, 5670.911
368.5410, 5599.811
369.7410, 5464.761
370.9400, 5588.759
372.1400, 5920.807
373.3390, 6380.905
374.5380, 6866.051
375.7370, 7770.085
376.9360, 8649.963
378.1350, 9931.104
379.3330, 11408.98
380.5310, 13171.14
381.7300, 15184.39
382.9280, 16955.29
384.1260, 18566.82
385.3230, 19774.40
386.5210, 19911.05
387.7180, 19363.33
388.9160, 17720.08
390.1130, 15612.89
391.3100, 13390.75
392.5060, 11416.67
393.7030, 9482.639
394.9000, 7793.659
396.0960, 6506.731
397.2920, 5511.853
398.4880, 4451.026
399.6840, 3698.250
400.8800, 3123.522
402.0750, 2661.845
403.2710, 2315.217
404.4660, 2003.638
405.6610, 1791.107
406.8560, 1467.626
408.0510, 1490.557
409.2450, 1317.087
410.4400, 1295.279
411.6340, 1164.439
412.8280, 1046.199
414.0220, 1030.074
415.2160, 997.2202
416.4100, 838.8286
417.6030, 899.0894
418.7970, 692.0410
419.9900, 626.2178
421.1830, 556.6191
422.3760, 525.6187
423.5690, 428.4141
424.7610, 419.6528
425.9540, 390.9390
427.1460, 202.2729
428.3380, 153.6548
429.5300, 216.0835
430.7220, 136.5596
431.9140, 240.0835
433.1050, 90.65332
434.2970, 131.2710
435.4880, 141.9360
436.6790, 135.6470
437.8700, 63.40430
439.0610, 181.2085
440.2510, 70.06152
441.4420, 85.96582
442.6320, 102.9204
443.8220, 87.92725
445.0120, 162.9844
446.2020, 178.8452
447.3910, 185.2607
448.5810, 306.3218
449.7700, 336.2373
450.9600, 489.8652
452.1490, 401.0474
453.3370, 510.2529
454.5260, 527.9165
455.7150, 584.6221
456.9030, 705.4912
458.0910, 677.3032
459.2800, 759.7656
460.4670, 729.7100
461.6550, 739.5156
462.8430, 671.0400
464.0300, 725.0562
465.2180, 669.3745
466.4050, 570.7568
467.5920, 609.2241
468.7790, 632.7651
469.9650, 487.3735
471.1520, 511.0479
472.3380, 552.7764
473.5250, 442.5703
474.7110, 427.4219
475.8970, 460.3496
477.0820, 358.3540
478.2680, 433.4292
479.4540, 315.5767
480.6390, 449.7886
481.8240, 464.0610
483.0090, 383.3779
484.1940, 422.7349
485.3780, 444.1289
486.5630, 469.5630
487.7470, 448.0356
488.9320, 481.3252
490.1160, 425.0947
491.3000, 509.6802
492.4830, 444.3022
493.6670, 433.9722
494.8500, 399.6934
496.0340, 455.4702
497.2170, 596.3179
498.4000, 578.2197
499.5820, 562.1685
500.7650, 754.1548
501.9480, 851.1851
503.1300, 749.2563
504.3120, 862.3687
505.4940, 629.5122
506.6760, 715.6875
507.8580, 676.8940
509.0390, 731.1313
510.2210, 706.3994
511.4020, 799.6973
512.5830, 793.0244
513.7640, 958.3818
514.9450, 1040.768
516.1250, 997.1831
517.3060, 1129.627
518.4860, 1176.104
519.6660, 1247.619
520.8460, 1383.168
522.0260, 1544.746
523.2060, 1626.365
524.3850, 1675.029
525.5650, 1775.723
526.7440, 2053.450
527.9230, 2112.202
529.1020, 2199.978
530.2810, 2296.782
531.4590, 2371.609
532.6380, 2369.475
533.8160, 2328.362
534.9940, 2401.285
536.1720, 2285.228
537.3500, 2271.199
538.5270, 2179.191
539.7050, 2175.204
540.8820, 2130.240
542.0590, 2067.296
543.2360, 2109.371
544.4130, 2048.467
545.5900, 1941.583
546.7660, 2007.717
547.9430, 1983.869
549.1190, 1867.041
550.2950, 1858.233
551.4710, 1879.444
552.6470, 2076.688
553.8220, 1898.952
554.9980, 1989.232
556.1730, 1855.542
557.3480, 1838.049
558.5230, 1779.009
559.6980, 1737.660
560.8730, 1678.096
562.0470, 1515.567
563.2220, 1590.062
564.3960, 1486.570
565.5700, 1395.094
566.7440, 1438.631
567.9170, 1326.180
569.0910, 1161.740
570.2640, 1210.312
571.4380, 1106.896
572.6110, 1028.490
573.7840, 1004.095
574.9570, 930.7090
576.1290, 913.3330
577.3020, 757.9663
578.4740, 676.6079
579.6460, 537.2583
580.8180, 450.3818
581.9900, 355.4697
583.1620, 376.2959
584.3330, 203.0205
585.5040, 172.3564
586.6760, 158.8750
587.8470, 27.23975
589.0180, 28.19043
590.1880, 85.71924
591.3590, 56.49658
592.5290, 158.3032
593.7000, 60.38916
594.8700, 119.6519
596.0400, 2.603516
597.2090, 0.7973630
598.3790, 76.52734
599.5490, 26.29053
600.7180, 31.80664
601.8870, 61.60303
603.0560, 12.36572
604.2250, 33.67236
605.3940, 82.20801
606.5620, 39.00537
607.7300, 219.9097
608.8990, 213.8125
610.0670, 235.9766
611.2350, 333.0356
612.4020, 194.1680
613.5700, 341.8369
614.7370, 409.9658
615.9050, 348.3301
617.0720, 475.9160
618.2390, 607.2842
619.4060, 667.1279
620.5720, 733.8271
621.7390, 849.8765
622.9050, 1010.153
624.0710, 1110.716
625.2370, 1215.708
626.4030, 1362.574
627.5690, 1419.801
628.7340, 1611.067
629.9000, 1761.447
631.0650, 1842.698
632.2300, 2015.890
633.3950, 2136.088
634.5600, 2315.158
635.7240, 2521.182
636.8890, 2741.142
638.0530, 3111.320
639.2170, 3294.188
640.3810, 3728.287
641.5450, 4122.110
642.7080, 4460.739
643.8720, 5125.515
645.0350, 5744.265
646.1980, 6561.994
647.3610, 7433.696
648.5240, 8571.375
649.6870, 9929.026
650.8490, 11747.65
652.0120, 13854.26
653.1740, 16435.84
654.3360, 19999.39
655.4980, 24006.95
656.6600, 29179.46
657.8210, 34818.46
658.9830, 41070.92
660.1440, 47330.34
661.3050, 53468.73
662.4660, 57367.76
663.6270, 59094.68
664.7870, 57781.00
665.9480, 54059.56
667.1080, 48273.80
668.2680, 41619.02
669.4280, 35301.22
670.5880, 29537.38
671.7480, 24259.02
672.9070, 20237.28
674.0670, 16652.28
675.2260, 13890.32
676.3850, 11374.99
677.5440, 9725.969
678.7030, 8352.915
679.8610, 7194.981
681.0200, 6164.860
682.1780, 5475.710
683.3360, 4739.527
684.4940, 4244.311
685.6520, 3648.062
686.8090, 3258.375
687.9670, 2999.469
689.1240, 2663.121
690.2810, 2377.741
691.4380, 2237.329
692.5950, 1993.883
693.7520, 1814.403
694.9080, 1647.890
696.0650, 1635.343
697.2210, 1347.762
698.3770, 1333.146
699.5330, 1253.497
700.6880, 1051.812
701.8440, 970.0938
702.9990, 838.3398
704.1550, 804.5508
705.3100, 715.7271
706.4650, 673.8672
707.6190, 596.9727
708.7740, 507.0420
709.9290, 463.0767
711.0830, 415.0762
712.2370, 373.2290
713.3910, 344.9517
714.5450, 316.8584
715.6980, 287.7144
716.8520, 257.5342
718.0050, 212.3188
719.1580, 129.0674
720.3110, 98.77441
721.4640, 121.4360
722.6170, 97.05518
723.7700, 115.6289
724.9220, 105.5317
726.0740, 47.64404
727.2260, 68.06836
728.3780, 43.60059
729.5300, 25.72363
730.6810, 22.21924
731.8330, 92.39844
732.9840, 76.07471
734.1350, 41.23828
735.2860, 0.5336910
736.4370, 5.133301
737.5880, 125.2188
738.7380, 51.26367
739.8880, 64.81299
741.0390, 164.2485
742.1890, 125.4546
743.3380, 115.1943
744.4880, 3.273438
745.6380, 133.4238
746.7870, 70.70312
747.9360, 44.08203
749.0850, 43.54590
750.2340, 1.905273
751.3830, 39.70508
752.5310, 16.39551
753.6800, 85.15479
754.8280, 90.01807
755.9760, 71.98730
757.1240, 80.99561
758.2720, 48.29883
759.4190, 39.46094
760.5670, 23.21777
761.7140, 49.85303
762.8610, 100.4526
764.0080, 41.02197
765.1550, 52.55420
766.3020, 59.05225
767.4480, 43.88721
768.5950, 51.35400
769.7410, 53.35254
770.8870, 47.72168
772.0330, 58.05859
773.1780, 58.50635
774.3240, 11.35645
775.4690, 28.87207
776.6140, 74.06885
777.7590, 28.23682
778.9040, 94.37451
780.0490, 0.4848630
781.1940, 80.55713
782.3380, 67.72705
783.4820, 212.6226
784.6260, 61.61621
785.7700, 133.5845
786.9140, 86.52637
788.0580, 67.44434
789.2010, 80.33643
790.3450, 95.20459
791.4880, 36.04834
792.6310, 21.86816
793.7730, 71.66309
794.9160, 12.56494
796.0590, 20.17676
797.2010, 64.89502
798.3430, 19.59131
799.4850, 20.73438
800.6270, 71.08984
801.7690, 13.49854
802.9100, 37.93408
804.0520, 24.59766
805.1930, 13.10889
806.3340, 8.601074
807.4750, 22.07324
808.6160, 65.47363
809.7560, 11.06494
810.8970, 59.67725
812.0370, 22.67139
813.1770, 33.99707
814.3170, 90.30957
815.4570, 73.59961
816.5960, 12.12646
817.7360, 72.12842
818.8750, 71.36768
820.0140, 71.59180
821.1530, 93.80127
822.2920, 130.9956
823.4310, 132.6504
824.5690, 108.3433
825.7070, 133.4961
826.8460, 192.6357
827.9840, 147.7627
829.1220, 205.8770
830.2590, 152.9795
831.3970, 135.0698
832.5340, 224.1489
833.6710, 225.2163
834.8080, 221.2734
835.9450, 366.3203
837.0820, 464.3579
838.2190, 564.3853
839.3550, 709.4033
840.4910, 861.4131
841.6270, 1281.414
842.7630, 1476.407
843.8990, 2027.392
845.0350, 2691.370
846.1700, 3321.341
847.3060, 4202.304
848.4410, 5203.263
849.5760, 6587.215
850.7100, 7602.161
851.8450, 8715.103
852.9800, 9541.037
854.1140, 9488.972
855.2480, 9137.896
856.3820, 8507.355
857.5160, 7710.267
858.6500, 6881.619
859.7830, 6150.490
860.9170, 5394.753
862.0500, 4674.838
863.1830, 4231.080
864.3160, 3554.123
865.4480, 3200.263
866.5810, 2873.639
867.7130, 2566.037
868.8460, 2304.686
869.9780, 2134.500
871.1100, 1962.735
872.2410, 1864.709
873.3730, 1781.975
874.5050, 1666.260
875.6360, 1644.293
876.7670, 1519.601
877.8980, 1390.862
879.0290, 1377.663
880.1590, 1384.268
881.2900, 1424.959
882.4200, 1400.548
883.5500, 1388.002
884.6800, 1286.480
885.8100, 1286.927
886.9400, 1236.303
888.0690, 1213.520
889.1990, 1137.536
890.3280, 1167.694
891.4570, 1180.633
892.5860, 1113.795
893.7140, 1099.486
894.8430, 1019.330
895.9710, 1004.844
897.1000, 1045.136
898.2280, 1032.148
899.3560, 1022.613
900.4830, 1000.605
901.6110, 871.8330
902.7380, 924.1694
903.8660, 922.4043
904.9930, 817.7808
906.1200, 885.2422
907.2460, 801.7026
908.3730, 761.2959
909.5000, 737.9385
910.6260, 660.6768
911.7520, 669.1543
912.8780, 670.9741
914.0040, 561.5737
915.1290, 627.4644
916.2550, 457.5718
917.3800, 566.5518
918.5050, 612.5703
919.6300, 481.6260
920.7550, 678.7100
921.8800, 503.8496
923.0040, 497.0171
924.1290, 436.2178
925.2530, 500.4683
926.3770, 531.7495
927.5010, 527.0605
928.6250, 497.3765
929.7480, 387.7856
930.8720, 378.7036
931.9950, 372.2046
933.1180, 398.7573
934.2410, 397.3511
935.3640, 373.3071
936.4860, 342.3584
937.6090, 311.1255
938.7310, 310.0859
939.8530, 301.4116
940.9750, 325.2661
942.0970, 333.1621
943.2180, 369.6382
944.3400, 372.9023
945.4610, 429.4707
946.5820, 404.6299
947.7030, 438.7725
948.8240, 483.2993
949.9450, 627.5649
951.0650, 687.8765
952.1860, 746.0737
953.3060, 765.4829
954.4260, 914.9282
955.5460, 973.4092
956.6650, 982.9404
957.7850, 1059.507
958.9040, 1093.114
960.0230, 1135.757
961.1420, 1210.437
962.2610, 1256.167
963.3800, 1278.935
964.4990, 1457.740
965.6170, 1294.583
966.7350, 1490.472
967.8530, 1438.411
968.9710, 1405.400
970.0890, 1426.429
971.2070, 1476.515
972.3240, 1508.353
973.4410, 1657.815
974.5580, 1657.026
975.6750, 1766.276
976.7920, 1897.564
977.9090, 1791.891
979.0250, 1973.256
980.1410, 2134.660
981.2580, 2112.103
982.3740, 2264.585
983.4890, 2267.105
984.6050, 2367.665
985.7200, 2459.274
986.8360, 2736.931
987.9510, 2919.628
989.0660, 3232.368
990.1810, 3453.147
991.2950, 3814.984
992.4100, 4140.867
993.5240, 4777.792
994.6390, 5283.763
995.7530, 5980.778
996.8660, 6921.834
997.9800, 8145.944
999.0940, 9360.104
1000.207, 11003.32
1001.320, 13004.60
1002.433, 15440.93
1003.546, 18641.36
1004.659, 22507.86
1005.772, 27095.43
1006.884, 32324.06
1007.996, 37770.75
1009.108, 43123.52
1010.220, 47168.37
1011.332, 49050.30
1012.444, 47045.31
1013.555, 43275.41
1014.666, 37050.61
1015.777, 31085.85
1016.888, 25348.19
1017.999, 20643.60
1019.110, 16693.08
1020.220, 14036.61
1021.331, 11865.20
1022.441, 10045.86
1023.551, 8744.564
1024.661, 7763.350
1025.770, 7158.326
1026.880, 6553.253
1027.989, 6040.002
1029.098, 5604.597
1030.207, 5480.719
1031.316, 5376.458
1032.425, 5261.662
1033.533, 5299.075
1034.642, 5355.355
1035.750, 5575.677
1036.858, 5857.784
1037.966, 6076.834
1039.073, 6331.316
1040.181, 6599.785
1041.288, 6898.288
1042.396, 6932.828
1043.503, 6876.260
1044.610, 6767.879
1045.716, 6291.349
1046.823, 5964.636
1047.929, 5411.360
1049.036, 4900.485
1050.142, 4352.376
1051.248, 3808.658
1052.353, 3429.270
1053.459, 3164.163
1054.564, 2725.207
1055.670, 2563.162
1056.775, 2342.799
1057.880, 2276.465
1058.985, 2116.537
1060.089, 1826.614
1061.194, 1646.348
1062.298, 1621.364
1063.402, 1529.654
1064.506, 1414.856
1065.610, 1416.201
1066.713, 1375.390
1067.817, 1181.046
1068.920, 1100.429
1070.023, 1236.134
1071.126, 1014.729
1072.229, 1043.144
1073.332, 1191.071
1074.435, 1055.619
1075.537, 985.4844
1076.639, 1027.175
1077.741, 921.0923
1078.843, 951.5488
1079.945, 881.8179
1081.046, 958.4473
1082.148, 901.2710
1083.249, 835.2456
1084.350, 853.9121
1085.451, 799.5078
1086.551, 877.3228
1087.652, 778.0781
1088.752, 809.6382
1089.853, 874.5464
1090.953, 925.8174
1092.053, 745.7236
1093.152, 886.6377
1094.252, 845.4897
1095.351, 981.4658
1096.451, 822.3921
1097.550, 925.3086
1098.649, 780.1001
1099.748, 865.0767
1100.846, 809.4136
1101.945, 858.0728
1103.043, 876.2554
1104.141, 867.5210
1105.239, 880.1890
1106.337, 748.5171
1107.434, 819.5742
1108.532, 728.6768
1109.629, 843.7495
1110.726, 833.8560
1111.823, 793.9834
1112.920, 804.0918
1114.017, 884.2114
1115.113, 844.3418
1116.210, 898.4834
1117.306, 851.9766
1118.402, 926.7441
1119.498, 931.3516
1120.593, 944.0933
1121.689, 936.4272
1122.784, 976.3071
1123.879, 973.5137
1124.974, 964.0640
1126.069, 885.2852
1127.164, 885.5137
1128.259, 859.8354
1129.353, 938.0938
1130.447, 940.3994
1131.541, 776.7183
1132.635, 877.9771
1133.729, 698.2412
1134.822, 710.5088
1135.916, 620.7812
1137.009, 755.0571
1138.102, 650.3359
1139.195, 626.7495
1140.288, 574.0327
1141.380, 493.3184
1142.473, 464.6055
1143.565, 518.8936
1144.657, 374.1816
1145.749, 299.4688
1146.841, 394.7559
1147.932, 343.0415
1149.024, 289.3257
1150.115, 145.6079
1151.206, 174.8872
1152.297, 179.2168
1153.388, 134.4902
1154.479, 145.7603
1155.569, 102.2847
1156.659, 8.712891
1157.750, 16.54102
1158.839, 34.21045
1159.929, 94.97559
1161.019, 32.22070
1162.108, 26.59033
1163.198, 31.58545
1164.287, 64.24561
1165.376, 5.894531
1166.465, 4.026367
1167.553, 51.85010
1168.642, 48.67969
1169.730, 103.6074
1170.818, 4.409180
1171.906, 22.41650
1172.994, 7.414063
1174.082, 25.59863
1175.170, 17.36865
1176.257, 22.67480
1177.344, 37.04346
1178.431, 41.82520
1179.518, 77.94775
1180.605, 56.12158
1181.691, 44.33691
1182.778, 31.58838
1183.864, 19.13037
1184.950, 98.16455
1186.036, 20.49365
1187.122, 7.881836
1188.207, 70.27930
1189.292, 8.266602
1190.378, 24.79736
1191.463, 49.68604
1192.548, 68.21777
1193.632, 54.80859
1194.717, 67.45166
1195.801, 20.15479
1196.886, 15.87793
1197.970, 11.36426
1199.054, 15.41553
1200.137, 98.22949
1201.221, 15.12500
1202.305, 61.94092
1203.388, 17.00928
1204.471, 2.000977
1205.554, 12.97314
1206.637, 88.07861
1207.719, 26.21045
1208.802, 1.391113
1209.884, 28.60889
1210.966, 32.87842
1212.048, 98.19775
1213.130, 3.607422
1214.212, 21.94189
1215.293, 42.53711
1216.374, 66.91992
1217.456, 137.3564
1218.536, 6.227051
1219.617, 68.14355
1220.698, 46.49219
1221.778, 80.81543
1222.859, 85.59766
1223.939, 4.603516
1225.019, 83.62842
1226.099, 101.8374
1227.178, 112.0244
1228.258, 19.18994
1229.337, 0.6835940
1230.417, 11.39307
1231.496, 54.42627
1232.574, 16.56982
1233.653, 39.37793
1234.732, 60.29150
1235.810, 80.17627
1236.888, 127.3027
1237.966, 121.6216
1239.044, 192.6821
1240.122, 130.4707
1241.199, 130.2358
1242.277, 149.9775
1243.354, 165.6963
1244.431, 198.3911
1245.508, 181.0640
1246.585, 26.71240
1247.661, 45.31641
1248.738, 89.88184
1249.814, 77.41943
1250.890, 184.9258
1251.966, 5.407715
1253.042, 173.8325
1254.117, 104.2329
1255.193, 222.6050
1256.268, 193.9526
1257.343, 143.2759
1258.418, 161.5728
1259.493, 153.2837
1260.567, 152.9868
1261.642, 184.3105
1262.716, 194.5044
1263.790, 210.6738
1264.864, 275.8169
1265.938, 189.9351
1267.011, 211.0303
1268.085, 147.0991
1269.158, 261.1411
1270.231, 257.1572
1271.304, 281.1475
1272.377, 286.1108
1273.450, 286.3662
