##NAMES=Diopside
##RRUFFID=R050406
##IDEAL CHEMISTRY=CaMgSi_2_O_6_
##LOCALITY=unknown
##OWNER=RRUFF
##SOURCE=University of Arizona Mineral Museum
##DESCRIPTION=Brownish gray massive
##STATUS=The identification of this mineral has been confirmed by X-ray diffraction and chemical analysis
##URL=rruff.info/R050406
##MEASURED CHEMISTRY=(Ca_0.95_Na_0.05_)(Mg_0.75_Fe^2+^_0.18_Fe^3+^_0.05_Al_0.01_Ti_0.01_Mn^2+^_0.01_)(Si_0.98_Al_0.02_)_2_O_6_
##PIN_ID=M00086
##ORIENTATION=Laser parallel to c* (0 0 1). Fiducial mark perpendicular to laser is parallel to a [1 0 0]
116.9030, 0.0000000E+00
118.1340, 39.12012
119.3650, 44.95215
120.5960, 23.55664
121.8270, 193.8682
123.0580, 248.3857
124.2880, 163.5283
125.5190, 21.09668
126.7490, 23.05078
127.9790, 2.951660
129.2090, 78.98291
130.4390, 105.9751
131.6680, 152.8530
132.8980, 155.5190
134.1270, 182.8965
135.3560, 220.9229
136.5850, 209.5469
137.8140, 461.7197
139.0430, 579.3979
140.2710, 745.5420
141.5000, 574.1255
142.7280, 518.3047
143.9560, 559.0215
145.1840, 399.0557
146.4120, 395.3945
147.6390, 284.0273
148.8670, 205.9438
150.0940, 259.1357
151.3210, 195.2109
152.5490, 154.3105
153.7750, 156.2783
155.0020, 138.4844
156.2290, 130.2090
157.4550, 229.5366
158.6810, 141.3535
159.9080, 168.3506
161.1340, 211.5200
162.3590, 447.8584
163.5850, 480.3652
164.8110, 604.0615
166.0360, 772.8921
167.2610, 754.8784
168.4860, 780.2759
169.7110, 634.7402
170.9360, 673.0063
172.1610, 548.4248
173.3850, 496.9917
174.6100, 393.7061
175.8340, 409.5640
177.0580, 438.5635
178.2820, 604.7036
179.5050, 599.9814
180.7290, 683.3945
181.9520, 872.9414
183.1760, 988.6201
184.3990, 928.4287
185.6220, 931.3662
186.8450, 885.4316
188.0670, 998.6235
189.2900, 1090.938
190.5120, 1184.367
191.7340, 1413.849
192.9560, 1798.349
194.1780, 1922.874
195.4000, 2061.394
196.6220, 1850.921
197.8430, 1698.492
199.0640, 1624.111
200.2860, 1384.809
201.5070, 1201.536
202.7270, 938.3203
203.9480, 546.1650
205.1690, 503.0820
206.3890, 158.0942
207.6090, 99.24268
208.8290, 58.47803
210.0490, 19.80176
211.2690, 18.20215
212.4890, 0.9765630
213.7080, 5.205078
214.9280, 20.80566
216.1470, 31.47266
217.3660, 85.20947
218.5850, 100.9824
219.8030, 51.10059
221.0220, 1.145508
222.2400, 69.88525
223.4590, 125.9917
224.6770, 224.1753
225.8950, 280.4331
227.1120, 324.4390
228.3300, 296.1782
229.5480, 416.6636
230.7650, 402.2241
231.9820, 488.8594
233.1990, 357.5698
234.4160, 387.3535
235.6330, 396.2124
236.8490, 360.1436
238.0660, 382.1494
239.2820, 337.2275
240.4980, 286.3779
241.7140, 335.5757
242.9300, 264.8428
244.1460, 426.1812
245.3610, 456.5913
246.5770, 440.0732
247.7920, 437.6250
249.0070, 474.2471
250.2220, 706.9385
251.4370, 785.7002
252.6510, 798.5293
253.8660, 862.4277
255.0800, 922.3940
256.2940, 964.4272
257.5080, 974.2808
258.7220, 924.0566
259.9360, 919.2764
261.1490, 733.2251
262.3630, 591.5874
263.5760, 423.1143
264.7890, 356.7480
266.0020, 268.7217
267.2150, 214.8389
268.4270, 190.1084
269.6400, 144.8506
270.8520, 126.5654
272.0640, 101.1396
273.2760, 96.64941
274.4880, 65.92969
275.7000, 60.72559
276.9120, 8.254883
278.1230, 48.88086
279.3340, 41.60059
280.5450, 72.40918
281.7560, 0.3056640
282.9670, 71.28711
284.1780, 164.3506
285.3880, 124.4941
286.5980, 202.7148
287.8090, 231.0127
289.0190, 277.3838
290.2290, 401.8262
291.4380, 412.3379
292.6480, 539.2393
293.8570, 583.7119
295.0670, 718.5273
296.2760, 867.4678
297.4850, 1084.817
298.6930, 1136.916
299.9020, 1273.085
301.1110, 1537.484
302.3190, 1558.865
303.5270, 1743.371
304.7350, 1849.020
305.9430, 1947.285
307.1510, 1971.607
308.3580, 2253.986
309.5660, 2363.419
310.7730, 2648.938
311.9800, 3123.512
313.1870, 3520.164
314.3940, 4095.863
315.6010, 4606.652
316.8070, 5253.546
318.0130, 6065.551
319.2200, 7001.635
320.4260, 8245.792
321.6310, 9420.999
322.8370, 10233.30
324.0430, 11237.64
325.2480, 11510.08
326.4540, 11304.58
327.6590, 10956.15
328.8640, 10296.78
330.0680, 9270.457
331.2730, 8361.183
332.4780, 7362.955
333.6820, 6476.773
334.8860, 5791.639
336.0900, 5208.551
337.2940, 4815.514
338.4980, 4213.527
339.7010, 3997.584
340.9050, 3684.687
342.1080, 3312.834
343.3110, 3269.026
344.5140, 3264.264
345.7170, 3290.546
346.9200, 3341.032
348.1220, 3464.584
349.3240, 3614.078
350.5270, 3837.118
351.7290, 4064.621
352.9310, 4390.168
354.1320, 4746.758
355.3340, 5120.387
356.5350, 5440.061
357.7370, 5379.768
358.9380, 5027.523
360.1390, 4831.321
361.3400, 4406.160
362.5400, 4030.038
363.7410, 3635.967
364.9410, 3401.227
366.1410, 3118.209
367.3410, 2844.247
368.5410, 2850.326
369.7410, 2889.441
370.9400, 2581.597
372.1400, 2766.790
373.3390, 2928.021
374.5380, 2892.291
375.7370, 3184.597
376.9360, 3721.940
378.1350, 3994.321
379.3330, 4326.738
380.5310, 5063.191
381.7300, 5897.680
382.9280, 6812.205
384.1260, 7790.765
385.3230, 9077.358
386.5210, 10420.99
387.7180, 11851.65
388.9160, 13257.35
390.1130, 14190.08
391.3100, 14542.84
392.5060, 14624.64
393.7030, 13761.47
394.9000, 12248.33
396.0960, 10628.23
397.2920, 9032.154
398.4880, 7375.113
399.6840, 6145.103
400.8800, 4970.123
402.0750, 4011.176
403.2710, 3210.258
404.4660, 2667.371
405.6610, 2172.512
406.8560, 1848.685
408.0510, 1431.892
409.2450, 1207.136
410.4400, 1087.421
411.6340, 865.7500
412.8280, 629.1182
414.0220, 800.5283
415.2160, 648.9785
416.4100, 632.4746
417.6030, 504.0195
418.7970, 433.6074
419.9900, 408.2334
421.1830, 511.8975
422.3760, 447.5977
423.5690, 381.4434
424.7610, 347.4766
425.9540, 241.9062
427.1460, 159.7520
428.3380, 126.9932
429.5300, 73.79980
430.7220, 51.50000
431.9140, 42.48438
433.1050, 11.50195
434.2970, 28.55273
435.4880, 60.36230
436.6790, 42.25879
437.8700, 52.30469
439.0610, 140.9805
440.2510, 28.83691
441.4420, 54.66895
442.6320, 13.22949
443.8220, 60.25879
445.0120, 18.02051
446.2020, 21.09863
447.3910, 24.85449
448.5810, 12.98828
449.7700, 9.339844
450.9600, 69.71973
452.1490, 150.1318
453.3370, 218.5781
454.5260, 222.0479
455.7150, 358.4404
456.9030, 858.5957
458.0910, 1125.396
459.2800, 1246.913
460.4670, 1444.257
461.6550, 1315.572
462.8430, 1432.578
464.0300, 1111.655
465.2180, 856.5879
466.4050, 786.6074
467.5920, 747.7539
468.7790, 616.8672
469.9650, 565.6475
471.1520, 561.4336
472.3380, 518.6406
473.5250, 526.6963
474.7110, 401.7910
475.8970, 440.9062
477.0820, 341.0605
478.2680, 283.8184
479.4540, 358.4180
480.6390, 183.1230
481.8240, 277.4092
483.0090, 225.7158
484.1940, 314.0371
485.3780, 159.3740
486.5630, 279.7236
487.7470, 341.0869
488.9320, 199.4600
490.1160, 232.8467
491.3000, 286.2812
492.4830, 272.7236
493.6670, 254.1787
494.8500, 319.6416
496.0340, 316.3047
497.2170, 266.5957
498.4000, 320.0938
499.5820, 318.5986
500.7650, 206.1113
501.9480, 381.6338
503.1300, 313.1641
504.3120, 317.7021
505.4940, 490.2461
506.6760, 449.8057
507.8580, 443.3809
509.0390, 595.9717
510.2210, 730.5674
511.4020, 881.1709
512.5830, 815.7764
513.7640, 882.3984
514.9450, 913.0244
516.1250, 1057.669
517.3060, 999.3389
518.4860, 970.0117
519.6660, 993.6885
520.8460, 952.3652
522.0260, 958.0459
523.2060, 928.7305
524.3850, 1022.422
525.5650, 1102.114
526.7440, 1212.807
527.9230, 1105.500
529.1020, 1179.192
530.2810, 1229.885
531.4590, 1238.576
532.6380, 1329.268
533.8160, 1295.966
534.9940, 1226.670
536.1720, 1043.371
537.3500, 1152.070
538.5270, 967.8262
539.7050, 1157.585
540.8820, 1100.366
542.0590, 1252.142
543.2360, 1137.916
544.4130, 1066.684
545.5900, 1063.457
546.7660, 1202.226
547.9430, 1365.986
549.1190, 1567.742
550.2950, 1483.492
551.4710, 1677.235
552.6470, 1848.972
553.8220, 2300.701
554.9980, 2485.428
556.1730, 2836.162
557.3480, 3479.888
558.5230, 3863.604
559.6980, 4106.313
560.8730, 3944.479
562.0470, 3659.717
563.2220, 3142.419
564.3960, 2663.115
565.5700, 2118.801
566.7440, 1861.484
567.9170, 1493.156
569.0910, 1173.815
570.2640, 1150.463
571.4380, 875.0967
572.6110, 848.7168
573.7840, 716.3252
574.9570, 713.9180
576.1290, 657.6006
577.3020, 526.8447
578.4740, 399.5762
579.6460, 360.0088
580.8180, 459.3652
581.9900, 391.3623
583.1620, 287.6758
584.3330, 327.1338
585.5040, 146.2520
586.6760, 147.5117
587.8470, 43.57227
589.0180, 33.16406
590.1880, 128.1436
591.3590, 140.6504
592.5290, 122.7988
593.7000, 71.04199
594.8700, 77.30273
596.0400, 47.99707
597.2090, 58.25391
598.3790, 82.54492
599.5490, 138.2969
600.7180, 167.4883
601.8870, 49.29297
603.0560, 17.74219
604.2250, 96.22949
605.3940, 86.72656
606.5620, 82.45508
607.7300, 102.9346
608.8990, 83.73145
610.0670, 61.93848
611.2350, 67.86328
612.4020, 59.11035
613.5700, 120.3789
614.7370, 113.7510
615.9050, 153.7979
617.0720, 173.0605
618.2390, 93.55078
619.4060, 68.61719
620.5720, 108.1875
621.7390, 231.8320
622.9050, 187.3506
624.0710, 265.3730
625.2370, 330.7861
626.4030, 366.6328
627.5690, 424.6660
628.7340, 468.3594
629.9000, 500.7178
631.0650, 540.1123
632.2300, 598.7100
633.3950, 675.2744
634.5600, 784.8057
635.7240, 806.3047
636.8890, 862.8672
638.0530, 977.5381
639.2170, 1022.937
640.3810, 1254.302
641.5450, 1329.698
642.7080, 1355.340
643.8720, 1401.604
645.0350, 1716.830
646.1980, 1829.023
647.3610, 2123.400
648.5240, 2264.678
649.6870, 2528.766
650.8490, 2914.902
652.0120, 3334.921
653.1740, 3911.301
654.3360, 4346.246
655.4980, 5020.504
656.6600, 6236.298
657.8210, 7270.133
658.9830, 8730.932
660.1440, 10546.81
661.3050, 12778.60
662.4660, 15056.61
663.6270, 17897.30
664.7870, 20603.91
665.9480, 23250.48
667.1080, 24661.02
668.2680, 25260.52
669.4280, 23964.00
670.5880, 21877.43
671.7480, 19120.83
672.9070, 16276.25
674.0670, 13525.59
675.2260, 10959.86
676.3850, 9166.092
677.5440, 7399.201
678.7030, 6104.357
679.8610, 5350.174
681.0200, 4410.242
682.1780, 3789.271
683.3360, 3366.261
684.4940, 2832.925
685.6520, 2367.846
686.8090, 2163.713
687.9670, 2008.539
689.1240, 1586.326
690.2810, 1474.071
691.4380, 1599.774
692.5950, 1309.438
693.7520, 1232.195
694.9080, 1045.832
696.0650, 969.3721
697.2210, 892.8711
698.3770, 899.4189
699.5330, 719.3213
700.6880, 733.6963
701.8440, 775.4541
702.9990, 631.8232
704.1550, 597.0732
705.3100, 614.0127
706.4650, 528.1807
707.6190, 641.3398
708.7740, 504.4238
709.9290, 383.4648
711.0830, 478.4648
712.2370, 427.4238
713.3910, 404.3398
714.5450, 249.2148
715.6980, 362.0479
716.8520, 271.8447
718.0050, 327.6035
719.1580, 319.3262
720.3110, 307.0264
721.4640, 266.6875
722.6170, 145.3125
723.7700, 261.8877
724.9220, 242.4268
726.0740, 278.9258
727.2260, 121.9961
728.3780, 174.6611
729.5300, 230.0215
730.6810, 169.3398
731.8330, 287.6113
732.9840, 134.8359
734.1350, 34.98242
735.2860, 73.22559
736.4370, 66.64453
737.5880, 10.60449
738.7380, 22.38574
739.8880, 76.36621
741.0390, 56.65527
742.1890, 31.19141
743.3380, 36.38965
744.4880, 24.81738
745.6380, 36.12988
746.7870, 25.28906
747.9360, 10.45410
749.0850, 13.92383
750.2340, 4.358398
751.3830, 13.66016
752.5310, 32.56152
753.6800, 50.45605
754.8280, 33.56738
755.9760, 22.66895
757.1240, 41.58594
758.2720, 113.0244
759.4190, 29.20117
760.5670, 20.82031
761.7140, 89.39160
762.8610, 51.92969
764.0080, 112.4316
765.1550, 69.90234
766.3020, 156.3389
767.4480, 55.74609
768.5950, 90.88086
769.7410, 153.3926
770.8870, 148.6357
772.0330, 218.8516
773.1780, 139.0371
774.3240, 91.19531
775.4690, 11.32324
776.6140, 120.4121
777.7590, 168.4707
778.9040, 88.50488
780.0490, 37.50879
781.1940, 216.4834
782.3380, 228.4326
783.4820, 142.3555
784.6260, 1.251953
785.7700, 14.88965
786.9140, 112.9209
788.0580, 63.70898
789.2010, 183.4697
790.3450, 23.79199
791.4880, 113.8994
792.6310, 41.43359
793.7730, 67.82129
794.9160, 88.72461
796.0590, 93.24805
797.2010, 33.74902
798.3430, 45.22656
799.4850, 0.6816410
800.6270, 13.89062
801.7690, 57.50586
802.9100, 50.88184
804.0520, 51.12695
805.1930, 67.96191
806.3340, 32.88770
807.4750, 36.18164
808.6160, 27.45801
809.7560, 41.28516
810.8970, 26.06738
812.0370, 33.12012
813.1770, 21.28906
814.3170, 235.5596
815.4570, 30.54395
816.5960, 107.5586
817.7360, 115.3613
818.8750, 105.2637
820.0140, 83.15039
821.1530, 49.97754
822.2920, 2.862305
823.4310, 84.68555
824.5690, 55.49609
825.7070, 96.59180
826.8460, 53.07324
827.9840, 78.84277
829.1220, 24.59766
830.2590, 46.65820
831.3970, 84.93945
832.5340, 24.74023
833.6710, 68.40723
834.8080, 6.937500
835.9450, 60.29395
837.0820, 46.32422
838.2190, 100.0684
839.3550, 52.50293
840.4910, 46.04199
841.6270, 71.42188
842.7630, 47.08789
843.8990, 1.410156
845.0350, 150.0820
846.1700, 76.56738
847.3060, 111.0449
848.4410, 60.51562
849.5760, 166.9795
850.7100, 238.4375
851.8450, 281.7861
852.9800, 536.2324
854.1140, 591.6670
855.2480, 812.1035
856.3820, 782.5342
857.5160, 710.9619
858.6500, 846.3652
859.7830, 763.5947
860.9170, 768.9746
862.0500, 719.2725
863.1830, 707.6836
864.3160, 739.4561
865.4480, 859.2646
866.5810, 592.5244
867.7130, 616.2832
868.8460, 759.6934
869.9780, 694.0254
871.1100, 715.9844
872.2410, 790.8535
873.3730, 649.7090
874.5050, 786.9688
875.6360, 924.5986
876.7670, 907.7646
877.8980, 770.5264
879.0290, 795.8262
880.1590, 855.0352
881.2900, 973.0488
882.4200, 928.6143
883.5500, 1122.061
884.6800, 1097.903
885.8100, 1043.059
886.9400, 1128.828
888.0690, 1078.550
889.1990, 1099.150
890.3280, 1167.059
891.4570, 1102.730
892.5860, 1085.158
893.7140, 1059.988
894.8430, 1045.920
895.9710, 1109.511
897.1000, 1154.838
898.2280, 1167.664
899.3560, 1200.084
900.4830, 1155.057
901.6110, 1224.828
902.7380, 1191.932
903.8660, 1126.626
904.9930, 1175.734
906.1200, 1106.892
907.2460, 1043.065
908.3730, 1079.266
909.5000, 1032.490
910.6260, 942.6357
911.7520, 1040.663
912.8780, 922.9473
914.0040, 971.2715
915.1290, 866.5732
916.2550, 941.6611
917.3800, 678.1133
918.5050, 792.5830
919.6300, 686.0850
920.7550, 794.4062
921.8800, 927.8496
923.0040, 656.4707
924.1290, 711.0371
925.2530, 621.7188
926.3770, 616.0215
927.5010, 614.7441
928.6250, 598.1406
929.7480, 580.0049
930.8720, 580.8428
931.9950, 556.7227
933.1180, 536.5059
934.2410, 624.3730
935.3640, 548.9932
936.4860, 546.9258
937.6090, 470.9189
938.7310, 452.5820
939.8530, 482.0107
940.9750, 404.0908
942.0970, 477.1885
943.2180, 458.3418
944.3400, 330.4980
945.4610, 416.6367
946.5820, 456.8428
947.7030, 515.1230
948.8240, 605.4580
949.9450, 629.8965
951.0650, 530.2832
952.1860, 763.0244
953.3060, 698.4941
954.4260, 825.0127
955.5460, 891.5625
956.6650, 1034.423
957.7850, 1035.014
958.9040, 1153.646
960.0230, 1123.313
961.1420, 1223.009
962.2610, 1375.733
963.3800, 1431.509
964.4990, 1392.313
965.6170, 1368.013
966.7350, 1694.818
967.8530, 1619.711
968.9710, 1843.652
970.0890, 1702.533
971.2070, 1920.047
972.3240, 1983.078
973.4410, 1920.713
974.5580, 1978.727
975.6750, 2161.848
976.7920, 2257.268
977.9090, 2368.655
979.0250, 2381.639
980.1410, 2568.895
981.2580, 2625.184
982.3740, 2670.504
983.4890, 2884.854
984.6050, 3026.237
985.7200, 3002.650
986.8360, 3153.096
987.9510, 3261.573
989.0660, 3453.082
990.1810, 3558.625
991.2950, 3747.199
992.4100, 4000.805
993.5240, 4168.445
994.6390, 4547.121
995.7530, 5057.828
996.8660, 5662.568
997.9800, 6348.340
999.0940, 7189.151
1000.207, 8094.998
1001.320, 9354.877
1002.433, 10762.79
1003.546, 12141.74
1004.659, 14638.72
1005.772, 16842.77
1006.884, 20205.87
1007.996, 23856.00
1009.108, 28331.20
1010.220, 33003.46
1011.332, 38669.75
1012.444, 43585.09
1013.555, 46802.50
1014.666, 47597.93
1015.777, 45782.43
1016.888, 41422.96
1017.999, 35492.54
1019.110, 29240.16
1020.220, 23361.82
1021.331, 18629.53
1022.441, 15251.28
1023.551, 12511.10
1024.661, 10412.95
1025.770, 8881.850
1026.880, 7548.804
1027.989, 6803.956
1029.098, 6035.522
1030.207, 5373.623
1031.316, 4980.262
1032.425, 4627.433
1033.533, 4538.144
1034.642, 4065.390
1035.750, 4061.605
1036.858, 3795.869
1037.966, 3883.867
1039.073, 3733.262
1040.181, 3760.725
1041.288, 3827.371
1042.396, 3956.534
1043.503, 3918.039
1044.610, 3996.349
1045.716, 4109.912
1046.823, 3998.113
1047.929, 3995.308
1049.036, 3887.996
1050.142, 3512.673
1051.248, 3244.379
1052.353, 3016.007
1053.459, 2749.531
1054.564, 2606.311
1055.670, 2501.995
1056.775, 2245.761
1057.880, 2116.972
1058.985, 1922.872
1060.089, 1923.808
1061.194, 1664.828
1062.298, 1734.390
1063.402, 1554.240
1064.506, 1639.868
1065.610, 1468.950
1066.713, 1220.054
1067.817, 1366.178
1068.920, 1123.325
1070.023, 1090.500
1071.126, 1045.544
1072.229, 1068.841
1073.332, 943.0732
1074.435, 959.0957
1075.537, 1017.747
1076.639, 847.0371
1077.741, 917.1035
1078.843, 833.4980
1079.945, 922.1191
1081.046, 756.9600
1082.148, 704.3555
1083.249, 766.5293
1084.350, 765.5000
1085.451, 789.0361
1086.551, 898.7627
1087.652, 831.1436
1088.752, 612.7266
1089.853, 699.3340
1090.953, 666.9561
1092.053, 751.0430
1093.152, 661.6934
1094.252, 571.3584
1095.351, 672.3799
1096.451, 587.0713
1097.550, 552.7754
1098.649, 542.5654
1099.748, 551.3154
1100.846, 600.7744
1101.945, 584.8389
1103.043, 478.3350
1104.141, 637.1406
1105.239, 475.9570
1106.337, 597.8008
1107.434, 646.6992
1108.532, 640.5898
1109.629, 564.3545
1110.726, 502.3379
1111.823, 529.7539
1112.920, 559.9346
1114.017, 579.8613
1115.113, 560.8623
1116.210, 531.8076
1117.306, 385.7617
1118.402, 723.7246
1119.498, 608.6953
1120.593, 638.0713
1121.689, 859.0586
1122.784, 707.2373
1123.879, 800.3740
1124.974, 647.4824
1126.069, 771.5039
1127.164, 647.5303
1128.259, 641.5703
1129.353, 657.6094
1130.447, 576.6543
1131.541, 541.9414
1132.635, 593.7549
1133.729, 405.8125
1134.822, 468.8740
1135.916, 418.9395
1137.009, 538.0098
1138.102, 317.0820
1139.195, 396.2129
1140.288, 505.4658
1141.380, 501.8330
1142.473, 336.9141
1143.565, 143.9990
1144.657, 371.2393
1145.749, 443.2744
1146.841, 347.3613
1147.932, 215.4473
1149.024, 340.5332
1150.115, 263.6621
1151.206, 297.7471
1152.297, 248.8291
1153.388, 207.9707
1154.479, 143.4434
1155.569, 104.5215
1156.659, 101.6924
1157.750, 16.76660
1158.839, 7.756836
1159.929, 64.19238
1161.019, 28.84277
1162.108, 94.70508
1163.198, 30.28027
1164.287, 41.16016
1165.376, 2.807617
1166.465, 47.23242
1167.553, 27.00391
1168.642, 19.29688
1169.730, 10.37402
1170.818, 1.273438
1171.906, 45.69434
1172.994, 35.69727
1174.082, 47.13965
1175.170, 35.03027
1176.257, 88.84375
1177.344, 94.23926
1178.431, 92.50098
1179.518, 178.3877
1180.605, 13.01953
1181.691, 50.25488
1182.778, 45.18848
1183.864, 57.38965
1184.950, 139.4883
1186.036, 8.102539
1187.122, 24.73633
1188.207, 30.39941
1189.292, 44.97070
1190.378, 32.26172
1191.463, 19.55371
1192.548, 61.90430
1193.632, 96.67090
1194.717, 59.96973
1195.801, 161.6016
1196.886, 48.70215
1197.970, 74.81836
1199.054, 162.9209
1200.137, 102.0127
1201.221, 42.91113
1202.305, 39.11621
1203.388, 147.1289
1204.471, 38.86816
1205.554, 8.3007999E-02
1206.637, 182.0039
1207.719, 20.08887
1208.802, 58.77734
1209.884, 26.37109
1210.966, 76.56445
1212.048, 132.1699
1213.130, 0.8906250
1214.212, 58.41797
1215.293, 155.2188
1216.374, 36.15625
1217.456, 21.41406
1218.536, 227.1748
1219.617, 146.7041
1220.698, 110.2158
1221.778, 11.71289
1222.859, 149.1787
1223.939, 153.6270
1225.019, 48.94238
1226.099, 133.4229
1227.178, 227.7725
1228.258, 93.10352
1229.337, 161.4150
1230.417, 35.29199
1231.496, 116.9414
1232.574, 157.1553
1233.653, 179.3516
1234.732, 169.5293
1235.810, 309.6875
1236.888, 113.8262
1237.966, 119.9453
1239.044, 40.04297
1240.122, 108.3223
1241.199, 25.37305
1242.277, 71.38965
1243.354, 208.3838
1244.431, 119.4600
1245.508, 213.4189
1246.585, 183.3574
1247.661, 266.4727
1248.738, 143.3711
1249.814, 69.63184
1250.890, 185.6885
1251.966, 103.4648
1253.042, 116.6445
1254.117, 126.4316
1255.193, 154.2676
1256.268, 153.8125
1257.343, 151.5879
1258.418, 161.5410
1259.493, 156.2227
1260.567, 158.8789
1261.642, 217.5195
1262.716, 239.1328
1263.790, 306.7266
1264.864, 289.4980
1265.938, 207.8457
1267.011, 253.5156
1268.085, 154.0176
1269.158, 126.5117
1270.231, 25.96484
1271.304, 246.3770
1272.377, 272.7812
1273.450, 136.1582
1274.522, 14.51562
1275.594, 230.8223
1276.666, 322.1055
1277.738, 208.3652
1278.810, 168.6035
1279.882, 311.8164
1280.953, 368.0039
1282.025, 222.1719
1283.096, 53.33984
1284.167, 216.7793
1285.238, 162.8613
1286.308, 237.9199
1287.379, 103.9531
1288.449, 96.79688
1289.519, 321.2715
1290.589, 102.2246
1291.659, 214.7266
1292.729, 87.62695
