##NAMES=Diopside
##RRUFFID=R060861
##IDEAL CHEMISTRY=CaMgSi_2_O_6_
##LOCALITY=Red Mountain Volcano, NW of Flagstaff, Arizona, USA
##OWNER=RRUFF
##SOURCE=Jennifer Sano
##DESCRIPTION=Worn brown fragment
##STATUS=The identification of this mineral has been confirmed by X-ray diffraction and chemical analysis
##URL=rruff.info/R060861
##MEASURED CHEMISTRY=(Ca_0.72_Fe^2+^_0.23_Na_0.05_)_Σ=1_(Mg_0.80_Al_0.15_Ti_0.03_Fe^3+^_0.02_)_Σ=1_(Si_1.82_Al_0.18_)_Σ=2_O_6_
##PIN_ID=M00947
##ORIENTATION=Laser parallel to a* (1 0 0). Fiducial mark perpendicular to laser is parallel to b [0 1 0]
212.8350, 0.0000000E+00
214.0620, 143.2266
215.2880, 2.225586
216.5150, 28.96582
217.7410, 1.046875
218.9680, 49.76367
220.1940, 2.881836
221.4190, 114.7930
222.6450, 232.3721
223.8700, 177.4561
225.0960, 274.1436
226.3210, 474.9365
227.5450, 483.8301
228.7700, 531.4873
229.9940, 556.6875
231.2190, 608.3096
232.4430, 681.6777
233.6660, 717.5322
234.8900, 734.4658
236.1140, 761.9482
237.3370, 830.3467
238.5600, 904.5352
239.7830, 953.1582
241.0050, 1160.926
242.2280, 1137.233
243.4500, 1174.337
244.6720, 1472.072
245.8940, 1581.220
247.1160, 1525.257
248.3370, 1597.112
249.5580, 1767.029
250.7790, 1568.316
252.0000, 1323.733
253.2210, 1452.266
254.4410, 1419.900
255.6620, 1489.623
256.8820, 1254.423
258.1020, 1417.284
259.3210, 1268.772
260.5410, 1051.484
261.7600, 1033.102
262.9790, 608.0811
264.1980, 351.0596
265.4170, 241.0332
266.6360, 156.0723
267.8540, 92.24414
269.0720, 8.538086
270.2900, 92.98242
271.5080, 119.9033
272.7260, 91.15918
273.9430, 2.496094
275.1600, 56.55371
276.3770, 52.60547
277.5940, 145.3252
278.8100, 147.1562
280.0270, 65.89551
281.2430, 328.5166
282.4590, 396.9746
283.6750, 422.2256
284.8910, 575.2637
286.1060, 418.1514
287.3210, 815.0488
288.5360, 963.9492
289.7510, 882.8477
290.9660, 1191.738
292.1800, 1482.613
293.3950, 1608.464
294.6090, 1678.285
295.8230, 2045.066
297.0360, 2181.800
298.2500, 2568.482
299.4630, 2754.109
300.6760, 2894.670
301.8890, 3441.145
303.1020, 3619.523
304.3150, 3928.808
305.5270, 4193.000
306.7390, 4684.100
307.9510, 5281.111
309.1630, 5443.037
310.3750, 6124.878
311.5860, 6712.633
312.7970, 7253.279
314.0080, 7884.780
315.2190, 8604.966
316.4300, 9063.162
317.6400, 9899.948
318.8510, 10621.03
320.0610, 11267.08
321.2710, 12237.01
322.4800, 12932.11
323.6900, 13676.31
324.8990, 14488.63
326.1080, 14917.72
327.3170, 15720.81
328.5260, 15987.72
329.7340, 16611.25
330.9430, 16652.79
332.1510, 16717.43
333.3590, 16763.96
334.5670, 16512.75
335.7740, 16306.19
336.9820, 16025.46
338.1890, 15632.75
339.3960, 15227.65
340.6030, 14829.41
341.8100, 14305.17
343.0160, 13909.66
344.2220, 13421.35
345.4280, 12886.77
346.6340, 12391.56
347.8400, 11862.69
349.0460, 11279.16
350.2510, 11038.98
351.4560, 10367.46
352.6610, 10050.28
353.8660, 9676.747
355.0700, 9147.172
356.2750, 8622.555
357.4790, 8335.890
358.6830, 7863.857
359.8870, 7566.600
361.0910, 7337.105
362.2940, 6960.675
363.4970, 6659.100
364.7000, 6375.473
365.9030, 6032.623
367.1060, 6055.757
368.3080, 5935.752
369.5110, 5649.611
370.7130, 5603.339
371.9150, 5312.938
373.1170, 5197.381
374.3180, 5324.631
375.5200, 5139.691
376.7210, 5252.582
377.9220, 5173.319
379.1230, 5152.922
380.3230, 5107.400
381.5240, 5284.762
382.7240, 5365.016
383.9240, 5504.160
385.1240, 5537.152
386.3240, 5653.908
387.5230, 5754.102
388.7230, 5810.934
389.9220, 5850.402
391.1210, 5948.783
392.3200, 6049.074
393.5180, 6076.332
394.7170, 6013.559
395.9150, 5797.753
397.1130, 5728.918
398.3110, 5577.053
399.5080, 5115.154
400.7060, 4847.223
401.9030, 4382.256
403.1000, 4104.257
404.2970, 3562.221
405.4940, 3205.150
406.6910, 2641.044
407.8870, 2403.902
409.0830, 2097.260
410.2790, 1805.105
411.4750, 1503.217
412.6710, 1241.499
413.8660, 1043.569
415.0610, 934.3428
416.2560, 835.4531
417.4510, 637.3770
418.6460, 515.1621
419.8410, 458.2158
421.0350, 462.4912
422.2290, 362.1475
423.4230, 295.7627
424.6170, 306.2705
425.8100, 178.8730
427.0040, 161.7012
428.1970, 182.5723
429.3900, 177.5566
430.5830, 243.2939
431.7760, 148.1650
432.9680, 257.9775
434.1610, 121.7324
435.3530, 140.4287
436.5450, 52.06445
437.7360, 141.6357
438.9280, 34.14648
440.1190, 67.59180
441.3110, 127.0273
442.5020, 3.748047
443.6930, 9.539063
444.8830, 111.4033
446.0740, 57.36426
447.2640, 70.40918
448.4540, 42.53809
449.6440, 105.7451
450.8340, 166.0352
452.0240, 93.40820
453.2130, 149.8496
454.4020, 148.3623
455.5910, 2.937500
456.7800, 13.46484
457.9690, 165.8652
459.1570, 41.29004
460.3460, 31.00488
461.5340, 165.2344
462.7220, 35.75391
463.9090, 88.22461
465.0970, 80.55371
466.2840, 116.6025
467.4720, 166.7695
468.6590, 122.7021
469.8460, 202.6562
471.0320, 209.8994
472.2190, 134.3096
473.4050, 262.4863
474.5910, 187.2334
475.7770, 222.8516
476.9630, 157.6602
478.1490, 227.8652
479.3340, 294.3076
480.5190, 184.4512
481.7040, 325.2832
482.8890, 454.9883
484.0740, 315.6533
485.2580, 368.2881
486.4430, 474.8926
487.6270, 499.4453
488.8110, 520.9434
489.9950, 755.3750
491.1780, 780.7471
492.3620, 913.0674
493.5450, 934.3311
494.7280, 1039.548
495.9110, 1310.715
497.0940, 1757.833
498.2760, 1779.901
499.4590, 2191.920
500.6410, 2305.889
501.8230, 2834.781
503.0050, 3471.598
504.1860, 3845.338
505.3680, 4464.000
506.5490, 5062.586
507.7300, 5511.096
508.9110, 5791.529
510.0920, 6087.885
511.2730, 5965.166
512.4530, 5916.367
513.6330, 5595.494
514.8130, 5288.545
515.9930, 4884.521
517.1730, 4717.422
518.3520, 4522.248
519.5320, 4490.000
520.7110, 4306.678
521.8900, 4197.991
523.0690, 4248.812
524.2470, 4088.269
525.4260, 4020.653
526.6040, 4248.963
527.7820, 4208.201
528.9600, 4268.365
530.1380, 4281.460
531.3150, 4341.487
532.4930, 4457.445
533.6700, 4611.336
534.8470, 4564.160
536.0240, 4670.915
537.2000, 4646.604
538.3770, 4862.223
539.5530, 4818.363
540.7290, 4953.257
541.9050, 4886.672
543.0810, 4703.014
544.2570, 4873.291
545.4320, 4659.498
546.6080, 4911.636
547.7830, 4815.705
548.9580, 4685.703
550.1320, 4665.633
551.3070, 4540.492
552.4810, 4499.287
553.6550, 4447.630
554.8300, 4453.692
556.0030, 4382.314
557.1770, 4320.910
558.3510, 4345.490
559.5240, 4291.046
560.6970, 4268.326
561.8700, 4294.359
563.0430, 4274.402
564.2160, 4317.961
565.3880, 4174.180
566.5600, 4032.388
567.7320, 4148.867
568.9040, 4082.137
570.0760, 4112.510
571.2480, 4077.863
572.4190, 3913.370
573.5900, 3967.251
574.7610, 3858.090
575.9320, 3799.280
577.1030, 3719.897
578.2740, 3566.529
579.4440, 3362.012
580.6140, 3215.271
581.7840, 3081.895
582.9540, 2928.629
584.1240, 2778.887
585.2930, 2612.829
586.4630, 2307.352
587.6320, 2128.204
588.8010, 1876.886
589.9700, 1717.545
591.1380, 1598.841
592.3070, 1486.052
593.4750, 1248.565
594.6430, 1079.354
595.8110, 990.9785
596.9790, 818.3760
598.1460, 696.1904
599.3140, 519.7490
600.4810, 414.8018
601.6480, 299.2852
602.8150, 118.1777
603.9820, 196.3926
605.1480, 26.96875
606.3150, 9.759766
607.4810, 114.3203
608.6470, 18.47168
609.8130, 27.26562
610.9790, 127.1211
612.1440, 19.17578
613.3100, 149.4287
614.4750, 177.1680
615.6400, 357.7021
616.8050, 328.2754
617.9690, 384.3135
619.1340, 516.4365
620.2980, 583.2842
621.4620, 646.9775
622.6260, 729.4561
623.7900, 865.4805
624.9540, 895.3984
626.1170, 1040.838
627.2810, 1274.945
628.4440, 1272.941
629.6070, 1557.295
630.7690, 1744.035
631.9320, 2163.063
633.0950, 2287.479
634.2570, 2347.541
635.4190, 2873.788
636.5810, 2989.953
637.7430, 3462.039
638.9040, 3796.045
640.0660, 4175.972
641.2270, 4825.818
642.3880, 5324.588
643.5490, 6021.279
644.7100, 6656.893
645.8700, 7530.424
647.0310, 8321.883
648.1910, 9300.264
649.3510, 10579.57
650.5110, 11951.79
651.6710, 13622.95
652.8300, 15487.02
653.9900, 17405.02
655.1490, 19589.95
656.3080, 22367.80
657.4670, 24768.58
658.6250, 28293.28
659.7840, 31588.91
660.9420, 34737.47
662.1010, 38285.96
663.2590, 41965.38
664.4170, 45156.72
665.5740, 47373.99
666.7320, 48807.20
667.8890, 49120.32
669.0460, 48600.39
670.2030, 46804.38
671.3600, 44419.30
672.5170, 40962.16
673.6740, 37297.95
674.8300, 33729.68
675.9860, 30413.33
677.1420, 27225.91
678.2980, 24142.44
679.4540, 21411.89
680.6090, 18964.28
681.7650, 16829.61
682.9200, 14934.87
684.0750, 13155.07
685.2300, 11885.20
686.3840, 10676.28
687.5390, 9579.284
688.6930, 8614.556
689.8470, 7648.124
691.0010, 6954.951
692.1550, 6301.719
693.3090, 5671.426
694.4620, 5154.074
695.6160, 4787.664
696.7690, 4422.196
697.9220, 4147.670
699.0750, 3781.086
700.2280, 3499.615
701.3800, 3312.750
702.5320, 2956.999
703.6850, 2779.197
704.8370, 2580.345
705.9880, 2414.441
707.1400, 2156.491
708.2920, 2153.495
709.4430, 1866.454
710.5940, 1731.367
711.7450, 1465.234
712.8960, 1490.058
714.0470, 1247.835
715.1970, 1095.573
716.3480, 1043.269
717.4980, 922.9287
718.6480, 832.5488
719.7980, 687.1357
720.9470, 604.6865
722.0970, 580.2412
723.2460, 495.7676
724.3960, 458.2695
725.5450, 219.7725
726.6940, 88.26367
727.8420, 133.7363
728.9910, 33.19434
730.1390, 15.37695
731.2870, 14.98340
732.4350, 47.64258
733.5830, 95.02539
734.7310, 96.14258
735.8790, 171.0430
737.0260, 241.0967
738.1730, 232.3457
739.3200, 166.0508
740.4670, 170.9756
741.6140, 196.4551
742.7610, 122.1689
743.9070, 269.1084
745.0530, 332.9502
746.1990, 334.1064
747.3450, 406.2305
748.4910, 278.5957
749.6370, 287.4414
750.7820, 246.6953
751.9270, 325.9404
753.0720, 194.0000
754.2170, 76.14160
755.3620, 217.6904
756.5070, 95.88965
757.6510, 145.4561
758.7950, 104.8467
759.9400, 128.0391
761.0840, 133.2373
762.2270, 165.5127
763.3710, 157.8740
764.5140, 67.31445
765.6580, 43.79395
766.8010, 66.69531
767.9440, 0.1767580
769.0870, 17.35449
770.2290, 14.09766
771.3720, 27.45898
772.5140, 75.96973
773.6560, 176.3945
774.7990, 126.8154
775.9400, 109.2373
777.0820, 341.6582
778.2240, 220.0791
779.3650, 52.50391
780.5060, 216.9297
781.6470, 312.3613
782.7880, 297.7969
783.9290, 240.2393
785.0690, 316.6904
786.2100, 545.1484
787.3500, 760.6172
788.4900, 585.0967
789.6300, 421.5898
790.7700, 661.0938
791.9090, 790.6123
793.0490, 708.9863
794.1880, 675.6973
795.3270, 712.2627
796.4660, 770.8477
797.6050, 909.4521
798.7440, 854.0762
799.8820, 1082.721
801.0200, 1110.389
802.1590, 1009.077
803.2970, 1290.791
804.4340, 1156.531
805.5720, 1329.296
806.7100, 1394.088
807.8470, 1488.907
808.9840, 1636.756
810.1210, 1641.633
811.2580, 1855.542
812.3950, 1645.482
813.5310, 1830.455
814.6680, 2028.461
815.8040, 1888.503
816.9400, 2007.578
818.0760, 2174.690
819.2120, 2037.842
820.3470, 2037.030
821.4830, 2087.257
822.6180, 2150.523
823.7530, 2077.833
824.8880, 2087.183
826.0230, 2177.576
827.1580, 2224.013
828.2920, 2189.935
829.4270, 2094.021
830.5610, 2114.595
831.6950, 2008.214
832.8290, 1970.881
833.9620, 2060.598
835.0960, 1936.363
836.2290, 2040.179
837.3620, 2054.045
838.4950, 1898.965
839.6280, 1858.937
840.7610, 1951.964
841.8940, 1825.043
843.0260, 1757.179
844.1580, 1806.371
845.2910, 1771.621
846.4230, 1837.927
847.5540, 1802.293
848.6860, 1669.717
849.8170, 1976.200
850.9490, 1880.745
852.0800, 2116.352
853.2110, 2030.021
854.3420, 2111.753
855.4730, 2212.549
856.6030, 2403.408
857.7340, 2444.714
858.8640, 2440.326
859.9940, 2569.383
861.1240, 2589.508
862.2540, 2599.699
863.3830, 2629.250
864.5130, 2719.579
865.6420, 2855.314
866.7710, 2757.361
867.9000, 2757.676
869.0290, 2706.185
870.1570, 2649.968
871.2860, 2638.940
872.4140, 2775.449
873.5430, 2538.833
874.6710, 2621.034
875.7980, 2495.674
876.9260, 2523.291
878.0540, 2239.617
879.1810, 2258.907
880.3080, 2185.357
881.4360, 2159.271
882.5630, 2239.482
883.6890, 1951.710
884.8160, 2062.439
885.9420, 1815.054
887.0690, 1879.769
888.1950, 1884.954
889.3210, 1782.842
890.4470, 1838.004
891.5730, 1739.206
892.6980, 1692.965
893.8240, 1677.330
894.9490, 1648.720
896.0740, 1630.508
897.1990, 1659.209
898.3240, 1621.839
899.4480, 1646.248
900.5730, 1691.969
901.6970, 1676.927
902.8210, 1847.373
903.9450, 1655.692
905.0690, 1641.792
906.1930, 1552.572
907.3160, 1718.799
908.4400, 1590.906
909.5630, 1805.188
910.6860, 1726.637
911.8090, 1645.232
912.9320, 1573.980
914.0550, 1751.878
915.1770, 1778.953
916.2990, 1841.176
917.4210, 1890.559
918.5440, 1995.115
919.6650, 2027.748
920.7870, 2067.674
921.9090, 2121.709
923.0300, 2245.917
924.1510, 2300.766
925.2720, 2354.789
926.3930, 2342.469
927.5140, 2268.271
928.6350, 2193.209
929.7550, 2262.269
930.8760, 2324.464
931.9960, 2277.800
933.1160, 2358.265
934.2360, 2350.886
935.3550, 2399.654
936.4750, 2362.549
937.5940, 2398.572
938.7140, 2429.754
939.8330, 2409.060
940.9520, 2436.476
942.0710, 2410.075
943.1890, 2442.791
944.3080, 2444.643
945.4260, 2434.633
946.5440, 2531.748
947.6620, 2406.012
948.7800, 2606.413
949.8980, 2686.940
951.0160, 2692.596
952.1330, 2855.388
953.2500, 2886.986
954.3680, 2891.376
955.4850, 3116.577
956.6010, 2989.902
957.7180, 3288.354
958.8350, 3216.930
959.9510, 3313.631
961.0670, 3613.459
962.1830, 3667.412
963.2990, 3802.488
964.4150, 3799.684
965.5310, 3950.002
966.6460, 4173.443
967.7620, 4278.006
968.8770, 4511.689
969.9920, 4617.492
971.1070, 4786.418
972.2210, 4799.463
973.3360, 5083.627
974.4500, 5319.912
975.5650, 5227.320
976.6790, 5621.273
977.7930, 5837.511
978.9070, 6104.284
980.0200, 6550.182
981.1340, 6657.197
982.2470, 6802.328
983.3610, 7222.580
984.4740, 7510.084
985.5870, 7814.439
986.6990, 8286.045
987.8120, 8802.766
988.9250, 9061.603
990.0370, 9373.554
991.1490, 10098.62
992.2610, 10482.81
993.3730, 11065.11
994.4850, 11619.52
995.5960, 12321.04
996.7080, 12824.69
997.8190, 13460.45
998.9300, 14201.31
1000.041, 14849.32
1001.152, 15521.46
1002.263, 16211.74
1003.373, 16397.17
1004.484, 16890.76
1005.594, 16896.50
1006.704, 17209.43
1007.814, 16871.53
1008.924, 16859.84
1010.034, 16418.31
1011.143, 15856.32
1012.253, 15218.14
1013.362, 14451.10
1014.471, 13677.36
1015.580, 12799.11
1016.689, 11788.83
1017.797, 10873.78
1018.906, 10328.25
1020.014, 9842.141
1021.122, 9089.801
1022.230, 8548.651
1023.338, 8257.003
1024.446, 7876.084
1025.554, 7555.545
1026.661, 7272.798
1027.768, 7004.805
1028.875, 6850.950
1029.983, 6624.983
1031.089, 6532.780
1032.196, 6572.230
1033.303, 6211.641
1034.409, 6342.797
1035.515, 6266.158
1036.622, 6175.715
1037.728, 6076.832
1038.833, 5956.427
1039.939, 5758.980
1041.045, 5706.064
1042.150, 5567.077
1043.255, 5458.098
1044.360, 5480.443
1045.465, 5361.836
1046.570, 5213.143
1047.675, 4858.895
1048.779, 4783.235
1049.884, 4673.453
1050.988, 4628.434
1052.092, 4351.381
1053.196, 4264.058
1054.300, 4138.553
1055.404, 3939.068
1056.507, 3804.383
1057.610, 3753.979
1058.714, 3521.733
1059.817, 3330.758
1060.920, 3196.049
1062.022, 3168.898
1063.125, 3115.707
1064.228, 2952.206
1065.330, 2860.342
1066.432, 2697.069
1067.534, 2630.849
1068.636, 2572.053
1069.738, 2603.464
1070.840, 2470.949
1071.941, 2491.491
1073.042, 2294.545
1074.144, 2388.979
1075.245, 2194.041
1076.346, 2161.687
1077.446, 2186.483
1078.547, 2117.840
1079.647, 2023.110
1080.748, 2081.930
1081.848, 2112.375
1082.948, 2046.980
1084.048, 1934.273
1085.148, 1769.697
1086.247, 1863.731
1087.347, 1826.646
1088.446, 1717.174
1089.545, 1791.606
1090.644, 1762.986
1091.743, 1691.760
1092.842, 1596.108
1093.940, 1660.218
1095.039, 1554.516
1096.137, 1515.370
1097.235, 1539.824
1098.333, 1422.013
1099.431, 1350.722
1100.529, 1363.773
1101.627, 1341.954
1102.724, 1480.974
1103.822, 1276.238
1104.919, 1321.106
1106.016, 1124.304
1107.113, 1223.663
1108.209, 1240.199
1109.306, 1144.533
1110.402, 1206.592
1111.499, 1072.672
1112.595, 1003.611
1113.691, 1075.515
1114.787, 1077.813
1115.883, 1123.280
1116.978, 1101.188
1118.074, 1217.588
1119.169, 1200.814
1120.264, 1124.549
1121.359, 1210.442
1122.454, 1205.647
1123.549, 1175.706
1124.644, 1152.767
1125.738, 934.7227
1126.832, 855.4111
1127.927, 660.7314
1129.021, 620.6182
1130.115, 509.4111
1131.208, 358.5137
1132.302, 368.3057
1133.396, 346.2646
1134.489, 215.9629
1135.582, 185.6768
1136.675, 195.4883
1137.768, 191.1650
1138.861, 109.2969
1139.954, 51.68164
1141.046, 100.3594
1142.138, 24.15234
1143.231, 31.24902
1144.323, 51.45801
1145.415, 3.677734
1146.507, 135.2979
1147.598, 51.63477
1148.690, 124.0938
1149.781, 229.9385
1150.872, 109.0938
1151.964, 186.0908
1153.054, 72.67676
1154.145, 25.89844
1155.236, 171.8057
1156.327, 161.1113
1157.417, 24.49902
1158.507, 68.01855
1159.597, 146.6479
1160.687, 122.6626
1161.777, 208.3062
1162.867, 196.5938
1163.956, 157.9668
1165.046, 84.55176
1166.135, 146.0234
1167.224, 143.8525
1168.313, 115.6748
1169.402, 105.4814
1170.491, 188.6250
1171.580, 83.85352
1172.668, 189.3726
1173.756, 152.7666
1174.845, 73.62598
1175.933, 85.60791
1177.020, 79.68115
1178.108, 177.9258
1179.196, 55.35498
1180.283, 96.90723
1181.371, 152.6055
1182.458, 4.482422
1183.545, 139.4624
1184.632, 116.6187
1185.719, 128.9399
1186.805, 42.18750
1187.892, 58.81445
1188.978, 89.49805
1190.065, 104.7485
1191.151, 21.74463
1192.237, 144.6899
1193.323, 39.50830
1194.408, 12.22607
1195.494, 93.82812
1196.579, 32.65625
1197.664, 1.716797
1198.750, 109.9629
1199.835, 108.1230
1200.919, 31.80469
1202.004, 166.1172
1203.089, 102.9600
1204.173, 27.70898
1205.258, 83.33350
1206.342, 72.85547
1207.426, 73.26904
1208.510, 159.5732
1209.594, 28.79004
1210.677, 84.87500
1211.761, 172.8511
1212.844, 170.7378
1213.927, 84.53467
1215.010, 112.2173
1216.093, 128.6108
1217.176, 80.26660
1218.259, 203.6201
1219.341, 214.8838
1220.424, 224.0586
1221.506, 205.1450
1222.588, 181.1387
1223.670, 266.0347
1224.752, 253.8447
1225.834, 323.5654
1226.915, 252.2031
1227.997, 281.7500
1229.078, 382.2095
1230.159, 309.5854
1231.240, 299.8750
1232.321, 329.0757
1233.402, 300.1899
1234.483, 378.2158
1235.563, 318.1553
1236.644, 233.0068
1237.724, 291.7588
1238.804, 241.4189
1239.884, 358.9795
1240.964, 263.4521
1242.044, 395.8271
1243.123, 408.1152
1244.203, 338.3159
1245.282, 321.4253
1246.361, 416.4419
1247.440, 335.3711
1248.519, 407.2075
1249.598, 402.9556
1250.676, 428.6147
1251.755, 368.1860
1252.833, 391.6660
1253.911, 392.0557
1254.989, 417.3550
1256.067, 481.5649
1257.145, 362.6870
1258.223, 433.7158
1259.300, 455.6548
1260.378, 391.5049
1261.455, 325.2627
1262.532, 411.9229
1263.609, 334.4922
1264.686, 465.9634
1265.763, 440.3457
1266.840, 469.6392
1267.916, 387.8428
1268.992, 360.9531
1270.069, 457.9668
1271.145, 498.8926
1272.221, 513.3574
1273.296, 597.1064
1274.372, 410.7720
1275.448, 501.2388
1276.523, 420.3389
1277.598, 430.5742
1278.673, 501.7246
1279.749, 535.4360
1280.823, 476.8281
1281.898, 376.5371
1282.973, 479.1797
1284.047, 400.3877
1285.122, 451.8965
1286.196, 436.7114
1287.270, 317.5449
1288.344, 461.2812
1289.418, 520.9170
1290.491, 397.7075
1291.565, 519.7705
1292.638, 476.2256
1293.712, 497.7666
1294.785, 429.5825
1295.858, 522.2085
1296.931, 430.6445
1298.003, 389.5273
1299.076, 433.7290
1300.149, 401.3975
1301.221, 458.3306
1302.293, 352.3354
1303.365, 450.3350
1304.437, 483.0059
1305.509, 393.6328
1306.581, 420.3428
1307.652, 432.6025
1308.724, 558.2754
1309.795, 424.0645
1310.866, 391.0859
1311.937, 437.1377
1313.008, 367.4556
1314.079, 441.9478
1315.150, 265.4102
1316.220, 372.0654
1317.291, 291.4321
1318.361, 260.6299
1319.431, 328.5479
1320.501, 286.1885
1321.571, 372.5771
1322.641, 476.5278
1323.710, 492.7632
1324.780, 378.5112
1325.849, 354.6558
1326.918, 420.7373
1327.987, 456.3779
1329.056, 403.7979
1330.125, 433.3550
1331.194, 464.3882
1332.263, 419.1196
1333.331, 450.4551
1334.399, 446.1431
1335.467, 438.2109
1336.535, 424.8760
1337.603, 455.4888
1338.671, 389.8926
1339.739, 426.7285
1340.806, 462.9180
1341.874, 406.9233
1342.941, 416.2212
1344.008, 429.3633
1345.075, 401.8726
1346.142, 412.4766
1347.209, 411.4756
1348.275, 413.2500
1349.342, 431.5444
1350.408, 441.1890
1351.475, 479.2310
1352.541, 522.4854
1353.607, 384.5234
1354.673, 429.9766
1355.738, 548.8018
1356.804, 371.8638
1357.869, 382.3755
1358.935, 374.5142
1360.000, 425.4951
1361.065, 408.4468
1362.130, 428.0786
1363.195, 455.6841
1364.259, 403.5205
1365.324, 413.4512
1366.388, 433.6470
1367.453, 369.2461
1368.517, 417.9229
1369.581, 385.9771
1370.645, 412.8276
1371.709, 418.7188
1372.772, 390.1802
1373.836, 357.4365
1374.899, 304.2144
