##NAMES=Dioptase
##RRUFFID=R050010
##IDEAL CHEMISTRY=Cu^2+^SiO_3_&#183;H_2_O
##LOCALITY=Tsumeb mine, Tsumeb, Otavi District, Oshikoto, Namibia
##OWNER=RRUFF
##SOURCE=Eugene Schlepp
##DESCRIPTION=Bluish green single crystals
##STATUS=The identification of this mineral has been confirmed by X-ray diffraction and chemical analysis
##URL=rruff.info/R050010
##MEASURED CHEMISTRY=Cu_1.00_Si_1.00_O_3_Â·H_2_O ; trace amounts of Mg and Al; OH estimated by difference
##PIN_ID=L00476
##ORIENTATION=Laser parallel to c* (0 0 1). Fiducial mark perpendicular to laser is parallel to a [1 0 0]
104.600, 0.000
105.994, 14.915
107.387, 169.078
108.781, 398.433
110.174, 927.468
111.566, 1709.291
112.959, 2238.061
114.351, 3075.787
115.744, 3262.662
117.136, 3567.069
118.527, 3233.663
119.919, 2865.514
121.310, 2944.482
122.701, 2861.688
124.092, 3617.837
125.482, 4253.363
126.873, 6134.557
128.263, 9202.444
129.653, 14258.507
131.042, 19976.916
132.432, 20618.234
133.821, 19622.090
135.210, 19568.064
136.599, 18498.482
137.987, 15236.695
139.376, 14935.492
140.764, 8396.990
142.152, 4009.510
143.539, 1862.810
144.927, 726.729
146.314, 131.183
147.701, 155.904
149.088, 427.581
150.474, 246.886
151.861, 215.847
153.247, 349.504
154.633, 1016.143
156.018, 2345.777
157.404, 4051.911
158.789, 6672.488
160.174, 8872.721
161.559, 9042.180
162.943, 8050.975
164.327, 5299.574
165.711, 3677.711
167.095, 2305.267
168.479, 1522.288
169.862, 1398.817
171.246, 1154.894
172.628, 1640.551
174.011, 2235.817
175.394, 4890.719
176.776, 6365.277
178.158, 6291.433
179.540, 6947.082
180.922, 5810.668
182.303, 4943.989
183.684, 3777.061
185.065, 3149.897
186.446, 2302.512
187.826, 1874.921
189.207, 1877.177
190.587, 1309.359
191.967, 1531.505
193.346, 1593.637
194.726, 2315.761
196.105, 2717.880
197.484, 2600.001
198.862, 2322.120
200.241, 1724.207
201.619, 1636.264
202.997, 1768.301
204.375, 1820.324
205.753, 1865.318
207.130, 2153.619
208.507, 2915.485
209.884, 3457.764
211.261, 4387.846
212.638, 5208.150
214.014, 6372.691
215.390, 8127.377
216.766, 9992.199
218.141, 13067.151
219.517, 15972.235
220.892, 20350.002
222.267, 23495.430
223.642, 25891.195
225.016, 27076.975
226.391, 24642.309
227.765, 22437.748
229.139, 17903.273
230.512, 14388.885
231.886, 10934.587
233.259, 8360.367
234.632, 6476.223
236.005, 4762.156
237.377, 3908.160
238.749, 2914.229
240.122, 2600.336
241.493, 2356.463
242.865, 1752.606
244.237, 1718.764
245.608, 1067.936
246.979, 751.121
248.350, 441.320
249.720, 294.531
251.090, 234.754
252.461, 230.990
253.830, 310.238
255.200, 519.499
256.570, 968.772
257.939, 1651.057
259.308, 2807.354
260.677, 4773.656
262.045, 7509.956
263.414, 11806.268
264.782, 13922.595
266.150, 15028.930
267.517, 12675.275
268.885, 9701.637
270.252, 7190.010
271.619, 5308.121
272.986, 4408.098
274.353, 3568.766
275.719, 3329.904
277.085, 3231.380
278.451, 3383.108
279.817, 3645.044
281.182, 3747.110
282.548, 4329.148
283.913, 4651.224
285.278, 5113.345
286.642, 5935.498
288.007, 6397.719
289.371, 8029.981
290.735, 8252.305
292.099, 8733.697
293.462, 8244.549
294.826, 6865.561
296.189, 5506.670
297.552, 3657.907
298.914, 2509.236
300.277, 1403.629
301.639, 822.080
303.001, 401.577
304.363, 41.886
305.724, 92.369
307.086, 361.892
308.447, 409.527
309.808, 427.293
311.168, 506.197
312.529, 514.115
313.889, 578.317
315.249, 485.353
316.609, 342.562
317.969, 193.244
319.328, 86.993
320.687, 476.207
322.046, 1104.386
323.405, 1525.509
324.764, 2154.579
326.122, 2244.600
327.480, 1964.572
328.838, 1547.497
330.196, 980.376
331.553, 736.212
332.910, 388.006
334.267, 293.762
335.624, 210.476
336.981, 70.148
338.337, 126.764
339.693, 36.333
341.049, 185.841
342.405, 317.298
343.760, 391.713
345.116, 824.100
346.471, 1019.461
347.826, 1852.795
349.180, 2648.104
350.535, 4357.390
351.889, 6986.651
353.243, 11225.887
354.597, 17545.104
355.950, 22374.297
357.304, 24553.471
358.657, 20662.613
360.010, 15271.743
361.362, 10460.847
362.715, 7109.926
364.067, 5448.984
365.419, 3798.019
366.771, 3247.030
368.123, 2556.019
369.474, 2124.788
370.825, 1999.071
372.176, 1666.814
373.527, 1717.972
374.877, 1564.681
376.228, 1586.237
377.578, 1809.804
378.928, 1677.378
380.277, 2061.961
381.627, 2098.552
382.976, 2554.150
384.325, 2910.741
385.674, 3277.288
387.023, 4283.789
388.371, 4860.293
389.719, 6356.803
391.067, 7743.318
392.415, 10489.841
393.762, 13486.367
395.110, 16782.891
396.457, 21649.422
397.804, 23525.963
399.150, 24592.498
400.497, 22509.043
401.843, 18625.588
403.189, 15172.132
404.535, 11188.681
405.881, 8725.230
407.226, 6461.784
408.571, 5118.336
409.916, 4394.891
411.261, 3611.447
412.605, 3537.834
413.950, 3453.705
415.294, 3569.553
416.638, 3846.027
417.981, 3782.589
419.325, 4159.151
420.668, 4115.715
422.011, 4422.279
423.354, 4428.843
424.697, 4405.408
426.039, 4791.974
427.381, 4608.539
428.723, 5105.105
430.065, 4991.670
431.406, 5168.649
432.748, 5185.556
434.089, 5065.456
435.430, 5547.350
436.770, 5114.382
438.111, 5058.417
439.451, 4992.218
440.791, 4576.536
442.131, 4584.139
443.471, 4095.361
444.810, 4083.323
446.149, 3759.866
447.488, 3720.037
448.827, 3726.389
450.166, 3537.124
451.504, 3860.905
452.842, 3800.769
454.180, 3727.828
455.518, 3725.749
456.855, 3221.922
458.193, 3147.430
459.530, 2551.529
460.867, 2288.625
462.203, 1914.625
463.540, 1622.635
464.876, 1583.617
466.212, 1236.961
467.548, 1220.058
468.883, 1125.158
470.219, 812.191
471.554, 947.038
472.889, 684.862
474.224, 717.423
475.558, 521.753
476.892, 591.338
478.227, 524.242
479.561, 505.472
480.894, 595.829
482.228, 415.743
483.561, 527.640
484.894, 733.520
486.227, 586.383
487.559, 747.229
488.892, 770.060
490.224, 697.875
491.556, 567.673
492.888, 490.456
494.220, 569.217
495.551, 444.489
496.882, 473.881
498.213, 464.182
499.544, 391.044
500.874, 587.897
502.205, 476.811
503.535, 626.125
504.865, 668.729
506.194, 648.365
507.524, 873.987
508.853, 855.596
510.182, 1081.192
511.511, 1053.773
512.840, 1249.343
514.168, 1238.898
515.496, 1352.441
516.824, 1381.972
518.152, 1310.496
519.480, 1464.007
520.807, 1445.512
522.134, 1230.005
523.461, 1347.497
524.788, 1120.988
526.114, 1156.466
527.441, 1120.962
528.767, 928.468
530.093, 950.964
531.418, 734.457
532.744, 846.943
534.069, 630.428
535.394, 625.914
536.719, 566.413
538.044, 411.914
539.368, 528.414
540.693, 337.932
542.017, 316.449
543.340, 429.968
544.664, 348.485
545.987, 457.000
547.311, 481.521
548.634, 584.052
549.956, 663.582
551.279, 645.118
552.601, 1027.661
553.923, 1016.202
555.245, 1493.743
556.567, 1703.280
557.889, 2185.821
559.210, 2652.362
560.531, 2795.902
561.852, 3211.456
563.173, 3187.006
564.493, 3052.555
565.813, 2918.101
567.133, 2464.648
568.453, 2575.202
569.773, 2399.760
571.092, 2154.322
572.412, 2166.890
573.731, 1790.458
575.049, 1783.028
576.368, 1386.596
577.686, 1162.163
579.005, 987.727
580.323, 615.289
581.640, 479.848
582.958, 296.404
584.275, 217.957
585.593, 229.507
586.909, 74.055
588.226, 129.600
589.543, 11.142
590.859, 15.674
592.175, 42.802
593.491, 74.769
594.807, 6.115
596.122, 109.465
597.438, 106.119
598.753, 114.842
600.068, 167.641
601.382, 66.542
602.697, 174.492
604.011, 152.548
605.325, 51.699
606.639, 150.890
607.952, 62.174
609.266, 111.504
610.579, 49.904
611.892, 165.344
613.205, 179.882
614.518, 30.474
615.830, 143.173
617.142, 57.905
618.454, 23.321
619.766, 10.454
621.078, 204.756
622.389, 140.965
623.700, 253.174
625.011, 385.437
626.322, 263.768
627.632, 471.237
628.943, 363.857
630.253, 571.634
631.563, 556.588
632.872, 452.721
634.182, 693.046
635.491, 660.537
636.800, 906.155
638.109, 936.860
639.418, 1107.584
640.726, 1307.308
642.035, 1347.032
643.343, 1833.755
644.651, 2001.480
645.958, 2480.205
647.266, 3117.930
648.573, 3513.656
649.880, 4699.382
651.187, 5745.109
652.494, 7420.838
653.800, 9986.568
655.106, 12242.307
656.412, 16238.070
657.718, 18483.846
659.024, 20199.658
660.329, 19915.475
661.634, 17281.291
662.939, 15217.118
664.244, 11992.939
665.549, 9678.767
666.853, 7994.594
668.157, 6150.424
669.461, 5266.254
670.765, 4302.087
672.069, 3647.961
673.372, 3443.797
674.675, 2899.850
675.978, 2515.689
677.281, 1972.007
678.583, 1751.852
679.886, 1621.995
681.188, 1324.577
682.490, 1352.428
683.792, 1088.220
685.093, 1066.131
686.394, 1004.987
687.696, 824.247
688.997, 907.105
690.297, 677.740
691.598, 609.929
692.898, 644.330
694.198, 490.664
695.498, 627.662
696.798, 515.991
698.097, 538.167
699.397, 517.332
700.696, 349.329
701.995, 559.200
703.293, 437.684
704.592, 455.154
705.890, 565.028
707.188, 390.662
708.486, 551.482
709.784, 474.383
711.081, 658.260
712.378, 593.138
713.675, 629.212
714.972, 786.116
716.269, 754.294
717.565, 985.534
718.862, 975.416
720.158, 1063.298
721.453, 1265.181
722.749, 1435.899
724.045, 1547.428
725.340, 1818.811
726.635, 2061.885
727.930, 2626.123
729.224, 2844.010
730.519, 3351.896
731.813, 4078.785
733.107, 4694.914
734.401, 5980.803
735.694, 6426.693
736.988, 7802.582
738.281, 9028.475
739.574, 9124.363
740.867, 10260.258
742.160, 9876.152
743.452, 9232.044
744.744, 8757.938
746.036, 7283.423
747.328, 6578.977
748.620, 5471.533
749.911, 4442.085
751.202, 4027.485
752.493, 3111.866
753.784, 2809.464
755.075, 2420.521
756.365, 1871.276
757.655, 1868.390
758.945, 1466.743
760.235, 1371.494
761.525, 1209.597
762.814, 963.498
764.103, 950.994
765.392, 791.422
766.681, 680.747
767.969, 684.859
769.258, 569.094
770.546, 649.064
771.834, 418.681
773.122, 429.692
774.409, 468.691
775.697, 291.767
776.984, 391.817
778.271, 291.878
779.558, 358.952
780.844, 314.037
782.131, 271.132
783.417, 347.239
784.703, 262.355
785.989, 229.480
787.274, 336.614
788.560, 175.756
789.845, 301.905
791.130, 266.061
792.415, 272.222
793.699, 362.389
794.983, 220.563
796.268, 291.743
797.552, 272.927
798.835, 272.119
800.119, 371.315
801.402, 202.519
802.686, 286.728
803.969, 193.943
805.251, 149.165
806.534, 224.393
807.816, 78.626
809.098, 194.867
810.380, 137.114
811.662, 84.368
812.944, 206.628
814.225, 47.895
815.506, 105.168
816.787, 144.447
818.068, 86.737
819.349, 150.033
820.629, 29.336
821.909, 89.645
823.189, 120.961
824.469, 60.284
825.749, 6.613
827.028, 14.948
828.307, 20.710
829.586, 43.625
830.865, 26.032
832.144, 28.304
833.422, 42.354
834.700, 51.024
835.978, 47.286
837.256, 127.395
838.534, 94.130
839.811, 46.097
841.088, 24.667
842.365, 58.562
843.642, 11.201
844.919, 0.964
846.195, 66.724
847.472, 4.508
848.748, 3.710
850.023, 84.065
851.299, 0.873
852.575, 0.676
853.850, 3.525
855.125, 65.732
856.400, 30.052
857.674, 49.843
858.949, 19.350
860.223, 33.447
861.497, 37.319
862.771, 5.995
864.045, 31.045
865.318, 38.820
866.591, 22.466
867.864, 5.436
869.137, 2.398
870.410, 66.808
871.682, 45.395
872.955, 34.606
874.227, 10.829
875.499, 15.940
876.770, 33.707
878.042, 30.765
879.313, 24.257
880.584, 28.036
881.855, 48.182
883.126, 22.411
884.396, 59.721
885.667, 3.101
886.937, 80.156
888.207, 96.423
889.476, 58.701
890.746, 211.989
892.015, 149.289
893.284, 103.598
894.553, 219.919
895.822, 182.251
897.090, 259.594
898.359, 223.949
899.627, 334.317
900.895, 473.700
902.163, 396.111
903.430, 539.559
904.698, 602.023
905.965, 665.534
907.232, 916.090
908.499, 995.693
909.765, 1217.359
911.032, 1403.059
912.298, 1406.823
913.564, 1659.644
914.830, 1741.496
916.095, 1548.404
917.361, 1494.348
918.626, 1228.337
919.891, 1148.356
921.156, 978.437
922.420, 858.581
923.685, 868.737
924.949, 665.948
926.213, 749.190
927.477, 659.445
928.740, 641.719
930.004, 627.006
931.267, 659.305
932.530, 659.614
933.793, 641.937
935.056, 511.271
936.318, 658.619
937.581, 486.978
938.843, 566.350
940.104, 580.733
941.366, 537.129
942.628, 584.538
943.889, 587.973
945.150, 603.420
946.411, 753.079
947.672, 642.558
948.932, 840.049
950.193, 794.567
951.453, 897.099
952.713, 1114.651
953.973, 1077.221
955.232, 1306.803
956.491, 1397.410
957.751, 1231.029
959.010, 1362.664
960.268, 1237.313
961.527, 1277.977
962.785, 1135.705
964.044, 983.401
965.302, 936.110
966.559, 973.836
967.817, 859.616
969.075, 884.167
970.332, 842.934
971.589, 877.714
972.846, 889.136
974.102, 825.318
975.359, 944.142
976.615, 917.988
977.871, 953.812
979.127, 1115.691
980.383, 1036.388
981.638, 1187.311
982.893, 1153.775
984.149, 1241.739
985.404, 1455.421
986.658, 1485.687
987.913, 1602.703
989.167, 1801.794
990.421, 1854.793
991.675, 2234.865
992.929, 2317.552
994.183, 2684.664
995.436, 3202.023
996.689, 3447.850
997.942, 4416.478
999.195, 5122.189
1000.448, 6220.252
1001.700, 7964.000
1002.952, 8961.916
1004.204, 10339.862
1005.456, 10597.999
1006.708, 9946.288
1007.959, 9832.985
1009.210, 8788.721
1010.461, 8407.070
1011.712, 8593.682
1012.963, 8240.122
1014.213, 8818.503
1015.464, 8696.921
1016.714, 8385.357
1017.964, 9052.612
1019.214, 8351.058
1020.463, 8349.244
1021.712, 8184.385
1022.962, 7662.899
1024.210, 7811.427
1025.459, 7249.970
1026.708, 6817.694
1027.956, 6824.626
1029.204, 5821.718
1030.452, 5619.133
1031.700, 4956.399
1032.948, 4220.030
1034.195, 3959.675
1035.442, 3365.334
1036.689, 3041.765
1037.936, 2800.452
1039.183, 2239.151
1040.429, 2298.864
1041.676, 1873.590
1042.922, 1651.330
1044.168, 1688.084
1045.413, 1313.852
1046.659, 1399.630
1047.904, 1278.423
1049.149, 1055.229
1050.394, 1113.047
1051.639, 978.877
1052.884, 905.718
1054.128, 889.571
1055.372, 762.437
1056.616, 837.313
1057.860, 778.056
1059.104, 700.104
1060.347, 755.015
1061.590, 593.937
1062.833, 575.868
1064.076, 551.810
1065.319, 456.761
1066.561, 487.723
1067.803, 438.693
1069.046, 467.675
1070.287, 497.664
1071.529, 319.663
1072.771, 386.670
1074.012, 331.685
1075.253, 309.763
1076.494, 393.795
1077.735, 200.834
1078.975, 261.093
1080.216, 321.146
1081.456, 211.208
1082.696, 210.341
1083.936, 148.420
1085.175, 108.793
1086.415, 113.491
1087.654, 148.082
1088.893, 104.252
1090.132, 128.441
1091.371, 101.827
1092.609, 115.365
1093.847, 59.502
1095.085, 16.806
1096.323, 99.494
1097.561, 9.814
1098.799, 84.549
1100.036, 73.845
1101.273, 41.307
1102.510, 30.573
1103.747, 19.868
1104.983, 26.023
1106.220, 96.299
1107.456, 10.569
1108.692, 74.168
1109.928, 44.745
1111.163, 5.942
1112.399, 65.292
1113.634, 53.667
1114.869, 69.055
1116.104, 4.392
1117.339, 37.752
1118.573, 89.025
1119.808, 43.583
1121.042, 137.043
1122.276, 362.491
1123.509, 313.163
1124.743, 289.675
1125.976, 188.408
1127.210, 42.273
1128.443, 141.034
1129.675, 100.637
1130.908, 39.967
1132.141, 159.218
1133.373, 102.008
1134.605, 143.047
1135.837, 123.634
1137.068, 133.308
1138.300, 196.970
1139.531, 135.687
1140.762, 129.156
1141.993, 158.756
1143.224, 138.288
1144.455, 154.942
1145.685, 175.487
1146.915, 104.204
1148.145, 212.779
1149.375, 175.363
1150.605, 163.133
1151.834, 265.246
1153.063, 203.527
1154.292, 232.940
1155.521, 246.792
1156.750, 153.920
1157.978, 297.118
1159.207, 175.782
1160.435, 235.974
1161.663, 290.304
1162.891, 201.909
1164.118, 264.392
1165.345, 219.646
1166.573, 198.290
1167.800, 314.546
1169.026, 167.092
1170.253, 201.915
1171.480, 333.592
1172.706, 162.046
1173.932, 186.691
1175.158, 202.293
1176.383, 147.635
1177.609, 229.373
1178.834, 154.693
1180.059, 156.103
1181.284, 153.556
1182.509, 80.838
1183.734, 151.391
1184.958, 169.944
1186.182, 131.240
1187.406, 213.512
1188.630, 161.074
1189.854, 105.467
1191.077, 154.088
1192.301, 78.398
1193.524, 120.623
1194.747, 91.088
1195.969, 70.703
1197.192, 98.367
1198.414, 59.712
1199.636, 103.865
1200.858, 148.193
1202.080, 103.344
1203.302, 115.435
1204.523, 69.086
1205.744, 102.275
1206.966, 166.409
1208.186, 65.590
1209.407, 78.592
1210.628, 213.624
1211.848, 52.087
1213.068, 146.157
1214.288, 149.165
1215.508, 74.751
1216.727, 180.717
1217.947, 61.114
1219.166, 106.151
1220.385, 135.092
1221.604, 22.531
1222.822, 69.518
1224.041, 127.449
1225.259, 0.260
1226.477, 72.418
1227.695, 85.880
1228.913, 31.409
1230.130, 49.305
1231.348, 0.608
1232.565, 74.966
1233.782, 30.817
1234.999, 40.354
1236.215, 39.171
1237.432, 6.586
1238.648, 46.322
1239.864, 66.310
1241.080, 0.045
1242.296, 9.338
1243.511, 25.124
1244.726, 47.165
1245.942, 36.538
1247.156, 25.936
1248.371, 6.460
1249.586, 43.961
1250.800, 35.674
1252.014, 52.927
1253.228, 4.741
1254.442, 10.776
1255.656, 13.173
1256.869, 52.390
1258.083, 18.550
1259.296, 40.506
1260.509, 4.321
1261.722, 19.830
1262.934, 14.905
1264.147, 7.999
1265.359, 20.979
1266.571, 31.824
1267.783, 4.036
1268.994, 15.804
1270.206, 20.393
1271.417, 7.709
1272.628, 8.939
1273.839, 55.390
1275.050, 24.322
1276.260, 0.123
1277.471, 30.348
1278.681, 15.131
1279.891, 10.416
1281.101, 2.794
1282.310, 24.689
1283.520, 34.942
1284.729, 26.395
1285.938, 0.739
1287.147, 16.986
1288.356, 15.725
1289.564, 1.517
1290.773, 46.660
1291.981, 30.871
1293.189, 45.773
1294.397, 45.136
1295.604, 29.231
1296.812, 12.285
1298.019, 25.708
1299.226, 11.743
1300.433, 2.700
1301.640, 22.809
1302.846, 11.040
1304.053, 0.854
1305.259, 11.629
1306.465, 8.089
1307.671, 49.055
1308.876, 4.710
1310.082, 10.328
1311.287, 43.909
1312.492, 10.458
1313.697, 54.970
1314.902, 48.451
1316.106, 25.897
1317.310, 69.309
1318.515, 42.687
1319.719, 3.035
1320.922, 93.345
1322.126, 35.626
1323.329, 97.875
1324.533, 76.158
1325.736, 64.346
1326.939, 102.505
1328.141, 50.635
1329.344, 49.732
1330.546, 92.799
1331.748, 95.835
1332.950, 45.842
1334.152, 64.819
1335.354, 39.766
1336.555, 76.682
1337.757, 94.567
1338.958, 51.422
1340.159, 60.244
1341.359, 121.037
1342.560, 97.800
1343.760, 97.534
1344.960, 61.239
1346.160, 91.915
1347.360, 103.563
1348.560, 30.184
1349.759, 73.774
1350.959, 83.337
1352.158, 69.871
1353.357, 108.377
1354.555, 97.858
1355.754, 37.311
1356.952, 81.736
1358.151, 95.100
1359.349, 28.473
1360.546, 97.840
1361.744, 38.161
1362.941, 73.460
1364.139, 92.730
1365.336, 32.978
1366.533, 74.147
1367.730, 83.375
1368.926, 39.496
1370.123, 146.375
1371.319, 27.460
1372.515, 23.488
1373.711, 72.429
1374.906, 33.386
1376.102, 29.022
1377.297, 71.042
1378.492, 19.685
1379.687, 72.563
1380.882, 21.803
1382.077, 39.142
1383.271, 95.637
1384.465, 66.580
1385.659, 51.755
1386.853, 109.145
1388.047, 56.496
1389.240, 54.201
1390.434, 76.372
1391.627, 81.336
1392.820, 89.879
1394.013, 99.208
1395.205, 50.838
1396.398, 90.945
1397.590, 51.633
1398.782, 57.308
1399.974, 84.535
1401.166, 101.078
1402.357, 106.280
1403.549, 66.296
1404.740, 59.770
1405.931, 55.972
1407.122, 130.714
1408.313, 78.538
1409.503, 107.416
1410.693, 31.282
1411.883, 73.882
1413.073, 73.124
1414.263, 90.713
1415.453, 116.766
1416.642, 76.961
1417.831, 55.174
1419.020, 85.726
1420.209, 31.722
1421.398, 93.420
1422.587, 90.293
1423.775, 37.360
1424.963, 63.350
1426.151, 110.200
1427.339, 81.944
1428.526, 73.278
1429.714, 89.211
1430.901, 76.521
1432.088, 138.642
1433.275, 116.244
1434.462, 66.090
1435.648, 110.789
1436.835, 67.196
1438.021, 71.922
1439.207, 73.617
1440.393, 89.015
1441.579, 152.623
1442.764, 46.732
1443.949, 85.821
1445.135, 145.066
1446.320, 89.240
1447.504, 101.628
1448.689, 85.624
1449.873, 137.470
1451.058, 76.046
1452.242, 93.875
1453.426, 103.719
1454.609, 106.462
1455.793, 78.347
1456.976, 89.890
1458.159, 85.224
1459.342, 83.021
1460.525, 92.872
1461.708, 84.460
1462.890, 64.346
1464.073, 84.684
1465.255, 81.165
1466.437, 30.910
1467.619, 131.580
1468.800, 119.330
1469.982, 84.786
1471.163, 105.876
1472.344, 94.050
1473.525, 58.464
1474.706, 82.941
1475.886, 73.429
1477.066, 95.914
1478.247, 122.141
1479.427, 57.255
1480.607, 128.529
1481.786, 73.409
1482.966, 66.684
1484.145, 87.974
1485.324, 61.358
1486.503, 50.831
1487.682, 93.346
1488.860, 57.899
1490.039, 48.508
1491.217, 61.165
1492.395, 40.859
1493.573, 49.232
1494.751, 71.962
1495.928, 39.714
1497.106, 85.514
1498.283, 36.342
1499.460, 13.792
1500.637, 64.148
1501.814, 22.190
1502.990, 43.322
1504.166, 26.539
1505.342, 72.846
1506.518, 57.248
1507.694, 29.790
1508.870, 22.470
1510.045, 56.752
1511.221, 26.643
1512.396, 11.425
1513.571, 31.658
1514.745, 10.048
1515.920, 31.927
1517.094, 46.606
1518.269, 0.250
1519.443, 0.000
##END=



