##NAMES=Diopside
##RRUFFID=R050406
##IDEAL CHEMISTRY=CaMgSi_2_O_6_
##LOCALITY=unknown
##OWNER=RRUFF
##SOURCE=University of Arizona Mineral Museum
##DESCRIPTION=Brownish gray massive
##STATUS=The identification of this mineral has been confirmed by X-ray diffraction and chemical analysis
##URL=rruff.info/R050406
##MEASURED CHEMISTRY=(Ca_0.95_Na_0.05_)(Mg_0.75_Fe^2+^_0.18_Fe^3+^_0.05_Al_0.01_Ti_0.01_Mn^2+^_0.01_)(Si_0.98_Al_0.02_)_2_O_6_
##PIN_ID=M00100
##ORIENTATION=Laser parallel to (1 0 1). Fiducial mark perpendicular to laser is parallel to -b [0 -1 0]
94.71400, 0.0000000E+00
95.94800, 136.3823
97.18200, 7.022949
98.41600, 41.66650
99.64900, 111.1611
100.8830, 96.03271
102.1160, 49.00684
103.3490, 219.5293
104.5820, 681.4595
105.8150, 1129.928
107.0470, 2294.257
108.2800, 2021.464
109.5120, 3223.616
110.7440, 1800.934
111.9760, 1197.584
113.2080, 1020.315
114.4400, 927.9146
115.6710, 1113.196
116.9030, 793.9995
118.1340, 579.1855
119.3650, 288.6357
120.5960, 232.3955
121.8270, 221.3159
123.0580, 170.7769
124.2880, 255.7441
125.5190, 349.9756
126.7490, 577.8750
127.9790, 874.5186
129.2090, 1325.873
130.4390, 1769.905
131.6680, 2295.585
132.8980, 2778.864
134.1270, 3219.689
135.3560, 3992.021
136.5850, 4250.826
137.8140, 3937.080
139.0430, 3207.762
140.2710, 2365.852
141.5000, 1656.333
142.7280, 1642.195
143.9560, 953.4292
145.1840, 613.8633
146.4120, 564.3853
147.6390, 303.6167
148.8670, 157.3892
150.0940, 245.8677
151.3210, 245.5732
152.5490, 204.7856
153.7750, 272.6001
155.0020, 434.7412
156.2290, 413.2002
157.4550, 658.9683
158.6810, 873.0371
159.9080, 1261.399
161.1340, 1611.047
162.3590, 1723.972
163.5850, 1519.170
164.8110, 1322.635
166.0360, 963.3599
167.2610, 546.3398
168.4860, 469.5015
169.7110, 412.6328
170.9360, 354.7695
172.1610, 381.9453
173.3850, 323.1821
174.6100, 424.4961
175.8340, 494.9019
177.0580, 640.4077
178.2820, 605.0229
179.5050, 510.7559
180.7290, 319.6099
181.9520, 118.5903
183.1760, 268.7021
184.3990, 235.9463
185.6220, 223.2334
186.8450, 268.8438
188.0670, 236.5000
189.2900, 355.3066
190.5120, 330.2832
191.7340, 109.4629
192.9560, 157.9619
194.1780, 136.8467
195.4000, 35.94727
196.6220, 100.4355
197.8430, 56.32910
199.0640, 0.2490230
200.2860, 64.32617
201.5070, 41.51562
202.7270, 98.82031
203.9480, 27.24023
205.1690, 120.2236
206.3890, 91.56934
207.6090, 83.79688
208.8290, 35.04004
210.0490, 210.1074
211.2690, 187.2422
212.4890, 352.4971
213.7080, 506.8730
214.9280, 536.3682
216.1470, 784.9824
217.3660, 909.7158
218.5850, 1045.565
219.8030, 1257.516
221.0220, 1458.583
222.2400, 1716.765
223.4590, 1809.053
224.6770, 1970.428
225.8950, 1934.908
227.1120, 2028.502
228.3300, 2042.206
229.5480, 1965.021
230.7650, 1908.945
231.9820, 1808.978
233.1990, 1701.118
234.4160, 1490.365
235.6330, 1506.718
236.8490, 1236.175
238.0660, 1322.736
239.2820, 1316.399
240.4980, 1260.164
241.7140, 1227.495
242.9300, 1123.811
244.1460, 1306.062
245.3610, 1201.467
246.5770, 1194.307
247.7920, 1278.534
249.0070, 1188.111
250.2220, 1065.008
251.4370, 1099.198
252.6510, 928.6621
253.8660, 882.3818
255.0800, 909.3408
256.2940, 758.5254
257.5080, 878.9248
258.7220, 1269.527
259.9360, 1292.324
261.1490, 1614.307
262.3630, 468.4658
263.5760, 304.7969
264.7890, 242.2910
266.0020, 217.9453
267.2150, 71.75293
268.4270, 124.7080
269.6400, 124.8047
270.8520, 127.0391
272.0640, 57.40625
273.2760, 70.90527
274.4880, 207.5293
275.7000, 144.2783
276.9120, 344.1475
278.1230, 447.1348
279.3340, 455.2373
280.5450, 543.4531
281.7560, 539.7842
282.9670, 695.1934
284.1780, 773.7363
285.3880, 1098.383
286.5980, 1143.692
287.8090, 1475.869
289.0190, 1544.313
290.2290, 1900.147
291.4380, 2195.897
292.6480, 2521.146
293.8570, 3028.195
295.0670, 3245.688
296.2760, 3701.081
297.4850, 3977.382
298.6930, 3832.655
299.9020, 3971.040
301.1110, 4075.822
302.3190, 4428.688
303.5270, 4559.730
304.7350, 5017.765
305.9430, 5207.874
307.1510, 5706.078
308.3580, 6241.386
309.5660, 6931.803
310.7730, 7580.302
311.9800, 8627.916
313.1870, 9581.607
314.3940, 10761.66
315.6010, 12092.29
316.8070, 13131.30
318.0130, 14234.41
319.2200, 14930.62
320.4260, 15189.95
321.6310, 14832.38
322.8370, 14337.92
324.0430, 13503.57
325.2480, 12629.29
326.4540, 11530.09
327.6590, 10589.96
328.8640, 9731.901
330.0680, 8988.912
331.2730, 8132.990
332.4780, 7675.143
333.6820, 7264.357
334.8860, 6866.645
336.0900, 6755.998
337.2940, 6644.414
338.4980, 6700.897
339.7010, 6900.442
340.9050, 7122.765
342.1080, 7747.172
343.3110, 8313.897
344.5140, 9022.657
345.7170, 10020.50
346.9200, 11214.40
348.1220, 12298.36
349.3240, 13710.37
350.5270, 15064.74
351.7290, 15597.74
352.9310, 15783.92
354.1320, 15290.87
355.3340, 14355.16
356.5350, 13425.49
357.7370, 12021.89
358.9380, 11237.33
360.1390, 10312.83
361.3400, 9437.372
362.5400, 8741.970
363.7410, 8081.615
364.9410, 7515.313
366.1410, 6948.059
367.3410, 6580.853
368.5410, 6287.694
369.7410, 6137.584
370.9400, 6123.520
372.1400, 6245.503
373.3390, 6677.531
374.5380, 7153.607
375.7370, 7962.725
376.9360, 9078.840
378.1350, 10215.10
379.3330, 11951.35
380.5310, 13578.65
381.7300, 15472.99
382.9280, 17561.37
384.1260, 19372.79
385.3230, 20862.26
386.5210, 21112.79
387.7180, 20537.41
388.9160, 19072.10
390.1130, 17024.87
391.3100, 14524.70
392.5060, 12484.61
393.7030, 10323.57
394.9000, 8462.604
396.0960, 6956.697
397.2920, 5693.854
398.4880, 4484.069
399.6840, 3747.344
400.8800, 2889.677
402.0750, 2618.066
403.2710, 2027.511
404.4660, 1627.011
405.6610, 1476.564
406.8560, 1195.171
408.0510, 988.8291
409.2450, 984.5391
410.4400, 745.2998
411.6340, 867.1084
412.8280, 640.9658
414.0220, 657.8730
415.2160, 686.8262
416.4100, 596.8262
417.6030, 554.9541
418.7970, 483.0215
419.9900, 400.0977
421.1830, 288.2773
422.3760, 266.5000
423.5690, 149.7646
424.7610, 20.07129
425.9540, 13.58301
427.1460, 42.79297
428.3380, 62.79102
429.5300, 51.36523
430.7220, 8.075195
431.9140, 137.4521
433.1050, 282.9990
434.2970, 198.6309
435.4880, 124.3105
436.6790, 179.0088
437.8700, 123.7480
439.0610, 180.5078
440.2510, 93.30957
441.4420, 90.11523
442.6320, 132.9170
443.8220, 69.25977
445.0120, 77.47656
446.2020, 52.85254
447.3910, 127.5605
448.5810, 198.8789
449.7700, 70.33984
450.9600, 321.0879
452.1490, 355.4824
453.3370, 327.4004
454.5260, 414.7412
455.7150, 448.6660
456.9030, 492.0635
458.0910, 513.8311
459.2800, 600.7012
460.4670, 509.8564
461.6550, 520.0264
462.8430, 495.2930
464.0300, 658.3379
465.2180, 502.4521
466.4050, 543.0068
467.5920, 532.7891
468.7790, 409.2881
469.9650, 482.4912
471.1520, 407.0762
472.3380, 439.3477
473.5250, 483.6562
474.7110, 456.6895
475.8970, 461.9062
477.0820, 453.3223
478.2680, 477.7939
479.4540, 447.2695
480.6390, 462.1963
481.8240, 521.2969
483.0090, 484.8369
484.1940, 519.4111
485.3780, 563.0000
486.5630, 544.6084
487.7470, 570.2246
488.9320, 558.1758
490.1160, 456.4951
491.3000, 524.1494
492.4830, 528.8096
493.6670, 507.4824
494.8500, 568.1650
496.0340, 605.8574
497.2170, 476.5557
498.4000, 550.2568
499.5820, 585.9619
500.7650, 740.6689
501.9480, 771.3779
503.1300, 794.0889
504.3120, 927.8008
505.4940, 920.1914
506.6760, 855.2402
507.8580, 994.9658
509.0390, 983.6904
510.2210, 1062.414
511.4020, 1060.137
512.5830, 1189.867
513.7640, 1215.596
514.9450, 1416.328
516.1250, 1490.476
517.3060, 1578.819
518.4860, 1688.586
519.6660, 1789.369
520.8460, 1839.148
522.0260, 2099.924
523.2060, 2131.746
524.3850, 2404.562
525.5650, 2482.391
526.7440, 2594.235
527.9230, 2577.082
529.1020, 2568.946
530.2810, 2451.809
531.4590, 2492.663
532.6380, 2396.513
533.8160, 2338.363
534.9940, 2253.207
536.1720, 2031.043
537.3500, 2189.866
538.5270, 2302.676
539.7050, 2146.473
540.8820, 2120.256
542.0590, 2157.023
543.2360, 2168.776
544.4130, 2395.514
545.5900, 2491.233
546.7660, 2692.938
547.9430, 3006.623
549.1190, 3213.290
550.2950, 3413.939
551.4710, 3942.571
552.6470, 4382.184
553.8220, 5026.775
554.9980, 5192.346
556.1730, 5324.895
557.3480, 5019.424
558.5230, 4536.932
559.6980, 3893.418
560.8730, 3416.880
562.0470, 2922.318
563.2220, 2625.734
564.3960, 2309.126
565.5700, 2105.493
566.7440, 1952.832
567.9170, 1723.175
569.0910, 1658.466
570.2640, 1603.732
571.4380, 1428.412
572.6110, 1414.300
573.7840, 1288.543
574.9570, 1149.958
576.1290, 1069.891
577.3020, 877.9668
578.4740, 748.6172
579.6460, 600.6387
580.8180, 461.1621
581.9900, 382.5186
583.1620, 357.9023
584.3330, 261.3330
585.5040, 217.7041
586.6760, 81.38770
587.8470, 142.1699
589.0180, 167.5225
590.1880, 35.99121
591.3590, 24.24707
592.5290, 50.15820
593.7000, 92.71875
594.8700, 56.52637
596.0400, 70.42090
597.2090, 19.45996
598.3790, 54.43164
599.5490, 45.51172
600.7180, 7.315430
601.8870, 19.36426
603.0560, 82.78418
604.2250, 7.748047
605.3940, 11.32422
606.5620, 42.35254
607.7300, 130.0732
608.8990, 203.5117
610.0670, 250.7217
611.2350, 210.0469
612.4020, 252.8447
613.5700, 284.1748
614.7370, 207.2627
615.9050, 373.3252
617.0720, 357.0156
618.2390, 261.9746
619.4060, 495.3877
620.5720, 397.3867
621.7390, 515.3564
622.9050, 665.6445
624.0710, 742.0977
625.2370, 713.8125
626.4030, 838.6934
627.5690, 841.3145
628.7340, 941.8887
629.9000, 1047.753
631.0650, 1112.231
632.2300, 1160.662
633.3950, 1200.044
634.5600, 1476.378
635.7240, 1523.662
636.8890, 1648.899
638.0530, 1714.086
639.2170, 1888.225
640.3810, 2149.313
641.5450, 2304.354
642.7080, 2517.343
643.8720, 2647.282
645.0350, 2960.173
646.1980, 3482.552
647.3610, 4003.343
648.5240, 4403.082
649.6870, 5050.771
650.8490, 6143.410
652.0120, 7022.882
653.1740, 8736.467
654.3360, 10313.04
655.4980, 12553.26
656.6600, 15361.64
657.8210, 18181.07
658.9830, 21532.74
660.1440, 25156.01
661.3050, 28489.52
662.4660, 31053.38
663.6270, 32333.57
664.7870, 31533.04
665.9480, 29872.28
667.1080, 26541.35
668.2680, 23236.80
669.4280, 19881.93
670.5880, 16495.96
671.7480, 13868.71
672.9070, 11413.93
674.0670, 9684.935
675.2260, 8028.620
676.3850, 6761.091
677.5440, 5761.505
678.7030, 4901.865
679.8610, 4391.170
681.0200, 3673.420
682.1780, 3333.614
683.3360, 2957.754
684.4940, 2583.839
685.6520, 2305.868
686.8090, 2103.844
687.9670, 1864.764
689.1240, 1719.630
690.2810, 1587.440
691.4380, 1474.197
692.5950, 1344.899
693.7520, 1297.549
694.9080, 1342.142
696.0650, 991.6816
697.2210, 882.1670
698.3770, 983.5996
699.5330, 913.9766
700.6880, 998.3008
701.8440, 949.5713
702.9990, 872.7891
704.1550, 750.9531
705.3100, 674.0645
706.4650, 653.1221
707.6190, 532.1338
708.7740, 617.0918
709.9290, 567.0127
711.0830, 463.8926
712.2370, 442.7246
713.3910, 384.5312
714.5450, 371.3486
715.6980, 337.6924
716.8520, 243.9385
718.0050, 276.7051
719.1580, 231.4473
720.3110, 181.1738
721.4640, 95.86133
722.6170, 174.4902
723.7700, 157.0889
724.9220, 99.62402
726.0740, 125.6699
727.2260, 71.93359
728.3780, 66.25781
729.5300, 166.4033
730.6810, 39.23828
731.8330, 32.61621
732.9840, 33.04785
734.1350, 23.03906
735.2860, 20.50195
736.4370, 28.76953
737.5880, 23.57031
738.7380, 3.375000
739.8880, 88.57031
741.0390, 34.59473
742.1890, 65.87402
743.3380, 104.7803
744.4880, 17.06934
745.6380, 25.55469
746.7870, 76.45410
747.9360, 13.87207
749.0850, 56.54102
750.2340, 25.61035
751.3830, 36.95508
752.5310, 35.60645
753.6800, 53.86035
754.8280, 18.68555
755.9760, 25.58301
757.1240, 19.58008
758.2720, 31.62012
759.4190, 15.26660
760.5670, 6.103516
761.7140, 47.10840
762.8610, 116.6006
764.0080, 11.72266
765.1550, 183.8975
766.3020, 202.4854
767.4480, 35.95801
768.5950, 62.53418
769.7410, 64.99512
770.8870, 127.4258
772.0330, 100.8271
773.1780, 80.19922
774.3240, 163.5420
775.4690, 188.8574
776.6140, 100.1455
777.7590, 54.40625
778.9040, 46.63965
780.0490, 55.84863
781.1940, 57.03125
782.3380, 76.18945
783.4820, 53.67578
784.6260, 72.40723
785.7700, 21.46777
786.9140, 157.5059
788.0580, 38.52051
789.2010, 54.48535
790.3450, 0.4648440
791.4880, 41.60547
792.6310, 91.51172
793.7730, 76.12988
794.9160, 133.0498
796.0590, 108.3037
797.2010, 1.381836
798.3430, 19.95020
799.4850, 232.3047
800.6270, 7.778320
801.7690, 121.2686
802.9100, 120.8184
804.0520, 84.42480
805.1930, 147.0654
806.3340, 62.77246
807.4750, 20.50781
808.6160, 55.25781
809.7560, 102.0312
810.8970, 29.84180
812.0370, 61.66699
813.1770, 95.48438
814.3170, 174.6270
815.4570, 191.7598
816.5960, 137.8857
817.7360, 226.0029
818.8750, 120.1123
820.0140, 194.2168
821.1530, 254.3154
822.2920, 184.4072
823.4310, 307.4951
824.5690, 252.5781
825.7070, 276.6582
826.8460, 171.7344
827.9840, 226.8086
829.1220, 269.8799
830.2590, 225.9492
831.3970, 194.0186
832.5340, 249.0869
833.6710, 219.1553
834.8080, 234.2236
835.9450, 199.2930
837.0820, 172.3652
838.2190, 283.4385
839.3550, 407.5146
840.4910, 491.5947
841.6270, 527.6777
842.7630, 633.7666
843.8990, 831.8594
845.0350, 1050.958
846.1700, 1382.062
847.3060, 1707.174
848.4410, 2355.293
849.5760, 2760.418
850.7100, 3465.551
851.8450, 3948.693
852.9800, 4139.844
854.1140, 4310.690
855.2480, 4337.799
856.3820, 4126.557
857.5160, 3893.617
858.6500, 3579.745
859.7830, 3239.785
860.9170, 2986.554
862.0500, 2720.996
863.1830, 2670.226
864.3160, 2461.960
865.4480, 2375.566
866.5810, 2282.848
867.7130, 2094.761
868.8460, 2160.835
869.9780, 2084.012
871.1100, 2285.941
872.2410, 2231.895
873.3730, 2283.469
874.5050, 2269.316
875.6360, 2142.204
876.7670, 2312.562
877.8980, 2410.615
879.0290, 2368.149
880.1590, 2320.539
881.2900, 2357.769
882.4200, 2522.776
883.5500, 2455.751
884.6800, 2576.495
885.8100, 2646.004
886.9400, 2660.582
888.0690, 2671.615
889.1990, 2711.887
890.3280, 2665.170
891.4570, 2670.833
892.5860, 2695.221
893.7140, 2617.155
894.8430, 2538.514
895.9710, 2511.912
897.1000, 2464.603
898.2280, 2395.939
899.3560, 2430.608
900.4830, 2372.127
901.6110, 2394.896
902.7380, 2325.705
903.8660, 2236.234
904.9930, 2196.148
906.1200, 2136.111
907.2460, 2072.774
908.3730, 2039.217
909.5000, 1950.371
910.6260, 1868.600
911.7520, 1792.910
912.8780, 1762.301
914.0040, 1684.479
915.1290, 1657.156
916.2550, 1597.836
917.3800, 1564.462
918.5050, 1592.135
919.6300, 1475.318
920.7550, 1551.120
921.8800, 1452.969
923.0040, 1421.884
924.1290, 1489.851
925.2530, 1390.994
926.3770, 1290.063
927.5010, 1290.934
928.6250, 1290.613
929.7480, 1201.938
930.8720, 1164.238
931.9950, 1115.302
933.1180, 1065.799
934.2410, 994.0518
935.3640, 929.9639
936.4860, 806.5449
937.6090, 812.8496
938.7310, 858.4072
939.8530, 606.1309
940.9750, 689.4736
942.0970, 811.1504
943.2180, 690.9219
944.3400, 558.9873
945.4610, 789.5693
946.5820, 934.3730
947.7030, 949.5068
948.8240, 1079.886
949.9450, 1151.340
951.0650, 1216.875
952.1860, 1676.469
953.3060, 1587.130
954.4260, 1753.847
955.5460, 2024.620
956.6650, 1844.452
957.7850, 1936.345
958.9040, 2172.296
960.0230, 2195.303
961.1420, 2348.371
962.2610, 2340.496
963.3800, 2454.678
964.4990, 2785.918
965.6170, 2688.213
966.7350, 2872.568
967.8530, 2782.989
968.9710, 3024.467
970.0890, 3020.008
971.2070, 3266.624
972.3240, 3407.297
973.4410, 3429.030
974.5580, 3486.834
975.6750, 3600.693
976.7920, 3721.613
977.9090, 3815.594
979.0250, 3856.635
980.1410, 4036.732
981.2580, 4078.439
982.3740, 4204.986
983.4890, 4245.381
984.6050, 4406.714
985.7200, 4531.105
986.8360, 4572.554
987.9510, 4734.062
989.0660, 4870.633
990.1810, 5250.262
991.2950, 5477.951
992.4100, 5942.705
993.5240, 6131.532
994.6390, 6874.425
995.7530, 7579.379
996.8660, 8514.408
997.9800, 9686.506
999.0940, 10747.68
1000.207, 12479.93
1001.320, 14516.24
1002.433, 16669.63
1003.546, 20061.12
1004.659, 23618.70
1005.772, 27728.36
1006.884, 33390.10
1007.996, 38885.91
1009.108, 44649.81
1010.220, 49075.79
1011.332, 51527.87
1012.444, 51030.05
1013.555, 47521.30
1014.666, 41400.68
1015.777, 34653.12
1016.888, 28471.63
1017.999, 23221.24
1019.110, 19014.91
1020.220, 15422.67
1021.331, 13189.49
1022.441, 11144.35
1023.551, 9580.328
1024.661, 8406.169
1025.770, 7631.770
1026.880, 6937.562
1027.989, 6467.592
1029.098, 6116.514
1030.207, 5899.130
1031.316, 5681.260
1032.425, 5464.849
1033.533, 5490.256
1034.642, 5428.135
1035.750, 5583.861
1036.858, 5505.417
1037.966, 5676.351
1039.073, 6009.180
1040.181, 6297.582
1041.288, 6308.479
1042.396, 6397.790
1043.503, 6385.641
1044.610, 6167.216
1045.716, 5897.659
1046.823, 5491.521
1047.929, 5142.835
1049.036, 4616.573
1050.142, 4229.631
1051.248, 3890.014
1052.353, 3567.396
1053.459, 3314.608
1054.564, 3099.847
1055.670, 2867.072
1056.775, 2770.569
1057.880, 2562.868
1058.985, 2473.596
1060.089, 2324.835
1061.194, 2158.789
1062.298, 2075.576
1063.402, 1948.122
1064.506, 1868.017
1065.610, 1868.837
1066.713, 1654.854
1067.817, 1807.903
1068.920, 1517.151
1070.023, 1545.320
1071.126, 1463.020
1072.229, 1411.585
1073.332, 1359.058
1074.435, 1247.722
1075.537, 1305.371
1076.639, 1138.129
1077.741, 1096.612
1078.843, 1245.722
1079.945, 1124.447
1081.046, 1070.642
1082.148, 1116.697
1083.249, 1101.021
1084.350, 1133.145
1085.451, 1047.265
1086.551, 992.9932
1087.652, 987.8711
1088.752, 1002.700
1089.853, 973.4824
1090.953, 942.7305
1092.053, 941.6807
1093.152, 867.9121
1094.252, 925.8096
1095.351, 927.7295
1096.451, 940.5918
1097.550, 695.9355
1098.649, 913.9209
1099.748, 839.3525
1100.846, 747.3779
1101.945, 860.8105
1103.043, 889.7480
1104.141, 836.8340
1105.239, 942.9375
1106.337, 844.6650
1107.434, 771.8027
1108.532, 871.0742
1109.629, 834.9385
1110.726, 877.2305
1111.823, 889.5293
1112.920, 788.7734
1114.017, 938.0078
1115.113, 1135.255
1116.210, 1284.518
1117.306, 1266.792
1118.402, 1539.081
1119.498, 1609.382
1120.593, 1687.695
1121.689, 1614.066
1122.784, 1647.535
1123.879, 1558.006
1124.974, 1681.363
1126.069, 1630.732
1127.164, 1514.109
1128.259, 1403.986
1129.353, 1056.486
1130.447, 1011.890
1131.541, 786.4434
1132.635, 603.8789
1133.729, 628.3018
1134.822, 774.9736
1135.916, 636.4102
1137.009, 496.8516
1138.102, 646.2969
1139.195, 391.7451
1140.288, 499.1963
1141.380, 471.6523
1142.473, 418.1758
1143.565, 393.0166
1144.657, 327.4082
1145.749, 265.3730
1146.841, 209.8379
1147.932, 199.3037
1149.024, 175.7686
1150.115, 178.3701
1151.206, 255.8301
1152.297, 157.2871
1153.388, 39.25879
1154.479, 38.18164
1155.569, 99.38379
1156.659, 20.99023
1157.750, 72.60742
1158.839, 93.25488
1159.929, 105.7598
1161.019, 97.49805
1162.108, 103.2314
1163.198, 0.9306640
1164.287, 101.9170
1165.376, 6.406250
1166.465, 4.183594
1167.553, 78.58008
1168.642, 26.55176
1169.730, 42.44141
1170.818, 31.46777
1171.906, 152.5205
1172.994, 76.66504
1174.082, 114.4082
1175.170, 155.1201
1176.257, 134.4863
1177.344, 42.93945
1178.431, 95.43164
1179.518, 18.99219
1180.605, 38.58203
1181.691, 14.78516
1182.778, 5.864258
1183.864, 105.3838
1184.950, 11.86035
1186.036, 60.91504
1187.122, 1.249023
1188.207, 25.61328
1189.292, 141.5186
1190.378, 26.52832
1191.463, 22.58496
1192.548, 103.6855
1193.632, 65.87500
1194.717, 21.13184
1195.801, 49.43750
1196.886, 2.806641
1197.970, 101.7832
1199.054, 17.64453
1200.137, 53.88184
1201.221, 20.61230
1202.305, 16.84082
1203.388, 21.25879
1204.471, 45.64258
1205.554, 23.00098
1206.637, 49.32422
1207.719, 75.61914
1208.802, 44.89355
1209.884, 11.13672
1210.966, 58.66406
1212.048, 22.90137
1213.130, 41.49414
1214.212, 59.48438
1215.293, 13.43457
1216.374, 95.33691
1217.456, 80.21582
1218.536, 87.91211
1219.617, 51.89453
1220.698, 72.68555
1221.778, 132.4473
1222.859, 75.18262
1223.939, 200.8867
1225.019, 121.5645
1226.099, 88.21582
1227.178, 119.8379
1228.258, 121.4336
1229.337, 54.00098
1230.417, 156.5303
1231.496, 58.03027
1232.574, 6.491211
1233.653, 169.9854
1234.732, 151.3555
1235.810, 33.69727
1236.888, 235.9873
1237.966, 123.2490
1239.044, 92.47949
1240.122, 128.7764
1241.199, 131.9443
1242.277, 145.0811
1243.354, 224.1875
1244.431, 232.1504
1245.508, 268.9854
1246.585, 262.3486
1247.661, 301.3389
1248.738, 231.2998
1249.814, 192.2295
1250.890, 157.1299
1251.966, 147.0098
1253.042, 149.8594
1254.117, 184.6758
1255.193, 210.4629
1256.268, 264.2188
1257.343, 239.7236
1258.418, 123.6396
1259.493, 211.2979
1260.567, 159.3955
1261.642, 182.6504
1262.716, 225.0859
1263.790, 153.6758
1264.864, 228.1758
1265.938, 193.6436
1267.011, 247.0811
1268.085, 225.4873
1269.158, 209.8604
1270.231, 254.2041
1271.304, 185.5156
1272.377, 152.7939
1273.450, 150.0381
