##NAMES=Diopside
##RRUFFID=R050666
##IDEAL CHEMISTRY=CaMgSi_2_O_6_
##LOCALITY=Franklin, Sussex County, New Jersey, USA
##OWNER=RRUFF
##SOURCE=University of Arizona Mineral Museum
##DESCRIPTION=Brown cleavage fragment with white hardystonite
##STATUS=The identification of this mineral has been confirmed by X-ray diffraction and chemical analysis
##URL=rruff.info/R050666
##MEASURED CHEMISTRY=Ca(Mg_0.66_Mn_0.33_Fe_0.01_)Si_2_O_6_
##PIN_ID=L00985
##ORIENTATION=Laser parallel to (1 0 1). Fiducial mark perpendicular to laser is parallel to -b [0 -1 0]
124.2880, 0.0000000E+00
125.5190, 0.4531250
126.7490, 84.85156
127.9790, 170.7754
129.2090, 139.4219
130.4390, 258.4609
131.6680, 378.5195
132.8980, 312.2363
134.1270, 355.4395
135.3560, 257.4590
136.5850, 312.8965
137.8140, 132.4375
139.0430, 197.8555
140.2710, 107.7637
141.5000, 46.99414
142.7280, 1.353516
143.9560, 33.01953
145.1840, 33.12109
146.4120, 14.89648
147.6390, 58.70898
148.8670, 308.2461
150.0940, 306.6484
151.3210, 465.8613
152.5490, 429.8379
153.7750, 377.5371
155.0020, 271.9219
156.2290, 492.9590
157.4550, 430.6211
158.6810, 305.8848
159.9080, 440.7207
161.1340, 408.1113
162.3590, 266.0195
163.5850, 476.3984
164.8110, 573.2207
166.0360, 766.4590
167.2610, 759.0879
168.4860, 899.0938
169.7110, 733.4590
170.9360, 684.1719
172.1610, 792.2246
173.3850, 781.6016
174.6100, 774.2988
175.8340, 789.3066
177.0580, 754.3125
178.2820, 814.2422
179.5050, 689.1621
180.7290, 598.3730
181.9520, 545.8828
183.1760, 537.6797
184.3990, 446.9160
185.6220, 490.1133
186.8450, 413.7422
188.0670, 432.6445
189.2900, 636.8125
190.5120, 842.2422
191.7340, 543.9277
192.9560, 378.8711
194.1780, 669.0684
195.4000, 491.5176
196.6220, 451.2148
197.8430, 304.0996
199.0640, 468.0000
200.2860, 406.9395
201.5070, 633.9336
202.7270, 692.9980
203.9480, 494.1348
205.1690, 700.3594
206.3890, 439.6934
207.6090, 501.1328
208.8290, 580.6699
210.0490, 417.3203
211.2690, 399.0938
212.4890, 358.9961
213.7080, 472.0527
214.9280, 362.2695
216.1470, 452.6191
217.3660, 598.0996
218.5850, 505.7207
219.8030, 662.4824
221.0220, 594.3828
222.2400, 904.4258
223.4590, 729.6074
224.6770, 848.9355
225.8950, 659.4336
227.1120, 907.0762
228.3300, 907.9199
229.5480, 985.9043
230.7650, 1012.914
231.9820, 843.4121
233.1990, 884.9316
234.4160, 835.6562
235.6330, 595.5332
236.8490, 695.5664
238.0660, 732.7617
239.2820, 642.1230
240.4980, 739.6250
241.7140, 661.2695
242.9300, 535.0527
244.1460, 662.9766
245.3610, 529.0469
246.5770, 425.2539
247.7920, 710.6035
249.0070, 504.0996
250.2220, 422.7363
251.4370, 471.5117
252.6510, 464.4316
253.8660, 391.4941
255.0800, 424.6992
256.2940, 452.0449
257.5080, 520.5332
258.7220, 853.1621
259.9360, 609.9316
261.1490, 374.8418
262.3630, 597.8965
263.5760, 391.0898
264.7890, 389.4238
266.0020, 510.9004
267.2150, 586.5137
268.4270, 358.2695
269.6400, 345.1641
270.8520, 365.6250
272.0640, 331.1562
273.2760, 396.2266
274.4880, 282.6133
275.7000, 498.2676
276.9120, 283.1621
278.1230, 717.2910
279.3340, 321.6523
280.5450, 414.1699
281.7560, 646.8379
282.9670, 531.7266
284.1780, 486.8223
285.3880, 687.1230
286.5980, 676.4707
287.8090, 709.1621
289.0190, 955.9688
290.2290, 935.5391
291.4380, 1065.920
292.6480, 1015.951
293.8570, 1220.512
295.0670, 1306.234
296.2760, 1334.129
297.4850, 1495.512
298.6930, 1829.711
299.9020, 2159.055
301.1110, 2535.545
302.3190, 3173.084
303.5270, 3579.855
304.7350, 4599.777
305.9430, 5012.836
307.1510, 5828.027
308.3580, 6702.348
309.5660, 6799.812
310.7730, 7139.402
311.9800, 7544.117
313.1870, 7322.961
314.3940, 7137.930
315.6010, 7121.023
316.8070, 6950.256
318.0130, 6466.609
319.2200, 6280.082
320.4260, 5616.672
321.6310, 4881.383
322.8370, 4432.211
324.0430, 3949.154
325.2480, 3590.105
326.4540, 3127.285
327.6590, 2908.576
328.8640, 2371.980
330.0680, 2305.699
331.2730, 2029.354
332.4780, 2297.088
333.6820, 1922.932
334.8860, 1834.092
336.0900, 2192.396
337.2940, 1609.379
338.4980, 2185.418
339.7010, 1991.619
340.9050, 1829.102
342.1080, 1833.914
343.3110, 2051.600
344.5140, 1868.350
345.7170, 1948.246
346.9200, 2165.438
348.1220, 2180.537
349.3240, 2060.746
350.5270, 2106.887
351.7290, 2091.301
352.9310, 1903.818
354.1320, 1790.441
355.3340, 1778.170
356.5350, 1751.998
357.7370, 1901.932
358.9380, 1883.969
360.1390, 1847.109
361.3400, 1922.355
362.5400, 2370.701
363.7410, 2383.154
364.9410, 2587.707
366.1410, 3317.363
367.3410, 3669.123
368.5410, 4106.982
369.7410, 4948.945
370.9400, 6300.008
372.1400, 7548.176
373.3390, 9104.445
374.5380, 10615.81
375.7370, 11550.28
376.9360, 12034.85
378.1350, 12309.52
379.3330, 12197.28
380.5310, 11977.15
381.7300, 11969.12
382.9280, 10793.18
384.1260, 9907.344
385.3230, 8808.602
386.5210, 7905.959
387.7180, 6619.416
388.9160, 5517.969
390.1130, 4317.617
391.3100, 3270.363
392.5060, 2644.207
393.7030, 2246.148
394.9000, 2020.186
396.0960, 1613.316
397.2920, 1285.545
398.4880, 940.8691
399.6840, 762.0781
400.8800, 1023.805
402.0750, 557.4141
403.2710, 662.1191
404.4660, 740.9199
405.6610, 334.8145
406.8560, 684.8047
408.0510, 426.8887
409.2450, 419.0645
410.4400, 632.3359
411.6340, 332.7012
412.8280, 304.1582
414.0220, 409.7129
415.2160, 242.3887
416.4100, 196.1855
417.6030, 3.103516
418.7970, 84.14453
419.9900, 267.3047
421.1830, 284.5820
422.3760, 404.9785
423.5690, 372.9316
424.7610, 179.1230
425.9540, 280.8691
427.1460, 69.73047
428.3380, 50.71094
429.5300, 46.19727
430.7220, 73.06250
431.9140, 47.37500
433.1050, 67.19727
434.2970, 257.5215
435.4880, 23.17188
436.6790, 367.9766
437.8700, 191.8496
439.0610, 11.66016
440.2510, 21.23633
441.4420, 14.97461
442.6320, 46.29883
443.8220, 341.7832
445.0120, 129.6250
446.2020, 191.3477
447.3910, 318.7559
448.5810, 62.70508
449.7700, 308.7031
450.9600, 405.8105
452.1490, 208.4590
453.3370, 267.7812
454.5260, 124.2793
455.7150, 226.8145
456.9030, 411.9707
458.0910, 307.1152
459.2800, 74.52539
460.4670, 162.5215
461.6550, 61.62891
462.8430, 63.84180
464.0300, 87.16602
465.2180, 9.144531
466.4050, 6.681641
467.5920, 64.67969
468.7790, 204.0371
469.9650, 38.86914
471.1520, 114.8047
472.3380, 122.1523
473.5250, 0.9570310
474.7110, 89.16992
475.8970, 234.4883
477.0820, 8.089844
478.2680, 120.5684
479.4540, 28.98047
480.6390, 27.29492
481.8240, 57.51562
483.0090, 97.37500
484.1940, 141.6152
485.3780, 62.45898
486.5630, 31.36719
487.7470, 60.90039
488.9320, 37.72852
490.1160, 276.7363
491.3000, 209.3066
492.4830, 105.0195
493.6670, 280.7305
494.8500, 23.58984
496.0340, 56.57031
497.2170, 346.6562
498.4000, 147.8906
499.5820, 340.2266
500.7650, 262.6641
501.9480, 453.2266
503.1300, 350.8906
504.3120, 365.6641
505.4940, 447.5391
506.6760, 351.5156
507.8580, 455.5938
509.0390, 399.7734
510.2210, 241.0508
511.4020, 309.4297
512.5830, 659.9219
513.7640, 461.5117
514.9450, 827.2070
516.1250, 966.0000
517.3060, 965.8984
518.4860, 1322.906
519.6660, 1295.012
520.8460, 1279.219
522.0260, 1418.523
523.2060, 1297.930
524.3850, 1485.438
525.5650, 1340.047
526.7440, 877.7539
527.9230, 928.5742
529.1020, 902.4922
530.2810, 485.5117
531.4590, 631.6289
532.6380, 596.8438
533.8160, 558.1562
534.9940, 426.5703
536.1720, 523.1133
537.3500, 343.7578
538.5270, 478.4961
539.7050, 253.3320
540.8820, 474.2656
542.0590, 326.2930
543.2360, 270.4219
544.4130, 532.6484
545.5900, 569.0039
546.7660, 707.4648
547.9430, 890.0352
549.1190, 867.7070
550.2950, 834.4688
551.4710, 877.3320
552.6470, 919.2969
553.8220, 1153.355
554.9980, 655.5117
556.1730, 891.7656
557.3480, 790.1445
558.5230, 547.6172
559.6980, 415.4531
560.8730, 325.5664
562.0470, 248.8711
563.2220, 199.7227
564.3960, 70.66406
565.5700, 62.69922
566.7440, 332.8281
567.9170, 82.04688
569.0910, 185.3633
570.2640, 141.7656
571.4380, 33.58984
572.6110, 89.98047
573.7840, 91.63672
574.9570, 14.89844
576.1290, 72.73828
577.3020, 8.328125
578.4740, 107.6797
579.6460, 71.22266
580.8180, 68.11719
581.9900, 387.0273
583.1620, 165.3594
584.3330, 140.1914
585.5040, 102.7070
586.6760, 16.40234
587.8470, 39.91406
589.0180, 30.16016
590.1880, 181.1836
591.3590, 38.10156
592.5290, 33.88672
593.7000, 185.1836
594.8700, 32.34375
596.0400, 74.58594
597.2090, 13.43750
598.3790, 17.85156
599.5490, 55.65625
600.7180, 37.89062
601.8870, 70.86328
603.0560, 83.57812
604.2250, 121.0703
605.3940, 18.10547
606.5620, 103.3086
607.7300, 101.3516
608.8990, 4.585938
610.0670, 74.78906
611.2350, 68.75781
612.4020, 62.78125
613.5700, 171.0312
614.7370, 189.5352
615.9050, 317.1562
617.0720, 144.8555
618.2390, 236.4258
619.4060, 237.0430
620.5720, 102.4531
621.7390, 249.7109
622.9050, 336.0273
624.0710, 460.8633
625.2370, 180.4336
626.4030, 328.7852
627.5690, 492.2578
628.7340, 159.7695
629.9000, 293.3594
631.0650, 533.1797
632.2300, 707.9297
633.3950, 383.8125
634.5600, 549.7227
635.7240, 760.8477
636.8890, 654.9141
638.0530, 975.0156
639.2170, 1028.242
640.3810, 1062.543
641.5450, 1055.852
642.7080, 1612.309
643.8720, 1433.375
645.0350, 1748.980
646.1980, 2243.277
647.3610, 3015.035
648.5240, 3439.891
649.6870, 4135.812
650.8490, 4976.805
652.0120, 6086.941
653.1740, 6728.082
654.3360, 7822.441
655.4980, 8257.734
656.6600, 8520.695
657.8210, 8769.996
658.9830, 8562.535
660.1440, 8426.117
661.3050, 7849.773
662.4660, 7437.645
663.6270, 6484.445
664.7870, 5668.965
665.9480, 4948.184
667.1080, 4098.309
668.2680, 3680.398
669.4280, 2789.617
670.5880, 2375.465
671.7480, 2175.770
672.9070, 1613.141
674.0670, 1803.848
675.2260, 1304.098
676.3850, 1226.012
677.5440, 957.7656
678.7030, 868.4922
679.8610, 756.1445
681.0200, 811.1562
682.1780, 613.4648
683.3360, 655.4102
684.4940, 679.5352
685.6520, 679.6172
686.8090, 491.8633
687.9670, 600.0938
689.1240, 389.4336
690.2810, 398.8359
691.4380, 369.0391
692.5950, 308.5781
693.7520, 582.1797
694.9080, 452.8711
696.0650, 149.5469
697.2210, 429.3438
698.3770, 77.20703
699.5330, 347.1289
700.6880, 318.1172
701.8440, 143.1719
702.9990, 294.2852
704.1550, 195.4648
705.3100, 161.7070
706.4650, 351.0117
707.6190, 261.3828
708.7740, 356.8125
709.9290, 614.3086
711.0830, 313.8047
712.2370, 114.4297
713.3910, 203.1133
714.5450, 146.6758
715.6980, 343.4922
716.8520, 213.3242
718.0050, 267.2617
719.1580, 7.433594
720.3110, 440.4766
721.4640, 210.5820
722.6170, 180.2578
723.7700, 147.8672
724.9220, 284.0508
726.0740, 174.0078
727.2260, 74.69922
728.3780, 86.01562
729.5300, 197.4531
730.6810, 236.9531
731.8330, 128.0742
732.9840, 235.6914
734.1350, 146.3008
735.2860, 62.03906
736.4370, 212.3242
737.5880, 304.7852
738.7380, 121.1484
739.8880, 108.9141
741.0390, 276.0469
742.1890, 42.06641
743.3380, 287.1367
744.4880, 77.71875
745.6380, 149.9023
746.7870, 299.1484
747.9360, 237.7656
749.0850, 217.1367
750.2340, 69.56641
751.3830, 239.0508
752.5310, 241.6133
753.6800, 324.3203
754.8280, 185.0000
755.9760, 268.7344
757.1240, 221.5312
758.2720, 74.40625
759.4190, 219.3359
760.5670, 48.66797
761.7140, 41.65234
762.8610, 56.37891
764.0080, 186.4883
765.1550, 253.6523
766.3020, 293.8789
767.4480, 29.16406
768.5950, 87.50391
769.7410, 149.8945
770.8870, 9.656250
772.0330, 119.8438
773.1780, 69.60156
774.3240, 181.9570
775.4690, 158.4258
776.6140, 288.1562
777.7590, 242.7891
778.9040, 66.51562
780.0490, 190.1797
781.1940, 16.93750
782.3380, 168.7344
783.4820, 52.58594
784.6260, 315.4883
785.7700, 108.8750
786.9140, 240.8906
788.0580, 344.9609
789.2010, 14.91406
790.3450, 134.2422
791.4880, 86.44922
792.6310, 302.7148
793.7730, 13.03516
794.9160, 6.398438
796.0590, 104.7969
797.2010, 137.2500
798.3430, 126.9688
799.4850, 26.32031
800.6270, 115.9297
801.7690, 48.58984
802.9100, 72.30469
804.0520, 18.93359
805.1930, 120.8555
806.3340, 94.70312
807.4750, 48.60547
808.6160, 118.5508
809.7560, 163.5547
810.8970, 19.29297
812.0370, 86.60547
813.1770, 67.48828
814.3170, 85.63672
815.4570, 150.8359
816.5960, 153.1406
817.7360, 190.3945
818.8750, 61.93359
820.0140, 28.27734
821.1530, 95.26562
822.2920, 1.816406
823.4310, 22.32812
824.5690, 25.18359
825.7070, 330.7422
826.8460, 138.3516
827.9840, 1.5625000E-02
829.1220, 251.7188
830.2590, 200.4727
831.3970, 92.28516
832.5340, 115.8555
833.6710, 156.9922
834.8080, 365.8945
835.9450, 95.57031
837.0820, 352.5781
838.2190, 93.64062
839.3550, 291.7539
840.4910, 534.9180
841.6270, 221.1406
842.7630, 206.4141
843.8990, 88.74219
845.0350, 463.1211
846.1700, 398.5547
847.3060, 461.0430
848.4410, 604.5938
849.5760, 397.1953
850.7100, 453.8516
851.8450, 437.5586
852.9800, 348.3203
854.1140, 145.1445
855.2480, 116.0156
856.3820, 181.7812
857.5160, 445.7773
858.6500, 292.8281
859.7830, 360.5273
860.9170, 163.6836
862.0500, 306.8945
863.1830, 133.1602
864.3160, 96.16406
865.4480, 494.3711
866.5810, 172.8125
867.7130, 388.3047
868.8460, 389.8672
869.9780, 449.4805
871.1100, 473.5586
872.2410, 429.1484
873.3730, 432.1289
874.5050, 384.9609
875.6360, 372.8633
876.7670, 468.4805
877.8980, 195.4883
879.0290, 44.71484
880.1590, 301.8359
881.2900, 174.7695
882.4200, 267.0000
883.5500, 6.285156
884.6800, 385.6289
885.8100, 296.0234
886.9400, 359.1367
888.0690, 344.6406
889.1990, 24.19922
890.3280, 294.8125
891.4570, 400.4805
892.5860, 124.2109
893.7140, 402.0000
894.8430, 612.5898
895.9710, 452.5430
897.1000, 206.5156
898.2280, 68.92969
899.3560, 311.5117
900.4830, 330.7031
901.6110, 407.9688
902.7380, 183.3164
903.8660, 102.5625
904.9930, 723.9023
906.1200, 302.4492
907.2460, 304.1680
908.3730, 284.8203
909.5000, 60.39453
910.6260, 158.1719
911.7520, 131.0508
912.8780, 71.93750
914.0040, 198.8828
915.1290, 271.9492
916.2550, 151.0039
917.3800, 253.5820
918.5050, 189.7461
919.6300, 211.3555
920.7550, 56.36719
921.8800, 204.9453
923.0040, 67.33203
924.1290, 27.77344
925.2530, 161.1953
926.3770, 108.7461
927.5010, 61.21094
928.6250, 228.8750
929.7480, 225.9883
930.8720, 152.9023
931.9950, 237.7031
933.1180, 183.0898
934.2410, 17.52734
935.3640, 190.3789
936.4860, 83.42969
937.6090, 174.8906
938.7310, 197.7773
939.8530, 45.88672
940.9750, 307.1602
942.0970, 307.4297
943.2180, 127.1953
944.3400, 41.63281
945.4610, 71.87500
946.5820, 43.40234
947.7030, 60.26172
948.8240, 227.5820
949.9450, 173.1875
951.0650, 107.9414
952.1860, 293.7539
953.3060, 12.37891
954.4260, 353.1719
955.5460, 288.2070
956.6650, 354.1875
957.7850, 88.33203
958.9040, 307.4453
960.0230, 463.6953
961.1420, 798.9609
962.2610, 245.2812
963.3800, 487.9258
964.4990, 559.3555
965.6170, 277.8438
966.7350, 258.3633
967.8530, 341.0234
968.9710, 401.6797
970.0890, 101.3945
971.2070, 327.1680
972.3240, 436.0000
973.4410, 446.8828
974.5580, 708.8359
975.6750, 421.8438
976.7920, 617.9062
977.9090, 798.0234
979.0250, 563.1953
980.1410, 535.4258
981.2580, 757.7109
982.3740, 491.0508
983.4890, 914.4492
984.6050, 907.9023
985.7200, 1052.406
986.8360, 984.9688
987.9510, 1296.586
989.0660, 1390.258
990.1810, 1384.033
991.2950, 1695.871
992.4100, 1972.768
993.5240, 2117.719
994.6390, 2491.775
995.7530, 2644.891
996.8660, 3357.057
997.9800, 3835.279
999.0940, 5088.555
1000.207, 6222.898
1001.320, 7432.295
1002.433, 9453.750
1003.546, 12291.26
1004.659, 15861.82
1005.772, 19829.43
1006.884, 24964.10
1007.996, 28780.82
1009.108, 31882.60
1010.220, 32880.43
1011.332, 32861.35
1012.444, 31252.32
1013.555, 28743.38
1014.666, 25410.47
1015.777, 22150.63
1016.888, 17967.84
1017.999, 14031.82
1019.110, 10998.17
1020.220, 8564.594
1021.331, 6538.037
1022.441, 5441.584
1023.551, 4464.043
1024.661, 3868.643
1025.770, 3304.926
1026.880, 2951.637
1027.989, 2752.111
1029.098, 2758.512
1030.207, 2586.377
1031.316, 2437.314
1032.425, 2434.322
1033.533, 2448.773
1034.642, 2669.146
1035.750, 2565.861
1036.858, 2639.098
1037.966, 2746.455
1039.073, 2542.820
1040.181, 2508.186
1041.288, 2168.611
1042.396, 2057.086
1043.503, 1873.889
1044.610, 1860.516
1045.716, 1285.549
1046.823, 1299.328
1047.929, 1123.260
1049.036, 1138.158
1050.142, 988.4121
1051.248, 837.1016
1052.353, 830.1465
1053.459, 713.2383
1054.564, 893.4258
1055.670, 642.6113
1056.775, 657.8398
1057.880, 699.1152
1058.985, 474.4473
1060.089, 433.8379
1061.194, 329.2695
1062.298, 352.7480
1063.402, 298.2812
1064.506, 431.9512
1065.610, 377.5801
1066.713, 306.2520
1067.817, 339.9648
1068.920, 99.73047
1070.023, 284.5371
1071.126, 140.3926
1072.229, 278.2930
1073.332, 230.3359
1074.435, 324.3359
1075.537, 518.3789
1076.639, 380.4668
1077.741, 346.5977
1078.843, 369.0859
1079.945, 253.3047
1081.046, 246.5957
1082.148, 249.9277
1083.249, 222.5742
1084.350, 222.2891
1085.451, 256.1777
1086.551, 231.5703
1087.652, 274.3340
1088.752, 340.9180
1089.853, 228.5703
1090.953, 298.9102
1092.053, 114.6660
1093.152, 277.4668
1094.252, 410.3027
1095.351, 192.1816
1096.451, 167.1055
1097.550, 320.0664
1098.649, 215.0684
1099.748, 136.4883
1100.846, 230.6133
1101.945, 338.8555
1103.043, 505.7676
1104.141, 76.00586
1105.239, 471.6445
1106.337, 326.4258
1107.434, 68.77734
1108.532, 391.1660
1109.629, 196.5898
1110.726, 210.0488
1111.823, 266.5469
1112.920, 172.0801
1114.017, 238.6484
1115.113, 263.2520
1116.210, 417.8887
1117.306, 719.5605
1118.402, 444.2676
1119.498, 497.0078
1120.593, 411.7852
1121.689, 704.5156
1122.784, 313.3574
1123.879, 458.7598
1124.974, 485.6719
1126.069, 438.9062
1127.164, 565.9395
1128.259, 353.9434
1129.353, 307.9824
1130.447, 132.0527
1131.541, 77.25781
1132.635, 173.7559
1133.729, 470.0195
1134.822, 311.2109
1135.916, 310.4336
1137.009, 351.1172
1138.102, 250.3984
1139.195, 199.7090
1140.288, 172.0488
1141.380, 151.8984
1142.473, 142.3730
1143.565, 186.7988
1144.657, 247.5664
1145.749, 304.0508
1146.841, 234.5605
1147.932, 219.6328
1149.024, 155.9961
1150.115, 21.62695
1151.206, 13.85938
1152.297, 63.50391
1153.388, 13.17188
1154.479, 245.1250
1155.569, 169.9238
1156.659, 49.32227
1157.750, 351.9199
1158.839, 134.3027
1159.929, 97.56641
1161.019, 59.14648
1162.108, 304.9062
1163.198, 139.6641
1164.287, 92.26172
1165.376, 72.48633
1166.465, 111.2090
1167.553, 135.6270
1168.642, 17.25781
1169.730, 27.95117
1170.818, 117.6660
1171.906, 377.9883
1172.994, 50.74805
1174.082, 50.80469
1175.170, 147.1191
1176.257, 6.197266
1177.344, 340.7891
1178.431, 32.61328
1179.518, 71.45703
1180.605, 102.3398
1181.691, 293.2227
1182.778, 130.1270
1183.864, 186.0508
1184.950, 31.00977
1186.036, 64.26367
1187.122, 200.2266
1188.207, 84.20508
1189.292, 156.3340
1190.378, 397.9199
1191.463, 120.1055
1192.548, 130.1562
1193.632, 265.5859
1194.717, 51.66992
1195.801, 215.8223
1196.886, 100.9570
1197.970, 385.1035
1199.054, 186.4531
1200.137, 265.1211
1201.221, 245.3184
1202.305, 260.5352
1203.388, 60.16016
1204.471, 320.4062
1205.554, 107.1426
1206.637, 273.4180
1207.719, 134.7051
1208.802, 127.0078
1209.884, 322.3301
1210.966, 268.6660
1212.048, 373.0156
1213.130, 336.3750
1214.212, 191.7461
1215.293, 132.1309
1216.374, 331.5273
1217.456, 55.93359
1218.536, 273.3516
1219.617, 260.7812
1220.698, 3.781250
1221.778, 272.6641
1222.859, 471.1309
1223.939, 104.6035
1225.019, 164.0879
1226.099, 435.5801
1227.178, 250.0996
1228.258, 248.6270
1229.337, 51.33203
1230.417, 133.8750
1231.496, 89.42578
1232.574, 22.76562
1233.653, 292.9062
1234.732, 56.47461
1235.810, 5.050781
1236.888, 256.0469
1237.966, 303.6250
1239.044, 280.2070
1240.122, 121.1270
1241.199, 299.7266
1242.277, 263.3320
1243.354, 362.9434
1244.431, 125.5625
1245.508, 247.1855
1246.585, 327.8164
1247.661, 166.6133
1248.738, 246.3203
1249.814, 531.2266
1250.890, 152.1191
1251.966, 297.6621
1253.042, 50.38086
1254.117, 295.9531
1255.193, 79.52930
1256.268, 119.1094
1257.343, 187.6934
1258.418, 141.2832
1259.493, 242.8770
1260.567, 0.4726560
1261.642, 74.20312
1262.716, 113.7871
1263.790, 230.3770
1264.864, 266.9688
1265.938, 68.92578
1267.011, 161.5195
1268.085, 422.1250
1269.158, 177.7363
1270.231, 205.3477
1271.304, 56.96289
1272.377, 514.6504
1273.450, 34.73633
1274.522, 331.8418
1275.594, 397.4219
1276.666, 62.00586
1277.738, 42.41406
1278.810, 140.1855
1279.882, 54.77930
1280.953, 246.2988
1282.025, 205.8359
1283.096, 97.32422
1284.167, 134.0957
1285.238, 221.6445
1286.308, 2.380859
1287.379, 201.1348
1288.449, 255.9414
1289.519, 165.9961
1290.589, 137.5137
1291.659, 243.0312
1292.729, 86.11719
1293.798, 138.2422
1294.868, 103.3047
1295.937, 7.263672
1297.006, 74.74609
1298.075, 181.1602
1299.143, 260.6152
