##NAMES=Dioptase
##RRUFFID=R040028
##IDEAL CHEMISTRY=Cu^2+^SiO_3_&#183;H_2_O
##LOCALITY=Tantara mine, Democratic Republic of the Congo
##OWNER=RRUFF
##SOURCE=University of Arizona Mineral Museum
##DESCRIPTION=Bluish green coarsely crystallized fragment
##STATUS=The identification of this mineral has been confirmed by X-ray diffraction and chemical analysis
##URL=rruff.info/R040028
##MEASURED CHEMISTRY=Cu_1.00_Si_1.00_O_3_Â·H_2_O; H_2_O estimated by difference
##PIN_ID=M00307
##ORIENTATION=Laser parallel to a* (1 0 0). Fiducial mark perpendicular to laser is parallel to b [0 1 0]
105.8010, 0.0000000E+00
107.1970, 8.742188
108.5920, 151.7510
109.9870, 375.4980
111.3820, 541.8311
112.7770, 787.0557
114.1710, 1088.929
115.5650, 1532.876
116.9590, 1718.503
118.3530, 2115.368
119.7470, 2084.283
121.1400, 1737.847
122.5330, 1707.728
123.9260, 1924.979
125.3180, 2510.508
126.7110, 3216.226
128.1030, 4671.418
129.4950, 7254.002
130.8860, 10830.92
132.2780, 13178.36
133.6690, 12817.45
135.0600, 11077.93
136.4510, 10539.59
137.8410, 10632.18
139.2310, 9225.468
140.6210, 6319.301
142.0110, 3563.772
143.4010, 1840.310
144.7900, 868.6055
146.1790, 304.7646
147.5680, 31.76367
148.9570, 181.4053
150.3450, 132.7344
151.7330, 235.2080
153.1210, 72.81836
154.5090, 64.44043
155.8960, 306.6875
157.2840, 1099.122
158.6710, 1891.629
160.0580, 2947.217
161.4440, 3662.634
162.8300, 3817.201
164.2170, 2891.323
165.6020, 2055.456
166.9880, 1308.165
168.3740, 836.1523
169.7590, 569.4619
171.1440, 456.1387
172.5280, 579.2227
173.9130, 981.7490
175.2970, 1521.749
176.6810, 2568.105
178.0650, 3937.619
179.4490, 4841.789
180.8320, 5191.773
182.2150, 4573.061
183.5980, 3739.139
184.9810, 2914.887
186.3630, 2290.313
187.7450, 1755.432
189.1270, 1491.302
190.5090, 1178.085
191.8910, 1005.824
193.2720, 1027.532
194.6530, 1028.216
196.0340, 1401.870
197.4140, 1603.492
198.7950, 1535.082
200.1750, 1373.631
201.5550, 1139.112
202.9350, 1138.524
204.3140, 1108.872
205.6930, 1253.989
207.0720, 1252.698
208.4510, 1636.016
209.8300, 1963.707
211.2080, 2443.319
212.5860, 2862.320
213.9640, 3550.658
215.3420, 4366.052
216.7190, 5524.163
218.0960, 6832.319
219.4730, 8851.152
220.8500, 11026.12
222.2260, 14058.03
223.6030, 16454.87
224.9790, 18175.49
226.3550, 18970.75
227.7300, 17748.74
229.1050, 15626.40
230.4810, 13124.07
231.8560, 10341.74
233.2300, 8169.424
234.6050, 6067.112
235.9790, 4754.802
237.3530, 3672.493
238.7270, 2730.183
240.1000, 2174.862
241.4740, 1785.519
242.8470, 1508.136
244.2200, 1122.712
245.5920, 953.2437
246.9650, 569.7324
248.3370, 358.1758
249.7090, 244.5728
251.0800, 64.17725
252.4520, 137.2285
253.8230, 11.51074
255.1940, 155.7056
256.5650, 331.8765
257.9360, 543.0054
259.3060, 1244.089
260.6760, 2049.101
262.0460, 3554.971
263.4160, 5431.662
264.7850, 7978.278
266.1550, 9664.856
267.5240, 9751.403
268.8920, 8277.914
270.2610, 6164.399
271.6290, 4636.878
272.9970, 3329.633
274.3650, 2693.188
275.7330, 2167.033
277.1000, 1845.056
278.4680, 1713.149
279.8350, 1654.277
281.2010, 1804.401
282.5680, 1859.495
283.9340, 1939.436
285.3000, 2295.254
286.6660, 2509.009
288.0320, 3002.713
289.3970, 3566.351
290.7620, 4319.927
292.1270, 4953.461
293.4920, 5096.270
294.8570, 4728.443
296.2210, 4050.647
297.5850, 3092.869
298.9490, 2161.117
300.3120, 1362.357
301.6760, 853.5776
303.0390, 456.7837
304.4020, 216.9507
305.7650, 58.06543
307.1270, 135.8931
308.4890, 182.9834
309.8510, 232.2217
311.2130, 168.6201
312.5750, 339.3481
313.9360, 329.1372
315.2970, 256.9863
316.6580, 313.3677
318.0190, 208.6748
319.3790, 101.1787
320.7400, 17.70166
322.1000, 195.6685
323.4600, 435.9429
324.8190, 716.1196
326.1780, 968.2046
327.5380, 1025.201
328.8970, 880.1108
330.2550, 741.9326
331.6140, 545.6694
332.9720, 336.3213
334.3300, 266.8838
335.6880, 146.1465
337.0450, 133.7339
338.4030, 59.01709
339.7600, 70.19873
341.1170, 112.2788
342.4730, 200.2217
343.8300, 193.9697
345.1860, 370.4956
346.5420, 583.9365
347.8980, 839.3223
349.2530, 1315.654
350.6090, 1887.934
351.9640, 3102.162
353.3190, 4890.341
354.6730, 7628.470
356.0280, 11746.55
357.3820, 15674.58
358.7360, 16742.55
360.0900, 15070.49
361.4430, 11388.37
362.7970, 8306.200
364.1500, 5843.981
365.5030, 4371.714
366.8560, 3359.397
368.2080, 2687.032
369.5600, 2254.583
370.9120, 1984.899
372.2640, 1746.848
373.6160, 1651.397
374.9670, 1484.530
376.3180, 1446.292
377.6690, 1563.854
379.0200, 1481.359
380.3700, 1517.843
381.7200, 1769.305
383.0700, 1808.741
384.4200, 2082.123
385.7700, 2345.423
387.1190, 2550.617
388.4680, 3375.732
389.8170, 3860.795
391.1660, 4535.834
392.5140, 5570.854
393.8630, 7045.852
395.2110, 9100.829
396.5580, 11415.79
397.9060, 14030.72
399.2530, 16145.63
400.6000, 17070.52
401.9470, 16125.39
403.2940, 14110.24
404.6410, 11595.07
405.9870, 9309.879
407.3330, 7144.666
408.6790, 5659.430
410.0240, 4403.806
411.3700, 3806.851
412.7150, 3388.622
414.0600, 3086.510
415.4050, 2936.418
416.7490, 2960.549
418.0930, 3180.863
419.4370, 3263.658
420.7810, 3407.839
422.1250, 3452.407
423.4680, 3516.959
424.8110, 3551.491
426.1540, 3618.509
427.4970, 3780.510
428.8400, 3734.993
430.1820, 3870.292
431.5240, 3914.742
432.8660, 3939.188
434.2080, 3963.584
435.5490, 4028.587
436.8900, 3754.688
438.2310, 3973.188
439.5720, 3600.667
440.9130, 3640.869
442.2530, 3357.999
443.5930, 3290.901
444.9330, 3038.625
446.2730, 2975.447
447.6120, 2750.622
448.9510, 2645.484
450.2900, 2643.944
451.6290, 2561.802
452.9680, 2425.443
454.3060, 2404.149
455.6440, 2421.419
456.9820, 2212.219
458.3200, 2070.844
459.6570, 1897.040
460.9950, 1619.026
462.3320, 1519.070
463.6680, 1353.778
465.0050, 1225.057
466.3410, 1137.628
467.6780, 1055.442
469.0140, 947.8564
470.3490, 776.2383
471.6850, 819.4551
473.0200, 633.5928
474.3550, 616.9482
475.6900, 709.2754
477.0250, 483.3623
478.3590, 436.3574
479.6930, 531.0312
481.0270, 444.4023
482.3610, 457.9648
483.6950, 509.1846
485.0280, 532.0537
486.3610, 552.5088
487.6940, 551.8379
489.0270, 579.6836
490.3590, 605.5020
491.6920, 614.2900
493.0240, 591.6094
494.3560, 431.4170
495.6870, 514.3408
497.0190, 419.2939
498.3500, 490.9541
499.6810, 424.6963
501.0120, 365.7334
502.3420, 440.8408
503.6720, 419.6191
505.0020, 455.2686
506.3320, 581.1387
507.6620, 426.3652
508.9920, 575.8330
510.3210, 551.2803
511.6500, 659.7119
512.9790, 685.1270
514.3070, 776.5215
515.6360, 804.5039
516.9640, 804.2539
518.2920, 839.5928
519.6190, 898.9189
520.9470, 887.2275
522.2740, 996.5176
523.6010, 786.7988
524.9280, 939.0625
526.2550, 879.3115
527.5810, 819.5439
528.9070, 830.7598
530.2330, 739.9600
531.5590, 772.1436
532.8850, 712.3271
534.2100, 660.5039
535.5350, 666.3320
536.8600, 638.8301
538.1850, 639.9834
539.5090, 491.1523
540.8340, 468.3223
542.1580, 427.4844
543.4820, 442.6426
544.8050, 448.7959
546.1290, 368.9492
547.4520, 424.0996
548.7750, 484.2441
550.0980, 348.3906
551.4200, 539.5332
552.7420, 504.6758
554.0650, 702.8350
555.3860, 809.9912
556.7080, 992.1455
558.0300, 1227.297
559.3510, 1289.445
560.6720, 1651.592
561.9930, 1893.736
563.3130, 2155.880
564.6340, 2108.023
565.9540, 1990.167
567.2740, 2092.309
568.5940, 1834.449
569.9130, 1656.602
571.2330, 1438.760
572.5520, 1280.932
573.8710, 1233.134
575.1890, 1125.358
576.5080, 974.6299
577.8260, 890.9209
579.1440, 682.2207
580.4620, 722.5234
581.7800, 412.8301
583.0970, 364.1348
584.4140, 332.4424
585.7310, 139.7529
587.0480, 162.0645
588.3650, 16.37891
589.6810, 134.6846
590.9970, 63.99414
592.3130, 74.30469
593.6290, 21.61816
594.9440, 5.612305
596.2600, 47.77734
597.5750, 31.52051
598.8900, 79.29004
600.2040, 28.10938
601.5190, 127.9561
602.8330, 40.87500
604.1470, 26.82227
605.4610, 170.7930
606.7740, 166.8564
608.0880, 59.00879
609.4010, 50.19727
610.7140, 150.4170
612.0260, 67.71582
613.3390, 44.05273
614.6510, 106.4170
615.9630, 70.83594
617.2750, 133.2930
618.5870, 25.81641
619.8980, 8.645508
621.2100, 41.89258
622.5210, 177.5498
623.8320, 164.0078
625.1420, 41.49512
626.4530, 209.0254
627.7630, 225.6514
629.0730, 249.3838
630.3830, 210.2383
631.6920, 206.1973
633.0010, 346.3047
634.3110, 344.5605
635.6190, 468.9414
636.9280, 419.4619
638.2370, 612.0947
639.5450, 567.8115
640.8530, 627.5908
642.1610, 930.4014
643.4690, 863.2344
644.7760, 1206.083
646.0830, 1398.949
647.3900, 1521.832
648.6970, 2014.732
650.0040, 2207.650
651.3100, 2980.590
652.6160, 3624.248
653.9220, 4527.244
655.2280, 6110.279
656.5340, 7783.357
657.8390, 9926.486
659.1440, 12229.66
660.4490, 13482.88
661.7540, 13996.14
663.0580, 12769.44
664.3620, 11282.76
665.6660, 9356.109
666.9700, 7509.479
668.2740, 6003.857
669.5770, 4897.993
670.8810, 3991.431
672.1840, 3384.890
673.4870, 2808.371
674.7890, 2421.970
676.0920, 1996.882
677.3940, 1750.436
678.6960, 1464.013
679.9970, 1239.568
681.2990, 1153.196
682.6000, 867.2148
683.9010, 960.8926
685.2020, 864.5947
686.5030, 728.3232
687.8040, 802.0781
689.1040, 568.5732
690.4040, 523.3252
691.7040, 457.1592
693.0040, 451.0205
694.3030, 494.9092
695.6020, 314.2588
696.9010, 369.3389
698.2000, 333.3096
699.4990, 206.5830
700.7970, 306.6113
702.0950, 282.9277
703.3930, 301.0117
704.6910, 385.1240
705.9890, 270.2705
707.2860, 404.4414
708.5830, 279.3613
709.8800, 378.1055
711.1770, 392.3643
712.4730, 306.6543
713.7700, 360.9736
715.0660, 335.3232
716.3620, 419.7041
717.6580, 454.1162
718.9530, 528.5576
720.2480, 493.5576
721.5430, 538.0635
722.8380, 612.5996
724.1330, 757.1699
725.4270, 653.9727
726.7220, 938.6064
728.0160, 933.2725
729.3100, 998.2256
730.6030, 1312.957
731.8970, 1367.723
733.1900, 1732.520
734.4830, 2037.351
735.7760, 2462.426
737.0680, 2847.324
738.3610, 3052.256
739.6530, 3497.222
740.9450, 3902.222
742.2360, 4027.258
743.5280, 4172.327
744.8190, 3896.603
746.1100, 3681.742
747.4010, 3346.908
748.6920, 2952.120
749.9830, 2616.721
751.2730, 2230.216
752.5630, 1841.301
753.8530, 1673.398
755.1430, 1302.762
756.4320, 1275.188
757.7210, 1061.831
759.0100, 1023.644
760.2990, 856.3486
761.5880, 740.6934
762.8760, 535.3428
764.1650, 479.4678
765.4530, 488.0303
766.7400, 373.8838
768.0280, 314.6660
769.3150, 316.8848
770.6030, 265.5752
771.8900, 206.4395
773.1760, 193.7402
774.4630, 197.2490
775.7490, 232.7051
777.0360, 75.50000
778.3220, 281.6826
779.6070, 167.9141
780.8930, 184.1943
782.1780, 250.5244
783.4630, 146.9014
784.7480, 163.3281
786.0330, 199.8027
787.3180, 36.32422
788.6020, 112.8936
789.8860, 119.5107
791.1700, 186.1748
792.4540, 232.8848
793.7370, 129.6426
795.0200, 216.4453
796.3030, 143.2949
797.5860, 180.1904
798.8690, 197.1338
800.1510, 74.12207
801.4340, 91.15820
802.7160, 148.2412
803.9980, 105.3711
805.2790, 52.54980
806.5610, 20.22363
807.8420, 87.04199
809.1230, 144.3564
810.4040, 21.71777
811.6850, 149.1289
812.9650, 36.58789
814.2450, 144.0967
815.5250, 71.65137
816.8050, 29.25586
818.0850, 116.9102
819.3640, 104.6123
820.6430, 22.36621
821.9220, 29.83203
823.2010, 21.98730
824.4800, 135.8994
825.7580, 43.83691
827.0360, 21.82520
828.3140, 0.1376950
829.5920, 42.05078
830.8690, 86.07520
832.1470, 94.25098
833.4240, 57.52246
834.7010, 200.7363
835.9780, 10.95312
837.2540, 37.40332
838.5310, 15.81152
839.8070, 84.27148
841.0830, 212.7832
842.3580, 78.65430
843.6340, 30.06445
844.9090, 218.5693
846.1840, 7.254883
847.4590, 5.993164
848.7340, 145.2158
850.0080, 36.42090
851.2830, 82.41602
852.5570, 8.692383
853.8310, 140.2480
855.1040, 40.75684
856.3780, 88.27930
857.6510, 37.37012
858.9240, 33.48535
860.1970, 155.7051
861.4700, 25.05273
862.7420, 125.7607
864.0150, 253.5449
865.2870, 62.90625
866.5590, 192.3223
867.8300, 11.79492
869.1020, 61.32129
870.3730, 230.9033
871.6440, 20.54199
872.9150, 19.76367
874.1850, 89.98145
875.4560, 49.78125
876.7260, 169.6387
877.9960, 70.44727
879.2660, 79.50195
880.5360, 99.50879
881.8050, 10.42773
883.0740, 29.68945
884.3430, 169.8643
885.6120, 100.0957
886.8810, 150.3848
888.1490, 9.268555
889.4180, 301.1338
890.6860, 31.59180
891.9530, 142.1084
893.2210, 232.6826
894.4880, 173.3154
895.7560, 214.0059
897.0230, 224.7539
898.2900, 165.5664
899.5560, 316.4355
900.8230, 187.3652
902.0890, 398.3535
903.3550, 419.4033
904.6210, 260.5225
905.8860, 501.7207
907.1520, 582.9922
908.4170, 604.3516
909.6820, 735.7861
910.9470, 697.3174
912.2110, 848.9258
913.4760, 960.6084
914.7400, 1122.400
916.0040, 1204.299
917.2680, 976.2793
918.5310, 1028.338
919.7950, 1010.500
921.0580, 702.7461
922.3210, 835.0684
923.5840, 587.4824
924.8460, 669.9805
926.1090, 552.5762
927.3710, 575.2441
928.6330, 617.9775
929.8950, 520.7861
931.1560, 553.6533
932.4180, 626.5811
933.6790, 389.5693
934.9400, 532.6162
936.2010, 595.7236
937.4610, 538.8906
938.7220, 642.1162
939.9820, 555.4033
941.2420, 618.7480
942.5020, 632.1543
943.7610, 594.8701
945.0210, 649.1436
946.2800, 562.7295
947.5390, 656.3809
948.7980, 660.0928
950.0560, 573.8643
951.3150, 827.6953
952.5730, 761.5859
953.8310, 795.5371
955.0890, 839.5469
956.3460, 863.6182
957.6040, 1037.750
958.8610, 1121.248
960.1180, 975.4980
961.3750, 1099.809
962.6310, 864.1895
963.8880, 958.7500
965.1440, 813.2490
966.4000, 747.8213
967.6560, 832.4434
968.9110, 737.1855
970.1670, 701.9277
971.4220, 717.1494
972.6770, 632.0078
973.9320, 726.7109
975.1860, 740.9658
976.4410, 596.0039
977.6950, 771.4053
978.9490, 826.5596
980.2030, 751.6826
981.4560, 936.0918
982.7100, 801.4248
983.9630, 996.8203
985.2160, 950.3320
986.4690, 1095.858
987.7210, 1241.094
988.9740, 1096.749
990.2260, 1322.481
991.4780, 1378.271
992.7300, 1414.131
993.9820, 1727.349
995.2330, 1822.397
996.4840, 2038.462
997.7350, 2404.587
998.9860, 2700.774
1000.237, 3211.587
1001.487, 3826.755
1002.738, 4403.141
1003.988, 5499.330
1005.237, 5985.855
1006.487, 6851.197
1007.737, 6927.863
1008.986, 6344.601
1010.235, 6410.410
1011.484, 5707.279
1012.732, 5743.491
1013.981, 5875.975
1015.229, 5573.031
1016.477, 5910.169
1017.725, 5827.373
1018.973, 5704.633
1020.220, 5721.959
1021.468, 5319.342
1022.715, 5046.781
1023.962, 4893.756
1025.208, 4371.318
1026.455, 4348.945
1027.701, 4066.643
1028.947, 3602.194
1030.193, 3560.009
1031.439, 3017.882
1032.684, 2745.558
1033.930, 2523.551
1035.175, 2181.600
1036.420, 2169.708
1037.665, 1777.872
1038.909, 1595.880
1040.154, 1564.166
1041.398, 1142.507
1042.642, 1230.904
1043.885, 1159.363
1045.129, 1027.879
1046.372, 1086.448
1047.615, 805.0781
1048.858, 873.7637
1050.101, 772.5059
1051.344, 751.3018
1052.586, 740.1543
1053.828, 559.0605
1055.070, 688.0195
1056.312, 677.0322
1057.554, 476.0996
1058.795, 575.2188
1060.036, 454.3906
1061.277, 603.6143
1062.518, 492.8906
1063.759, 452.2305
1064.999, 411.6211
1066.240, 491.0635
1067.480, 406.5566
1068.719, 550.1006
1069.959, 369.6953
1071.199, 340.3389
1072.438, 395.0322
1073.677, 344.7764
1074.916, 422.5723
1076.154, 243.4150
1077.393, 282.3105
1078.631, 310.2568
1079.869, 219.2520
1081.107, 281.2949
1082.345, 246.3857
1083.582, 248.5244
1084.820, 306.7119
1086.057, 219.9482
1087.294, 223.2324
1088.530, 260.5664
1089.767, 85.94629
1091.003, 143.3711
1092.239, 248.8428
1093.475, 109.3584
1094.711, 171.9189
1095.947, 68.25684
1097.182, 26.91016
1098.417, 39.20508
1099.652, 29.36035
1100.887, 41.15332
1102.122, 22.98926
1103.356, 48.87402
1104.590, 44.30469
1105.824, 72.99414
1107.058, 44.00586
1108.292, 63.06641
1109.525, 49.16699
1110.758, 35.64746
1111.991, 11.21484
1113.224, 41.00879
1114.457, 0.4609380
1115.689, 82.08203
1116.922, 6.573242
1118.154, 105.8115
1119.385, 26.76270
1120.617, 80.69922
1121.849, 39.80078
1123.080, 34.73633
1124.311, 176.3154
1125.542, 21.06738
1126.773, 158.5840
1128.003, 60.29492
1129.234, 29.97754
1130.464, 95.78906
1131.694, 1.591797
1132.923, 55.34180
1134.153, 46.95117
1135.382, 1.130859
1136.612, 91.21387
1137.841, 145.2734
1139.069, 39.29492
1140.298, 167.7842
1141.526, 46.94727
1142.755, 74.66895
1143.983, 141.3916
1145.210, 89.21875
1146.438, 128.3408
1147.665, 64.61133
1148.893, 16.93848
1150.120, 104.0137
1151.347, 85.76855
1152.573, 200.2432
1153.800, 231.8936
1155.026, 11.49512
1156.252, 175.7236
1157.478, 120.9609
1158.704, 154.2197
1159.929, 108.6533
1161.155, 222.9883
1162.380, 105.7559
1163.605, 208.2246
1164.829, 120.2207
1166.054, 199.2705
1167.278, 177.4756
1168.503, 98.29102
1169.727, 292.3389
1170.950, 31.85059
1172.174, 210.3076
1173.397, 123.2881
1174.621, 145.1309
1175.844, 201.0918
1177.066, 184.7451
1178.289, 197.0791
1179.512, 251.5254
1180.734, 163.2988
1181.956, 209.3779
1183.178, 156.9590
1184.399, 62.07910
1185.621, 210.2197
1186.842, 163.9854
1188.063, 5.166992
1189.284, 226.3662
1190.505, 123.5371
1191.726, 178.7734
1192.946, 228.0293
1194.166, 109.7402
1195.386, 266.0293
1196.606, 164.1699
1197.826, 120.4922
1199.045, 107.4561
1200.264, 70.81104
1201.483, 109.1821
1202.702, 181.5679
1203.921, 85.35156
1205.139, 151.7676
1206.357, 176.3301
1207.575, 46.77393
1208.793, 133.4453
1210.011, 107.7959
1211.228, 85.28076
1212.446, 105.0386
1213.663, 139.9102
1214.880, 210.5020
1216.097, 236.1807
1217.313, 225.3564
1218.529, 216.5259
1219.746, 190.6973
1220.962, 125.0464
1222.177, 140.7612
1223.393, 80.30176
1224.608, 147.0278
1225.824, 61.91846
1227.039, 58.73193
1228.254, 32.69678
1229.468, 131.8999
1230.683, 35.09717
1231.897, 136.5557
1233.111, 58.90723
1234.325, 88.21436
1235.539, 158.3350
1236.752, 59.33984
1237.965, 119.2144
1239.179, 35.92578
1240.392, 43.82178
1241.604, 23.59619
1242.817, 73.36133
1244.029, 107.6802
1245.241, 46.40869
1246.453, 95.19629
1247.665, 86.94873
1248.877, 27.89697
1250.088, 16.15479
1251.300, 18.93018
1252.511, 116.7334
1253.722, 144.0840
1254.932, 75.88916
1256.143, 27.29590
1257.353, 89.90186
1258.563, 66.60596
1259.773, 16.70850
1260.983, 18.53809
1262.192, 49.36914
1263.402, 47.55225
1264.611, 104.6538
1265.820, 89.54248
1267.029, 46.17773
1268.237, 80.19043
1269.446, 58.16064
1270.654, 58.06201
1271.862, 74.47949
1273.070, 39.52490
1274.278, 105.2178
1275.485, 74.68604
1276.692, 72.33984
1277.900, 30.98096
1279.106, 11.64893
1280.313, 85.29541
1281.520, 20.11084
1282.726, 48.52734
1283.932, 83.03174
1285.138, 19.41992
1286.344, 29.80811
1287.550, 20.71387
1288.755, 19.78320
1289.960, 20.81738
1291.165, 13.29980
1292.370, 82.84180
1293.575, 87.62256
1294.779, 53.93018
1295.984, 64.50537
1297.188, 55.89111
1298.392, 60.71680
1299.595, 53.10107
1300.799, 34.36572
1302.002, 28.04980
1303.206, 89.24268
1304.409, 21.52734
1305.611, 1.795898
1306.814, 61.03662
1308.016, 66.73340
1309.219, 12.45898
1310.421, 48.62891
1311.623, 9.780273
1312.824, 81.91064
1314.026, 55.94385
1315.227, 34.13574
1316.428, 38.21143
1317.629, 0.7333980
1318.830, 14.70752
1320.031, 101.2910
1321.231, 27.27197
1322.431, 47.23779
1323.631, 93.18457
1324.831, 8.116211
1326.031, 183.0220
1327.230, 48.91455
1328.429, 103.7837
1329.628, 143.6362
1330.827, 6.527832
1332.026, 136.2798
1333.225, 142.0742
1334.423, 5.855957
1335.621, 162.6162
1336.819, 166.3628
1338.017, 19.09521
1339.214, 138.8066
1340.412, 40.49072
1341.609, 103.1523
1342.806, 50.79883
1344.003, 119.4209
1345.200, 135.0244
1346.396, 177.6431
1347.592, 66.21533
1348.788, 147.7705
1349.984, 85.30957
1351.180, 145.8330
1352.376, 80.34033
1353.571, 7.095215
1354.766, 119.3682
1355.961, 78.81641
1357.156, 72.24854
1358.351, 96.66406
1359.545, 90.06592
1360.739, 76.45117
1361.933, 155.8203
1363.127, 65.17578
1364.321, 52.51367
1365.515, 94.83447
1366.708, 45.14160
1367.901, 38.43018
1369.094, 84.70264
1370.287, 92.22998
1371.479, 81.47314
1372.672, 66.70312
1373.864, 67.99121
1375.056, 54.41211
1376.248, 60.53955
1377.440, 64.50879
1378.631, 76.52051
1379.822, 86.78320
1381.014, 98.91650
1382.205, 125.0244
1383.395, 99.00391
1384.586, 53.89990
1385.776, 92.11523
1386.966, 23.67969
1388.157, 135.4312
1389.346, 46.16455
1390.536, 154.7446
1391.725, 42.34668
1392.915, 81.02881
1394.104, 147.2842
1395.293, 131.6382
1396.482, 77.00195
1397.670, 165.6021
1398.858, 157.1890
1400.047, 94.77051
1401.235, 150.3389
1402.422, 107.8706
1403.610, 179.4165
1404.798, 151.7915
1405.985, 92.51367
1407.172, 101.2129
1408.359, 107.1143
1409.546, 108.6909
1410.732, 224.1357
1411.918, 108.3486
1413.105, 101.2021
1414.291, 159.7637
1415.476, 72.95312
1416.662, 160.5957
1417.848, 71.21289
