##NAMES=Diopside
##RRUFFID=R040009
##IDEAL CHEMISTRY=CaMgSi_2_O_6_
##LOCALITY=Otter Lake, Quebec, Canada
##OWNER=RRUFF
##SOURCE=University of Arizona Mineral Museum
##DESCRIPTION=Green square prismatic crystal associated with pale orange calcite
##STATUS=The identification of this mineral has been confirmed by X-ray diffraction and chemical analysis
##URL=rruff.info/R040009
##MEASURED CHEMISTRY=(Ca_0.97_Fe_0.02_Na_0.01_)_Σ=1_(Mg_0.97_Fe_0.02_Al_0.01_)_Σ=1_Si_2.00_O_6_; trace amounts of Mn and Ti
##PIN_ID=L00101
##ORIENTATION=Laser parallel to -a [-1 0 0]. Fiducial mark perpendicular to laser is parallel to -b* (0 -1 0)
91.981, 0.000
93.375, 4.000
94.768, 47.349
96.161, 0.999
97.554, 2.125
98.947, 18.781
100.340, 35.562
101.732, 1.080
103.124, 26.208
104.516, 57.848
105.908, 191.930
107.300, 282.477
108.691, 165.430
110.082, 102.670
111.473, 95.165
112.864, 86.890
114.254, 216.823
115.644, 306.948
117.034, 455.247
118.424, 444.705
119.813, 452.350
121.203, 408.125
122.592, 345.654
123.981, 286.728
125.369, 154.915
126.758, 176.196
128.146, 210.567
129.534, 185.024
130.922, 291.564
132.309, 280.183
133.696, 335.878
135.083, 377.645
136.470, 561.475
137.857, 639.393
139.243, 653.365
140.630, 503.389
142.016, 292.465
143.401, 165.591
144.787, 153.768
146.172, 118.704
147.557, 61.958
148.942, 22.257
150.327, 24.601
151.711, 16.299
153.096, 46.508
154.480, 110.303
155.863, 79.459
157.247, 22.960
158.630, 25.505
160.013, 15.093
161.396, 28.723
162.779, 42.294
164.161, 73.100
165.544, 71.845
166.926, 98.626
168.308, 86.442
169.689, 42.292
171.070, 51.174
172.452, 83.088
173.833, 166.033
175.213, 608.003
176.594, 425.972
177.974, 784.938
179.354, 1330.908
180.734, 1946.886
182.114, 1921.669
183.493, 1215.695
184.872, 613.696
186.251, 302.711
187.630, 173.743
189.008, 89.805
190.387, 74.910
191.765, 96.067
193.143, 103.248
194.520, 108.350
195.898, 158.660
197.275, 98.892
198.652, 57.140
200.029, 14.595
201.405, 12.687
202.782, 11.990
204.158, 10.314
205.534, 39.651
206.909, 26.005
208.285, 21.375
209.660, 41.789
211.035, 15.759
212.410, 25.292
213.784, 18.190
215.159, 10.285
216.533, 8.272
217.907, 16.121
219.281, 23.499
220.654, 40.131
222.027, 54.775
223.400, 156.431
224.773, 303.099
226.146, 400.779
227.518, 563.471
228.891, 762.173
230.263, 957.885
231.634, 1224.608
233.006, 1456.343
234.377, 1391.087
235.748, 1134.836
237.119, 824.594
238.490, 502.361
239.860, 424.138
241.231, 300.927
242.601, 256.725
243.970, 204.534
245.340, 240.354
246.709, 234.182
248.079, 326.021
249.448, 507.870
250.816, 651.729
252.185, 990.596
253.553, 1253.473
254.921, 1301.360
256.289, 999.255
257.657, 661.572
259.024, 401.615
260.391, 246.708
261.758, 191.684
263.125, 69.721
264.492, 82.970
265.858, 28.261
267.224, 50.591
268.590, 21.956
269.956, 22.646
271.321, 8.782
272.687, 22.250
274.052, 2.241
275.416, 23.306
276.781, 47.883
278.146, 34.495
279.510, 38.138
280.874, 72.802
282.237, 75.488
283.601, 143.201
284.964, 97.670
286.327, 104.158
287.690, 159.920
289.053, 202.467
290.416, 217.405
291.778, 251.219
293.140, 274.048
294.502, 329.893
295.863, 373.752
297.225, 476.626
298.586, 574.513
299.947, 709.415
301.308, 794.329
302.668, 945.255
304.029, 1086.194
305.389, 1331.144
306.749, 1580.105
308.108, 1937.077
309.468, 2565.061
310.827, 2965.052
312.186, 3613.552
313.545, 4039.565
314.903, 4762.645
316.262, 5875.377
317.620, 7533.410
318.978, 10234.448
320.336, 13934.495
321.693, 18211.549
323.051, 21769.615
324.408, 22812.389
325.765, 20289.689
327.121, 16499.867
328.478, 12304.968
329.834, 9064.076
331.190, 6804.190
332.546, 5270.314
333.902, 4033.675
335.257, 3385.059
336.612, 2680.907
337.967, 2277.524
339.322, 1955.083
340.677, 1754.282
342.031, 1526.454
343.385, 1363.634
344.739, 1306.821
346.093, 1207.010
347.446, 1073.206
348.799, 1071.408
350.153, 1032.618
351.505, 982.833
352.858, 1068.055
354.210, 1128.284
355.563, 1171.518
356.915, 1192.757
358.267, 1107.003
359.618, 1121.253
360.969, 1075.510
362.321, 1038.771
363.672, 1135.802
365.022, 1183.074
366.373, 1332.351
367.723, 1382.633
369.073, 1443.919
370.423, 1485.211
371.773, 1541.507
373.122, 1557.807
374.471, 1675.852
375.821, 2042.644
377.169, 2236.956
378.518, 2749.134
379.866, 3311.455
381.215, 4329.512
382.563, 5631.839
383.910, 7539.169
385.258, 10516.501
386.605, 14487.838
387.952, 19681.178
389.299, 23534.520
390.646, 25261.867
391.992, 22645.219
393.339, 17569.566
394.685, 12644.917
396.031, 8740.272
397.376, 6274.630
398.722, 4452.989
400.067, 3357.352
401.412, 2549.715
402.757, 1956.081
404.101, 1683.449
405.446, 1281.820
406.790, 1039.193
408.134, 902.570
409.478, 744.948
410.821, 677.330
412.165, 557.715
413.508, 481.154
414.851, 419.057
416.193, 369.413
417.536, 321.415
418.878, 308.812
420.220, 295.236
421.562, 249.757
422.904, 212.172
424.245, 218.833
425.586, 144.705
426.927, 192.414
428.268, 156.004
429.609, 109.451
430.949, 84.336
432.289, 111.473
433.629, 86.643
434.969, 66.506
436.309, 150.107
437.648, 41.853
438.987, 68.360
440.326, 3.743
441.665, 32.437
443.003, 14.380
444.342, 43.459
445.680, 32.448
447.018, 14.714
448.355, 59.918
449.693, 32.285
451.030, 21.340
452.367, 31.321
453.704, 45.958
455.041, 51.104
456.377, 48.294
457.713, 52.924
459.049, 36.668
460.385, 43.252
461.721, 30.798
463.056, 104.283
464.391, 95.776
465.726, 98.247
467.061, 150.717
468.395, 59.187
469.730, 23.656
471.064, 108.136
472.398, 6.385
473.731, 46.090
475.065, 2.563
476.398, 22.034
477.731, 54.506
479.064, 22.976
480.397, 35.445
481.729, 47.912
483.062, 18.383
484.394, 25.149
485.725, 16.697
487.057, 14.258
488.389, 18.173
489.720, 39.607
491.051, 23.053
492.382, 49.500
493.712, 1.950
495.043, 15.605
496.373, 23.175
497.703, 1.762
499.032, 0.354
500.362, 43.941
501.691, 38.442
503.020, 83.833
504.349, 54.221
505.678, 112.610
507.007, 190.995
508.335, 200.384
509.663, 214.768
510.991, 313.148
512.319, 347.525
513.646, 310.896
514.973, 405.262
516.300, 417.623
517.627, 469.979
518.954, 621.330
520.280, 541.676
521.607, 696.016
522.933, 929.358
524.259, 1230.694
525.584, 1442.032
526.910, 1885.363
528.235, 2284.687
529.560, 2545.008
530.885, 2477.326
532.209, 2128.646
533.534, 1662.962
534.858, 1323.280
536.182, 1047.594
537.506, 800.902
538.829, 603.203
540.152, 513.496
541.476, 368.780
542.799, 319.055
544.121, 266.321
545.444, 218.577
546.766, 217.822
548.088, 172.058
549.410, 220.283
550.732, 171.498
552.053, 201.703
553.375, 162.897
554.696, 127.081
556.017, 206.253
557.337, 194.415
558.658, 244.566
559.978, 193.732
561.298, 226.902
562.618, 227.164
563.938, 142.442
565.257, 138.817
566.576, 147.224
567.895, 104.506
569.214, 129.929
570.533, 109.332
571.851, 64.599
573.170, 91.193
574.488, 138.522
575.805, 60.056
577.123, 89.384
578.440, 76.833
579.758, 56.176
581.075, 91.673
582.391, 27.676
583.708, 16.973
585.024, 25.409
586.341, 50.626
587.657, 87.305
588.972, 18.716
590.288, 61.039
591.603, 23.718
592.918, 34.532
594.233, 30.503
595.548, 0.424
596.863, 28.297
598.177, 10.205
599.491, 42.822
600.805, 19.891
602.119, 4.894
603.432, 15.095
604.746, 34.189
606.059, 57.221
607.372, 25.710
608.685, 16.948
609.997, 43.738
611.309, 55.160
612.621, 78.094
613.933, 26.438
615.245, 60.384
616.557, 34.734
617.868, 73.638
619.179, 83.343
620.490, 101.940
621.801, 100.772
623.111, 183.176
624.421, 177.863
625.731, 229.643
627.041, 179.377
628.351, 258.812
629.660, 287.520
630.970, 182.036
632.279, 313.666
633.588, 290.362
634.896, 341.187
636.205, 336.740
637.513, 385.442
638.821, 399.093
640.129, 438.779
641.437, 508.329
642.744, 555.333
644.051, 630.600
645.358, 649.977
646.665, 821.769
647.972, 902.531
649.278, 1001.844
650.584, 1236.371
651.890, 1437.738
653.196, 1728.933
654.502, 2074.628
655.807, 2539.388
657.113, 3105.045
658.418, 4022.321
659.722, 5233.478
661.027, 6866.737
662.331, 8844.143
663.636, 11212.339
664.940, 13470.213
666.244, 14560.482
667.547, 14325.766
668.851, 12384.897
670.154, 10219.927
671.457, 7749.061
672.760, 5990.058
674.062, 4668.041
675.365, 3558.191
676.667, 2848.143
677.969, 2388.210
679.271, 1959.470
680.572, 1531.376
681.874, 1303.779
683.175, 1141.500
684.476, 1051.434
685.777, 818.451
687.077, 760.251
688.378, 699.816
689.678, 675.241
690.978, 515.546
692.278, 493.373
693.577, 352.117
694.877, 439.760
696.176, 394.204
697.475, 349.302
698.774, 321.376
700.072, 379.426
701.371, 335.453
702.669, 311.456
703.967, 260.435
705.265, 329.390
706.562, 382.321
707.860, 326.228
709.157, 292.112
710.454, 284.971
711.751, 237.794
713.047, 212.642
714.344, 185.430
715.640, 155.214
716.936, 152.139
718.232, 127.991
719.527, 121.750
720.823, 96.658
722.118, 86.384
723.413, 114.148
724.708, 78.105
726.002, 80.689
727.297, 110.383
728.591, 33.981
729.885, 90.572
731.179, 39.114
732.472, 85.583
733.766, 54.118
735.059, 76.504
736.352, 36.803
737.645, 152.224
738.937, 78.317
740.230, 41.284
741.522, 90.446
742.814, 20.790
744.106, 38.124
745.397, 54.940
746.689, 71.017
747.980, 73.979
749.271, 98.181
750.562, 74.163
751.853, 55.899
753.143, 51.903
754.433, 58.939
755.723, 44.638
757.013, 16.284
758.303, 51.547
759.592, 1.230
760.881, 95.312
762.170, 217.930
763.459, 30.358
764.748, 43.603
766.036, 28.899
767.325, 34.584
768.613, 4.150
769.901, 23.424
771.188, 2.891
772.476, 25.154
773.763, 68.549
775.050, 18.967
776.337, 30.693
777.624, 16.803
778.910, 57.578
780.196, 30.934
781.482, 38.446
782.768, 35.114
784.054, 36.135
785.339, 3.670
786.625, 46.960
787.910, 13.514
789.195, 6.873
790.479, 52.985
791.764, 13.072
793.048, 21.133
794.332, 11.676
795.616, 36.345
796.900, 5.667
798.183, 44.052
799.467, 9.967
800.750, 16.062
802.033, 47.946
803.316, 8.982
804.598, 13.199
805.880, 3.137
807.163, 22.273
808.445, 27.978
809.726, 10.335
811.008, 40.680
812.289, 34.938
813.570, 43.455
814.851, 37.101
816.132, 16.370
817.413, 42.127
818.693, 25.401
819.973, 14.032
821.253, 6.442
822.533, 37.826
823.813, 57.183
825.092, 26.512
826.371, 54.814
827.650, 52.535
828.929, 7.342
830.208, 49.569
831.486, 16.771
832.764, 22.053
834.042, 45.086
835.320, 25.797
836.598, 78.282
837.875, 22.337
839.152, 0.367
840.429, 17.629
841.706, 31.869
842.983, 11.727
844.259, 28.825
845.536, 15.039
846.812, 28.879
848.088, 47.695
849.363, 89.489
850.639, 182.262
851.914, 285.017
853.189, 276.762
854.464, 369.497
855.739, 412.214
857.013, 471.914
858.288, 302.596
859.562, 248.261
860.836, 219.909
862.110, 231.541
863.383, 197.353
864.656, 207.347
865.930, 161.344
867.203, 203.913
868.475, 162.463
869.748, 122.981
871.020, 134.466
872.292, 150.830
873.564, 109.147
874.836, 131.339
876.108, 146.467
877.379, 78.693
878.650, 161.746
879.922, 128.792
881.192, 132.953
882.463, 140.757
883.733, 145.800
885.004, 136.609
886.274, 134.592
887.544, 158.423
888.813, 151.330
890.083, 142.053
891.352, 157.239
892.621, 132.102
893.890, 118.794
895.159, 98.673
896.427, 129.056
897.695, 142.675
898.964, 149.349
900.232, 196.070
901.499, 136.804
902.767, 143.645
904.034, 167.389
905.301, 155.045
906.568, 255.687
907.835, 223.355
909.102, 118.941
910.368, 188.347
911.634, 185.935
912.900, 289.647
914.166, 205.386
915.432, 236.648
916.697, 241.333
917.962, 182.264
919.227, 249.204
920.492, 167.594
921.757, 206.542
923.021, 157.848
924.285, 233.714
925.550, 236.990
926.813, 154.427
928.077, 116.964
929.341, 146.199
930.604, 179.823
931.867, 217.430
933.130, 127.604
934.393, 138.788
935.655, 257.230
936.918, 95.809
938.180, 147.617
939.442, 78.891
940.703, 119.300
941.965, 177.569
943.226, 177.353
944.488, 189.379
945.749, 136.091
947.009, 167.468
948.270, 90.245
949.530, 70.589
950.791, 163.212
952.051, 190.634
953.311, 114.125
954.570, 135.471
955.830, 226.405
957.089, 240.871
958.348, 266.474
959.607, 270.098
960.866, 285.492
962.124, 262.179
963.383, 289.697
964.641, 420.282
965.899, 399.509
967.156, 385.713
968.414, 506.378
969.671, 467.885
970.928, 511.742
972.185, 467.459
973.442, 569.695
974.699, 566.269
975.955, 700.786
977.211, 735.361
978.468, 803.539
979.723, 833.381
980.979, 901.685
982.234, 862.722
983.490, 1147.726
984.745, 1012.497
986.000, 1162.924
987.254, 1309.815
988.509, 1355.762
989.763, 1545.835
991.017, 1658.551
992.271, 1918.917
993.525, 2139.166
994.779, 2448.695
996.032, 2818.304
997.285, 3250.305
998.538, 3772.555
999.791, 4192.896
1001.044, 5167.159
1002.296, 6010.141
1003.548, 7456.853
1004.800, 9152.112
1006.052, 11768.025
1007.304, 15300.915
1008.555, 20476.660
1009.807, 27336.346
1011.058, 36434.398
1012.309, 45860.227
1013.559, 50242.062
1014.810, 46707.121
1016.060, 37496.895
1017.310, 27818.463
1018.560, 19850.051
1019.810, 13881.015
1021.060, 10409.438
1022.309, 7829.982
1023.558, 6135.271
1024.807, 5108.369
1026.056, 4027.747
1027.305, 3484.151
1028.553, 3053.301
1029.801, 2685.081
1031.049, 2375.540
1032.297, 2083.753
1033.545, 1927.812
1034.793, 1935.294
1036.040, 1698.145
1037.287, 1670.204
1038.534, 1619.403
1039.781, 1523.748
1041.027, 1624.836
1042.274, 1497.824
1043.520, 1600.062
1044.766, 1605.770
1046.012, 1630.535
1047.257, 1564.503
1048.503, 1543.283
1049.748, 1546.949
1050.993, 1205.317
1052.238, 1140.646
1053.483, 1017.211
1054.727, 902.329
1055.971, 767.403
1057.216, 831.193
1058.459, 719.135
1059.703, 689.415
1060.947, 601.435
1062.190, 607.013
1063.433, 598.273
1064.676, 466.567
1065.919, 464.751
1067.162, 435.911
1068.404, 500.013
1069.646, 376.850
1070.888, 406.190
1072.130, 411.960
1073.372, 285.046
1074.613, 364.019
1075.855, 334.692
1077.096, 256.584
1078.337, 317.705
1079.578, 331.897
1080.818, 195.521
1082.059, 333.563
1083.299, 290.751
1084.539, 308.871
1085.779, 167.391
1087.018, 270.665
1088.258, 243.595
1089.497, 173.241
1090.736, 182.627
1091.975, 116.407
1093.213, 174.898
1094.452, 174.859
1095.690, 158.354
1096.928, 87.242
1098.166, 145.898
1099.404, 123.424
1100.642, 167.671
1101.879, 64.104
1103.116, 99.229
1104.353, 57.217
1105.590, 109.585
1106.827, 52.220
1108.063, 75.081
1109.299, 132.487
1110.536, 95.806
1111.771, 46.895
1113.007, 86.087
1114.243, 198.923
1115.478, 172.276
1116.713, 17.920
1117.948, 96.368
1119.183, 82.935
1120.418, 11.510
1121.652, 115.020
1122.886, 300.406
1124.120, 347.198
1125.354, 282.102
1126.588, 162.839
1127.821, 236.938
1129.055, 77.420
1130.288, 179.784
1131.521, 151.201
1132.753, 152.853
1133.986, 70.037
1135.218, 69.646
1136.450, 208.986
1137.682, 119.119
1138.914, 174.574
1140.146, 60.382
1141.377, 134.860
1142.609, 93.148
1143.840, 91.978
1145.071, 106.238
1146.301, 55.823
1147.532, 47.528
1148.762, 103.402
1149.992, 4.762
1151.222, 50.229
1152.452, 40.876
1153.682, 7.271
1154.911, 8.285
1156.140, 36.391
1157.369, 44.854
1158.598, 9.726
1159.827, 6.447
1161.055, 0.497
1162.284, 37.471
1163.512, 5.032
1164.740, 42.375
1165.967, 37.173
1167.195, 54.642
1168.422, 34.597
1169.650, 19.398
1170.877, 90.485
1172.103, 88.483
1173.330, 36.950
1174.557, 39.819
1175.783, 25.570
1177.009, 5.694
1178.235, 42.910
1179.461, 58.398
1180.686, 15.035
1181.912, 6.741
1183.137, 124.773
1184.362, 68.699
1185.587, 50.504
1186.811, 14.299
1188.036, 43.309
1189.260, 14.099
1190.484, 15.159
1191.708, 98.905
1192.932, 57.902
1194.155, 35.518
1195.378, 84.794
1196.602, 109.107
1197.825, 191.882
1199.047, 168.495
1200.270, 112.763
1201.492, 236.908
1202.715, 230.795
1203.937, 65.020
1205.159, 258.037
1206.380, 114.838
1207.602, 223.352
1208.823, 78.687
1210.044, 144.721
1211.265, 125.111
1212.486, 139.993
1213.707, 133.636
1214.927, 135.666
1216.147, 189.577
1217.367, 63.418
1218.587, 190.518
1219.807, 89.836
1221.027, 118.760
1222.246, 178.096
1223.465, 95.924
1224.684, 232.575
1225.903, 231.069
1227.121, 142.879
1228.340, 57.988
1229.558, 181.518
1230.776, 196.088
1231.994, 127.754
1233.212, 97.083
1234.429, 218.528
1235.646, 203.050
1236.864, 75.082
1238.081, 234.296
1239.297, 75.597
1240.514, 161.160
1241.730, 219.491
1242.947, 142.152
1244.163, 106.966
1245.378, 105.427
1246.594, 245.309
1247.810, 199.228
1249.025, 35.710
1250.240, 240.406
1251.455, 167.202
1252.670, 100.908
1253.885, 253.672
1255.099, 111.841
1256.313, 113.581
1257.527, 12.203
1258.741, 24.448
1259.955, 165.983
1261.168, 74.166
1262.382, 177.333
1263.595, 204.558
1264.808, 30.169
1266.021, 137.169
1267.233, 131.416
1268.446, 140.803
1269.658, 76.732
1270.870, 54.198
1272.082, 64.748
1273.294, 130.567
1274.505, 74.955
1275.716, 78.514
1276.928, 61.388
1278.139, 33.800
1279.349, 239.258
1280.560, 126.066
1281.770, 156.966
1282.981, 47.466
1284.191, 111.427
1285.401, 214.824
1286.610, 86.744
1287.820, 18.624
1289.029, 142.629
1290.239, 4.050
1291.448, 152.778
1292.656, 115.048
1293.865, 95.829
1295.073, 35.433
1296.282, 52.998
1297.490, 52.205
1298.698, 60.615
1299.906, 117.977
1301.113, 93.152
1302.320, 163.227
1303.528, 10.633
1304.735, 50.667
1305.942, 64.982
1307.148, 3.252
1308.355, 76.484
1309.561, 16.146
1310.767, 130.955
1311.973, 36.558
1313.179, 40.827
1314.384, 35.774
1315.590, 43.780
1316.795, 41.424
1318.000, 74.851
1319.205, 33.853
1320.410, 128.794
1321.614, 27.680
1322.819, 81.317
1324.023, 33.188
1325.227, 82.162
1326.431, 170.050
1327.634, 114.652
1328.838, 0.744
1330.041, 109.283
1331.244, 93.635
1332.447, 185.089
1333.650, 34.486
1334.852, 18.908
1336.055, 62.500
1337.257, 26.510
1338.459, 133.806
1339.661, 7.873
1340.862, 134.459
1342.064, 66.686
1343.265, 51.944
1344.466, 0.912
1345.667, 1.323
1346.868, 15.425
1348.068, 158.220
1349.269, 55.970
1350.469, 61.521
1351.669, 3.012
1352.869, 222.671
1354.069, 88.560
1355.268, 146.401
1356.468, 72.071
1357.667, 235.461
1358.866, 131.683
1360.065, 126.641
1361.263, 115.612
1362.462, 34.251
1363.660, 44.251
1364.858, 176.117
1366.056, 98.898
1367.254, 43.726
1368.451, 136.785
1369.649, 139.170
1370.846, 81.268
1372.043, 107.757
1373.240, 17.403
1374.436, 63.327
1375.633, 6.922
1376.829, 120.368
1378.025, 46.785
1379.221, 104.573
1380.417, 112.730
1381.613, 81.893
1382.808, 46.787
1384.003, 121.276
1385.199, 132.725
1386.393, 210.361
1387.588, 7.873
1388.783, 64.621
1389.977, 92.656
1391.171, 31.002
1392.365, 81.741
1393.559, 169.680
1394.753, 305.374
1395.946, 137.589
1397.140, 232.821
1398.333, 54.441
1399.526, 245.392
1400.719, 197.790
1401.911, 233.018
1403.104, 217.422
1404.296, 282.069
1405.488, 219.746
1406.680, 248.523
1407.872, 76.486
1409.063, 285.347
1410.255, 347.903
1411.446, 155.955
1412.637, 386.093
1413.828, 243.373
1415.018, 275.316
1416.209, 423.427
1417.399, 243.755
1418.589, 238.241
1419.779, 438.396
1420.969, 235.620
1422.159, 421.832
1423.348, 206.975
1424.537, 381.456
1425.726, 311.319
1426.915, 301.080
1428.104, 200.008
1429.293, 155.206
1430.481, 169.788
1431.669, 80.557
1432.857, 149.822
1434.045, 221.910
1435.233, 259.579
1436.420, 320.875
1437.608, 373.900
1438.795, 392.412
1439.982, 435.572
1441.169, 418.711
1442.355, 389.803
1443.542, 369.705
1444.728, 406.699
1445.914, 282.275
1447.100, 372.164
1448.286, 331.615
1449.472, 276.236
1450.657, 174.885
1451.842, 596.332
1453.027, 259.447
1454.212, 270.930
1455.397, 452.613
1456.581, 251.322
1457.766, 438.229
1458.950, 501.551
1460.134, 337.039
1461.318, 499.637
1462.501, 233.086
1463.685, 177.729
1464.868, 349.574
1466.051, 123.418
1467.234, 351.303
1468.417, 19.400
1469.600, 165.898
1470.782, 129.877
1471.965, 147.295
1473.147, 116.129
1474.329, 280.082
1475.510, 353.992
1476.692, 158.654
1477.873, 33.883
1479.055, 323.340
1480.236, 54.307
1481.416, 369.260
1482.597, 190.070
1483.778, 354.893
1484.958, 241.873
1486.138, 327.445
1487.318, 242.896
1488.498, 603.273
1489.678, 342.926
1490.857, 211.072
1492.037, 85.133
1493.216, 425.408
1494.395, 343.818
1495.574, 335.852
1496.752, 325.900
1497.931, 77.922
1499.109, 166.410
1500.287, 85.385
1501.465, 163.514
1502.643, 170.334
1503.820, 19.961
1504.998, 233.938
1506.175, 96.531
1507.352, 170.758
1508.529, 282.775
1509.706, 168.777
1510.882, 211.998
1512.059, 135.830
1513.235, 132.475
1514.411, 0.000
##END=



