##NAMES=Diopside
##RRUFFID=R060861
##IDEAL CHEMISTRY=CaMgSi_2_O_6_
##LOCALITY=Red Mountain Volcano, NW of Flagstaff, Arizona, USA
##OWNER=RRUFF
##SOURCE=Jennifer Sano
##DESCRIPTION=Worn brown fragment
##STATUS=The identification of this mineral has been confirmed by X-ray diffraction and chemical analysis
##URL=rruff.info/R060861
##MEASURED CHEMISTRY=(Ca_0.72_Fe^2+^_0.23_Na_0.05_)_Σ=1_(Mg_0.80_Al_0.15_Ti_0.03_Fe^3+^_0.02_)_Σ=1_(Si_1.82_Al_0.18_)_Σ=2_O_6_
##PIN_ID=M01674
##ORIENTATION=Laser parallel to b* (0 1 0). Fiducial mark perpendicular to laser is parallel to c [0 0 1]
164.8280, 0.0000000E+00
166.0620, 113.4668
167.2970, 6.163086
168.5310, 267.6445
169.7650, 365.3164
170.9990, 562.4873
172.2330, 449.6328
173.4670, 471.6074
174.7000, 419.8311
175.9330, 385.7930
177.1660, 601.7207
178.3990, 840.5654
179.6310, 984.2051
180.8640, 1013.516
182.0960, 821.1250
183.3280, 1006.751
184.5600, 1064.022
185.7910, 1332.423
187.0220, 1461.855
188.2540, 1567.283
189.4840, 1581.621
190.7150, 1641.743
191.9460, 1899.393
193.1760, 1706.430
194.4060, 1985.080
195.6360, 2035.747
196.8660, 1848.942
198.0960, 1736.476
199.3250, 1815.145
200.5540, 1904.052
201.7830, 1777.284
203.0120, 1885.865
204.2400, 1212.770
205.4690, 440.9707
206.6970, 200.4463
207.9250, 23.17188
209.1530, 106.8730
210.3800, 77.71289
211.6080, 10.63672
212.8350, 104.1543
214.0620, 44.81836
215.2880, 81.39453
216.5150, 6.496094
217.7410, 38.49414
218.9680, 146.4268
220.1940, 17.74512
221.4190, 86.48145
222.6450, 82.22168
223.8700, 96.14062
225.0960, 31.56250
226.3210, 269.0410
227.5450, 212.5713
228.7700, 225.1475
229.9940, 145.7646
231.2190, 51.42578
232.4430, 305.1807
233.6660, 108.0586
234.8900, 204.2627
236.1140, 263.1670
237.3370, 226.7793
238.5600, 292.0859
239.7830, 426.4854
241.0050, 370.9395
242.2280, 488.4365
243.4500, 707.9697
244.6720, 833.5332
245.8940, 873.1094
247.1160, 1216.687
248.3370, 1084.273
249.5580, 1093.859
250.7790, 1175.424
252.0000, 1582.966
253.2210, 3111.482
254.4410, 3290.966
255.6620, 3287.414
256.8820, 3574.802
258.1020, 3249.199
259.3210, 2798.577
260.5410, 2534.835
261.7600, 1406.912
262.9790, 820.9570
264.1980, 815.8877
265.4170, 680.7207
266.6360, 397.4502
267.8540, 371.0938
269.0720, 204.7256
270.2900, 359.3477
271.5080, 165.9609
272.7260, 152.5625
273.9430, 94.15625
275.1600, 210.7383
276.3770, 324.3105
277.5940, 276.8701
278.8100, 443.4189
280.0270, 433.9541
281.2430, 554.4756
282.4590, 711.9805
283.6750, 664.4707
284.8910, 855.9443
286.1060, 1084.398
287.3210, 1175.835
288.5360, 1322.251
289.7510, 1588.646
290.9660, 1796.021
292.1800, 1861.372
293.3950, 2113.699
294.6090, 2262.002
295.8230, 2610.279
297.0360, 2993.912
298.2500, 3135.171
299.4630, 3398.404
300.6760, 3777.865
301.8890, 4089.779
303.1020, 4590.303
304.3150, 4723.885
305.5270, 5918.774
306.7390, 6624.070
307.9510, 6565.750
309.1630, 6557.832
310.3750, 7208.932
311.5860, 7703.318
312.7970, 8178.971
314.0080, 8763.503
315.2190, 9335.902
316.4300, 9944.768
317.6400, 10750.10
318.8510, 11321.10
320.0610, 11917.22
321.2710, 12790.49
322.4800, 13056.90
323.6900, 13866.58
324.8990, 14712.21
326.1080, 15047.33
327.3170, 15604.48
328.5260, 16052.54
329.7340, 16502.22
330.9430, 16675.72
332.1510, 17133.96
333.3590, 17174.47
334.5670, 17116.76
335.7740, 16877.04
336.9820, 16873.47
338.1890, 16607.79
339.3960, 16408.17
340.6030, 16136.89
341.8100, 15670.99
343.0160, 15305.74
344.2220, 14889.50
345.4280, 14638.28
346.6340, 14443.07
347.8400, 14207.87
349.0460, 13948.69
350.2510, 13597.51
351.4560, 13310.35
352.6610, 12963.18
353.8660, 12679.00
355.0700, 12337.04
356.2750, 12084.06
357.4790, 11749.32
358.6830, 11567.45
359.8870, 11116.91
361.0910, 10741.26
362.2940, 10428.45
363.4970, 10035.56
364.7000, 9688.555
365.9030, 9344.392
367.1060, 9019.477
368.3080, 8708.229
369.5110, 8401.770
370.7130, 8219.205
371.9150, 8028.982
373.1170, 7815.756
374.3180, 7502.516
375.5200, 7431.266
376.7210, 7273.752
377.9220, 7317.477
379.1230, 7095.182
380.3230, 7113.877
381.5240, 7320.551
382.7240, 7223.202
383.9240, 7250.825
385.1240, 7752.424
386.3240, 7523.992
387.5230, 7745.533
388.7230, 7833.043
389.9220, 8019.523
391.1210, 8150.975
392.3200, 8500.392
393.5180, 8357.777
394.7170, 8480.135
395.9150, 8356.457
397.1130, 7995.744
398.3110, 7791.002
399.5080, 7294.225
400.7060, 6871.414
401.9030, 6477.568
403.1000, 5806.688
404.2970, 5206.773
405.4940, 4764.822
406.6910, 4169.838
407.8870, 3784.818
409.0830, 3130.764
410.2790, 2570.673
411.4750, 2422.549
412.6710, 2117.388
413.8660, 1720.192
415.0610, 1423.960
416.2560, 1224.691
417.4510, 1001.385
418.6460, 930.8438
419.8410, 764.4629
421.0350, 828.0430
422.2290, 604.5840
423.4230, 584.0850
424.6170, 511.5479
425.8100, 402.9688
427.0040, 451.3486
428.1970, 248.6855
429.3900, 251.9775
430.5830, 253.2246
431.7760, 248.4238
432.9680, 283.5762
434.1610, 162.6816
435.3530, 235.7363
436.5450, 24.74316
437.7360, 13.72461
438.9280, 16.63184
440.1190, 93.58008
441.3110, 83.83203
442.5020, 95.17188
443.6930, 150.6045
444.8830, 173.1455
446.0740, 66.80762
447.2640, 188.5771
448.4540, 76.51758
449.6440, 15.37598
450.8340, 248.8330
452.0240, 226.2148
453.2130, 197.5488
454.4020, 1.084961
455.5910, 3.015625
456.7800, 24.46777
457.9690, 156.8398
459.1570, 141.6357
460.3460, 176.9043
461.5340, 296.3057
462.7220, 241.6064
463.9090, 326.2930
465.0970, 254.2236
466.2840, 460.8848
467.4720, 480.9580
468.6590, 614.1963
469.8460, 616.9727
471.0320, 634.6807
472.2190, 498.2041
473.4050, 549.1885
474.5910, 610.7656
475.7770, 744.5732
476.9630, 746.4570
478.1490, 752.7910
479.3340, 655.5654
480.5190, 629.6133
481.7040, 608.7148
482.8890, 786.7734
484.0740, 658.6523
485.2580, 889.4502
486.4430, 767.1689
487.6270, 1004.808
488.8110, 927.3652
489.9950, 1057.842
491.1780, 1248.236
492.3620, 1264.548
493.5450, 1376.775
494.7280, 1542.918
495.9110, 1574.977
497.0940, 1881.956
498.2760, 2129.887
499.4590, 2391.759
500.6410, 2760.551
501.8230, 3224.254
503.0050, 3606.871
504.1860, 4127.558
505.3680, 4768.902
506.5490, 5161.287
507.7300, 5698.625
508.9110, 6161.883
510.0920, 6177.376
511.2730, 6229.145
512.4530, 6066.146
513.6330, 5713.059
514.8130, 5518.876
515.9930, 5062.597
517.1730, 4703.223
518.3520, 4586.753
519.5320, 4399.188
520.7110, 4166.523
521.8900, 4210.762
523.0690, 3955.902
524.2470, 4023.943
525.4260, 4137.885
526.6040, 4075.727
527.7820, 4245.467
528.9600, 4411.108
530.1380, 4384.647
531.3150, 4372.085
532.4930, 4479.420
533.6700, 4689.652
534.8470, 4809.783
536.0240, 4883.809
537.2000, 4796.731
538.3770, 4899.551
539.5530, 4794.264
540.7290, 4923.873
541.9050, 4794.377
543.0810, 4726.775
544.2570, 4776.066
545.4320, 4551.252
546.6080, 4642.330
547.7830, 4603.303
548.9580, 4521.166
550.1320, 4471.924
551.3070, 4510.570
552.4810, 4585.111
553.6550, 4625.541
554.8300, 4507.880
556.0030, 4366.073
557.1770, 4258.176
558.3510, 4300.168
559.5240, 4267.047
560.6970, 4221.818
561.8700, 4121.479
563.0430, 4097.027
564.2160, 4122.465
565.3880, 3835.788
566.5600, 3764.001
567.7320, 3745.834
568.9040, 3585.745
570.0760, 3666.686
571.2480, 3603.516
572.4190, 3445.228
573.5900, 3332.797
574.7610, 3243.579
575.9320, 3055.350
577.1030, 3018.495
578.2740, 2909.013
579.4440, 2721.256
580.6140, 2452.650
581.7840, 2414.602
582.9540, 2196.009
584.1240, 2235.551
585.2930, 1931.458
586.4630, 1512.799
587.6320, 1537.662
588.8010, 1314.170
589.9700, 1170.354
591.1380, 1174.583
592.3070, 789.1934
593.4750, 714.8145
594.6430, 485.8857
595.8110, 397.9473
596.9790, 220.2402
598.1460, 162.2773
599.3140, 57.32422
600.4810, 49.50195
601.6480, 66.07227
602.8150, 85.81641
603.9820, 69.77637
605.1480, 19.59766
606.3150, 126.1992
607.4810, 16.65723
608.6470, 32.60352
609.8130, 107.8369
610.9790, 356.2217
612.1440, 199.8555
613.3100, 281.9766
614.4750, 487.3467
615.6400, 519.1602
616.8050, 560.9414
617.9690, 633.9932
619.1340, 780.0654
620.2980, 949.6729
621.4620, 930.7393
622.6260, 1155.668
623.7900, 1282.767
624.9540, 1405.345
626.1170, 1622.158
627.2810, 1659.831
628.4440, 1958.362
629.6070, 2258.752
630.7690, 2259.000
631.9320, 2736.107
633.0950, 3014.075
634.2570, 3397.902
635.4190, 3674.591
636.5810, 4235.141
637.7430, 4345.549
638.9040, 4930.822
640.0660, 5490.956
641.2270, 5959.951
642.3880, 6675.809
643.5490, 7378.529
644.7100, 8087.115
645.8700, 9040.562
647.0310, 10123.88
648.1910, 11224.05
649.3510, 12696.10
650.5110, 14159.01
651.6710, 15795.78
652.8300, 17987.42
653.9900, 19918.92
655.1490, 22340.30
656.3080, 25405.55
657.4670, 28270.66
658.6250, 31754.64
659.7840, 34934.50
660.9420, 38771.21
662.1010, 42526.82
663.2590, 45794.27
664.4170, 48660.61
665.5740, 51208.84
666.7320, 52571.92
667.8890, 52666.88
669.0460, 52173.71
670.2030, 50384.43
671.3600, 47449.01
672.5170, 44189.48
673.6740, 40490.83
674.8300, 36493.05
675.9860, 32821.15
677.1420, 29410.14
678.2980, 25970.01
679.4540, 23032.75
680.6090, 20693.38
681.7650, 18134.90
682.9200, 16524.29
684.0750, 14444.58
685.2300, 12833.75
686.3840, 11232.80
687.5390, 9950.750
688.6930, 9249.580
689.8470, 8197.304
691.0010, 7383.916
692.1550, 6556.420
693.3090, 6011.816
694.4620, 5466.104
695.6160, 5011.286
696.7690, 4449.363
697.9220, 4125.338
699.0750, 3741.208
700.2280, 3679.977
701.3800, 3422.641
702.5320, 3138.208
703.6850, 2854.673
704.8370, 2753.040
705.9880, 2534.311
707.1400, 2340.484
708.2920, 2130.563
709.4430, 2096.553
710.5940, 1849.790
711.7450, 1702.930
712.8960, 1560.982
714.0470, 1339.617
715.1970, 1395.169
716.3480, 1231.637
717.4980, 1136.027
718.6480, 839.3438
719.7980, 764.5918
720.9470, 663.7910
722.0970, 415.9404
723.2460, 487.0430
724.3960, 357.1172
725.5450, 345.1689
726.6940, 123.1709
727.8420, 165.1338
728.9910, 34.95605
730.1390, 47.20215
731.2870, 143.5430
732.4350, 177.2158
733.5830, 257.0195
734.7310, 266.7041
735.8790, 488.9834
737.0260, 430.4795
738.1730, 541.6758
739.3200, 432.6494
740.4670, 380.0244
741.6140, 489.5518
742.7610, 437.0518
743.9070, 447.4355
745.0530, 482.1211
746.1990, 483.0576
747.3450, 575.2588
748.4910, 544.8496
749.6370, 479.6367
750.7820, 335.4834
751.9270, 412.9951
753.0720, 242.6895
754.2170, 317.0459
755.3620, 350.0312
756.5070, 126.2061
757.6510, 195.8076
758.7950, 83.47656
759.9400, 5.725586
761.0840, 28.86523
762.2270, 73.08398
763.3710, 198.2842
764.5140, 172.4688
765.6580, 245.8779
766.8010, 218.7939
767.9440, 303.9385
769.0870, 275.0732
770.2290, 260.2021
771.3720, 206.3242
772.5140, 393.4414
773.6560, 413.5576
774.7990, 316.6719
775.9400, 577.7891
777.0820, 498.9092
778.2240, 552.0342
779.3650, 572.1650
780.5060, 680.3066
781.6470, 624.4590
782.7880, 623.6221
783.9290, 656.8008
785.0690, 679.9980
786.2100, 851.2109
787.3500, 936.4443
788.4900, 844.7002
789.6300, 779.9795
790.7700, 835.2852
791.9090, 1014.617
793.0490, 1101.979
794.1880, 1161.273
795.3270, 1202.339
796.4660, 1302.260
797.6050, 1167.756
798.7440, 1304.291
799.8820, 1249.865
801.0200, 1364.481
802.1590, 1412.141
803.2970, 1387.844
804.4340, 1551.593
805.5720, 1580.391
806.7100, 1751.237
807.8470, 1782.136
808.9840, 1698.088
810.1210, 1854.094
811.2580, 1776.155
812.3950, 2031.275
813.5310, 1986.455
814.6680, 2118.694
815.8040, 2050.998
816.9400, 2162.364
818.0760, 2137.797
819.2120, 2276.297
820.3470, 2268.864
821.4830, 2279.504
822.6180, 2323.555
823.7530, 2276.997
824.8880, 2336.855
826.0230, 2407.792
827.1580, 2411.255
828.2920, 2405.826
829.4270, 2357.068
830.5610, 2316.324
831.6950, 2269.662
832.8290, 2188.086
833.9620, 2107.597
835.0960, 2050.195
836.2290, 2049.883
837.3620, 1922.662
838.4950, 1945.534
839.6280, 1854.499
840.7610, 1936.559
841.8940, 1892.855
843.0260, 1802.971
844.1580, 1830.324
845.2910, 1770.778
846.4230, 1651.334
847.5540, 1925.994
848.6860, 1762.758
849.8170, 1911.630
850.9490, 1927.607
852.0800, 1936.693
853.2110, 2071.891
854.3420, 2128.199
855.4730, 2383.619
856.6030, 2352.154
857.7340, 2389.804
858.8640, 2678.567
859.9940, 2972.449
861.1240, 2985.450
862.2540, 3033.568
863.3830, 3320.374
864.5130, 3172.508
865.6420, 3403.691
866.7710, 3439.545
867.9000, 3321.794
869.0290, 3638.380
870.1570, 3564.416
871.2860, 3452.318
872.4140, 3450.771
873.5430, 3473.439
874.6710, 3335.764
875.7980, 3265.809
876.9260, 3024.854
878.0540, 3120.040
879.1810, 3090.271
880.3080, 2894.711
881.4360, 2895.014
882.5630, 2924.518
883.6890, 2709.022
884.8160, 2624.329
885.9420, 2575.477
887.0690, 2413.519
888.1950, 2435.528
889.3210, 2434.366
890.4470, 2374.762
891.5730, 2209.008
892.6980, 2359.312
893.8240, 2335.847
894.9490, 2460.924
896.0740, 2333.137
897.1990, 2364.840
898.3240, 2298.789
899.4480, 2192.003
900.5730, 2280.465
901.6970, 2408.185
902.8210, 2373.184
903.9450, 2219.450
905.0690, 2495.967
906.1930, 2355.726
907.3160, 2337.723
908.4400, 2355.951
909.5630, 2198.428
910.6860, 2310.141
911.8090, 2329.869
912.9320, 2478.383
914.0550, 2522.900
915.1770, 2626.701
916.2990, 2781.777
917.4210, 2677.127
918.5440, 2818.754
919.6650, 3008.653
920.7870, 2867.809
921.9090, 2875.230
923.0300, 3131.912
924.1510, 3036.832
925.2720, 3101.017
926.3930, 3186.475
927.5140, 3168.046
928.6350, 3192.191
929.7550, 3262.425
930.8760, 3350.881
931.9960, 3467.570
933.1160, 3605.492
934.2360, 3639.568
935.3550, 3742.027
936.4750, 3730.629
937.5940, 3684.460
938.7140, 3742.542
939.8330, 3789.536
940.9520, 3776.386
942.0710, 3959.178
943.1890, 4016.188
944.3080, 4094.415
945.4260, 4079.863
946.5440, 4218.537
947.6620, 4273.900
948.7800, 4534.558
949.8980, 4490.903
951.0160, 4735.459
952.1330, 4936.229
953.2500, 5117.207
954.3680, 5294.409
955.4850, 5597.822
956.6010, 5473.452
957.7180, 5821.302
958.8350, 6012.361
959.9510, 5956.632
961.0670, 6316.110
962.1830, 6474.796
963.2990, 6815.690
964.4150, 6900.792
965.5310, 7281.102
966.6460, 7503.615
967.7620, 7850.336
968.8770, 8143.261
969.9920, 8554.387
971.1070, 8775.724
972.2210, 9214.259
973.3360, 9878.997
974.4500, 10452.94
975.5650, 10768.08
976.6790, 10944.41
977.7930, 11548.95
978.9070, 11920.69
980.0200, 12592.62
981.1340, 13154.76
982.2470, 13887.27
983.3610, 14688.57
984.4740, 15565.37
985.5870, 16486.30
986.6990, 17504.43
987.8120, 18591.76
988.9250, 19649.28
990.0370, 20914.64
991.1490, 22194.90
992.2610, 23617.99
993.3730, 25146.28
994.4850, 26738.75
995.5960, 28591.42
996.7080, 30194.28
997.8190, 31817.33
998.9300, 33954.59
1000.041, 35554.07
1001.152, 37203.79
1002.263, 38485.77
1003.373, 39306.01
1004.484, 40170.54
1005.594, 40882.33
1006.704, 40875.48
1007.814, 40617.12
1008.924, 40169.75
1010.034, 38746.16
1011.143, 37222.64
1012.253, 35199.38
1013.362, 33264.65
1014.471, 31268.01
1015.580, 28868.97
1016.689, 26856.50
1017.797, 24609.15
1018.906, 22440.02
1020.014, 20698.98
1021.122, 18772.68
1022.230, 17379.01
1023.338, 16064.02
1024.446, 14938.32
1025.554, 14029.83
1026.661, 12987.54
1027.768, 12442.58
1028.875, 11800.33
1029.983, 11360.70
1031.089, 10869.94
1032.196, 10355.46
1033.303, 9919.357
1034.409, 9497.986
1035.515, 9258.752
1036.622, 8756.434
1037.728, 8502.388
1038.833, 8192.444
1039.939, 8163.586
1041.045, 7789.089
1042.150, 7575.820
1043.255, 7392.229
1044.360, 7103.244
1045.465, 6827.605
1046.570, 6566.077
1047.675, 6238.112
1048.779, 6044.619
1049.884, 5792.231
1050.988, 5547.463
1052.092, 5420.945
1053.196, 5140.789
1054.300, 4835.156
1055.404, 4727.227
1056.507, 4531.492
1057.610, 4366.879
1058.714, 4179.754
1059.817, 4063.804
1060.920, 4001.270
1062.022, 3939.471
1063.125, 3623.953
1064.228, 3444.686
1065.330, 3445.967
1066.432, 3225.579
1067.534, 3165.583
1068.636, 3142.617
1069.738, 3020.020
1070.840, 2997.629
1071.941, 3032.389
1073.042, 2927.596
1074.144, 2892.701
1075.245, 2764.267
1076.346, 2756.805
1077.446, 2686.940
1078.547, 2690.121
1079.647, 2534.402
1080.748, 2509.183
1081.848, 2462.310
1082.948, 2482.039
1084.048, 2442.101
1085.148, 2396.767
1086.247, 2413.115
1087.347, 2336.832
1088.446, 2323.560
1089.545, 2435.883
1090.644, 2272.117
1091.743, 2296.359
1092.842, 2295.746
1093.940, 2203.009
1095.039, 2231.792
1096.137, 2133.562
1097.235, 2057.473
1098.333, 2103.257
1099.431, 2080.803
1100.529, 2114.510
1101.627, 2200.215
1102.724, 2170.145
1103.822, 2027.416
1104.919, 1934.884
1106.016, 1954.118
1107.113, 1992.303
1108.209, 1976.417
1109.306, 1982.843
1110.402, 1886.950
1111.499, 1922.108
1112.595, 1946.785
1113.691, 1838.709
1114.787, 1994.024
1115.883, 1995.545
1116.978, 1923.697
1118.074, 1942.978
1119.169, 1986.732
1120.264, 1897.691
1121.359, 1891.570
1122.454, 1795.476
1123.549, 1747.941
1124.644, 1651.134
1125.738, 1465.834
1126.832, 1290.385
1127.927, 1215.771
1129.021, 989.7119
1130.115, 928.6885
1131.208, 750.4932
1132.302, 687.9932
1133.396, 526.6357
1134.489, 458.9785
1135.582, 293.1914
1136.675, 352.3242
1137.768, 343.3916
1138.861, 266.4160
1139.954, 35.39453
1141.046, 18.67480
1142.138, 7.510742
1143.231, 91.18652
1144.323, 10.40039
1145.415, 20.54688
1146.507, 64.30371
1147.598, 102.6318
1148.690, 209.1543
1149.781, 239.7695
1150.872, 172.1865
1151.964, 262.9453
1153.054, 138.0713
1154.145, 276.8184
1155.236, 413.2666
1156.327, 246.3506
1157.417, 270.9062
1158.507, 345.4805
1159.597, 219.5918
1160.687, 203.9883
1161.777, 208.5967
1162.867, 267.5752
1163.956, 200.7891
1165.046, 218.2080
1166.135, 293.8457
1167.224, 250.7480
1168.313, 166.8950
1169.402, 128.2471
1170.491, 105.4224
1171.580, 71.11377
1172.668, 130.4077
1173.756, 69.50537
1174.845, 182.7778
1175.933, 244.2915
1177.020, 110.9878
1178.108, 223.9873
1179.196, 192.2598
1180.283, 170.7935
1181.371, 173.5796
1182.458, 154.7236
1183.545, 89.92188
1184.632, 107.4409
1185.719, 96.19434
1186.805, 2.820313
1187.892, 88.34912
1188.978, 121.7529
1190.065, 118.4126
1191.151, 39.33008
1192.237, 2.659668
1193.323, 100.3794
1194.408, 58.88525
1195.494, 75.21338
1196.579, 75.36768
1197.664, 120.3438
1198.750, 156.1572
1199.835, 101.8174
1200.919, 25.30176
1202.004, 160.5742
1203.089, 104.6860
1204.173, 26.61572
1205.258, 205.3252
1206.342, 238.8794
1207.426, 224.2842
1208.510, 166.5337
1209.594, 236.6089
1210.677, 138.5283
1211.761, 260.2598
1212.844, 339.8350
1213.927, 330.2676
1215.010, 364.2319
1216.093, 245.6978
1217.176, 322.6748
1218.259, 312.4990
1219.341, 284.1670
1220.424, 376.6714
1221.506, 385.0269
1222.588, 463.2339
1223.670, 411.2988
1224.752, 433.2163
1225.834, 455.9868
1226.915, 453.6118
1227.997, 472.0903
1229.078, 505.4287
1230.159, 495.6265
1231.240, 504.6802
1232.321, 492.5874
1233.402, 573.3467
1234.483, 557.9624
1235.563, 600.4336
1236.644, 620.7622
1237.724, 645.9478
1238.804, 640.9912
1239.884, 605.9512
1240.964, 656.6465
1242.044, 581.2578
1243.123, 481.7212
1244.203, 636.0244
1245.282, 616.1812
1246.361, 554.1909
1247.440, 657.0459
1248.519, 601.7549
1249.598, 739.3130
1250.676, 760.7031
1251.755, 755.8296
1252.833, 894.1221
1253.911, 689.1055
1254.989, 806.9429
1256.067, 647.6357
1257.145, 669.1772
1258.223, 747.5703
1259.300, 736.8174
1260.378, 775.9160
1261.455, 845.8687
1262.532, 808.6777
1263.609, 876.3413
1264.686, 902.8618
1265.763, 917.2397
1266.840, 928.4751
1267.916, 1211.569
1268.992, 1027.331
1270.069, 1018.352
1271.145, 868.7422
1272.221, 746.2246
1273.296, 795.6099
1274.372, 895.6343
1275.448, 836.7285
1276.523, 934.3760
1277.598, 1012.621
1278.673, 944.9346
1279.749, 854.1890
1280.823, 901.5029
1281.898, 982.1875
1282.973, 815.3677
1284.047, 956.9321
1285.122, 753.3193
1286.196, 810.5728
1287.270, 752.6836
1288.344, 803.5195
1289.418, 815.6704
1290.491, 811.2231
1291.565, 866.9155
1292.638, 875.3418
1293.712, 890.9155
1294.785, 848.8262
1295.858, 914.9585
1296.931, 832.2598
1298.003, 846.3594
1299.076, 832.3013
1300.149, 810.1606
1301.221, 860.6631
1302.293, 793.9385
1303.365, 764.5371
1304.437, 750.5322
1305.509, 678.1792
1306.581, 720.7119
1307.652, 755.6792
1308.724, 706.1724
1309.795, 735.5552
1310.866, 747.3115
1311.937, 708.8096
1313.008, 690.9390
1314.079, 645.5376
1315.150, 686.4155
1316.220, 644.8154
1317.291, 714.6826
1318.361, 581.7104
1319.431, 545.5474
1320.501, 492.9531
1321.571, 501.6040
1322.641, 620.1079
1323.710, 652.2344
1324.780, 584.7456
1325.849, 549.9014
1326.918, 611.6426
1327.987, 698.3320
1329.056, 661.6274
1330.125, 648.6870
1331.194, 642.5718
1332.263, 659.9810
1333.331, 635.0728
