##NAMES=Diopside
##RRUFFID=R050406
##IDEAL CHEMISTRY=CaMgSi_2_O_6_
##LOCALITY=unknown
##OWNER=RRUFF
##SOURCE=University of Arizona Mineral Museum
##DESCRIPTION=Brownish gray massive
##STATUS=The identification of this mineral has been confirmed by X-ray diffraction and chemical analysis
##URL=rruff.info/R050406
##MEASURED CHEMISTRY=(Ca_0.95_Na_0.05_)(Mg_0.75_Fe^2+^_0.18_Fe^3+^_0.05_Al_0.01_Ti_0.01_Mn^2+^_0.01_)(Si_0.98_Al_0.02_)_2_O_6_
##PIN_ID=M00407
##ORIENTATION=Laser parallel to a* (1 0 0). Fiducial mark perpendicular to laser is parallel to b [0 1 0]
116.9030, 0.0000000E+00
118.1340, 127.1587
119.3650, 7.586914
120.5960, 106.1797
121.8270, 222.8481
123.0580, 187.1963
124.2880, 422.0645
125.5190, 521.9180
126.7490, 789.6445
127.9790, 1199.477
129.2090, 1625.802
130.4390, 2289.105
131.6680, 2768.968
132.8980, 3536.045
134.1270, 4662.055
135.3560, 5575.771
136.5850, 6420.141
137.8140, 6521.102
139.0430, 6016.428
140.2710, 4818.944
141.5000, 3802.508
142.7280, 2609.004
143.9560, 1755.337
145.1840, 1397.428
146.4120, 801.2095
147.6390, 534.6211
148.8670, 351.6133
150.0940, 179.1406
151.3210, 104.8506
152.5490, 58.65088
153.7750, 39.63330
155.0020, 78.97754
156.2290, 37.92676
157.4550, 30.13135
158.6810, 176.4370
159.9080, 183.8467
161.1340, 454.3672
162.3590, 618.0122
163.5850, 631.8003
164.8110, 622.7393
166.0360, 440.8281
167.2610, 340.0625
168.4860, 236.4380
169.7110, 296.9526
170.9360, 287.5225
172.1610, 262.3882
173.3850, 461.3022
174.6100, 581.3433
175.8340, 778.5088
177.0580, 716.7954
178.2820, 829.2002
179.5050, 762.7207
180.7290, 699.3530
181.9520, 544.0957
183.1760, 524.1660
184.3990, 431.9014
185.6220, 409.9590
186.8450, 326.1167
188.0670, 337.0908
189.2900, 353.7241
190.5120, 398.4209
191.7340, 453.8296
192.9560, 571.5596
194.1780, 695.2695
195.4000, 580.7520
196.6220, 630.3540
197.8430, 563.6074
199.0640, 590.9307
200.2860, 569.9277
201.5070, 612.8071
202.7270, 540.3970
203.9480, 501.1191
205.1690, 503.0664
206.3890, 446.1885
207.6090, 508.5327
208.8290, 357.1528
210.0490, 515.9917
211.2690, 699.9697
212.4890, 782.0332
213.7080, 745.1572
214.9280, 1030.342
216.1470, 876.5889
217.3660, 981.8975
218.5850, 1190.269
219.8030, 1407.703
221.0220, 1435.202
222.2400, 1462.766
223.4590, 1584.394
224.6770, 1685.085
225.8950, 1722.839
227.1120, 1638.653
228.3300, 1591.526
229.5480, 1622.452
230.7650, 1499.430
231.9820, 1441.459
233.1990, 1195.538
234.4160, 1203.667
235.6330, 962.8433
236.8490, 934.0693
238.0660, 662.3423
239.2820, 780.6631
240.4980, 577.0293
241.7140, 624.4409
242.9300, 631.8979
244.1460, 716.3979
245.3610, 636.9424
246.5770, 584.5283
247.7920, 577.1558
249.0070, 609.8242
250.2220, 705.5327
251.4370, 569.2808
252.6510, 599.0679
253.8660, 494.8926
255.0800, 430.7544
256.2940, 472.6523
257.5080, 724.5854
258.7220, 463.3794
259.9360, 769.5576
261.1490, 144.5942
262.3630, 13.33643
263.5760, 57.73584
264.7890, 62.87402
266.0020, 144.7046
267.2150, 195.9619
268.4270, 230.9082
269.6400, 201.5962
270.8520, 154.0571
272.0640, 94.31006
273.2760, 50.24902
274.4880, 11.13916
275.7000, 22.04346
276.9120, 49.49072
278.1230, 101.2280
279.3340, 115.8101
280.5450, 183.6533
281.7560, 190.6172
282.9670, 190.6890
284.1780, 300.8608
285.3880, 400.1265
286.5980, 491.2236
287.8090, 746.7056
289.0190, 866.6919
290.2290, 1071.272
291.4380, 1286.141
292.6480, 1420.386
293.8570, 1647.875
295.0670, 1871.628
296.2760, 2331.941
297.4850, 2386.909
298.6930, 2670.262
299.9020, 2965.785
301.1110, 3133.982
302.3190, 3473.470
303.5270, 3810.503
304.7350, 4222.127
305.9430, 4745.601
307.1510, 5438.904
308.3580, 6202.249
309.5660, 7125.639
310.7730, 8230.074
311.9800, 9484.551
313.1870, 10954.09
314.3940, 12204.66
315.6010, 13783.29
316.8070, 15413.97
318.0130, 16812.70
319.2200, 17831.51
320.4260, 18252.39
321.6310, 18210.34
322.8370, 17583.33
324.0430, 16486.38
325.2480, 15395.46
326.4540, 14045.58
327.6590, 12564.73
328.8640, 11447.92
330.0680, 10232.13
331.2730, 9043.359
332.4780, 8263.615
333.6820, 7444.894
334.8860, 6996.194
336.0900, 6393.498
337.2940, 5919.773
338.4980, 5676.939
339.7010, 5500.024
340.9050, 5439.100
342.1080, 5396.838
343.3110, 5329.320
344.5140, 5605.467
345.7170, 5826.635
346.9200, 6222.827
348.1220, 6437.040
349.3240, 6707.277
350.5270, 7087.533
351.7290, 7477.809
352.9310, 7549.104
354.1320, 7408.416
355.3340, 7331.744
356.5350, 7122.088
357.7370, 6822.446
358.9380, 6570.820
360.1390, 6540.207
361.3400, 6496.607
362.5400, 6446.023
363.7410, 6381.451
364.9410, 6162.893
366.1410, 6159.345
367.3410, 6143.811
368.5410, 6225.285
369.7410, 6343.774
370.9400, 6489.273
372.1400, 6900.783
373.3390, 7350.303
374.5380, 7895.832
375.7370, 8641.369
376.9360, 9764.917
378.1350, 11296.47
379.3330, 12619.04
380.5310, 14549.61
381.7300, 16723.19
382.9280, 18283.78
384.1260, 20070.38
385.3230, 21268.98
386.5210, 21659.59
387.7180, 21222.21
388.9160, 19808.84
390.1130, 17871.47
391.3100, 15652.10
392.5060, 13369.75
393.7030, 11200.40
394.9000, 9422.048
396.0960, 7749.707
397.2920, 6231.369
398.4880, 4973.036
399.6840, 4142.708
400.8800, 3337.383
402.0750, 2829.062
403.2710, 2313.742
404.4660, 2055.427
405.6610, 1623.113
406.8560, 1515.549
408.0510, 1194.849
409.2450, 1129.002
410.4400, 1040.099
411.6340, 920.9365
412.8280, 736.1426
414.0220, 796.7373
415.2160, 685.4805
416.4100, 533.6230
417.6030, 571.2578
418.7970, 444.8916
419.9900, 437.7588
421.1830, 454.6338
422.3760, 356.5176
423.5690, 191.4102
424.7610, 121.3096
425.9540, 182.2148
427.1460, 113.1250
428.3380, 96.04004
429.5300, 16.04004
430.7220, 26.86621
431.9140, 11.77246
433.1050, 74.32422
434.2970, 41.46387
435.4880, 113.6318
436.6790, 30.86719
437.8700, 49.87402
439.0610, 155.3867
440.2510, 70.26367
441.4420, 186.0869
442.6320, 59.54688
443.8220, 69.04883
445.0120, 88.29395
446.2020, 8.310547
447.3910, 21.02539
448.5810, 27.33594
449.7700, 99.24902
450.9600, 44.67871
452.1490, 72.76855
453.3370, 194.9844
454.5260, 132.3057
455.7150, 212.5947
456.9030, 213.3467
458.0910, 221.0000
459.2800, 197.4062
460.4670, 225.2432
461.6550, 259.5703
462.8430, 331.7539
464.0300, 249.9072
465.2180, 194.2295
466.4050, 274.8418
467.5920, 293.9541
468.7790, 243.9658
469.9650, 140.3828
471.1520, 138.0479
472.3380, 242.2324
473.5250, 137.9551
474.7110, 163.8486
475.8970, 303.7393
477.0820, 230.9092
478.2680, 171.5098
479.4540, 277.6797
480.6390, 215.0371
481.8240, 368.4824
483.0090, 230.8164
484.1940, 190.1377
485.3780, 230.4443
486.5630, 342.7441
487.7470, 260.0566
488.9320, 322.3516
490.1160, 340.6406
491.3000, 384.9121
492.4830, 307.1650
493.6670, 352.4131
494.8500, 393.6426
496.0340, 471.8594
497.2170, 433.0566
498.4000, 439.2354
499.5820, 546.3945
500.7650, 631.5361
501.9480, 677.6562
503.1300, 856.7578
504.3120, 959.8389
505.4940, 1098.906
506.6760, 1211.972
507.8580, 1361.016
509.0390, 1390.042
510.2210, 1515.046
511.4020, 1596.027
512.5830, 1653.986
513.7640, 1765.924
514.9450, 1822.855
516.1250, 1777.766
517.3060, 1940.656
518.4860, 1930.524
519.6660, 1953.383
520.8460, 2092.222
522.0260, 2125.053
523.2060, 2375.892
524.3850, 2443.732
525.5650, 2353.562
526.7440, 2415.391
527.9230, 2381.214
529.1020, 2293.013
530.2810, 2148.804
531.4590, 2012.592
532.6380, 1875.355
533.8160, 1889.097
534.9940, 1786.834
536.1720, 1642.543
537.3500, 1604.226
538.5270, 1454.879
539.7050, 1454.507
540.8820, 1440.105
542.0590, 1395.682
543.2360, 1402.228
544.4130, 1364.746
545.5900, 1365.234
546.7660, 1348.715
547.9430, 1279.165
549.1190, 1287.586
550.2950, 1370.984
551.4710, 1363.361
552.6470, 1276.727
553.8220, 1372.091
554.9980, 1298.461
556.1730, 1366.832
557.3480, 1323.194
558.5230, 1263.535
559.6980, 1249.850
560.8730, 1201.142
562.0470, 1137.400
563.2220, 1170.624
564.3960, 1160.815
565.5700, 1145.974
566.7440, 1043.096
567.9170, 1066.450
569.0910, 1025.238
570.2640, 1073.257
571.4380, 994.4971
572.6110, 1032.400
573.7840, 833.8418
574.9570, 809.7295
576.1290, 840.3633
577.3020, 630.6523
578.4740, 632.7266
579.6460, 454.4629
580.8180, 449.8604
581.9900, 507.5254
583.1620, 291.8223
584.3330, 291.9658
585.5040, 184.4443
586.6760, 201.6328
587.8470, 185.4629
589.0180, 61.51172
590.1880, 143.1143
591.3590, 60.07227
592.5290, 40.34668
593.7000, 12.99414
594.8700, 67.16895
596.0400, 36.52930
597.2090, 53.09375
598.3790, 6.198242
599.5490, 53.53027
600.7180, 24.27832
601.8870, 130.9854
603.0560, 76.54980
604.2250, 91.91016
605.3940, 0.9453130
606.5620, 3.119141
607.7300, 24.86230
608.8990, 55.21289
610.0670, 43.51562
611.2350, 125.3818
612.4020, 97.63965
613.5700, 217.1514
614.7370, 195.9219
615.9050, 199.1963
617.0720, 173.8730
618.2390, 265.0430
619.4060, 110.4463
620.5720, 343.6934
621.7390, 298.8516
622.9050, 464.4297
624.0710, 449.3838
625.2370, 417.1309
626.4030, 543.3672
627.5690, 559.5527
628.7340, 563.7129
629.9000, 730.1670
631.0650, 725.3496
632.2300, 876.6074
633.3950, 926.2344
634.5600, 1030.530
635.7240, 1180.382
636.8890, 1235.507
638.0530, 1473.432
639.2170, 1499.454
640.3810, 1668.558
641.5450, 1829.352
642.7080, 2035.376
643.8720, 2189.120
645.0350, 2561.240
646.1980, 2813.906
647.3610, 3214.726
648.5240, 3725.762
649.6870, 4334.248
650.8490, 5144.693
652.0120, 6065.211
653.1740, 7066.738
654.3360, 8567.605
655.4980, 10331.25
656.6600, 12378.23
657.8210, 15014.51
658.9830, 17749.88
660.1440, 20394.63
661.3050, 23519.41
662.4660, 26280.51
663.6270, 27639.90
664.7870, 27744.40
665.9480, 26902.53
667.1080, 24760.16
668.2680, 22117.93
669.4280, 18954.81
670.5880, 15929.76
671.7480, 13559.67
672.9070, 11316.18
674.0670, 9557.778
675.2260, 7982.273
676.3850, 6547.722
677.5440, 5707.123
678.7030, 4909.537
679.8610, 4184.910
681.0200, 3770.284
682.1780, 3405.502
683.3360, 2953.672
684.4940, 2658.796
685.6520, 2474.380
686.8090, 2183.412
687.9670, 2052.398
689.1240, 1674.337
690.2810, 1642.231
691.4380, 1494.079
692.5950, 1394.881
693.7520, 1416.636
694.9080, 1475.346
696.0650, 1395.008
697.2210, 1315.625
698.3770, 1201.195
699.5330, 1154.423
700.6880, 1226.902
701.8440, 1116.336
702.9990, 1250.725
704.1550, 1184.067
705.3100, 1062.365
706.4650, 1038.619
707.6190, 983.8271
708.7740, 1032.990
709.9290, 849.1084
711.0830, 854.1914
712.2370, 804.2305
713.3910, 909.2295
714.5450, 678.2061
715.6980, 662.1553
716.8520, 625.0938
718.0050, 532.0000
719.1580, 432.8662
720.3110, 444.7324
721.4640, 430.5576
722.6170, 356.3916
723.7700, 344.2041
724.9220, 442.6934
726.0740, 255.2578
727.2260, 346.7129
728.3780, 196.4150
729.5300, 164.5176
730.6810, 44.05566
731.8330, 188.8750
732.9840, 310.5215
734.1350, 103.0176
735.2860, 76.49414
736.4370, 96.45605
737.5880, 168.4668
738.7380, 24.67578
739.8880, 88.39453
741.0390, 94.42676
742.1890, 59.80664
743.3380, 95.01855
744.4880, 9.015625
745.6380, 59.66113
746.7870, 125.7568
747.9360, 10.90430
749.0850, 144.4092
750.2340, 92.93164
751.3830, 18.70605
752.5310, 53.11230
753.6800, 15.17676
754.8280, 55.29980
755.9760, 16.22656
757.1240, 9.332031
758.2720, 9.681641
759.4190, 37.85547
760.5670, 18.89355
761.7140, 40.99121
762.8610, 59.05566
764.0080, 8.6914003E-02
765.1550, 78.92969
766.3020, 158.9678
767.4480, 9.164063
768.5950, 140.6553
769.7410, 95.44727
770.8870, 17.78711
772.0330, 58.92773
773.1780, 6.614258
774.3240, 72.26562
775.4690, 165.8896
776.6140, 69.49023
777.7590, 36.06543
778.9040, 101.6133
780.0490, 27.13770
781.1940, 80.63672
782.3380, 13.88770
783.4820, 56.45020
784.6260, 20.92871
785.7700, 0.7177730
786.9140, 99.60938
788.0580, 122.9150
789.2010, 36.20020
790.3450, 20.46582
791.4880, 58.29102
792.6310, 2.099609
793.7730, 12.93359
794.9160, 21.20703
796.0590, 58.67285
797.2010, 13.59961
798.3430, 69.55371
799.4850, 124.5586
800.6270, 115.6523
801.7690, 55.80176
802.9100, 100.0010
804.0520, 94.26270
805.1930, 18.41504
806.3340, 86.92090
807.4750, 106.3096
808.6160, 10.75977
809.7560, 26.22656
810.8970, 110.7158
812.0370, 50.73535
813.1770, 61.17480
814.3170, 113.6006
815.4570, 1.982422
816.5960, 2.580078
817.7360, 43.18750
818.8750, 107.1826
820.0140, 63.54199
821.1530, 68.89355
822.2920, 115.7656
823.4310, 81.52734
824.5690, 43.81055
825.7070, 190.0869
826.8460, 68.35449
827.9840, 80.61621
829.1220, 162.8711
830.2590, 79.12109
831.3970, 45.36328
832.5340, 148.6016
833.6710, 103.8350
834.8080, 50.06348
835.9450, 72.71191
837.0820, 92.49219
838.2190, 89.69238
839.3550, 121.8906
840.4910, 144.0859
841.6270, 320.2793
842.7630, 374.4697
843.8990, 478.6592
845.0350, 500.8486
846.1700, 588.0371
847.3060, 840.2256
848.4410, 1146.413
849.5760, 1338.603
850.7100, 1617.792
851.8450, 1755.982
852.9800, 2034.175
854.1140, 2126.368
855.2480, 2209.564
856.3820, 2226.763
857.5160, 2016.963
858.6500, 1886.166
859.7830, 1712.373
860.9170, 1646.584
862.0500, 1389.799
863.1830, 1405.831
864.3160, 1174.057
865.4480, 1252.885
866.5810, 1156.529
867.7130, 1049.820
868.8460, 1159.698
869.9780, 1127.001
871.1100, 1097.139
872.2410, 1102.896
873.3730, 1046.134
874.5050, 1152.155
875.6360, 1113.577
876.7670, 1151.729
877.8980, 1054.697
879.0290, 1192.092
880.1590, 1243.196
881.2900, 1240.171
882.4200, 1127.051
883.5500, 1308.518
884.6800, 1273.995
885.8100, 1199.870
886.9400, 1244.321
888.0690, 1197.484
889.1990, 1333.361
890.3280, 1293.707
891.4570, 1346.628
892.5860, 1263.027
893.7140, 1291.168
894.8430, 1330.444
895.9710, 1225.796
897.1000, 1150.704
898.2280, 1153.213
899.3560, 1164.908
900.4830, 1170.094
901.6110, 1085.433
902.7380, 1152.575
903.8660, 1051.523
904.9930, 984.7373
906.1200, 1082.865
907.2460, 1121.610
908.3730, 1087.687
909.5000, 1053.188
910.6260, 1001.425
911.7520, 1058.887
912.8780, 943.2324
914.0040, 972.4766
915.1290, 959.0176
916.2550, 901.3115
917.3800, 1036.877
918.5050, 1110.056
919.6300, 1152.689
920.7550, 1044.189
921.8800, 1067.508
923.0040, 850.3623
924.1290, 861.2578
925.2530, 857.0664
926.3770, 851.8555
927.5010, 792.2822
928.6250, 676.9150
929.7480, 691.2432
930.8720, 640.1758
931.9950, 654.0537
933.1180, 597.5322
934.2410, 564.0127
935.3640, 633.1865
936.4860, 570.0615
937.6090, 500.8193
938.7310, 542.9336
939.8530, 488.5371
940.9750, 383.9980
942.0970, 402.3447
943.2180, 395.6172
944.3400, 481.9209
945.4610, 494.7891
946.5820, 370.2129
947.7030, 625.9053
948.8240, 709.6318
949.9450, 690.3936
951.0650, 608.1279
952.1860, 869.8975
953.3060, 848.6543
954.4260, 1010.557
955.5460, 1046.523
956.6650, 901.5264
957.7850, 1051.060
958.9040, 1106.134
960.0230, 1082.242
961.1420, 1333.388
962.2610, 1080.574
963.3800, 1321.800
964.4990, 1256.065
965.6170, 1473.367
966.7350, 1492.710
967.8530, 1480.088
968.9710, 1758.502
970.0890, 1636.953
971.2070, 1689.737
972.3240, 1890.271
973.4410, 1881.840
974.5580, 1878.447
975.6750, 1973.089
976.7920, 2144.768
977.9090, 2031.482
979.0250, 2300.233
980.1410, 2451.023
981.2580, 2437.258
982.3740, 2631.710
983.4890, 2637.607
984.6050, 2649.549
985.7200, 3030.529
986.8360, 3088.546
987.9510, 3314.600
989.0660, 3533.690
990.1810, 3869.618
991.2950, 4321.982
992.4100, 4806.184
993.5240, 5382.422
994.6390, 6143.698
995.7530, 6798.010
996.8660, 7557.361
997.9800, 8821.748
999.0940, 10155.17
1000.207, 11663.64
1001.320, 13760.14
1002.433, 16303.69
1003.546, 19404.25
1004.659, 22658.91
1005.772, 27152.59
1006.884, 31910.30
1007.996, 37104.06
1009.108, 41971.86
1010.220, 45960.70
1011.332, 47824.59
1012.444, 47498.54
1013.555, 44282.55
1014.666, 39282.60
1015.777, 33755.68
1016.888, 28132.82
1017.999, 22741.98
1019.110, 18219.19
1020.220, 15129.48
1021.331, 12364.83
1022.441, 10213.20
1023.551, 8976.646
1024.661, 7677.766
1025.770, 6748.406
1026.880, 6229.020
1027.989, 5486.116
1029.098, 5208.814
1030.207, 4749.531
1031.316, 4680.297
1032.425, 4409.599
1033.533, 4351.752
1034.642, 4074.222
1035.750, 4060.012
1036.858, 4139.053
1037.966, 4054.230
1039.073, 4040.619
1040.181, 3916.871
1041.288, 3904.184
1042.396, 3904.359
1043.503, 3767.933
1044.610, 3744.355
1045.716, 3705.623
1046.823, 3344.029
1047.929, 3236.524
1049.036, 3101.748
1050.142, 3128.903
1051.248, 2959.382
1052.353, 2876.903
1053.459, 2632.740
1054.564, 2652.062
1055.670, 2505.566
1056.775, 2333.729
1057.880, 2348.055
1058.985, 2109.469
1060.089, 2173.118
1061.194, 2125.830
1062.298, 2018.617
1063.402, 1880.582
1064.506, 1803.405
1065.610, 1630.841
1066.713, 1603.014
1067.817, 1528.486
1068.920, 1554.895
1070.023, 1439.924
1071.126, 1477.823
1072.229, 1453.876
1073.332, 1297.521
1074.435, 1319.636
1075.537, 1324.328
1076.639, 1250.968
1077.741, 1139.215
1078.843, 1354.900
1079.945, 1181.430
1081.046, 1203.854
1082.148, 1208.204
1083.249, 1148.539
1084.350, 1087.872
1085.451, 1045.241
1086.551, 1052.764
1087.652, 1108.804
1088.752, 967.1162
1089.853, 1003.573
1090.953, 794.0488
1092.053, 1067.619
1093.152, 822.2686
1094.252, 905.8887
1095.351, 960.1143
1096.451, 748.7832
1097.550, 833.3877
1098.649, 1007.157
1099.748, 956.7422
1100.846, 878.3633
1101.945, 805.9736
1103.043, 882.5938
1104.141, 953.4971
1105.239, 707.3008
1106.337, 732.9639
1107.434, 832.6377
1108.532, 787.3213
1109.629, 758.0166
1110.726, 801.7207
1111.823, 634.4346
1112.920, 1345.156
1114.017, 1823.889
1115.113, 2628.630
1116.210, 1800.805
1117.306, 1482.938
1118.402, 1312.702
1119.498, 1497.474
1120.593, 1433.332
1121.689, 1541.119
1122.784, 1588.913
1123.879, 1740.713
1124.974, 1686.519
1126.069, 1667.330
1127.164, 1249.190
1128.259, 1293.014
1129.353, 967.8691
1130.447, 919.8633
1131.541, 655.7002
1132.635, 603.5410
1133.729, 555.3857
1134.822, 643.5078
1135.916, 583.4502
1137.009, 463.3047
1138.102, 458.1611
1139.195, 317.0205
1140.288, 422.8809
1141.380, 257.8047
1142.473, 342.6748
1143.565, 218.5410
1144.657, 351.4062
1145.749, 255.2725
1146.841, 300.1396
1147.932, 169.0059
1149.024, 155.8711
1150.115, 102.7363
1151.206, 142.5986
1152.297, 34.71680
1153.388, 93.79688
1154.479, 6.653320
1155.569, 24.49219
1156.659, 3.523438
1157.750, 2.315430
1158.839, 62.65332
1159.929, 52.84766
1161.019, 10.37598
1162.108, 74.92969
1163.198, 16.29785
1164.287, 9.661133
1165.376, 71.91016
1166.465, 74.61035
1167.553, 60.73145
1168.642, 60.82910
1169.730, 46.23340
1170.818, 24.42871
1171.906, 88.88086
1172.994, 108.1748
1174.082, 121.1328
1175.170, 164.7217
1176.257, 15.59180
1177.344, 2.937500
1178.431, 16.77051
1179.518, 10.50000
1180.605, 24.52930
1181.691, 28.02637
1182.778, 58.83398
1183.864, 125.6885
1184.950, 195.5615
1186.036, 5.621094
1187.122, 46.63770
1188.207, 0.2353520
1189.292, 8.8867001E-02
1190.378, 42.91992
1191.463, 28.56055
1192.548, 20.54785
1193.632, 18.66016
1194.717, 28.09766
1195.801, 23.15820
1196.886, 110.4521
1197.970, 77.83105
1199.054, 43.27930
1200.137, 40.22266
1201.221, 9.713867
1202.305, 60.17969
1203.388, 47.36816
1204.471, 113.0293
1205.554, 13.58887
1206.637, 11.24902
1207.719, 62.05859
1208.802, 9.646484
1209.884, 36.61035
1210.966, 45.84766
1212.048, 70.06445
1213.130, 192.2656
1214.212, 20.44824
1215.293, 106.6035
1216.374, 54.74121
1217.456, 70.03711
1218.536, 27.00684
1219.617, 88.02441
1220.698, 109.0254
1221.778, 77.00586
1222.859, 62.97363
1223.939, 26.91797
1225.019, 39.21582
1226.099, 28.31543
1227.178, 94.58691
1228.258, 28.42871
1229.337, 110.2383
1230.417, 105.0303
1231.496, 223.8027
1232.574, 344.5557
1233.653, 10.28809
1234.732, 81.98047
1235.810, 124.6504
1236.888, 167.3008
1237.966, 137.9307
1239.044, 189.2793
1240.122, 158.1279
1241.199, 196.6963
1242.277, 227.2432
1243.354, 136.7695
1244.431, 214.2783
1245.508, 36.76562
1246.585, 76.22852
1247.661, 217.6670
1248.738, 193.1094
1249.814, 121.5049
1250.890, 190.8779
1251.966, 209.2314
1253.042, 181.5625
1254.117, 167.8721
1255.193, 180.8789
1256.268, 138.4248
1257.343, 183.6699
1258.418, 144.8926
1259.493, 114.0918
1260.567, 252.2676
1261.642, 184.4219
1262.716, 182.5537
1263.790, 101.6621
1264.864, 137.3760
1265.938, 214.8066
1267.011, 184.8447
1268.085, 204.8584
1269.158, 186.8516
1270.231, 150.9336
1271.304, 164.9004
1272.377, 206.8457
1273.450, 171.7676
1274.522, 302.6650
1275.594, 210.5420
1276.666, 302.3955
1277.738, 299.2236
1278.810, 389.0322
1279.882, 202.9170
1280.953, 64.67773
1282.025, 125.4043
1283.096, 184.1113
1284.167, 201.7881
1285.238, 149.8154
1286.308, 238.3623
1287.379, 133.9570
1288.449, 328.0869
1289.519, 103.8457
1290.589, 47.39258
1291.659, 250.8896
1292.729, 2.860352
