##NAMES=Dioptase
##RRUFFID=R050010
##IDEAL CHEMISTRY=Cu^2+^SiO_3_&#183;H_2_O
##LOCALITY=Tsumeb mine, Tsumeb, Otavi District, Oshikoto, Namibia
##OWNER=RRUFF
##SOURCE=Eugene Schlepp
##DESCRIPTION=Bluish green single crystals
##STATUS=The identification of this mineral has been confirmed by X-ray diffraction and chemical analysis
##URL=rruff.info/R050010
##MEASURED CHEMISTRY=Cu_1.00_Si_1.00_O_3_Â·H_2_O ; trace amounts of Mg and Al; OH estimated by difference
##PIN_ID=M00232
##ORIENTATION=Laser parallel to a* (1 0 0). Fiducial mark perpendicular to laser is parallel to c [0 0 1]
88.463, 0.000
89.863, 46.491
91.262, 24.091
92.661, 115.186
94.059, 670.866
95.458, 1555.912
96.856, 2684.717
98.254, 3828.211
99.652, 3377.806
101.049, 2408.879
102.446, 1509.332
103.843, 1171.664
105.240, 1039.760
106.637, 1324.599
108.033, 2439.282
109.429, 4317.193
110.825, 4478.920
112.220, 3874.771
113.616, 3784.178
115.011, 3786.682
116.406, 4012.017
117.800, 3830.614
119.195, 3692.287
120.589, 3766.566
121.983, 4153.080
123.377, 5081.514
124.770, 6591.621
126.163, 8793.190
127.556, 11316.044
128.949, 13590.523
130.342, 14148.681
131.734, 13847.611
133.126, 12037.028
134.518, 10436.886
135.909, 8907.145
137.301, 7137.779
138.692, 5148.773
140.083, 3340.109
141.473, 2012.775
142.864, 1207.961
144.254, 615.167
145.644, 426.598
147.034, 181.081
148.423, 191.030
149.812, 154.500
151.201, 443.537
152.590, 806.188
153.979, 1458.485
155.367, 2079.468
156.755, 2936.164
158.143, 3497.602
159.530, 3758.805
160.918, 3249.792
162.305, 2647.583
163.692, 1889.192
165.078, 1247.635
166.465, 862.925
167.851, 696.074
169.237, 755.460
170.623, 1011.663
172.008, 1560.997
173.393, 2208.880
174.778, 2987.557
176.163, 3575.110
177.548, 3702.590
178.932, 3330.038
180.316, 2842.484
181.700, 2346.953
183.083, 1670.467
184.467, 1264.041
185.850, 901.691
187.233, 644.426
188.616, 601.256
189.998, 602.188
191.380, 718.226
192.762, 1017.374
194.144, 1128.630
195.525, 1083.996
196.907, 859.464
198.288, 816.300
199.669, 836.922
201.049, 854.846
202.429, 935.299
203.810, 1000.957
205.189, 1280.177
206.569, 1358.585
207.949, 1665.175
209.328, 2168.938
210.707, 2783.872
212.085, 3506.968
213.464, 4617.214
214.842, 6071.604
216.220, 7986.129
217.598, 10130.793
218.976, 12105.587
220.353, 14260.509
221.730, 15155.554
223.107, 15500.718
224.483, 14906.000
225.860, 13771.399
227.236, 11966.897
228.612, 10182.475
229.988, 8548.114
231.363, 6873.813
232.738, 5719.573
234.113, 4615.392
235.488, 3941.268
236.863, 3521.202
238.237, 3406.193
239.611, 2986.239
240.985, 2684.342
242.359, 2217.497
243.732, 1349.706
245.105, 882.966
246.478, 282.279
247.851, 19.359
249.223, 229.948
250.595, 253.488
251.967, 343.048
253.339, 111.798
254.711, 159.777
256.082, 822.342
257.453, 1840.282
258.824, 3355.033
260.195, 5108.738
261.565, 6863.246
262.935, 8468.444
264.305, 8854.249
265.675, 8130.583
267.044, 6747.405
268.414, 5114.667
269.783, 3902.347
271.151, 2854.407
272.520, 2187.832
273.888, 1817.584
275.256, 1644.632
276.624, 1644.966
277.992, 1777.574
279.359, 2100.443
280.726, 2374.556
282.093, 2988.899
283.460, 3691.461
284.827, 4747.221
286.193, 5938.168
287.559, 7349.288
288.925, 8590.565
290.290, 9432.005
291.656, 9513.573
293.021, 8575.269
294.386, 7167.086
295.750, 5428.968
297.115, 3876.903
298.479, 2507.887
299.843, 1576.949
301.207, 782.069
302.570, 294.238
303.933, 123.546
305.296, 300.330
306.659, 512.156
308.022, 605.089
309.384, 640.172
310.746, 720.443
312.108, 707.935
313.470, 673.640
314.831, 540.551
316.193, 350.630
317.554, 35.828
318.914, 303.932
320.275, 800.681
321.635, 1375.421
322.995, 1958.151
324.355, 2171.874
325.715, 2020.588
327.074, 1828.297
328.434, 1359.999
329.792, 949.696
331.151, 563.387
332.510, 484.074
333.868, 255.637
335.226, 238.933
336.584, 203.181
337.941, 204.434
339.299, 302.693
340.656, 512.959
342.013, 771.231
343.370, 1253.509
344.726, 1750.794
346.082, 2682.085
347.438, 4023.381
348.794, 6298.683
350.150, 9798.991
351.505, 14579.299
352.860, 20109.615
354.215, 25659.928
355.570, 28220.250
356.924, 26960.572
358.278, 22340.893
359.632, 17031.211
360.986, 12441.467
362.339, 8691.377
363.693, 6280.777
365.046, 4609.606
366.399, 3447.953
367.751, 2777.127
369.104, 2272.323
370.456, 1981.539
371.808, 1598.776
373.159, 1530.031
374.511, 1510.305
375.862, 1501.595
377.213, 1438.902
378.564, 1692.225
379.914, 1771.562
381.265, 1903.914
382.615, 2318.279
383.965, 2603.657
385.315, 3214.050
386.664, 3919.455
388.013, 5090.873
389.362, 6319.300
390.711, 8127.738
392.060, 10396.188
393.408, 13284.645
394.756, 15983.112
396.104, 18391.586
397.451, 19320.066
398.799, 19208.557
400.146, 16917.057
401.493, 14235.558
402.840, 11714.067
404.186, 9312.582
405.533, 7521.104
406.879, 6239.629
408.225, 5558.160
409.570, 5126.696
410.916, 5134.038
412.261, 5331.853
413.606, 5658.463
414.951, 6030.216
416.295, 6273.726
417.639, 6762.321
418.983, 6910.955
420.327, 7159.623
421.671, 7308.313
423.014, 7297.024
424.357, 7475.749
425.700, 7514.598
427.043, 7464.766
428.386, 7606.843
429.728, 7559.689
431.070, 7627.523
432.412, 7605.239
433.753, 7436.543
435.095, 7305.792
436.436, 7193.425
437.777, 6784.282
439.118, 6457.294
440.458, 6230.903
441.798, 5753.792
443.138, 5507.228
444.478, 5261.203
445.818, 4892.720
447.157, 4876.416
448.496, 4815.729
449.835, 4697.411
451.174, 4835.417
452.513, 4627.784
453.851, 4496.048
455.189, 4114.263
456.527, 3702.482
457.864, 3345.835
459.202, 2808.155
460.539, 2366.823
461.876, 2005.483
463.212, 1783.044
464.549, 1658.055
465.885, 1381.356
467.221, 1250.253
468.557, 1136.198
469.893, 1060.004
471.228, 937.361
472.563, 908.441
473.898, 813.076
475.233, 727.644
476.567, 719.352
477.902, 815.573
479.236, 820.595
480.570, 911.395
481.903, 1119.168
483.237, 1220.916
484.570, 1347.638
485.903, 1738.333
487.235, 1769.002
488.568, 1647.646
489.900, 1693.263
491.232, 1463.854
492.564, 1364.417
493.896, 1295.955
495.227, 1088.465
496.558, 1116.951
497.889, 1199.412
499.220, 1173.847
500.551, 1261.257
501.881, 1370.641
503.211, 1658.000
504.541, 1787.333
505.870, 1976.640
507.200, 2223.919
508.529, 2410.173
509.858, 2798.401
511.187, 2899.601
512.515, 3217.774
513.844, 3410.921
515.172, 3672.040
516.500, 3882.133
517.827, 3951.197
519.155, 4170.233
520.482, 4103.243
521.809, 4334.224
523.136, 4193.179
524.462, 4192.111
525.789, 4306.020
527.115, 4051.911
528.441, 3976.791
529.766, 3841.665
531.092, 3775.517
532.417, 3506.354
533.742, 3356.178
535.067, 3041.979
536.391, 2958.770
537.716, 2602.541
539.040, 2433.303
540.364, 2215.057
541.688, 1987.801
543.011, 1787.539
544.334, 1643.407
545.657, 1529.476
546.980, 1428.436
548.303, 1379.131
549.625, 1361.853
550.947, 1371.593
552.269, 1397.222
553.591, 1458.839
554.913, 1589.443
556.234, 1735.024
557.555, 1848.595
558.876, 2152.146
560.197, 2222.674
561.517, 2277.186
562.837, 2302.673
564.157, 2183.145
565.477, 2095.593
566.797, 1865.017
568.116, 1810.416
569.435, 1777.789
570.754, 1495.147
572.073, 1446.529
573.391, 1293.942
574.709, 1169.405
576.027, 973.869
577.345, 764.306
578.663, 673.717
579.980, 520.739
581.297, 379.459
582.614, 312.791
583.931, 213.094
585.248, 120.368
586.564, 46.601
587.880, 26.772
589.196, 55.125
590.511, 53.133
591.827, 110.253
593.142, 77.514
594.457, 51.899
595.772, 103.395
597.086, 138.028
598.401, 147.816
599.715, 136.766
601.029, 145.984
602.343, 155.136
603.656, 132.565
604.969, 136.146
606.282, 130.882
607.595, 105.768
608.908, 143.792
610.220, 54.972
611.532, 86.262
612.844, 70.678
614.156, 98.788
615.468, 257.209
616.779, 254.602
618.090, 19.033
619.401, 69.244
620.712, 118.471
622.022, 149.657
623.332, 115.807
624.642, 127.960
625.952, 221.164
627.262, 271.480
628.571, 361.938
629.880, 398.545
631.189, 456.326
632.498, 524.277
633.807, 608.933
635.115, 737.632
636.423, 826.953
637.731, 948.278
639.039, 1102.576
640.346, 1297.849
641.653, 1438.096
642.960, 1808.316
644.267, 2042.512
645.574, 2460.682
646.880, 3064.826
648.186, 3694.944
649.492, 4579.038
650.798, 5859.105
652.103, 7533.148
653.409, 9537.167
654.714, 12131.159
656.019, 14465.127
657.323, 16319.070
658.628, 16972.988
659.932, 16206.882
661.236, 14310.750
662.540, 12464.594
663.843, 10128.415
665.147, 8152.209
666.450, 6625.980
667.753, 5284.729
669.056, 4377.452
670.358, 3568.152
671.660, 2944.827
672.963, 2333.480
674.264, 2119.108
675.566, 1731.712
676.868, 1517.294
678.169, 1299.852
679.470, 1122.387
680.771, 982.899
682.071, 937.387
683.372, 710.018
684.672, 610.034
685.972, 601.905
687.271, 465.302
688.571, 459.491
689.870, 466.740
691.169, 328.068
692.468, 340.749
693.767, 277.659
695.065, 256.962
696.364, 253.079
697.662, 264.797
698.960, 272.150
700.257, 178.853
701.555, 242.451
702.852, 208.337
704.149, 253.932
705.446, 236.191
706.742, 227.230
708.038, 255.244
709.335, 316.764
710.631, 307.763
711.926, 343.707
713.222, 319.407
714.517, 375.030
715.812, 395.042
717.107, 416.013
718.402, 524.092
719.696, 493.901
720.990, 554.682
722.284, 631.440
723.578, 728.175
724.872, 851.887
726.165, 965.576
727.458, 1198.243
728.751, 1377.887
730.044, 1616.508
731.336, 1972.106
732.629, 2271.682
733.921, 2779.234
735.213, 3201.763
736.504, 3614.270
737.796, 4126.755
739.087, 4419.216
740.378, 4545.542
741.669, 4609.540
742.960, 4483.611
744.250, 4172.891
745.540, 3825.167
746.830, 3340.537
748.120, 2954.296
749.410, 2512.086
750.699, 2172.464
751.988, 1909.592
753.277, 1588.533
754.566, 1418.850
755.854, 1186.856
757.143, 1090.284
758.431, 949.140
759.719, 866.421
761.006, 722.491
762.294, 648.908
763.581, 558.923
764.868, 473.576
766.155, 484.833
767.442, 467.158
768.728, 397.496
770.014, 427.793
771.300, 376.917
772.586, 361.038
773.872, 360.774
775.157, 369.480
776.442, 403.247
777.727, 343.527
779.012, 344.284
780.297, 385.262
781.581, 305.318
782.865, 423.423
784.149, 381.526
785.433, 396.625
786.716, 445.720
787.999, 377.811
789.282, 426.896
790.565, 472.976
791.848, 431.049
793.130, 480.116
794.413, 428.178
795.695, 434.234
796.977, 465.285
798.258, 447.330
799.540, 363.370
800.821, 459.405
802.102, 376.438
803.382, 445.472
804.663, 375.511
805.943, 342.545
807.224, 354.579
808.504, 307.617
809.783, 313.652
811.063, 255.688
812.342, 270.722
813.621, 238.755
814.900, 189.786
816.179, 263.818
817.457, 259.848
818.736, 243.875
820.014, 164.900
821.292, 178.923
822.569, 142.945
823.847, 96.964
825.124, 109.981
826.401, 101.997
827.678, 63.012
828.954, 7.026
830.231, 21.038
831.507, 20.049
832.783, 52.060
834.059, 10.070
835.334, 14.081
836.610, 3.910
837.885, 39.902
839.160, 56.911
840.435, 23.057
841.709, 22.974
842.983, 25.013
844.258, 7.939
845.532, 36.108
846.805, 18.168
848.079, 50.233
849.352, 66.317
850.625, 59.646
851.898, 71.974
853.171, 60.714
854.443, 59.371
855.715, 65.582
856.988, 40.056
858.259, 5.291
859.531, 25.426
860.803, 8.105
862.074, 62.122
863.345, 52.369
864.616, 12.368
865.886, 67.890
867.157, 22.169
868.427, 3.452
869.697, 38.732
870.967, 78.979
872.236, 53.303
873.506, 45.400
874.775, 48.109
876.044, 41.824
877.313, 28.545
878.581, 47.273
879.849, 46.740
881.118, 65.458
882.386, 83.495
883.653, 118.249
884.921, 143.939
886.188, 171.011
887.455, 213.556
888.722, 241.340
889.989, 285.133
891.255, 350.933
892.522, 382.741
893.788, 428.559
895.054, 474.393
896.319, 507.252
897.585, 602.141
898.850, 725.080
900.115, 858.070
901.380, 952.125
902.645, 1074.239
903.909, 1370.403
905.174, 1505.632
906.438, 1864.934
907.701, 2108.312
908.965, 2514.764
910.229, 2832.292
911.492, 2961.899
912.755, 3067.577
914.018, 3127.330
915.280, 2904.154
916.543, 2569.044
917.805, 2195.009
919.067, 1984.026
920.329, 1691.102
921.590, 1452.235
922.852, 1353.387
924.113, 1206.551
925.374, 1058.727
926.635, 1094.943
927.895, 984.184
929.156, 1006.441
930.416, 950.716
931.676, 959.008
932.936, 990.318
934.195, 921.641
935.454, 973.976
936.714, 1028.323
937.973, 1040.682
939.231, 1083.055
940.490, 1189.444
941.748, 1272.844
943.006, 1360.614
944.264, 1374.682
945.522, 1571.119
946.780, 1754.640
948.037, 1897.105
949.294, 2276.584
950.551, 2476.082
951.808, 2884.600
953.064, 3221.611
954.320, 3616.754
955.577, 4041.023
956.832, 4097.606
958.088, 3986.098
959.344, 3796.520
960.599, 3313.149
961.854, 2941.085
963.109, 2377.742
964.364, 2097.841
965.618, 1827.920
966.872, 1564.296
968.127, 1538.209
969.380, 1354.946
970.634, 1294.697
971.888, 1153.460
973.141, 1171.238
974.394, 1163.030
975.647, 1175.841
976.900, 1166.667
978.152, 1196.509
979.404, 1219.368
980.656, 1241.242
981.908, 1422.133
983.160, 1387.044
984.411, 1570.972
985.663, 1616.919
986.914, 1791.882
988.165, 1996.695
989.415, 2142.114
990.666, 2460.671
991.916, 2768.696
993.166, 3209.927
994.416, 3730.090
995.665, 4463.168
996.915, 5455.891
998.164, 6629.385
999.413, 8231.478
1000.662, 10362.752
1001.911, 12174.427
1003.159, 13395.461
1004.407, 13617.137
1005.655, 12678.916
1006.903, 11320.403
1008.151, 10163.177
1009.398, 8877.275
1010.646, 8261.597
1011.893, 7615.939
1013.139, 7417.776
1014.386, 7170.126
1015.633, 6774.531
1016.879, 6596.179
1018.125, 6374.897
1019.371, 6082.223
1020.616, 5805.895
1021.862, 5399.828
1023.107, 5163.340
1024.352, 4793.873
1025.597, 4483.423
1026.842, 4115.990
1028.086, 3769.573
1029.330, 3401.172
1030.574, 3012.788
1031.818, 2649.420
1033.062, 2439.067
1034.305, 2103.730
1035.548, 1913.409
1036.791, 1712.103
1038.034, 1516.812
1039.277, 1412.537
1040.519, 1304.277
1041.762, 1148.032
1043.004, 1141.802
1044.246, 1015.588
1045.487, 925.389
1046.729, 899.204
1047.970, 821.035
1049.211, 753.880
1050.452, 791.740
1051.692, 731.614
1052.933, 666.502
1054.173, 628.403
1055.413, 624.317
1056.653, 569.244
1057.893, 556.183
1059.132, 557.135
1060.371, 487.097
1061.610, 498.071
1062.849, 460.056
1064.088, 417.051
1065.326, 422.057
1066.565, 371.073
1067.803, 355.098
1069.041, 350.132
1070.278, 300.175
1071.516, 207.227
1072.753, 245.289
1073.990, 190.361
1075.227, 207.443
1076.464, 210.533
1077.700, 211.633
1078.936, 213.510
1080.173, 105.868
1081.408, 188.000
1082.644, 146.142
1083.880, 91.447
1085.115, 153.635
1086.350, 109.804
1087.585, 89.445
1088.820, 31.121
1090.054, 35.320
1091.288, 85.568
1092.522, 101.789
1093.756, 35.018
1094.990, 4.353
1096.224, 57.909
1097.457, 56.512
1098.690, 50.218
1099.923, 46.933
1101.156, 20.687
1102.388, 50.534
1103.621, 53.142
1104.853, 14.970
1106.085, 31.957
1107.316, 54.651
1108.548, 3.554
1109.779, 41.937
1111.010, 46.518
1112.241, 17.488
1113.472, 15.980
1114.703, 24.571
1115.933, 9.015
1117.163, 19.372
1118.393, 37.833
1119.623, 59.231
1120.853, 169.704
1122.082, 204.228
1123.311, 141.780
1124.540, 178.912
1125.769, 71.485
1126.997, 115.364
1128.226, 83.274
1129.454, 18.585
1130.682, 31.073
1131.910, 51.361
1133.138, 63.953
1134.365, 65.753
1135.592, 73.711
1136.819, 119.197
1138.046, 91.116
1139.273, 95.854
1140.499, 177.037
1141.725, 125.984
1142.951, 161.542
1144.177, 96.176
1145.403, 164.068
1146.628, 172.060
1147.854, 135.938
1149.079, 176.007
1150.304, 213.872
1151.528, 151.452
1152.753, 174.965
1153.977, 244.625
1155.201, 219.949
1156.425, 206.632
1157.649, 214.603
1158.872, 204.710
1160.096, 250.837
1161.319, 234.816
1162.542, 275.632
1163.764, 255.784
1164.987, 255.441
1166.209, 251.733
1167.431, 293.680
1168.653, 262.436
1169.875, 270.352
1171.097, 220.099
1172.318, 218.722
1173.539, 215.120
1174.760, 214.007
1175.981, 218.634
1177.202, 206.667
1178.422, 196.974
1179.642, 191.210
1180.862, 168.633
1182.082, 171.049
1183.302, 165.459
1184.521, 152.798
1185.740, 181.290
1186.959, 137.721
1188.178, 161.103
1189.397, 163.478
1190.615, 85.865
1191.834, 153.343
1193.052, 155.694
1194.269, 152.113
1195.487, 99.448
1196.705, 128.974
1197.922, 117.293
1199.139, 165.638
1200.356, 132.980
1201.573, 114.365
1202.789, 128.709
1204.006, 121.415
1205.222, 166.326
1206.438, 149.579
1207.653, 160.823
1208.869, 188.056
1210.084, 126.480
1211.299, 168.746
1212.514, 177.948
1213.729, 196.214
1214.944, 183.395
1216.158, 147.640
1217.372, 122.957
1218.586, 146.501
1219.800, 144.067
1221.014, 142.543
1222.227, 91.867
1223.440, 113.495
1224.654, 90.629
1225.866, 88.384
1227.079, 89.035
1228.292, 45.547
1229.504, 5.271
1230.716, 13.663
1231.928, 119.352
1233.139, 0.297
1234.351, 0.359
1235.562, 83.440
1236.773, 21.247
1237.984, 45.507
1239.195, 33.065
1240.406, 3.890
1241.616, 32.129
1242.826, 5.542
1244.036, 12.087
1245.246, 11.767
1246.456, 17.901
1247.665, 2.213
1248.874, 14.177
1250.083, 19.384
1251.292, 2.423
1252.501, 34.860
1253.709, 5.948
1254.917, 6.973
1256.125, 7.626
1257.333, 18.406
1258.541, 10.622
1259.748, 13.058
1260.956, 5.703
1262.163, 20.678
1263.370, 10.666
1264.576, 23.366
1265.783, 12.071
1266.989, 10.205
1268.195, 9.400
1269.401, 2.489
1270.607, 2.379
1271.813, 2.502
1273.018, 2.267
1274.223, 3.978
1275.428, 6.502
1276.633, 3.037
1277.838, 7.625
1279.042, 6.947
1280.246, 3.422
1281.450, 26.834
1282.654, 5.297
1283.858, 11.575
1285.061, 15.150
1286.265, 6.138
1287.468, 26.359
1288.671, 21.520
1289.873, 9.365
1291.076, 6.763
1292.278, 10.820
1293.480, 27.080
1294.682, 12.932
1295.884, 36.926
1297.086, 17.094
1298.287, 3.142
1299.488, 2.838
1300.689, 30.813
1301.890, 7.277
1303.091, 9.308
1304.291, 9.490
1305.491, 14.295
1306.691, 3.947
1307.891, 9.221
1309.091, 40.466
1310.290, 6.184
1311.490, 17.798
1312.689, 30.383
1313.888, 19.939
1315.086, 32.462
1316.285, 50.959
1317.483, 55.429
1318.681, 39.874
1319.879, 48.066
1321.077, 73.679
1322.275, 54.037
1323.472, 84.362
1324.669, 117.661
1325.866, 139.932
1327.063, 136.175
1328.260, 87.392
1329.456, 119.585
1330.653, 85.751
1331.849, 115.890
1333.045, 125.002
1334.240, 92.089
1335.436, 69.151
1336.631, 112.187
1337.826, 80.199
1339.021, 118.186
1340.216, 51.146
1341.411, 121.080
1342.605, 91.032
1343.799, 89.871
1344.993, 77.717
1346.187, 85.542
1347.381, 93.342
1348.574, 89.117
1349.767, 116.867
1350.961, 126.592
1352.153, 103.292
1353.346, 53.968
1354.539, 89.619
1355.731, 113.246
1356.923, 84.849
1358.115, 132.429
1359.307, 84.985
1360.498, 65.518
1361.690, 34.026
1362.881, 31.511
1364.072, 37.972
1365.263, 54.993
1366.453, 26.503
1367.644, 6.896
1368.834, 19.263
1370.024, 23.659
1371.214, 30.982
1372.404, 19.285
1373.593, 38.368
1374.783, 19.542
1375.972, 39.707
1377.161, 9.371
1378.349, 12.974
1379.538, 7.870
1380.726, 42.027
1381.915, 21.855
1383.103, 11.235
1384.290, 35.156
1385.478, 26.265
1386.665, 27.906
1387.853, 27.777
1389.040, 10.356
1390.227, 23.482
1391.413, 56.841
1392.600, 34.892
1393.786, 57.050
1394.972, 31.167
1396.158, 46.914
1397.344, 55.038
1398.530, 49.029
1399.715, 42.812
1400.900, 19.436
1402.085, 27.311
1403.270, 12.572
1404.455, 66.011
1405.639, 6.107
1406.824, 59.468
1408.008, 54.024
1409.192, 35.001
1410.375, 34.992
1411.559, 17.090
1412.742, 14.556
1413.925, 45.871
1415.108, 26.992
1416.291, 58.023
1417.474, 42.748
1418.656, 40.178
1419.839, 47.973
1421.021, 19.818
1422.202, 29.345
1423.384, 34.817
1424.566, 27.092
1425.747, 59.295
1426.928, 56.454
1428.109, 47.648
1429.290, 59.605
1430.470, 102.630
1431.651, 65.431
1432.831, 66.459
1434.011, 88.301
1435.191, 64.182
1436.370, 79.105
1437.550, 79.086
1438.729, 77.615
1439.908, 78.417
1441.087, 66.191
1442.266, 61.091
1443.444, 70.533
1444.623, 48.990
1445.801, 89.560
1446.979, 81.281
1448.157, 97.910
1449.334, 84.495
1450.512, 83.497
1451.689, 48.580
1452.866, 64.773
1454.043, 63.079
1455.220, 68.209
1456.396, 98.326
1457.573, 73.126
1458.749, 65.657
1459.925, 91.430
1461.100, 112.979
1462.276, 82.405
1463.451, 79.066
1464.627, 65.246
1465.802, 93.703
1466.977, 87.502
1468.151, 117.463
1469.326, 90.067
1470.500, 97.748
1471.674, 103.977
1472.848, 65.141
1474.022, 122.401
1475.195, 103.836
1476.369, 99.594
1477.542, 76.141
1478.715, 75.722
1479.888, 120.378
1481.061, 97.898
1482.233, 85.883
1483.405, 62.687
1484.577, 105.993
1485.749, 95.277
1486.921, 67.359
1488.093, 126.791
1489.264, 70.261
1490.435, 81.741
1491.606, 77.206
1492.777, 108.726
1493.948, 63.321
1495.118, 76.966
1496.288, 44.624
1497.459, 75.310
1498.628, 28.032
1499.798, 63.761
1500.968, 59.500
1502.137, 54.272
1503.306, 32.141
1504.475, 62.090
1505.644, 7.881
