##NAMES=Dioptase
##RRUFFID=R040028
##IDEAL CHEMISTRY=Cu^2+^SiO_3_&#183;H_2_O
##LOCALITY=Tantara mine, Democratic Republic of the Congo
##OWNER=RRUFF
##SOURCE=University of Arizona Mineral Museum
##DESCRIPTION=Bluish green coarsely crystallized fragment
##STATUS=The identification of this mineral has been confirmed by X-ray diffraction and chemical analysis
##URL=rruff.info/R040028
##MEASURED CHEMISTRY=Cu_1.00_Si_1.00_O_3_Â·H_2_O; H_2_O estimated by difference
##PIN_ID=M00307
##ORIENTATION=Laser parallel to a* (1 0 0). Fiducial mark perpendicular to laser is parallel to b [0 1 0]
108.5920, 0.0000000E+00
109.9870, 165.5020
111.3820, 255.4736
112.7770, 522.8467
114.1710, 1246.104
115.5650, 1858.040
116.9590, 2147.599
118.3530, 2439.725
119.7470, 2343.633
121.1400, 2102.588
122.5330, 1961.153
123.9260, 2045.924
125.3180, 2205.734
126.7110, 2854.699
128.1030, 3632.842
129.4950, 5628.151
130.8860, 9030.521
132.2780, 11949.98
133.6690, 12656.62
135.0600, 10519.31
136.4510, 8270.979
137.8410, 7171.616
139.2310, 6058.666
140.6210, 4495.969
142.0110, 2869.617
143.4010, 1551.799
144.7900, 775.8330
146.1790, 305.9971
147.5680, 86.16895
148.9570, 111.2051
150.3450, 155.3154
151.7330, 297.0527
153.1210, 200.5947
154.5090, 33.49805
155.8960, 123.9229
157.2840, 581.5186
158.6710, 1092.051
160.0580, 1917.994
161.4440, 2281.206
162.8300, 2514.191
164.2170, 2056.206
165.6020, 1447.266
166.9880, 787.6787
168.3740, 377.4434
169.7590, 16.39355
171.1440, 14.56055
172.5280, 1.989258
173.9130, 218.7207
175.2970, 484.7920
176.6810, 1230.237
178.0650, 1925.211
179.4490, 2401.613
180.8320, 2748.572
182.2150, 2511.721
183.5980, 1862.330
184.9810, 1319.334
186.3630, 1026.123
187.7450, 602.6465
189.1270, 548.9023
190.5090, 384.9014
191.8910, 250.7822
193.2720, 396.9570
194.6530, 343.4355
196.0340, 790.1973
197.4140, 897.2070
198.7950, 904.4258
200.1750, 651.8154
201.5550, 349.3467
202.9350, 226.9609
204.3140, 158.2803
205.6930, 372.2549
207.0720, 231.8604
208.4510, 431.7285
209.8300, 624.7803
211.2080, 842.4600
212.5860, 1006.987
213.9640, 1509.935
215.3420, 1963.739
216.7190, 2642.973
218.0960, 3325.229
219.4730, 4607.524
220.8500, 5979.852
222.2260, 7784.311
223.6030, 9102.239
224.9790, 10152.89
226.3550, 10369.26
227.7300, 10002.79
229.1050, 9174.656
230.4810, 7886.504
231.8560, 6878.304
233.2300, 5590.017
234.6050, 4551.635
235.9790, 3813.207
237.3530, 3094.748
238.7270, 2676.204
240.1000, 2337.541
241.4740, 2258.782
242.8470, 2229.967
244.2200, 2011.105
245.5920, 1652.197
246.9650, 1053.241
248.3370, 544.2393
249.7090, 158.1895
251.0800, 20.90820
252.4520, 170.0557
253.8230, 218.2471
255.1940, 190.4873
256.5650, 199.7715
257.9360, 97.89746
259.3060, 330.5225
260.6760, 921.1025
262.0460, 1801.583
263.4160, 2971.755
264.7850, 4811.438
266.1550, 6180.729
267.5240, 6809.920
268.8920, 5939.089
270.2610, 4618.239
271.6290, 3277.373
272.9970, 2216.564
274.3650, 1671.131
275.7330, 1206.865
277.1000, 1072.955
278.4680, 1019.091
279.8350, 1025.062
281.2010, 1149.078
282.5680, 1376.115
283.9340, 1661.164
285.3000, 1945.685
286.6660, 2469.656
288.0320, 3223.148
289.3970, 4146.240
290.7620, 5458.936
292.1270, 6581.291
293.4920, 7593.160
294.8570, 7583.817
296.2210, 6862.957
297.5850, 5641.633
298.9490, 4210.201
300.3120, 3038.641
301.6760, 1876.951
303.0390, 1355.171
304.4020, 713.0947
305.7650, 550.6123
307.1270, 247.9258
308.4890, 17.88574
309.8510, 88.13281
311.2130, 138.3721
312.5750, 174.9805
313.9360, 250.0049
315.2970, 267.2324
316.6580, 228.7383
318.0190, 127.4424
319.3790, 104.8779
320.7400, 23.90723
322.1000, 288.0283
323.4600, 792.4531
324.8190, 1246.754
326.1780, 1720.942
327.5380, 1765.020
328.8970, 1768.989
330.2550, 1622.856
331.6140, 1166.623
332.9720, 908.7041
334.3300, 546.8164
335.6880, 524.7207
337.0450, 431.8125
338.4030, 272.2256
339.7600, 474.1797
341.1170, 447.2754
342.4730, 630.2822
343.8300, 623.1123
345.1860, 805.5039
346.5420, 1097.350
347.8980, 1618.833
349.2530, 2170.229
350.6090, 2791.578
351.9640, 4311.254
353.3190, 6390.672
354.6730, 9978.811
356.0280, 14705.59
357.3820, 20043.79
358.7360, 23151.50
360.0900, 21501.78
361.4430, 17082.47
362.7970, 12243.15
364.1500, 8192.731
365.5030, 5920.337
366.8560, 4176.596
368.2080, 3301.855
369.5600, 2559.539
370.9120, 2175.744
372.2640, 1703.766
373.6160, 1502.622
374.9670, 1521.814
376.3180, 1310.982
377.6690, 1340.231
379.0200, 1249.273
380.3700, 1208.267
381.7200, 1467.233
383.0700, 1446.173
384.4200, 1505.088
385.7700, 1793.966
387.1190, 1922.793
388.4680, 2321.559
389.8170, 2680.279
391.1660, 3418.968
392.5140, 4047.631
393.8630, 5176.271
395.2110, 6814.887
396.5580, 8573.478
397.9060, 10882.05
399.2530, 12560.59
400.6000, 14189.11
401.9470, 13647.60
403.2940, 12266.08
404.6410, 10604.53
405.9870, 8142.963
407.3330, 6701.371
408.6790, 5589.758
410.0240, 4518.076
411.3700, 4283.957
412.7150, 4055.213
414.0600, 4149.787
415.4050, 4125.061
416.7490, 4437.371
418.0930, 4921.485
419.4370, 5045.078
420.7810, 5385.178
422.1250, 5419.207
423.4680, 5646.994
424.8110, 5595.147
426.1540, 5673.287
427.4970, 5821.631
428.8400, 5719.744
430.1820, 5907.850
431.5240, 5636.277
432.8660, 5761.617
434.2080, 5771.617
435.5490, 5651.740
436.8900, 5474.623
438.2310, 5547.090
439.5720, 5365.537
440.9130, 5026.033
442.2530, 4711.223
443.5930, 4568.299
444.9330, 4149.611
446.2730, 4065.202
447.6120, 3792.692
448.9510, 3635.642
450.2900, 3534.011
451.6290, 3388.429
452.9680, 3355.346
454.3060, 3378.373
455.6440, 3382.105
456.9820, 3109.506
458.3200, 2871.407
459.6570, 2660.330
460.9950, 2219.875
462.3320, 1969.057
463.6680, 1626.176
465.0050, 1443.448
466.3410, 1398.683
467.6780, 1132.922
469.0140, 1083.890
470.3490, 966.8076
471.6850, 814.4102
473.0200, 819.6396
474.3550, 682.5303
475.6900, 690.9473
477.0250, 688.6162
478.3590, 549.3379
479.6930, 576.8525
481.0270, 545.8730
482.3610, 782.6914
483.6950, 814.7812
485.0280, 910.4277
486.3610, 956.5215
487.6940, 1092.578
489.0270, 1298.602
490.3590, 1464.591
491.6920, 1400.547
493.0240, 1346.469
494.3560, 1112.365
495.6870, 1086.763
497.0190, 870.9961
498.3500, 884.4854
499.6810, 846.2549
501.0120, 920.0850
502.3420, 903.6748
503.6720, 848.4902
505.0020, 1093.261
506.3320, 1068.783
507.6620, 1094.488
508.9920, 1460.170
510.3210, 1525.830
511.6500, 1721.472
512.9790, 1677.099
514.3070, 2072.713
515.6360, 2158.325
516.9640, 2293.936
518.2920, 2589.539
519.6190, 2495.140
520.9470, 2790.725
522.2740, 2746.291
523.6010, 2771.842
524.9280, 2967.381
526.2550, 2822.925
527.5810, 2868.469
528.9070, 2794.029
530.2330, 2769.589
531.5590, 2735.150
532.8850, 2500.721
534.2100, 2516.283
535.5350, 2311.836
536.8600, 2217.382
538.1850, 2022.916
539.5090, 1799.640
540.8340, 1835.160
542.1580, 1400.673
543.4820, 1356.180
544.8050, 1341.679
546.1290, 1067.192
547.4520, 1172.699
548.7750, 938.2012
550.0980, 863.6963
551.4200, 869.1865
552.7420, 744.6719
554.0650, 830.1582
555.3860, 775.6396
556.7080, 761.1172
558.0300, 976.5918
559.3510, 932.0703
560.6720, 1117.546
561.9930, 1133.018
563.3130, 1338.501
564.6340, 1283.982
565.9540, 1269.469
567.2740, 1324.954
568.5940, 1150.438
569.9130, 1025.920
571.2330, 1051.411
572.5520, 866.9336
573.8710, 852.5146
575.1890, 738.1963
576.5080, 853.9883
577.8260, 659.8848
579.1440, 405.8887
580.4620, 621.9287
581.7800, 297.9873
583.0970, 254.0498
584.4140, 140.1123
585.7310, 106.1777
587.0480, 272.2422
588.3650, 128.3086
589.6810, 94.37695
590.9970, 69.55566
592.3130, 26.44824
593.6290, 22.43555
594.9440, 201.5947
596.2600, 25.75000
597.5750, 129.9453
598.8900, 5.769531
600.2040, 78.53809
601.5190, 112.9072
602.8330, 187.3545
604.1470, 91.91602
605.4610, 126.5430
606.7740, 51.25195
608.0880, 146.0059
609.4010, 80.84766
610.7140, 125.7461
612.0260, 60.72168
613.3390, 75.74219
614.6510, 140.8135
615.9630, 45.96484
617.2750, 171.1514
618.5870, 6.432617
619.8980, 1.727539
621.2100, 147.0322
622.5210, 37.58301
623.8320, 102.2051
625.1420, 136.8486
626.4530, 121.5186
627.7630, 216.2314
629.0730, 111.0215
630.3830, 465.8682
631.6920, 317.5762
633.0010, 725.9043
634.3110, 191.1211
635.6190, 436.4834
636.9280, 341.9766
638.2370, 497.5703
639.5450, 393.2627
640.8530, 569.0186
642.1610, 804.8135
643.4690, 700.6338
644.7760, 996.4766
646.0830, 1152.345
647.3900, 1268.236
648.6970, 1644.153
650.0040, 1720.095
651.3100, 2456.062
652.6160, 2792.057
653.9220, 3588.084
655.2280, 4904.145
656.5340, 5960.242
657.8390, 8036.387
659.1440, 9522.569
660.4490, 10938.79
661.7540, 11665.04
663.0580, 10751.32
664.3620, 9897.645
665.6660, 7993.990
666.9700, 6410.369
668.2740, 5216.864
669.5770, 3943.307
670.8810, 3419.781
672.1840, 2686.909
673.4870, 2233.449
674.7890, 1900.022
676.0920, 1296.836
677.3940, 1453.477
678.6960, 970.1523
679.9970, 816.8633
681.2990, 883.6104
682.6000, 412.0068
683.9010, 648.8252
685.2020, 477.6191
686.5030, 394.6592
687.8040, 451.5889
689.1040, 241.6260
690.4040, 238.6289
691.7040, 335.6719
693.0040, 192.7529
694.3030, 299.8721
695.6020, 2.714844
696.9010, 234.4717
698.2000, 81.69727
699.4990, 78.96484
700.7970, 56.27148
702.0950, 58.31445
703.3930, 165.7061
704.6910, 143.1387
705.9890, 190.6143
707.2860, 218.1318
708.5830, 65.69336
709.8800, 154.3984
711.1770, 112.0479
712.4730, 149.7471
713.7700, 207.4863
715.0660, 137.0234
716.3620, 314.8545
717.6580, 132.7305
718.9530, 313.9307
720.2480, 221.9004
721.5430, 251.5557
722.8380, 329.6191
724.1330, 447.7314
725.4270, 295.9121
726.7220, 484.1211
728.0160, 482.3809
729.3100, 550.6885
730.6030, 679.0469
731.8970, 647.4531
733.1900, 1045.910
734.4830, 984.4170
735.7760, 1452.974
737.0680, 1651.579
738.3610, 1900.235
739.6530, 2118.943
740.9450, 2127.700
742.2360, 2756.288
743.5280, 2505.148
744.8190, 2594.059
746.1100, 2532.688
747.4010, 2314.444
748.6920, 2121.586
749.9830, 1828.646
751.2730, 1652.926
752.5630, 1417.599
753.8530, 1196.262
755.1430, 1043.964
756.4320, 1094.723
757.7210, 624.6816
759.0100, 900.3838
760.2990, 531.7871
761.5880, 721.2754
762.8760, 485.2861
764.1650, 563.8691
765.4530, 496.3906
766.7400, 306.4082
768.0280, 360.3096
769.3150, 313.5029
770.6030, 293.0322
771.8900, 298.0693
773.1760, 266.0986
774.4630, 253.5225
775.7490, 271.3223
777.0360, 91.20020
778.3220, 360.9414
779.6070, 31.57812
780.8930, 222.2900
782.1780, 373.0771
783.4630, 113.9414
784.7480, 234.8809
786.0330, 265.8965
787.3180, 206.9883
788.6020, 348.1562
789.8860, 249.3994
791.1700, 240.7207
792.4540, 162.1152
793.7370, 323.5859
795.0200, 325.1328
796.3030, 216.7559
797.5860, 348.4551
798.8690, 200.2295
800.1510, 252.0830
801.4340, 234.0127
802.7160, 206.0273
803.9980, 298.1191
805.2790, 260.9893
806.5610, 272.4482
807.8420, 254.8672
809.1230, 267.2754
810.4040, 239.7637
811.6850, 252.3320
812.9650, 74.97949
814.2450, 257.7090
815.5250, 140.5176
816.8050, 173.4141
818.0850, 236.3936
819.3640, 109.4561
820.6430, 142.6025
821.9220, 4.167969
823.2010, 69.15039
824.4800, 82.55762
825.7580, 33.95020
827.0360, 139.6250
828.3140, 53.28418
829.5920, 12.97168
830.8690, 190.8545
832.1470, 84.76562
833.4240, 98.76562
834.7010, 52.84961
835.9780, 72.97852
837.2540, 231.2646
838.5310, 84.40625
839.8070, 10.00684
841.0830, 154.4766
842.3580, 120.9502
843.6340, 33.68262
844.9090, 108.4043
846.1840, 123.2148
847.4590, 78.11426
848.7340, 16.89648
850.0080, 106.9854
851.2830, 132.1514
852.5570, 7.407227
853.8310, 132.7539
855.1040, 171.8076
856.3780, 213.6807
857.6510, 189.2617
858.9240, 34.93750
860.1970, 80.70312
861.4700, 46.56250
862.7420, 57.48535
864.0150, 138.5488
865.2870, 4.677734
866.5590, 220.8975
867.8300, 82.78613
869.1020, 103.6074
870.3730, 240.0947
871.6440, 133.3213
872.9150, 53.32715
874.1850, 79.92871
875.4560, 196.8965
876.7260, 213.8164
877.9960, 0.8330080
879.2660, 237.9453
880.5360, 85.15332
881.8050, 42.45898
883.0740, 59.86133
884.3430, 57.36133
885.6120, 294.9590
886.8810, 222.6553
888.1490, 110.4492
889.4180, 388.3398
890.6860, 16.33008
891.9530, 324.4180
893.2210, 352.6045
894.4880, 260.8906
895.7560, 419.2773
897.0230, 327.7637
898.2900, 306.3496
899.5560, 555.0381
900.8230, 423.8594
902.0890, 552.7910
903.3550, 651.8340
904.6210, 681.0430
905.8860, 730.3750
907.1520, 849.8555
908.4170, 1199.450
909.6820, 1269.511
910.9470, 1369.055
912.2110, 1699.092
913.4760, 1679.267
914.7400, 2059.590
916.0040, 2280.041
917.2680, 1950.645
918.5310, 2081.383
919.7950, 1982.268
921.0580, 1483.283
922.3210, 1474.432
923.5840, 1255.730
924.8460, 1317.156
926.1090, 888.7383
927.3710, 1020.437
928.6330, 992.2520
929.8950, 684.2168
931.1560, 876.2891
932.4180, 938.4639
933.6790, 730.7422
934.9400, 993.1230
936.2010, 785.6064
937.4610, 958.1924
938.7220, 1010.888
939.9820, 783.6855
941.2420, 956.5879
942.5020, 999.5928
943.7610, 1042.699
945.0210, 1235.915
946.2800, 1159.235
947.5390, 1372.657
948.7980, 1416.183
950.0560, 1449.812
951.3150, 1783.543
952.5730, 1857.381
953.8310, 2242.794
955.0890, 2366.853
956.3460, 2581.013
957.6040, 3135.277
958.8610, 3269.665
960.1180, 3284.156
961.3750, 3528.750
962.6310, 2853.463
963.8880, 2908.281
965.1440, 2313.201
966.4000, 2028.226
967.6560, 1864.438
968.9110, 1490.057
970.1670, 1405.395
971.4220, 1311.155
972.6770, 1106.700
973.9320, 1154.185
975.1860, 921.2617
976.4410, 1187.126
977.6950, 1083.693
978.9490, 1019.771
980.2030, 1005.950
981.4560, 942.0244
982.7100, 978.4131
983.9630, 1085.359
985.2160, 941.9824
986.4690, 1238.707
987.7210, 1323.919
988.9740, 1230.860
990.2260, 1485.964
991.4780, 1522.958
992.7300, 1680.232
993.9820, 2004.540
995.2330, 2032.019
996.4840, 2399.633
997.7350, 2647.349
998.9860, 3145.168
1000.237, 3782.834
1001.487, 4410.863
1002.738, 5599.012
1003.988, 6997.260
1005.237, 7965.608
1006.487, 9129.375
1007.737, 8998.545
1008.986, 8387.217
1010.235, 7805.987
1011.484, 6404.855
1012.732, 6063.862
1013.981, 5321.875
1015.229, 5031.090
1016.477, 4940.413
1017.725, 4549.854
1018.973, 4647.641
1020.220, 4457.295
1021.468, 4007.046
1022.715, 4273.627
1023.962, 3613.586
1025.208, 3522.016
1026.455, 3432.196
1027.701, 3082.476
1028.947, 2912.836
1030.193, 2683.313
1031.439, 2453.893
1032.684, 2404.568
1033.930, 1955.341
1035.175, 1836.206
1036.420, 1907.171
1037.665, 1458.230
1038.909, 1379.386
1040.154, 1300.637
1041.398, 1141.982
1042.642, 1083.421
1043.885, 1014.953
1045.129, 1036.580
1046.372, 948.3008
1047.615, 710.1143
1048.858, 1092.025
1050.101, 734.0361
1051.344, 796.1426
1052.586, 698.3438
1053.828, 650.6348
1055.070, 763.0156
1056.312, 545.4863
1057.554, 698.0469
1058.795, 740.6963
1060.036, 583.4453
1061.277, 746.2812
1062.518, 409.2090
1063.759, 412.2266
1064.999, 585.3301
1066.240, 558.5195
1067.480, 551.7930
1068.719, 645.1533
1069.959, 552.8281
1071.199, 462.1309
1072.438, 445.7461
1073.677, 529.4551
1074.916, 513.2480
1076.154, 287.1250
1077.393, 401.0811
1078.631, 275.1172
1079.869, 269.2334
1081.107, 423.4316
1082.345, 257.7090
1083.582, 322.0635
1084.820, 256.5137
1086.057, 101.0449
1087.294, 297.1230
1088.530, 351.8135
1089.767, 16.58789
1091.003, 71.44141
1092.239, 256.3721
1093.475, 182.7129
1094.711, 267.8008
1095.947, 222.9717
1097.182, 88.23340
1098.417, 293.5781
1099.652, 29.00293
1100.887, 165.4268
1102.122, 68.99902
1103.356, 49.50293
1104.590, 215.2148
1105.824, 61.00195
1107.058, 51.68750
1108.292, 97.63184
1109.525, 53.64648
1110.758, 213.8848
1111.991, 60.04883
1113.224, 136.3164
1114.457, 72.63672
1115.689, 50.97461
1116.922, 23.22656
1118.154, 143.2891
1119.385, 20.00391
1120.617, 106.7686
1121.849, 76.51660
1123.080, 56.97656
1124.311, 199.8428
1125.542, 53.26758
1126.773, 185.8535
1128.003, 82.86426
1129.234, 29.93848
1130.464, 138.2715
1131.694, 24.38770
1132.923, 29.91699
1134.153, 127.2334
1135.382, 24.61523
1136.612, 145.2744
1137.841, 152.7842
1139.069, 80.36035
1140.298, 105.0811
1141.526, 73.14062
1142.755, 200.9082
1143.983, 176.4336
1145.210, 64.73145
1146.438, 183.3525
1147.665, 141.5859
1148.893, 149.7461
1150.120, 182.1729
1151.347, 60.31934
1152.573, 288.5186
1153.800, 260.0586
1155.026, 21.62012
1156.252, 129.0107
1157.478, 67.42773
1158.704, 295.8926
1159.929, 293.1025
1161.155, 183.5771
1162.380, 163.1631
1163.605, 224.7646
1164.829, 177.0342
1166.054, 245.9941
1167.278, 68.43555
1168.503, 117.2881
1169.727, 338.7588
1170.950, 107.8643
1172.174, 319.5176
1173.397, 192.4023
1174.621, 141.8418
1175.844, 221.7158
1177.066, 111.4473
1178.289, 161.4482
1179.512, 200.8525
1180.734, 220.1406
1181.956, 349.4727
1183.178, 344.6758
1184.399, 259.0371
1185.621, 368.4707
1186.842, 228.5156
1188.063, 168.0186
1189.284, 257.5557
1190.505, 107.3408
1191.726, 266.9443
1192.946, 186.8340
1194.166, 26.58594
1195.386, 247.6162
1196.606, 99.01660
1197.826, 169.9229
1199.045, 130.0723
1200.264, 90.14844
1201.483, 270.0000
1202.702, 209.8809
1203.921, 119.8408
1205.139, 289.7773
1206.357, 222.3281
1207.575, 142.3174
1208.793, 233.1270
1210.011, 203.8350
1211.228, 263.9570
1212.446, 214.0557
1213.663, 284.1670
1214.880, 254.6621
1216.097, 104.8330
1217.313, 146.0332
1218.529, 216.2363
1219.746, 168.9521
1220.962, 309.9365
1222.177, 120.2021
1223.393, 60.52539
1224.608, 370.8291
1225.824, 71.15234
1227.039, 61.82422
1228.254, 142.1836
1229.468, 82.55957
1230.683, 246.6826
1231.897, 277.6768
1233.111, 10.93457
1234.325, 259.7432
1235.539, 161.8740
1236.752, 82.86719
1237.965, 213.9229
1239.179, 4.966797
1240.392, 115.9951
1241.604, 88.53809
1242.817, 122.9980
1244.029, 255.8359
1245.241, 117.3027
1246.453, 8.497070
1247.665, 59.66406
1248.877, 30.78613
1250.088, 120.9150
1251.300, 122.4258
1252.511, 65.58789
1253.722, 167.4639
1254.932, 128.0752
1256.143, 50.22266
1257.353, 151.9863
1258.563, 53.56934
1259.773, 117.6641
1260.983, 98.77344
1262.192, 8.319336
1263.402, 129.8271
1264.611, 50.96387
1265.820, 51.68848
1267.029, 192.8047
1268.237, 18.51953
1269.446, 71.87109
1270.654, 93.72168
1271.862, 6.900391
1273.070, 114.3672
1274.278, 125.0801
1275.485, 15.60938
1276.692, 56.88574
1277.900, 93.07227
1279.106, 107.3809
1280.313, 189.1523
1281.520, 20.43359
1282.726, 110.6543
1283.932, 171.2812
1285.138, 88.31934
1286.344, 53.17676
1287.550, 83.54688
1288.755, 96.08301
1289.960, 54.25488
1291.165, 44.83594
1292.370, 65.16309
1293.575, 75.47070
1294.779, 34.22559
1295.984, 146.0615
1297.188, 126.3486
1298.392, 13.38184
1299.595, 126.8604
1300.799, 6.528320
1302.002, 166.7559
1303.206, 146.9736
1304.409, 102.8301
1305.611, 17.32227
1306.814, 47.46191
1308.016, 2.409180
1309.219, 12.29785
1310.421, 87.75977
1311.623, 12.20020
1312.824, 117.8008
1314.026, 7.784180
1315.227, 97.72754
1316.428, 7.610352
1317.629, 12.54395
1318.830, 87.26758
1320.031, 67.04785
1321.231, 76.77734
1322.431, 66.63867
1323.631, 106.3018
1324.831, 125.9111
1326.031, 126.4121
1327.230, 75.04590
1328.429, 114.5771
1329.628, 134.0645
1330.827, 83.52441
1332.026, 202.9648
1333.225, 142.3770
1334.423, 111.7578
1335.621, 221.1104
1336.819, 110.4414
1338.017, 129.7363
1339.214, 59.01074
1340.412, 48.25391
1341.609, 67.89648
1342.806, 106.6514
1344.003, 115.8105
1345.200, 164.9424
1346.396, 194.1768
1347.592, 143.2568
1348.788, 252.3086
1349.984, 26.37500
1351.180, 210.3604
1352.376, 91.37598
1353.571, 98.30273
1354.766, 149.1992
1355.961, 162.0654
1357.156, 232.9336
1358.351, 120.7490
1359.545, 164.5400
1360.739, 86.30566
1361.933, 174.0439
1363.127, 33.76953
1364.321, 102.4717
1365.515, 241.2061
1366.708, 163.6152
1367.901, 209.5078
1369.094, 197.1064
1370.287, 133.6582
1371.479, 219.1875
1372.672, 235.6943
1373.864, 6.180664
1375.056, 118.6299
1376.248, 97.05469
1377.440, 143.9834
1378.631, 64.35352
1379.822, 122.6973
1381.014, 120.4795
1382.205, 118.6318
1383.395, 128.6475
1384.586, 51.85645
1385.776, 1.986328
1386.966, 43.03711
1388.157, 103.9590
1389.346, 122.9199
1390.536, 125.1963
1391.725, 134.7100
1392.915, 92.45996
1394.104, 101.8145
1395.293, 79.42090
1396.482, 37.63574
1397.670, 194.0791
1398.858, 99.49805
1400.047, 71.99609
1401.235, 105.0850
1402.422, 11.55371
1403.610, 144.4863
1404.798, 220.8447
1405.985, 82.45020
1407.172, 136.7002
1408.359, 136.1572
1409.546, 122.1143
1410.732, 233.7822
1411.918, 82.30469
1413.105, 69.93164
1414.291, 184.7197
1415.476, 103.6836
1416.662, 163.4277
1417.848, 185.5898
1419.033, 87.08594
1420.218, 208.6309
