##NAMES=Diopside
##RRUFFID=R070123
##IDEAL CHEMISTRY=CaMgSi_2_O_6_
##LOCALITY=Yates mine, Otter Lake, Huddersfield Township, Pontiac County, Québec, Canada
##OWNER=RRUFF
##SOURCE=Michael Scott
##DESCRIPTION=Black prismatic crystals associated with orange calcite
##STATUS=The identification of this mineral has been confirmed by X-ray diffraction and chemical analysis
##URL=rruff.info/R070123
##MEASURED CHEMISTRY=(Ca_0.95_Na_0.04_Mn_0.01_)_Σ=1_(Mg_0.63_Fe_0.33_Al_0.04_)_Σ=1_Si_2.00_O_6_
##PIN_ID=M01164
##ORIENTATION=Laser parallel to c* (0 0 1). Fiducial mark perpendicular to laser is parallel to a [1 0 0]
119.7720, 0.0000000E+00
121.0100, 22.80676
122.2470, 27.51538
123.4850, 123.0090
124.7220, 73.70740
125.9590, 36.85010
127.1960, 9.361938
128.4330, 29.86230
129.6700, 58.31213
130.9060, 72.27478
132.1430, 121.8080
133.3790, 131.4934
134.6150, 193.2563
135.8500, 191.9689
137.0860, 181.3989
138.3210, 245.4822
139.5560, 244.1627
140.7910, 229.3887
142.0260, 91.11511
143.2610, 38.31982
144.4950, 29.95337
145.7290, 20.01331
146.9630, 0.3936770
148.1970, 7.849243
149.4310, 55.23718
150.6640, 30.63416
151.8980, 115.3248
153.1310, 158.2943
154.3640, 177.5286
155.5970, 234.0150
156.8290, 286.7421
158.0620, 324.6921
159.2940, 326.8457
160.5260, 438.1870
161.7580, 408.7067
162.9890, 417.9194
164.2210, 482.7397
165.4520, 520.9639
166.6830, 533.6401
167.9140, 444.5565
169.1450, 487.2278
170.3760, 477.3020
171.6060, 465.3440
172.8360, 526.9473
174.0660, 453.3748
175.2960, 514.0677
176.5260, 521.3351
177.7550, 553.2207
178.9840, 532.1541
180.2130, 527.5909
181.4420, 585.9520
182.6710, 640.8215
183.9000, 596.7954
185.1280, 656.8713
186.3560, 646.0474
187.5840, 655.3213
188.8120, 622.6907
190.0400, 630.1542
191.2670, 632.7097
192.4950, 607.3558
193.7220, 502.0688
194.9490, 447.7847
196.1750, 428.5063
197.4020, 388.2346
198.6280, 365.8792
199.8540, 318.7430
201.0800, 313.5427
202.3060, 300.4027
203.5320, 243.3643
204.7570, 108.4790
205.9830, 14.74048
207.2080, 25.10632
208.4330, 16.55957
209.6570, 5.073486
210.8820, 8.367310
212.1060, 6.230591
213.3310, 65.86597
214.5550, 130.5404
215.7780, 114.2552
217.0020, 161.0125
218.2260, 191.8126
219.4490, 263.6570
220.6720, 280.5459
221.8950, 293.4803
223.1180, 420.4603
224.3400, 374.4861
225.5630, 400.5576
226.7850, 497.6748
228.0070, 532.8381
229.2290, 611.0469
230.4500, 679.3013
231.6720, 705.6011
232.8930, 719.9463
234.1140, 749.3369
235.3350, 701.7729
236.5560, 683.2537
237.7770, 595.7788
238.9970, 629.3484
240.2170, 621.9619
241.4370, 639.6194
242.6570, 654.3208
243.8770, 633.0660
245.0960, 716.8542
246.3160, 689.6858
247.5350, 677.5596
248.7540, 778.4763
249.9730, 713.4351
251.1910, 776.4357
252.4100, 734.4778
253.6280, 729.5613
254.8460, 730.6855
256.0640, 782.8503
257.2810, 757.0559
258.4990, 736.3011
259.7160, 725.3490
260.9330, 677.2983
262.1500, 645.2738
263.3670, 597.6757
264.5840, 527.1161
265.8000, 512.5944
267.0170, 455.7467
268.2330, 476.9860
269.4490, 422.2769
270.6640, 424.5452
271.8800, 447.9435
273.0950, 409.4614
274.3100, 468.2892
275.5260, 427.0148
276.7400, 482.8356
277.9550, 460.7467
279.1690, 476.7434
280.3840, 534.8047
281.5980, 535.2363
282.8120, 610.1818
284.0260, 626.7089
285.2390, 715.2117
286.4530, 773.2588
287.6660, 864.2766
288.8790, 975.4235
290.0920, 1003.053
291.3040, 1198.779
292.5170, 1304.497
293.7290, 1442.426
294.9410, 1520.703
296.1530, 1661.462
297.3650, 1796.551
298.5770, 1952.323
299.7880, 2181.523
301.0000, 2351.821
302.2110, 2566.978
303.4220, 2783.091
304.6320, 3024.299
305.8430, 3272.559
307.0530, 3556.878
308.2630, 3950.249
309.4730, 4256.669
310.6830, 4679.145
311.8930, 4993.681
313.1030, 5411.269
314.3120, 5779.899
315.5210, 6210.570
316.7300, 6647.282
317.9390, 6983.042
319.1470, 7421.851
320.3560, 7521.702
321.5640, 7579.589
322.7720, 7460.511
323.9800, 7143.466
325.1880, 6609.453
326.3950, 6147.475
327.6030, 5461.526
328.8100, 5108.611
330.0170, 4656.728
331.2240, 4332.875
332.4300, 4098.052
333.6370, 3843.261
334.8430, 3624.499
336.0490, 3549.766
337.2550, 3444.062
338.4610, 3425.387
339.6660, 3478.740
340.8720, 3596.122
342.0770, 3741.532
343.2820, 3933.732
344.4870, 4097.438
345.6920, 4458.933
346.8960, 4773.457
348.1010, 5168.007
349.3050, 5407.587
350.5090, 5746.193
351.7130, 6021.824
352.9160, 5981.481
354.1200, 5820.164
355.3230, 5661.871
356.5260, 5285.542
357.7290, 4767.299
358.9320, 4240.081
360.1350, 3762.886
361.3370, 3439.716
362.5390, 3034.570
363.7410, 2875.448
364.9430, 2752.348
366.1450, 2577.273
367.3470, 2400.221
368.5480, 2454.192
369.7490, 2480.184
370.9500, 2500.201
372.1510, 2771.239
373.3520, 2980.299
374.5520, 3308.381
375.7530, 3692.486
376.9530, 4293.610
378.1530, 4881.758
379.3520, 5497.925
380.5520, 6153.113
381.7510, 6860.322
382.9510, 7342.552
384.1500, 8221.803
385.3490, 8700.073
386.5480, 9018.363
387.7460, 9026.674
388.9440, 8730.008
390.1430, 8186.356
391.3410, 7314.727
392.5390, 6509.117
393.7360, 5391.524
394.9340, 4460.952
396.1310, 3664.398
397.3280, 2937.863
398.5250, 2399.346
399.7220, 1965.848
400.9190, 1532.367
402.1150, 1279.904
403.3120, 1087.459
404.5080, 854.0308
405.7040, 777.6199
406.8990, 642.2260
408.0950, 527.8489
409.2900, 467.4882
410.4860, 390.1840
411.6810, 373.8269
412.8760, 307.5366
414.0700, 306.2727
415.2650, 287.0353
416.4590, 245.8240
417.6540, 193.6378
418.8480, 159.4801
420.0420, 118.5406
421.2350, 72.23694
422.4290, 45.15063
423.6220, 26.08740
424.8150, 9.953491
426.0080, 22.97583
427.2010, 35.98413
428.3940, 56.98303
429.5860, 66.98083
430.7790, 105.9817
431.9710, 87.00244
433.1630, 95.03552
434.3540, 75.08459
435.5460, 59.14209
436.7370, 54.88733
437.9290, 40.38037
439.1200, 48.31201
440.3110, 3.363525
441.5010, 26.39453
442.6920, 31.58374
443.8820, 5.416504
445.0730, 47.60217
446.2630, 121.6450
447.4530, 114.3842
448.6420, 271.9587
449.8320, 314.1082
451.0210, 344.5311
452.2100, 414.7927
453.3990, 496.8241
454.5880, 461.1736
455.7770, 493.7466
456.9660, 537.9895
458.1540, 523.1421
459.3420, 498.6888
460.5300, 457.7289
461.7180, 432.1907
462.9050, 389.1290
464.0930, 353.3358
465.2800, 306.9133
466.4670, 242.5083
467.6540, 243.1379
468.8410, 268.7972
470.0280, 193.4806
471.2140, 112.1882
472.4000, 116.9146
473.5870, 141.6633
474.7720, 135.4268
475.9580, 133.0516
477.1440, 94.99353
478.3290, 98.79443
479.5140, 122.6033
480.6990, 80.42090
481.8840, 34.24805
483.0690, 100.0825
484.2540, 108.9237
485.4380, 114.7721
486.6220, 75.62695
487.8060, 59.48804
488.9900, 102.3551
490.1740, 124.2279
491.3570, 116.1063
492.5410, 133.9901
493.7240, 131.8789
494.9070, 141.7725
496.0900, 166.6705
497.2720, 218.5732
498.4550, 223.4802
499.6370, 296.3914
500.8190, 315.9143
502.0010, 331.2249
503.1830, 381.1466
504.3650, 422.0714
505.5460, 462.9993
506.7280, 482.9297
507.9090, 492.8625
509.0900, 535.2827
510.2710, 619.7349
511.4510, 613.6736
512.6320, 635.6143
513.8120, 693.5560
514.9920, 635.4990
516.1720, 684.4429
517.3520, 733.3877
518.5310, 810.3337
519.7110, 747.2894
520.8900, 911.2534
522.0690, 900.2179
523.2480, 921.1836
524.4270, 1080.157
525.6050, 1075.149
526.7840, 1200.159
527.9620, 1220.189
529.1400, 1239.234
530.3180, 1194.293
531.4960, 1171.359
532.6730, 1083.426
533.8510, 1097.493
535.0280, 1055.563
536.2050, 956.6378
537.3820, 1046.712
538.5590, 900.7856
539.7350, 927.8582
540.9120, 934.9271
542.0880, 945.9924
543.2640, 977.0540
544.4400, 1086.112
545.6150, 1153.164
546.7910, 1351.213
547.9660, 1557.257
549.1410, 1742.296
550.3170, 1943.330
551.4910, 2190.359
552.6660, 2569.383
553.8410, 2951.401
555.0150, 3178.412
556.1890, 3459.417
557.3630, 3450.417
558.5370, 3351.409
559.7110, 3099.395
560.8840, 2614.375
562.0570, 2185.348
563.2310, 1832.313
564.4040, 1463.271
565.5760, 1121.220
566.7490, 1002.866
567.9220, 895.0652
569.0940, 757.7476
570.2660, 646.5146
571.4380, 580.7959
572.6100, 514.1617
573.7820, 417.4517
574.9530, 390.3102
576.1240, 269.1211
577.2960, 275.6431
578.4670, 299.5966
579.6370, 186.9104
580.8080, 178.1750
581.9790, 169.8826
583.1490, 73.03821
584.3190, 51.69543
585.4890, 51.33875
586.6590, 51.71558
587.8280, 4.122070
588.9980, 17.32385
590.1670, 41.52295
591.3360, 11.74146
592.5050, 7.918701
593.6740, 35.84985
594.8430, 55.20996
596.0110, 24.82922
597.1790, 19.99927
598.3480, 26.65796
599.5160, 19.64746
600.6830, 5.115723
601.8510, 8.467041
603.0180, 22.98743
604.1860, 50.43225
605.3530, 92.72131
606.5200, 129.3256
607.6870, 141.0522
608.8530, 179.6483
610.0200, 243.9272
611.1860, 199.3346
612.3520, 280.4280
613.5180, 337.4060
614.6840, 307.6971
615.8500, 345.5054
617.0150, 388.8367
618.1800, 377.2346
619.3450, 467.2566
620.5100, 495.4181
621.6750, 525.7750
622.8400, 592.7350
624.0040, 679.6742
625.1690, 671.6241
626.3330, 728.5210
627.4970, 849.3969
628.6610, 860.2513
629.8240, 973.0845
630.9880, 993.8962
632.1510, 1131.686
633.3140, 1165.454
634.4770, 1263.201
635.6400, 1466.925
636.8020, 1567.849
637.9650, 1710.694
639.1270, 1903.967
640.2890, 1971.604
641.4510, 2158.218
642.6130, 2284.810
643.7750, 2605.378
644.9360, 2994.926
646.0980, 3282.450
647.2590, 3770.952
648.4200, 4183.430
649.5810, 4858.885
650.7410, 5645.320
651.9020, 6665.729
653.0620, 7934.117
654.2220, 9496.481
655.3820, 11321.82
656.5420, 13554.14
657.7020, 16088.52
658.8610, 18906.64
660.0200, 21837.48
661.1800, 24521.75
662.3390, 27083.17
663.4970, 29259.79
664.6560, 29449.39
665.8150, 29102.59
666.9730, 27505.40
668.1310, 24737.97
669.2890, 21260.21
670.4470, 17908.05
671.6050, 14881.57
672.7620, 12174.01
673.9200, 9886.821
675.0770, 8212.336
676.2340, 6781.492
677.3910, 5658.985
678.5470, 4753.094
679.7040, 4031.920
680.8600, 3533.720
682.0160, 2979.495
683.1720, 2630.244
684.3280, 2228.968
685.4840, 2012.665
686.6390, 1722.336
687.7950, 1592.982
688.9500, 1438.603
690.1050, 1310.197
691.2600, 1190.357
692.4150, 1061.831
693.5690, 966.8271
694.7240, 850.3193
695.8780, 748.7859
697.0320, 691.2272
698.1860, 685.6835
699.3400, 655.3347
700.4930, 562.6996
701.6470, 523.0388
702.8000, 459.3529
703.9530, 443.6416
705.1060, 409.9050
706.2590, 368.7532
707.4110, 335.3639
708.5640, 297.5636
709.7160, 263.7485
710.8680, 225.9202
712.0200, 235.0872
713.1720, 190.2454
714.3230, 180.3967
715.4750, 176.5372
716.6260, 112.6639
717.7770, 164.7733
718.9280, 106.8655
720.0790, 68.93872
721.2300, 104.9790
722.3800, 74.99670
723.5300, 64.98230
724.6810, 46.93518
725.8300, 25.84937
726.9800, 32.04919
728.1300, 7.603394
729.2790, 25.14319
730.4290, 21.59888
731.5780, 14.19800
732.7270, 1.007690
733.8760, 14.52295
735.0240, 24.30261
736.1730, 38.78052
737.3210, 45.27441
738.4700, 50.62317
739.6180, 59.42029
740.7650, 60.25256
741.9130, 58.77991
743.0610, 59.08252
744.2080, 49.30371
745.3550, 52.41028
746.5020, 35.58533
747.6490, 15.81897
748.7960, 19.10034
749.9430, 0.5694580
751.0890, 14.79871
752.2350, 11.78796
753.3810, 21.34412
754.5270, 7.873901
755.6730, 31.37244
756.8190, 63.84888
757.9640, 38.30737
759.1090, 24.74622
760.2540, 66.16296
761.3990, 82.56262
762.5440, 40.94531
763.6890, 64.31067
764.8330, 65.65930
765.9780, 112.9918
767.1220, 90.30835
768.2660, 90.60901
769.4100, 129.8943
770.5530, 98.16431
771.6970, 107.4194
772.8400, 81.66016
773.9830, 106.8864
775.1260, 59.09851
776.2690, 104.2969
777.4120, 99.48193
778.5540, 121.6536
779.6970, 100.8126
780.8390, 88.95898
781.9810, 39.09290
783.1230, 28.21484
784.2650, 53.32483
785.4060, 65.42346
786.5480, 97.51099
787.6890, 45.58740
788.8300, 54.65308
789.9710, 58.70813
791.1120, 44.75806
792.2520, 38.78809
793.3930, 33.81348
794.5330, 2.170654
795.6730, 41.16553
796.8130, 38.18811
797.9530, 0.2357180
799.0930, 9.292847
800.2320, 39.36121
801.3710, 88.45264
802.5110, 83.59192
803.6500, 95.13196
804.7880, 77.01001
805.9270, 73.28333
807.0660, 52.59290
808.2040, 22.92725
809.3420, 21.27319
810.4800, 34.63000
811.6180, 53.00110
812.7560, 14.39355
813.8930, 28.79370
815.0310, 15.20520
816.1680, 44.37585
817.3050, 15.95325
818.4420, 30.52686
819.5790, 37.09741
820.7150, 73.66492
821.8520, 93.22974
822.9880, 79.79211
824.1240, 22.35242
825.2600, 81.91113
826.3960, 28.46826
827.5320, 27.02405
828.6670, 59.57898
829.8020, 34.13330
830.9380, 19.68738
832.0730, 17.24133
833.2080, 38.79541
834.3420, 2.649780
835.4770, 20.09509
836.6110, 23.45740
837.7450, 57.01123
838.8790, 78.56689
840.0130, 100.1243
841.1470, 117.6837
842.2810, 161.2458
843.4140, 245.8104
844.5470, 302.3782
845.6800, 503.9489
846.8130, 601.5234
847.9460, 879.1014
849.0790, 1109.683
850.2110, 1355.269
851.3440, 1645.859
852.4760, 1780.453
853.6080, 1997.794
854.7400, 2026.399
855.8710, 2031.698
857.0030, 1896.270
858.1340, 1783.577
859.2650, 1616.353
860.3960, 1460.909
861.5270, 1374.958
862.6580, 1135.218
863.7890, 1126.831
864.9190, 1002.427
866.0490, 929.0209
867.1790, 895.5598
868.3090, 825.8401
869.4390, 858.5293
870.5690, 824.4520
871.6980, 798.9095
872.8270, 770.5293
873.9570, 826.8118
875.0860, 814.8386
876.2140, 828.4395
877.3430, 804.1262
878.4720, 851.9977
879.6000, 865.9275
880.7280, 853.5396
881.8560, 887.0278
882.9840, 918.6445
884.1120, 909.5768
885.2390, 1033.379
886.3670, 977.4938
887.4940, 979.7224
888.6210, 1060.637
889.7480, 1034.033
890.8750, 1071.905
892.0020, 1018.710
893.1280, 1074.890
894.2540, 1107.929
895.3810, 1084.775
896.5070, 1091.023
897.6320, 1103.301
898.7580, 1114.576
899.8840, 1087.911
901.0090, 1083.273
902.1340, 1065.658
903.2590, 1032.074
904.3840, 1023.533
905.5090, 1016.032
906.6340, 1044.571
907.7580, 953.1406
908.8820, 1016.747
910.0060, 932.3914
911.1300, 914.0797
912.2540, 851.8110
913.3780, 911.5779
914.5010, 879.3845
915.6250, 871.2285
916.7480, 799.1036
917.8710, 768.0168
918.9940, 800.9664
920.1160, 717.9496
921.2390, 712.9738
922.3610, 665.0259
923.4840, 640.1079
924.6060, 715.2151
925.7280, 648.3535
926.8490, 619.5227
927.9710, 586.7188
929.0930, 530.9553
930.2140, 569.1447
931.3350, 564.6012
932.4560, 520.3469
933.5770, 473.6680
934.6980, 429.8445
935.8180, 398.4058
936.9380, 369.8291
938.0590, 358.2441
939.1790, 359.0428
940.2990, 395.1002
941.4180, 359.5129
942.5380, 332.3221
943.6570, 447.4681
944.7770, 368.7069
945.8960, 465.5717
947.0150, 430.7539
948.1340, 485.3049
949.2520, 539.5233
950.3710, 606.1338
951.4890, 710.0342
952.6070, 751.9705
953.7260, 794.9434
954.8430, 843.9580
955.9610, 987.0176
957.0790, 1015.110
958.1960, 1097.237
959.3130, 1134.401
960.4310, 1189.597
961.5480, 1267.833
962.6640, 1369.102
963.7810, 1391.403
964.8970, 1444.737
966.0140, 1490.102
967.1300, 1537.844
968.2460, 1567.933
969.3620, 1621.360
970.4780, 1710.599
971.5930, 1701.133
972.7090, 1749.698
973.8240, 1941.295
974.9390, 2000.923
976.0540, 2062.584
977.1690, 2056.278
978.2830, 2161.003
979.3980, 2296.760
980.5120, 2346.549
981.6260, 2534.369
982.7400, 2572.221
983.8540, 2639.105
984.9680, 2828.021
986.0820, 2905.967
987.1950, 3019.946
988.3080, 3152.957
989.4210, 3432.000
990.5340, 3658.076
991.6470, 3919.188
992.7600, 4299.333
993.8720, 4773.514
994.9850, 5402.730
996.0970, 6067.986
997.2090, 6820.285
998.3210, 7817.623
999.4320, 9049.011
1000.544, 10607.44
1001.655, 12776.91
1002.767, 14924.42
1003.878, 18082.97
1004.989, 21900.58
1006.100, 26372.23
1007.210, 31135.95
1008.321, 38109.71
1009.431, 43425.53
1010.541, 47238.41
1011.651, 50284.34
1012.761, 51223.34
1013.871, 49189.38
1014.980, 44189.48
1016.090, 37803.63
1017.199, 31130.83
1018.308, 24914.08
1019.417, 19966.38
1020.526, 16115.70
1021.635, 13202.08
1022.743, 11236.48
1023.852, 9696.939
1024.960, 8495.418
1026.068, 7611.923
1027.176, 6901.459
1028.283, 6606.314
1029.391, 6302.134
1030.498, 6010.788
1031.606, 5943.236
1032.713, 5988.025
1033.820, 6022.142
1034.927, 6208.160
1036.033, 6449.780
1037.140, 6651.521
1038.246, 6924.304
1039.353, 7193.880
1040.459, 7250.812
1041.564, 7491.795
1042.670, 7336.891
1043.776, 7266.733
1044.881, 6907.215
1045.987, 6406.776
1047.092, 5811.519
1048.197, 5150.565
1049.302, 4658.161
1050.406, 4015.381
1051.511, 3568.095
1052.615, 3151.282
1053.720, 2819.117
1054.824, 2598.812
1055.928, 2304.069
1057.031, 2105.282
1058.135, 1935.788
1059.238, 1730.167
1060.342, 1633.574
1061.445, 1450.339
1062.548, 1379.348
1063.651, 1286.925
1064.754, 1157.736
1065.856, 1133.185
1066.959, 1027.164
1068.061, 937.6265
1069.163, 851.4626
1070.265, 855.9438
1071.367, 777.8601
1072.469, 780.5061
1073.570, 701.8623
1074.671, 687.7361
1075.773, 633.0151
1076.874, 695.0625
1077.975, 648.4841
1079.075, 663.8008
1080.176, 662.4167
1081.276, 635.9329
1082.377, 667.8621
1083.477, 608.6045
1084.577, 568.5641
1085.677, 567.8103
1086.777, 621.1848
1087.876, 562.3313
1088.975, 584.6001
1090.075, 570.4602
1091.174, 530.6733
1092.273, 582.7959
1093.372, 500.9204
1094.470, 486.2817
1095.569, 537.4302
1096.667, 525.6199
1097.765, 493.8179
1098.863, 552.9905
1099.961, 521.9227
1101.059, 541.8865
1102.157, 503.9854
1103.254, 488.4517
1104.351, 561.5795
1105.449, 497.6113
1106.546, 460.7653
1107.642, 548.0992
1108.739, 481.2288
1109.836, 507.5093
1110.932, 495.6383
1112.028, 472.7917
1113.124, 512.8368
1114.220, 548.9749
1115.316, 496.0322
1116.412, 531.2891
1117.507, 540.3723
1118.603, 564.4467
1119.698, 551.5759
1120.793, 567.6603
1121.888, 596.7593
1122.983, 525.8528
1124.077, 572.0166
1125.172, 583.1182
1126.266, 589.2625
1127.360, 614.3711
1128.454, 576.5199
1129.548, 544.6340
1130.642, 572.7507
1131.735, 576.8699
1132.829, 514.9906
1133.922, 487.1132
1135.015, 474.2477
1136.108, 423.3728
1137.201, 435.4980
1138.294, 411.6240
1139.386, 339.7498
1140.478, 360.8752
1141.571, 306.0002
1142.663, 280.1240
1143.755, 249.2465
1144.846, 273.3672
1145.938, 240.5010
1147.030, 225.6168
1148.121, 173.7302
1149.212, 162.8403
1150.303, 122.9471
1151.394, 95.05005
1152.485, 39.14905
1153.575, 56.24377
1154.666, 1.333862
1155.756, 4.418579
1156.846, 36.49805
1157.936, 4.572266
1159.026, 12.35950
1160.116, 35.30017
1161.205, 49.25940
1162.295, 44.24438
1163.384, 30.25342
1164.473, 35.28064
1165.562, 9.328735
1166.651, 40.36975
1167.739, 88.45093
1168.828, 71.58704
1169.916, 66.76624
1171.005, 38.98730
1172.093, 54.23633
1173.181, 54.52197
1174.268, 80.84534
1175.356, 73.67871
1176.443, 41.64539
1177.531, 59.10315
1178.618, 46.60376
1179.705, 22.14160
1180.792, 46.70435
1181.879, 37.30566
1182.965, 27.63916
1184.052, 52.60669
1185.138, 1.315674
1186.224, 9.042114
1187.310, 15.20947
1188.396, 10.55029
1189.482, 7.333984
1190.567, 10.85925
1191.653, 42.96179
1192.738, 13.82550
1193.823, 21.71741
1194.908, 8.358398
1195.993, 20.41620
1197.077, 8.539917
1198.162, 27.47632
1199.246, 14.22827
1200.331, 80.47852
1201.415, 16.45734
1202.499, 28.58191
1203.582, 22.66266
1204.666, 2.217834
1205.750, 15.07172
1206.833, 22.90521
1207.916, 3.279907
1208.999, 16.49561
1210.082, 13.25049
1211.165, 16.97278
1212.248, 37.67200
1213.330, 14.35406
1214.412, 11.01129
1215.495, 6.641785
1216.577, 10.75714
1217.658, 22.19482
1218.740, 34.32227
1219.822, 18.81970
1220.903, 12.29156
1221.985, 45.73462
1223.066, 1.841248
1224.147, 38.54614
1225.228, 49.91235
1226.308, 49.25958
1227.389, 50.58716
1228.469, 53.89508
1229.550, 27.18353
1230.630, 27.44580
1231.710, 65.68158
1232.790, 45.89868
1233.869, 67.09363
1234.949, 86.26959
1236.028, 68.42767
1237.108, 57.56647
1238.187, 75.68854
1239.266, 63.79163
1240.344, 79.87439
1241.423, 78.93811
1242.502, 114.9827
1243.580, 85.00897
1244.658, 123.0162
1245.736, 75.00494
1246.814, 105.9735
1247.892, 112.9234
1248.970, 99.85461
1250.047, 126.7667
1251.125, 111.6602
1252.202, 118.5347
1253.279, 100.3903
1254.356, 126.2263
1255.433, 109.0435
1256.509, 151.8412
1257.586, 111.6199
1258.662, 133.3789
1259.738, 141.1187
1260.814, 159.8392
1261.890, 152.5403
1262.966, 172.2220
1264.042, 123.8844
1265.117, 145.5270
1266.193, 143.1502
1267.268, 148.7538
1268.343, 143.3378
1269.418, 134.9022
1270.492, 165.4468
1271.567, 175.9722
1272.642, 143.4781
1273.716, 149.9645
1274.790, 131.4312
1275.864, 166.8781
1276.938, 171.3049
1278.012, 168.7120
1279.085, 171.0991
1280.159, 170.4663
1281.232, 168.8137
1282.305, 151.1414
1283.378, 155.4491
1284.451, 151.1555
1285.524, 144.2812
1286.597, 152.2596
1287.669, 143.4875
1288.741, 144.4937
1289.813, 159.4573
1290.885, 147.5953
1291.957, 163.9482
1293.029, 139.9697
