##NAMES=Diopside
##RRUFFID=R050406
##IDEAL CHEMISTRY=CaMgSi_2_O_6_
##LOCALITY=unknown
##OWNER=RRUFF
##SOURCE=University of Arizona Mineral Museum
##DESCRIPTION=Brownish gray massive
##STATUS=The identification of this mineral has been confirmed by X-ray diffraction and chemical analysis
##URL=rruff.info/R050406
##MEASURED CHEMISTRY=(Ca_0.95_Na_0.05_)(Mg_0.75_Fe^2+^_0.18_Fe^3+^_0.05_Al_0.01_Ti_0.01_Mn^2+^_0.01_)(Si_0.98_Al_0.02_)_2_O_6_
##PIN_ID=M00191
##ORIENTATION=Laser parallel to -b* (0 -1 0). Fiducial mark perpendicular to laser is parallel to c [0 0 1]
116.9030, 0.0000000E+00
118.1340, 1.697266
119.3650, 1.891602
120.5960, 40.96191
121.8270, 396.5469
123.0580, 721.7979
124.2880, 1041.252
125.5190, 1207.631
126.7490, 1780.468
127.9790, 2667.998
129.2090, 3645.974
130.4390, 4435.852
131.6680, 5197.115
132.8980, 5616.104
134.1270, 5944.082
135.3560, 6416.240
136.5850, 6375.736
137.8140, 6164.447
139.0430, 6039.186
140.2710, 5415.781
141.5000, 4759.289
142.7280, 3792.006
143.9560, 3064.566
145.1840, 2379.009
146.4120, 1582.366
147.6390, 1247.663
148.8670, 813.9180
150.0940, 651.1465
151.3210, 614.3604
152.5490, 445.5684
153.7750, 202.7793
155.0020, 215.9980
156.2290, 52.24316
157.4550, 13.47852
158.6810, 14.17285
159.9080, 40.82617
161.1340, 53.41602
162.3590, 93.61523
163.5850, 10.82422
164.8110, 175.1582
166.0360, 195.4180
167.2610, 318.8281
168.4860, 492.1504
169.7110, 431.5850
170.9360, 484.1270
172.1610, 547.7695
173.3850, 660.5088
174.6100, 691.3857
175.8340, 662.2510
177.0580, 742.2422
178.2820, 671.3037
179.5050, 587.4287
180.7290, 758.6152
181.9520, 872.8594
183.1760, 634.1602
184.3990, 711.5156
185.6220, 595.9229
186.8450, 757.3809
188.0670, 666.6367
189.2900, 556.4375
190.5120, 608.0312
191.7340, 593.6602
192.9560, 653.3418
194.1780, 574.0859
195.4000, 584.2324
196.6220, 502.0898
197.8430, 555.0645
199.0640, 587.0918
200.2860, 523.1738
201.5070, 573.3721
202.7270, 563.8594
203.9480, 170.6074
205.1690, 64.45996
206.3890, 3.594727
207.6090, 83.55078
208.8290, 150.4570
210.0490, 17.34473
211.2690, 1.252930
212.4890, 15.77148
213.7080, 62.67969
214.9280, 55.41699
216.1470, 45.49023
217.3660, 3.597656
218.5850, 206.3184
219.8030, 134.2402
221.0220, 275.1660
222.2400, 445.0996
223.4590, 460.0430
224.6770, 513.9932
225.8950, 610.9521
227.1120, 618.3877
228.3300, 671.8906
229.5480, 690.8711
230.7650, 697.8574
231.9820, 695.8408
233.1990, 702.8496
234.4160, 648.8574
235.6330, 578.8311
236.8490, 538.6729
238.0660, 502.8193
239.2820, 507.4160
240.4980, 508.8809
241.7140, 559.9707
242.9300, 552.8008
244.1460, 595.6416
245.3610, 616.4922
246.5770, 706.3516
247.7920, 753.2197
249.0070, 808.0977
250.2220, 828.3135
251.4370, 837.1484
252.6510, 813.7812
253.8660, 816.6914
255.0800, 754.6104
256.2940, 726.5361
257.5080, 1135.470
258.7220, 854.8711
259.9360, 1197.359
261.1490, 578.3145
262.3630, 379.2773
263.5760, 241.0645
264.7890, 132.9541
266.0020, 112.2559
267.2150, 63.75000
268.4270, 108.3623
269.6400, 99.04980
270.8520, 33.77832
272.0640, 5.464844
273.2760, 73.41992
274.4880, 16.18750
275.7000, 69.91699
276.9120, 20.39160
278.1230, 95.06836
279.3340, 61.96973
280.5450, 100.7266
281.7560, 119.6318
282.9670, 98.50684
284.1780, 228.4346
285.3880, 277.2383
286.5980, 257.1270
287.8090, 380.7549
289.0190, 517.4326
290.2290, 598.8076
291.4380, 607.0088
292.6480, 630.3682
293.8570, 761.7598
295.0670, 824.3105
296.2760, 935.9795
297.4850, 1248.018
298.6930, 1247.554
299.9020, 1517.453
301.1110, 1828.008
302.3190, 2017.764
303.5270, 2208.892
304.7350, 2484.094
305.9430, 2857.513
307.1510, 3299.191
308.3580, 3703.903
309.5660, 4194.475
310.7730, 4793.859
311.9800, 5275.875
313.1870, 5884.891
314.3940, 6573.287
315.6010, 7209.334
316.8070, 7692.395
318.0130, 8069.475
319.2200, 8374.776
320.4260, 8481.712
321.6310, 8622.862
322.8370, 8469.030
324.0430, 8270.207
325.2480, 7714.394
326.4540, 7300.771
327.6590, 6752.205
328.8640, 6116.416
330.0680, 5691.635
331.2730, 5164.163
332.4780, 4566.387
333.6820, 4289.629
334.8860, 3975.877
336.0900, 3670.131
337.2940, 3523.391
338.4980, 3316.659
339.7010, 3094.933
340.9050, 3153.210
342.1080, 3084.491
343.3110, 3205.777
344.5140, 3338.068
345.7170, 3188.365
346.9200, 3398.666
348.1220, 3668.967
349.3240, 3707.271
350.5270, 3837.575
351.7290, 3856.352
352.9310, 3831.122
354.1320, 3631.704
355.3340, 3824.650
356.5350, 3742.608
357.7370, 3806.914
358.9380, 3610.219
360.1390, 3404.837
361.3400, 3129.145
362.5400, 3126.042
363.7410, 2811.350
364.9410, 2693.658
366.1410, 2624.966
367.3410, 2432.276
368.5410, 2479.586
369.7410, 2391.894
370.9400, 2411.203
372.1400, 2324.513
373.3390, 2402.821
374.5380, 2777.130
375.7370, 3116.438
376.9360, 3376.745
378.1350, 3673.052
379.3330, 4004.358
380.5310, 4506.664
381.7300, 4759.969
382.9280, 5075.274
384.1260, 5416.580
385.3230, 5347.887
386.5210, 5390.191
387.7180, 5431.498
388.9160, 5230.805
390.1130, 5078.112
391.3100, 4633.416
392.5060, 4045.725
393.7030, 3711.030
394.9000, 3066.336
396.0960, 2443.641
397.2920, 2082.945
398.4880, 1786.250
399.6840, 1221.554
400.8800, 1267.855
402.0750, 770.1572
403.2710, 763.4590
404.4660, 611.7588
405.6610, 485.0566
406.8560, 391.3535
408.0510, 403.6494
409.2450, 217.9463
410.4400, 464.2402
411.6340, 327.5312
412.8280, 84.81738
414.0220, 195.0986
415.2160, 401.3750
416.4100, 59.46191
417.6030, 141.7266
418.7970, 116.9854
419.9900, 49.76172
421.1830, 209.4512
422.3760, 31.66016
423.5690, 63.85938
424.7610, 28.05371
425.9540, 33.23730
427.1460, 13.41504
428.3380, 139.4180
429.5300, 80.33691
430.7220, 219.3096
431.9140, 108.4111
433.1050, 55.58203
434.2970, 20.79590
435.4880, 55.03320
436.6790, 41.68652
437.8700, 105.6006
439.0610, 9.044922
440.2510, 65.32031
441.4420, 24.26758
442.6320, 0.8476560
443.8220, 24.41309
445.0120, 5.969727
446.2020, 23.67773
447.3910, 17.01660
448.5810, 42.76172
449.7700, 45.48730
450.9600, 21.24316
452.1490, 119.5898
453.3370, 62.34375
454.5260, 136.4775
455.7150, 285.5010
456.9030, 26.97266
458.0910, 257.9160
459.2800, 299.2617
460.4670, 124.5771
461.6550, 218.6963
462.8430, 253.3496
464.0300, 177.8643
465.2180, 244.7246
466.4050, 122.1719
467.5920, 134.8438
468.7790, 73.66211
469.9650, 63.40039
471.1520, 130.3555
472.3380, 201.1572
473.5250, 49.95996
474.7110, 121.7705
475.8970, 137.5879
477.0820, 158.3965
478.2680, 145.2324
479.4540, 123.0654
480.6390, 158.8379
481.8240, 177.7910
483.0090, 193.6494
484.1940, 254.4990
485.3780, 232.3398
486.5630, 171.1729
487.7470, 236.0010
488.9320, 357.8223
490.1160, 284.6318
491.3000, 584.4307
492.4830, 692.2207
493.6670, 858.0186
494.8500, 1013.807
496.0340, 1246.622
497.2170, 1633.485
498.4000, 1981.360
499.5820, 1999.228
500.7650, 2478.088
501.9480, 2544.938
503.1300, 2656.793
504.3120, 2530.634
505.4940, 2550.316
506.6760, 2559.286
507.8580, 2337.094
509.0390, 2252.887
510.2210, 1966.666
511.4020, 1809.434
512.5830, 1497.186
513.7640, 1352.926
514.9450, 1130.652
516.1250, 1030.363
517.3060, 1009.061
518.4860, 993.7432
519.6660, 1032.438
520.8460, 995.1191
522.0260, 1057.604
523.2060, 1035.470
524.3850, 1148.166
525.5650, 1208.864
526.7440, 1211.251
527.9230, 1090.284
529.1020, 1117.997
530.2810, 1124.713
531.4590, 1000.417
532.6380, 995.1035
533.8160, 1174.775
534.9940, 1100.431
536.1720, 975.0781
537.3500, 1225.706
538.5270, 949.3574
539.7050, 971.9922
540.8820, 945.6094
542.0590, 994.2100
543.2360, 1025.793
544.4130, 1041.358
545.5900, 1019.906
546.7660, 1115.437
547.9430, 1138.518
549.1190, 1411.441
550.2950, 1196.915
551.4710, 1348.373
552.6470, 1254.812
553.8220, 1376.232
554.9980, 1512.634
556.1730, 1191.017
557.3480, 1383.380
558.5230, 1191.615
559.6980, 1162.941
560.8730, 1250.249
562.0470, 1089.761
563.2220, 1134.028
564.3960, 1001.035
565.5700, 890.1543
566.7440, 797.0957
567.9170, 745.0420
569.0910, 700.8096
570.2640, 782.4824
571.4380, 725.8350
572.6110, 673.4385
573.7840, 575.9805
574.9570, 579.8164
576.1290, 496.8164
577.3020, 328.6465
578.4740, 365.4375
579.6460, 365.0576
580.8180, 327.6719
581.9900, 378.7861
583.1620, 386.3926
584.3330, 291.6885
585.5040, 294.6279
586.6760, 185.1191
587.8470, 211.8018
589.0180, 93.64258
590.1880, 88.24316
591.3590, 86.41602
592.5290, 15.34375
593.7000, 126.1289
594.8700, 32.06543
596.0400, 68.39746
597.2090, 24.87598
598.3790, 86.26562
599.5490, 34.15039
600.7180, 1.143555
601.8870, 13.34180
603.0560, 53.66992
604.2250, 1.958008
605.3940, 11.68750
606.5620, 33.65234
607.7300, 184.7188
608.8990, 143.5723
610.0670, 194.4424
611.2350, 142.7139
612.4020, 237.0293
613.5700, 298.9707
614.7370, 353.2197
615.9050, 433.5273
617.0720, 409.7891
618.2390, 381.5430
619.4060, 489.7998
620.5720, 560.6133
621.7390, 695.0566
622.9050, 652.1299
624.0710, 757.1104
625.2370, 887.3018
626.4030, 1013.630
627.5690, 976.5938
628.7340, 1060.096
629.9000, 1174.936
631.0650, 1156.883
632.2300, 1390.667
633.3950, 1460.767
634.5600, 1626.493
635.7240, 1749.806
636.8890, 2048.045
638.0530, 2039.587
639.2170, 2365.197
640.3810, 2481.146
641.5450, 2847.696
642.7080, 3033.355
643.8720, 3597.846
645.0350, 3865.306
646.1980, 4362.737
647.3610, 5212.136
648.5240, 5773.508
649.6870, 6752.847
650.8490, 7824.158
652.0120, 9377.438
653.1740, 11497.69
654.3360, 13650.90
655.4980, 16538.10
656.6600, 19622.25
657.8210, 22892.38
658.9830, 25938.18
660.1440, 28997.25
661.3050, 31100.28
662.4660, 32848.36
663.6270, 33475.61
664.7870, 33419.13
665.9480, 32417.79
667.1080, 30397.70
668.2680, 28017.33
669.4280, 24741.65
670.5880, 21408.13
671.7480, 18222.89
672.9070, 15219.61
674.0670, 12514.30
675.2260, 10533.30
676.3850, 8844.926
677.5440, 7615.141
678.7030, 6356.763
679.8610, 5414.285
681.0200, 4649.777
682.1780, 4013.234
683.3360, 3440.660
684.4940, 3037.053
685.6520, 2796.412
686.8090, 2523.740
687.9670, 2151.035
689.1240, 2054.298
690.2810, 1782.528
691.4380, 1610.726
692.5950, 1307.891
693.7520, 1389.023
694.9080, 1279.125
696.0650, 1073.195
697.2210, 950.2324
698.3770, 936.2383
699.5330, 837.2129
700.6880, 922.1562
701.8440, 793.0850
702.9990, 740.9814
704.1550, 683.8486
705.3100, 490.6846
706.4650, 580.4902
707.6190, 525.2656
708.7740, 544.0127
709.9290, 638.7705
711.0830, 418.5225
712.2370, 312.3047
713.3910, 483.0908
714.5450, 413.8652
715.6980, 314.6191
716.8520, 390.3623
718.0050, 299.0752
719.1580, 172.7910
720.3110, 300.4766
721.4640, 230.1562
722.6170, 181.8066
723.7700, 196.4316
724.9220, 98.02734
726.0740, 153.4629
727.2260, 107.1289
728.3780, 196.4873
729.5300, 43.79199
730.6810, 28.95801
731.8330, 133.3311
732.9840, 51.81055
734.1350, 4.467773
735.2860, 63.31250
736.4370, 144.6094
737.5880, 43.39844
738.7380, 138.7451
739.8880, 17.08887
741.0390, 120.5830
742.1890, 20.49023
743.3380, 91.52441
744.4880, 4.156250
745.6380, 19.15430
746.7870, 108.1123
747.9360, 112.5996
749.0850, 105.0840
750.2340, 119.4375
751.3830, 13.44238
752.5310, 30.29883
753.6800, 12.10352
754.8280, 94.03906
755.9760, 101.8428
757.1240, 18.17676
758.2720, 105.8408
759.4190, 5.958008
760.5670, 15.87891
761.7140, 167.6816
762.8610, 45.46289
764.0080, 29.21777
765.1550, 9.947266
766.3020, 17.64258
767.4480, 96.30859
768.5950, 53.11426
769.7410, 110.3174
770.8870, 48.82031
772.0330, 164.7227
773.1780, 23.75293
774.3240, 40.27539
775.4690, 46.84961
776.6140, 106.5225
777.7590, 9.125000
778.9040, 139.1953
780.0490, 18.49609
781.1940, 61.78027
782.3380, 168.0459
783.4820, 64.29492
784.6260, 78.52734
785.7700, 142.7432
786.9140, 58.94434
788.0580, 124.1309
789.2010, 74.30078
790.3450, 81.45605
791.4880, 62.59766
792.6310, 56.72559
793.7730, 105.8389
794.9160, 29.93945
796.0590, 99.97363
797.2010, 7.050781
798.3430, 123.0596
799.4850, 141.9424
800.6270, 99.02734
801.7690, 73.17188
802.9100, 109.3623
804.0520, 83.66504
805.1930, 81.15527
806.3340, 78.26270
807.4750, 26.65332
808.6160, 4.939453
809.7560, 109.5225
810.8970, 62.09668
812.0370, 46.33887
813.1770, 108.2031
814.3170, 171.2617
815.4570, 2.809570
816.5960, 43.63379
817.7360, 189.0703
818.8750, 171.5010
820.0140, 92.92676
821.1530, 252.3457
822.2920, 196.7607
823.4310, 215.1699
824.5690, 207.5762
825.7070, 311.9766
826.8460, 143.3740
827.9840, 155.7686
829.1220, 270.1592
830.2590, 291.5479
831.3970, 150.9336
832.5340, 215.3193
833.6710, 76.70215
834.8080, 113.0840
835.9450, 240.4648
837.0820, 218.8467
838.2190, 259.2275
839.3550, 344.6104
840.4910, 232.9922
841.6270, 422.3770
842.7630, 487.7617
843.8990, 628.1484
845.0350, 793.5381
846.1700, 819.9297
847.3060, 1101.715
848.4410, 1515.723
849.5760, 1663.123
850.7100, 1843.525
851.8450, 2234.934
852.9800, 2174.344
854.1140, 2277.757
855.2480, 2262.176
856.3820, 2330.478
857.5160, 2211.905
858.6500, 1978.339
859.7830, 1917.716
860.9170, 1878.160
862.0500, 1705.104
863.1830, 1576.400
864.3160, 1401.471
865.4480, 1253.941
866.5810, 1277.837
867.7130, 1162.815
868.8460, 1090.297
869.9780, 998.5889
871.1100, 1074.354
872.2410, 941.0918
873.3730, 994.5430
874.5050, 936.8486
875.6360, 1086.320
876.7670, 1163.678
877.8980, 938.1465
879.0290, 1018.543
880.1590, 975.9883
881.2900, 1058.100
882.4200, 1180.096
883.5500, 1146.300
884.6800, 1044.292
885.8100, 1091.290
886.9400, 1074.547
888.0690, 1019.630
889.1990, 1048.105
890.3280, 924.8057
891.4570, 852.5479
892.5860, 894.7920
893.7140, 911.5322
894.8430, 1032.711
895.9710, 956.2520
897.1000, 853.1582
898.2280, 780.1523
899.3560, 882.9297
900.4830, 919.5654
901.6110, 908.5801
902.7380, 750.0576
903.8660, 781.2031
904.9930, 835.2539
906.1200, 777.4736
907.2460, 805.4209
908.3730, 718.7461
909.5000, 764.4814
910.6260, 667.3096
911.7520, 575.8457
912.8780, 682.3096
914.0040, 428.4453
915.1290, 488.0225
916.2550, 553.4893
917.3800, 427.1250
918.5050, 537.7881
919.6300, 470.4814
920.7550, 606.2441
921.8800, 608.0352
923.0040, 513.8613
924.1290, 584.7656
925.2530, 548.7314
926.3770, 662.7275
927.5010, 569.7686
928.6250, 598.8398
929.7480, 467.9404
930.8720, 453.7090
931.9950, 319.5918
933.1180, 409.8203
934.2410, 389.0801
935.3640, 445.3037
936.4860, 449.3457
937.6090, 371.1367
938.7310, 386.7842
939.8530, 200.1758
940.9750, 393.8721
942.0970, 385.8848
943.2180, 253.7256
944.3400, 276.3203
945.4610, 471.9619
946.5820, 480.6514
947.7030, 572.3955
948.8240, 416.8574
949.9450, 690.0811
951.0650, 571.9014
952.1860, 595.8340
953.3060, 695.8047
954.4260, 650.8135
955.5460, 733.8740
956.6650, 765.9932
957.7850, 904.1113
958.9040, 863.2988
960.0230, 1041.526
961.1420, 1134.792
962.2610, 1057.096
963.3800, 1165.452
964.4990, 1367.848
965.6170, 1134.306
966.7350, 1233.812
967.8530, 1142.359
968.9710, 1286.962
970.0890, 1312.605
971.2070, 1287.348
972.3240, 1411.129
973.4410, 1573.949
974.5580, 1479.822
975.6750, 1587.734
976.7920, 1733.688
977.9090, 1695.682
979.0250, 1987.715
980.1410, 1864.791
981.2580, 1991.910
982.3740, 2175.070
983.4890, 2456.268
984.6050, 2326.506
985.7200, 2623.785
986.8360, 2808.105
987.9510, 3007.465
989.0660, 3293.863
990.1810, 3360.303
991.2950, 3935.783
992.4100, 4469.311
993.5240, 4818.879
994.6390, 5667.488
995.7530, 6416.137
996.8660, 7345.828
997.9800, 8620.562
999.0940, 9949.336
1000.207, 11638.15
1001.320, 13464.02
1002.433, 16049.95
1003.546, 19461.96
1004.659, 23060.04
1005.772, 27091.16
1006.884, 31462.33
1007.996, 34885.54
1009.108, 37947.79
1010.220, 40077.09
1011.332, 40237.44
1012.444, 39731.82
1013.555, 37123.28
1014.666, 33872.77
1015.777, 29163.32
1016.888, 25157.91
1017.999, 20970.58
1019.110, 17037.34
1020.220, 14393.18
1021.331, 11704.10
1022.441, 10260.07
1023.551, 8849.098
1024.661, 7822.184
1025.770, 7174.613
1026.880, 6587.496
1027.989, 6005.740
1029.098, 5810.064
1030.207, 5431.438
1031.316, 5265.855
1032.425, 5102.312
1033.533, 5250.811
1034.642, 5109.072
1035.750, 5269.014
1036.858, 5388.859
1037.966, 5539.514
1039.073, 5707.236
1040.181, 5609.893
1041.288, 5605.902
1042.396, 5738.734
1043.503, 5468.180
1044.610, 5327.062
1045.716, 5125.047
1046.823, 4803.557
1047.929, 4513.936
1049.036, 4100.029
1050.142, 3930.574
1051.248, 3448.740
1052.353, 3134.941
1053.459, 2772.473
1054.564, 2753.738
1055.670, 2432.916
1056.775, 2273.363
1057.880, 2151.000
1058.985, 1980.393
1060.089, 1877.744
1061.194, 1663.197
1062.298, 1644.379
1063.402, 1706.953
1064.506, 1573.434
1065.610, 1444.236
1066.713, 1343.863
1067.817, 1261.520
1068.920, 1206.238
1070.023, 1111.012
1071.126, 1178.828
1072.229, 1044.699
1073.332, 1078.078
1074.435, 1001.041
1075.537, 1015.047
1076.639, 1049.895
1077.741, 988.1484
1078.843, 1010.467
1079.945, 890.8770
1081.046, 1081.078
1082.148, 903.2500
1083.249, 778.4844
1084.350, 780.8984
1085.451, 925.1816
1086.551, 792.4902
1087.652, 1131.980
1088.752, 934.3340
1089.853, 879.7070
1090.953, 705.9609
1092.053, 720.3809
1093.152, 636.8223
1094.252, 646.1250
1095.351, 745.8945
1096.451, 740.4004
1097.550, 785.0742
1098.649, 874.0156
1099.748, 795.5781
1100.846, 860.0234
1101.945, 850.6270
1103.043, 751.2383
1104.141, 805.8770
1105.239, 720.8906
1106.337, 454.9551
1107.434, 618.6426
1108.532, 592.3496
1109.629, 548.2168
1110.726, 729.9531
1111.823, 783.8398
1112.920, 750.6074
1114.017, 771.3906
1115.113, 860.1875
1116.210, 867.0000
1117.306, 1039.824
1118.402, 880.6641
1119.498, 1071.518
1120.593, 1189.385
1121.689, 1052.266
1122.784, 1162.158
1123.879, 1154.359
1124.974, 1273.277
1126.069, 1058.207
1127.164, 1076.146
1128.259, 927.0996
1129.353, 789.0645
1130.447, 646.0391
1131.541, 732.0234
1132.635, 487.0195
1133.729, 636.0254
1134.822, 602.0410
1135.916, 546.0664
1137.009, 427.0996
1138.102, 313.1406
1139.195, 450.1914
1140.288, 494.2500
1141.380, 374.3164
1142.473, 225.3887
1143.565, 291.4688
1144.657, 361.5586
1145.749, 224.6523
1146.841, 272.2754
1147.932, 204.3809
1149.024, 171.4922
1150.115, 179.6113
1151.206, 164.7324
1152.297, 116.3730
1153.388, 153.5039
1154.479, 46.63672
1155.569, 27.77148
1156.659, 15.08203
1157.750, 26.93555
1158.839, 10.20312
1159.929, 7.343750
1161.019, 69.48633
1162.108, 40.62891
1163.198, 66.77148
1164.287, 36.11523
1165.376, 81.93945
1166.465, 35.83203
1167.553, 51.73828
1168.642, 64.66602
1169.730, 45.62305
1170.818, 191.5996
1171.906, 27.52930
1172.994, 120.4688
1174.082, 85.62500
1175.170, 56.75977
1176.257, 58.07227
1177.344, 48.09766
1178.431, 170.2988
1179.518, 81.41406
1180.605, 3.208984
1181.691, 53.48828
1182.778, 84.18359
1183.864, 149.1270
1184.950, 43.47461
1186.036, 7.925781
1187.122, 174.3438
1188.207, 111.8633
1189.292, 41.54688
1190.378, 40.04688
1191.463, 83.32227
1192.548, 47.68555
1193.632, 81.95508
1194.717, 1.658203
1195.801, 14.62500
1196.886, 140.8965
1197.970, 111.1230
1199.054, 88.41406
1200.137, 76.66211
1201.221, 104.9023
1202.305, 87.13281
1203.388, 35.64648
1204.471, 75.53516
1205.554, 122.7051
1206.637, 38.13086
1207.719, 4.984375
1208.802, 10.92383
1209.884, 42.86328
1210.966, 85.85156
1212.048, 89.08594
1213.130, 113.0137
1214.212, 5.068359
1215.293, 157.8164
1216.374, 74.68750
1217.456, 18.45312
1218.536, 132.3691
1219.617, 111.1758
1220.698, 11.02930
1221.778, 196.7285
1222.859, 88.47070
1223.939, 177.2031
1225.019, 12.07812
1226.099, 133.5996
1227.178, 42.73633
1228.258, 1.867188
1229.337, 166.4375
1230.417, 20.00586
1231.496, 170.5000
1232.574, 180.0059
1233.653, 106.3555
1234.732, 101.7012
1235.810, 1.035156
1236.888, 240.3262
1237.966, 181.6094
1239.044, 66.87305
1240.122, 189.1211
1241.199, 36.35352
1242.277, 213.5605
1243.354, 202.7559
1244.431, 121.9336
1245.508, 275.0957
1246.585, 152.2617
1247.661, 276.4102
1248.738, 459.5469
1249.814, 242.6660
1250.890, 361.7695
1251.966, 98.85938
1253.042, 40.93359
1254.117, 158.9766
1255.193, 123.0098
1256.268, 297.0293
1257.343, 228.0293
1258.418, 183.0176
1259.493, 286.0000
1260.567, 298.9668
1261.642, 252.9199
1262.716, 149.8516
1263.790, 245.7734
1264.864, 206.6758
1265.938, 277.5625
1267.011, 236.4355
1268.085, 162.2910
1269.158, 284.1289
1270.231, 305.9512
1271.304, 216.7578
1272.377, 308.5469
1273.450, 275.3242
1274.522, 214.0840
1275.594, 80.82617
1276.666, 302.5527
1277.738, 300.2637
1278.810, 206.9590
1279.882, 295.6387
1280.953, 84.30078
1282.025, 186.9375
1283.096, 197.5586
1284.167, 183.1660
1285.238, 281.5645
1286.308, 311.8301
1287.379, 347.7051
1288.449, 284.2441
1289.519, 291.7656
1290.589, 205.2695
1291.659, 263.7559
1292.729, 157.2246
