##NAMES=Diopside
##RRUFFID=R060171
##IDEAL CHEMISTRY=CaMgSi_2_O_6_
##LOCALITY=Jeffrey mine, Asbestos, Quebec, Canada
##OWNER=RRUFF
##SOURCE=Guy Ouellet
##DESCRIPTION=Yellowish-brown tabular crystals associated with vesuvianite, R060170
##STATUS=The identification of this mineral has been confirmed by X-ray diffraction and chemical analysis
##URL=rruff.info/R060171
##MEASURED CHEMISTRY=Ca_1.00_(Mg_0.98_Mn_0.02_)_Î£=1_Si_2.00_O_6_
##PIN_ID=L00630
##ORIENTATION=Laser parallel to (-1 0 -1). Fiducial mark perpendicular to laser is parallel to -b [0 -1 0]
109.5120, 0.0000000E+00
110.7440, 3.815430
111.9760, 14.72852
113.2080, 4.835938
114.4400, 66.69824
115.6710, 219.7734
116.9030, 288.4648
118.1340, 166.7832
119.3650, 215.3125
120.5960, 151.0049
121.8270, 240.0664
123.0580, 240.8740
124.2880, 348.9277
125.5190, 447.8213
126.7490, 546.2246
127.9790, 625.8643
129.2090, 625.5098
130.4390, 920.9639
131.6680, 1270.068
132.8980, 1241.676
134.1270, 1747.649
135.3560, 2234.867
136.5850, 3467.226
137.8140, 4781.636
139.0430, 7744.022
140.2710, 12659.32
141.5000, 19012.46
142.7280, 22993.41
143.9560, 20072.11
145.1840, 13695.51
146.4120, 8409.584
147.6390, 4850.268
148.8670, 3114.505
150.0940, 2014.308
151.3210, 1632.740
152.5490, 1184.692
153.7750, 1068.094
155.0020, 811.9521
156.2290, 796.2129
157.4550, 695.8154
158.6810, 624.7520
159.9080, 621.0107
161.1340, 690.5908
162.3590, 642.4854
163.5850, 788.6816
164.8110, 869.1709
166.0360, 1220.947
167.2610, 1118.216
168.4860, 1177.348
169.7110, 948.9609
170.9360, 807.8369
172.1610, 555.9756
173.3850, 450.3682
174.6100, 285.0088
175.8340, 447.8896
177.0580, 228.0010
178.2820, 449.3359
179.5050, 388.8887
180.7290, 514.6504
181.9520, 648.6143
183.1760, 1044.727
184.3990, 1116.757
185.6220, 938.7676
186.8450, 592.7930
188.0670, 582.8564
189.2900, 563.2607
190.5120, 403.2422
191.7340, 604.1885
192.9560, 262.4385
194.1780, 421.2207
195.4000, 352.4424
196.6220, 442.9297
197.8430, 426.0693
199.0640, 314.6484
200.2860, 388.5469
201.5070, 332.4912
202.7270, 486.7451
203.9480, 446.9121
205.1690, 275.2461
206.3890, 221.7705
207.6090, 308.4502
208.8290, 97.25488
210.0490, 189.2393
211.2690, 295.4453
212.4890, 75.78516
213.7080, 277.2822
214.9280, 266.8779
216.1470, 186.5713
217.3660, 258.3662
218.5850, 248.2930
219.8030, 284.2520
221.0220, 347.4062
222.2400, 413.7256
223.4590, 542.1855
224.6770, 569.8506
225.8950, 1006.683
227.1120, 1215.603
228.3300, 1725.602
229.5480, 2550.686
230.7650, 3530.854
231.9820, 4218.152
233.1990, 4291.633
234.4160, 3589.248
235.6330, 2521.934
236.8490, 1740.735
238.0660, 1194.602
239.2820, 909.5322
240.4980, 518.5234
241.7140, 383.5752
242.9300, 329.6875
244.1460, 279.8594
245.3610, 305.0908
246.5770, 295.3799
247.7920, 257.7256
249.0070, 350.1260
250.2220, 354.5820
251.4370, 187.0918
252.6510, 532.6543
253.8660, 417.2695
255.0800, 852.9365
256.2940, 867.6914
257.5080, 980.1230
258.7220, 875.2490
259.9360, 626.1904
261.1490, 268.6211
262.3630, 205.4463
263.5760, 146.6182
264.7890, 154.1035
266.0020, 71.87207
267.2150, 20.09961
268.4270, 51.16504
269.6400, 143.6494
270.8520, 104.6592
272.0640, 127.7861
273.2760, 27.25977
274.4880, 42.47461
275.7000, 47.84961
276.9120, 67.62402
278.1230, 144.0420
279.3340, 91.15527
280.5450, 35.22754
281.7560, 27.82227
282.9670, 109.9922
284.1780, 95.68555
285.3880, 33.38867
286.5980, 50.10938
287.8090, 46.68652
289.0190, 113.9932
290.2290, 152.7871
291.4380, 158.0850
292.6480, 75.06738
293.8570, 14.86523
295.0670, 34.28320
296.2760, 135.5117
297.4850, 233.8184
298.6930, 488.6104
299.9020, 595.6445
301.1110, 930.7422
302.3190, 1343.337
303.5270, 2053.407
304.7350, 2512.134
305.9430, 2304.078
307.1510, 1657.931
308.3580, 1236.844
309.5660, 1166.492
310.7730, 1038.046
311.9800, 1195.861
313.1870, 1366.062
314.3940, 1667.161
315.6010, 1909.648
316.8070, 2267.994
318.0130, 2699.390
319.2200, 3487.833
320.4260, 5137.322
321.6310, 6819.859
322.8370, 9530.715
324.0430, 12611.34
325.2480, 14597.01
326.4540, 14410.72
327.6590, 12267.64
328.8640, 9005.746
330.0680, 6225.438
331.2730, 4357.895
332.4780, 3100.074
333.6820, 2236.029
334.8860, 1931.096
336.0900, 1471.961
337.2940, 1284.715
338.4980, 971.2988
339.7010, 1032.684
340.9050, 733.2617
342.1080, 758.5664
343.3110, 675.7773
344.5140, 632.0195
345.7170, 817.2852
346.9200, 791.6211
348.1220, 911.9551
349.3240, 1102.324
350.5270, 1145.990
351.7290, 1656.426
352.9310, 2138.822
354.1320, 3068.486
355.3340, 4209.852
356.5350, 5928.256
357.7370, 7425.012
358.9380, 8272.629
360.1390, 8509.441
361.3400, 8037.127
362.5400, 6985.820
363.7410, 6224.539
364.9410, 5243.283
366.1410, 4532.051
367.3410, 4452.844
368.5410, 4428.660
369.7410, 4485.498
370.9400, 4048.357
372.1400, 3122.236
373.3390, 2551.137
374.5380, 2167.057
375.7370, 1913.996
376.9360, 1953.955
378.1350, 2049.932
379.3330, 2238.926
380.5310, 2414.938
381.7300, 2901.969
382.9280, 3668.014
384.1260, 4450.074
385.3230, 5918.150
386.5210, 7868.246
387.7180, 10939.35
388.9160, 15228.48
390.1130, 19797.61
391.3100, 22343.77
392.5060, 21128.94
393.7030, 16737.12
394.9000, 12093.31
396.0960, 8179.521
397.2920, 5721.742
398.4880, 4238.977
399.6840, 2814.225
400.8800, 2080.514
402.0750, 1942.852
403.2710, 1504.236
404.4660, 1095.658
405.6610, 1021.117
406.8560, 822.6113
408.0510, 794.1406
409.2450, 545.6992
410.4400, 422.2930
411.6340, 547.7539
412.8280, 298.4043
414.0220, 360.0781
415.2160, 323.2227
416.4100, 234.8438
417.6030, 153.5938
418.7970, 288.3691
419.9900, 265.1660
421.1830, 381.1504
422.3760, 78.99414
423.5690, 116.5430
424.7610, 138.0820
425.9540, 203.9844
427.1460, 263.9062
428.3380, 11.15625
429.5300, 259.4648
430.7220, 47.57031
431.9140, 183.8633
433.1050, 163.9336
434.2970, 21.00586
435.4880, 82.06641
436.6790, 122.1094
437.8700, 73.00000
439.0610, 36.02930
440.2510, 176.0723
441.4420, 14.64062
442.6320, 78.49805
443.8220, 57.47070
445.0120, 178.7246
446.2020, 52.24609
447.3910, 134.7793
448.5810, 4.201172
449.7700, 81.81445
450.9600, 163.8418
452.1490, 200.1191
453.3370, 7.035156
454.5260, 50.09375
455.7150, 36.82227
456.9030, 8.744141
458.0910, 55.23047
459.2800, 144.6582
460.4670, 84.55469
461.6550, 77.45312
462.8430, 70.36133
464.0300, 181.2773
465.2180, 35.19922
466.4050, 101.1250
467.5920, 224.0566
468.7790, 63.99219
469.9650, 12.93750
471.1520, 38.87500
472.3380, 56.18750
473.5250, 31.73828
474.7110, 80.32812
475.8970, 104.5527
477.0820, 1.537109
478.2680, 51.64258
479.4540, 66.78906
480.6390, 62.18359
481.8240, 38.74414
483.0090, 15.53516
484.1940, 60.27539
485.3780, 81.01758
486.5630, 137.7598
487.7470, 79.51172
488.9320, 30.26367
490.1160, 223.0098
491.3000, 81.75586
492.4830, 26.50781
493.6670, 167.2500
494.8500, 130.0098
496.0340, 8.664063
497.2170, 75.68359
498.4000, 3.087891
499.5820, 72.48438
500.7650, 205.0527
501.9480, 74.62500
503.1300, 40.80469
504.3120, 195.7168
505.4940, 168.2422
506.6760, 256.7695
507.8580, 250.3301
509.0390, 248.8926
510.2210, 334.4531
511.4020, 440.0273
512.5830, 373.5996
513.7640, 371.1699
514.9450, 324.7383
516.1250, 272.3066
517.3060, 386.8711
518.4860, 400.4316
519.6660, 421.9922
520.8460, 309.5488
522.0260, 280.1035
523.2060, 255.6582
524.3850, 281.2109
525.5650, 305.0742
526.7440, 354.3359
527.9230, 408.8965
529.1020, 519.4746
530.2810, 584.0527
531.4590, 714.6270
532.6380, 705.2344
533.8160, 433.8457
534.9940, 594.4531
536.1720, 390.0586
537.3500, 421.6582
538.5270, 208.2539
539.7050, 263.8418
540.8820, 219.4238
542.0590, 123.9980
543.2360, 179.5645
544.4130, 286.1270
545.5900, 318.6797
546.7660, 257.2227
547.9430, 204.7656
549.1190, 413.2969
550.2950, 205.8223
551.4710, 498.3398
552.6470, 198.8477
553.8220, 276.3457
554.9980, 543.8379
556.1730, 662.3164
557.3480, 790.7969
558.5230, 1255.275
559.6980, 1340.746
560.8730, 1780.205
562.0470, 1411.652
563.2220, 917.0918
564.3960, 781.5195
565.5700, 644.9414
566.7440, 258.3555
567.9170, 348.7539
569.0910, 444.1387
570.2640, 345.5703
571.4380, 229.9316
572.6110, 269.6738
573.7840, 243.0117
574.9570, 132.3438
576.1290, 14.76367
577.3020, 135.4941
578.4740, 242.7402
579.6460, 176.9727
580.8180, 252.1895
581.9900, 121.9375
583.1620, 132.7109
584.3330, 295.3633
585.5040, 119.7148
586.6760, 147.8516
587.8470, 133.7012
589.0180, 284.8086
590.1880, 177.7441
591.3590, 207.8223
592.5290, 234.2598
593.7000, 40.10742
594.8700, 414.7070
596.0400, 128.9688
597.2090, 145.0605
598.3790, 25.88672
599.5490, 217.7910
600.7180, 153.6465
601.8870, 130.6016
603.0560, 156.9180
604.2250, 170.2891
605.3940, 176.5547
606.5620, 241.2930
607.7300, 202.3496
608.8990, 280.3496
610.0670, 288.4805
611.2350, 302.0117
612.4020, 222.7148
613.5700, 241.4609
614.7370, 310.2266
615.9050, 274.6348
617.0720, 346.6348
618.2390, 197.6309
619.4060, 393.4629
620.5720, 245.3652
621.7390, 314.7461
622.9050, 629.0664
624.0710, 513.2051
625.2370, 335.9824
626.4030, 446.7480
627.5690, 445.9316
628.7340, 538.0508
629.9000, 596.7773
631.0650, 651.6055
632.2300, 750.7246
633.3950, 648.2383
634.5600, 616.9180
635.7240, 685.5137
636.8890, 820.2090
638.0530, 842.8477
639.2170, 800.7910
640.3810, 758.5723
641.5450, 946.4551
642.7080, 1056.633
643.8720, 1249.904
645.0350, 1194.199
646.1980, 1493.059
647.3610, 1496.975
648.5240, 1698.953
649.6870, 1946.154
650.8490, 2320.729
652.0120, 2632.098
653.1740, 3151.084
654.3360, 3660.143
655.4980, 4183.605
656.6600, 5159.051
657.8210, 6368.631
658.9830, 7706.168
660.1440, 9650.664
661.3050, 12139.66
662.4660, 15545.60
663.6270, 19572.04
664.7870, 24112.80
665.9480, 27967.50
667.1080, 30357.90
668.2680, 29783.62
669.4280, 27076.75
670.5880, 22928.39
671.7480, 18347.83
672.9070, 14489.52
674.0670, 11426.34
675.2260, 8931.113
676.3850, 7155.473
677.5440, 5658.783
678.7030, 4764.797
679.8610, 4064.623
681.0200, 3473.658
682.1780, 2888.379
683.3360, 2607.805
684.4940, 2055.502
685.6520, 1929.205
686.8090, 1824.385
687.9670, 1466.057
689.1240, 1383.842
690.2810, 1323.082
691.4380, 1318.697
692.5950, 1024.348
693.7520, 905.0781
694.9080, 868.6211
696.0650, 962.0410
697.2210, 904.7090
698.3770, 706.2695
699.5330, 543.2422
700.6880, 482.6582
701.8440, 597.0488
702.9990, 549.4121
704.1550, 707.7500
705.3100, 722.0605
706.4650, 751.3438
707.6190, 731.6016
708.7740, 695.4629
709.9290, 667.0410
711.0830, 638.2227
712.2370, 555.3887
713.3910, 648.5293
714.5450, 359.5664
715.6980, 438.5723
716.8520, 417.5938
718.0050, 484.6270
719.1580, 422.4453
720.3110, 78.61133
721.4640, 242.3223
722.6170, 171.1602
723.7700, 4.923828
724.9220, 208.7773
726.0740, 157.6250
727.2260, 256.4414
728.3780, 320.2480
729.5300, 314.0293
730.6810, 104.7852
731.8330, 132.5059
732.9840, 111.1113
734.1350, 340.8301
735.2860, 150.5371
736.4370, 244.2129
737.5880, 343.7578
738.7380, 270.3984
739.8880, 166.0137
741.0390, 82.59766
742.1890, 74.65234
743.3380, 140.1699
744.4880, 87.94922
745.6380, 129.6328
746.7870, 141.0547
747.9360, 106.7988
749.0850, 43.94727
750.2340, 130.1504
751.3830, 61.35547
752.5310, 9.640625
753.6800, 221.5684
754.8280, 68.48242
755.9760, 108.4434
757.1240, 200.2812
758.2720, 263.1133
759.4190, 36.04883
760.5670, 217.6191
761.7140, 15.89453
762.8610, 133.0605
764.0080, 163.2168
765.1550, 10.10742
766.3020, 80.70508
767.4480, 156.0488
768.5950, 137.9375
769.7410, 10.53516
770.8870, 145.2520
772.0330, 166.1621
773.1780, 34.19727
774.3240, 117.1719
775.4690, 39.50000
776.6140, 128.0801
777.7590, 86.63477
778.9040, 14.37305
780.0490, 222.8496
781.1940, 258.2930
782.3380, 46.72656
783.4820, 12.12305
784.6260, 107.5273
785.7700, 72.01367
786.9140, 269.6016
788.0580, 39.42383
789.2010, 190.6777
790.3450, 66.38867
791.4880, 57.33984
792.6310, 161.4590
793.7730, 162.6230
794.9160, 126.2891
796.0590, 134.5781
797.2010, 139.5449
798.3430, 55.16406
799.4850, 61.24023
800.6270, 25.12500
801.7690, 12.13086
802.9100, 15.28711
804.0520, 168.4238
805.1930, 55.64844
806.3340, 50.73047
807.4750, 99.04883
808.6160, 116.2910
809.7560, 12.71680
810.8970, 72.93750
812.0370, 74.02344
813.1770, 146.2070
814.3170, 153.1152
815.4570, 219.1719
816.5960, 258.1992
817.7360, 203.8340
818.8750, 310.8613
820.0140, 103.7832
821.1530, 276.5059
822.2920, 288.7695
823.4310, 32.79492
824.5690, 290.7148
825.7070, 257.8750
826.8460, 143.8438
827.9840, 436.4043
829.1220, 275.5254
830.2590, 249.2871
831.3970, 361.6816
832.5340, 90.14062
833.6710, 249.7305
834.8080, 269.6543
835.9450, 165.0879
837.0820, 371.8086
838.2190, 522.1562
839.3550, 351.4688
840.4910, 387.4004
841.6270, 462.6426
842.7630, 693.9492
843.8990, 753.1875
845.0350, 833.4668
846.1700, 861.0020
847.3060, 1407.070
848.4410, 1739.230
849.5760, 2209.230
850.7100, 2724.191
851.8450, 3732.115
852.9800, 5299.025
854.1140, 6289.900
855.2480, 6947.738
856.3820, 6434.543
857.5160, 5237.762
858.6500, 4052.492
859.7830, 2892.123
860.9170, 2124.012
862.0500, 1645.635
863.1830, 1121.086
864.3160, 1163.633
865.4480, 894.1484
866.5810, 715.6602
867.7130, 686.7656
868.8460, 615.9453
869.9780, 383.0449
871.1100, 441.4453
872.2410, 483.6309
873.3730, 513.9590
874.5050, 336.2715
875.6360, 376.5625
876.7670, 357.7012
877.8980, 183.4336
879.0290, 426.0547
880.1590, 234.9629
881.2900, 250.6035
882.4200, 307.3809
883.5500, 222.1699
884.6800, 117.7695
885.8100, 97.74609
886.9400, 55.19531
888.0690, 24.78906
889.1990, 70.45312
890.3280, 118.2227
891.4570, 98.53125
892.5860, 114.5547
893.7140, 114.5703
894.8430, 112.2227
895.9710, 138.5547
897.1000, 180.1309
898.2280, 301.6602
899.3560, 237.8105
900.4830, 332.0449
901.6110, 113.8086
902.7380, 165.5820
903.8660, 50.65625
904.9930, 4.396484
906.1200, 290.2012
907.2460, 237.0820
908.3730, 470.0078
909.5000, 111.0312
910.6260, 114.6680
911.7520, 337.6328
912.8780, 382.2344
914.0040, 240.6484
915.1290, 315.0820
916.2550, 332.9941
917.3800, 405.9199
918.5050, 470.8457
919.6300, 395.2031
920.7550, 213.4531
921.8800, 194.5859
923.0040, 94.43945
924.1290, 372.8613
925.2530, 24.56641
926.3770, 63.32031
927.5010, 253.0762
928.6250, 25.57617
929.7480, 105.8320
930.8720, 93.89258
931.9950, 111.3477
933.1180, 92.37500
934.2410, 35.14258
935.3640, 32.73633
936.4860, 43.22461
937.6090, 91.26562
938.7310, 55.77539
939.8530, 3.933594
940.9750, 59.26758
942.0970, 63.24609
943.2180, 212.9277
944.3400, 94.63086
945.4610, 372.3770
946.5820, 53.32227
947.7030, 30.46875
948.8240, 77.79102
949.9450, 416.0703
951.0650, 379.9316
952.1860, 116.5801
953.3060, 254.0723
954.4260, 37.15039
955.5460, 16.70312
956.6650, 107.5098
957.7850, 10.43945
958.9040, 39.65820
960.0230, 44.09180
961.1420, 211.7598
962.2610, 60.60742
963.3800, 157.6777
964.4990, 437.7988
965.6170, 37.40039
966.7350, 51.50000
967.8530, 249.9023
968.9710, 162.7676
970.0890, 270.9824
971.2070, 192.7324
972.3240, 372.9277
973.4410, 346.9473
974.5580, 116.9590
975.6750, 377.9199
976.7920, 249.0137
977.9090, 258.4219
979.0250, 239.5391
980.1410, 170.4766
981.2580, 321.4844
982.3740, 242.9160
983.4890, 412.4902
984.6050, 595.0273
985.7200, 612.5312
986.8360, 545.0020
987.9510, 515.8184
989.0660, 546.2207
990.1810, 455.5898
991.2950, 616.9238
992.4100, 682.2285
993.5240, 834.6172
994.6390, 1049.855
995.7530, 857.0742
996.8660, 1033.408
997.9800, 1186.637
999.0940, 1076.543
1000.207, 1461.146
1001.320, 1938.139
1002.433, 2300.158
1003.546, 2812.652
1004.659, 3624.992
1005.772, 4372.219
1006.884, 5885.646
1007.996, 8105.713
1009.108, 10858.12
1010.220, 15089.55
1011.332, 20821.31
1012.444, 26852.30
1013.555, 31169.98
1014.666, 31720.54
1015.777, 28042.15
1016.888, 21712.50
1017.999, 15955.82
1019.110, 11476.83
1020.220, 8334.508
1021.331, 6229.752
1022.441, 4710.838
1023.551, 3789.047
1024.661, 3059.143
1025.770, 2524.043
1026.880, 2022.805
1027.989, 1783.848
1029.098, 1440.967
1030.207, 1484.002
1031.316, 1405.746
1032.425, 1245.322
1033.533, 1228.260
1034.642, 1050.318
1035.750, 880.0254
1036.858, 887.7363
1037.966, 958.7344
1039.073, 777.3594
1040.181, 914.5566
1041.288, 730.7109
1042.396, 705.9707
1043.503, 951.5723
1044.610, 842.8066
1045.716, 985.5996
1046.823, 881.6914
1047.929, 1051.309
1049.036, 1173.154
1050.142, 1042.092
1051.248, 1186.566
1052.353, 1016.980
1053.459, 1152.092
1054.564, 654.1797
1055.670, 633.5020
1056.775, 579.0215
1057.880, 602.8223
1058.985, 556.1543
1060.089, 553.8496
1061.194, 269.5820
1062.298, 573.8359
1063.402, 554.7344
1064.506, 220.8105
1065.610, 391.8066
1066.713, 405.9863
1067.817, 312.0234
1068.920, 488.1562
1070.023, 335.0625
1071.126, 355.9707
1072.229, 354.6934
1073.332, 361.7539
1074.435, 278.6152
1075.537, 13.37695
1076.639, 241.1992
1077.741, 156.5449
1078.843, 391.5977
1079.945, 256.6680
1081.046, 301.3633
1082.148, 413.8008
1083.249, 227.8711
1084.350, 421.5293
1085.451, 282.7305
1086.551, 275.1387
1087.652, 166.9277
1088.752, 147.3027
1089.853, 190.1914
1090.953, 71.64258
1092.053, 254.3223
1093.152, 16.43359
1094.252, 256.5684
1095.351, 99.21484
1096.451, 370.1855
1097.550, 153.6055
1098.649, 417.1523
1099.748, 30.76367
1100.846, 60.96875
1101.945, 227.0098
1103.043, 225.2246
1104.141, 237.6523
1105.239, 288.5723
1106.337, 249.2773
1107.434, 268.4316
1108.532, 229.3926
1109.629, 146.3008
1110.726, 206.2090
1111.823, 242.0000
1112.920, 215.8594
1114.017, 105.7168
1115.113, 398.0703
1116.210, 353.8535
1117.306, 583.6035
1118.402, 407.1270
1119.498, 213.8086
1120.593, 644.5527
1121.689, 490.2734
1122.784, 600.9824
1123.879, 715.9043
1124.974, 275.7168
1126.069, 440.2832
1127.164, 303.2617
1128.259, 267.8047
1129.353, 284.8887
1130.447, 115.9297
1131.541, 105.7715
1132.635, 78.41992
1133.729, 376.5703
1134.822, 180.9004
1135.916, 209.9766
1137.009, 229.0195
1138.102, 172.2246
1139.195, 250.3008
1140.288, 10.76953
1141.380, 146.1035
1142.473, 58.93750
1143.565, 112.7305
1144.657, 472.4844
1145.749, 251.2031
1146.841, 244.8867
1147.932, 2.537109
1149.024, 271.1406
1150.115, 230.7051
1151.206, 282.4551
1152.297, 370.2129
1153.388, 269.9414
1154.479, 105.0312
1155.569, 87.84570
1156.659, 16.50000
1157.750, 160.3203
1158.839, 33.81641
1159.929, 151.3867
1161.019, 10.55859
1162.108, 359.0352
1163.198, 209.1289
1164.287, 298.5508
1165.376, 77.96484
1166.465, 214.2695
1167.553, 257.2188
1168.642, 282.1328
1169.730, 185.4648
1170.818, 242.3242
1171.906, 190.6562
1172.994, 215.2812
1174.082, 195.8320
1175.170, 55.82812
1176.257, 85.59766
1177.344, 95.67188
1178.431, 64.19141
1179.518, 292.7891
1180.605, 5.855469
1181.691, 178.6250
1182.778, 162.2539
1183.864, 213.2031
1184.950, 146.1250
1186.036, 302.9062
1187.122, 146.0781
1188.207, 265.2539
1189.292, 215.2969
1190.378, 292.3164
1191.463, 225.3047
1192.548, 73.05859
1193.632, 258.9727
1194.717, 195.8555
1195.801, 222.3008
1196.886, 15.11719
1197.970, 296.8867
1199.054, 310.6172
1200.137, 131.3516
1201.221, 189.0430
1202.305, 53.73047
1203.388, 233.3984
1204.471, 150.0312
1205.554, 170.5156
1206.637, 293.6836
1207.719, 327.9453
1208.802, 420.8281
1209.884, 24.70312
1210.966, 115.4805
1212.048, 24.82031
1213.130, 259.1523
1214.212, 109.1055
1215.293, 399.3672
1216.374, 133.4805
1217.456, 288.5234
1218.536, 178.1055
1219.617, 83.42188
1220.698, 402.1602
1221.778, 241.2266
1222.859, 270.0391
1223.939, 113.3594
1225.019, 48.13672
1226.099, 349.2148
1227.178, 488.1250
1228.258, 248.3750
1229.337, 238.2266
1230.417, 503.8047
1231.496, 225.5781
1232.574, 386.0117
1233.653, 144.4102
1234.732, 148.8281
1235.810, 166.4219
1236.888, 268.8125
1237.966, 61.25781
1239.044, 288.5000
1240.122, 462.3711
1241.199, 506.4531
1242.277, 182.6641
1243.354, 291.7344
1244.431, 117.3125
1245.508, 298.6797
1246.585, 321.0234
1247.661, 80.33203
1248.738, 296.6133
1249.814, 247.4805
1250.890, 244.6914
1251.966, 238.8789
1253.042, 179.0273
1254.117, 196.1602
1255.193, 246.1211
1256.268, 140.3320
1257.343, 235.3555
1258.418, 97.19531
1259.493, 98.07422
1260.567, 359.2109
1261.642, 392.5859
1262.716, 284.8633
1263.790, 205.6992
1264.864, 369.9922
1265.938, 317.5430
1267.011, 205.9844
1268.085, 227.1562
1269.158, 359.6289
1270.231, 418.9023
1271.304, 416.8828
1272.377, 320.4766
1273.450, 377.2617
1274.522, 439.8164
1275.594, 305.1289
1276.666, 374.3945
1277.738, 409.0898
1278.810, 371.5000
1279.882, 191.6250
1280.953, 195.2852
1282.025, 194.6484
1283.096, 100.8555
1284.167, 84.05469
1285.238, 310.3750
1286.308, 116.2734
1287.379, 96.17578
