##NAMES=Diopside
##RRUFFID=R060861
##IDEAL CHEMISTRY=CaMgSi_2_O_6_
##LOCALITY=Red Mountain Volcano, NW of Flagstaff, Arizona, USA
##OWNER=RRUFF
##SOURCE=Jennifer Sano
##DESCRIPTION=Worn brown fragment
##STATUS=The identification of this mineral has been confirmed by X-ray diffraction and chemical analysis
##URL=rruff.info/R060861
##MEASURED CHEMISTRY=(Ca_0.72_Fe^2+^_0.23_Na_0.05_)_Σ=1_(Mg_0.80_Al_0.15_Ti_0.03_Fe^3+^_0.02_)_Σ=1_(Si_1.82_Al_0.18_)_Σ=2_O_6_
##PIN_ID=M01599
##ORIENTATION=Laser parallel to (1 0 1). Fiducial mark perpendicular to laser is parallel to b [0 1 0]
174.7000, 0.0000000E+00
175.9330, 0.3964840
177.1660, 5.8590001E-03
178.3990, 4.597656
179.6310, 55.36816
180.8640, 138.2646
182.0960, 262.2676
183.3280, 368.8516
184.5600, 498.2432
185.7910, 610.9258
187.0220, 756.8232
188.2540, 835.7725
189.4840, 967.5781
190.7150, 1054.923
191.9460, 1252.812
193.1760, 1258.045
194.4060, 1298.676
195.6360, 1176.636
196.8660, 1130.726
198.0960, 1116.354
199.3250, 928.6260
200.5540, 1031.148
201.7830, 1000.224
203.0120, 890.7490
204.2400, 625.6348
205.4690, 479.2373
206.6970, 79.83496
207.9250, 61.67676
209.1530, 75.69922
210.3800, 163.9766
211.6080, 61.79883
212.8350, 150.5430
214.0620, 401.1748
215.2880, 487.6289
216.5150, 494.8545
217.7410, 623.8057
218.9680, 778.4473
220.1940, 1047.745
221.4190, 1119.669
222.6450, 1247.162
223.8700, 1338.296
225.0960, 1389.961
226.3210, 1417.168
227.5450, 1470.422
228.7700, 1540.148
229.9940, 1358.894
231.2190, 1448.124
232.4430, 1347.826
233.6660, 1157.990
234.8900, 1078.604
236.1140, 964.6582
237.3370, 1076.141
238.5600, 892.0430
239.7830, 1062.354
241.0050, 926.0967
242.2280, 1017.541
243.4500, 846.7432
244.6720, 999.5557
245.8940, 1014.820
247.1160, 1047.421
248.3370, 1125.285
249.5580, 1226.131
250.7790, 1268.017
252.0000, 1226.983
253.2210, 1224.061
254.4410, 1186.269
255.6620, 1307.625
256.8820, 1309.141
258.1020, 1459.824
259.3210, 1379.491
260.5410, 1273.814
261.7600, 1164.958
262.9790, 986.3887
264.1980, 734.0127
265.4170, 712.8213
266.6360, 649.7822
267.8540, 502.9561
269.0720, 567.3438
270.2900, 543.9463
271.5080, 463.7637
272.7260, 411.7979
273.9430, 408.0449
275.1600, 545.5088
276.3770, 551.7969
277.5940, 635.0762
278.8100, 710.1787
280.0270, 837.4922
281.2430, 935.1748
282.4590, 1258.745
283.6750, 1326.681
284.8910, 1594.821
286.1060, 1819.161
287.3210, 1911.701
288.5360, 2283.438
289.7510, 2411.371
290.9660, 2841.496
292.1800, 2915.812
293.3950, 3248.318
294.6090, 3444.011
295.8230, 3844.887
297.0360, 4190.945
298.2500, 4535.186
299.4630, 4792.604
300.6760, 5185.197
301.8890, 5325.961
303.1020, 5670.901
304.3150, 6393.004
305.5270, 6476.277
306.7390, 6928.209
307.9510, 8264.320
309.1630, 8222.714
310.3750, 8988.252
311.5860, 8993.824
312.7970, 9737.438
314.0080, 10353.48
315.2190, 10874.57
316.4300, 11508.03
317.6400, 12319.08
318.8510, 12938.85
320.0610, 13836.31
321.2710, 14587.58
322.4800, 15266.07
323.6900, 15961.66
324.8990, 16566.84
326.1080, 17161.52
327.3170, 17726.56
328.5260, 18248.11
329.7340, 18611.46
330.9430, 19024.48
332.1510, 19199.23
333.3590, 19298.32
334.5670, 19497.74
335.7740, 19313.48
336.9820, 19198.46
338.1890, 19322.68
339.3960, 18931.07
340.6030, 18650.73
341.8100, 18487.67
343.0160, 18112.87
344.2220, 18097.31
345.4280, 17647.00
346.6340, 17593.92
347.8400, 17354.07
349.0460, 17134.43
350.2510, 16912.01
351.4560, 16733.80
352.6610, 16846.44
353.8660, 16787.62
355.0700, 16585.81
356.2750, 16526.26
357.4790, 16300.70
358.6830, 16193.61
359.8870, 15938.70
361.0910, 15762.96
362.2940, 15629.38
363.4970, 15414.96
364.7000, 15159.70
365.9030, 14606.59
367.1060, 14569.63
368.3080, 14103.83
369.5110, 13823.17
370.7130, 13546.65
371.9150, 13136.27
373.1170, 12946.02
374.3180, 12652.92
375.5200, 12537.94
376.7210, 12450.10
377.9220, 12266.38
379.1230, 12415.78
380.3230, 12318.88
381.5240, 12476.97
382.7240, 12461.74
383.9240, 12749.62
385.1240, 13127.62
386.3240, 13317.73
387.5230, 13878.96
388.7230, 13769.28
389.9220, 13998.71
391.1210, 14490.23
392.3200, 14526.85
393.5180, 14650.57
394.7170, 14613.39
395.9150, 14472.30
397.1130, 13770.30
398.3110, 13485.40
399.5080, 13165.59
400.7060, 12083.87
401.9030, 11300.25
403.1000, 10311.71
404.2970, 9327.260
405.4940, 8221.902
406.6910, 7386.627
407.8870, 6317.438
409.0830, 5585.333
410.2790, 4787.311
411.4750, 4001.370
412.6710, 3608.510
413.8660, 3075.730
415.0610, 2695.026
416.2560, 2211.398
417.4510, 1961.847
418.6460, 1556.369
419.8410, 1306.961
421.0350, 1161.627
422.2290, 1012.361
423.4230, 841.5439
424.6170, 707.2734
425.8100, 612.9688
427.0040, 445.9668
428.1970, 443.0303
429.3900, 371.1533
430.5830, 223.3359
431.7760, 213.5791
432.9680, 233.8789
434.1610, 64.23242
435.3530, 4.643555
436.5450, 111.8936
437.7360, 120.3906
438.9280, 187.9395
440.1190, 194.4902
441.3110, 241.6826
442.5020, 190.0625
443.6930, 151.4033
444.8830, 170.6875
446.0740, 204.8877
447.2640, 102.0156
448.4540, 115.0283
449.6440, 154.9043
450.8340, 137.6396
452.0240, 127.7783
453.2130, 46.30273
454.4020, 175.2451
455.5910, 276.1973
456.7800, 392.6006
457.9690, 413.8408
459.1570, 441.7002
460.3460, 715.7559
461.5340, 889.4150
462.7220, 809.4756
463.9090, 959.8301
465.0970, 1038.581
466.2840, 1046.194
467.4720, 1184.028
468.6590, 1157.935
469.8460, 1234.324
471.0320, 1338.073
472.2190, 1312.384
473.4050, 1255.017
474.5910, 1283.013
475.7770, 1393.564
476.9630, 1306.070
478.1490, 1360.152
479.3340, 1193.260
480.5190, 1372.383
481.7040, 1362.519
482.8890, 1290.664
484.0740, 1322.817
485.2580, 1405.979
486.4430, 1427.144
487.6270, 1436.311
488.8110, 1435.479
489.9950, 1608.646
491.1780, 1483.810
492.3620, 1398.970
493.5450, 1635.121
494.7280, 1451.266
495.9110, 1521.407
497.0940, 1448.537
498.2760, 1648.658
499.4590, 1652.780
500.6410, 1608.885
501.8230, 1582.973
503.0050, 1700.039
504.1860, 1681.087
505.3680, 1921.109
506.5490, 2002.107
507.7300, 2054.081
508.9110, 2151.026
510.0920, 2350.943
511.2730, 2509.829
512.4530, 2551.685
513.6330, 2646.506
514.8130, 2897.293
515.9930, 3012.044
517.1730, 3198.757
518.3520, 3229.433
519.5320, 3443.066
520.7110, 3558.660
521.8900, 3713.471
523.0690, 3923.718
524.2470, 4095.179
525.4260, 4303.593
526.6040, 4577.959
527.7820, 4802.445
528.9600, 5111.540
530.1380, 5256.754
531.3150, 5466.915
532.4930, 5535.021
533.6700, 5691.072
534.8470, 5847.065
536.0240, 5779.002
537.2000, 5864.880
538.3770, 5916.695
539.5530, 5965.451
540.7290, 5803.145
541.9050, 5825.773
543.0810, 5762.338
544.2570, 5773.836
545.4320, 5557.266
546.6080, 5562.629
547.7830, 5339.922
548.9580, 5353.145
550.1320, 5298.295
551.3070, 5306.373
552.4810, 5277.379
553.6550, 5227.669
554.8300, 5134.162
556.0030, 5126.938
557.1770, 5034.635
558.3510, 4978.054
559.5240, 4922.794
560.6970, 4727.251
561.8700, 4667.627
563.0430, 4417.920
564.2160, 4212.127
565.3880, 4149.250
566.5600, 3941.285
567.7320, 3655.235
568.9040, 3510.098
570.0760, 3253.869
571.2480, 3138.552
572.4190, 2912.144
573.5900, 2771.643
574.7610, 2541.049
575.9320, 2354.363
577.1030, 2200.529
578.2740, 2109.441
579.4440, 1917.030
580.6140, 1904.496
581.7840, 1686.787
582.9540, 1555.797
584.1240, 1331.525
585.2930, 1225.191
586.4630, 1016.754
587.6320, 698.1328
588.8010, 561.6982
589.9700, 373.5342
591.1380, 358.5137
592.3070, 195.1768
593.4750, 184.6392
594.6430, 84.81055
595.8110, 77.77783
596.9790, 160.1943
598.1460, 135.4727
599.3140, 233.5986
600.4810, 244.8613
601.6480, 165.1675
602.8150, 132.5464
603.9820, 111.5117
605.1480, 34.80713
606.3150, 11.24951
607.4810, 101.0972
608.6470, 205.5068
609.8130, 367.0869
610.9790, 409.8921
612.1440, 510.8828
613.3100, 681.4604
614.4750, 792.2720
615.6400, 780.1987
616.8050, 958.8208
617.9690, 1068.399
619.1340, 1180.029
620.2980, 1430.186
621.4620, 1571.173
622.6260, 1784.992
623.7900, 1832.642
624.9540, 1999.124
626.1170, 2268.606
627.2810, 2602.577
628.4440, 2857.548
629.6070, 3031.349
630.7690, 3351.979
631.9320, 3663.438
633.0950, 4115.727
634.2570, 4395.845
635.4190, 4972.791
636.5810, 5346.568
637.7430, 5957.171
638.9040, 6484.603
640.0660, 7482.865
641.2270, 7936.954
642.3880, 8610.873
643.5490, 10028.62
644.7100, 10889.20
645.8700, 12008.60
647.0310, 13343.83
648.1910, 14741.89
649.3510, 16322.78
650.5110, 18386.50
651.6710, 20478.04
652.8300, 22976.42
653.9900, 25670.62
655.1490, 28986.66
656.3080, 32243.52
657.4670, 35714.21
658.6250, 39772.74
659.7840, 43364.09
660.9420, 46670.28
662.1010, 50177.29
663.2590, 53483.14
664.4170, 55248.82
665.5740, 56503.33
666.7320, 56709.67
667.8890, 56517.84
669.0460, 54901.85
670.2030, 52518.69
671.3600, 49884.36
672.5170, 46456.86
673.6740, 42229.20
674.8300, 38272.38
675.9860, 34280.39
677.1420, 30488.24
678.2980, 27291.92
679.4540, 24163.44
680.6090, 21305.79
681.7650, 18828.99
682.9200, 16778.02
684.0750, 15097.89
685.2300, 13467.60
686.3840, 11815.15
687.5390, 10667.54
688.6930, 9374.766
689.8470, 8508.836
691.0010, 7685.749
692.1550, 6904.505
693.3090, 6257.106
694.4620, 5784.550
695.6160, 5263.838
696.7690, 4870.974
697.9220, 4382.954
699.0750, 4146.783
700.2280, 3722.458
701.3800, 3493.982
702.5320, 3070.354
703.6850, 2908.577
704.8370, 2609.652
705.9880, 2400.907
707.1400, 2358.355
708.2920, 2067.986
709.4430, 1981.471
710.5940, 1872.811
711.7450, 1674.006
712.8960, 1559.059
714.0470, 1296.968
715.1970, 1129.736
716.3480, 973.3647
717.4980, 805.7681
718.6480, 736.2388
719.7980, 536.4956
720.9470, 475.6343
722.0970, 335.6562
723.2460, 219.5347
724.3960, 57.23682
725.5450, 67.70557
726.6940, 40.04492
727.8420, 153.0811
728.9910, 245.4570
730.1390, 256.2119
731.2870, 368.8257
732.4350, 263.9697
733.5830, 486.2402
734.7310, 426.8472
735.8790, 498.1899
737.0260, 537.6787
738.1730, 561.0830
739.3200, 634.9634
740.4670, 578.7437
741.6140, 673.2056
742.7610, 622.2612
743.9070, 595.9487
745.0530, 575.7183
746.1990, 523.9253
747.3450, 495.8477
748.4910, 418.5586
749.6370, 404.2441
750.7820, 363.6558
751.9270, 300.5430
753.0720, 298.9248
754.2170, 193.9971
755.3620, 89.12354
756.5070, 44.53857
757.6510, 169.2334
758.7950, 118.2993
759.9400, 304.3008
761.0840, 442.2397
762.2270, 535.1191
763.3710, 487.9399
764.5140, 647.7046
765.6580, 705.4155
766.8010, 927.0747
767.9440, 957.6855
769.0870, 1029.249
770.2290, 1143.767
771.3720, 1120.242
772.5140, 1136.677
773.6560, 1199.072
774.7990, 1341.432
775.9400, 1274.757
777.0820, 1339.050
778.2240, 1316.313
779.3650, 1416.549
780.5060, 1277.758
781.6470, 1543.944
782.7880, 1573.109
783.9290, 1465.255
785.0690, 1839.384
786.2100, 1519.497
787.3500, 1552.598
788.4900, 1595.688
789.6300, 1608.769
790.7700, 1632.153
791.9090, 1536.914
793.0490, 1677.981
794.1880, 1587.050
795.3270, 1643.118
796.4660, 1723.190
797.6050, 1675.269
798.7440, 1694.185
799.8820, 1716.931
801.0200, 1669.559
802.1590, 1694.680
803.2970, 1754.816
804.4340, 1640.971
805.5720, 1822.146
806.7100, 1866.342
807.8470, 1963.562
808.9840, 1950.807
810.1210, 2015.229
811.2580, 2111.382
812.3950, 2079.126
813.5310, 2107.083
814.6680, 2115.486
815.8040, 2206.927
816.9400, 2124.405
818.0760, 2220.926
819.2120, 2141.489
820.3470, 2075.098
821.4830, 2253.752
822.6180, 2110.455
823.7530, 2234.209
824.8880, 2132.015
826.0230, 2055.875
827.1580, 1912.791
828.2920, 1922.766
829.4270, 1965.800
830.5610, 1803.896
831.6950, 1948.054
832.8290, 1727.278
833.9620, 1862.570
835.0960, 1791.930
836.2290, 1630.360
837.3620, 1504.863
838.4950, 1529.440
839.6280, 1467.094
840.7610, 1494.825
841.8940, 1438.636
843.0260, 1384.528
844.1580, 1277.503
845.2910, 1199.563
846.4230, 1247.709
847.5540, 1274.604
848.6860, 1486.270
849.8170, 1547.687
850.9490, 1628.196
852.0800, 1934.802
853.2110, 1980.505
854.3420, 2230.307
855.4730, 2393.207
856.6030, 2502.040
857.7340, 2811.556
858.8640, 2914.059
859.9940, 3271.816
861.1240, 3470.098
862.2540, 3688.025
863.3830, 3746.648
864.5130, 4141.271
865.6420, 3997.573
866.7710, 4209.695
867.9000, 4302.288
869.0290, 4047.031
870.1570, 4409.508
871.2860, 4321.746
872.4140, 4115.750
873.5430, 4229.508
874.6710, 4261.279
875.7980, 4117.964
876.9260, 3940.607
878.0540, 3966.729
879.1810, 3755.458
880.3080, 3683.002
881.4360, 3743.067
882.5630, 3628.528
883.6890, 3618.786
884.8160, 3554.815
885.9420, 3368.710
887.0690, 3443.053
888.1950, 3174.265
889.3210, 3223.465
890.4470, 3188.092
891.5730, 3100.871
892.6980, 3235.719
893.8240, 3085.658
894.9490, 3006.875
896.0740, 3079.888
897.1990, 3139.183
898.3240, 3101.220
899.4480, 3124.728
900.5730, 3037.831
901.6970, 3132.308
902.8210, 3001.084
903.9450, 3104.176
905.0690, 2977.554
906.1930, 3007.220
907.3160, 3126.168
908.4400, 3118.403
909.5630, 3051.943
910.6860, 3082.750
911.8090, 3124.862
912.9320, 3264.259
914.0550, 3248.924
915.1770, 3339.779
916.2990, 3286.156
917.4210, 3423.706
918.5440, 3377.553
919.6650, 3333.715
920.7870, 3406.265
921.9090, 3425.853
923.0300, 3555.835
924.1510, 3534.064
925.2720, 3808.572
926.3930, 3718.366
927.5140, 3854.423
928.6350, 3963.752
929.7550, 3821.346
930.8760, 3897.229
931.9960, 4019.388
933.1160, 3931.795
934.2360, 4082.467
935.3550, 4059.389
936.4750, 4138.565
937.5940, 4169.987
938.7140, 4263.670
939.8330, 4288.607
940.9520, 4478.801
942.0710, 4632.246
943.1890, 4649.951
944.3080, 4662.915
945.4260, 4890.132
946.5440, 5122.604
947.6620, 5098.328
948.7800, 5373.296
949.8980, 5337.511
951.0160, 5479.973
952.1330, 5971.672
953.2500, 5924.619
954.3680, 6175.809
955.4850, 6171.235
956.6010, 6464.904
957.7180, 6836.813
958.8350, 6925.966
959.9510, 7199.361
961.0670, 7256.994
962.1830, 7722.867
963.2990, 7885.975
964.4150, 8214.324
965.5310, 8316.912
966.6460, 8677.736
967.7620, 9034.790
968.8770, 9290.079
969.9920, 9639.604
971.1070, 10055.36
972.2210, 11477.36
973.3360, 11765.58
974.4500, 12181.03
975.5650, 12614.72
976.6790, 12564.64
977.7930, 12923.79
978.9070, 13362.17
980.0200, 14048.78
981.1340, 14915.62
982.2470, 15258.69
983.3610, 16341.99
984.4740, 17055.52
985.5870, 17998.28
986.6990, 19013.26
987.8120, 20520.47
988.9250, 21925.90
990.0370, 22999.56
991.1490, 25356.44
992.2610, 26577.55
993.3730, 28104.90
994.4850, 30088.50
995.5960, 31731.38
996.7080, 33749.54
997.8190, 35830.00
998.9300, 37997.78
1000.041, 39842.93
1001.152, 41960.43
1002.263, 43416.30
1003.373, 44586.52
1004.484, 45727.14
1005.594, 46429.16
1006.704, 46372.56
1007.814, 46009.38
1008.924, 45029.58
1010.034, 44113.22
1011.143, 42249.24
1012.253, 40339.98
1013.362, 38311.55
1014.471, 35544.68
1015.580, 32866.39
1016.689, 30370.39
1017.797, 27971.42
1018.906, 25799.74
1020.014, 23467.97
1021.122, 21490.32
1022.230, 19811.08
1023.338, 18382.78
1024.446, 16968.94
1025.554, 15810.35
1026.661, 14843.93
1027.768, 13844.76
1028.875, 13003.44
1029.983, 12267.43
1031.089, 11571.54
1032.196, 11257.76
1033.303, 10673.42
1034.409, 10216.00
1035.515, 9713.824
1036.622, 9479.840
1037.728, 8976.766
1038.833, 8630.266
1039.939, 8434.517
1041.045, 7932.592
1042.150, 7750.965
1043.255, 7496.397
1044.360, 7193.604
1045.465, 6907.090
1046.570, 6560.807
1047.675, 6285.621
1048.779, 6121.133
1049.884, 5900.084
1050.988, 5285.008
1052.092, 5159.986
1053.196, 4924.021
1054.300, 4650.117
1055.404, 4506.764
1056.507, 4261.422
1057.610, 4086.017
1058.714, 3925.633
1059.817, 3726.744
1060.920, 3537.023
1062.022, 3423.632
1063.125, 3250.129
1064.228, 3168.276
1065.330, 3010.441
1066.432, 2820.035
1067.534, 2823.731
1068.636, 2802.752
1069.738, 2783.957
1070.840, 2587.608
1071.941, 2480.278
1073.042, 2399.978
1074.144, 2344.938
1075.245, 2283.158
1076.346, 2237.876
1077.446, 2280.996
1078.547, 2354.702
1079.647, 2233.643
1080.748, 2121.171
1081.848, 2310.981
1082.948, 2293.797
1084.048, 2292.950
1085.148, 2288.142
1086.247, 2159.667
1087.347, 2284.448
1088.446, 2088.911
1089.545, 2181.943
1090.644, 2189.616
1091.743, 2207.938
1092.842, 2103.097
1093.940, 2142.942
1095.039, 2096.690
1096.137, 2163.186
1097.235, 2020.538
1098.333, 2104.300
1099.431, 2266.343
1100.529, 2242.087
1101.627, 2161.258
1102.724, 2221.520
1103.822, 2049.825
1104.919, 2093.112
1106.016, 2162.926
1107.113, 2114.102
1108.209, 2090.951
1109.306, 2061.302
1110.402, 2078.954
1111.499, 2116.584
1112.595, 2096.140
1113.691, 2022.429
1114.787, 1967.055
1115.883, 2011.688
1116.978, 1886.383
1118.074, 1951.565
1119.169, 1955.991
1120.264, 1753.081
1121.359, 1819.036
1122.454, 1680.063
1123.549, 1609.370
1124.644, 1539.954
1125.738, 1407.939
1126.832, 1356.874
1127.927, 1144.827
1129.021, 1095.758
1130.115, 951.5869
1131.208, 810.3481
1132.302, 793.9893
1133.396, 595.5171
1134.489, 619.8828
1135.582, 501.5903
1136.675, 428.2266
1137.768, 283.8408
1138.861, 182.2710
1139.954, 195.7900
1141.046, 143.1743
1142.138, 157.0835
1143.231, 17.06689
1144.323, 87.28320
1145.415, 125.2798
1146.507, 154.6787
1147.598, 121.1904
1148.690, 135.6987
1149.781, 346.9658
1150.872, 227.5889
1151.964, 414.6953
1153.054, 376.0659
1154.145, 441.5322
1155.236, 340.4443
1156.327, 365.2612
1157.417, 338.5840
1158.507, 300.2612
1159.597, 340.7832
1160.687, 305.9692
1161.777, 271.4111
1162.867, 374.0972
1163.956, 306.7910
1165.046, 279.0508
1166.135, 304.5767
1167.224, 345.3271
1168.313, 222.4458
1169.402, 221.8145
1170.491, 192.2593
1171.580, 195.8735
1172.668, 254.9941
1173.756, 103.4019
1174.845, 234.0220
1175.933, 149.9287
1177.020, 81.08203
1178.108, 185.4502
1179.196, 188.0938
1180.283, 107.0171
1181.371, 146.1240
1182.458, 218.5552
1183.545, 20.29492
1184.632, 61.24463
1185.719, 30.42920
1186.805, 82.16309
1187.892, 30.41553
1188.978, 55.22607
1190.065, 41.71582
1191.151, 12.45605
1192.237, 48.97607
1193.323, 40.70898
1194.408, 19.75488
1195.494, 151.1821
1196.579, 81.83984
1197.664, 157.2920
1198.750, 158.5649
1199.835, 191.6567
1200.919, 136.5732
1202.004, 170.2930
1203.089, 178.8257
1204.173, 181.1699
1205.258, 183.3242
1206.342, 179.1079
1207.426, 204.0337
1208.510, 225.7310
1209.594, 260.0117
1210.677, 284.2158
1211.761, 323.2424
1212.844, 334.0967
1213.927, 377.7803
1215.010, 338.2976
1216.093, 380.5562
1217.176, 435.8135
1218.259, 405.8237
1219.341, 442.6648
1220.424, 415.3401
1221.506, 392.8450
1222.588, 467.1721
1223.670, 503.3320
1224.752, 522.3286
1225.834, 477.1602
1226.915, 495.8232
1227.997, 553.3157
1229.078, 668.6431
1230.159, 577.8123
1231.240, 666.8159
1232.321, 552.6597
1233.402, 662.3413
1234.483, 677.8618
1235.563, 621.2222
1236.644, 727.4141
1237.724, 635.4463
1238.804, 706.3103
1239.884, 676.0107
1240.964, 686.5447
1242.044, 703.2085
1243.123, 756.1411
1244.203, 709.1919
1245.282, 715.0752
1246.361, 713.9197
1247.440, 807.3347
1248.519, 757.7148
1249.598, 838.9275
1250.676, 874.9756
1251.755, 860.8594
1252.833, 868.5776
1253.911, 896.1582
1254.989, 881.9631
1256.067, 890.9382
1257.145, 887.0632
1258.223, 891.9541
1259.300, 915.6777
1260.378, 930.2358
1261.455, 956.6277
1262.532, 980.8545
1263.609, 1016.044
1264.686, 929.9421
1265.763, 941.7368
1266.840, 941.3022
1267.916, 978.6995
1268.992, 949.9321
1270.069, 974.2749
1271.145, 1097.202
1272.221, 1090.939
1273.296, 1089.490
1274.372, 1017.307
1275.448, 1093.856
1276.523, 1109.816
1277.598, 1065.656
1278.673, 980.6462
1279.749, 1003.514
1280.823, 1124.721
1281.898, 1106.814
1282.973, 1008.595
1284.047, 1106.538
1285.122, 932.2166
1286.196, 974.6736
1287.270, 1002.946
1288.344, 876.2397
1289.418, 967.1228
1290.491, 978.7563
1291.565, 992.5239
1292.638, 838.4395
1293.712, 958.0649
1294.785, 924.4031
1295.858, 847.6504
1296.931, 913.5745
1298.003, 900.8301
1299.076, 772.2893
1300.149, 742.1155
1301.221, 931.0171
1302.293, 875.6257
1303.365, 796.4470
1304.437, 759.2979
1305.509, 747.8635
1306.581, 809.1685
1307.652, 716.3525
1308.724, 743.0552
1309.795, 671.2498
1310.866, 783.5977
1311.937, 702.8428
1313.008, 687.8044
1314.079, 720.8418
1315.150, 673.1616
1316.220, 666.5239
1317.291, 727.8953
1318.361, 715.2012
1319.431, 597.0007
1320.501, 621.7119
1321.571, 645.1372
1322.641, 716.5715
1323.710, 659.4514
1324.780, 704.1121
1325.849, 643.3232
1326.918, 620.4106
1327.987, 646.1501
1329.056, 616.4731
1330.125, 646.7451
1331.194, 626.7627
1332.263, 629.7219
1333.331, 669.3997
1334.399, 687.0935
1335.467, 696.9463
1336.535, 671.4229
1337.603, 678.0383
1338.671, 671.4866
1339.739, 651.7539
1340.806, 669.4060
1341.874, 640.1733
