##NAMES=Diopside
##RRUFFID=R050406
##IDEAL CHEMISTRY=CaMgSi_2_O_6_
##LOCALITY=unknown
##OWNER=RRUFF
##SOURCE=University of Arizona Mineral Museum
##DESCRIPTION=Brownish gray massive
##STATUS=The identification of this mineral has been confirmed by X-ray diffraction and chemical analysis
##URL=rruff.info/R050406
##MEASURED CHEMISTRY=(Ca_0.95_Na_0.05_)(Mg_0.75_Fe^2+^_0.18_Fe^3+^_0.05_Al_0.01_Ti_0.01_Mn^2+^_0.01_)(Si_0.98_Al_0.02_)_2_O_6_
##PIN_ID=M00086
##ORIENTATION=Laser parallel to c* (0 0 1). Fiducial mark perpendicular to laser is parallel to a [1 0 0]
116.9030, 0.0000000E+00
118.1340, 172.0483
119.3650, 15.25244
120.5960, 89.93164
121.8270, 113.1543
123.0580, 267.6396
124.2880, 271.6543
125.5190, 3.410645
126.7490, 48.06641
127.9790, 128.2627
129.2090, 173.2197
130.4390, 211.5088
131.6680, 306.8809
132.8980, 344.1309
134.1270, 225.0830
135.3560, 563.5908
136.5850, 482.5215
137.8140, 732.7549
139.0430, 983.1797
140.2710, 960.7012
141.5000, 933.2402
142.7280, 1073.728
143.9560, 988.1006
145.1840, 793.3076
146.4120, 887.2969
147.6390, 638.0254
148.8670, 654.4551
150.0940, 601.5508
151.3210, 652.2793
152.5490, 664.6152
153.7750, 597.5273
155.0020, 469.9775
156.2290, 429.9180
157.4550, 381.3096
158.6810, 523.1230
159.9080, 416.3340
161.1340, 459.9287
162.3590, 756.9004
163.5850, 891.2432
164.8110, 1055.951
166.0360, 1124.014
167.2610, 1235.416
168.4860, 1186.148
169.7110, 995.1973
170.9360, 1030.557
172.1610, 859.2148
173.3850, 925.1650
174.6100, 881.4004
175.8340, 811.9141
177.0580, 902.6992
178.2820, 1085.751
179.5050, 1105.062
180.7290, 1308.630
181.9520, 1297.447
183.1760, 1511.508
184.3990, 1398.811
185.6220, 1350.348
186.8450, 1369.118
188.0670, 1240.114
189.2900, 1169.335
190.5120, 1179.729
191.7340, 1463.133
192.9560, 1509.548
194.1780, 1678.993
195.4000, 1638.462
196.6220, 1611.977
197.8430, 1285.566
199.0640, 1384.237
200.2860, 1232.999
201.5070, 1152.858
202.7270, 1068.820
203.9480, 824.9258
205.1690, 695.2773
206.3890, 550.8594
207.6090, 508.6689
208.8290, 376.6670
210.0490, 491.8516
211.2690, 378.1914
212.4890, 427.7041
213.7080, 539.3662
214.9280, 407.1367
216.1470, 375.0166
217.3660, 465.0078
218.5850, 418.9209
219.8030, 539.3320
221.0220, 539.6680
222.2400, 703.1221
223.4590, 901.6934
224.6770, 976.3838
225.8950, 1083.194
227.1120, 1239.123
228.3300, 1365.172
229.5480, 1312.340
230.7650, 1453.625
231.9820, 1674.027
233.1990, 1578.548
234.4160, 1480.185
235.6330, 1231.938
236.8490, 1411.812
238.0660, 1083.801
239.2820, 1042.904
240.4980, 990.1191
241.7140, 783.4473
242.9300, 868.8857
244.1460, 884.4355
245.3610, 851.0938
246.5770, 780.8633
247.7920, 861.7393
249.0070, 909.7217
250.2220, 1041.810
251.4370, 943.0039
252.6510, 970.3037
253.8660, 1064.706
255.0800, 1083.213
256.2940, 1186.821
257.5080, 1418.530
258.7220, 1240.009
259.9360, 1581.246
261.1490, 1018.254
262.3630, 678.3564
263.5760, 663.7402
264.7890, 629.3672
266.0020, 478.2188
267.2150, 481.1973
268.4270, 372.1289
269.6400, 471.3564
270.8520, 436.8545
272.0640, 387.2529
273.2760, 409.2627
274.4880, 340.4824
275.7000, 338.9150
276.9120, 417.5508
278.1230, 168.3789
279.3340, 302.3926
280.5450, 107.5820
281.7560, 490.9404
282.9670, 360.4619
284.1780, 321.1396
285.3880, 477.9688
286.5980, 451.9453
287.8090, 467.0625
289.0190, 577.6533
290.2290, 630.0430
291.4380, 768.8496
292.6480, 880.4229
293.8570, 972.0684
295.0670, 1102.805
296.2760, 1196.438
297.4850, 1336.880
298.6930, 1653.543
299.9020, 1934.457
301.1110, 2105.693
302.3190, 2054.236
303.5270, 2283.675
304.7350, 2482.275
305.9430, 2670.365
307.1510, 2939.646
308.3580, 3141.971
309.5660, 3512.319
310.7730, 3649.547
311.9800, 4045.902
313.1870, 4420.379
314.3940, 4773.944
315.6010, 5348.606
316.8070, 6193.352
318.0130, 6941.209
319.2200, 7762.168
320.4260, 8596.296
321.6310, 9713.528
322.8370, 10540.85
324.0430, 11247.26
325.2480, 11460.77
326.4540, 11420.37
327.6590, 11014.07
328.8640, 9962.861
330.0680, 9341.735
331.2730, 8296.704
332.4780, 7318.761
333.6820, 6581.904
334.8860, 5935.129
336.0900, 5373.433
337.2940, 4968.805
338.4980, 4619.252
339.7010, 4191.770
340.9050, 3854.354
342.1080, 3829.008
343.3110, 3679.730
344.5140, 3675.521
345.7170, 3559.381
346.9200, 3542.307
348.1220, 3753.301
349.3240, 3903.362
350.5270, 4213.488
351.7290, 4734.679
352.9310, 5057.936
354.1320, 5573.658
355.3340, 5670.040
356.5350, 5964.481
357.7370, 6076.986
358.9380, 5823.549
360.1390, 5492.173
361.3400, 5020.857
362.5400, 4678.600
363.7410, 4270.400
364.9410, 3890.259
366.1410, 3681.175
367.3410, 3386.148
368.5410, 3404.180
369.7410, 3227.266
370.9400, 3295.408
372.1400, 3157.604
373.3390, 3169.854
374.5380, 3500.158
375.7370, 3465.518
376.9360, 4090.928
378.1350, 4157.391
379.3330, 4921.906
380.5310, 5610.473
381.7300, 6375.090
382.9280, 7305.758
384.1260, 8286.475
385.3230, 9555.242
386.5210, 11202.06
387.7180, 12607.92
388.9160, 14052.83
390.1130, 15118.79
391.3100, 15429.80
392.5060, 15008.85
393.7030, 14231.95
394.9000, 12805.09
396.0960, 10814.28
397.2920, 9100.512
398.4880, 7493.789
399.6840, 6084.111
400.8800, 4987.475
402.0750, 3857.882
403.2710, 3363.331
404.4660, 2596.822
405.6610, 2085.354
406.8560, 1874.929
408.0510, 1456.565
409.2450, 1049.270
410.4400, 1105.043
411.6340, 813.8818
412.8280, 757.7852
414.0220, 719.7520
415.2160, 668.7812
416.4100, 625.8740
417.6030, 523.7529
418.7970, 421.1631
419.9900, 401.5312
421.1830, 336.4844
422.3760, 330.2549
423.5690, 298.6992
424.7610, 233.1963
425.9540, 257.7480
427.1460, 66.35156
428.3380, 326.0068
429.5300, 48.71191
430.7220, 27.46680
431.9140, 92.72949
433.1050, 62.10352
434.2970, 145.0156
435.4880, 275.1279
436.6790, 76.28223
437.8700, 104.4062
439.0610, 198.5137
440.2510, 17.63379
441.4420, 117.7109
442.6320, 120.7744
443.8220, 125.8174
445.0120, 44.15137
446.2020, 97.83301
447.3910, 37.76074
448.5810, 50.69043
449.7700, 169.5791
450.9600, 3.492188
452.1490, 60.67285
453.3370, 152.4121
454.5260, 181.6455
455.7150, 280.8896
456.9030, 185.5742
458.0910, 244.4590
459.2800, 277.9355
460.4670, 270.3965
461.6550, 420.5898
462.8430, 569.5898
464.0300, 629.4121
465.2180, 499.2031
466.4050, 531.0596
467.5920, 296.4834
468.7790, 407.3145
469.9650, 311.2842
471.1520, 280.8076
472.3380, 317.2100
473.5250, 188.9580
474.7110, 167.0010
475.8970, 129.0361
477.0820, 313.8662
478.2680, 247.1885
479.4540, 367.4082
480.6390, 116.8740
481.8240, 186.1748
483.0090, 206.5020
484.1940, 192.8594
485.3780, 228.2363
486.5630, 95.63281
487.7470, 275.0479
488.9320, 34.50098
490.1160, 261.9814
491.3000, 197.4941
492.4830, 182.0498
493.6670, 101.6221
494.8500, 239.2373
496.0340, 9.871094
497.2170, 160.5137
498.4000, 244.1709
499.5820, 162.8408
500.7650, 270.5508
501.9480, 123.2725
503.1300, 306.0078
504.3120, 347.7529
505.4940, 293.5098
506.6760, 299.2764
507.8580, 396.0527
509.0390, 398.8389
510.2210, 480.6436
511.4020, 517.4561
512.5830, 536.2773
513.7640, 642.1055
514.9450, 734.9453
516.1250, 694.7920
517.3060, 700.6436
518.4860, 876.5039
519.6660, 825.3701
520.8460, 932.2402
522.0260, 917.1143
523.2060, 1080.010
524.3850, 1410.909
525.5650, 1463.812
526.7440, 1570.716
527.9230, 1525.624
529.1020, 1671.532
530.2810, 1616.441
531.4590, 1735.396
532.6380, 1724.352
533.8160, 1649.320
534.9940, 1423.332
536.1720, 1318.342
537.3500, 1271.354
538.5270, 1160.368
539.7050, 1165.384
540.8820, 1084.867
542.0590, 1108.408
543.2360, 1059.414
544.4130, 973.4229
545.5900, 1139.433
546.7660, 1086.438
547.9430, 1267.438
549.1190, 1264.434
550.2950, 1385.421
551.4710, 1451.403
552.6470, 1653.487
553.8220, 1717.347
554.9980, 2166.308
556.1730, 2538.260
557.3480, 2905.201
558.5230, 3191.135
559.6980, 3087.059
560.8730, 3234.974
562.0470, 3021.878
563.2220, 2535.770
564.3960, 2381.649
565.5700, 1859.516
566.7440, 1415.369
567.9170, 1377.213
569.0910, 1091.041
570.2640, 893.8564
571.4380, 733.6553
572.6110, 906.4385
573.7840, 754.1143
574.9570, 746.8662
576.1290, 574.3125
577.3020, 540.1016
578.4740, 425.9248
579.6460, 531.7588
580.8180, 376.7939
581.9900, 344.9160
583.1620, 153.0215
584.3330, 328.9717
585.5040, 211.9307
586.6760, 171.5850
587.8470, 82.34668
589.0180, 123.9814
590.1880, 39.25977
591.3590, 116.2295
592.5290, 140.2490
593.7000, 27.09375
594.8700, 94.06738
596.0400, 76.75781
597.2090, 79.96191
598.3790, 15.55371
599.5490, 346.8486
600.7180, 42.87500
601.8870, 19.81641
603.0560, 271.2939
604.2250, 26.15430
605.3940, 13.05664
606.5620, 108.2705
607.7300, 60.80469
608.8990, 17.25586
610.0670, 17.39746
611.2350, 40.54980
612.4020, 58.70801
613.5700, 7.210938
614.7370, 12.18945
615.9050, 33.64648
617.0720, 43.88574
618.2390, 59.87402
619.4060, 153.8721
620.5720, 96.14941
621.7390, 218.0605
622.9050, 224.1904
624.0710, 222.5664
625.2370, 394.4619
626.4030, 477.3232
627.5690, 492.6943
628.7340, 492.3916
629.9000, 529.3164
631.0650, 529.2109
632.2300, 524.8701
633.3950, 593.8037
634.5600, 729.8008
635.7240, 594.0049
636.8890, 719.9980
638.0530, 878.5830
639.2170, 844.9004
640.3810, 1026.480
641.5450, 1112.719
642.7080, 1139.197
643.8720, 1347.353
645.0350, 1377.495
646.1980, 1620.567
647.3610, 1701.600
648.5240, 1859.590
649.6870, 2173.611
650.8490, 2382.517
652.0120, 2777.380
653.1740, 3165.202
654.3360, 3639.846
655.4980, 4434.580
656.6600, 5050.273
657.8210, 6095.259
658.9830, 7104.964
660.1440, 8713.526
661.3050, 10476.05
662.4660, 12371.44
663.6270, 14925.87
664.7870, 17062.33
665.9480, 18976.67
667.1080, 20218.97
668.2680, 20686.22
669.4280, 19564.43
670.5880, 18141.99
671.7480, 15691.11
672.9070, 13295.89
674.0670, 11027.68
675.2260, 9175.655
676.3850, 7705.005
677.5440, 6163.936
678.7030, 5093.344
679.8610, 4589.134
681.0200, 3826.879
682.1780, 3435.576
683.3360, 2949.717
684.4940, 2509.096
685.6520, 2206.650
686.8090, 1897.156
687.9670, 1655.617
689.1240, 1580.027
690.2810, 1349.391
691.4380, 1127.705
692.5950, 1222.328
693.7520, 1024.549
694.9080, 930.7207
696.0650, 934.8438
697.2210, 883.9180
698.3770, 789.2637
699.5330, 808.5957
700.6880, 557.5273
701.8440, 580.4102
702.9990, 622.2441
704.1550, 678.0312
705.3100, 480.7695
706.4650, 537.0059
707.6190, 461.9082
708.7740, 479.2520
709.9290, 343.7969
711.0830, 325.2949
712.2370, 231.7441
713.3910, 349.1543
714.5450, 309.5156
715.6980, 337.8496
716.8520, 409.1777
718.0050, 355.2793
719.1580, 335.7246
720.3110, 186.9629
721.4640, 179.6992
722.6170, 129.2930
723.7700, 163.3887
724.9220, 167.4414
726.0740, 308.4395
727.2260, 124.3613
728.3780, 263.2656
729.5300, 228.1133
730.6810, 45.04883
731.8330, 144.6602
732.9840, 203.7793
734.1350, 24.99609
735.2860, 53.04688
736.4370, 231.0195
737.5880, 78.87695
738.7380, 89.11914
739.8880, 230.3574
741.0390, 17.84961
742.1890, 29.50391
743.3380, 43.69141
744.4880, 42.09766
745.6380, 84.79883
746.7870, 67.59961
747.9360, 7.404297
749.0850, 56.10547
750.2340, 80.04297
751.3830, 9.080078
752.5310, 52.74219
753.6800, 226.9121
754.8280, 66.65234
755.9760, 4.234375
757.1240, 113.6602
758.2720, 100.3574
759.4190, 131.3184
760.5670, 35.14258
761.7140, 3.919922
762.8610, 106.6367
764.0080, 104.3164
765.1550, 58.95898
766.3020, 25.43750
767.4480, 2.091797
768.5950, 15.25586
769.7410, 61.19727
770.8870, 60.28906
772.0330, 70.42773
773.1780, 32.76367
774.3240, 167.9121
775.4690, 68.03125
776.6140, 165.1172
777.7590, 73.83008
778.9040, 102.1387
780.0490, 51.07227
781.1940, 106.9707
782.3380, 86.83984
783.4820, 102.6797
784.6260, 120.4902
785.7700, 124.8301
786.9140, 17.98047
788.0580, 149.7188
789.2010, 162.3906
790.3450, 161.0332
791.4880, 4.351563
792.6310, 204.2246
793.7730, 86.77539
794.9160, 9.298828
796.0590, 35.78906
797.2010, 66.25391
798.3430, 107.6934
799.4850, 63.89258
800.6270, 63.46094
801.7690, 25.78711
802.9100, 134.0879
804.0520, 97.36719
805.1930, 107.6211
806.3340, 121.8496
807.4750, 177.9414
808.6160, 37.15430
809.7560, 58.77344
810.8970, 172.7500
812.0370, 28.16602
813.1770, 16.93750
814.3170, 36.06836
815.4570, 24.22852
816.5960, 20.58203
817.7360, 90.37305
818.8750, 70.14648
820.0140, 43.10156
821.1530, 47.37891
822.2920, 67.31445
823.4310, 127.9902
824.5690, 167.2871
825.7070, 71.28516
826.8460, 201.9102
827.9840, 107.5195
829.1220, 24.88867
830.2590, 168.6816
831.3970, 116.2402
832.5340, 41.78320
833.6710, 11.31250
834.8080, 24.17188
835.9450, 26.67578
837.0820, 113.8047
838.2190, 56.27344
839.3550, 200.7285
840.4910, 119.2617
841.6270, 97.60547
842.7630, 38.97461
843.8990, 86.42969
845.0350, 9.824219
846.1700, 317.2090
847.3060, 198.5840
848.4410, 385.9492
849.5760, 331.0664
850.7100, 336.4141
851.8450, 686.7559
852.9800, 690.0879
854.1140, 1037.414
855.2480, 1159.732
856.3820, 1456.047
857.5160, 1239.553
858.6500, 1446.943
859.7830, 1430.320
860.9170, 1292.451
862.0500, 1214.654
863.1830, 961.9355
864.3160, 991.8984
865.4480, 1069.520
866.5810, 933.5703
867.7130, 1079.182
868.8460, 935.0508
869.9780, 877.8965
871.1100, 984.2090
872.2410, 849.0586
873.3730, 878.3496
874.5050, 1006.225
875.6360, 797.4336
876.7670, 896.8105
877.8980, 772.6797
879.0290, 1074.822
880.1590, 1045.846
881.2900, 1119.830
882.4200, 935.0801
883.5500, 960.1387
884.6800, 1075.078
885.8100, 1439.068
886.9400, 1219.803
888.0690, 1320.264
889.1990, 1351.582
890.3280, 1236.645
891.4570, 1115.904
892.5860, 1121.223
893.7140, 1110.934
894.8430, 1089.131
895.9710, 1198.367
897.1000, 1148.029
898.2280, 1286.451
899.3560, 1376.359
900.4830, 1547.283
901.6110, 1515.477
902.7380, 1437.338
903.8660, 1439.631
904.9930, 1177.482
906.1200, 1112.549
907.2460, 1103.318
908.3730, 1187.004
909.5000, 1066.475
910.6260, 1009.730
911.7520, 1192.799
912.8780, 921.1523
914.0040, 958.2324
915.1290, 809.6348
916.2550, 858.7754
917.3800, 815.2227
918.5050, 856.6641
919.6300, 719.1562
920.7550, 707.6699
921.8800, 768.2227
923.0040, 812.7266
924.1290, 610.3340
925.2530, 818.9648
926.3770, 572.6191
927.5010, 689.4473
928.6250, 557.1582
929.7480, 538.9062
930.8720, 753.3574
931.9950, 491.1055
933.1180, 564.9902
934.2410, 388.9160
935.3640, 330.7188
936.4860, 475.9277
937.6090, 303.8633
938.7310, 388.9043
939.8530, 547.9746
940.9750, 520.0664
942.0970, 458.1855
943.2180, 390.9473
944.3400, 398.8184
945.4610, 391.6270
946.5820, 385.1055
947.7030, 423.3730
948.8240, 391.2539
949.9450, 370.5410
951.0650, 484.3340
952.1860, 880.7344
953.3060, 748.6504
954.4260, 886.6680
955.5460, 815.1191
956.6650, 886.4824
957.7850, 1133.074
958.9040, 1036.697
960.0230, 1173.354
961.1420, 1210.045
962.2610, 1292.766
963.3800, 1376.521
964.4990, 1444.070
965.6170, 1511.770
966.7350, 1609.621
967.8530, 1703.504
968.9710, 1791.654
970.0890, 1608.057
971.2070, 1862.691
972.3240, 1873.711
973.4410, 1837.797
974.5580, 2092.916
975.6750, 2081.070
976.7920, 2284.258
977.9090, 2312.922
979.0250, 2338.178
980.1410, 2421.469
981.2580, 2541.793
982.3740, 2617.152
983.4890, 2768.547
984.6050, 3012.979
985.7200, 3087.447
986.8360, 2886.973
987.9510, 3247.533
989.0660, 3143.131
990.1810, 3554.762
991.2950, 3541.430
992.4100, 3931.135
993.5240, 3946.879
994.6390, 4439.670
995.7530, 4710.502
996.8660, 5239.371
997.9800, 5931.277
999.0940, 6580.229
1000.207, 7429.219
1001.320, 8691.246
1002.433, 9990.834
1003.546, 11336.50
1004.659, 13530.69
1005.772, 15597.95
1006.884, 18239.29
1007.996, 21865.67
1009.108, 25693.09
1010.220, 29957.55
1011.332, 34583.07
1012.444, 38983.64
1013.555, 41541.23
1014.666, 42032.92
1015.777, 41101.64
1016.888, 37319.41
1017.999, 31837.22
1019.110, 26465.08
1020.220, 21174.00
1021.331, 17108.95
1022.441, 13910.95
1023.551, 12179.30
1024.661, 9941.455
1025.770, 8388.672
1026.880, 7519.018
1027.989, 6318.945
1029.098, 5868.156
1030.207, 5526.936
1031.316, 5326.629
1032.425, 4726.094
1033.533, 4494.617
1034.642, 4605.266
1035.750, 4440.814
1036.858, 4639.459
1037.966, 4584.146
1039.073, 4681.879
1040.181, 4516.668
1041.288, 4990.492
1042.396, 4980.178
1043.503, 5237.156
1044.610, 5406.797
1045.716, 5448.479
1046.823, 5291.586
1047.929, 5132.742
1049.036, 4959.926
1050.142, 4667.137
1051.248, 4272.176
1052.353, 3919.453
1053.459, 3540.801
1054.564, 3167.779
1055.670, 2920.662
1056.775, 2580.102
1057.880, 2568.932
1058.985, 2282.424
1060.089, 2229.541
1061.194, 2079.090
1062.298, 1762.891
1063.402, 1719.908
1064.506, 1742.160
1065.610, 1473.982
1066.713, 1496.717
1067.817, 1589.430
1068.920, 1309.174
1070.023, 1236.963
1071.126, 1060.758
1072.229, 1118.572
1073.332, 1102.410
1074.435, 896.2695
1075.537, 957.7949
1076.639, 1106.186
1077.741, 867.1602
1078.843, 701.1699
1079.945, 642.2422
1081.046, 915.3379
1082.148, 862.9199
1083.249, 858.0664
1084.350, 770.3340
1085.451, 747.0312
1086.551, 816.1875
1087.652, 594.5742
1088.752, 562.6719
1089.853, 567.1484
1090.953, 652.5684
1092.053, 597.1055
1093.152, 415.3496
1094.252, 606.6973
1095.351, 607.2539
1096.451, 723.6348
1097.550, 576.1133
1098.649, 537.5312
1099.748, 524.9668
1100.846, 223.4180
1101.945, 638.8906
1103.043, 394.8711
1104.141, 467.3770
1105.239, 675.2383
1106.337, 484.7773
1107.434, 402.3301
1108.532, 634.8965
1109.629, 430.4766
1110.726, 487.1855
1111.823, 585.7969
1112.920, 590.4199
1114.017, 521.0566
1115.113, 536.8828
1116.210, 491.5449
1117.306, 434.2227
1118.402, 644.5820
1119.498, 581.2773
1120.593, 711.9863
1121.689, 461.7031
1122.784, 732.4316
1123.879, 434.1680
1124.974, 638.9141
1126.069, 624.7148
1127.164, 565.4805
1128.259, 603.2559
1129.353, 717.0410
1130.447, 649.8301
1131.541, 657.8438
1132.635, 492.4082
1133.729, 424.2227
1134.822, 734.3262
1135.916, 462.1523
1137.009, 557.0391
1138.102, 649.9160
1139.195, 492.7676
1140.288, 453.6250
1141.380, 486.7148
1142.473, 558.7188
1143.565, 339.6328
1144.657, 303.5488
1145.749, 315.4785
1146.841, 110.4121
1147.932, 122.3496
1149.024, 83.32812
1150.115, 159.4395
1151.206, 319.3809
1152.297, 78.32227
1153.388, 47.69336
1154.479, 110.3633
1155.569, 7.542969
1156.659, 94.45117
1157.750, 166.6406
1158.839, 50.80273
1159.929, 111.9824
1161.019, 15.20898
1162.108, 147.4434
1163.198, 125.7441
1164.287, 106.8984
1165.376, 108.8691
1166.465, 121.2754
1167.553, 7.886719
1168.642, 77.63281
1169.730, 16.27344
1170.818, 106.8008
1171.906, 64.03320
1172.994, 62.13086
1174.082, 11.81641
1175.170, 83.70508
1176.257, 146.2754
1177.344, 38.92578
1178.431, 71.50586
1179.518, 90.81836
1180.605, 121.1934
1181.691, 9.318359
1182.778, 59.95703
1183.864, 67.01953
1184.950, 49.72461
1186.036, 14.50977
1187.122, 21.67773
1188.207, 7.853516
1189.292, 42.72461
1190.378, 27.83789
1191.463, 72.27344
1192.548, 19.62891
1193.632, 21.56250
1194.717, 119.3281
1195.801, 15.38672
1196.886, 44.47852
1197.970, 45.37891
1199.054, 52.02539
1200.137, 8.943359
1201.221, 86.51953
1202.305, 144.3027
1203.388, 191.0723
1204.471, 134.4980
1205.554, 20.57031
1206.637, 26.61328
1207.719, 116.5273
1208.802, 220.2793
1209.884, 175.9512
1210.966, 346.6074
1212.048, 33.24805
1213.130, 123.9434
1214.212, 2.542969
1215.293, 18.97266
1216.374, 6.953125
1217.456, 23.10547
1218.536, 31.55664
1219.617, 53.98242
1220.698, 73.38672
1221.778, 73.19922
1222.859, 236.1348
1223.939, 122.4785
1225.019, 67.80664
1226.099, 191.1133
1227.178, 99.40234
1228.258, 237.6699
1229.337, 270.1191
1230.417, 192.8047
1231.496, 248.1660
1232.574, 60.55859
1233.653, 150.7832
1234.732, 64.74414
1235.810, 228.5020
1236.888, 196.5586
1237.966, 191.5938
1239.044, 142.6094
1240.122, 117.6035
1241.199, 271.7930
1242.277, 290.8984
1243.354, 263.9238
1244.431, 110.8301
1245.508, 378.7148
1246.585, 59.57422
1247.661, 13.59961
1248.738, 314.1660
1249.814, 310.9082
1250.890, 274.6270
1251.966, 261.3223
1253.042, 219.3242
1254.117, 210.0449
1255.193, 162.4980
1256.268, 220.1055
1257.343, 271.6875
1258.418, 353.2480
1259.493, 244.7852
1260.567, 131.2969
1261.642, 84.94922
1262.716, 300.4062
1263.790, 121.8379
1264.864, 218.2617
1265.938, 178.6621
1267.011, 79.03516
1268.085, 266.8008
1269.158, 383.1172
1270.231, 163.7832
1271.304, 186.0488
1272.377, 253.2871
1273.450, 373.8125
1274.522, 311.5820
1275.594, 353.7422
1276.666, 217.0156
1277.738, 210.1250
1278.810, 180.2090
1279.882, 284.6270
1280.953, 354.6543
1282.025, 138.6582
1283.096, 252.8320
1284.167, 384.7656
1285.238, 415.0469
1286.308, 246.8672
1287.379, 373.6582
1288.449, 282.0078
1289.519, 282.9844
1290.589, 241.4004
1291.659, 215.9180
1292.729, 408.6855
