##NAMES=Diopside
##RRUFFID=R040009
##IDEAL CHEMISTRY=CaMgSi_2_O_6_
##LOCALITY=Otter Lake, Quebec, Canada
##OWNER=RRUFF
##SOURCE=University of Arizona Mineral Museum
##DESCRIPTION=Green square prismatic crystal associated with pale orange calcite
##STATUS=The identification of this mineral has been confirmed by X-ray diffraction and chemical analysis
##URL=rruff.info/R040009
##MEASURED CHEMISTRY=(Ca_0.97_Fe_0.02_Na_0.01_)_Σ=1_(Mg_0.97_Fe_0.02_Al_0.01_)_Σ=1_Si_2.00_O_6_; trace amounts of Mn and Ti
##PIN_ID=M00056
##ORIENTATION=Laser parallel to -c [0 0 -1]. Fiducial mark perpendicular to laser is parallel to b* (0 1 0)
89.193, 0.000
90.587, 0.797
91.981, 11.280
93.375, 16.585
94.768, 30.068
96.161, 48.061
97.554, 31.231
98.947, 33.371
100.340, 16.205
101.732, 18.552
103.124, 50.292
104.516, 39.636
105.908, 84.646
107.300, 105.888
108.691, 120.259
110.082, 139.730
111.473, 175.285
112.864, 254.910
114.254, 307.598
115.644, 271.343
117.034, 208.139
118.424, 143.084
119.813, 118.819
121.203, 127.952
122.592, 104.714
123.981, 88.185
125.369, 75.628
126.758, 79.052
128.146, 117.462
129.534, 131.419
130.922, 129.261
132.309, 224.657
133.696, 257.052
135.083, 359.452
136.470, 375.874
137.857, 442.305
139.243, 390.743
140.630, 280.192
142.016, 149.652
143.401, 105.125
144.787, 30.610
146.172, 44.977
147.557, 61.520
148.942, 8.249
150.327, 8.634
151.711, 25.628
153.096, 0.747
154.480, 3.095
155.863, 48.101
157.247, 45.333
158.630, 97.600
160.013, 150.899
161.396, 190.229
162.779, 219.587
164.161, 230.971
165.544, 216.381
166.926, 142.816
168.308, 82.275
169.689, 108.759
171.070, 131.264
172.452, 206.789
173.833, 283.317
175.213, 459.856
176.594, 635.406
177.974, 1005.970
179.354, 1332.549
180.734, 1465.268
182.114, 1330.166
183.493, 968.048
184.872, 568.697
186.251, 395.365
187.630, 270.064
189.008, 302.804
190.387, 333.583
191.765, 408.378
193.143, 431.187
194.520, 411.010
195.898, 420.847
197.275, 285.698
198.652, 173.563
200.029, 59.441
201.405, 28.333
202.782, 9.771
204.158, 3.868
205.534, 17.955
206.909, 63.025
208.285, 46.081
209.660, 16.124
211.035, 36.125
212.410, 3.075
213.784, 19.029
215.159, 7.163
216.533, 30.305
217.907, 69.456
219.281, 164.614
220.654, 253.753
222.027, 375.981
223.400, 519.130
224.773, 696.316
226.146, 881.509
227.518, 1122.708
228.891, 1312.913
230.263, 1474.118
231.634, 1557.286
233.006, 1536.438
234.377, 1349.589
235.748, 1089.748
237.119, 790.915
238.490, 629.089
239.860, 457.271
241.231, 299.460
242.601, 280.656
243.970, 268.859
245.340, 318.069
246.709, 340.285
248.079, 482.508
249.448, 636.738
250.816, 853.974
252.185, 1037.217
253.553, 1103.465
254.921, 1066.303
256.289, 825.034
257.657, 552.932
259.024, 372.886
260.391, 230.885
261.758, 148.921
263.125, 88.990
264.492, 49.088
265.858, 10.210
267.224, 24.355
268.590, 23.520
269.956, 30.702
271.321, 4.101
272.687, 7.890
274.052, 12.337
275.416, 7.418
276.781, 44.846
278.146, 37.024
279.510, 73.416
280.874, 35.810
282.237, 96.228
283.601, 62.395
284.964, 112.743
286.327, 146.095
287.690, 197.886
289.053, 250.838
290.416, 305.693
291.778, 356.073
293.140, 453.460
294.502, 555.999
295.863, 693.260
297.225, 825.671
298.586, 995.088
299.947, 1175.513
301.308, 1367.944
302.668, 1441.382
304.029, 1638.825
305.389, 1828.275
306.749, 2150.730
308.108, 2522.191
309.468, 2955.657
310.827, 3575.124
312.186, 4129.586
313.545, 4940.712
314.903, 5966.570
316.262, 7550.009
317.620, 10076.469
318.978, 12724.744
320.336, 16049.255
321.693, 18993.969
323.051, 20576.549
324.408, 19593.115
325.765, 17495.688
327.121, 14082.197
328.478, 11024.714
329.834, 8479.611
331.190, 6645.393
332.546, 4971.200
333.902, 4035.823
335.257, 3202.595
336.612, 2730.105
337.967, 2264.867
339.322, 1972.529
340.677, 1801.102
342.031, 1608.606
343.385, 1566.203
344.739, 1421.715
346.093, 1443.229
347.446, 1499.747
348.799, 1718.268
350.153, 1846.792
351.505, 2107.321
352.858, 2361.853
354.210, 2598.390
355.563, 2680.928
356.915, 2620.470
358.267, 2257.014
359.618, 2028.563
360.969, 1829.113
362.321, 1670.667
363.672, 1494.223
365.022, 1472.782
366.373, 1405.042
367.723, 1453.507
369.073, 1471.442
370.423, 1545.027
371.773, 1585.569
373.122, 1815.603
374.471, 2076.688
375.821, 2347.197
377.169, 3001.775
378.518, 3451.354
379.866, 4441.935
381.215, 5850.517
382.563, 7760.100
383.910, 10310.683
385.258, 13656.266
386.605, 17726.857
387.952, 20933.436
389.299, 23553.025
390.646, 22611.609
391.992, 19900.199
393.339, 16031.790
394.685, 12108.381
396.031, 9180.974
397.376, 6648.566
398.722, 4963.160
400.067, 3670.756
401.412, 2814.355
402.757, 2240.956
404.101, 1705.556
405.446, 1393.158
406.790, 1157.763
408.134, 934.368
409.478, 768.641
410.821, 728.585
412.165, 550.196
413.508, 512.808
414.851, 486.421
416.193, 364.201
417.536, 359.854
418.878, 314.491
420.220, 305.388
421.562, 210.185
422.904, 220.083
424.245, 194.081
425.586, 139.100
426.927, 170.069
428.268, 175.105
429.609, 101.069
430.949, 74.037
432.289, 160.082
433.629, 39.170
434.969, 60.953
436.309, 17.959
437.648, 59.010
438.987, 17.168
440.326, 2.803
441.665, 5.905
443.003, 8.580
444.342, 12.425
445.680, 32.473
447.018, 34.406
448.355, 55.547
449.693, 65.059
451.030, 17.016
452.367, 133.186
453.704, 63.183
455.041, 85.366
456.377, 124.164
457.713, 208.077
459.049, 181.925
460.385, 289.746
461.721, 352.472
463.056, 325.133
464.391, 361.799
465.726, 392.395
467.061, 331.976
468.395, 175.553
469.730, 161.126
471.064, 105.705
472.398, 106.280
473.731, 20.850
475.065, 54.422
476.398, 39.993
477.731, 14.562
479.064, 25.126
480.397, 30.687
481.729, 1.247
483.062, 18.483
484.394, 24.349
485.725, 24.893
487.057, 42.439
488.389, 42.980
489.720, 34.478
491.051, 2.044
492.382, 48.443
493.712, 26.052
495.043, 31.459
496.373, 42.991
497.703, 5.469
499.032, 24.922
500.362, 48.368
501.691, 71.816
503.020, 46.258
504.349, 69.695
505.678, 137.125
507.007, 196.555
508.335, 280.976
509.663, 236.398
510.991, 320.812
512.319, 284.219
513.646, 347.617
514.973, 394.007
516.300, 494.389
517.627, 489.763
518.954, 539.133
520.280, 699.499
521.607, 889.860
522.933, 1121.219
524.259, 1429.574
525.584, 1703.923
526.910, 2077.264
528.235, 2285.596
529.560, 2330.922
530.885, 2164.251
532.209, 1801.578
533.534, 1471.902
534.858, 1185.221
536.182, 946.659
537.506, 745.827
538.829, 594.113
540.152, 481.385
541.476, 414.643
542.799, 316.885
544.121, 349.113
545.444, 380.325
546.766, 341.631
548.088, 404.811
549.410, 453.127
550.732, 593.275
552.053, 731.702
553.375, 997.023
554.696, 1252.460
556.017, 1573.672
557.337, 1797.054
558.658, 1855.416
559.978, 1572.094
561.298, 1402.626
562.618, 1012.776
563.938, 722.302
565.257, 569.836
566.576, 368.248
567.895, 268.843
569.214, 252.299
570.533, 181.723
571.851, 123.337
573.170, 136.653
574.488, 78.984
575.805, 111.369
577.123, 116.873
578.440, 56.331
579.758, 81.686
581.075, 61.057
582.391, 38.225
583.708, 34.381
585.024, 47.789
586.341, 32.957
587.657, 51.368
588.972, 51.626
590.288, 34.432
591.603, 19.281
592.918, 1.625
594.233, 1.595
595.548, 20.506
596.863, 14.281
598.177, 33.036
599.491, 28.043
600.805, 28.115
602.119, 17.178
603.432, 0.109
604.746, 67.898
606.059, 40.945
607.372, 3.178
608.685, 53.275
609.997, 17.807
611.309, 45.329
612.621, 19.584
613.933, 98.333
615.245, 70.858
616.557, 86.773
617.868, 93.347
619.179, 117.900
620.490, 133.477
621.801, 132.129
623.111, 150.468
624.421, 210.806
625.731, 171.289
627.041, 258.871
628.351, 194.281
629.660, 188.764
630.970, 265.194
632.279, 250.477
633.588, 330.896
634.896, 269.762
636.205, 447.059
637.513, 409.273
638.821, 492.591
640.129, 583.552
641.437, 655.368
642.744, 658.529
644.051, 743.484
645.358, 848.617
646.665, 976.301
647.972, 1148.632
649.278, 1267.162
650.584, 1467.007
651.890, 1883.007
653.196, 2111.990
654.502, 2751.493
655.807, 3264.773
657.113, 4163.609
658.418, 5468.402
659.722, 7065.436
661.027, 9014.792
662.331, 11378.674
663.636, 13599.770
664.940, 14738.408
666.244, 14851.761
667.547, 13382.557
668.851, 11690.269
670.154, 9229.629
671.457, 7279.147
672.760, 5742.828
674.062, 4377.443
675.365, 3526.761
676.667, 2822.545
677.969, 2197.508
679.271, 1837.755
680.572, 1500.960
681.874, 1365.098
683.175, 1106.367
684.476, 998.705
685.777, 835.037
687.077, 726.137
688.378, 712.231
689.678, 557.307
690.978, 560.192
692.278, 412.203
693.577, 516.245
694.877, 381.102
696.176, 396.346
697.475, 391.388
698.774, 378.394
700.072, 327.364
701.371, 282.298
702.669, 187.196
703.967, 231.058
705.265, 178.509
706.562, 287.670
707.860, 145.421
709.157, 167.369
710.454, 136.084
711.751, 186.719
713.047, 142.453
714.344, 144.101
715.640, 64.978
716.936, 96.838
718.232, 184.518
719.527, 90.970
720.823, 85.521
722.118, 111.127
723.413, 63.533
724.708, 92.885
726.002, 96.659
727.297, 47.394
728.591, 114.937
729.885, 107.115
731.179, 90.138
732.472, 57.084
733.766, 64.041
735.059, 83.662
736.352, 6.343
737.645, 119.145
738.937, 116.540
740.230, 50.873
741.522, 103.215
742.814, 39.656
744.106, 71.059
745.397, 39.276
746.689, 53.461
747.980, 93.402
749.271, 10.376
750.562, 77.623
751.853, 33.385
753.143, 42.584
754.433, 22.520
755.723, 75.243
757.013, 38.348
758.303, 59.089
759.592, 18.877
760.881, 13.744
762.170, 87.293
763.459, 9.290
764.748, 1.988
766.036, 102.542
767.325, 29.698
768.613, 35.990
769.901, 84.149
771.188, 8.576
772.476, 59.961
773.763, 5.666
775.050, 41.765
776.337, 28.360
777.624, 3.942
778.910, 87.050
780.196, 46.885
781.482, 17.750
782.768, 23.788
784.054, 30.164
785.339, 36.647
786.625, 9.405
787.910, 28.606
789.195, 1.817
790.479, 10.028
791.764, 33.664
793.048, 12.912
794.332, 39.257
795.616, 6.304
796.900, 18.186
798.183, 26.520
799.467, 28.401
800.750, 22.547
802.033, 23.640
803.316, 91.890
804.598, 63.618
805.880, 5.813
807.163, 18.780
808.445, 87.430
809.726, 6.967
811.008, 12.265
812.289, 31.542
813.570, 1.591
814.851, 8.315
816.132, 11.731
817.413, 22.263
818.693, 54.690
819.973, 28.395
821.253, 2.465
822.533, 15.282
823.813, 91.059
825.092, 45.797
826.371, 1.497
827.650, 7.157
828.929, 15.699
830.208, 25.621
831.486, 10.137
832.764, 35.666
834.042, 17.250
835.320, 16.884
836.598, 34.434
837.875, 9.720
839.152, 2.962
840.429, 50.164
841.706, 43.326
842.983, 21.550
844.259, 76.525
845.536, 38.563
846.812, 22.562
848.088, 58.521
849.363, 196.441
850.639, 248.331
851.914, 345.193
853.189, 421.023
854.464, 529.820
855.739, 470.593
857.013, 390.225
858.288, 309.937
859.562, 330.470
860.836, 327.123
862.110, 181.449
863.383, 227.835
864.656, 238.057
865.930, 205.458
867.203, 216.641
868.475, 152.800
869.748, 146.593
871.020, 180.483
872.292, 225.708
873.564, 192.512
874.836, 169.257
876.108, 208.077
877.379, 210.664
878.650, 265.339
879.922, 199.008
881.192, 135.436
882.463, 213.112
883.733, 200.724
885.004, 251.232
886.274, 232.569
887.544, 262.901
888.813, 275.284
890.083, 177.601
891.352, 308.071
892.621, 250.497
893.890, 284.617
895.159, 192.922
896.427, 208.928
897.695, 298.031
898.964, 221.970
900.232, 314.935
901.499, 217.037
902.767, 263.144
904.034, 242.133
905.301, 218.921
906.568, 234.732
907.835, 267.451
909.102, 258.816
910.368, 251.707
911.634, 287.917
912.900, 208.542
914.166, 246.071
915.432, 230.916
916.697, 201.765
917.962, 185.062
919.227, 160.870
920.492, 118.886
921.757, 87.344
923.021, 224.962
924.285, 239.191
925.550, 238.102
926.813, 235.194
928.077, 201.308
929.341, 164.965
930.604, 99.534
931.867, 130.287
933.130, 113.837
934.393, 200.282
935.655, 68.013
936.918, 170.825
938.180, 50.535
939.442, 23.517
940.703, 118.058
941.965, 43.234
943.226, 84.138
944.488, 126.076
945.749, 174.354
947.009, 101.516
948.270, 78.548
949.530, 116.489
950.791, 191.024
952.051, 151.191
953.311, 172.007
954.570, 259.998
955.830, 251.521
957.089, 331.255
958.348, 245.653
959.607, 358.220
960.866, 200.208
962.124, 336.189
963.383, 378.549
964.641, 423.907
965.899, 514.278
967.156, 460.933
968.414, 478.045
969.671, 549.917
970.928, 559.429
972.185, 616.882
973.442, 645.970
974.699, 729.766
975.955, 704.095
977.211, 737.452
978.468, 896.863
979.723, 908.953
980.979, 890.702
982.234, 1194.812
983.490, 1058.176
984.745, 1284.645
986.000, 1366.520
987.254, 1401.122
988.509, 1689.684
989.763, 1781.623
991.017, 1961.439
992.271, 2241.070
993.525, 2571.153
994.779, 2869.783
996.032, 3350.793
997.285, 3860.234
998.538, 4460.972
999.791, 5360.842
1001.044, 6355.494
1002.296, 7893.965
1003.548, 9671.390
1004.800, 12377.531
1006.052, 16060.512
1007.304, 21286.951
1008.555, 28695.812
1009.807, 37922.746
1011.058, 46543.211
1012.309, 51801.277
1013.559, 49188.023
1014.810, 41154.227
1016.060, 32158.596
1017.310, 23474.719
1018.560, 17037.730
1019.810, 12779.766
1021.060, 9543.410
1022.309, 7309.927
1023.558, 5971.611
1024.807, 4759.269
1026.056, 3959.426
1027.305, 3502.217
1028.553, 3089.003
1029.801, 2769.883
1031.049, 2332.483
1032.297, 2333.040
1033.545, 2213.356
1034.793, 2007.784
1036.040, 1861.231
1037.287, 1935.626
1038.534, 1914.153
1039.781, 2050.086
1041.027, 1970.542
1042.274, 2000.776
1043.520, 2267.652
1044.766, 2285.541
1046.012, 2511.133
1047.257, 2437.939
1048.503, 2485.930
1049.748, 2118.635
1050.993, 2001.621
1052.238, 1647.036
1053.483, 1405.477
1054.727, 1105.648
1055.971, 1056.947
1057.216, 926.096
1058.459, 978.859
1059.703, 740.923
1060.947, 767.659
1062.190, 648.773
1063.433, 596.299
1064.676, 504.314
1065.919, 485.807
1067.162, 506.589
1068.404, 490.505
1069.646, 440.810
1070.888, 471.127
1072.130, 416.714
1073.372, 352.208
1074.613, 336.095
1075.855, 301.251
1077.096, 243.490
1078.337, 266.356
1079.578, 343.611
1080.818, 287.231
1082.059, 287.197
1083.299, 275.170
1084.539, 234.592
1085.779, 184.124
1087.018, 207.163
1088.258, 135.518
1089.497, 222.264
1090.736, 178.381
1091.975, 100.027
1093.213, 107.223
1094.452, 230.496
1095.690, 43.019
1096.928, 128.125
1098.166, 58.802
1099.404, 189.644
1100.642, 0.465
1101.879, 178.572
1103.116, 116.046
1104.353, 195.406
1105.590, 50.099
1106.827, 123.668
1108.063, 38.659
1109.299, 103.931
1110.536, 87.769
1111.771, 113.400
1113.007, 132.205
1114.243, 74.717
1115.478, 134.292
1116.713, 144.117
1117.948, 136.562
1119.183, 76.029
1120.418, 143.431
1121.652, 109.904
1122.886, 184.321
1124.120, 127.459
1125.354, 68.095
1126.588, 2.056
1127.821, 78.614
1129.055, 216.460
1130.288, 241.359
1131.521, 122.826
1132.753, 13.357
1133.986, 153.285
1135.218, 217.935
1136.450, 47.940
1137.682, 302.113
1138.914, 81.863
1140.146, 171.314
1141.377, 47.056
1142.609, 144.545
1143.840, 91.333
1145.071, 179.630
1146.301, 84.614
1147.532, 86.094
1148.762, 30.769
1149.992, 20.564
1151.222, 111.437
1152.452, 171.105
1153.682, 36.669
1154.911, 92.903
1156.140, 14.820
1157.369, 7.604
1158.598, 74.823
1159.827, 174.978
1161.055, 13.091
1162.284, 119.600
1163.512, 91.922
1164.740, 107.392
1165.967, 1.814
1167.195, 91.448
1168.422, 175.922
1169.650, 46.406
1170.877, 47.457
1172.103, 186.832
1173.330, 72.025
1174.557, 146.596
1175.783, 139.646
1177.009, 21.446
1178.235, 156.900
1179.461, 107.280
1180.686, 49.147
1181.912, 160.851
1183.137, 186.339
1184.362, 176.971
1185.587, 139.542
1186.811, 80.869
1188.036, 100.682
1189.260, 168.646
1190.484, 239.589
1191.708, 222.889
1192.932, 230.446
1194.155, 181.424
1195.378, 155.761
1196.602, 188.786
1197.825, 137.853
1199.047, 223.549
1200.270, 71.103
1201.492, 279.165
1202.715, 61.915
1203.937, 244.147
1205.159, 123.658
1206.380, 239.621
1207.602, 13.041
1208.823, 193.936
1210.044, 102.421
1211.265, 183.230
1212.486, 274.522
1213.707, 163.499
1214.927, 331.544
1216.147, 119.188
1217.367, 265.975
1218.587, 200.452
1219.807, 222.398
1221.027, 302.401
1222.246, 217.440
1223.465, 178.988
1224.684, 259.076
1225.903, 251.092
1227.121, 156.893
1228.340, 293.180
1229.558, 253.295
1230.776, 210.259
1231.994, 271.505
1233.212, 229.741
1234.429, 248.776
1235.646, 150.621
1236.864, 325.451
1238.081, 148.809
1239.297, 222.845
1240.514, 219.807
1241.730, 193.071
1242.947, 193.476
1244.163, 101.312
1245.378, 209.979
1246.594, 265.397
1247.810, 10.309
1249.025, 277.219
1250.240, 163.093
1251.455, 251.529
1252.670, 256.686
1253.885, 166.963
1255.099, 39.224
1256.313, 48.772
1257.527, 172.549
1258.741, 137.283
1259.955, 158.927
1261.168, 48.592
1262.382, 211.541
1263.595, 123.134
1264.808, 234.899
1266.021, 218.800
1267.233, 84.962
1268.446, 185.464
1269.658, 28.559
1270.870, 127.604
1272.082, 84.140
1273.294, 105.120
1274.505, 71.378
1275.716, 149.725
1276.928, 81.031
1278.139, 161.416
1279.349, 7.062
1280.560, 114.061
1281.770, 160.012
1282.981, 18.482
1284.191, 0.219
1285.401, 13.159
1286.610, 133.976
1287.820, 59.201
1289.029, 40.474
1290.239, 131.876
1291.448, 62.537
1292.656, 10.691
1293.865, 19.794
1295.073, 52.762
1296.282, 5.412
1297.490, 36.610
1298.698, 35.421
1299.906, 26.804
1301.113, 13.212
1302.320, 21.160
1303.528, 14.907
1304.735, 110.487
1305.942, 31.278
1307.148, 95.040
1308.355, 37.058
1309.561, 81.039
1310.767, 47.197
1311.973, 135.751
1313.179, 61.378
1314.384, 241.580
1315.590, 6.682
1316.795, 222.451
1318.000, 117.987
1319.205, 169.487
1320.410, 110.717
1321.614, 30.643
1322.819, 296.328
1324.023, 134.976
1325.227, 346.866
1326.431, 181.117
1327.634, 46.589
1328.838, 301.127
1330.041, 281.340
1331.244, 306.267
1332.447, 205.666
1333.650, 325.073
1334.852, 296.446
1336.055, 217.770
1337.257, 170.373
1338.459, 223.146
1339.661, 302.812
1340.862, 183.361
1342.064, 295.758
1343.265, 187.245
1344.466, 345.529
1345.667, 227.077
1346.868, 461.362
1348.068, 302.543
1349.269, 437.295
1350.469, 530.438
1351.669, 378.594
1352.869, 459.682
1354.069, 516.736
1355.268, 395.574
1356.468, 478.637
1357.667, 512.650
1358.866, 450.402
1360.065, 502.486
1361.263, 422.625
1362.462, 452.260
1363.660, 529.746
1364.858, 457.547
1366.056, 365.328
1367.254, 388.893
1368.451, 372.900
1369.649, 362.576
1370.846, 425.277
1372.043, 430.881
1373.240, 400.369
1374.436, 362.549
1375.633, 413.770
1376.829, 367.963
1378.025, 383.207
1379.221, 387.230
1380.417, 345.596
1381.613, 348.648
1382.808, 290.113
1384.003, 254.650
1385.199, 225.002
1386.393, 184.164
1387.588, 335.379
1388.783, 247.855
1389.977, 430.172
1391.171, 248.197
1392.365, 127.262
1393.559, 241.748
1394.753, 124.115
1395.946, 211.961
1397.140, 190.955
1398.333, 282.105
1399.526, 210.312
1400.719, 356.535
1401.911, 278.488
1403.104, 250.652
1404.296, 117.408
1405.488, 292.102
1406.680, 74.787
1407.872, 173.350
1409.063, 290.791
1410.255, 176.797
1411.446, 258.059
1412.637, 85.693
1413.828, 298.930
1415.018, 369.670
1416.209, 229.363
1417.399, 130.900
1418.589, 225.336
1419.779, 135.855
1420.969, 177.809
1422.159, 232.523
1423.348, 131.209
1424.537, 236.445
1425.726, 150.820
1426.915, 260.285
1428.104, 79.947
1429.293, 17.996
1430.481, 3.846
1431.669, 3.695
1432.857, 202.854
1434.045, 27.635
1435.233, 136.340
1436.420, 282.434
1437.608, 109.957
1438.795, 185.119
1439.982, 69.008
1441.169, 91.303
1442.355, 105.895
1443.542, 105.463
1444.728, 58.541
1445.914, 0.000
##END=



