##NAMES=Dolomite
##RRUFFID=R040030
##IDEAL CHEMISTRY=CaMg(CO_3_)_2_
##LOCALITY=Austria
##OWNER=RRUFF
##SOURCE=University of Arizona Mineral Museum
##DESCRIPTION=Group of colorless tabular crystals
##STATUS=The identification of this mineral has been confirmed by X-ray diffraction and chemical analysis
##URL=rruff.info/R040030
##MEASURED CHEMISTRY=(Ca_0.99_Mg_0.01_)_Î£=1_Mg_1.00_(CO_3_)_2_ ; trace amounts of Mn; CO_2_ estimated by difference
##PIN_ID=M00005
##ORIENTATION=Laser parallel to a* (1 0 0). Fiducial mark perpendicular to laser is parallel to -c [0 0 -1]
50.850, 0.000
52.251, 0.192
53.653, 48.396
55.054, 39.840
56.454, 40.381
57.855, 54.039
59.255, 61.298
60.655, 96.420
62.055, 126.744
63.454, 123.326
64.854, 117.809
66.253, 99.499
67.652, 74.367
69.050, 27.391
70.449, 37.550
71.847, 12.830
73.245, 6.777
74.643, 7.283
76.040, 19.302
77.438, 10.974
78.835, 47.722
80.232, 61.541
81.628, 63.422
83.025, 104.357
84.421, 83.343
85.817, 115.372
87.213, 169.443
88.608, 162.550
90.003, 237.690
91.398, 191.861
92.793, 256.117
94.188, 252.421
95.582, 263.742
96.976, 265.079
98.370, 240.431
99.764, 274.828
101.157, 222.278
102.550, 269.750
103.943, 241.245
105.336, 284.755
106.729, 234.286
108.121, 244.823
109.513, 277.367
110.905, 227.918
112.297, 263.474
113.688, 241.037
115.079, 263.604
116.470, 255.177
117.861, 246.754
119.251, 253.336
120.642, 223.922
122.032, 198.512
123.422, 184.106
124.811, 181.704
126.201, 151.305
127.590, 159.909
128.979, 148.174
130.367, 141.126
131.756, 141.750
133.144, 131.027
134.532, 131.634
135.920, 134.974
137.307, 129.571
138.695, 126.183
140.082, 97.795
141.469, 138.406
142.856, 100.017
144.242, 144.629
145.628, 111.242
147.014, 68.052
148.400, 160.251
149.786, 106.497
151.171, 154.130
152.556, 105.765
153.941, 123.337
155.325, 148.991
156.710, 151.663
158.094, 178.337
159.478, 167.553
160.862, 203.352
162.245, 193.037
163.629, 228.725
165.012, 274.414
166.395, 287.103
167.777, 391.792
169.160, 517.483
170.542, 736.177
171.924, 999.871
173.306, 1452.565
174.687, 1971.259
176.068, 2657.951
177.449, 3306.643
178.830, 3407.333
180.211, 3066.021
181.591, 2333.709
182.972, 1545.396
184.351, 1056.089
185.731, 694.781
187.111, 477.472
188.490, 312.160
189.869, 224.847
191.248, 190.533
192.626, 129.218
194.005, 126.912
195.383, 83.607
196.761, 70.300
198.139, 63.989
199.516, 48.108
200.893, 46.371
202.271, 48.063
203.647, 36.751
205.024, 51.436
206.400, 50.117
207.777, 1.803
209.152, 31.476
210.528, 15.565
211.904, 12.655
213.279, 23.313
214.654, 15.981
216.029, 8.663
217.403, 7.739
218.778, 8.679
220.152, 11.880
221.526, 32.557
222.900, 42.191
224.273, 41.615
225.646, 38.306
227.019, 23.910
228.392, 25.509
229.765, 17.086
231.137, 4.685
232.509, 9.320
233.881, 4.928
235.253, 7.579
236.625, 11.432
237.996, 4.059
239.367, 11.440
240.738, 3.106
242.108, 18.585
243.479, 16.643
244.849, 22.656
246.219, 7.492
247.589, 3.851
248.958, 12.552
250.328, 33.265
251.697, 26.951
253.065, 41.645
254.434, 26.400
255.803, 9.884
257.171, 28.416
258.539, 47.877
259.906, 16.386
261.274, 36.197
262.641, 48.888
264.008, 33.603
265.375, 43.804
266.742, 4.397
268.108, 22.347
269.475, 0.001
270.840, 36.416
272.206, 33.112
273.572, 30.826
274.937, 49.766
276.302, 14.423
277.667, 70.102
279.032, 43.788
280.396, 77.459
281.760, 95.145
283.125, 108.779
284.488, 114.562
285.852, 103.354
287.215, 157.225
288.578, 186.939
289.941, 255.632
291.304, 299.315
292.666, 357.978
294.029, 457.646
295.391, 548.354
296.753, 731.015
298.114, 893.670
299.476, 1054.289
300.837, 1171.887
302.198, 1212.483
303.558, 1223.096
304.919, 1014.687
306.279, 834.325
307.639, 652.976
308.999, 502.605
310.359, 409.298
311.718, 276.878
313.077, 236.482
314.436, 187.906
315.795, 171.469
317.154, 150.121
318.512, 123.675
319.870, 128.277
321.228, 89.925
322.586, 97.471
323.943, 105.029
325.300, 96.566
326.657, 77.281
328.014, 75.863
329.371, 113.610
330.727, 93.219
332.083, 142.788
333.439, 221.396
334.795, 252.981
336.150, 386.832
337.506, 444.469
338.861, 615.978
340.215, 724.530
341.570, 750.032
342.924, 728.574
344.279, 551.147
345.633, 456.640
346.986, 333.299
348.340, 221.786
349.693, 193.356
351.046, 112.855
352.399, 108.333
353.752, 79.827
355.104, 97.299
356.457, 52.770
357.809, 66.239
359.160, 39.703
360.512, 26.165
361.863, 45.624
363.214, 45.078
364.565, 33.530
365.916, 42.979
367.267, 0.538
368.617, 34.902
369.967, 0.659
371.317, 28.775
372.666, 48.206
374.016, 43.683
375.365, 17.103
376.714, 34.530
378.063, 45.172
379.411, 3.419
380.760, 17.988
382.108, 35.024
383.456, 9.524
384.803, 17.968
386.151, 7.573
387.498, 10.842
388.845, 32.254
390.192, 28.685
391.539, 33.087
392.885, 30.492
394.231, 22.898
395.577, 37.255
396.923, 22.659
398.269, 3.009
399.614, 38.353
400.959, 19.693
402.304, 11.910
403.649, 19.326
404.993, 8.648
406.337, 4.876
407.681, 3.432
409.025, 21.636
410.369, 18.681
411.712, 15.960
413.055, 23.291
414.398, 21.581
415.741, 11.053
417.084, 17.353
418.426, 20.972
419.768, 7.568
421.110, 8.339
422.452, 5.879
423.793, 23.127
425.134, 17.336
426.475, 3.439
427.816, 6.755
429.157, 11.594
430.497, 30.779
431.837, 7.122
433.177, 20.048
434.517, 15.214
435.857, 0.375
437.196, 28.529
438.535, 22.678
439.874, 20.824
441.213, 23.965
442.551, 20.103
443.889, 34.235
445.227, 6.364
446.565, 5.487
447.903, 1.604
449.240, 12.716
450.577, 15.822
451.914, 17.924
453.251, 22.021
454.588, 20.611
455.924, 12.210
457.260, 21.302
458.596, 20.389
459.932, 28.472
461.267, 43.556
462.602, 33.636
463.938, 27.714
465.272, 39.788
466.607, 20.859
467.941, 16.927
469.276, 21.991
470.610, 10.053
471.943, 47.110
473.277, 24.163
474.610, 8.783
475.944, 39.260
477.276, 12.301
478.609, 50.338
479.942, 20.372
481.274, 11.405
482.606, 46.433
483.938, 28.459
485.270, 35.482
486.601, 4.500
487.932, 20.513
489.263, 2.521
490.594, 13.523
491.925, 21.521
493.255, 12.486
494.585, 16.498
495.915, 0.522
497.245, 8.450
498.575, 35.421
499.904, 21.387
501.233, 45.350
502.562, 22.308
503.891, 14.261
505.219, 37.211
506.548, 13.844
507.876, 34.088
509.203, 13.017
510.531, 27.940
511.859, 48.993
513.186, 28.040
514.513, 56.951
515.840, 44.503
517.166, 59.406
518.493, 55.306
519.819, 42.235
521.145, 53.119
522.470, 40.006
523.796, 55.890
525.121, 39.935
526.446, 23.838
527.771, 73.307
529.096, 35.633
530.421, 64.122
531.745, 39.984
533.069, 19.845
534.393, 44.702
535.716, 29.501
537.040, 20.350
538.363, 51.198
539.686, 30.465
541.009, 28.256
542.331, 10.094
543.654, 18.826
544.976, 14.605
546.298, 21.596
547.620, 21.438
548.941, 16.138
550.263, 21.943
551.584, 20.750
552.905, 19.553
554.225, 38.319
555.546, 18.115
556.866, 46.870
558.186, 39.428
559.506, 57.211
560.826, 15.942
562.145, 24.592
563.465, 47.313
564.784, 9.953
566.103, 58.067
567.421, 33.625
568.740, 18.690
570.058, 29.397
571.376, 13.089
572.694, 21.808
574.011, 0.485
575.329, 17.158
576.646, 50.837
577.963, 0.070
579.279, 26.858
580.596, 39.734
581.912, 14.305
583.228, 50.993
584.544, 17.653
585.860, 69.823
587.175, 24.392
588.491, 56.010
589.806, 36.716
591.121, 42.655
592.435, 55.309
593.750, 29.940
595.064, 45.342
596.378, 68.022
597.692, 45.705
599.006, 82.378
600.319, 54.030
601.632, 80.662
602.945, 59.341
604.258, 49.868
605.571, 65.380
606.883, 45.808
608.195, 50.394
609.507, 52.991
610.819, 39.593
612.131, 57.136
613.442, 49.585
614.753, 59.438
616.064, 48.853
617.375, 76.458
618.685, 80.411
619.995, 86.060
621.306, 131.214
622.615, 130.838
623.925, 101.624
625.235, 253.640
626.544, 170.210
627.853, 250.424
629.162, 182.942
630.471, 187.603
631.779, 171.302
633.087, 95.208
634.395, 110.381
635.703, 83.903
637.011, 73.831
638.318, 111.120
639.625, 55.625
640.932, 134.782
642.239, 71.364
643.546, 118.960
644.852, 149.372
646.158, 137.912
647.464, 163.280
648.770, 186.782
650.076, 150.318
651.381, 144.853
652.686, 89.363
653.991, 152.600
655.296, 122.764
656.600, 125.334
657.905, 105.856
659.209, 58.421
660.513, 86.944
661.817, 22.477
663.120, 39.038
664.423, 58.567
665.726, 29.122
667.029, 33.589
668.332, 2.121
669.635, 2.149
670.937, 41.291
672.239, 7.165
673.541, 31.378
674.842, 20.918
676.144, 12.457
677.445, 42.995
678.746, 29.530
680.047, 43.063
681.348, 0.593
682.648, 13.120
683.948, 23.180
685.248, 3.684
686.548, 11.832
687.848, 39.347
689.147, 37.860
690.447, 26.318
691.746, 37.826
693.044, 57.320
694.343, 20.773
695.641, 48.274
696.940, 90.770
698.238, 67.254
699.535, 118.646
700.833, 122.087
702.130, 115.508
703.427, 113.963
704.724, 112.416
706.021, 172.844
707.318, 146.295
708.614, 182.739
709.910, 208.175
711.206, 217.655
712.502, 277.082
713.798, 285.557
715.093, 371.031
716.388, 441.504
717.683, 516.916
718.978, 619.370
720.272, 784.841
721.567, 1005.225
722.861, 1358.695
724.155, 1577.164
725.448, 1986.606
726.742, 1982.078
728.035, 1987.493
729.328, 1670.943
730.621, 1241.205
731.914, 997.633
733.206, 724.096
734.499, 546.400
735.791, 402.870
737.083, 317.342
738.374, 276.776
739.666, 177.245
740.957, 124.691
742.248, 163.159
743.539, 107.625
744.830, 104.090
746.120, 99.554
747.410, 71.018
748.701, 81.482
749.990, 23.943
751.280, 59.405
752.570, 5.865
753.859, 5.323
755.148, 51.779
756.437, 18.233
757.725, 26.686
759.014, 22.137
760.302, 14.588
761.590, 24.037
762.878, 10.486
764.166, 50.934
765.453, 13.380
766.740, 11.516
768.027, 33.919
769.314, 11.646
770.601, 19.862
771.887, 15.286
773.174, 17.292
774.460, 52.117
775.745, 4.475
777.031, 42.926
778.316, 1.326
779.602, 3.277
780.887, 20.115
782.172, 6.495
783.456, 15.946
784.741, 4.329
786.025, 14.290
787.309, 1.081
788.593, 5.548
789.876, 24.817
791.160, 1.819
792.443, 8.460
793.726, 19.892
795.009, 5.756
796.291, 26.589
797.574, 26.933
798.856, 17.276
800.138, 41.618
801.420, 23.960
802.702, 26.301
803.983, 89.887
805.264, 13.773
806.545, 58.562
807.826, 21.922
809.107, 8.744
810.387, 32.066
811.667, 18.393
812.947, 35.719
814.227, 36.031
815.507, 3.355
816.786, 14.705
818.065, 1.027
819.344, 24.352
820.623, 14.676
821.902, 7.000
823.180, 52.293
824.459, 2.483
825.737, 48.803
827.014, 22.846
828.292, 18.165
829.569, 83.786
830.847, 44.487
832.124, 50.803
833.401, 65.131
834.677, 32.446
835.954, 63.596
837.230, 5.118
838.506, 5.810
839.782, 60.039
841.057, 14.304
842.333, 95.604
843.608, 49.904
844.883, 45.204
846.158, 121.503
847.433, 50.802
848.707, 115.101
849.981, 78.399
851.255, 81.697
852.529, 153.994
853.803, 65.292
855.076, 143.589
856.350, 162.887
857.623, 126.184
858.895, 214.481
860.168, 154.778
861.441, 190.075
862.713, 215.372
863.985, 145.669
865.257, 207.966
866.528, 112.263
867.800, 125.560
869.071, 160.857
870.342, 47.153
871.613, 168.450
872.884, 119.747
874.154, 96.044
875.425, 104.341
876.695, 80.638
877.965, 63.935
879.234, 124.233
880.504, 149.530
881.773, 302.828
883.042, 336.126
884.311, 323.425
885.580, 215.724
886.848, 106.024
888.117, 101.324
889.385, 117.625
890.653, 102.926
891.920, 87.228
893.188, 77.529
894.455, 89.831
895.722, 88.134
896.989, 57.438
898.256, 94.743
899.523, 42.051
900.789, 93.359
902.055, 87.668
903.321, 39.977
904.587, 127.286
905.852, 45.567
907.118, 96.846
908.383, 51.158
909.648, 80.469
910.913, 76.782
912.177, 29.095
913.442, 69.409
914.706, 71.723
915.970, 34.035
917.233, 52.353
918.497, 11.329
919.760, 48.063
921.024, 69.378
922.287, 19.234
923.550, 63.074
924.812, 21.383
926.075, 36.377
927.337, 59.688
928.599, 35.493
929.861, 55.815
931.122, 14.993
932.384, 13.890
933.645, 77.216
934.906, 1.082
936.167, 48.247
937.428, 24.544
938.688, 37.769
939.948, 62.960
941.208, 55.742
942.468, 22.082
943.728, 39.107
944.987, 24.719
946.247, 49.065
947.506, 21.857
948.765, 23.206
950.023, 29.558
951.282, 28.911
952.540, 46.266
953.798, 70.628
955.056, 7.007
956.314, 88.356
957.572, 13.678
958.829, 0.954
960.086, 25.416
961.343, 12.932
962.600, 44.438
963.856, 21.809
965.113, 22.817
966.369, 12.551
967.625, 1.125
968.881, 27.247
970.136, 51.481
971.392, 10.857
972.647, 29.236
973.902, 25.383
975.157, 10.991
976.411, 8.279
977.666, 30.342
978.920, 19.031
980.174, 9.593
981.428, 12.219
982.682, 53.155
983.935, 0.469
985.188, 7.910
986.441, 22.291
987.694, 49.675
988.947, 60.488
990.199, 16.265
991.452, 29.659
992.704, 63.057
993.956, 29.457
995.207, 59.860
996.459, 56.265
997.710, 11.674
998.961, 102.085
1000.212, 103.499
1001.463, 206.916
1002.714, 215.335
1003.964, 241.758
1005.214, 243.183
1006.464, 94.612
1007.714, 80.043
1008.964, 82.477
1010.213, 59.914
1011.462, 105.354
1012.711, 53.797
1013.960, 97.242
1015.209, 118.691
1016.457, 63.143
1017.705, 96.598
1018.954, 120.055
1020.201, 93.516
1021.449, 205.979
1022.697, 126.446
1023.944, 165.916
1025.191, 207.389
1026.438, 123.864
1027.685, 209.343
1028.931, 167.825
1030.177, 139.310
1031.423, 216.798
1032.669, 166.289
1033.915, 194.783
1035.161, 169.281
1036.406, 134.781
1037.651, 235.284
1038.896, 171.875
1040.141, 206.385
1041.386, 227.900
1042.630, 214.418
1043.874, 243.939
1045.118, 240.606
1046.362, 213.138
1047.606, 282.102
1048.849, 210.026
1050.092, 295.568
1051.336, 300.113
1052.578, 313.662
1053.821, 357.214
1055.064, 349.803
1056.306, 345.380
1057.548, 422.961
1058.790, 401.553
1060.032, 490.150
1061.273, 532.749
1062.515, 520.352
1063.756, 669.957
1064.997, 692.947
1066.237, 763.568
1067.478, 922.192
1068.718, 1019.437
1069.959, 1180.079
1071.199, 1331.724
1072.438, 1446.298
1073.678, 1658.960
1074.918, 1823.625
1076.157, 2117.303
1077.396, 2288.985
1078.635, 2352.537
1079.873, 2649.229
1081.112, 2699.926
1082.350, 2934.637
1083.588, 3167.352
1084.826, 3298.016
1086.064, 3765.523
1087.301, 4142.259
1088.539, 4631.001
1089.776, 5763.750
1091.013, 6795.503
1092.250, 8701.261
1093.486, 12120.020
1094.723, 16608.789
1095.959, 26447.559
1097.195, 37686.332
1098.431, 49905.113
1099.666, 55763.895
1100.902, 46782.676
1102.137, 33492.508
1103.372, 21291.297
1104.607, 13349.844
1105.842, 8838.641
1107.076, 5815.446
1108.311, 4193.229
1109.545, 3248.038
1110.779, 2463.373
1112.012, 1990.193
1113.246, 1628.016
1114.479, 1315.855
1115.712, 1133.685
1116.945, 921.491
1118.178, 829.327
1119.411, 792.167
1120.643, 635.010
1121.875, 610.855
1123.108, 511.601
1124.339, 442.453
1125.571, 460.308
1126.802, 411.800
1128.034, 387.661
1129.265, 353.222
1130.496, 351.673
1131.727, 353.543
1132.957, 290.404
1134.187, 241.281
1135.418, 307.160
1136.648, 202.043
1137.877, 207.931
1139.107, 209.825
1140.336, 148.722
1141.566, 207.621
1142.795, 200.524
1144.023, 102.429
1145.252, 177.338
1146.480, 158.249
1147.709, 140.163
1148.937, 162.079
1150.165, 101.998
1151.392, 144.919
1152.620, 126.687
1153.847, 99.770
1155.074, 124.698
1156.301, 86.629
1157.528, 87.563
1158.755, 118.498
1159.981, 44.436
1161.207, 85.376
1162.433, 91.318
1163.659, 67.262
1164.885, 88.208
1166.110, 57.156
1167.336, 78.106
1168.561, 96.057
1169.786, 60.011
1171.010, 106.967
1172.235, 89.925
1173.459, 43.884
1174.683, 101.845
1175.907, 33.808
1177.131, 96.773
1178.355, 94.740
1179.578, 48.708
1180.801, 47.678
1182.024, 67.649
1183.247, 17.623
1184.470, 73.597
1185.692, 4.426
1186.915, 68.551
1188.137, 60.960
1189.359, 16.946
1190.580, 79.927
1191.802, 5.931
1193.023, 26.051
1194.244, 12.965
1195.465, 11.965
1196.686, 11.031
1197.907, 27.022
1199.127, 1.006
1200.347, 69.988
1201.567, 0.511
1202.787, 33.472
1204.007, 21.456
1205.226, 7.694
1206.446, 16.680
1207.665, 33.679
1208.884, 8.750
1210.102, 36.739
1211.321, 8.300
1212.539, 12.784
1213.758, 70.780
1214.976, 5.567
1216.193, 62.421
1217.411, 20.467
1218.628, 4.874
1219.846, 47.868
1221.063, 13.931
1222.280, 31.968
1223.496, 59.965
1224.713, 29.983
1225.929, 20.355
1227.145, 45.337
1228.361, 6.643
1229.577, 29.734
1230.793, 47.843
1232.008, 10.233
1233.223, 60.755
1234.438, 67.792
1235.653, 41.771
1236.868, 69.751
1238.082, 21.732
1239.297, 105.714
1240.511, 72.698
1241.725, 43.718
1242.938, 64.699
1244.152, 32.681
1245.365, 60.664
1246.578, 102.648
1247.791, 13.193
1249.004, 109.788
1250.217, 82.771
1251.429, 49.755
1252.642, 102.741
1253.854, 89.727
1255.066, 92.714
1256.277, 87.703
1257.489, 26.838
1258.700, 51.900
1259.911, 58.892
1261.122, 14.957
1262.333, 90.956
1263.544, 19.956
1264.754, 59.100
1265.964, 99.101
1267.174, 92.102
1268.384, 159.104
1269.594, 153.112
1270.803, 68.120
1272.013, 152.129
1273.222, 126.145
1274.431, 66.161
1275.640, 123.179
1276.848, 99.199
1278.057, 117.220
1279.265, 121.242
1280.473, 74.264
1281.681, 114.287
1282.888, 76.311
1284.096, 50.331
1285.303, 84.344
1286.510, 38.358
1287.717, 44.372
1288.924, 30.386
1290.131, 25.368
1291.337, 75.351
1292.543, 86.318
1293.749, 54.283
1294.955, 100.233
1296.161, 84.182
1297.366, 94.118
1298.571, 127.041
1299.777, 47.963
1300.981, 80.875
1302.186, 46.783
1303.391, 62.670
1304.595, 104.554
1305.799, 42.419
1307.003, 73.283
1308.207, 106.144
1309.411, 40.003
1310.614, 61.861
1311.818, 110.716
1313.021, 87.567
1314.224, 160.416
1315.426, 64.262
1316.629, 28.106
1317.831, 131.946
1319.033, 89.782
1320.235, 107.615
1321.437, 177.442
1322.639, 69.267
1323.840, 129.087
1325.042, 70.904
1326.243, 30.718
1327.444, 94.527
1328.644, 56.332
1329.845, 69.132
1331.045, 140.843
1332.245, 2.633
1333.445, 27.417
1334.645, 67.196
1335.845, 9.030
1337.044, 85.598
1338.244, 45.360
1339.443, 24.690
1340.642, 25.061
1341.840, 26.814
1343.039, 28.564
1344.237, 37.312
1345.435, 62.941
1346.633, 44.767
1347.831, 35.490
1349.029, 26.789
1350.226, 68.921
1351.424, 27.629
1352.621, 14.336
1353.818, 56.068
1355.014, 22.228
1356.211, 13.095
1357.407, 28.791
1358.604, 17.514
1359.800, 46.908
1360.995, 17.641
1362.191, 13.666
1363.387, 32.023
1364.582, 16.715
1365.777, 7.590
1366.972, 65.349
1368.167, 19.049
1369.361, 2.887
1370.556, 66.603
1371.750, 28.678
1372.944, 12.003
1374.138, 10.921
1375.331, 22.409
1376.525, 28.232
1377.718, 17.220
1378.911, 61.207
1380.104, 72.194
1381.297, 38.180
1382.490, 57.165
1383.682, 80.149
1384.874, 23.028
1386.066, 82.000
1387.258, 42.971
1388.450, 38.941
1389.641, 95.907
1390.833, 9.873
1392.024, 113.836
1393.215, 68.796
1394.406, 43.755
1395.596, 99.712
1396.787, 71.667
1397.977, 43.620
1399.167, 87.571
1400.357, 13.520
1401.547, 21.466
1402.736, 82.409
1403.925, 22.351
1405.115, 68.290
1406.304, 91.227
1407.492, 15.162
1408.681, 80.096
1409.870, 76.030
1411.058, 57.962
1412.246, 126.895
1413.434, 78.828
1414.622, 88.762
1415.809, 99.697
1416.997, 79.632
1418.184, 78.568
1419.371, 92.506
1420.558, 108.444
1421.744, 89.385
1422.931, 85.327
1424.117, 68.272
1425.303, 181.219
1426.489, 120.496
1427.675, 104.631
1428.861, 163.558
1430.046, 118.438
1431.231, 190.359
1432.416, 183.862
1433.601, 183.713
1434.786, 266.748
1435.970, 277.383
1437.155, 323.741
1438.339, 489.307
1439.523, 507.069
1440.707, 749.090
1441.890, 1012.633
1443.074, 1128.336
1444.257, 1266.189
1445.440, 1099.312
1446.623, 821.409
1447.806, 788.041
1448.989, 664.398
1450.171, 515.857
1451.353, 547.294
1452.535, 434.645
1453.717, 459.059
1454.899, 529.061
1456.080, 392.420
1457.262, 455.753
1458.443, 440.060
1459.624, 326.989
1460.805, 417.059
1461.985, 341.096
1463.166, 306.893
1464.346, 330.015
1465.526, 245.098
1466.706, 244.138
1467.886, 292.133
1469.065, 185.080
1470.245, 198.974
1471.424, 244.812
1472.603, 151.598
1473.782, 187.379
1474.960, 175.096
1476.139, 126.953
1477.317, 144.866
1478.495, 153.833
1479.673, 99.890
1480.851, 209.985
1482.029, 136.177
1483.206, 128.503
1484.383, 153.888
1485.560, 51.266
1486.737, 141.645
1487.914, 153.029
1489.091, 73.421
1490.267, 106.840
1491.443, 80.297
1492.619, 60.782
1493.795, 108.309
1494.971, 4.894
1496.146, 44.558
1497.322, 67.315
1498.497, 17.166
1499.672, 58.111
1500.846, 94.144
1502.021, 4.259
1503.196, 70.473
1504.370, 90.806
1505.544, 42.281
1506.718, 148.583
1507.892, 3.630
1509.065, 26.354
1510.238, 67.776
1511.412, 24.103
1512.585, 47.708
1513.758, 72.270
1514.930, 0.066
1516.103, 63.859
1517.275, 0.000
##END=



