##NAMES=Dolomite
##RRUFFID=R050129
##IDEAL CHEMISTRY=CaMg(CO_3_)_2_
##LOCALITY=Black Cloud mine, Leadville, Lake County, Colorado, USA
##OWNER=RRUFF
##SOURCE=Dave Bunk Minerals
##DESCRIPTION=Aggregate of colorless to white rhombohedra
##STATUS=The identification of this mineral has been confirmed by X-ray diffraction and chemical analysis
##URL=rruff.info/R050129
##MEASURED CHEMISTRY=Ca(Mg_0.62_Fe^2+^_0.33_Mn_0.05_)_Î£=1_(CO_3_)_2_ ; CO_2_ estimated by difference
##PIN_ID=M00233
##ORIENTATION=Laser parallel to -c* (0 0 -1). Fiducial mark perpendicular to laser is parallel to [1 1 0]
94.188, 0.000
95.582, 2.028
96.976, 0.484
98.370, 10.042
99.764, 42.422
101.157, 104.650
102.550, 34.828
103.943, 88.895
105.336, 0.179
106.729, 135.249
108.121, 154.765
109.513, 204.170
110.905, 192.032
112.297, 214.919
113.688, 181.880
115.079, 173.125
116.470, 152.553
117.861, 117.328
119.251, 86.453
120.642, 71.421
122.032, 50.823
123.422, 45.034
124.811, 40.659
126.201, 47.077
127.590, 61.939
128.979, 54.610
130.367, 60.885
131.756, 60.142
133.144, 58.089
134.532, 76.298
135.920, 71.716
137.307, 56.306
138.695, 96.032
140.082, 92.887
141.469, 68.114
142.856, 137.539
144.242, 80.876
145.628, 81.801
147.014, 51.539
148.400, 123.750
149.786, 90.517
151.171, 125.792
152.556, 192.107
153.941, 227.682
155.325, 243.872
156.710, 235.780
158.094, 324.102
159.478, 338.734
160.862, 451.167
162.245, 553.071
163.629, 729.809
165.012, 906.179
166.395, 1221.852
167.777, 1663.589
169.160, 2198.247
170.542, 3235.169
171.924, 3639.756
173.306, 4166.333
174.687, 3864.287
176.068, 3012.706
177.449, 2382.982
178.830, 1547.414
180.211, 1185.240
181.591, 860.923
182.972, 690.411
184.351, 563.590
185.731, 424.837
187.111, 353.140
188.490, 204.490
189.869, 205.870
191.248, 199.265
192.626, 228.660
194.005, 184.049
195.383, 173.425
196.761, 202.781
198.139, 134.112
199.516, 109.414
200.893, 73.682
202.271, 21.914
203.647, 42.103
205.024, 46.246
206.400, 57.342
207.777, 23.393
209.152, 29.655
210.528, 13.771
211.904, 7.332
213.279, 42.711
214.654, 0.492
216.029, 3.787
217.403, 43.875
218.778, 33.475
220.152, 19.012
221.526, 16.796
222.900, 22.962
224.273, 25.603
225.646, 17.093
227.019, 25.477
228.392, 39.857
229.765, 76.590
231.137, 8.305
232.509, 10.268
233.881, 30.335
235.253, 6.174
236.625, 3.710
237.996, 42.221
239.367, 3.724
240.738, 7.326
242.108, 27.790
243.479, 26.276
244.849, 36.211
246.219, 23.963
247.589, 32.764
248.958, 56.476
250.328, 36.798
251.697, 35.310
253.065, 41.589
254.434, 86.635
255.803, 53.989
257.171, 78.393
258.539, 92.101
259.906, 93.688
261.274, 116.146
262.641, 127.284
264.008, 155.329
265.375, 165.482
266.742, 224.103
268.108, 246.584
269.475, 290.926
270.840, 348.630
272.206, 370.617
273.572, 444.471
274.937, 495.959
276.302, 540.268
277.667, 697.412
279.032, 726.552
280.396, 940.565
281.760, 1037.333
283.125, 1134.820
284.488, 1428.127
285.852, 1574.015
287.215, 1947.734
288.578, 2229.240
289.941, 2561.462
291.304, 2976.755
292.666, 3279.987
294.029, 3716.917
295.391, 3659.775
296.753, 3831.351
298.114, 3439.010
299.476, 3039.535
300.837, 2602.970
302.198, 2112.179
303.558, 1765.425
304.919, 1397.478
306.279, 1202.313
307.639, 997.392
308.999, 818.129
310.359, 704.826
311.718, 617.120
313.077, 574.663
314.436, 466.935
315.795, 443.222
317.154, 399.583
318.512, 376.964
319.870, 354.013
321.228, 293.135
322.586, 324.226
323.943, 331.355
325.300, 300.318
326.657, 345.091
328.014, 345.717
329.371, 325.277
330.727, 288.749
332.083, 378.207
333.439, 409.339
334.795, 420.564
336.150, 482.697
337.506, 447.860
338.861, 461.990
340.215, 433.983
341.570, 350.820
342.924, 381.563
344.279, 323.266
345.633, 306.938
346.986, 253.730
348.340, 265.345
349.693, 206.146
351.046, 185.717
352.399, 175.465
353.752, 174.315
355.104, 190.988
356.457, 185.824
357.809, 166.420
359.160, 153.952
360.512, 136.516
361.863, 176.658
363.214, 155.567
364.565, 156.102
365.916, 141.734
367.267, 194.980
368.617, 119.072
369.967, 154.337
371.317, 148.929
372.666, 91.711
374.016, 129.975
375.365, 166.141
376.714, 159.049
378.063, 140.654
379.411, 140.982
380.760, 120.890
382.108, 125.569
383.456, 100.911
384.803, 133.174
386.151, 126.584
387.498, 135.116
388.845, 83.362
390.192, 61.391
391.539, 117.361
392.885, 86.016
394.231, 107.944
395.577, 85.741
396.923, 87.268
398.269, 49.303
399.614, 49.484
400.959, 63.242
402.304, 75.411
403.649, 82.354
404.993, 54.617
406.337, 28.838
407.681, 27.212
409.025, 81.480
410.369, 77.844
411.712, 58.433
413.055, 2.765
414.398, 42.067
415.741, 6.564
417.084, 36.235
418.426, 85.738
419.768, 55.438
421.110, 38.242
422.452, 35.001
423.793, 22.895
425.134, 0.795
426.475, 3.240
427.816, 67.715
429.157, 22.867
430.497, 47.139
431.837, 60.475
433.177, 45.975
434.517, 30.430
435.857, 70.910
437.196, 70.357
438.535, 67.685
439.874, 28.067
441.213, 20.312
442.551, 41.588
443.889, 57.825
445.227, 30.951
446.565, 74.039
447.903, 55.092
449.240, 64.668
450.577, 87.690
451.914, 47.641
453.251, 50.996
454.588, 80.085
455.924, 72.006
457.260, 100.830
458.596, 40.624
459.932, 71.477
461.267, 54.211
462.602, 48.104
463.938, 73.779
465.272, 90.527
466.607, 72.239
467.941, 71.845
469.276, 60.449
470.610, 43.056
471.943, 47.474
473.277, 64.406
474.610, 52.932
475.944, 57.509
477.276, 68.919
478.609, 59.344
479.942, 110.703
481.274, 57.111
482.606, 107.268
483.938, 74.623
485.270, 84.906
486.601, 86.050
487.932, 93.287
489.263, 79.503
490.594, 70.698
491.925, 49.728
493.255, 109.887
494.585, 71.029
495.915, 77.227
497.245, 54.329
498.575, 48.461
499.904, 67.587
501.233, 92.640
502.562, 105.674
503.891, 110.690
505.219, 99.717
506.548, 62.902
507.876, 96.637
509.203, 45.130
510.531, 55.642
511.859, 96.065
513.186, 64.437
514.513, 91.795
515.840, 74.216
517.166, 78.607
518.493, 74.918
519.819, 88.169
521.145, 117.344
522.470, 108.682
523.796, 87.927
525.121, 79.178
526.446, 34.374
527.771, 88.793
529.096, 73.897
530.421, 97.147
531.745, 64.380
533.069, 89.376
534.393, 68.540
535.716, 96.877
537.040, 90.186
538.363, 91.436
539.686, 63.702
541.009, 99.891
542.331, 89.104
543.654, 94.219
544.976, 89.476
546.298, 46.711
547.620, 60.985
548.941, 31.049
550.263, 95.046
551.584, 86.309
552.905, 89.492
554.225, 82.783
555.546, 89.998
556.866, 60.248
558.186, 65.356
559.506, 62.093
560.826, 73.504
562.145, 54.973
563.465, 111.296
564.784, 93.508
566.103, 100.616
567.421, 27.722
568.740, 37.058
570.058, 82.383
571.376, 72.629
572.694, 106.618
574.011, 85.802
575.329, 90.662
576.646, 51.825
577.963, 93.197
579.279, 97.444
580.596, 66.618
581.912, 76.779
583.228, 73.890
584.544, 74.902
585.860, 67.858
587.175, 44.156
588.491, 24.264
589.806, 41.471
591.121, 59.732
592.435, 82.928
593.750, 23.057
595.064, 20.418
596.378, 70.707
597.692, 14.982
599.006, 40.087
600.319, 19.159
601.632, 18.317
602.945, 61.541
604.258, 34.650
605.571, 41.938
606.883, 17.854
608.195, 23.386
609.507, 42.722
610.819, 14.112
612.131, 4.937
613.442, 15.095
614.753, 30.354
616.064, 51.736
617.375, 7.865
618.685, 50.352
619.995, 33.463
621.306, 68.682
622.615, 2.936
623.925, 4.258
625.235, 22.503
626.544, 15.747
627.853, 7.944
629.162, 43.268
630.471, 11.589
631.779, 7.948
633.087, 2.888
634.395, 30.298
635.703, 12.534
637.011, 35.733
638.318, 4.149
639.625, 20.703
640.932, 2.814
642.239, 29.431
643.546, 31.744
644.852, 28.064
646.158, 35.415
647.464, 29.711
648.770, 47.690
650.076, 32.107
651.381, 50.856
652.686, 4.155
653.991, 26.450
655.296, 13.985
656.600, 10.164
657.905, 34.423
659.209, 25.789
660.513, 56.202
661.817, 14.612
663.120, 4.987
664.423, 36.261
665.726, 17.913
667.029, 58.373
668.332, 21.528
669.635, 21.917
670.937, 69.380
672.239, 76.762
673.541, 33.341
674.842, 61.812
676.144, 46.136
677.445, 70.407
678.746, 64.794
680.047, 49.180
681.348, 69.677
682.648, 108.142
683.948, 26.324
685.248, 48.708
686.548, 122.065
687.848, 55.449
689.147, 53.775
690.447, 64.160
691.746, 90.664
693.044, 114.048
694.343, 134.881
695.641, 144.265
696.940, 87.647
698.238, 106.329
699.535, 147.712
700.833, 202.094
702.130, 149.489
703.427, 164.785
704.724, 211.242
706.021, 232.480
707.318, 284.862
708.614, 337.244
709.910, 403.658
711.206, 409.039
712.502, 673.420
713.798, 709.531
715.093, 921.911
716.388, 1174.292
717.683, 1324.672
718.978, 1805.044
720.272, 2095.423
721.567, 2341.801
722.861, 2470.179
724.155, 2038.450
725.448, 1976.761
726.742, 1496.138
728.035, 1164.515
729.328, 974.892
730.621, 689.269
731.914, 540.648
733.206, 395.026
734.499, 335.404
735.791, 283.781
737.083, 209.157
738.374, 172.917
739.666, 136.522
740.957, 111.182
742.248, 143.421
743.539, 92.799
744.830, 95.102
746.120, 95.480
747.410, 35.858
748.701, 91.235
749.990, 4.543
751.280, 21.842
752.570, 53.218
753.859, 15.498
755.148, 7.873
756.437, 27.243
757.725, 24.546
759.014, 46.922
760.302, 9.298
761.590, 18.673
762.878, 25.489
764.166, 8.825
765.453, 13.199
766.740, 15.682
768.027, 8.687
769.314, 23.615
770.601, 26.334
771.887, 25.701
773.174, 0.979
774.460, 33.343
775.745, 12.518
777.031, 7.883
778.316, 17.146
779.602, 47.416
780.887, 46.765
782.172, 16.088
783.456, 1.381
784.741, 33.744
786.025, 1.249
787.309, 19.045
788.593, 15.134
789.876, 26.767
791.160, 32.475
792.443, 17.835
793.726, 0.843
795.009, 24.488
796.291, 35.227
797.574, 25.094
798.856, 11.414
800.138, 31.734
801.420, 23.054
802.702, 7.626
803.983, 11.313
805.264, 6.007
806.545, 8.292
807.826, 14.515
809.107, 35.187
810.387, 53.052
811.667, 14.278
812.947, 45.557
814.227, 97.837
815.507, 44.116
816.786, 29.366
818.065, 12.429
819.344, 2.292
820.623, 4.263
821.902, 29.463
823.180, 37.795
824.459, 2.053
825.737, 21.309
827.014, 0.566
828.292, 33.181
829.569, 15.055
830.847, 11.709
832.124, 23.519
833.401, 18.746
834.677, 16.026
835.954, 4.193
837.230, 11.410
838.506, 21.628
839.782, 51.847
841.057, 39.066
842.333, 32.285
843.608, 28.504
844.883, 17.276
846.158, 27.935
847.433, 22.855
848.707, 49.344
849.981, 15.458
851.255, 1.268
852.529, 8.919
853.803, 56.107
855.076, 6.296
856.350, 67.485
857.623, 2.675
858.895, 9.865
860.168, 13.056
861.441, 12.248
862.713, 4.440
863.985, 23.634
865.257, 54.828
866.528, 10.977
867.800, 45.213
869.071, 29.404
870.342, 23.596
871.613, 48.790
872.884, 94.985
874.154, 41.180
875.425, 113.378
876.695, 85.576
877.965, 107.777
879.234, 149.979
880.504, 150.182
881.773, 170.387
883.042, 154.501
884.311, 66.802
885.580, 109.012
886.848, 41.223
888.117, 22.436
889.385, 12.650
890.653, 6.134
891.920, 3.129
893.188, 24.294
894.455, 1.489
895.722, 29.727
896.989, 17.950
898.256, 29.175
899.523, 5.402
900.789, 72.632
902.055, 28.863
903.321, 23.029
904.587, 86.264
905.852, 15.503
907.118, 21.743
908.383, 1.014
909.648, 10.230
910.913, 18.724
912.177, 54.726
913.442, 32.978
914.706, 53.232
915.970, 25.490
917.233, 14.752
918.497, 0.016
919.760, 37.284
921.024, 66.818
922.287, 8.908
923.550, 38.366
924.812, 33.643
926.075, 15.691
927.337, 36.974
928.599, 35.264
929.861, 28.556
931.122, 37.852
932.384, 26.152
933.645, 40.455
934.906, 25.761
936.167, 39.871
937.428, 36.184
938.688, 19.174
939.948, 21.505
941.208, 9.228
942.468, 11.870
943.728, 7.447
944.987, 2.232
946.247, 28.729
947.506, 44.350
948.765, 21.333
950.023, 92.668
951.282, 9.007
952.540, 33.349
953.798, 103.698
955.056, 33.331
956.314, 49.755
957.572, 46.485
958.829, 66.819
960.086, 55.188
961.343, 64.233
962.600, 38.618
963.856, 50.008
965.113, 4.401
966.369, 35.800
967.625, 39.202
968.881, 18.609
970.136, 72.021
971.392, 15.003
972.647, 91.312
973.902, 20.804
975.157, 35.239
976.411, 50.478
977.666, 20.921
978.920, 58.265
980.174, 110.420
981.428, 81.878
982.682, 77.455
983.935, 39.923
985.188, 35.966
986.441, 84.762
987.694, 28.146
988.947, 50.635
990.199, 71.128
991.452, 35.628
992.704, 45.132
993.956, 71.643
995.207, 64.158
996.459, 23.528
997.710, 45.055
998.961, 123.138
1000.212, 41.675
1001.463, 61.188
1002.714, 76.442
1003.964, 40.007
1005.214, 43.587
1006.464, 88.161
1007.714, 142.759
1008.964, 161.278
1010.213, 90.900
1011.462, 124.539
1012.711, 134.184
1013.960, 73.812
1015.209, 148.482
1016.457, 127.158
1017.705, 134.114
1018.954, 154.807
1020.201, 121.506
1021.449, 195.222
1022.697, 139.943
1023.944, 116.671
1025.191, 183.406
1026.438, 204.146
1027.685, 209.892
1028.931, 243.552
1030.177, 214.401
1031.423, 268.165
1032.669, 252.935
1033.915, 253.711
1035.161, 260.493
1036.406, 264.281
1037.651, 282.959
1038.896, 317.874
1040.141, 314.680
1041.386, 327.115
1042.630, 319.891
1043.874, 387.720
1045.118, 405.418
1046.362, 376.348
1047.606, 491.200
1048.849, 414.062
1050.092, 474.930
1051.336, 496.804
1052.578, 508.688
1053.821, 588.579
1055.064, 584.475
1056.306, 634.378
1057.548, 725.286
1058.790, 577.148
1060.032, 806.083
1061.273, 840.023
1062.515, 795.975
1063.756, 1009.934
1064.997, 1085.902
1066.237, 1134.876
1067.478, 1369.856
1068.718, 1311.833
1069.959, 1623.824
1071.199, 1755.825
1072.438, 1828.479
1073.678, 2185.491
1074.918, 2069.509
1076.157, 2391.534
1077.396, 2616.565
1078.635, 2659.610
1079.873, 3382.662
1081.112, 3629.718
1082.350, 4310.797
1083.588, 5755.880
1084.826, 6541.969
1086.064, 9190.079
1087.301, 11838.190
1088.539, 15096.311
1089.776, 24183.570
1091.013, 30891.428
1092.250, 42819.176
1093.486, 54897.324
1094.723, 52265.445
1095.959, 50683.594
1097.195, 38511.766
1098.431, 25229.959
1099.666, 17928.150
1100.902, 10826.350
1102.137, 7584.969
1103.372, 5480.181
1104.607, 3578.399
1105.842, 3029.628
1107.076, 2296.865
1108.311, 1755.108
1109.545, 1598.087
1110.779, 1196.351
1112.012, 1097.621
1113.246, 992.896
1114.479, 789.177
1115.712, 769.463
1116.945, 630.754
1118.178, 578.051
1119.411, 605.353
1120.643, 482.662
1121.875, 572.977
1123.108, 483.305
1124.339, 402.639
1125.571, 389.979
1126.802, 362.323
1128.034, 306.673
1129.265, 321.037
1130.496, 246.406
1131.727, 325.783
1132.957, 291.166
1134.187, 219.552
1135.418, 251.949
1136.648, 205.350
1137.877, 280.755
1139.107, 215.224
1140.336, 187.639
1141.566, 161.115
1142.795, 150.900
1144.023, 146.965
1145.252, 167.401
1146.480, 176.842
1147.709, 199.293
1148.937, 170.790
1150.165, 150.253
1151.392, 184.990
1152.620, 161.598
1153.847, 118.074
1155.074, 163.102
1156.301, 83.504
1157.528, 109.991
1158.755, 164.067
1159.981, 76.560
1161.207, 122.188
1162.433, 102.622
1163.659, 80.123
1164.885, 64.676
1166.110, 53.184
1167.336, 123.882
1168.561, 62.813
1169.786, 34.329
1171.010, 136.958
1172.235, 90.485
1173.459, 51.006
1174.683, 121.530
1175.907, 70.055
1177.131, 61.582
1178.355, 169.112
1179.578, 21.642
1180.801, 93.175
1182.024, 119.708
1183.247, 84.285
1184.470, 122.822
1185.692, 28.360
1186.915, 109.900
1188.137, 4.644
1189.359, 10.812
1190.580, 74.733
1191.802, 34.488
1193.023, 30.964
1194.244, 91.574
1195.465, 65.792
1196.686, 64.473
1197.907, 72.014
1199.127, 31.370
1200.347, 63.912
1201.567, 88.518
1202.787, 27.178
1204.007, 153.723
1205.226, 25.427
1206.446, 80.972
1207.665, 75.543
1208.884, 52.635
1210.102, 62.180
1211.321, 49.469
1212.539, 46.015
1213.758, 75.561
1214.976, 58.129
1216.193, 116.676
1217.411, 139.222
1218.628, 62.769
1219.846, 88.317
1221.063, 63.865
1222.280, 30.412
1223.496, 78.960
1224.713, 57.517
1225.929, 71.065
1227.145, 95.612
1228.361, 61.819
1229.577, 70.366
1230.793, 38.915
1232.008, 37.121
1233.223, 79.670
1234.438, 35.218
1235.653, 56.930
1236.868, 78.485
1238.082, 46.044
1239.297, 91.606
1240.511, 87.169
1241.725, 41.062
1242.938, 85.625
1244.152, 56.191
1245.365, 45.760
1246.578, 126.319
1247.791, 6.120
1249.004, 67.451
1250.217, 55.011
1251.429, 25.572
1252.642, 73.134
1253.854, 24.696
1255.066, 25.741
1256.277, 98.815
1257.489, 95.372
1258.700, 102.929
1259.911, 56.487
1261.122, 18.044
1262.333, 91.602
1263.544, 37.160
1264.754, 61.713
1265.964, 108.259
1267.174, 61.792
1268.384, 37.300
1269.594, 54.793
1270.803, 87.273
1272.013, 64.747
1273.222, 100.213
1274.431, 14.662
1275.640, 46.110
1276.848, 72.555
1278.057, 28.000
1279.265, 120.443
1280.473, 15.885
1281.681, 72.325
1282.888, 87.763
1284.096, 10.192
1285.303, 67.618
1286.510, 11.035
1287.717, 25.444
1288.924, 63.850
1290.131, 53.249
1291.337, 89.643
1292.543, 55.013
1293.749, 8.619
1294.955, 66.729
1296.161, 11.931
1297.366, 25.600
1298.571, 41.719
1299.777, 15.966
1300.981, 37.660
1302.186, 28.614
1303.391, 32.115
1304.595, 39.110
1305.799, 24.692
1307.003, 5.507
1308.207, 30.667
1309.411, 7.164
1310.614, 36.992
1311.818, 10.143
1313.021, 28.713
1314.224, 50.415
1315.426, 14.538
1316.629, 26.653
1317.831, 32.762
1319.033, 60.865
1320.235, 58.108
1321.437, 65.648
1322.639, 57.130
1323.840, 51.205
1325.042, 38.273
1326.243, 40.967
1327.444, 21.391
1328.644, 57.441
1329.845, 51.484
1331.045, 85.521
1332.245, 8.449
1333.445, 40.569
1334.645, 62.399
1335.845, 8.596
1337.044, 58.398
1338.244, 122.302
1339.443, 0.716
1340.642, 14.256
1341.840, 90.222
1343.039, 2.815
1344.237, 86.139
1345.435, 20.090
1346.633, 16.036
1347.831, 76.979
1349.029, 40.083
1350.226, 53.840
1351.424, 25.759
1352.621, 14.323
1353.818, 106.585
1355.014, 1.509
1356.211, 53.393
1357.407, 46.295
1358.604, 27.196
1359.800, 83.098
1360.995, 60.002
1362.191, 42.907
1363.387, 57.816
1364.582, 57.729
1365.777, 42.648
1366.972, 69.573
1368.167, 21.494
1369.361, 47.441
1370.556, 84.388
1371.750, 47.650
1372.944, 72.315
1374.138, 54.586
1375.331, 31.398
1376.525, 120.545
1377.718, 36.438
1378.911, 15.866
1380.104, 110.290
1381.297, 68.710
1382.490, 92.124
1383.682, 123.533
1384.874, 9.503
1386.066, 83.901
1387.258, 52.294
1388.450, 34.813
1389.641, 116.181
1390.833, 46.544
1392.024, 35.901
1393.215, 115.254
1394.406, 85.602
1395.596, 41.945
1396.787, 94.284
1397.977, 52.620
1399.167, 127.951
1400.357, 122.280
1401.547, 59.603
1402.736, 141.852
1403.925, 114.097
1405.115, 108.409
1406.304, 50.718
1407.492, 65.706
1408.681, 84.373
1409.870, 120.883
1411.058, 105.285
1412.246, 139.039
1413.434, 112.319
1414.622, 48.150
1415.809, 144.793
1416.997, 82.251
1418.184, 105.106
1419.371, 184.103
1420.558, 130.104
1421.744, 244.102
1422.931, 180.096
1424.117, 173.026
1425.303, 212.013
1426.489, 203.166
1427.675, 237.125
1428.861, 366.193
1430.046, 250.065
1431.231, 379.769
1432.416, 457.368
1433.601, 443.975
1434.786, 577.590
1435.970, 689.364
1437.155, 669.520
1438.339, 869.994
1439.523, 869.699
1440.707, 742.436
1441.890, 838.165
1443.074, 595.886
1444.257, 525.817
1445.440, 592.458
1446.623, 381.977
1447.806, 396.220
1448.989, 325.604
1450.171, 209.622
1451.353, 300.925
1452.535, 251.494
1453.717, 155.707
1454.899, 268.888
1456.080, 140.018
1457.262, 187.125
1458.443, 140.182
1459.624, 157.184
1460.805, 151.129
1461.985, 158.016
1463.166, 88.841
1464.346, 153.648
1465.526, 143.536
1466.706, 71.543
1467.886, 126.580
1469.065, 94.675
1470.245, 91.724
1471.424, 170.723
1472.603, 76.669
1473.782, 84.609
1474.960, 116.560
1476.139, 31.496
1477.317, 168.480
1478.495, 69.531
1479.673, 77.619
1480.851, 130.663
1482.029, 93.722
1483.206, 87.921
1484.383, 106.401
1485.560, 12.899
1486.737, 54.438
1487.914, 124.000
1489.091, 17.595
1490.267, 52.234
1491.443, 102.933
1492.619, 87.706
1493.795, 90.545
1494.971, 73.454
1496.146, 31.450
1497.322, 121.551
1498.497, 21.775
1499.672, 41.131
1500.846, 116.641
1502.021, 30.313
1503.196, 42.138
1504.370, 85.144
1505.544, 44.359
1506.718, 96.815
1507.892, 54.556
1509.065, 41.628
1510.238, 87.087
1511.412, 52.004
1512.585, 36.486
1513.758, 81.677
1514.930, 2.224
1516.103, 40.087
1517.275, 82.461
1518.447, 0.000
##END=



