##NAMES=Dolomite
##RRUFFID=R050241
##IDEAL CHEMISTRY=CaMg(CO_3_)_2_
##LOCALITY=Eugui quarries, Navarre, Spain
##OWNER=RRUFF
##SOURCE=Marcus Origlieri
##DESCRIPTION=Light gray colored tabular crystals
##STATUS=The identification of this mineral has been confirmed by X-ray diffraction and chemical analysis
##URL=rruff.info/R050241
##MEASURED CHEMISTRY=(Ca_0.96_Mg_0.04_)_Σ=1_(Mg_0.98_Fe^2+^_0.02_)_Σ=1_(CO_3_)_2_ ; CO_2_ estimated by difference
##PIN_ID=L00518
##ORIENTATION=Laser parallel to -a* (-1 0 0). Fiducial mark perpendicular to laser is parallel to c [0 0 1]
100.8830, 0.0000000E+00
102.1160, 1.099609
103.3490, 80.27271
104.5820, 13.36011
105.8150, 62.24683
107.0470, 57.83252
108.2800, 43.67725
109.5120, 170.7886
110.7440, 66.34351
111.9760, 33.95435
113.2080, 110.4578
114.4400, 107.7253
115.6710, 69.20068
116.9030, 66.66650
118.1340, 123.6553
119.3650, 114.1113
120.5960, 49.98462
121.8270, 95.23340
123.0580, 55.81812
124.2880, 144.7065
125.5190, 58.87061
126.7490, 99.28711
127.9790, 24.93506
129.2090, 145.7979
130.4390, 8.141113
131.6680, 212.1055
132.8980, 125.5249
134.1270, 157.1655
135.3560, 155.9614
136.5850, 96.90332
137.8140, 117.9766
139.0430, 87.16895
140.2710, 118.4893
141.5000, 123.9165
142.7280, 128.4351
143.9560, 196.0400
145.1840, 167.7280
146.4120, 188.4971
147.6390, 195.3433
148.8670, 162.2637
150.0940, 279.2563
151.3210, 263.3188
152.5490, 251.4512
153.7750, 215.6499
155.0020, 250.9141
156.2290, 282.2407
157.4550, 330.6265
158.6810, 418.0703
159.9080, 463.5693
161.1340, 566.1235
162.3590, 801.7280
163.5850, 918.3828
164.8110, 1330.085
166.0360, 1732.377
167.2610, 2396.141
168.4860, 2799.999
169.7110, 3068.235
170.9360, 3405.174
172.1610, 3900.162
173.3850, 4479.185
174.6100, 4962.229
175.8340, 5665.255
177.0580, 6707.278
178.2820, 7594.579
179.5050, 7709.159
180.7290, 6485.182
181.9520, 4810.218
183.1760, 3239.300
184.3990, 2218.396
185.6220, 1496.507
186.8450, 1108.633
188.0670, 872.8369
189.2900, 650.0557
190.5120, 402.3047
191.7340, 397.5967
192.9560, 334.9048
194.1780, 334.2290
195.4000, 286.5708
196.6220, 221.9302
197.8430, 213.3325
199.0640, 243.7939
200.2860, 168.2695
201.5070, 204.7944
202.7270, 196.3535
203.9480, 101.9287
205.1690, 3.533203
206.3890, 120.1733
207.6090, 39.82715
208.8290, 139.4917
210.0490, 53.16992
211.2690, 35.86182
212.4890, 110.5645
213.7080, 133.2803
214.9280, 24.05029
216.1470, 45.83203
217.3660, 58.62402
218.5850, 88.42383
219.8030, 9.233887
221.0220, 163.0522
222.2400, 35.89111
223.4590, 15.74951
224.6770, 122.6157
225.8950, 27.48877
227.1120, 42.36963
228.3300, 20.27246
229.5480, 37.81885
230.7650, 3.094238
231.9820, 42.01270
233.1990, 96.93604
234.4160, 54.49170
235.6330, 98.40381
236.8490, 13.67725
238.0660, 20.24658
239.2820, 47.17822
240.4980, 56.42090
241.7140, 47.35156
242.9300, 29.31201
244.1460, 41.30176
245.3610, 53.30273
246.5770, 86.31543
247.7920, 107.9429
249.0070, 73.54150
250.2220, 86.32617
251.4370, 60.82715
252.6510, 56.34668
253.8660, 16.45508
255.0800, 12.36865
256.2940, 20.13379
257.5080, 79.15430
258.7220, 126.4922
259.9360, 164.8755
261.1490, 90.30078
262.3630, 89.99902
263.5760, 115.3677
264.7890, 74.89795
266.0020, 106.0718
267.2150, 108.3115
268.4270, 138.6777
269.6400, 157.3242
270.8520, 172.9941
272.0640, 247.6860
273.2760, 237.5464
274.4880, 290.2817
275.7000, 252.0391
276.9120, 494.7563
278.1230, 482.5474
279.3340, 623.3530
280.5450, 543.0059
281.7560, 842.8447
282.9670, 932.7158
284.1780, 1257.599
285.3880, 1521.496
286.5980, 1830.404
287.8090, 2186.324
289.0190, 2846.364
290.2290, 3562.369
291.4380, 4349.320
292.6480, 5242.318
293.8570, 5961.288
295.0670, 6632.618
296.2760, 7610.605
297.4850, 8348.602
298.6930, 9158.603
299.9020, 9257.971
301.1110, 9121.715
302.3190, 8721.736
303.5270, 7852.230
304.7350, 6476.264
305.9430, 5273.497
307.1510, 4027.388
308.3580, 3231.930
309.5660, 2348.687
310.7730, 1950.745
311.9800, 1529.931
313.1870, 1261.109
314.3940, 1076.178
315.6010, 852.2476
316.8070, 716.3203
318.0130, 604.2114
319.2200, 525.9424
320.4260, 469.0254
321.6310, 397.2334
322.8370, 378.3208
324.0430, 353.6191
325.2480, 331.7129
326.4540, 381.8467
327.6590, 412.0913
328.8640, 414.1885
330.0680, 492.5874
331.2730, 468.6968
332.4780, 438.8560
333.6820, 512.9678
334.8860, 513.0693
336.0900, 630.1704
337.2940, 607.5386
338.4980, 726.6406
339.7010, 743.7422
340.9050, 771.9414
342.1080, 752.3066
343.3110, 703.4385
344.5140, 463.7646
345.7170, 383.8599
346.9200, 313.9644
348.1220, 250.1860
349.3240, 194.2881
350.5270, 166.0630
351.7290, 111.7158
352.9310, 138.3496
354.1320, 139.4414
355.3340, 143.5737
356.5350, 64.65869
357.7370, 99.74023
358.9380, 114.8184
360.1390, 30.93896
361.3400, 156.0972
362.5400, 68.16553
363.7410, 55.22949
364.9410, 59.42383
366.1410, 50.46533
367.3410, 59.67529
368.5410, 101.1748
369.7410, 108.2061
370.9400, 24.43701
372.1400, 37.45850
373.3390, 93.72998
374.5380, 33.93359
375.7370, 44.41357
376.9360, 78.45166
378.1350, 27.40283
379.3330, 98.67822
380.5310, 59.64746
381.7300, 113.0688
382.9280, 45.42627
384.1260, 21.69482
385.3230, 37.82275
386.5210, 64.76562
387.7180, 112.1162
388.9160, 19.06299
390.1130, 114.1841
391.3100, 32.10205
392.5060, 25.01953
393.7030, 80.93750
394.9000, 82.85400
396.0960, 55.76953
397.2920, 87.74658
398.4880, 78.66309
399.6840, 70.62500
400.8800, 66.27002
402.0750, 77.47070
403.2710, 56.61816
404.4660, 110.7173
405.6610, 3.8086001E-02
406.8560, 28.15576
408.0510, 30.82422
409.2450, 37.67676
410.4400, 94.89551
411.6340, 16.76562
412.8280, 117.7056
414.0220, 45.53369
415.2160, 72.35547
416.4100, 61.54785
417.6030, 36.56104
418.7970, 65.00000
419.9900, 162.7573
421.1830, 42.50830
422.3760, 25.72021
423.5690, 6.799316
424.7610, 88.24902
425.9540, 72.42773
427.1460, 85.54639
428.3380, 113.9683
429.5300, 44.92139
430.7220, 60.58105
431.9140, 17.71680
433.1050, 29.35791
434.2970, 74.98926
435.4880, 21.38818
436.6790, 62.41455
437.8700, 41.78955
439.0610, 69.85449
440.2510, 98.66309
441.4420, 75.19043
442.6320, 9.019043
443.8220, 30.52393
445.0120, 69.93848
446.2020, 6.631348
447.3910, 91.08252
448.5810, 14.91260
449.7700, 0.6274410
450.9600, 7.340332
452.1490, 12.56934
453.3370, 93.29492
454.5260, 31.63818
455.7150, 37.69043
456.9030, 120.0093
458.0910, 90.31641
459.2800, 121.9062
460.4670, 12.19141
461.6550, 56.46094
462.8430, 96.80029
464.0300, 42.23291
465.2180, 193.6069
466.4050, 23.04492
467.5920, 101.7007
468.7790, 45.97559
469.9650, 41.20703
471.1520, 123.3418
472.3380, 20.46533
473.5250, 76.57373
474.7110, 65.66992
475.8970, 77.76611
477.0820, 92.43701
478.2680, 116.4976
479.4540, 24.73096
480.6390, 119.0474
481.8240, 161.2002
483.0090, 62.46143
484.1940, 15.54492
485.3780, 79.41602
486.5630, 33.36523
487.7470, 95.29932
488.9320, 102.8350
490.1160, 63.97559
491.3000, 124.2070
492.4830, 160.0913
493.6670, 39.29346
494.8500, 1.849121
496.0340, 96.10498
497.2170, 85.92432
498.4000, 144.7314
499.5820, 125.6807
500.7650, 140.4653
501.9480, 88.23926
503.1300, 79.04248
504.3120, 113.2744
505.4940, 115.0215
506.6760, 69.75439
507.8580, 89.47266
509.0390, 77.36914
510.2210, 23.72363
511.4020, 106.3960
512.5830, 54.11914
513.7640, 113.7671
514.9450, 43.53125
516.1250, 11.38672
517.3060, 24.99414
518.4860, 97.58350
519.6660, 71.52881
520.8460, 80.83887
522.0260, 108.3843
523.2060, 18.59619
524.3850, 0.9018550
525.5650, 13.62744
526.7440, 67.60010
527.9230, 173.0269
529.1020, 14.47656
530.2810, 108.1313
531.4590, 65.63379
532.6380, 174.1367
533.8160, 128.4839
534.9940, 118.9634
536.1720, 138.2827
537.3500, 193.9570
538.5270, 100.5269
539.7050, 114.8179
540.8820, 72.16602
542.0590, 103.4292
543.2360, 45.68066
544.4130, 58.31055
545.5900, 69.30469
546.7660, 39.72900
547.9430, 118.6743
549.1190, 88.96875
550.2950, 148.1211
551.4710, 37.25781
552.6470, 112.3872
553.8220, 7.487305
554.9980, 136.5762
556.1730, 223.6499
557.3480, 53.70898
558.5230, 39.60596
559.6980, 17.62988
560.8730, 122.6416
562.0470, 147.6387
563.2220, 112.6201
564.3960, 69.58838
565.5700, 37.70996
566.7440, 50.35645
567.9170, 92.53613
569.0910, 102.4141
570.2640, 51.27588
571.4380, 163.1216
572.6110, 25.95215
573.7840, 136.6543
574.9570, 132.3862
576.1290, 130.1660
577.3020, 69.89307
578.4740, 69.63965
579.6460, 94.01660
580.8180, 52.72949
581.9900, 164.4248
583.1620, 53.10498
584.3330, 177.4067
585.5040, 147.3271
586.6760, 57.95801
587.8470, 112.1045
589.0180, 26.70215
590.1880, 44.08838
591.3590, 39.80469
592.5290, 120.8564
593.7000, 61.68262
594.8700, 115.1934
596.0400, 11.44043
597.2090, 115.9116
598.3790, 195.3613
599.5490, 45.79541
600.7180, 129.2119
601.8870, 117.1948
603.0560, 1.474121
604.2250, 71.88574
605.3940, 83.10547
606.5620, 65.43115
607.7300, 7.470703
608.8990, 86.80859
610.0670, 106.0332
611.2350, 143.1313
612.4020, 187.8745
613.5700, 123.4385
614.7370, 198.7246
615.9050, 111.8540
617.0720, 8.330078
618.2390, 115.7314
619.4060, 71.12842
620.5720, 47.98877
621.7390, 84.10010
622.9050, 55.19434
624.0710, 128.2251
625.2370, 162.0522
626.4030, 114.2617
627.5690, 186.2661
628.7340, 29.31738
629.9000, 59.87402
631.0650, 35.03418
632.2300, 201.2280
633.3950, 36.39697
634.5600, 133.4341
635.7240, 85.11768
636.8890, 171.4194
638.0530, 201.6655
639.2170, 138.2236
640.3810, 78.70410
641.5450, 125.0386
642.7080, 111.4814
643.8720, 16.19727
645.0350, 175.1035
646.1980, 172.0059
647.3610, 146.7153
648.5240, 55.61768
649.6870, 126.4370
650.8490, 143.9771
652.0120, 104.6187
653.1740, 228.2593
654.3360, 88.32422
655.4980, 65.41211
656.6600, 188.4536
657.8210, 151.7051
658.9830, 31.47266
660.1440, 146.1294
661.3050, 143.8643
662.4660, 14.76953
663.6270, 132.1157
664.7870, 166.4766
665.9480, 18.11621
667.1080, 160.6343
668.2680, 96.50293
669.4280, 59.55176
670.5880, 81.38672
671.7480, 77.92188
672.9070, 148.4902
674.0670, 82.17969
675.2260, 150.7285
676.3850, 34.33008
677.5440, 56.17676
678.7030, 203.9297
679.8610, 102.7861
681.0200, 239.1963
682.1780, 254.2119
683.3360, 25.57617
684.4940, 236.7451
685.6520, 186.7705
686.8090, 125.6309
687.9670, 125.1357
689.1240, 129.9092
690.2810, 181.9707
691.4380, 225.3936
692.5950, 247.2031
693.7520, 285.3174
694.9080, 300.2227
696.0650, 297.7246
697.2210, 308.9492
698.3770, 335.5928
699.5330, 341.5771
700.6880, 402.5820
701.8440, 372.7080
702.9990, 412.2246
704.1550, 434.7725
705.3100, 508.3760
706.4650, 531.9336
707.6190, 660.2812
708.7740, 695.4209
709.9290, 826.5654
711.0830, 923.6660
712.2370, 1060.290
713.3910, 1247.346
714.5450, 1435.320
715.6980, 1699.287
716.8520, 2028.017
718.0050, 2456.799
719.1580, 2849.622
720.3110, 3394.434
721.4640, 3654.320
722.6170, 3926.919
723.7700, 4229.779
724.9220, 4213.669
726.0740, 4110.288
727.2260, 3758.104
728.3780, 3321.543
729.5300, 2645.045
730.6810, 2107.530
731.8330, 1506.320
732.9840, 1170.898
734.1350, 982.8203
735.2860, 809.8545
736.4370, 642.5645
737.5880, 464.2559
738.7380, 441.6387
739.8880, 290.2988
741.0390, 256.9443
742.1890, 283.4912
743.3380, 254.9395
744.4880, 203.3965
745.6380, 322.7607
746.7870, 129.8760
747.9360, 170.2969
749.0850, 184.8125
750.2340, 83.34668
751.3830, 243.1523
752.5310, 99.04883
753.6800, 244.9365
754.8280, 46.76758
755.9760, 63.23633
757.1240, 61.01270
758.2720, 190.6416
759.4190, 194.9023
760.5670, 150.1514
761.7140, 109.4795
762.8610, 114.7920
764.0080, 75.42969
765.1550, 74.03320
766.3020, 32.84180
767.4480, 75.51660
768.5950, 50.55566
769.7410, 66.62988
770.8870, 68.86230
772.0330, 41.10156
773.1780, 48.29785
774.3240, 25.91992
775.4690, 25.14844
776.6140, 1.417969
777.7590, 4.9805000E-02
778.9040, 10.03906
780.0490, 48.88086
781.1940, 125.2891
782.3380, 94.20898
783.4820, 91.44531
784.6260, 101.6885
785.7700, 70.69531
786.9140, 84.85742
788.0580, 60.88379
789.2010, 3.925781
790.3450, 91.00879
791.4880, 34.88086
792.6310, 15.89258
793.7730, 61.26953
794.9160, 105.5420
796.0590, 82.35547
797.2010, 77.75977
798.3430, 66.84570
799.4850, 47.58594
800.6270, 28.79004
801.7690, 73.78711
802.9100, 8.445313
804.0520, 20.45312
805.1930, 31.11621
806.3340, 134.0088
807.4750, 27.57031
808.6160, 52.05078
809.7560, 40.31445
810.8970, 54.24316
812.0370, 83.63770
813.1770, 41.69727
814.3170, 9.609375
815.4570, 11.51660
816.5960, 4.012695
817.7360, 52.35938
818.8750, 2.649414
820.0140, 28.76562
821.1530, 82.73633
822.2920, 205.3604
823.4310, 154.0332
824.5690, 50.34668
825.7070, 13.97754
826.8460, 117.2539
827.9840, 25.73047
829.1220, 141.4932
830.2590, 85.95508
831.3970, 88.48828
832.5340, 55.16504
833.6710, 61.29004
834.8080, 199.5244
835.9450, 13.20410
837.0820, 99.06055
838.2190, 165.2734
839.3550, 36.51953
840.4910, 61.96484
841.6270, 97.98047
842.7630, 29.02246
843.8990, 45.31738
845.0350, 100.2725
846.1700, 43.20898
847.3060, 118.7031
848.4410, 112.6035
849.5760, 121.1494
850.7100, 136.3564
851.8450, 134.4375
852.9800, 148.2725
854.1140, 122.0898
855.2480, 142.0303
856.3820, 95.76660
857.5160, 157.7441
858.6500, 155.5625
859.7830, 147.9346
860.9170, 130.2656
862.0500, 133.2402
863.1830, 136.9248
864.3160, 129.7461
865.4480, 135.4326
866.5810, 132.4834
867.7130, 131.6973
868.8460, 127.3066
869.9780, 93.89844
871.1100, 129.4736
872.2410, 150.0391
873.3730, 178.7100
874.5050, 147.1230
875.6360, 266.6416
876.7670, 228.3301
877.8980, 259.8174
879.0290, 130.4482
880.1590, 176.9072
881.2900, 154.3506
882.4200, 310.7900
883.5500, 380.2197
884.6800, 235.6338
885.8100, 170.0342
886.9400, 65.26855
888.0690, 40.02344
889.1990, 37.90625
890.3280, 44.24121
891.4570, 7.246094
892.5860, 51.30176
893.7140, 37.33984
894.8430, 98.61523
895.9710, 155.8740
897.1000, 81.11719
898.2280, 104.2949
899.3560, 38.47949
900.4830, 95.48438
901.6110, 38.53223
902.7380, 151.2227
903.8660, 143.1602
904.9930, 93.97852
906.1200, 205.8496
907.2460, 46.71484
908.3730, 134.4482
909.5000, 25.19629
910.6260, 19.83301
911.7520, 129.4795
912.8780, 71.82715
914.0040, 96.22266
915.1290, 136.7314
916.2550, 87.05664
917.3800, 37.03809
918.5050, 69.88477
919.6300, 63.70312
920.7550, 116.5498
921.8800, 42.74707
923.0040, 102.9609
924.1290, 59.55469
925.2530, 99.47754
926.3770, 177.1689
927.5010, 8.609375
928.6250, 2.740234
929.7480, 12.25684
930.8720, 117.9414
931.9950, 152.5156
933.1180, 44.06055
934.2410, 138.5439
935.3640, 111.9336
936.4860, 71.23535
937.6090, 105.7109
938.7310, 161.1953
939.8530, 258.4346
940.9750, 41.70605
942.0970, 84.35156
943.2180, 142.6025
944.3400, 75.94336
945.4610, 122.4170
946.5820, 131.7422
947.7030, 83.18262
948.8240, 70.54199
949.9450, 3.374023
951.0650, 100.7061
952.1860, 237.7129
953.3060, 1.043945
954.4260, 104.6934
955.5460, 111.8076
956.6650, 46.13770
957.7850, 30.62793
958.9040, 177.1035
960.0230, 77.74121
961.1420, 156.1689
962.2610, 116.4814
963.3800, 129.2559
964.4990, 48.56250
965.6170, 31.34961
966.7350, 0.2890630
967.8530, 89.38477
968.9710, 85.46387
970.0890, 72.63477
971.2070, 64.79785
972.3240, 72.76855
973.4410, 59.90430
974.5580, 7.590820
975.6750, 127.3711
976.7920, 139.2900
977.9090, 15.40918
979.0250, 181.0859
980.1410, 167.9834
981.2580, 4.367188
982.3740, 141.5811
983.4890, 204.4971
984.6050, 160.4385
985.7200, 45.43262
986.8360, 125.4082
987.9510, 178.3965
989.0660, 78.30273
990.1810, 174.2705
991.2950, 49.04688
992.4100, 82.99609
993.5240, 39.93262
994.6390, 97.85840
995.7530, 37.74023
996.8660, 93.62402
997.9800, 61.51367
999.0940, 89.44629
1000.207, 134.3125
1001.320, 137.1592
1002.433, 148.9932
1003.546, 200.7979
1004.659, 270.6553
1005.772, 235.6738
1006.884, 220.4043
1007.996, 166.2148
1009.108, 123.0176
1010.220, 49.81055
1011.332, 145.5918
1012.444, 56.36523
1013.555, 146.1064
1014.666, 98.86328
1015.777, 90.66406
1016.888, 143.7090
1017.999, 136.6797
1019.110, 154.5586
1020.220, 156.4775
1021.331, 213.8936
1022.441, 174.7842
1023.551, 216.4795
1024.661, 131.8115
1025.770, 171.8828
1026.880, 189.2109
1027.989, 187.4844
1029.098, 152.0059
1030.207, 96.70410
1031.316, 233.3945
1032.425, 302.1104
1033.533, 264.7949
1034.642, 173.1016
1035.750, 214.3652
1036.858, 200.0059
1037.966, 168.6406
1039.073, 146.1377
1040.181, 262.7979
1041.288, 118.3486
1042.396, 339.0059
1043.503, 304.2139
1044.610, 334.6768
1045.716, 452.3135
1046.823, 287.7246
1047.929, 362.2383
1049.036, 222.2080
1050.142, 404.1016
1051.248, 251.3789
1052.353, 210.8057
1053.459, 392.5215
1054.564, 340.1318
1055.670, 313.3770
1056.775, 453.9180
1057.880, 358.4521
1058.985, 449.9736
1060.089, 621.5967
1061.194, 626.7090
1062.298, 659.7568
1063.402, 725.1387
1064.506, 823.7197
1065.610, 971.4492
1066.713, 1047.712
1067.817, 1063.326
1068.920, 1247.333
1070.023, 1426.821
1071.126, 1573.320
1072.229, 1785.887
1073.332, 2038.447
1074.435, 2172.832
1075.537, 2334.371
1076.639, 2536.912
1077.741, 2683.297
1078.843, 3053.838
1079.945, 3083.518
1081.046, 3226.002
1082.148, 3344.353
1083.249, 3850.287
1084.350, 4134.754
1085.451, 4673.272
1086.551, 5273.195
1087.652, 6148.668
1088.752, 7457.166
1089.853, 9721.436
1090.953, 12525.58
1092.053, 16905.07
1093.152, 22430.35
1094.252, 27923.82
1095.351, 33102.53
1096.451, 37312.00
1097.550, 41821.20
1098.649, 46510.32
1099.748, 48556.27
1100.846, 44057.96
1101.945, 34392.41
1103.043, 23914.75
1104.141, 15551.12
1105.239, 10470.48
1106.337, 7031.717
1107.434, 5102.735
1108.532, 3737.159
1109.629, 2940.759
1110.726, 2364.821
1111.823, 1771.246
1112.920, 1473.666
1114.017, 1282.682
1115.113, 1102.093
1116.210, 1176.503
1117.306, 818.9072
1118.402, 892.2393
1119.498, 595.6338
1120.593, 619.0225
1121.689, 515.3164
1122.784, 611.1230
1123.879, 376.2871
1124.974, 474.6221
1126.069, 410.7402
1127.164, 397.0967
1128.259, 295.1973
1129.353, 276.5264
1130.447, 62.08105
1131.541, 477.4424
1132.635, 363.7734
1133.729, 200.0986
1134.822, 121.4199
1135.916, 34.73633
1137.009, 51.04492
1138.102, 127.3467
1139.195, 253.6426
1140.288, 145.9336
1141.380, 289.2178
1142.473, 115.3105
1143.565, 96.58398
1144.657, 181.8330
1145.749, 151.4678
1146.841, 70.73242
1147.932, 40.01855
1149.024, 26.32910
1150.115, 46.55371
1151.206, 38.21191
1152.297, 353.9961
1153.388, 231.2012
1154.479, 240.6699
1155.569, 77.88672
1156.659, 124.2021
1157.750, 48.60938
1158.839, 206.5479
1159.929, 161.7012
1161.019, 80.80371
1162.108, 28.98535
1163.198, 44.23730
1164.287, 20.46484
1165.376, 99.16211
1166.465, 147.5488
1167.553, 178.1211
1168.642, 169.3281
1169.730, 201.2256
1170.818, 245.0459
1171.906, 46.11621
1172.994, 199.4482
1174.082, 322.7910
1175.170, 109.5186
1176.257, 346.5176
1177.344, 241.0879
1178.431, 134.0908
1179.518, 33.34277
1180.605, 13.58203
1181.691, 229.6260
1182.778, 181.3564
1183.864, 37.55566
1184.950, 185.4902
1186.036, 95.49609
1187.122, 245.4795
1188.207, 71.83496
1189.292, 168.7529
1190.378, 262.7705
1191.463, 215.6719
1192.548, 219.5674
1193.632, 58.45703
1194.717, 235.3389
1195.801, 83.49609
1196.886, 133.3604
1197.970, 108.2168
1199.054, 8.099609
1200.137, 85.35840
1201.221, 148.0859
1202.305, 120.9053
1203.388, 143.7158
1204.471, 77.51855
1205.554, 69.68750
1206.637, 179.0537
1207.719, 107.7871
1208.802, 122.5127
1209.884, 5.771484
1210.966, 92.92578
1212.048, 204.8936
1213.130, 88.57422
1214.212, 217.3701
1215.293, 238.0371
1216.374, 130.6953
1217.456, 179.3486
1218.536, 217.9922
1219.617, 104.6279
1220.698, 183.2559
1221.778, 134.8760
1222.859, 82.48730
1223.939, 210.1113
1225.019, 316.7275
1226.099, 223.4199
1227.178, 252.0508
1228.258, 154.7197
1229.337, 201.7051
1230.417, 69.32617
1231.496, 91.96289
1232.574, 109.1162
1233.653, 92.07422
1234.732, 105.3447
1235.810, 148.9551
1236.888, 160.8828
1237.966, 192.5693
1239.044, 77.39844
1240.122, 284.9658
1241.199, 197.7881
1242.277, 243.7402
1243.354, 79.28125
1244.431, 258.0352
1245.508, 174.1670
1246.585, 156.6826
1247.661, 82.24023
1248.738, 195.7383
1249.814, 208.4844
1250.890, 128.2158
1251.966, 21.68457
1253.042, 245.4912
1254.117, 115.0566
1255.193, 146.7080
1256.268, 136.1377
1257.343, 189.5576
1258.418, 220.9688
1259.493, 36.60156
1260.567, 110.0459
1261.642, 217.4248
1262.716, 164.7939
1263.790, 275.5039
1264.864, 123.8535
1265.938, 259.0029
1267.011, 260.2090
1268.085, 221.5381
1269.158, 290.7559
1270.231, 253.7021
1271.304, 274.6523
1272.377, 219.9414
1273.450, 92.33594
1274.522, 36.60547
1275.594, 148.7070
1276.666, 190.9004
1277.738, 97.84570
