##NAMES=Dolomite
##RRUFFID=R050129
##IDEAL CHEMISTRY=CaMg(CO_3_)_2_
##LOCALITY=Black Cloud mine, Leadville, Lake County, Colorado, USA
##OWNER=RRUFF
##SOURCE=Dave Bunk Minerals
##DESCRIPTION=Aggregate of colorless to white rhombohedra
##STATUS=The identification of this mineral has been confirmed by X-ray diffraction and chemical analysis
##URL=rruff.info/R050129
##MEASURED CHEMISTRY=Ca(Mg_0.62_Fe^2+^_0.33_Mn_0.05_)_Î£=1_(CO_3_)_2_ ; CO_2_ estimated by difference
##PIN_ID=M00233
##ORIENTATION=Laser parallel to -c* (0 0 -1). Fiducial mark perpendicular to laser is parallel to [1 1 0]
108.121, 0.000
109.513, 53.831
110.905, 41.914
112.297, 123.493
113.688, 40.428
115.079, 73.235
116.470, 33.733
117.861, 82.861
119.251, 40.267
120.642, 48.975
122.032, 0.295
123.422, 20.588
124.811, 18.315
126.201, 8.358
127.590, 67.287
128.979, 1.056
130.367, 32.309
131.756, 5.479
133.144, 47.473
134.532, 54.799
135.920, 83.041
137.307, 37.094
138.695, 63.444
140.082, 72.015
141.469, 66.471
142.856, 109.438
144.242, 88.757
145.628, 67.511
147.014, 49.704
148.400, 59.755
149.786, 50.041
151.171, 113.561
152.556, 113.432
153.941, 178.746
155.325, 122.318
156.710, 220.393
158.094, 265.629
159.478, 289.407
160.862, 422.972
162.245, 392.130
163.629, 551.237
165.012, 738.933
166.395, 978.446
167.777, 1397.841
169.160, 1784.049
170.542, 2772.469
171.924, 3025.024
173.306, 3439.063
174.687, 3202.058
176.068, 2377.778
177.449, 1909.420
178.830, 1202.748
180.211, 971.244
181.591, 642.462
182.972, 562.843
184.351, 458.648
185.731, 359.768
187.111, 352.760
188.490, 276.997
189.869, 187.942
191.248, 205.450
192.626, 201.222
194.005, 175.219
195.383, 168.845
196.761, 182.545
198.139, 132.300
199.516, 125.094
200.893, 88.917
202.271, 54.758
203.647, 42.601
205.024, 11.452
206.400, 4.293
207.777, 20.146
209.152, 3.981
210.528, 21.160
211.904, 49.461
213.279, 50.068
214.654, 14.730
216.029, 37.693
217.403, 20.445
218.778, 30.777
220.152, 28.583
221.526, 31.974
222.900, 32.452
224.273, 6.886
225.646, 29.275
227.019, 38.253
228.392, 19.585
229.765, 35.118
231.137, 34.757
232.509, 14.534
233.881, 25.210
235.253, 20.109
236.625, 19.795
237.996, 42.363
239.367, 35.072
240.738, 31.702
242.108, 21.303
243.479, 16.878
244.849, 19.593
246.219, 35.775
247.589, 23.046
248.958, 27.025
250.328, 19.045
251.697, 14.940
253.065, 2.861
254.434, 10.719
255.803, 16.320
257.171, 23.864
258.539, 68.502
259.906, 4.943
261.274, 67.337
262.641, 10.483
264.008, 62.796
265.375, 31.879
266.742, 17.866
268.108, 65.645
269.475, 79.525
270.840, 99.524
272.206, 121.094
273.572, 121.666
274.937, 167.047
276.302, 175.209
277.667, 230.175
279.032, 218.898
280.396, 296.398
281.760, 326.638
283.125, 375.747
284.488, 514.601
285.852, 535.229
287.215, 703.425
288.578, 770.591
289.941, 877.553
291.304, 1060.299
292.666, 1056.257
294.029, 1198.515
295.391, 1144.978
296.753, 1261.629
298.114, 1097.898
299.476, 947.037
300.837, 867.214
302.198, 656.995
303.558, 633.811
304.919, 479.466
306.279, 429.992
307.639, 336.619
308.999, 322.229
310.359, 246.755
311.718, 202.818
313.077, 234.930
314.436, 189.583
315.795, 182.511
317.154, 187.407
318.512, 188.513
319.870, 164.298
321.228, 132.231
322.586, 163.963
323.943, 167.603
325.300, 150.120
326.657, 198.533
328.014, 174.832
329.371, 269.074
330.727, 224.266
332.083, 316.355
333.439, 310.326
334.795, 311.190
336.150, 416.945
337.506, 336.615
338.861, 400.232
340.215, 339.826
341.570, 291.216
342.924, 265.577
344.279, 211.842
345.633, 214.047
346.986, 156.292
348.340, 147.679
349.693, 126.635
351.046, 120.744
352.399, 124.775
353.752, 112.321
355.104, 126.880
356.457, 121.529
357.809, 104.838
359.160, 72.098
360.512, 122.536
361.863, 122.606
363.214, 92.617
364.565, 97.420
365.916, 83.773
367.267, 120.954
368.617, 146.382
369.967, 62.475
371.317, 135.175
372.666, 103.241
374.016, 97.945
375.365, 101.108
376.714, 81.258
378.063, 52.741
379.411, 75.691
380.760, 129.301
382.108, 80.099
383.456, 98.861
384.803, 68.666
386.151, 107.449
387.498, 94.571
388.845, 59.274
390.192, 85.619
391.539, 93.114
392.885, 27.642
394.231, 90.183
395.577, 65.515
396.923, 61.639
398.269, 24.068
399.614, 38.638
400.959, 71.394
402.304, 52.870
403.649, 36.421
404.993, 23.799
406.337, 22.083
407.681, 19.411
409.025, 21.984
410.369, 84.339
411.712, 1.259
413.055, 20.033
414.398, 61.216
415.741, 1.975
417.084, 41.107
418.426, 17.292
419.768, 40.586
421.110, 18.304
422.452, 40.651
423.793, 77.335
425.134, 7.344
426.475, 35.968
427.816, 4.312
429.157, 44.473
430.497, 11.908
431.837, 39.816
433.177, 38.613
434.517, 36.488
435.857, 33.405
437.196, 33.385
438.535, 25.180
439.874, 30.529
441.213, 25.364
442.551, 27.782
443.889, 22.925
445.227, 18.182
446.565, 22.124
447.903, 15.165
449.240, 28.174
450.577, 35.224
451.914, 32.184
453.251, 22.108
454.588, 31.000
455.924, 38.882
457.260, 38.717
458.596, 45.214
459.932, 56.546
461.267, 48.299
462.602, 64.089
463.938, 59.901
465.272, 78.884
466.607, 75.536
467.941, 66.164
469.276, 22.786
470.610, 1.637
471.943, 50.958
473.277, 32.284
474.610, 93.723
475.944, 80.989
477.276, 63.171
478.609, 53.386
479.942, 44.556
481.274, 49.768
482.606, 68.767
483.938, 62.840
485.270, 70.882
486.601, 72.712
487.932, 77.997
489.263, 71.081
490.594, 62.775
491.925, 59.044
493.255, 60.412
494.585, 59.960
495.915, 62.939
497.245, 62.163
498.575, 52.325
499.904, 42.469
501.233, 76.604
502.562, 69.723
503.891, 79.848
505.219, 83.971
506.548, 54.970
507.876, 65.716
509.203, 37.471
510.531, 48.152
511.859, 28.052
513.186, 46.884
514.513, 53.479
515.840, 21.113
517.166, 76.661
518.493, 98.121
519.819, 34.437
521.145, 65.958
522.470, 80.473
523.796, 41.857
525.121, 100.257
526.446, 64.600
527.771, 105.110
529.096, 71.739
530.421, 99.024
531.745, 99.626
533.069, 112.093
534.393, 108.882
535.716, 61.005
537.040, 95.391
538.363, 71.665
539.686, 70.036
541.009, 87.637
542.331, 52.034
543.654, 51.510
544.976, 76.861
546.298, 63.375
547.620, 74.841
548.941, 55.161
550.263, 75.621
551.584, 69.114
552.905, 65.360
554.225, 88.894
555.546, 61.328
556.866, 53.767
558.186, 19.054
559.506, 38.742
560.826, 52.921
562.145, 66.372
563.465, 72.755
564.784, 59.088
566.103, 43.417
567.421, 36.737
568.740, 56.069
570.058, 81.663
571.376, 36.892
572.694, 97.221
574.011, 47.727
575.329, 63.958
576.646, 68.389
577.963, 64.726
579.279, 71.408
580.596, 70.505
581.912, 67.950
583.228, 60.548
584.544, 50.866
585.860, 60.302
587.175, 60.607
588.491, 38.083
589.806, 60.158
591.121, 37.613
592.435, 42.128
593.750, 15.520
595.064, 52.951
596.378, 32.370
597.692, 56.752
599.006, 62.208
600.319, 52.587
601.632, 42.973
602.945, 46.739
604.258, 29.354
605.571, 40.081
606.883, 34.402
608.195, 18.752
609.507, 32.152
610.819, 35.536
612.131, 81.925
613.442, 28.333
614.753, 44.749
616.064, 49.157
617.375, 6.410
618.685, 49.065
619.995, 15.505
621.306, 4.008
622.615, 9.434
623.925, 35.820
625.235, 40.786
626.544, 26.344
627.853, 50.726
629.162, 14.929
630.471, 80.375
631.779, 53.779
633.087, 20.390
634.395, 41.318
635.703, 20.801
637.011, 27.244
638.318, 3.351
639.625, 1.646
640.932, 10.582
642.239, 17.094
643.546, 0.686
644.852, 39.947
646.158, 2.493
647.464, 12.803
648.770, 1.914
650.076, 0.625
651.381, 3.838
652.686, 22.583
653.991, 18.095
655.296, 33.653
656.600, 52.124
657.905, 36.240
659.209, 29.780
660.513, 24.280
661.817, 1.825
663.120, 43.357
664.423, 68.855
665.726, 17.339
667.029, 10.747
668.332, 7.842
669.635, 5.481
670.937, 10.822
672.239, 14.249
673.541, 27.521
674.842, 43.485
676.144, 47.992
677.445, 57.730
678.746, 57.227
680.047, 36.874
681.348, 70.413
682.648, 69.477
683.948, 93.408
685.248, 43.890
686.548, 89.384
687.848, 30.877
689.147, 82.368
690.447, 68.856
691.746, 82.042
693.044, 150.332
694.343, 135.850
695.641, 136.332
696.940, 137.719
698.238, 105.197
699.535, 195.656
700.833, 139.115
702.130, 190.586
703.427, 224.055
704.724, 218.784
706.021, 323.291
707.318, 304.754
708.614, 344.215
709.910, 386.674
711.206, 440.130
712.502, 657.585
713.798, 729.546
715.093, 1039.874
716.388, 1270.285
717.683, 1484.731
718.978, 2008.175
720.272, 2134.616
721.567, 2444.057
722.861, 2619.488
724.155, 2165.891
725.448, 2047.325
726.742, 1469.757
728.035, 1190.161
729.328, 905.589
730.621, 673.015
731.914, 564.439
733.206, 370.382
734.499, 358.802
735.791, 242.220
737.083, 162.636
738.374, 211.049
739.666, 154.459
740.957, 163.868
742.248, 124.274
743.539, 81.755
744.830, 99.156
746.120, 70.557
747.410, 25.955
748.701, 84.351
749.990, 28.660
751.280, 79.050
752.570, 36.428
753.859, 18.409
755.148, 67.792
756.437, 51.173
757.725, 6.448
759.014, 52.923
760.302, 0.725
761.590, 46.638
762.878, 28.002
764.166, 41.537
765.453, 35.868
766.740, 18.205
768.027, 21.539
769.314, 26.852
770.601, 53.429
771.887, 35.756
773.174, 37.841
774.460, 57.163
775.745, 38.417
777.031, 11.621
778.316, 5.375
779.602, 0.371
780.887, 15.225
782.172, 13.500
783.456, 30.791
784.741, 25.017
786.025, 16.304
787.309, 44.587
788.593, 0.832
789.876, 51.106
791.160, 53.344
792.443, 43.256
793.726, 71.705
795.009, 32.859
796.291, 19.049
797.574, 9.263
798.856, 5.593
800.138, 63.652
801.420, 13.210
802.702, 3.584
803.983, 35.699
805.264, 31.206
806.545, 24.885
807.826, 15.054
809.107, 8.202
810.387, 13.392
811.667, 22.421
812.947, 20.749
814.227, 45.917
815.507, 26.940
816.786, 25.082
818.065, 9.223
819.344, 60.362
820.623, 11.454
821.902, 25.506
823.180, 10.396
824.459, 7.734
825.737, 23.303
827.014, 0.353
828.292, 14.453
829.569, 58.561
830.847, 0.666
832.124, 36.767
833.401, 5.864
834.677, 5.958
835.954, 2.952
837.230, 33.870
838.506, 26.812
839.782, 58.228
841.057, 37.265
842.333, 49.289
843.608, 46.321
844.883, 22.649
846.158, 7.637
847.433, 11.634
848.707, 36.357
849.981, 9.654
851.255, 80.325
852.529, 26.302
853.803, 45.277
855.076, 16.249
856.350, 55.220
857.623, 1.189
858.895, 7.153
860.168, 63.115
861.441, 27.074
862.713, 83.032
863.985, 23.988
865.257, 15.942
866.528, 4.105
867.800, 27.841
869.071, 40.786
870.342, 36.729
871.613, 68.671
872.884, 101.613
874.154, 53.554
875.425, 87.493
876.695, 79.430
877.965, 73.366
879.234, 128.301
880.504, 153.234
881.773, 162.166
883.042, 65.097
884.311, 84.026
885.580, 6.046
886.848, 40.876
888.117, 75.797
889.385, 15.717
890.653, 35.636
891.920, 34.553
893.188, 6.470
894.455, 104.386
895.722, 1.301
896.989, 6.213
898.256, 78.126
899.523, 26.037
900.789, 49.925
902.055, 39.835
903.321, 37.734
904.587, 56.643
905.852, 9.449
907.118, 8.399
908.383, 36.301
909.648, 8.202
910.913, 36.423
912.177, 16.323
913.442, 66.848
914.706, 22.748
915.970, 5.331
917.233, 31.565
918.497, 24.462
919.760, 13.438
921.024, 53.030
922.287, 23.939
923.550, 112.174
924.812, 78.834
926.075, 103.722
927.337, 0.610
928.599, 24.499
929.861, 90.313
931.122, 42.508
932.384, 19.975
933.645, 30.810
934.906, 12.639
936.167, 28.531
937.428, 24.799
938.688, 46.257
939.948, 27.152
941.208, 26.677
942.468, 28.574
943.728, 34.471
944.987, 5.369
946.247, 56.269
947.506, 5.170
948.765, 1.042
950.023, 70.870
951.282, 6.037
952.540, 69.943
953.798, 53.665
955.056, 7.335
956.314, 110.248
957.572, 23.880
958.829, 37.796
960.086, 77.675
961.343, 50.506
962.600, 10.384
963.856, 72.577
965.113, 19.490
966.369, 47.417
967.625, 38.335
968.881, 93.265
970.136, 74.136
971.392, 0.929
972.647, 66.965
973.902, 31.096
975.157, 33.786
976.411, 7.856
977.666, 3.796
978.920, 83.340
980.174, 26.258
981.428, 53.205
982.682, 99.779
983.935, 33.731
985.188, 28.541
986.441, 19.359
987.694, 38.755
988.947, 32.300
990.199, 41.065
991.452, 40.236
992.704, 64.209
993.956, 66.189
995.207, 82.172
996.459, 89.008
997.710, 97.647
998.961, 98.609
1000.212, 66.609
1001.463, 61.711
1002.714, 93.723
1003.964, 66.739
1005.214, 109.774
1006.464, 76.813
1007.714, 59.857
1008.964, 77.645
1010.213, 62.656
1011.462, 112.711
1012.711, 136.771
1013.960, 97.840
1015.209, 183.912
1016.457, 284.989
1017.705, 175.566
1018.954, 132.656
1020.201, 143.752
1021.449, 252.853
1022.697, 97.328
1023.944, 145.436
1025.191, 255.547
1026.438, 119.662
1027.685, 238.781
1028.931, 200.906
1030.177, 232.034
1031.423, 243.175
1032.669, 196.319
1033.915, 224.468
1035.161, 209.625
1036.406, 209.265
1037.651, 351.430
1038.896, 237.615
1040.141, 281.804
1041.386, 373.008
1042.630, 290.215
1043.874, 396.426
1045.118, 355.642
1046.362, 332.787
1047.606, 497.011
1048.849, 360.238
1050.092, 429.469
1051.336, 468.705
1052.578, 404.944
1053.821, 558.187
1055.064, 484.450
1056.306, 541.123
1057.548, 667.395
1058.790, 683.673
1060.032, 788.955
1061.273, 795.244
1062.515, 819.536
1063.756, 976.834
1064.997, 942.144
1066.237, 1081.206
1067.478, 1330.532
1068.718, 1221.862
1069.959, 1605.440
1071.199, 1613.778
1072.438, 1702.881
1073.678, 2106.234
1074.918, 1952.592
1076.157, 2255.954
1077.396, 2443.317
1078.635, 2425.700
1079.873, 3209.088
1081.112, 3315.482
1082.350, 4124.893
1083.588, 5436.296
1084.826, 6158.706
1086.064, 8780.124
1087.301, 11077.549
1088.539, 14094.976
1089.776, 23312.410
1091.013, 28679.844
1092.250, 40947.297
1093.486, 52054.746
1094.723, 48642.207
1095.959, 48739.652
1097.195, 35907.117
1098.431, 23264.586
1099.666, 16992.082
1100.902, 9959.557
1102.137, 6947.040
1103.372, 5151.525
1104.607, 3359.016
1105.842, 2832.510
1107.076, 2122.018
1108.311, 1578.528
1109.545, 1511.092
1110.779, 1038.615
1112.012, 1017.198
1113.246, 912.735
1114.479, 711.329
1115.712, 748.872
1116.945, 555.427
1118.178, 540.048
1119.411, 621.743
1120.643, 473.298
1121.875, 501.866
1123.108, 471.342
1124.339, 284.067
1125.571, 426.791
1126.802, 307.375
1128.034, 266.964
1129.265, 259.590
1130.496, 198.184
1131.727, 281.995
1132.957, 183.596
1134.187, 216.316
1135.418, 312.031
1136.648, 217.644
1137.877, 238.291
1139.107, 227.370
1140.336, 225.009
1141.566, 208.570
1142.795, 212.213
1144.023, 126.944
1145.252, 148.674
1146.480, 141.333
1147.709, 132.075
1148.937, 159.105
1150.165, 89.778
1151.392, 154.606
1152.620, 128.008
1153.847, 78.685
1155.074, 180.941
1156.301, 75.967
1157.528, 131.648
1158.755, 97.332
1159.981, 33.087
1161.207, 102.150
1162.433, 117.836
1163.659, 22.637
1164.885, 115.955
1166.110, 45.678
1167.336, 53.846
1168.561, 51.742
1169.786, 19.569
1171.010, 99.286
1172.235, 65.987
1173.459, 21.673
1174.683, 108.586
1175.907, 50.703
1177.131, 37.389
1178.355, 121.139
1179.578, 5.871
1180.801, 76.811
1182.024, 31.520
1183.247, 8.202
1184.470, 116.129
1185.692, 21.695
1186.915, 47.378
1188.137, 57.775
1189.359, 49.490
1190.580, 61.168
1191.802, 70.325
1193.023, 60.156
1194.244, 90.739
1195.465, 41.413
1196.686, 34.086
1197.907, 16.860
1199.127, 35.588
1200.347, 64.255
1201.567, 28.135
1202.787, 82.799
1204.007, 121.596
1205.226, 23.735
1206.446, 43.540
1207.665, 49.197
1208.884, 28.984
1210.102, 117.637
1211.321, 15.232
1212.539, 69.026
1213.758, 101.673
1214.976, 25.450
1216.193, 7.908
1217.411, 68.728
1218.628, 69.466
1219.846, 112.102
1221.063, 66.736
1222.280, 25.582
1223.496, 153.228
1224.713, 48.217
1225.929, 56.853
1227.145, 83.485
1228.361, 19.312
1229.577, 151.926
1230.793, 34.555
1232.008, 62.120
1233.223, 129.724
1234.438, 61.708
1235.653, 51.306
1236.868, 59.904
1238.082, 27.795
1239.297, 72.392
1240.511, 29.097
1241.725, 34.760
1242.938, 81.355
1244.152, 64.024
1245.365, 25.639
1246.578, 67.232
1247.791, 32.824
1249.004, 77.415
1250.217, 42.005
1251.429, 101.697
1252.642, 121.284
1253.854, 82.869
1255.066, 27.455
1256.277, 74.037
1257.489, 25.617
1258.700, 140.363
1259.911, 27.939
1261.122, 76.512
1262.333, 106.076
1263.544, 27.633
1264.754, 11.272
1265.964, 124.816
1267.174, 70.376
1268.384, 70.891
1269.594, 9.406
1270.803, 11.940
1272.013, 112.471
1273.222, 79.959
1274.431, 39.462
1275.640, 103.940
1276.848, 5.414
1278.057, 53.883
1279.265, 22.346
1280.473, 24.792
1281.681, 75.227
1282.888, 46.656
1284.096, 1.057
1285.303, 71.435
1286.510, 6.195
1287.717, 77.167
1288.924, 33.523
1290.131, 8.125
1291.337, 87.188
1292.543, 37.496
1293.749, 12.206
1294.955, 74.080
1296.161, 20.346
1297.366, 49.394
1298.571, 76.843
1299.777, 1.059
1300.981, 6.267
1302.186, 74.465
1303.391, 63.631
1304.595, 42.788
1305.799, 11.061
1307.003, 97.060
1308.207, 33.172
1309.411, 14.736
1310.614, 53.341
1311.818, 4.409
1313.021, 17.466
1314.224, 110.514
1315.426, 22.182
1316.629, 59.212
1317.831, 79.222
1319.033, 16.223
1320.235, 6.211
1321.437, 103.188
1322.639, 20.846
1323.840, 53.100
1325.042, 15.036
1326.243, 4.040
1327.444, 71.869
1328.644, 16.768
1329.845, 49.345
1331.045, 71.515
1332.245, 30.635
1333.445, 58.193
1334.645, 70.011
1335.845, 8.819
1337.044, 32.615
1338.244, 72.476
1339.443, 114.252
1340.642, 78.019
1341.840, 42.776
1343.039, 53.523
1344.237, 103.262
1345.435, 54.008
1346.633, 99.696
1347.831, 36.392
1349.029, 7.079
1350.226, 33.757
1351.424, 74.427
1352.621, 37.089
1353.818, 80.744
1355.014, 17.608
1356.211, 34.026
1357.407, 84.654
1358.604, 37.276
1359.800, 95.891
1360.995, 95.258
1362.191, 20.136
1363.387, 146.458
1364.582, 83.258
1365.777, 23.848
1366.972, 65.437
1368.167, 39.974
1369.361, 66.602
1370.556, 67.287
1371.750, 24.871
1372.944, 121.429
1374.138, 66.135
1375.331, 17.299
1376.525, 116.263
1377.718, 12.260
1378.911, 88.289
1380.104, 127.594
1381.297, 6.125
1382.490, 101.148
1383.682, 47.421
1384.874, 57.655
1386.066, 131.908
1387.258, 57.158
1388.450, 70.402
1389.641, 156.579
1390.833, 111.733
1392.024, 83.883
1393.215, 193.014
1394.406, 53.055
1395.596, 137.237
1396.787, 129.075
1397.977, 1.238
1399.167, 121.353
1400.357, 115.251
1401.547, 40.122
1402.736, 193.225
1403.925, 80.808
1405.115, 167.788
1406.304, 146.440
1407.492, 60.414
1408.681, 171.753
1409.870, 66.833
1411.058, 79.066
1412.246, 159.578
1413.434, 71.438
1414.622, 68.542
1415.809, 177.104
1416.997, 69.292
1418.184, 187.883
1419.371, 200.498
1420.558, 149.042
1421.744, 235.280
1422.931, 217.065
1424.117, 143.991
1425.303, 236.407
1426.489, 144.339
1427.675, 203.844
1428.861, 346.861
1430.046, 294.255
1431.231, 388.862
1432.416, 455.205
1433.601, 403.945
1434.786, 591.220
1435.970, 681.664
1437.155, 707.903
1438.339, 951.012
1439.523, 790.153
1440.707, 792.300
1441.890, 837.893
1443.074, 575.201
1444.257, 564.064
1445.440, 561.986
1446.623, 323.722
1447.806, 472.824
1448.989, 342.079
1450.171, 241.347
1451.353, 360.688
1452.535, 215.355
1453.717, 188.048
1454.899, 295.624
1456.080, 148.346
1457.262, 156.012
1458.443, 246.384
1459.624, 140.604
1460.805, 155.042
1461.985, 157.006
1463.166, 43.316
1464.346, 200.385
1465.526, 170.578
1466.706, 127.873
1467.886, 183.979
1469.065, 120.173
1470.245, 139.361
1471.424, 238.485
1472.603, 71.632
1473.782, 53.803
1474.960, 193.088
1476.139, 45.314
1477.317, 137.562
1478.495, 58.856
1479.673, 6.150
1480.851, 123.437
1482.029, 22.776
1483.206, 139.168
1484.383, 156.625
1485.560, 42.184
1486.737, 129.824
1487.914, 121.460
1489.091, 78.089
1490.267, 126.773
1491.443, 134.532
1492.619, 82.338
1493.795, 83.195
1494.971, 84.110
1496.146, 70.093
1497.322, 129.154
1498.497, 130.804
1499.672, 97.534
1500.846, 173.328
1502.021, 55.744
1503.196, 47.288
1504.370, 69.955
1505.544, 5.234
1506.718, 135.739
1507.892, 31.897
1509.065, 64.266
1510.238, 170.878
1511.412, 6.850
1512.585, 74.183
1513.758, 70.447
1514.930, 9.789
1516.103, 185.666
1517.275, 132.370
1518.447, 0.326
1519.619, 0.000
##END=



