##NAMES=Dolomite
##RRUFFID=R050272
##IDEAL CHEMISTRY=CaMg(CO_3_)_2_
##LOCALITY=Eagle mine, Gillman, Colorado, USA
##OWNER=RRUFF
##SOURCE=University of Arizona Mineral Museum
##DESCRIPTION=Gray-white rhombohedral crystals
##STATUS=The identification of this mineral has been confirmed by X-ray diffraction and chemical analysis
##URL=rruff.info/R050272
##MEASURED CHEMISTRY=(Ca_0.96_Fe^2+^_0.04_)_Σ=1_(Mg_0.63_Mn^2+^_0.21_Fe^2+^_0.16_)_Σ=1_(CO_3_)_2_ ; CO_3_ estimated by difference and stoichiometry
##PIN_ID=L00489
##ORIENTATION=Laser parallel to -a* (-1 0 0). Fiducial mark perpendicular to laser is parallel to -c [0 0 -1]
80.125, 0.000
81.521, 82.867
82.916, 55.109
84.311, 41.937
85.706, 85.463
87.101, 79.671
88.496, 66.508
89.890, 148.329
91.284, 165.235
92.678, 210.880
94.071, 213.777
95.465, 231.496
96.858, 224.304
98.251, 204.388
99.644, 182.678
101.036, 150.685
102.428, 118.531
103.820, 107.771
105.212, 134.978
106.604, 149.582
107.995, 133.616
109.387, 133.626
110.777, 138.603
112.168, 102.633
113.559, 238.265
114.949, 298.525
116.339, 254.347
117.729, 189.186
119.119, 79.271
120.508, 39.235
121.897, 87.996
123.286, 76.488
124.675, 19.272
126.063, 11.741
127.452, 27.450
128.840, 27.174
130.228, 18.627
131.615, 77.925
133.003, 11.920
134.390, 77.101
135.777, 65.998
137.164, 67.777
138.550, 127.447
139.937, 66.012
141.323, 46.731
142.709, 109.457
144.094, 94.514
145.480, 158.764
146.865, 157.852
148.250, 135.832
149.635, 140.999
151.019, 204.832
152.403, 272.747
153.788, 260.390
155.171, 407.166
156.555, 375.662
157.939, 450.760
159.322, 621.281
160.705, 742.117
162.088, 938.351
163.470, 1212.475
164.853, 1556.790
166.235, 2159.256
167.617, 2864.645
168.998, 3721.073
170.380, 4689.522
171.761, 5147.998
173.142, 5198.502
174.523, 4684.019
175.904, 3908.544
177.284, 3135.074
178.664, 2417.604
180.044, 1821.139
181.424, 1329.682
182.803, 1056.231
184.183, 827.775
185.562, 676.306
186.940, 564.837
188.319, 448.351
189.698, 358.851
191.076, 308.336
192.454, 260.809
193.831, 228.266
195.209, 216.707
196.586, 233.131
197.963, 183.533
199.340, 186.419
200.717, 91.268
202.093, 138.599
203.470, 99.906
204.846, 31.185
206.221, 77.437
207.597, 24.662
208.972, 3.862
210.347, 29.967
211.722, 4.823
213.097, 4.708
214.472, 11.619
215.846, 6.556
217.220, 24.519
218.594, 11.375
219.967, 19.374
221.341, 10.937
222.714, 39.452
224.087, 28.535
225.460, 38.949
226.832, 30.900
228.204, 11.007
229.577, 54.702
230.948, 43.084
232.320, 26.130
233.692, 16.496
235.063, 53.290
236.434, 12.364
237.805, 71.122
239.175, 48.712
240.545, 41.642
241.916, 33.275
243.286, 36.301
244.655, 46.517
246.025, 119.460
247.394, 129.667
248.763, 133.031
250.132, 118.113
251.501, 201.510
252.869, 229.552
254.237, 222.497
255.605, 341.662
256.973, 301.911
258.340, 433.048
259.708, 420.037
261.075, 518.274
262.442, 587.837
263.808, 657.411
265.175, 762.248
266.541, 833.189
267.907, 911.154
269.273, 1019.813
270.639, 1173.685
272.004, 1337.352
273.369, 1542.877
274.734, 1776.618
276.099, 1953.873
277.463, 2328.707
278.828, 2633.254
280.192, 2974.707
281.556, 3449.489
282.919, 3990.881
284.283, 4732.280
285.646, 5451.559
287.009, 6329.880
288.372, 7325.235
289.734, 8240.571
291.097, 9154.466
292.459, 9691.248
293.821, 10146.484
295.183, 9935.750
296.544, 9352.832
297.905, 8233.294
299.266, 7272.243
300.627, 6366.381
301.988, 5193.405
303.348, 4329.247
304.709, 3566.089
306.069, 2988.748
307.428, 2507.601
308.788, 2078.288
310.147, 1849.068
311.507, 1495.681
312.865, 1351.015
314.224, 1132.617
315.583, 994.986
316.941, 913.278
318.299, 789.703
319.657, 709.850
321.015, 662.377
322.372, 603.380
323.729, 581.675
325.086, 471.806
326.443, 518.888
327.800, 421.052
329.156, 474.922
330.512, 449.066
331.868, 388.989
333.224, 365.900
334.579, 382.047
335.935, 390.963
337.290, 388.943
338.645, 344.690
339.999, 345.481
341.354, 279.331
342.708, 289.031
344.062, 239.980
345.416, 262.644
346.769, 222.540
348.123, 192.436
349.476, 226.076
350.829, 181.943
352.182, 171.568
353.534, 158.422
354.887, 142.038
356.239, 159.553
357.591, 164.145
358.942, 140.621
360.294, 87.105
361.645, 117.542
362.996, 111.960
364.347, 28.264
365.698, 110.640
367.048, 83.997
368.398, 106.906
369.748, 60.151
371.098, 44.931
372.448, 117.080
373.797, 11.112
375.146, 91.670
376.495, 29.320
377.844, 71.413
379.192, 99.805
380.540, 0.080
381.889, 85.130
383.236, 39.661
384.584, 53.736
385.932, 13.419
387.279, 6.497
388.626, 0.304
389.973, 22.786
391.319, 12.700
392.666, 11.367
394.012, 33.293
395.358, 0.641
396.704, 4.880
398.049, 18.664
399.394, 15.348
400.740, 9.215
402.084, 26.635
403.429, 10.031
404.774, 1.186
406.118, 34.401
407.462, 25.679
408.806, 12.273
410.150, 14.083
411.493, 36.490
412.836, 5.977
414.179, 48.496
415.522, 23.009
416.865, 25.445
418.207, 13.872
419.549, 23.273
420.891, 39.647
422.233, 7.997
423.575, 3.667
424.916, 4.375
426.257, 50.010
427.598, 26.287
428.939, 16.557
430.279, 55.813
431.619, 15.974
432.959, 37.115
434.299, 65.227
435.639, 51.414
436.978, 73.753
438.318, 5.795
439.657, 35.007
440.996, 50.073
442.334, 15.958
443.673, 48.203
445.011, 38.114
446.349, 58.197
447.687, 40.062
449.024, 27.048
450.361, 69.002
451.699, 22.198
453.036, 44.757
454.372, 25.504
455.709, 18.390
457.045, 45.273
458.381, 54.950
459.717, 63.648
461.053, 19.378
462.388, 33.354
463.724, 70.054
465.059, 63.625
466.394, 101.437
467.728, 46.968
469.063, 78.590
470.397, 39.167
471.731, 64.759
473.065, 117.377
474.398, 34.907
475.732, 74.315
477.065, 79.764
478.398, 41.193
479.731, 97.648
481.063, 7.025
482.396, 107.739
483.728, 31.145
485.060, 64.438
486.391, 70.012
487.723, 45.269
489.054, 125.666
490.385, 40.971
491.716, 89.186
493.047, 87.734
494.377, 26.917
495.708, 77.188
497.038, 57.333
498.368, 110.533
499.697, 94.770
501.027, 75.871
502.356, 124.668
503.685, 43.985
505.014, 142.033
506.342, 47.774
507.671, 42.788
508.999, 98.860
510.327, 39.840
511.655, 92.812
512.982, 32.842
514.310, 84.757
515.637, 113.586
516.964, 80.473
518.291, 170.367
519.617, 96.208
520.944, 153.750
522.270, 141.445
523.596, 132.134
524.921, 122.185
526.247, 88.762
527.572, 96.037
528.897, 81.783
530.222, 95.115
531.547, 93.307
532.871, 91.970
534.196, 112.690
535.520, 73.166
536.844, 102.224
538.167, 150.607
539.491, 90.107
540.814, 145.521
542.137, 100.201
543.460, 86.415
544.783, 160.735
546.105, 47.659
547.427, 146.839
548.749, 57.439
550.071, 118.496
551.393, 128.437
552.714, 74.345
554.035, 115.520
555.356, 94.251
556.677, 122.683
557.998, 115.726
559.318, 126.498
560.638, 136.226
561.958, 130.832
563.278, 141.588
564.597, 130.336
565.917, 115.460
567.236, 125.501
568.555, 73.402
569.874, 137.196
571.192, 108.293
572.511, 96.077
573.829, 122.204
575.147, 89.410
576.464, 120.371
577.782, 88.220
579.099, 115.146
580.416, 121.182
581.733, 71.931
583.050, 136.318
584.366, 43.654
585.683, 63.689
586.999, 58.580
588.315, 55.381
589.630, 124.407
590.946, 70.184
592.261, 102.114
593.576, 47.150
594.891, 5.118
596.206, 111.172
597.520, 22.796
598.834, 51.688
600.148, 90.612
601.462, 13.164
602.776, 83.131
604.089, 19.975
605.402, 114.004
606.715, 31.837
608.028, 33.594
609.341, 102.528
610.653, 17.664
611.965, 84.520
613.277, 24.235
614.589, 18.908
615.901, 102.699
617.212, 52.531
618.523, 39.475
619.834, 4.891
621.145, 34.823
622.456, 82.792
623.766, 0.381
625.076, 78.627
626.386, 32.367
627.696, 38.230
629.006, 28.975
630.315, 17.764
631.624, 33.760
632.933, 59.407
634.242, 43.212
635.551, 45.198
636.859, 33.850
638.167, 47.730
639.475, 5.839
640.783, 31.066
642.090, 87.119
643.398, 2.172
644.705, 121.549
646.012, 26.468
647.318, 44.348
648.625, 82.956
649.931, 2.269
651.237, 62.068
652.543, 34.564
653.849, 63.264
655.155, 45.577
656.460, 13.608
657.765, 67.180
659.070, 7.136
660.375, 0.637
661.679, 86.177
662.984, 7.069
664.288, 125.423
665.592, 40.126
666.895, 67.818
668.199, 104.800
669.502, 41.500
670.805, 79.554
672.108, 154.506
673.411, 70.189
674.713, 89.547
676.016, 45.214
677.318, 103.848
678.620, 50.264
679.921, 41.911
681.223, 94.550
682.524, 24.674
683.825, 103.883
685.126, 65.851
686.427, 81.369
687.727, 81.940
689.028, 38.500
690.328, 114.049
691.628, 58.625
692.927, 74.091
694.227, 153.146
695.526, 111.739
696.825, 190.265
698.124, 7.817
699.423, 124.361
700.721, 118.864
702.020, 164.397
703.318, 194.732
704.616, 209.101
705.913, 175.641
707.211, 271.162
708.508, 279.688
709.805, 349.135
711.102, 397.641
712.399, 593.421
713.695, 712.923
714.992, 873.042
716.288, 1144.541
717.584, 1250.034
718.879, 1558.523
720.175, 1717.012
721.470, 1685.497
722.765, 1739.977
724.060, 1501.452
725.355, 1258.886
726.649, 1118.358
727.944, 845.825
729.238, 709.288
730.532, 570.746
731.825, 463.207
733.119, 378.548
734.412, 304.804
735.705, 274.253
736.998, 214.696
738.291, 225.123
739.584, 244.561
740.876, 120.873
742.168, 155.434
743.460, 121.802
744.752, 105.155
746.043, 148.574
747.334, 45.983
748.626, 165.436
749.916, 77.742
751.207, 84.115
752.498, 103.512
753.788, 40.710
755.078, 112.027
756.368, 73.413
757.658, 27.573
758.947, 125.956
760.237, 17.139
761.526, 75.513
762.815, 74.740
764.104, 95.971
765.392, 50.073
766.680, 33.247
767.969, 105.609
769.257, 35.806
770.544, 52.979
771.832, 128.302
773.119, 22.611
774.406, 78.862
775.693, 83.841
776.980, 15.069
778.267, 72.234
779.553, 33.301
780.839, 68.625
782.125, 80.832
783.411, 27.061
784.697, 106.249
785.982, 55.387
787.267, 86.590
788.552, 56.892
789.837, 7.869
791.122, 75.361
792.406, 40.542
793.690, 71.779
794.974, 87.657
796.258, 45.178
797.542, 60.061
798.825, 45.998
800.108, 42.769
801.391, 115.623
802.674, 26.752
803.957, 87.948
805.239, 0.791
806.522, 43.975
807.804, 42.050
809.085, 17.771
810.367, 110.326
811.649, 17.366
812.930, 21.521
814.211, 81.960
815.492, 16.860
816.772, 42.007
818.053, 45.442
819.333, 5.584
820.613, 85.646
821.893, 33.218
823.173, 12.894
824.452, 43.928
825.732, 32.036
827.011, 95.142
828.290, 21.755
829.568, 38.331
830.847, 48.356
832.125, 5.563
833.403, 95.472
834.681, 21.471
835.959, 12.461
837.236, 111.605
838.514, 65.341
839.791, 49.674
841.068, 41.687
842.345, 20.698
843.621, 48.614
844.898, 18.623
846.174, 23.373
847.450, 3.150
848.726, 6.850
850.001, 62.848
851.277, 37.844
852.552, 73.606
853.827, 61.600
855.102, 67.902
856.376, 116.585
857.651, 79.577
858.925, 61.567
860.199, 68.557
861.473, 5.547
862.746, 109.535
864.020, 44.522
865.293, 1.491
866.566, 92.492
867.839, 25.525
869.112, 66.442
870.384, 126.409
871.656, 83.375
872.928, 203.341
874.200, 24.306
875.472, 106.271
876.744, 128.236
878.015, 22.200
879.286, 156.165
880.557, 134.129
881.828, 182.093
883.098, 98.057
884.369, 53.021
885.639, 89.985
886.909, 12.050
888.178, 43.908
889.448, 74.867
890.717, 4.828
891.987, 73.789
893.256, 54.751
894.524, 2.287
895.793, 100.675
897.061, 30.637
898.330, 25.600
899.598, 73.563
900.865, 0.531
902.133, 84.500
903.401, 24.528
904.668, 39.434
905.935, 86.397
907.202, 72.345
908.468, 84.317
909.735, 79.723
911.001, 66.194
912.267, 70.169
913.533, 51.036
914.799, 86.015
916.064, 63.997
917.330, 17.020
918.595, 143.958
919.860, 34.899
921.124, 59.880
922.389, 70.839
923.653, 40.174
924.918, 113.796
926.182, 31.686
927.445, 40.661
928.709, 70.639
929.972, 20.492
931.236, 27.350
932.499, 32.428
933.761, 40.409
935.024, 43.392
936.286, 24.324
937.549, 49.313
938.811, 38.309
940.073, 7.308
941.334, 59.311
942.596, 24.150
943.857, 124.158
945.118, 82.169
946.379, 2.182
947.640, 100.201
948.900, 45.745
950.161, 137.770
951.421, 80.802
952.681, 13.469
953.940, 104.568
955.200, 50.580
956.459, 55.624
957.719, 115.094
958.978, 34.147
960.236, 71.205
961.495, 90.562
962.753, 29.627
964.012, 108.652
965.270, 60.700
966.527, 78.784
967.785, 134.832
969.043, 22.926
970.300, 111.028
971.557, 45.896
972.814, 38.008
974.071, 71.582
975.327, 6.656
976.583, 178.781
977.840, 31.910
979.095, 58.044
980.351, 109.405
981.607, 29.547
982.862, 105.695
984.117, 34.084
985.372, 30.249
986.627, 131.419
987.882, 31.451
989.136, 113.641
990.390, 4.451
991.644, 74.651
992.898, 149.857
994.152, 104.068
995.405, 93.497
996.659, 115.556
997.912, 14.266
999.165, 92.476
1000.417, 98.680
1001.670, 24.922
1002.922, 153.171
1004.174, 98.426
1005.426, 111.690
1006.678, 143.959
1007.930, 39.234
1009.181, 105.527
1010.432, 87.825
1011.683, 83.137
1012.934, 157.445
1014.185, 79.769
1015.435, 196.098
1016.685, 153.158
1017.935, 100.499
1019.185, 236.237
1020.435, 148.604
1021.684, 196.976
1022.934, 249.355
1024.183, 98.739
1025.432, 268.130
1026.680, 188.527
1027.929, 217.929
1029.177, 272.346
1030.425, 240.769
1031.673, 297.197
1032.921, 321.638
1034.169, 193.084
1035.416, 402.537
1036.663, 244.082
1037.911, 352.862
1039.157, 397.348
1040.404, 303.281
1041.650, 434.780
1042.897, 366.293
1044.143, 408.812
1045.389, 458.167
1046.634, 402.700
1047.880, 481.237
1049.125, 506.782
1050.371, 380.623
1051.615, 560.140
1052.860, 518.712
1054.105, 577.047
1055.349, 613.632
1056.593, 533.488
1057.837, 684.088
1059.081, 660.708
1060.325, 669.336
1061.568, 866.970
1062.812, 863.615
1064.055, 952.265
1065.298, 1140.922
1066.540, 1053.586
1067.783, 1386.517
1069.025, 1404.194
1070.267, 1490.879
1071.509, 1764.569
1072.751, 1782.280
1073.993, 2154.026
1075.234, 2255.750
1076.475, 2491.495
1077.716, 2972.246
1078.957, 3360.001
1080.198, 4185.945
1081.438, 5165.728
1082.679, 6302.516
1083.919, 8356.312
1085.159, 10509.113
1086.398, 13117.927
1087.638, 17125.686
1088.877, 20902.512
1090.116, 28681.465
1091.355, 36992.312
1092.594, 43873.172
1093.833, 43541.020
1095.071, 44845.902
1096.309, 37284.793
1097.547, 28473.672
1098.785, 18969.578
1100.023, 13005.156
1101.260, 8672.087
1102.498, 5874.767
1103.735, 4367.721
1104.972, 3011.682
1106.208, 2278.648
1107.445, 1907.623
1108.681, 1464.602
1109.918, 1199.408
1111.154, 1157.584
1112.389, 897.588
1113.625, 817.596
1114.860, 702.611
1116.096, 654.630
1117.331, 667.655
1118.566, 550.685
1119.800, 633.945
1121.035, 591.987
1122.269, 499.034
1123.503, 688.149
1124.737, 438.217
1125.971, 396.290
1127.205, 423.367
1128.438, 248.449
1129.671, 383.543
1130.904, 220.643
1132.137, 188.746
1133.370, 309.529
1134.602, 239.645
1135.834, 215.766
1137.066, 326.187
1138.298, 60.320
1139.530, 173.579
1140.762, 212.740
1141.993, 2.905
1143.224, 262.176
1144.455, 79.349
1145.686, 192.525
1146.917, 160.583
1148.147, 40.770
1149.377, 230.965
1150.607, 88.386
1151.837, 67.582
1153.067, 235.436
1154.296, 23.639
1155.526, 163.844
1156.755, 91.891
1157.984, 85.102
1159.213, 162.142
1160.441, 113.467
1161.670, 34.685
1162.898, 194.906
1164.126, 28.129
1165.354, 119.354
1166.581, 106.848
1167.809, 2.085
1169.036, 138.323
1170.263, 86.563
1171.490, 28.805
1172.717, 111.241
1173.943, 48.523
1175.170, 59.769
1176.396, 131.811
1177.622, 27.059
1178.848, 181.308
1180.073, 118.844
1181.299, 14.095
1182.524, 165.561
1183.749, 6.581
1184.974, 177.670
1186.199, 116.931
1187.423, 19.814
1188.648, 116.437
1189.872, 4.638
1191.096, 44.889
1192.320, 173.248
1193.543, 4.574
1194.767, 158.830
1195.990, 100.363
1197.213, 36.242
1198.436, 190.001
1199.659, 127.389
1200.881, 56.630
1202.104, 86.884
1203.326, 34.104
1204.548, 137.136
1205.770, 98.881
1206.991, 20.325
1208.213, 128.562
1209.434, 126.757
1210.655, 37.991
1211.876, 128.224
1213.096, 50.937
1214.317, 132.167
1215.537, 145.677
1216.757, 152.982
1217.977, 205.433
1219.197, 313.107
1220.417, 254.006
1221.636, 250.507
1222.855, 52.544
1224.074, 108.768
1225.293, 148.988
1226.512, 35.329
1227.731, 171.547
1228.949, 98.764
1230.167, 49.489
1231.385, 149.702
1232.603, 108.269
1233.820, 17.521
1235.038, 187.685
1236.255, 4.514
1237.472, 147.722
1238.689, 122.928
1239.906, 81.133
1241.122, 190.339
1242.338, 32.545
1243.555, 52.955
1244.771, 188.162
1245.986, 8.212
1247.202, 237.992
1248.417, 25.195
1249.633, 44.593
1250.848, 194.797
1252.063, 46.001
1253.277, 76.205
1254.492, 250.408
1255.706, 62.602
1256.920, 107.794
1258.134, 145.984
1259.348, 71.174
1260.562, 151.364
1261.775, 127.550
1262.988, 72.812
1264.201, 169.997
1265.414, 5.176
1266.627, 129.337
1267.839, 164.485
1269.052, 43.631
1270.264, 512.776
1271.476, 266.878
1272.688, 346.021
1273.899, 239.140
1275.111, 94.256
1276.322, 425.359
1277.533, 113.459
1278.744, 16.451
1279.955, 152.623
1281.165, 95.675
1282.376, 9.724
1283.586, 166.755
1284.796, 42.782
1286.006, 71.804
1287.215, 152.821
1288.425, 44.820
1289.634, 177.809
1290.843, 103.769
1292.052, 47.723
1293.261, 133.666
1294.469, 71.601
1295.678, 23.530
1296.886, 174.451
1298.094, 4.338
1299.302, 139.189
1300.509, 87.034
1301.717, 30.153
1302.924, 115.638
1304.131, 13.591
1305.338, 53.167
1306.545, 134.894
1307.752, 86.613
1308.958, 147.325
1310.164, 117.027
1311.370, 35.312
1312.576, 126.324
1313.782, 88.950
1314.987, 88.566
1316.193, 200.173
1317.398, 38.770
1318.603, 76.354
1319.807, 140.928
1321.012, 10.510
1322.216, 166.033
1323.421, 104.564
1324.625, 1.916
1325.829, 193.587
1327.032, 39.078
1328.236, 12.555
1329.439, 150.936
1330.642, 28.613
1331.845, 91.812
1333.048, 98.878
1334.251, 11.720
1335.453, 152.660
1336.656, 66.029
1337.858, 74.386
1339.060, 230.646
1340.261, 35.981
1341.463, 60.306
1342.664, 172.331
1343.866, 14.364
1345.067, 140.923
1346.267, 98.836
1347.468, 11.106
1348.669, 195.104
1349.869, 35.596
1351.069, 46.633
1352.269, 152.854
1353.469, 6.068
1354.668, 150.270
1355.868, 195.465
1357.067, 22.624
1358.266, 178.774
1359.465, 40.257
1360.664, 38.321
1361.862, 199.372
1363.061, 33.530
1364.259, 59.475
1365.457, 134.460
1366.655, 35.571
1367.852, 212.335
1369.050, 216.219
1370.247, 27.916
1371.444, 127.919
1372.641, 118.110
1373.838, 23.583
1375.035, 129.605
1376.231, 0.657
1377.427, 150.527
1378.623, 174.490
1379.819, 18.552
1381.015, 177.389
1382.211, 227.619
1383.406, 114.444
1384.601, 217.334
1385.796, 115.218
1386.991, 60.094
1388.185, 296.962
1389.380, 29.177
1390.574, 160.676
1391.768, 243.263
1392.962, 66.097
1394.156, 245.860
1395.350, 179.679
1396.543, 137.249
1397.736, 502.291
1398.929, 149.059
1400.122, 115.469
1401.315, 335.100
1402.507, 118.847
1403.700, 270.457
1404.892, 293.061
1406.084, 100.777
1407.276, 438.198
1408.467, 301.042
1409.659, 148.947
1410.850, 470.128
1412.041, 310.594
1413.232, 251.203
1414.423, 402.245
1415.614, 285.792
1416.804, 357.337
1417.994, 436.543
1419.184, 231.445
1420.374, 478.944
1421.564, 354.506
1422.753, 317.724
1423.943, 610.542
1425.132, 378.937
1426.321, 438.243
1427.510, 646.302
1428.698, 438.182
1429.887, 652.282
1431.075, 730.033
1432.263, 505.007
1433.451, 827.240
1434.639, 746.051
1435.827, 710.513
1437.014, 981.778
1438.201, 826.383
1439.388, 818.934
1440.575, 1023.222
1441.762, 585.336
1442.949, 827.205
1444.135, 692.899
1445.321, 539.621
1446.507, 633.559
1447.693, 537.185
1448.879, 276.217
1450.064, 594.657
1451.250, 333.040
1452.435, 310.912
1453.620, 423.383
1454.805, 187.975
1455.989, 318.932
1457.174, 387.811
1458.358, 146.654
1459.542, 332.419
1460.726, 307.099
1461.910, 174.490
1463.093, 336.045
1464.277, 181.605
1465.460, 113.122
1466.643, 367.590
1467.826, 113.993
1469.009, 252.346
1470.191, 209.707
1471.373, 88.059
1472.556, 215.354
1473.738, 305.594
1474.919, 40.894
1476.101, 360.204
1477.283, 140.459
1478.464, 114.728
1479.645, 166.222
1480.826, 9.150
1482.007, 173.519
1483.187, 247.324
1484.368, 118.087
1485.548, 212.138
1486.728, 216.198
1487.908, 20.729
1489.088, 237.375
1490.268, 206.526
1491.447, 45.730
1492.626, 277.007
1493.805, 157.373
1494.984, 112.848
1496.163, 232.778
1497.341, 73.496
1498.520, 151.828
1499.698, 185.291
1500.876, 2.824
1502.054, 235.419
1503.232, 134.430
1504.409, 26.518
1505.586, 236.696
1506.763, 92.236
1507.940, 122.916
1509.117, 122.965
1510.294, 83.737
1511.470, 36.636
1512.647, 95.933
1513.823, 0.556
1514.999, 0.000
##END=



