##NAMES=Dolomite
##RRUFFID=R050370
##IDEAL CHEMISTRY=CaMg(CO_3_)_2_
##LOCALITY=Morro Velho mine, Nova Lima, Minas Gerais, Brazil
##OWNER=RRUFF
##SOURCE=Eugene Schlepp
##DESCRIPTION=Colorless bladed crystals associated with pyrrhotite and albite
##STATUS=The identification of this mineral has been confirmed by X-ray diffraction and chemical analysis
##URL=rruff.info/R050370
##MEASURED CHEMISTRY=(Ca_0.84_Fe_0.16_)_Σ=1_(Mg_0.98_Mn_0.02_)_Σ=1_(CO_3_)_2_ ; CO_2_ estimated by difference
##PIN_ID=L00563
##ORIENTATION=Laser parallel to -c* (0 0 -1). Fiducial mark perpendicular to laser is parallel to a [1 0 0]
118.1340, 0.0000000E+00
119.3650, 10.96631
120.5960, 67.87866
121.8270, 3.620361
123.0580, 18.15771
124.2880, 18.65649
125.5190, 59.48999
126.7490, 14.39600
127.9790, 72.17773
129.2090, 18.68433
130.4390, 84.80151
131.6680, 61.44263
132.8980, 119.5461
134.1270, 68.06494
135.3560, 95.94043
136.5850, 126.1260
137.8140, 159.5835
139.0430, 115.2822
140.2710, 188.2031
141.5000, 259.3225
142.7280, 197.6355
143.9560, 225.1216
145.1840, 234.7559
146.4120, 206.5896
147.6390, 229.6135
148.8670, 290.7959
150.0940, 296.4714
151.3210, 345.3984
152.5490, 399.8159
153.7750, 431.3059
155.0020, 555.8655
156.2290, 617.4910
157.4550, 696.1770
158.6810, 782.9202
159.9080, 1059.718
161.1340, 1284.566
162.3590, 1446.667
163.5850, 1794.603
164.8110, 2124.582
166.0360, 2442.604
167.2610, 2911.438
168.4860, 3340.519
169.7110, 3819.636
170.9360, 4061.789
172.1610, 4286.368
173.3850, 4103.859
174.6100, 3698.266
175.8340, 3169.589
177.0580, 2578.259
178.2820, 2121.488
179.5050, 1682.746
180.7290, 1233.086
181.9520, 852.4563
183.1760, 648.9033
184.3990, 577.3689
185.6220, 419.8911
186.8450, 400.4285
188.0670, 241.9802
189.2900, 259.5652
190.5120, 211.1626
191.7340, 193.8232
192.9560, 159.4817
194.1780, 114.1218
195.4000, 107.7869
196.6220, 135.4824
197.8430, 111.1816
199.0640, 138.9009
200.2860, 122.6404
201.5070, 86.38696
202.7270, 110.1370
203.9480, 46.89160
205.1690, 26.65161
206.3890, 5.582520
207.6090, 52.20239
208.8290, 3.008057
210.0490, 44.82812
211.2690, 64.65405
212.4890, 14.49951
213.7080, 18.35083
214.9280, 14.79199
216.1470, 61.07104
217.3660, 50.94019
218.5850, 54.82080
219.8030, 58.71240
221.0220, 56.61011
222.2400, 12.52271
223.4590, 41.44092
224.6770, 9.631836
225.8950, 20.30396
227.1120, 21.75537
228.3300, 15.19092
229.5480, 5.857910
230.7650, 58.09839
231.9820, 2.059570
233.1990, 2.974121
234.4160, 43.00244
235.6330, 83.97314
236.8490, 11.95337
238.0660, 11.93872
239.2820, 55.92871
240.4980, 15.92017
241.7140, 52.22852
242.9300, 109.7632
244.1460, 42.74023
245.3610, 90.72070
246.5770, 104.4941
247.7920, 83.45093
249.0070, 89.41284
250.2220, 74.36548
251.4370, 81.42432
252.6510, 170.3679
253.8660, 105.3164
255.0800, 176.2698
256.2940, 156.2273
257.5080, 216.1895
258.7220, 309.1758
259.9360, 289.1372
261.1490, 289.1021
262.3630, 246.0715
263.5760, 305.8274
264.7890, 327.1863
266.0020, 387.6538
267.2150, 442.0391
268.4270, 425.9497
269.6400, 564.4653
270.8520, 569.0327
272.0640, 703.2695
273.2760, 728.9216
274.4880, 857.0032
275.7000, 1008.723
276.9120, 1071.505
278.1230, 1157.280
279.3340, 1383.417
280.5450, 1432.238
281.7560, 1700.080
282.9670, 1868.137
284.1780, 2128.014
285.3880, 2305.539
286.5980, 2492.818
287.8090, 2649.743
289.0190, 2869.680
290.2290, 3013.631
291.4380, 3178.593
292.6480, 3250.567
293.8570, 3310.550
295.0670, 3224.543
296.2760, 3021.447
297.4850, 2822.457
298.6930, 2538.573
299.9020, 2254.084
301.1110, 1842.119
302.3190, 1646.160
303.5270, 1410.208
304.7350, 1199.239
305.9430, 961.3008
307.1510, 854.3679
308.3580, 719.4399
309.5660, 591.5181
310.7730, 555.6016
311.9800, 396.6904
313.1870, 387.7805
314.3940, 364.8760
315.6010, 273.9810
316.8070, 229.0972
318.0130, 193.9790
319.2200, 203.1025
320.4260, 182.2292
321.6310, 236.3601
322.8370, 191.4797
324.0430, 292.3435
325.2480, 206.4717
326.4540, 252.6038
327.6590, 264.7393
328.8640, 281.8784
330.0680, 292.5449
331.2730, 266.6902
332.4780, 285.8384
333.6820, 382.9893
334.8860, 313.1428
336.0900, 365.2986
337.2940, 391.4570
338.4980, 329.6177
339.7010, 354.7808
340.9050, 247.9517
342.1080, 314.1250
343.3110, 199.3000
344.5140, 198.4773
345.7170, 199.6570
346.9200, 160.8381
348.1220, 118.0215
349.3240, 68.20630
350.5270, 85.39331
351.7290, 51.52002
352.9310, 62.71069
354.1320, 72.90332
355.3340, 33.09717
356.5350, 65.29297
357.7370, 38.49023
358.9380, 45.68896
360.1390, 108.6274
361.3400, 58.82910
362.5400, 31.96802
363.7410, 99.22827
364.9410, 5.574707
366.1410, 51.62158
367.3410, 39.81885
368.5410, 63.01758
369.7410, 52.07153
370.9400, 60.27271
372.1400, 40.01343
373.3390, 9.179199
374.5380, 61.29980
375.7370, 119.4966
376.9360, 13.69482
378.1350, 84.86108
379.3330, 31.68091
380.5310, 13.88208
381.7300, 29.08398
382.9280, 30.71265
384.1260, 107.4832
385.3230, 39.67993
386.5210, 23.86743
387.7180, 65.05322
388.9160, 29.24023
390.1130, 38.42871
391.3100, 9.605469
392.5060, 38.78369
393.7030, 76.96289
394.9000, 56.14355
396.0960, 20.31616
397.2920, 13.50977
398.4880, 40.66089
399.6840, 8.832764
400.8800, 62.00635
402.0750, 28.18091
403.2710, 71.35229
404.4660, 18.52466
405.6610, 48.69873
406.8560, 43.12622
408.0510, 8.973877
409.2450, 28.17456
410.4400, 88.32666
411.6340, 9.482910
412.8280, 56.64502
414.0220, 49.81104
415.2160, 56.02002
416.4100, 101.1213
417.6030, 1.734863
418.7970, 23.40771
419.9900, 6.552979
421.1830, 29.70020
422.3760, 35.14990
423.5690, 25.98145
424.7610, 22.11499
425.9540, 2.250488
427.1460, 31.38574
428.3380, 61.52295
429.5300, 27.66211
430.7220, 46.55103
431.9140, 48.94556
433.1050, 39.09009
434.2970, 29.23584
435.4880, 34.38354
436.6790, 50.53247
437.8700, 41.68286
439.0610, 27.16553
440.2510, 50.97119
441.4420, 5.109131
442.6320, 2.752930
443.8220, 49.38159
445.0120, 48.51733
446.2020, 45.65454
447.3910, 11.20752
448.5810, 16.92310
449.7700, 22.05469
450.9600, 80.18750
452.1490, 28.32129
453.3370, 55.45630
454.5260, 11.59253
455.7150, 43.72974
456.9030, 86.86816
458.0910, 42.07031
459.2800, 29.66382
460.4670, 6.194824
461.6550, 59.38037
462.8430, 41.51636
464.0300, 111.6531
465.2180, 49.79053
466.4050, 5.071045
467.5920, 60.06128
468.7790, 24.19434
469.9650, 17.32837
471.1520, 88.46289
472.3380, 1.401367
473.5250, 90.72974
474.7110, 99.86182
475.8970, 45.99463
477.0820, 50.12817
478.2680, 53.26245
479.4540, 43.39746
480.6390, 44.53320
481.8240, 24.66968
483.0090, 70.04785
484.1940, 23.18921
485.3780, 48.34033
486.5630, 99.48291
487.7470, 72.62573
488.9320, 58.76929
490.1160, 69.91382
491.3000, 60.05933
492.4830, 99.20630
493.6670, 65.35547
494.8500, 39.50562
496.0340, 84.66455
497.2170, 89.82397
498.4000, 70.98413
499.5820, 61.14478
500.7650, 105.3062
501.9480, 151.4685
503.1300, 146.6321
504.3120, 159.9641
505.4940, 98.99805
506.6760, 134.1680
507.8580, 70.86084
509.0390, 42.03198
510.2210, 144.2039
511.4020, 89.37671
512.5830, 126.5508
513.7640, 31.72754
514.9450, 137.4412
516.1250, 128.0312
517.3060, 115.2217
518.4860, 175.4133
519.6660, 102.6091
520.8460, 38.80615
522.0260, 176.0103
523.2060, 67.21460
524.3850, 113.4204
525.5650, 78.70166
526.7440, 41.90894
527.9230, 119.1172
529.1020, 127.3264
530.2810, 107.5366
531.4590, 117.7476
532.6380, 110.9597
533.8160, 54.17261
534.9940, 36.39355
536.1720, 42.09912
537.3500, 35.98047
538.5270, 77.06812
539.7050, 59.31226
540.8820, 100.5564
542.0590, 93.80176
543.2360, 98.84302
544.4130, 74.29614
545.5900, 100.5452
546.7660, 131.7952
547.9430, 130.0461
549.1190, 155.5151
550.2950, 153.0042
551.4710, 153.4983
552.6470, 108.5195
553.8220, 128.7791
554.9980, 171.0420
556.1730, 127.3066
557.3480, 162.9475
558.5230, 145.2146
559.6980, 169.1079
560.8730, 187.2905
562.0470, 167.1226
563.2220, 187.9429
564.3960, 133.8967
565.5700, 47.19043
566.7440, 19.48584
567.9170, 87.58618
569.0910, 72.88428
570.2640, 121.1841
571.4380, 124.4851
572.6110, 60.78760
573.7840, 171.0918
574.9570, 104.3972
576.1290, 155.7043
577.3020, 98.01270
578.4740, 70.32275
579.6460, 126.6340
580.8180, 148.0454
581.9900, 59.35986
583.1620, 140.5781
584.3330, 113.4109
585.5040, 107.7297
586.6760, 85.05005
587.8470, 116.3721
589.0180, 102.7192
590.1880, 119.3259
591.3590, 31.37988
592.5290, 139.7129
593.7000, 85.04712
594.8700, 62.38989
596.0400, 110.7341
597.2090, 75.07983
598.3790, 20.57251
599.5490, 27.23340
600.7180, 80.09424
601.8870, 27.33936
603.0560, 74.97876
604.2250, 43.29858
605.3940, 155.6199
606.5620, 129.9424
607.7300, 147.5269
608.8990, 115.8528
610.0670, 67.17993
611.2350, 35.50879
612.4020, 64.83911
613.5700, 79.64673
614.7370, 73.97998
615.9050, 72.31519
617.0720, 55.65186
618.2390, 111.9900
619.4060, 86.32935
620.5720, 165.6707
621.7390, 74.01318
622.9050, 24.64233
624.0710, 67.37207
625.2370, 0.2917480
626.4030, 120.0457
627.5690, 37.38452
628.7340, 42.72461
629.9000, 126.0667
631.0650, 38.53857
632.2300, 53.99878
633.3950, 54.64551
634.5600, 117.9985
635.7240, 2.188721
636.8890, 21.54443
638.0530, 66.90137
639.2170, 69.26904
640.3810, 82.88672
641.5450, 77.00781
642.7080, 84.37891
643.8720, 104.7515
645.0350, 100.1250
646.1980, 116.2744
647.3610, 119.8499
648.5240, 105.1470
649.6870, 110.4392
650.8490, 90.83057
652.0120, 48.22266
653.1740, 78.02075
654.3360, 2.415283
655.4980, 9.178223
656.6600, 55.22461
657.8210, 58.63135
658.9830, 108.8135
660.1440, 22.22852
661.3050, 132.6443
662.4660, 114.0608
663.6270, 33.47803
664.7870, 98.89600
665.9480, 55.32349
667.1080, 50.75146
668.2680, 26.18018
669.4280, 154.6108
670.5880, 77.04199
671.7480, 137.4739
672.9070, 29.90625
674.0670, 133.8823
675.2260, 90.31738
676.3850, 299.7532
677.5440, 189.8794
678.7030, 178.8970
679.8610, 87.25244
681.0200, 120.6943
682.1780, 171.1370
683.3360, 139.6438
684.4940, 136.0867
685.6520, 152.5298
686.8090, 138.9734
687.9670, 43.41748
689.1240, 195.8735
690.2810, 157.8269
691.4380, 87.28711
692.5950, 204.7473
693.7520, 124.7512
694.9080, 119.2119
696.0650, 280.6729
697.2210, 120.1492
698.3770, 235.0881
699.5330, 266.5669
700.6880, 231.0452
701.8440, 282.5239
702.9990, 337.0024
704.1550, 375.4917
705.3100, 437.2783
706.4650, 487.7312
707.6190, 531.9587
708.7740, 612.4675
709.9290, 616.9758
711.0830, 705.4858
712.2370, 867.9961
713.3910, 1037.505
714.5450, 1132.015
715.6980, 1346.524
716.8520, 1541.033
718.0050, 1908.541
719.1580, 2059.050
720.3110, 2341.565
721.4640, 2494.081
722.6170, 2564.598
723.7700, 2445.116
724.9220, 2259.633
726.0740, 1859.151
727.2260, 1637.668
728.3780, 1343.209
729.5300, 1085.730
730.6810, 919.2498
731.8330, 736.7695
732.9840, 654.8477
734.1350, 496.3660
735.2860, 420.8835
736.4370, 396.4009
737.5880, 251.8545
738.7380, 263.9172
739.8880, 214.4326
741.0390, 212.5110
742.1890, 170.0293
743.3380, 145.5469
744.4880, 142.3560
745.6380, 136.2966
746.7870, 130.1003
747.9360, 137.6196
749.0850, 130.1379
750.2340, 88.65601
751.3830, 109.6875
752.5310, 62.69360
753.6800, 130.2126
754.8280, 72.73145
755.9760, 91.24927
757.1240, 69.76709
758.2720, 85.28394
759.4190, 86.80371
760.5670, 60.31934
761.7140, 7.406006
762.8610, 79.10205
764.0080, 76.60059
765.1550, 82.10791
766.3020, 14.61475
767.4480, 61.12085
768.5950, 2.626465
769.7410, 3.130127
770.8870, 6.6161998E-02
772.0330, 46.43188
773.1780, 25.07104
774.3240, 60.40942
775.4690, 22.88940
776.6140, 108.5139
777.7590, 21.99268
778.9040, 124.4702
780.0490, 34.94751
781.1940, 14.42383
782.3380, 28.89941
783.4820, 6.831543
784.6260, 47.97510
785.7700, 27.44141
786.9140, 60.90674
788.0580, 161.3711
789.2010, 110.8350
790.3450, 0.7021480
791.4880, 60.75610
792.6310, 86.21338
793.7730, 26.23364
794.9160, 84.20435
796.0590, 5.918945
797.2010, 42.51025
798.3430, 20.93848
799.4850, 58.36572
800.6270, 56.79199
801.7690, 71.21729
802.9100, 54.64185
804.0520, 144.0654
805.1930, 25.48779
806.3340, 103.0469
807.4750, 52.46729
808.6160, 109.8870
809.7560, 90.30566
810.8970, 18.27637
812.0370, 62.32910
813.1770, 61.73145
814.3170, 13.86719
815.4570, 62.52197
816.5960, 40.08960
817.7360, 55.27246
818.8750, 31.63403
820.0140, 8.994385
821.1530, 44.35327
822.2920, 75.71118
823.4310, 78.06812
824.5690, 109.4246
825.7070, 105.6155
826.8460, 1.866211
827.9840, 74.48242
829.1220, 64.83008
830.2590, 2.822754
831.3970, 95.51758
832.5340, 26.85742
833.6710, 148.1968
834.8080, 65.46533
835.9450, 70.83398
837.0820, 31.13232
838.2190, 72.42969
839.3550, 139.8086
840.4910, 45.10400
841.6270, 14.39893
842.7630, 40.69287
843.8990, 38.98584
845.0350, 38.88818
846.1700, 65.09619
847.3060, 41.76855
848.4410, 67.05762
849.5760, 75.34521
850.7100, 33.63232
851.8450, 59.91846
852.9800, 72.20361
854.1140, 106.4868
855.2480, 71.77002
856.3820, 94.05176
857.5160, 65.33252
858.6500, 61.11719
859.7830, 61.89111
860.9170, 34.16943
862.0500, 57.44580
863.1830, 20.72217
864.3160, 10.00293
865.4480, 90.26221
866.5810, 48.52686
867.7130, 23.78955
868.8460, 18.94775
869.9780, 84.30078
871.1100, 111.5474
872.2410, 99.79395
873.3730, 213.0400
874.5050, 121.2896
875.6360, 76.54492
876.7670, 21.79980
877.8980, 102.0605
879.0290, 156.3203
880.1590, 116.5796
881.2900, 134.8379
882.4200, 189.0962
883.5500, 103.3535
884.6800, 84.61035
885.8100, 83.86621
886.9400, 75.12158
888.0690, 9.376953
889.1990, 82.63184
890.3280, 104.8853
891.4570, 36.13916
892.5860, 16.39258
893.7140, 45.64551
894.8430, 6.897949
895.9710, 23.01758
897.1000, 31.82373
898.2280, 19.97900
899.3560, 68.23584
900.4830, 41.49219
901.6110, 82.74854
902.7380, 21.00488
903.8660, 13.26123
904.9930, 54.38770
906.1200, 18.47168
907.2460, 61.47754
908.3730, 114.7217
909.5000, 68.13037
910.6260, 84.39209
911.7520, 33.34570
912.8780, 37.89795
914.0040, 4.141113
915.1290, 31.38477
916.2550, 32.62891
917.3800, 82.87305
918.5050, 14.11719
919.6300, 1.403809
920.7550, 54.83887
921.8800, 59.08643
923.0040, 119.3340
924.1290, 36.58203
925.2530, 11.83057
926.3770, 1.674805
927.5010, 20.92432
928.6250, 8.825684
929.7480, 5.424316
930.8720, 25.32715
931.9950, 25.14014
933.1180, 10.58154
934.2410, 57.61475
935.3640, 18.85352
936.4860, 41.09277
937.6090, 55.33301
938.7310, 150.5762
939.8530, 27.82275
940.9750, 3.928711
942.0970, 152.3179
943.2180, 90.56641
944.3400, 10.83105
945.4610, 68.09619
946.5820, 6.179688
947.7030, 92.08594
948.8240, 50.35254
949.9450, 113.3496
951.0650, 107.6191
952.1860, 44.97656
953.3060, 45.24951
954.4260, 39.52295
955.5460, 57.73486
956.6650, 27.01172
957.7850, 42.99707
958.9040, 63.57178
960.0230, 52.85400
961.1420, 49.13818
962.2610, 50.06689
963.3800, 46.45898
964.4990, 43.86279
965.6170, 53.27490
966.7350, 37.57715
967.8530, 52.88184
968.9710, 53.18799
970.0890, 29.03418
971.2070, 89.34473
972.3240, 35.65771
973.4410, 5.026855
974.5580, 64.29004
975.6750, 34.60889
976.7920, 104.9302
977.9090, 110.2539
979.0250, 84.41943
980.1410, 24.87061
981.2580, 14.83643
982.3740, 54.45801
983.4890, 23.75537
984.6050, 103.0547
985.7200, 82.35742
986.8360, 124.6621
987.9510, 18.96973
989.0660, 82.27979
990.1810, 58.59229
991.2950, 26.90723
992.4100, 61.22510
993.5240, 151.5503
994.6390, 127.8774
995.7530, 11.20801
996.8660, 114.5405
997.9800, 132.8813
999.0940, 20.20410
1000.207, 108.5596
1001.320, 184.9170
1002.433, 72.27734
1003.546, 92.08154
1004.659, 113.4478
1005.772, 179.8179
1006.884, 128.1904
1007.996, 152.5659
1009.108, 130.9448
1010.220, 67.32666
1011.332, 79.71191
1012.444, 70.42969
1013.555, 104.4912
1014.666, 117.8857
1015.777, 168.2832
1016.888, 246.6841
1017.999, 136.0884
1019.110, 55.49609
1020.220, 120.9062
1021.331, 229.3281
1022.441, 249.7534
1023.551, 280.6406
1024.661, 262.6230
1025.770, 240.0684
1026.880, 217.5166
1027.989, 202.7607
1029.098, 196.5093
1030.207, 181.8774
1031.316, 204.3398
1032.425, 217.8086
1033.533, 245.2808
1034.642, 288.7563
1035.750, 255.2354
1036.858, 220.7173
1037.966, 350.2026
1039.073, 252.6924
1040.181, 296.8838
1041.288, 313.3823
1042.396, 387.0186
1043.503, 396.1279
1044.610, 406.8481
1045.716, 416.3569
1046.823, 400.8799
1047.929, 392.4072
1049.036, 396.9375
1050.142, 414.4707
1051.248, 472.0073
1052.353, 468.5479
1053.459, 508.9619
1054.564, 515.2871
1055.670, 626.8530
1056.775, 636.4219
1057.880, 683.9946
1058.985, 727.5698
1060.089, 757.8047
1061.194, 871.7354
1062.298, 862.8169
1063.402, 936.4170
1064.506, 1048.581
1065.610, 1146.190
1066.713, 1308.805
1067.817, 1361.430
1068.920, 1573.062
1070.023, 1594.697
1071.126, 1786.690
1072.229, 2057.872
1073.332, 2063.519
1074.435, 2212.031
1075.537, 2359.685
1076.639, 2696.872
1077.741, 2854.532
1078.843, 3124.199
1079.945, 3381.674
1081.046, 4000.353
1082.148, 4572.037
1083.249, 5607.728
1084.350, 6821.424
1085.451, 8546.135
1086.551, 11274.85
1087.652, 15015.57
1088.752, 19718.29
1089.853, 26345.02
1090.953, 33376.75
1092.053, 41745.47
1093.152, 48604.21
1094.252, 53025.66
1095.351, 53439.39
1096.451, 49627.15
1097.550, 41815.13
1098.649, 32694.89
1099.748, 23941.65
1100.846, 16482.46
1101.945, 11202.25
1103.043, 7859.061
1104.141, 5563.872
1105.239, 4100.687
1106.337, 3067.421
1107.434, 2413.241
1108.532, 1920.064
1109.629, 1525.891
1110.726, 1336.719
1111.823, 1129.026
1112.920, 1073.861
1114.017, 920.0576
1115.113, 714.8979
1116.210, 724.7412
1117.306, 566.5879
1118.402, 617.4365
1119.498, 511.2881
1120.593, 504.1431
1121.689, 454.0010
1122.784, 353.8618
1123.879, 421.7256
1124.974, 339.4707
1126.069, 266.3594
1127.164, 263.2310
1128.259, 320.1055
1129.353, 250.1079
1130.447, 235.9937
1131.541, 244.7427
1132.635, 216.6377
1133.729, 116.5361
1134.822, 122.4370
1135.916, 102.3467
1137.009, 255.2612
1138.102, 134.1787
1139.195, 146.0981
1140.288, 109.0200
1141.380, 82.94678
1142.473, 57.87646
1143.565, 126.8076
1144.657, 97.76562
1145.749, 138.7007
1146.841, 106.7246
1147.932, 105.6641
1149.024, 48.60547
1150.115, 159.5498
1151.206, 83.49609
1152.297, 21.23779
1153.388, 79.18848
1154.479, 21.14062
1155.569, 102.5132
1156.659, 35.46875
1157.750, 71.43848
1158.839, 99.39697
1159.929, 99.35742
1161.019, 80.31836
1162.108, 45.48242
1163.198, 12.44678
1164.287, 90.41260
1165.376, 33.37939
1166.465, 75.34814
1167.553, 122.3179
1168.642, 28.34570
1169.730, 121.3179
1170.818, 121.2910
1171.906, 25.27100
1172.994, 5.701660
1174.082, 69.72070
1175.170, 48.22754
1176.257, 137.1768
1177.344, 53.13525
1178.431, 10.12158
1179.518, 58.08203
1180.605, 49.04395
1181.691, 45.00684
1182.778, 79.97021
1183.864, 29.93408
1184.950, 18.10010
1186.036, 54.58057
1187.122, 58.54004
1188.207, 32.50000
1189.292, 97.45996
1190.378, 71.42139
1191.463, 64.77441
1192.548, 72.34375
1193.632, 47.34521
1194.717, 46.31006
1195.801, 83.28174
1196.886, 64.92969
1197.970, 75.24658
1199.054, 65.56836
1200.137, 8.832031
1201.221, 7.140625
1202.305, 10.16650
1203.388, 14.81641
1204.471, 89.77783
1205.554, 27.74072
1206.637, 57.29736
1207.719, 81.63379
1208.802, 78.46338
1209.884, 126.3940
1210.966, 14.32568
1212.048, 53.25635
1213.130, 71.18701
1214.212, 95.11670
1215.293, 95.20361
1216.374, 107.5469
1217.456, 56.36084
1218.536, 108.3682
1219.617, 39.29395
1220.698, 17.21924
1221.778, 18.16895
1222.859, 111.2153
1223.939, 9.862305
1225.019, 35.05176
1226.099, 141.9648
1227.178, 18.12305
1228.258, 56.77637
1229.337, 89.75977
1230.417, 5.429199
1231.496, 54.69678
1232.574, 52.59082
1233.653, 54.48389
1234.732, 58.37402
1235.810, 53.20361
1236.888, 126.1782
1237.966, 49.06494
1239.044, 64.00244
1240.122, 71.88525
1241.199, 19.79590
1242.277, 78.81934
1243.354, 6.284668
1244.431, 117.6050
1245.508, 72.49658
1246.585, 49.38623
1247.661, 31.27637
1248.738, 69.16553
1249.814, 73.10498
1250.890, 73.08740
1251.966, 37.97070
1253.042, 50.85156
1254.117, 7.269531
1255.193, 20.59863
1256.268, 52.54541
1257.343, 113.4102
1258.418, 10.72754
1259.493, 82.54834
1260.567, 21.60400
1261.642, 80.28809
1262.716, 57.22266
1263.790, 107.0479
1264.864, 119.8701
1265.938, 121.3569
1267.011, 115.1748
1268.085, 78.05127
1269.158, 102.0947
1270.231, 35.38965
1271.304, 118.2046
1272.377, 54.00977
1273.450, 27.81201
1274.522, 66.61816
1275.594, 14.42090
1276.666, 38.22070
1277.738, 104.0566
1278.810, 62.96191
1279.882, 54.75342
1280.953, 18.26953
1282.025, 53.50000
1283.096, 126.2671
1284.167, 27.96729
1285.238, 120.7725
1286.308, 34.50928
1287.379, 79.24365
1288.449, 74.97461
1289.519, 97.70312
1290.589, 10.42773
