##NAMES=Dolomite
##RRUFFID=R050272
##IDEAL CHEMISTRY=CaMg(CO_3_)_2_
##LOCALITY=Eagle mine, Gillman, Colorado, USA
##OWNER=RRUFF
##SOURCE=University of Arizona Mineral Museum
##DESCRIPTION=Gray-white rhombohedral crystals
##STATUS=The identification of this mineral has been confirmed by X-ray diffraction and chemical analysis
##URL=rruff.info/R050272
##MEASURED CHEMISTRY=(Ca_0.96_Fe^2+^_0.04_)_Σ=1_(Mg_0.63_Mn^2+^_0.21_Fe^2+^_0.16_)_Σ=1_(CO_3_)_2_ ; CO_3_ estimated by difference and stoichiometry
##PIN_ID=L00489
##ORIENTATION=Laser parallel to -a* (-1 0 0). Fiducial mark perpendicular to laser is parallel to -c [0 0 -1]
89.890, 0.000
91.284, 36.288
92.678, 34.375
94.071, 47.367
95.465, 63.697
96.858, 53.609
98.251, 47.631
99.644, 13.503
101.036, 50.080
102.428, 18.208
103.820, 23.742
105.212, 7.570
106.604, 60.666
107.995, 62.086
109.387, 3.853
110.777, 64.899
112.168, 27.131
113.559, 134.458
114.949, 170.811
116.339, 125.145
117.729, 79.456
119.119, 69.746
120.508, 39.020
121.897, 94.585
123.286, 29.333
124.675, 68.689
126.063, 49.367
127.452, 138.310
128.840, 105.749
130.228, 91.253
131.615, 96.002
133.003, 78.553
134.390, 112.843
135.777, 72.864
137.164, 106.635
138.550, 137.177
139.937, 102.510
141.323, 113.653
142.709, 111.882
144.094, 107.558
145.480, 91.876
146.865, 127.884
148.250, 86.944
149.635, 117.698
151.019, 119.441
152.403, 179.188
153.788, 173.223
155.171, 196.423
156.555, 760.732
157.939, 632.174
159.322, 521.050
160.705, 626.314
162.088, 419.522
163.470, 548.236
164.853, 677.490
166.235, 858.258
167.617, 1119.359
168.998, 1468.615
170.380, 1790.622
171.761, 1897.880
173.142, 1818.453
174.523, 1531.030
175.904, 1154.689
177.284, 842.100
178.664, 634.953
180.044, 485.837
181.424, 382.540
182.803, 293.255
184.183, 266.985
185.562, 205.729
186.940, 220.478
188.319, 195.235
189.698, 207.999
191.076, 184.456
192.454, 119.543
193.831, 132.316
195.209, 118.085
196.586, 77.851
197.963, 109.613
199.340, 98.369
200.717, 55.122
202.093, 96.870
203.470, 58.608
204.846, 53.399
206.221, 85.261
207.597, 76.203
208.972, 76.727
210.347, 26.756
211.722, 53.418
213.097, 22.061
214.472, 15.317
215.846, 1.288
217.220, 47.955
218.594, 21.516
219.967, 16.320
221.341, 1.885
222.714, 12.754
224.087, 13.470
225.460, 24.498
226.832, 20.364
228.204, 10.470
229.577, 21.392
230.948, 14.580
232.320, 38.708
233.692, 17.006
235.063, 8.322
236.434, 15.630
237.805, 2.078
239.175, 3.351
240.545, 20.729
241.916, 9.194
243.286, 24.432
244.655, 39.937
246.025, 26.362
247.394, 38.774
248.763, 3.995
250.132, 7.091
251.501, 20.078
252.869, 5.412
254.237, 42.372
255.605, 2.396
256.973, 45.917
258.340, 6.231
259.708, 34.779
261.075, 51.741
262.442, 56.100
263.808, 56.043
265.175, 83.496
266.541, 135.963
267.907, 82.223
269.273, 146.434
270.639, 158.956
272.004, 161.037
273.369, 181.133
274.734, 222.384
276.099, 248.521
277.463, 278.221
278.828, 289.050
280.192, 334.092
281.556, 390.019
282.919, 412.922
284.283, 471.931
285.646, 515.992
287.009, 645.000
288.372, 731.076
289.734, 794.051
291.097, 902.001
292.459, 915.841
293.821, 934.627
295.183, 881.361
296.544, 817.050
297.905, 721.689
299.266, 630.375
300.627, 562.038
301.988, 481.555
303.348, 387.167
304.709, 307.809
306.069, 258.257
307.428, 193.795
308.788, 193.336
310.147, 198.187
311.507, 156.715
312.865, 147.038
314.224, 196.357
315.583, 147.630
316.941, 110.002
318.299, 138.194
319.657, 96.277
321.015, 132.872
322.372, 82.920
323.729, 118.109
325.086, 148.057
326.443, 125.952
327.800, 162.471
329.156, 89.283
330.512, 133.178
331.868, 153.954
333.224, 194.811
334.579, 203.531
335.935, 143.316
337.290, 221.979
338.645, 190.971
339.999, 201.596
341.354, 105.230
342.708, 178.820
344.062, 130.398
345.416, 128.966
346.769, 118.635
348.123, 71.182
349.476, 135.717
350.829, 66.241
352.182, 149.753
353.534, 74.255
354.887, 92.777
356.239, 101.255
357.591, 53.769
358.942, 80.223
360.294, 32.578
361.645, 84.007
362.996, 71.422
364.347, 62.643
365.698, 73.027
367.048, 60.238
368.398, 43.414
369.748, 57.709
371.098, 65.953
372.448, 51.187
373.797, 64.086
375.146, 76.196
376.495, 54.012
377.844, 83.183
379.192, 64.384
380.540, 54.416
381.889, 47.177
383.236, 60.842
384.584, 52.414
385.932, 68.070
387.279, 41.282
388.626, 49.790
389.973, 22.545
391.319, 18.975
392.666, 43.630
394.012, 59.712
395.358, 72.377
396.704, 21.927
398.049, 41.469
399.394, 21.445
400.740, 30.558
402.084, 20.286
403.429, 54.916
404.774, 19.340
406.118, 20.735
407.462, 62.453
408.806, 22.097
410.150, 77.787
411.493, 45.903
412.836, 15.867
414.179, 43.607
415.522, 37.737
416.865, 28.402
418.207, 26.129
419.549, 34.792
420.891, 4.899
422.233, 5.569
423.575, 30.063
424.916, 37.303
426.257, 13.397
427.598, 10.078
428.939, 44.891
430.279, 52.532
431.619, 1.268
432.959, 88.987
434.299, 66.693
435.639, 24.385
436.978, 46.152
438.318, 14.817
439.657, 11.507
440.996, 51.142
442.334, 84.765
443.673, 73.375
445.011, 40.972
446.349, 22.556
447.687, 29.125
449.024, 11.681
450.361, 23.580
451.699, 22.138
453.036, 42.927
454.372, 47.702
455.709, 52.486
457.045, 55.465
458.381, 59.928
459.717, 41.426
461.053, 39.876
462.388, 79.315
463.724, 38.744
465.059, 25.171
466.394, 65.638
467.728, 38.042
469.063, 31.434
470.397, 3.182
471.731, 22.188
473.065, 113.572
474.398, 59.920
475.732, 75.257
477.065, 28.584
478.398, 72.859
479.731, 48.167
481.063, 0.562
482.396, 61.724
483.728, 13.842
485.060, 65.096
486.391, 72.354
487.723, 23.385
489.054, 120.852
490.385, 29.944
491.716, 49.165
493.047, 25.461
494.377, 51.669
495.708, 30.873
497.038, 54.063
498.368, 2.671
499.697, 54.500
501.027, 48.663
502.356, 66.754
503.685, 94.953
505.014, 65.093
506.342, 28.252
507.671, 65.419
508.999, 63.337
510.327, 63.491
511.655, 69.381
512.982, 53.486
514.310, 44.397
515.637, 80.406
516.964, 40.422
518.291, 105.229
519.617, 68.143
520.944, 77.758
522.270, 64.679
523.596, 58.540
524.921, 79.360
526.247, 75.267
527.572, 75.071
528.897, 56.759
530.222, 85.542
531.547, 84.509
532.871, 48.099
534.196, 96.899
535.520, 115.748
536.844, 95.501
538.167, 94.387
539.491, 74.108
540.814, 72.360
542.137, 47.684
543.460, 54.470
544.783, 100.224
546.105, 68.053
547.427, 60.763
548.749, 58.542
550.071, 26.140
551.393, 68.711
552.714, 57.485
554.035, 15.336
555.356, 103.262
556.677, 16.921
557.998, 79.723
559.318, 29.406
560.638, 57.171
561.958, 71.857
563.278, 14.746
564.597, 35.447
565.917, 61.182
567.236, 24.114
568.555, 69.857
569.874, 49.846
571.192, 59.704
572.511, 89.203
573.829, 38.050
575.147, 91.873
576.464, 25.654
577.782, 45.429
579.099, 77.238
580.416, 53.831
581.733, 70.014
583.050, 48.799
584.366, 2.992
585.683, 30.665
586.999, 18.308
588.315, 62.142
589.630, 78.004
590.946, 59.537
592.261, 44.488
593.576, 48.400
594.891, 7.133
596.206, 73.291
597.520, 18.958
598.834, 54.778
600.148, 28.610
601.462, 44.530
602.776, 61.448
604.089, 70.233
605.402, 60.938
606.715, 52.668
608.028, 7.702
609.341, 18.998
610.653, 22.312
611.965, 24.448
613.277, 57.226
614.589, 9.021
615.901, 51.826
617.212, 13.648
618.523, 84.637
619.834, 42.945
621.145, 36.795
622.456, 59.021
623.766, 15.687
625.076, 102.520
626.386, 80.370
627.696, 47.767
629.006, 92.605
630.315, 22.250
631.624, 79.071
632.933, 47.869
634.242, 73.684
635.551, 43.953
636.859, 42.761
638.167, 9.746
639.475, 30.204
640.783, 69.000
642.090, 38.594
643.398, 86.514
644.705, 63.896
646.012, 46.008
647.318, 47.790
648.625, 30.548
649.931, 8.475
651.237, 31.107
652.543, 25.848
653.849, 61.500
655.155, 6.248
656.460, 49.645
657.765, 79.395
659.070, 32.119
660.375, 12.873
661.679, 61.624
662.984, 18.372
664.288, 13.006
665.592, 60.982
666.895, 15.722
668.199, 59.745
669.502, 30.631
670.805, 49.362
672.108, 19.058
673.411, 28.862
674.713, 79.539
676.016, 26.262
677.318, 81.600
678.620, 68.320
679.921, 114.037
681.223, 88.247
682.524, 15.660
683.825, 38.373
685.126, 43.083
686.427, 32.094
687.727, 84.926
689.028, 31.325
690.328, 78.030
691.628, 43.685
692.927, 56.385
694.227, 63.084
695.526, 40.048
696.825, 108.743
698.124, 75.436
699.423, 121.128
700.721, 149.818
702.020, 134.506
703.318, 193.192
704.616, 144.361
705.913, 202.502
707.211, 265.118
708.508, 254.799
709.805, 381.478
711.102, 484.048
712.399, 596.858
713.695, 664.434
714.992, 911.105
716.288, 1157.732
717.584, 1397.401
718.879, 1525.068
720.175, 1770.632
721.470, 1604.283
722.765, 1647.945
724.060, 1375.546
725.355, 1053.204
726.649, 974.859
727.944, 712.512
729.238, 501.169
730.532, 451.824
731.825, 329.477
733.119, 280.089
734.412, 208.738
735.705, 200.385
736.998, 129.032
738.291, 147.680
739.584, 120.326
740.876, 107.865
742.168, 89.520
743.460, 46.123
744.752, 52.774
746.043, 122.424
747.334, 25.072
748.626, 77.718
749.916, 40.362
751.207, 0.915
752.498, 69.696
753.788, 4.294
755.078, 111.927
756.368, 21.559
757.658, 27.719
758.947, 43.346
760.237, 47.972
761.526, 54.597
762.815, 26.220
764.104, 27.796
765.392, 27.387
766.680, 14.461
767.969, 21.346
769.257, 11.963
770.544, 40.511
771.832, 54.125
773.119, 30.308
774.406, 3.716
775.693, 77.869
776.980, 34.547
778.267, 47.014
779.553, 37.521
780.839, 4.406
782.125, 6.038
783.411, 2.490
784.697, 36.055
785.982, 41.575
787.267, 31.118
788.552, 41.659
789.837, 4.801
791.122, 21.732
792.406, 1.264
793.690, 9.719
794.974, 88.248
796.258, 11.776
797.542, 3.303
798.825, 37.173
800.108, 14.329
801.391, 41.836
802.674, 5.658
803.957, 7.158
805.239, 39.256
806.522, 12.749
807.804, 83.236
809.085, 59.727
810.367, 45.133
811.649, 11.448
812.930, 56.939
814.211, 139.429
815.492, 34.866
816.772, 63.354
818.053, 36.815
819.333, 16.746
820.613, 25.730
821.893, 17.834
823.173, 1.629
824.452, 56.090
825.732, 19.551
827.011, 15.016
828.290, 64.434
829.568, 36.885
830.847, 7.665
832.125, 17.779
833.403, 36.222
834.681, 8.874
835.959, 17.683
837.236, 31.705
838.514, 11.137
839.791, 2.431
841.068, 0.998
842.345, 10.002
843.621, 21.846
844.898, 14.732
846.174, 43.680
847.450, 45.093
848.726, 2.494
850.001, 98.917
851.277, 23.327
852.552, 18.738
853.827, 27.149
855.102, 49.561
856.376, 128.972
857.651, 7.615
858.925, 7.208
860.199, 61.197
861.473, 104.602
862.746, 19.008
864.020, 48.414
865.293, 1.179
866.566, 46.227
867.839, 32.635
869.112, 106.043
870.384, 93.452
871.656, 33.862
872.928, 85.194
874.200, 61.684
875.472, 72.097
876.744, 76.511
878.015, 69.858
879.286, 131.343
880.557, 81.760
881.828, 60.178
883.098, 88.598
884.369, 36.019
885.639, 73.441
886.909, 77.865
888.178, 5.290
889.448, 114.716
890.717, 47.145
891.987, 20.575
893.256, 40.007
894.524, 45.441
895.793, 62.876
897.061, 46.316
898.330, 63.757
899.598, 60.200
900.865, 112.644
902.133, 23.091
903.401, 54.539
904.668, 4.349
905.935, 53.102
907.202, 50.379
908.468, 94.840
909.735, 13.696
911.001, 57.765
912.267, 43.229
913.533, 36.694
914.799, 120.162
916.064, 9.369
917.330, 2.102
918.595, 78.575
919.860, 2.057
921.124, 34.540
922.389, 33.027
923.653, 16.516
924.918, 126.008
926.182, 21.255
927.445, 72.178
928.709, 75.679
929.972, 32.680
931.236, 90.186
932.499, 12.303
933.761, 21.074
935.024, 59.879
936.286, 33.906
937.549, 22.426
938.811, 127.950
940.073, 33.478
941.334, 67.009
942.596, 2.938
943.857, 11.476
945.118, 53.775
946.379, 24.320
947.640, 59.869
948.900, 41.422
950.161, 79.850
951.421, 95.821
952.681, 11.388
953.940, 59.959
955.200, 24.928
956.459, 33.818
957.719, 90.403
958.978, 16.991
960.236, 12.583
961.495, 49.186
962.753, 28.207
964.012, 109.397
965.270, 33.006
966.527, 48.619
967.785, 119.237
969.043, 26.858
970.300, 82.485
971.557, 6.881
972.814, 47.517
974.071, 148.870
975.327, 61.364
976.583, 50.014
977.840, 19.669
979.095, 68.252
980.351, 14.917
981.607, 43.591
982.862, 82.653
984.117, 53.337
985.372, 12.974
986.627, 70.719
987.882, 20.224
989.136, 62.927
990.390, 7.635
991.644, 68.053
992.898, 18.652
994.152, 37.688
995.405, 51.423
996.659, 37.189
997.912, 39.956
999.165, 65.713
1000.417, 41.210
1001.670, 99.979
1002.922, 171.754
1004.174, 86.534
1005.426, 56.320
1006.678, 175.112
1007.930, 36.910
1009.181, 135.228
1010.432, 132.579
1011.683, 170.394
1012.934, 141.220
1014.185, 89.053
1015.435, 128.891
1016.685, 163.598
1017.935, 169.448
1019.185, 204.303
1020.435, 125.164
1021.684, 187.030
1022.934, 152.902
1024.183, 170.779
1025.432, 253.667
1026.680, 235.562
1027.929, 188.461
1029.177, 297.379
1030.425, 202.304
1031.673, 215.233
1032.921, 262.170
1034.169, 178.112
1035.416, 373.065
1036.663, 209.060
1037.911, 294.030
1039.157, 361.011
1040.404, 253.161
1041.650, 377.154
1042.897, 340.167
1044.143, 363.185
1045.389, 451.208
1046.634, 338.658
1047.880, 409.706
1049.125, 415.759
1050.371, 349.830
1051.615, 447.896
1052.860, 494.975
1054.105, 473.060
1055.349, 542.008
1056.593, 504.555
1057.837, 555.659
1059.081, 735.769
1060.325, 641.355
1061.568, 810.478
1062.812, 826.605
1064.055, 836.739
1065.298, 963.879
1066.540, 1006.527
1067.783, 1275.867
1069.025, 1232.025
1070.267, 1370.216
1071.509, 1591.411
1072.751, 1655.612
1073.993, 1917.820
1075.234, 2103.034
1076.475, 2246.265
1077.716, 2810.503
1078.957, 3094.746
1080.198, 3897.006
1081.438, 4839.474
1082.679, 5734.418
1083.919, 7907.695
1085.159, 9898.981
1086.398, 12163.272
1087.638, 16400.566
1088.877, 19414.871
1090.116, 27320.230
1091.355, 36145.551
1092.594, 40924.883
1093.833, 46042.211
1095.071, 39436.559
1096.309, 30100.902
1097.547, 22146.250
1098.785, 13586.611
1100.023, 9067.640
1101.260, 6198.020
1102.498, 4172.405
1103.735, 3111.898
1104.972, 2285.303
1106.208, 1705.715
1107.445, 1520.136
1108.681, 1182.560
1109.918, 1121.396
1111.154, 899.828
1112.389, 734.441
1113.625, 717.901
1114.860, 589.355
1116.096, 502.814
1117.331, 543.277
1118.566, 429.745
1119.800, 629.242
1121.035, 450.724
1122.269, 419.210
1123.503, 442.785
1124.737, 326.286
1125.971, 324.790
1127.205, 340.401
1128.438, 188.918
1129.671, 238.492
1130.904, 209.017
1132.137, 145.547
1133.370, 234.194
1134.602, 221.523
1135.834, 153.064
1137.066, 274.701
1138.298, 127.253
1139.530, 185.037
1140.762, 191.597
1141.993, 36.161
1143.224, 229.883
1144.455, 118.456
1145.686, 187.034
1146.917, 100.379
1148.147, 136.964
1149.377, 217.552
1150.607, 132.305
1151.837, 9.898
1153.067, 158.678
1154.296, 89.274
1155.526, 58.873
1156.755, 97.556
1157.984, 76.219
1159.213, 88.019
1160.441, 113.022
1161.670, 58.633
1162.898, 144.375
1164.126, 62.990
1165.354, 53.607
1166.581, 162.321
1167.809, 19.940
1169.036, 122.560
1170.263, 93.181
1171.490, 35.803
1172.717, 72.707
1173.943, 74.329
1175.170, 96.953
1176.396, 88.779
1177.622, 5.404
1178.848, 115.053
1180.073, 73.905
1181.299, 9.530
1182.524, 125.616
1183.749, 2.720
1184.974, 61.904
1186.199, 146.857
1187.423, 9.378
1188.648, 135.247
1189.872, 3.294
1191.096, 6.918
1192.320, 83.541
1193.543, 14.911
1194.767, 82.706
1195.990, 63.587
1197.213, 0.536
1198.436, 63.077
1199.659, 61.688
1200.881, 11.297
1202.104, 100.905
1203.326, 32.382
1204.548, 124.210
1205.770, 105.854
1206.991, 21.008
1208.213, 89.596
1209.434, 105.391
1210.655, 8.974
1211.876, 109.742
1213.096, 35.917
1214.317, 25.496
1215.537, 114.177
1216.757, 60.195
1217.977, 126.767
1219.197, 101.496
1220.417, 111.532
1221.636, 154.095
1222.855, 40.248
1224.074, 87.889
1225.293, 122.440
1226.512, 48.214
1227.731, 3.241
1228.949, 99.339
1230.167, 55.156
1231.385, 181.689
1232.603, 93.381
1233.820, 34.193
1235.038, 153.720
1236.255, 15.276
1237.472, 106.802
1238.689, 111.329
1239.906, 67.941
1241.122, 192.464
1242.338, 105.986
1243.555, 69.427
1244.771, 153.948
1245.986, 8.103
1247.202, 182.407
1248.417, 51.916
1249.633, 12.262
1250.848, 193.768
1252.063, 57.328
1253.277, 37.496
1254.492, 169.998
1255.706, 17.506
1256.920, 160.055
1258.134, 95.541
1259.348, 41.212
1260.562, 175.691
1261.775, 65.168
1262.988, 83.693
1264.201, 129.157
1265.414, 40.617
1266.627, 77.477
1267.839, 138.932
1269.052, 30.383
1270.264, 184.859
1271.476, 57.296
1272.688, 26.730
1273.899, 149.161
1275.111, 7.411
1276.322, 193.001
1277.533, 108.412
1278.744, 27.799
1279.955, 69.182
1281.165, 118.553
1282.376, 35.913
1283.586, 170.259
1284.796, 8.420
1286.006, 97.892
1287.215, 101.179
1288.425, 23.458
1289.634, 194.719
1290.843, 148.975
1292.052, 15.775
1293.261, 144.458
1294.469, 78.686
1295.678, 24.907
1296.886, 108.118
1298.094, 23.274
1299.302, 113.423
1300.509, 117.562
1301.717, 46.689
1302.924, 52.809
1304.131, 24.921
1305.338, 7.976
1306.545, 123.112
1307.752, 38.175
1308.958, 113.230
1310.164, 124.277
1311.370, 47.308
1312.576, 79.328
1313.782, 107.339
1314.987, 124.324
1316.193, 140.293
1317.398, 4.747
1318.603, 96.197
1319.807, 103.108
1321.012, 34.991
1322.216, 118.886
1323.421, 68.748
1324.625, 27.597
1325.829, 144.469
1327.032, 6.705
1328.236, 0.103
1329.439, 137.863
1330.642, 4.357
1331.845, 43.404
1333.048, 109.157
1334.251, 37.104
1335.453, 89.607
1336.656, 88.349
1337.858, 28.963
1339.060, 155.293
1340.261, 26.947
1341.463, 27.589
1342.664, 151.208
1343.866, 14.173
1345.067, 116.426
1346.267, 90.037
1347.468, 55.614
1348.669, 120.732
1349.869, 67.323
1351.069, 10.872
1352.269, 102.409
1353.469, 34.937
1354.668, 84.457
1355.868, 37.935
1357.067, 10.404
1358.266, 88.859
1359.465, 56.505
1360.664, 85.058
1361.862, 112.345
1363.061, 43.831
1364.259, 15.213
1365.457, 128.585
1366.655, 10.962
1367.852, 62.320
1369.050, 169.660
1370.247, 34.996
1371.444, 155.320
1372.641, 73.485
1373.838, 28.830
1375.035, 136.153
1376.231, 45.926
1377.427, 28.775
1378.623, 161.049
1379.819, 13.743
1381.015, 131.501
1382.211, 163.739
1383.406, 66.962
1384.601, 177.477
1385.796, 110.566
1386.991, 5.741
1388.185, 234.900
1389.380, 21.518
1390.574, 123.630
1391.768, 182.733
1392.962, 9.172
1394.156, 172.882
1395.350, 78.866
1396.543, 13.929
1397.736, 206.864
1398.929, 134.669
1400.122, 75.559
1401.315, 205.573
1402.507, 13.528
1403.700, 167.964
1404.892, 171.748
1406.084, 82.711
1407.276, 183.438
1408.467, 125.155
1409.659, 27.832
1410.850, 250.738
1412.041, 219.451
1413.232, 86.228
1414.423, 266.916
1415.614, 263.769
1416.804, 184.483
1417.994, 273.215
1419.184, 259.349
1420.374, 239.159
1421.564, 276.327
1422.753, 146.704
1423.943, 324.272
1425.132, 147.416
1426.321, 159.860
1427.510, 410.221
1428.698, 249.787
1429.887, 295.719
1431.075, 477.371
1432.263, 240.603
1433.451, 444.037
1434.639, 381.298
1435.827, 367.688
1437.014, 602.753
1438.201, 476.840
1439.388, 450.189
1440.575, 635.799
1441.762, 370.703
1442.949, 542.014
1444.135, 410.896
1445.321, 229.599
1446.507, 425.640
1447.693, 314.197
1448.879, 169.389
1450.064, 382.284
1451.250, 230.208
1452.435, 182.909
1453.620, 300.767
1454.805, 83.579
1455.989, 243.286
1457.174, 333.755
1458.358, 80.603
1459.542, 294.036
1460.726, 223.238
1461.910, 81.182
1463.093, 201.215
1464.277, 118.345
1465.460, 66.343
1466.643, 314.223
1467.826, 41.134
1469.009, 206.952
1470.191, 478.716
1471.373, 195.498
1472.556, 138.260
1473.738, 171.072
1474.919, 18.081
1476.101, 243.807
1477.283, 127.651
1478.464, 32.439
1479.645, 173.159
1480.826, 97.161
1482.007, 96.138
1483.187, 226.072
1484.368, 79.958
1485.548, 149.925
1486.728, 250.865
1487.908, 31.814
1489.088, 161.907
1490.268, 117.005
1491.447, 28.324
1492.626, 200.681
1493.805, 75.907
1494.984, 80.366
1496.163, 176.888
1497.341, 97.943
1498.520, 92.179
1499.698, 189.163
1500.876, 3.542
1502.054, 185.792
1503.232, 155.167
1504.409, 7.366
1505.586, 159.448
1506.763, 67.832
1507.940, 27.174
1509.117, 170.360
1510.294, 64.620
1511.470, 35.815
1512.647, 253.254
1513.823, 25.310
1514.999, 34.057
1516.174, 220.831
1517.350, 0.467
1518.526, 0.000
##END=



