##NAMES=Dolomite
##RRUFFID=R050272
##IDEAL CHEMISTRY=CaMg(CO_3_)_2_
##LOCALITY=Eagle mine, Gillman, Colorado, USA
##OWNER=RRUFF
##SOURCE=University of Arizona Mineral Museum
##DESCRIPTION=Gray-white rhombohedral crystals
##STATUS=The identification of this mineral has been confirmed by X-ray diffraction and chemical analysis
##URL=rruff.info/R050272
##MEASURED CHEMISTRY=(Ca_0.96_Fe^2+^_0.04_)_Σ=1_(Mg_0.63_Mn^2+^_0.21_Fe^2+^_0.16_)_Σ=1_(CO_3_)_2_ ; CO_3_ estimated by difference and stoichiometry
##PIN_ID=L00489
##ORIENTATION=Laser parallel to -a* (-1 0 0). Fiducial mark perpendicular to laser is parallel to -c [0 0 -1]
95.465, 0.000
96.858, 80.339
98.251, 14.165
99.644, 43.412
101.036, 58.188
102.428, 58.427
103.820, 49.103
105.212, 65.021
106.604, 56.771
107.995, 73.108
109.387, 69.052
110.777, 55.743
112.168, 117.328
113.559, 77.590
114.949, 102.587
116.339, 113.553
117.729, 111.854
119.119, 56.214
120.508, 28.563
121.897, 50.122
123.286, 46.543
124.675, 42.170
126.063, 15.921
127.452, 27.328
128.840, 26.424
130.228, 32.176
131.615, 3.933
133.003, 69.708
134.390, 1.522
135.777, 29.346
137.164, 0.186
138.550, 38.042
139.937, 16.914
141.323, 65.802
142.709, 47.705
144.094, 5.380
145.480, 29.543
146.865, 1.474
148.250, 71.447
149.635, 44.655
151.019, 40.764
152.403, 35.534
153.788, 37.335
155.171, 87.135
156.555, 85.939
157.939, 133.746
159.322, 122.554
160.705, 185.363
162.088, 218.171
163.470, 315.980
164.853, 409.791
166.235, 610.651
167.617, 821.569
168.998, 1168.508
170.380, 1446.885
171.761, 1741.396
173.142, 1710.391
174.523, 1573.397
175.904, 1285.456
177.284, 992.546
178.664, 798.633
180.044, 604.736
181.424, 459.876
182.803, 343.052
184.183, 332.220
185.562, 268.389
186.940, 176.557
188.319, 129.714
189.698, 112.857
191.076, 100.991
192.454, 104.116
193.831, 84.333
195.209, 94.323
196.586, 67.401
197.963, 48.465
199.340, 61.521
200.717, 25.571
202.093, 7.611
203.470, 49.633
204.846, 15.643
206.221, 56.638
207.597, 8.623
208.972, 1.405
210.347, 17.555
211.722, 25.496
213.097, 87.442
214.472, 52.366
215.846, 53.277
217.220, 135.176
218.594, 196.065
219.967, 334.940
221.341, 477.802
222.714, 584.651
224.087, 573.487
225.460, 638.310
226.832, 466.119
228.204, 404.915
229.577, 385.891
230.948, 277.659
232.320, 225.459
233.692, 174.481
235.063, 119.774
236.434, 99.083
237.805, 122.503
239.175, 61.195
240.545, 57.353
241.916, 49.298
243.286, 7.571
244.655, 67.924
246.025, 22.026
247.394, 13.460
248.763, 78.706
250.132, 80.297
251.501, 65.337
252.869, 84.052
254.237, 89.047
255.605, 116.257
256.973, 103.670
258.340, 126.574
259.708, 106.500
261.075, 160.812
262.442, 183.040
263.808, 213.756
265.175, 253.320
266.541, 288.359
267.907, 325.741
269.273, 323.943
270.639, 446.878
272.004, 448.686
273.369, 565.754
274.734, 620.664
276.099, 631.445
277.463, 776.421
278.828, 970.334
280.192, 1044.943
281.556, 1248.608
282.919, 1387.443
284.283, 1720.257
285.646, 1933.104
287.009, 2241.896
288.372, 2656.884
289.734, 2919.833
291.097, 3382.660
292.459, 3508.931
293.821, 3658.715
295.183, 3710.485
296.544, 3529.002
297.905, 3175.661
299.266, 2807.154
300.627, 2399.010
301.988, 2030.969
303.348, 1680.768
304.709, 1403.899
306.069, 1147.153
307.428, 955.818
308.788, 793.024
310.147, 668.535
311.507, 592.146
312.865, 486.606
314.224, 456.038
315.583, 400.467
316.941, 386.193
318.299, 340.645
319.657, 303.035
321.015, 283.467
322.372, 230.065
323.729, 238.678
325.086, 199.182
326.443, 181.539
327.800, 234.101
329.156, 207.482
330.512, 270.819
331.868, 185.218
333.224, 234.537
334.579, 169.884
335.935, 287.179
337.290, 357.965
338.645, 344.254
339.999, 425.163
341.354, 421.162
342.708, 468.124
344.062, 447.414
345.416, 404.644
346.769, 452.063
348.123, 343.273
349.476, 266.472
350.829, 210.787
352.182, 172.391
353.534, 178.180
354.887, 133.344
356.239, 150.492
357.591, 114.676
358.942, 90.802
360.294, 66.079
361.645, 71.431
362.996, 88.524
364.347, 90.593
365.698, 87.574
367.048, 80.848
368.398, 84.941
369.748, 37.042
371.098, 20.139
372.448, 56.952
373.797, 35.948
375.146, 9.349
376.495, 59.362
377.844, 41.315
379.192, 1.257
380.540, 7.679
381.889, 56.233
383.236, 18.345
384.584, 38.368
385.932, 63.244
387.279, 43.118
388.626, 10.021
389.973, 34.825
391.319, 7.659
392.666, 38.479
394.012, 24.286
395.358, 27.082
396.704, 4.863
398.049, 2.370
399.394, 0.622
400.740, 9.137
402.084, 4.835
403.429, 24.535
404.774, 32.202
406.118, 21.663
407.462, 2.555
408.806, 28.033
410.150, 8.147
411.493, 49.450
412.836, 44.990
414.179, 31.541
415.522, 0.945
416.865, 16.548
418.207, 45.013
419.549, 18.462
420.891, 31.940
422.233, 5.361
423.575, 12.995
424.916, 18.617
426.257, 0.210
427.598, 23.758
428.939, 13.387
430.279, 15.001
431.619, 50.268
432.959, 77.565
434.299, 23.879
435.639, 6.897
436.978, 76.304
438.318, 22.493
439.657, 29.666
440.996, 104.825
442.334, 80.972
443.673, 39.195
445.011, 43.315
446.349, 33.549
447.687, 43.657
449.024, 16.764
450.361, 19.342
451.699, 33.050
453.036, 10.279
454.372, 38.355
455.709, 40.414
457.045, 119.613
458.381, 63.681
459.717, 99.677
461.053, 23.635
462.388, 10.690
463.724, 28.617
465.059, 16.529
466.394, 119.967
467.728, 50.027
469.063, 85.896
470.397, 82.862
471.731, 48.712
473.065, 90.548
474.398, 109.508
475.732, 109.831
477.065, 28.684
478.398, 80.473
479.731, 107.005
481.063, 34.771
482.396, 143.521
483.728, 41.808
485.060, 65.591
486.391, 126.921
487.723, 48.622
489.054, 89.373
490.385, 101.295
491.716, 82.959
493.047, 119.763
494.377, 90.401
495.708, 127.025
497.038, 14.668
498.368, 96.290
499.697, 74.954
501.027, 130.689
502.356, 139.275
503.685, 88.197
505.014, 112.831
506.342, 52.692
507.671, 105.211
508.999, 125.856
510.327, 69.461
511.655, 107.957
512.982, 89.339
514.310, 98.884
515.637, 111.343
516.964, 88.790
518.291, 157.223
519.617, 60.644
520.944, 39.962
522.270, 109.332
523.596, 109.760
524.921, 100.135
526.247, 47.514
527.572, 73.914
528.897, 83.250
530.222, 59.364
531.547, 100.338
532.871, 60.511
534.196, 137.825
535.520, 83.765
536.844, 129.002
538.167, 146.072
539.491, 61.794
540.814, 149.858
542.137, 43.086
543.460, 60.943
544.783, 157.930
546.105, 106.990
547.427, 131.017
548.749, 94.047
550.071, 96.967
551.393, 133.595
552.714, 138.504
554.035, 118.300
555.356, 125.107
556.677, 91.627
557.998, 77.826
559.318, 106.120
560.638, 89.676
561.958, 85.139
563.278, 136.845
564.597, 106.602
565.917, 53.259
567.236, 69.348
568.555, 19.031
569.874, 81.739
571.192, 90.513
572.511, 133.882
573.829, 91.543
575.147, 146.651
576.464, 105.151
577.782, 101.849
579.099, 71.350
580.416, 126.957
581.733, 27.238
583.050, 120.634
584.366, 67.547
585.683, 51.605
586.999, 61.178
588.315, 49.392
589.630, 80.850
590.946, 63.462
592.261, 56.177
593.576, 113.610
594.891, 84.211
596.206, 170.892
597.520, 126.912
598.834, 86.762
600.148, 94.494
601.462, 50.155
602.776, 99.665
604.089, 40.147
605.402, 66.573
606.715, 63.037
608.028, 40.291
609.341, 56.567
610.653, 21.949
611.965, 56.085
613.277, 56.525
614.589, 19.915
615.901, 47.637
617.212, 61.103
618.523, 105.692
619.834, 39.926
621.145, 88.002
622.456, 83.260
623.766, 0.395
625.076, 22.933
626.386, 112.271
627.696, 38.750
629.006, 239.262
630.315, 324.568
631.624, 34.359
632.933, 14.160
634.242, 53.310
635.551, 80.462
636.859, 34.151
638.167, 75.454
639.475, 95.589
640.783, 15.009
642.090, 49.822
643.398, 0.054
644.705, 62.413
646.012, 46.551
647.318, 10.150
648.625, 131.111
649.931, 25.352
651.237, 72.655
652.543, 89.910
653.849, 53.197
655.155, 58.164
656.460, 44.420
657.765, 27.138
659.070, 59.500
660.375, 10.257
661.679, 40.915
662.984, 10.128
664.288, 80.132
665.592, 31.387
666.895, 37.572
668.199, 64.960
669.502, 1.404
670.805, 44.705
672.108, 61.846
673.411, 66.983
674.713, 61.071
676.016, 67.196
677.318, 92.151
678.620, 51.918
679.921, 51.020
681.223, 77.115
682.524, 57.532
683.825, 41.396
685.126, 59.552
686.427, 67.550
687.727, 88.442
689.028, 64.842
690.328, 113.797
691.628, 34.903
692.927, 40.896
694.227, 108.929
695.526, 35.956
696.825, 87.840
698.124, 24.859
699.423, 79.659
700.721, 123.530
702.020, 17.472
703.318, 44.503
704.616, 17.471
705.913, 121.436
707.211, 103.396
708.508, 124.350
709.805, 166.298
711.102, 130.241
712.399, 149.178
713.695, 227.111
714.992, 227.985
716.288, 328.913
717.584, 324.833
718.879, 389.733
720.175, 493.646
721.470, 411.555
722.765, 532.309
724.060, 461.131
725.355, 361.663
726.649, 348.537
727.944, 248.427
729.238, 241.327
730.532, 219.222
731.825, 216.115
733.119, 177.022
734.412, 104.888
735.705, 111.724
736.998, 87.599
738.291, 84.240
739.584, 145.109
740.876, 96.933
742.168, 112.035
743.460, 55.846
744.752, 18.615
746.043, 181.486
747.334, 56.307
748.626, 147.095
749.916, 29.953
751.207, 69.110
752.498, 65.964
753.788, 27.814
755.078, 68.660
756.368, 66.501
757.658, 26.250
758.947, 96.082
760.237, 35.783
761.526, 75.593
762.815, 86.385
764.104, 40.081
765.392, 58.844
766.680, 68.459
767.969, 18.218
769.257, 64.976
770.544, 11.575
771.832, 75.289
773.119, 59.058
774.406, 54.849
775.693, 90.525
776.980, 37.312
778.267, 70.095
779.553, 44.335
780.839, 76.130
782.125, 43.905
783.411, 8.431
784.697, 124.329
785.982, 12.915
787.267, 53.696
788.552, 76.458
789.837, 45.144
791.122, 28.876
792.406, 5.851
793.690, 32.576
794.974, 82.299
796.258, 4.531
797.542, 87.603
798.825, 23.696
800.108, 43.402
801.391, 107.042
802.674, 9.504
803.957, 75.189
805.239, 33.727
806.522, 25.415
807.804, 66.102
809.085, 30.244
810.367, 86.405
811.649, 22.002
812.930, 7.496
814.211, 145.130
815.492, 26.411
816.772, 65.968
818.053, 39.282
819.333, 30.077
820.613, 67.415
821.893, 18.492
823.173, 3.885
824.452, 31.819
825.732, 32.347
827.011, 91.946
828.290, 68.523
829.568, 83.122
830.847, 88.719
832.125, 28.684
833.403, 16.758
834.681, 12.399
835.959, 20.021
837.236, 79.532
838.514, 17.980
839.791, 65.571
841.068, 50.128
842.345, 3.314
843.621, 16.760
844.898, 2.784
846.174, 45.223
847.450, 39.476
848.726, 77.232
850.001, 53.682
851.277, 33.227
852.552, 22.635
853.827, 64.182
855.102, 39.341
856.376, 48.295
857.651, 35.798
858.925, 32.140
860.199, 45.691
861.473, 77.242
862.746, 32.794
864.020, 87.347
865.293, 38.901
866.566, 109.457
867.839, 118.013
869.112, 139.572
870.384, 280.131
871.656, 269.692
872.928, 298.255
874.200, 203.818
875.472, 179.384
876.744, 151.951
878.015, 170.521
879.286, 312.094
880.557, 321.669
881.828, 315.246
883.098, 195.825
884.369, 122.406
885.639, 133.989
886.909, 52.574
888.178, 122.161
889.448, 115.750
890.717, 59.349
891.987, 61.950
893.256, 6.554
894.524, 29.839
895.793, 77.758
897.061, 70.358
898.330, 100.874
899.598, 90.479
900.865, 47.089
902.133, 60.703
903.401, 8.712
904.668, 34.904
905.935, 57.523
907.202, 23.110
908.468, 53.735
909.735, 16.364
911.001, 19.960
912.267, 56.596
913.533, 17.234
914.799, 60.877
916.064, 60.524
917.330, 9.175
918.595, 56.829
919.860, 35.106
921.124, 107.101
922.389, 44.768
923.653, 24.326
924.918, 41.001
926.182, 7.680
927.445, 75.364
928.709, 46.051
929.972, 44.742
931.236, 103.438
932.499, 7.860
933.761, 35.846
935.024, 20.555
936.286, 12.214
937.549, 59.932
938.811, 65.336
940.073, 58.936
941.334, 57.781
942.596, 9.503
943.857, 113.229
945.118, 96.788
946.379, 15.536
947.640, 86.289
948.900, 17.639
950.161, 31.126
951.421, 153.911
952.681, 39.700
953.940, 132.495
955.200, 17.362
956.459, 49.172
957.719, 160.994
958.978, 55.820
960.236, 47.652
961.495, 110.299
962.753, 1.142
964.012, 166.340
965.270, 82.174
966.527, 46.035
967.785, 132.908
969.043, 20.787
970.300, 47.673
971.557, 28.504
972.814, 23.597
974.071, 146.967
975.327, 15.408
976.583, 40.326
977.840, 39.250
979.095, 34.819
980.351, 38.109
981.607, 26.055
982.862, 63.008
984.117, 76.062
985.372, 12.028
986.627, 148.001
987.882, 13.648
989.136, 57.634
990.390, 90.439
991.644, 13.439
992.898, 26.447
994.152, 36.111
995.405, 38.070
996.659, 80.046
997.912, 33.088
999.165, 113.138
1000.417, 67.195
1001.670, 20.259
1002.922, 102.336
1004.174, 43.421
1005.426, 77.533
1006.678, 153.652
1007.930, 32.788
1009.181, 117.931
1010.432, 84.083
1011.683, 127.247
1012.934, 166.418
1014.185, 77.597
1015.435, 154.786
1016.685, 160.983
1017.935, 123.188
1019.185, 221.399
1020.435, 110.618
1021.684, 219.845
1022.934, 247.080
1024.183, 126.322
1025.432, 363.578
1026.680, 274.842
1027.929, 265.113
1029.177, 348.413
1030.425, 285.719
1031.673, 272.034
1032.921, 390.356
1034.169, 253.687
1035.416, 437.024
1036.663, 318.369
1037.911, 384.722
1039.157, 406.081
1040.404, 333.956
1041.650, 419.330
1042.897, 427.718
1044.143, 411.113
1045.389, 532.171
1046.634, 472.585
1047.880, 486.006
1049.125, 593.437
1050.371, 442.296
1051.615, 630.747
1052.860, 613.224
1054.105, 529.410
1055.349, 658.902
1056.593, 647.406
1057.837, 728.919
1059.081, 713.439
1060.325, 775.970
1061.568, 947.508
1062.812, 928.055
1064.055, 1028.871
1065.298, 1268.438
1066.540, 1135.019
1067.783, 1464.604
1069.025, 1602.197
1070.267, 1675.807
1071.509, 2057.416
1072.751, 2129.032
1073.993, 2257.657
1075.234, 2697.289
1076.475, 2850.941
1077.716, 3422.600
1078.957, 3908.266
1080.198, 4659.946
1081.438, 6004.633
1082.679, 7295.131
1083.919, 9672.837
1085.159, 12533.548
1086.398, 15064.274
1087.638, 19995.004
1088.877, 24143.744
1090.116, 31880.977
1091.355, 43336.742
1092.594, 49565.504
1093.833, 56311.277
1095.071, 52372.055
1096.309, 40805.859
1097.547, 31153.648
1098.785, 19875.971
1100.023, 13197.330
1101.260, 9038.147
1102.498, 6005.971
1103.735, 4544.841
1104.972, 3392.682
1106.208, 2435.481
1107.445, 2100.333
1108.681, 1626.191
1109.918, 1433.055
1111.154, 1230.934
1112.389, 951.815
1113.625, 1009.712
1114.860, 804.614
1116.096, 669.522
1117.331, 717.492
1118.566, 539.410
1119.800, 616.444
1121.035, 628.382
1122.269, 543.751
1123.503, 619.914
1124.737, 493.875
1125.971, 363.841
1127.205, 493.812
1128.438, 299.808
1129.671, 333.598
1130.904, 343.583
1132.137, 222.572
1133.370, 337.574
1134.602, 245.580
1135.834, 212.682
1137.066, 343.702
1138.298, 170.727
1139.530, 204.944
1140.762, 237.983
1141.993, 105.025
1143.224, 384.652
1144.455, 130.708
1145.686, 184.768
1146.917, 217.916
1148.147, 148.982
1149.377, 208.053
1150.607, 169.326
1151.837, 54.402
1153.067, 330.326
1154.296, 96.510
1155.526, 173.594
1156.755, 177.834
1157.984, 78.923
1159.213, 210.280
1160.441, 153.373
1161.670, 70.561
1162.898, 222.358
1164.126, 132.656
1165.354, 195.756
1166.581, 185.958
1167.809, 147.061
1169.036, 140.447
1170.263, 72.651
1171.490, 123.758
1172.717, 121.483
1173.943, 56.739
1175.170, 156.850
1176.396, 135.111
1177.622, 42.223
1178.848, 177.380
1180.073, 105.828
1181.299, 32.941
1182.524, 148.137
1183.749, 173.333
1184.974, 92.645
1186.199, 179.613
1187.423, 39.917
1188.648, 76.190
1189.872, 68.658
1191.096, 45.766
1192.320, 133.988
1193.543, 16.126
1194.767, 65.237
1195.990, 102.649
1197.213, 15.661
1198.436, 89.444
1199.659, 111.143
1200.881, 7.484
1202.104, 118.587
1203.326, 51.957
1204.548, 125.095
1205.770, 114.562
1206.991, 18.506
1208.213, 201.602
1209.434, 45.211
1210.655, 8.182
1211.876, 117.126
1213.096, 21.230
1214.317, 126.315
1215.537, 135.433
1216.757, 1.908
1217.977, 115.985
1219.197, 62.605
1220.417, 35.792
1221.636, 174.863
1222.855, 33.326
1224.074, 85.524
1225.293, 213.585
1226.512, 98.389
1227.731, 153.445
1228.949, 178.500
1230.167, 72.941
1231.385, 146.991
1232.603, 129.514
1233.820, 125.553
1235.038, 218.593
1236.255, 22.875
1237.472, 147.928
1238.689, 151.979
1239.906, 63.218
1241.122, 288.259
1242.338, 27.299
1243.555, 85.479
1244.771, 195.515
1245.986, 39.183
1247.202, 206.036
1248.417, 89.061
1249.633, 24.444
1250.848, 178.466
1252.063, 12.410
1253.277, 76.606
1254.492, 179.621
1255.706, 43.621
1256.920, 139.619
1258.134, 134.615
1259.348, 56.611
1260.562, 105.604
1261.775, 44.587
1262.988, 30.568
1264.201, 114.547
1265.414, 19.518
1266.627, 129.459
1267.839, 116.398
1269.052, 4.336
1270.264, 188.264
1271.476, 81.184
1272.688, 63.100
1273.899, 272.013
1275.111, 37.075
1276.322, 93.812
1277.533, 159.695
1278.744, 61.543
1279.955, 174.385
1281.165, 35.224
1282.376, 63.057
1283.586, 157.885
1284.796, 15.699
1286.006, 73.508
1287.215, 136.305
1288.425, 14.915
1289.634, 171.822
1290.843, 107.552
1292.052, 44.269
1293.261, 145.969
1294.469, 118.660
1295.678, 7.667
1296.886, 120.987
1298.094, 65.369
1299.302, 44.244
1300.509, 166.850
1301.717, 33.422
1302.924, 128.971
1304.131, 7.486
1305.338, 73.031
1306.545, 50.537
1307.752, 2.023
1308.958, 26.498
1310.164, 75.962
1311.370, 51.417
1312.576, 78.860
1313.782, 15.292
1314.987, 53.710
1316.193, 161.118
1317.398, 11.485
1318.603, 43.896
1319.807, 183.265
1321.012, 67.376
1322.216, 107.950
1323.421, 70.266
1324.625, 14.571
1325.829, 114.913
1327.032, 63.194
1328.236, 63.456
1329.439, 78.632
1330.642, 76.970
1331.845, 15.206
1333.048, 118.767
1334.251, 6.021
1335.453, 102.175
1336.656, 59.428
1337.858, 0.397
1339.060, 190.763
1340.261, 22.913
1341.463, 8.946
1342.664, 161.763
1343.866, 57.121
1345.067, 32.969
1346.267, 123.050
1347.468, 3.877
1348.669, 82.183
1349.869, 18.236
1351.069, 3.280
1352.269, 121.397
1353.469, 11.638
1354.668, 7.342
1355.868, 41.578
1357.067, 0.526
1358.266, 142.460
1359.465, 86.387
1360.664, 18.308
1361.862, 115.212
1363.061, 11.424
1364.259, 69.321
1365.457, 118.206
1366.655, 36.876
1367.852, 65.960
1369.050, 123.793
1370.247, 10.378
1371.444, 177.413
1372.641, 153.795
1373.838, 4.431
1375.035, 161.334
1376.231, 16.727
1377.427, 161.280
1378.623, 173.037
1379.819, 1.229
1381.015, 165.503
1382.211, 173.221
1383.406, 60.938
1384.601, 283.959
1385.796, 114.587
1386.991, 70.227
1388.185, 202.870
1389.380, 43.505
1390.574, 61.132
1391.768, 226.750
1392.962, 33.297
1394.156, 257.773
1395.350, 86.125
1396.543, 132.706
1397.736, 267.278
1398.929, 513.533
1400.122, 212.056
1401.315, 270.461
1402.507, 118.966
1403.700, 262.239
1404.892, 285.770
1406.084, 146.229
1407.276, 275.574
1408.467, 296.483
1409.659, 231.644
1410.850, 408.854
1412.041, 365.989
1413.232, 239.626
1414.423, 474.857
1415.614, 326.871
1416.804, 376.009
1417.994, 494.748
1419.184, 309.717
1420.374, 490.733
1421.564, 496.490
1422.753, 425.053
1423.943, 723.039
1425.132, 482.980
1426.321, 476.482
1427.510, 690.459
1428.698, 580.321
1429.887, 686.731
1431.075, 769.722
1432.263, 634.217
1433.451, 846.681
1434.639, 792.343
1435.827, 760.089
1437.014, 973.967
1438.201, 786.685
1439.388, 843.570
1440.575, 924.445
1441.762, 550.077
1442.949, 736.463
1444.135, 619.405
1445.321, 382.532
1446.507, 581.921
1447.693, 518.545
1448.879, 242.895
1450.064, 539.610
1451.250, 297.764
1452.435, 362.487
1453.620, 421.262
1454.805, 157.714
1455.989, 295.238
1457.174, 296.306
1458.358, 131.871
1459.542, 330.631
1460.726, 239.351
1461.910, 134.998
1463.093, 328.607
1464.277, 175.154
1465.460, 121.774
1466.643, 248.339
1467.826, 69.872
1469.009, 180.330
1470.191, 172.765
1471.373, 96.305
1472.556, 264.774
1473.738, 269.201
1474.919, 29.406
1476.101, 270.110
1477.283, 154.694
1478.464, 63.313
1479.645, 214.000
1480.826, 82.692
1482.007, 150.453
1483.187, 178.386
1484.368, 104.401
1485.548, 169.508
1486.728, 298.628
1487.908, 103.787
1489.088, 277.007
1490.268, 159.264
1491.447, 83.566
1492.626, 262.927
1493.805, 63.080
1494.984, 32.580
1496.163, 235.177
1497.341, 23.979
1498.520, 98.142
1499.698, 177.875
1500.876, 145.110
1502.054, 135.601
1503.232, 174.179
1504.409, 10.894
1505.586, 184.117
1506.763, 133.340
1507.940, 71.616
1509.117, 236.427
1510.294, 88.097
1511.470, 182.799
1512.647, 221.876
1513.823, 1.612
1514.999, 182.392
1516.174, 268.644
1517.350, 0.010
1518.526, 0.000
##END=



