##NAMES=Dolomite
##RRUFFID=R040030
##IDEAL CHEMISTRY=CaMg(CO_3_)_2_
##LOCALITY=Austria
##OWNER=RRUFF
##SOURCE=University of Arizona Mineral Museum
##DESCRIPTION=Group of colorless tabular crystals
##STATUS=The identification of this mineral has been confirmed by X-ray diffraction and chemical analysis
##URL=rruff.info/R040030
##MEASURED CHEMISTRY=(Ca_0.99_Mg_0.01_)_Î£=1_Mg_1.00_(CO_3_)_2_ ; trace amounts of Mn; CO_2_ estimated by difference
##PIN_ID=M00005
##ORIENTATION=Laser parallel to a* (1 0 0). Fiducial mark perpendicular to laser is parallel to -c [0 0 -1]
90.003, 0.000
91.398, 2.381
92.793, 268.041
94.188, 231.712
95.582, 320.629
96.976, 323.974
98.370, 281.964
99.764, 448.044
101.157, 422.380
102.550, 605.673
103.943, 422.736
105.336, 531.334
106.729, 565.054
108.121, 497.434
109.513, 671.594
110.905, 418.954
112.297, 549.673
113.688, 423.501
115.079, 501.087
116.470, 438.074
117.861, 552.054
119.251, 636.426
120.642, 607.963
122.032, 740.361
123.422, 488.034
124.811, 382.947
126.201, 344.376
127.590, 207.079
128.979, 289.334
130.367, 89.725
131.756, 244.644
133.144, 40.176
134.532, 206.402
135.920, 61.350
137.307, 37.991
138.695, 127.333
140.082, 6.966
141.469, 122.759
142.856, 25.402
144.242, 60.143
145.628, 19.119
147.014, 0.682
148.400, 86.689
149.786, 38.097
151.171, 140.696
152.556, 55.706
153.941, 112.134
155.325, 151.968
156.710, 43.775
158.094, 169.590
159.478, 14.419
160.862, 178.275
162.245, 75.152
163.629, 87.042
165.012, 89.933
166.395, 108.800
167.777, 183.632
169.160, 235.451
170.542, 376.539
171.924, 513.787
173.306, 795.265
174.687, 1088.169
176.068, 1495.496
177.449, 1910.967
178.830, 1963.188
180.211, 1788.946
181.591, 1294.802
182.972, 916.622
184.351, 637.969
185.731, 374.353
187.111, 222.768
188.490, 142.209
189.869, 142.664
191.248, 8.125
192.626, 34.591
194.005, 100.055
195.383, 20.485
196.761, 30.962
198.139, 42.605
199.516, 32.189
200.893, 40.799
202.271, 61.454
203.647, 6.149
205.024, 60.890
206.400, 21.324
207.777, 7.446
209.152, 15.388
210.528, 32.184
211.904, 26.136
213.279, 41.121
214.654, 56.132
216.029, 17.835
217.403, 26.778
218.778, 102.697
220.152, 208.599
221.526, 308.475
222.900, 626.551
224.273, 966.694
225.646, 1508.451
227.019, 1996.709
228.392, 2369.313
229.765, 2356.703
231.137, 1942.471
232.509, 1641.936
233.881, 1033.869
235.253, 922.191
236.625, 721.554
237.996, 515.520
239.367, 477.027
240.738, 319.310
242.108, 374.294
243.479, 280.159
244.849, 283.233
246.219, 245.629
247.589, 190.587
248.958, 231.203
250.328, 156.871
251.697, 251.582
253.065, 135.608
254.434, 137.748
255.803, 160.338
257.171, 101.871
258.539, 154.293
259.906, 101.580
261.274, 120.478
262.641, 86.654
264.008, 133.580
265.375, 78.838
266.742, 61.906
268.108, 112.479
269.475, 96.420
270.840, 157.415
272.206, 175.192
273.572, 138.529
274.937, 248.285
276.302, 247.735
277.667, 310.502
279.032, 221.932
280.396, 340.808
281.760, 363.028
283.125, 381.515
284.488, 446.981
285.852, 397.710
287.215, 559.870
288.578, 628.637
289.941, 842.234
291.304, 912.067
292.666, 1101.754
294.029, 1368.120
295.391, 1657.450
296.753, 2182.959
298.114, 2614.195
299.476, 3181.427
300.837, 3646.410
302.198, 3775.163
303.558, 3693.316
304.919, 3226.763
306.279, 2776.642
307.639, 2067.540
308.999, 1669.923
310.359, 1379.929
311.718, 911.145
313.077, 871.071
314.436, 737.650
315.795, 614.510
317.154, 544.610
318.512, 496.110
319.870, 427.155
321.228, 384.823
322.586, 356.313
323.943, 310.690
325.300, 310.476
326.657, 297.921
328.014, 189.214
329.371, 217.533
330.727, 208.922
332.083, 214.615
333.439, 253.463
334.795, 295.273
336.150, 455.312
337.506, 418.185
338.861, 571.111
340.215, 583.164
341.570, 599.858
342.924, 622.944
344.279, 561.754
345.633, 431.482
346.986, 398.915
348.340, 310.496
349.693, 282.265
351.046, 255.983
352.399, 224.303
353.752, 160.706
355.104, 271.669
356.457, 135.187
357.809, 208.223
359.160, 196.454
360.512, 87.889
361.863, 188.717
363.214, 96.200
364.565, 72.134
365.916, 85.839
367.267, 82.938
368.617, 96.595
369.967, 4.172
371.317, 142.312
372.666, 0.823
374.016, 77.274
375.365, 94.100
376.714, 3.007
378.063, 108.935
379.411, 7.097
380.760, 29.355
382.108, 58.190
383.456, 33.656
384.803, 105.890
386.151, 78.304
387.498, 111.575
388.845, 115.772
390.192, 164.006
391.539, 132.189
392.885, 162.592
394.231, 159.770
395.577, 126.017
396.923, 135.179
398.269, 137.344
399.614, 46.483
400.959, 26.625
402.304, 22.983
403.649, 45.181
404.993, 76.289
406.337, 44.550
407.681, 58.631
409.025, 25.696
410.369, 60.742
411.712, 1.230
413.055, 35.644
414.398, 65.634
415.741, 8.583
417.084, 9.153
418.426, 11.050
419.768, 9.485
421.110, 15.815
422.452, 57.380
423.793, 60.056
425.134, 26.680
426.475, 23.725
427.816, 57.868
429.157, 55.127
430.497, 62.049
431.837, 34.126
433.177, 60.425
434.517, 6.232
435.857, 40.919
437.196, 98.327
438.535, 12.708
439.874, 70.059
441.213, 4.616
442.551, 86.677
443.889, 10.944
445.227, 1.183
446.565, 137.393
447.903, 14.580
449.240, 82.739
450.577, 99.875
451.914, 26.988
453.251, 45.074
454.588, 108.136
455.924, 106.176
457.260, 53.193
458.596, 69.186
459.932, 100.155
461.267, 126.104
462.602, 152.031
463.938, 91.939
465.272, 115.825
466.607, 130.693
467.941, 24.540
469.276, 174.364
470.610, 113.170
471.943, 169.959
473.277, 140.735
474.610, 98.494
475.944, 211.237
477.276, 124.964
478.609, 140.677
479.942, 136.375
481.274, 146.058
482.606, 169.727
483.938, 84.380
485.270, 125.022
486.601, 74.647
487.932, 133.257
489.263, 130.761
490.594, 153.340
491.925, 141.899
493.255, 123.780
494.585, 129.210
495.915, 70.488
497.245, 105.982
498.575, 88.457
499.904, 52.913
501.233, 133.349
502.562, 33.769
503.891, 94.167
505.219, 108.548
506.548, 7.089
507.876, 135.249
509.203, 85.716
510.531, 93.348
511.859, 124.303
513.186, 100.572
514.513, 162.803
515.840, 163.414
517.166, 213.430
518.493, 181.516
519.819, 181.025
521.145, 263.147
522.470, 138.589
523.796, 231.452
525.121, 114.559
526.446, 151.342
527.771, 209.573
529.096, 54.692
530.421, 106.983
531.745, 178.535
533.069, 145.531
534.393, 201.643
535.716, 143.273
537.040, 172.847
538.363, 134.224
539.686, 168.244
541.009, 202.239
542.331, 95.815
543.654, 184.251
544.976, 108.148
546.298, 138.290
547.620, 167.516
548.941, 144.377
550.263, 194.504
551.584, 107.139
552.905, 204.040
554.225, 140.395
555.546, 221.574
556.866, 160.445
558.186, 182.311
559.506, 200.104
560.826, 116.594
562.145, 153.818
563.465, 274.475
564.784, 132.144
566.103, 241.864
567.421, 202.316
568.740, 200.801
570.058, 222.165
571.376, 225.143
572.694, 285.364
574.011, 161.692
575.329, 231.321
576.646, 286.326
577.963, 162.783
579.279, 237.756
580.596, 197.898
581.912, 216.613
583.228, 165.799
584.544, 229.220
585.860, 372.222
587.175, 305.352
588.491, 320.154
589.806, 363.272
591.121, 290.260
592.435, 360.342
593.750, 219.857
595.064, 354.828
596.378, 289.021
597.692, 279.814
599.006, 407.859
600.319, 343.369
601.632, 511.632
602.945, 382.351
604.258, 343.970
605.571, 423.274
606.883, 315.980
608.195, 259.082
609.507, 327.131
610.819, 273.860
612.131, 351.726
613.442, 211.766
614.753, 416.829
616.064, 279.611
617.375, 351.464
618.685, 561.510
619.995, 503.554
621.306, 568.854
622.615, 683.727
623.925, 792.686
625.235, 1118.705
626.544, 976.255
627.853, 1339.447
629.162, 1145.360
630.471, 1029.378
631.779, 924.360
633.087, 589.152
634.395, 640.116
635.703, 489.992
637.011, 485.920
638.318, 466.818
639.625, 424.723
640.932, 561.614
642.239, 448.254
643.546, 590.051
644.852, 812.624
646.158, 650.430
647.464, 892.212
648.770, 815.016
650.076, 892.808
651.381, 887.522
652.686, 749.246
653.991, 815.713
655.296, 687.314
656.600, 676.830
657.905, 632.185
659.209, 431.864
660.513, 499.114
661.817, 271.604
663.120, 173.143
664.423, 229.946
665.726, 97.571
667.029, 175.976
668.332, 156.402
669.635, 147.979
670.937, 91.446
672.239, 42.036
673.541, 112.636
674.842, 7.223
676.144, 53.795
677.445, 35.354
678.746, 16.101
680.047, 112.437
681.348, 33.962
682.648, 11.603
683.948, 21.879
685.248, 63.654
686.548, 132.408
687.848, 17.682
689.147, 7.935
690.447, 49.424
691.746, 40.230
693.044, 47.070
694.343, 50.641
695.641, 5.441
696.940, 33.773
698.238, 74.026
699.535, 10.109
700.833, 28.997
702.130, 28.893
703.427, 36.894
704.724, 29.061
706.021, 15.094
707.318, 57.119
708.614, 28.413
709.910, 25.473
711.206, 51.743
712.502, 1.078
713.798, 15.140
715.093, 68.369
716.388, 1.655
717.683, 14.188
718.978, 44.404
720.272, 67.060
721.567, 17.540
722.861, 90.172
724.155, 43.794
725.448, 163.406
726.742, 97.008
728.035, 155.603
729.328, 194.188
730.621, 105.732
731.914, 154.303
733.206, 133.867
734.499, 145.404
735.791, 89.955
737.083, 41.503
738.374, 161.057
739.666, 84.603
740.957, 106.147
742.248, 97.685
743.539, 31.215
744.830, 132.750
746.120, 126.277
747.410, 125.797
748.701, 148.311
749.990, 146.479
751.280, 149.320
752.570, 156.812
753.859, 101.300
755.148, 86.781
756.437, 37.256
757.725, 112.723
759.014, 83.183
760.302, 64.639
761.590, 156.086
762.878, 49.529
764.166, 114.964
765.453, 79.392
766.740, 54.814
768.027, 160.230
769.314, 59.639
770.601, 164.042
771.887, 64.439
773.174, 44.830
774.460, 235.213
775.745, 21.591
777.031, 82.960
778.316, 136.323
779.602, 60.680
780.887, 170.030
782.172, 24.376
783.456, 55.715
784.741, 57.047
786.025, 86.373
787.309, 81.694
788.593, 144.009
789.876, 120.317
791.160, 170.621
792.443, 87.919
793.726, 180.212
795.009, 139.499
796.291, 210.780
797.574, 161.057
798.856, 147.330
800.138, 242.597
801.420, 126.860
802.702, 208.119
803.983, 253.372
805.264, 172.621
806.545, 205.865
807.826, 207.105
809.107, 194.341
810.387, 264.574
811.667, 42.803
812.947, 184.029
814.227, 245.251
815.507, 127.471
816.786, 285.688
818.065, 214.901
819.344, 180.114
820.623, 196.177
821.902, 132.384
823.180, 240.417
824.459, 138.618
825.737, 386.650
827.014, 263.296
828.292, 258.414
829.569, 363.097
830.847, 302.371
832.124, 265.160
833.401, 439.928
834.677, 298.036
835.954, 457.814
837.230, 342.999
838.506, 317.720
839.782, 359.636
841.057, 320.792
842.333, 446.451
843.608, 406.870
844.883, 454.709
846.158, 571.107
847.433, 377.937
848.707, 558.688
849.981, 498.283
851.255, 451.059
852.529, 708.360
853.803, 508.680
855.076, 720.831
856.350, 723.604
857.623, 660.414
858.895, 985.601
860.168, 760.675
861.441, 1075.123
862.713, 1067.391
863.985, 848.187
865.257, 859.018
866.528, 716.179
867.800, 686.337
869.071, 629.170
870.342, 566.267
871.613, 543.428
872.884, 493.396
874.154, 476.411
875.425, 449.227
876.695, 396.354
877.965, 527.292
879.234, 500.490
880.504, 686.669
881.773, 1221.872
883.042, 1165.077
884.311, 1153.286
885.580, 818.498
886.848, 509.713
888.117, 528.932
889.385, 370.161
890.653, 418.194
891.920, 440.451
893.188, 288.682
894.455, 419.948
895.722, 370.218
896.989, 396.248
898.256, 538.526
899.523, 292.816
900.789, 479.123
902.055, 414.447
903.321, 309.789
904.587, 485.135
905.852, 363.484
907.118, 464.838
908.383, 369.196
909.648, 222.379
910.913, 457.746
912.177, 276.117
913.442, 363.472
914.706, 354.884
915.970, 183.192
917.233, 349.613
918.497, 163.040
919.760, 278.396
921.024, 196.832
922.287, 19.226
923.550, 211.677
924.812, 159.115
926.075, 78.480
927.337, 321.948
928.599, 58.234
929.861, 206.712
931.122, 81.196
932.384, 92.674
933.645, 267.169
934.906, 38.515
936.167, 261.001
937.428, 159.503
938.688, 105.022
939.948, 252.546
941.208, 190.076
942.468, 143.611
943.728, 150.153
944.987, 95.701
946.247, 217.254
947.506, 171.813
948.765, 45.380
950.023, 251.952
951.282, 116.530
952.540, 151.115
953.798, 196.707
955.056, 134.304
956.314, 190.907
957.572, 136.518
958.829, 136.134
960.086, 211.757
961.343, 34.387
962.600, 109.024
963.856, 146.667
965.113, 74.316
966.369, 181.972
967.625, 76.636
968.881, 98.306
970.136, 76.982
971.392, 123.666
972.647, 177.357
973.902, 157.945
975.157, 84.692
976.411, 12.336
977.666, 126.012
978.920, 111.598
980.174, 43.785
981.428, 18.169
982.682, 21.450
983.935, 126.921
985.188, 54.673
986.441, 55.274
987.694, 33.886
988.947, 242.513
990.199, 83.149
991.452, 102.815
992.704, 180.489
993.956, 84.172
995.207, 58.870
996.459, 82.671
997.710, 93.401
998.961, 263.140
1000.212, 300.905
1001.463, 782.686
1002.714, 1005.475
1003.964, 1047.296
1005.214, 1002.661
1006.464, 1810.556
1007.714, 526.422
1008.964, 349.964
1010.213, 96.859
1011.462, 602.772
1012.711, 382.717
1013.960, 95.677
1015.209, 204.647
1016.457, 127.642
1017.705, 370.649
1018.954, 350.673
1020.201, 271.728
1021.449, 510.794
1022.697, 421.884
1023.944, 393.975
1025.191, 462.073
1026.438, 287.180
1027.685, 419.295
1028.931, 458.318
1030.177, 277.447
1031.423, 462.583
1032.669, 262.726
1033.915, 406.875
1035.161, 289.080
1036.406, 142.243
1037.651, 353.413
1038.896, 249.206
1040.141, 199.389
1041.386, 329.579
1042.630, 214.205
1043.874, 326.408
1045.118, 367.620
1046.362, 163.013
1047.606, 381.241
1048.849, 193.412
1050.092, 304.385
1051.336, 389.817
1052.578, 265.155
1053.821, 358.428
1055.064, 365.725
1056.306, 295.026
1057.548, 487.334
1058.790, 361.697
1060.032, 470.019
1061.273, 514.348
1062.515, 432.127
1063.756, 744.470
1064.997, 648.822
1066.237, 746.225
1067.478, 863.588
1068.718, 917.958
1069.959, 1153.333
1071.199, 1165.715
1072.438, 1329.432
1073.678, 1613.827
1074.918, 1687.229
1076.157, 2109.785
1077.396, 2248.201
1078.635, 2289.785
1079.873, 2631.218
1081.112, 2526.657
1082.350, 2808.214
1083.588, 3111.688
1084.826, 3135.170
1086.064, 3498.829
1087.301, 3842.338
1088.539, 4115.864
1089.776, 5319.384
1091.013, 5762.909
1092.250, 7446.438
1093.486, 10389.974
1094.723, 13903.510
1095.959, 22007.055
1097.195, 31340.605
1098.431, 41834.156
1099.666, 46867.711
1100.902, 39231.281
1102.137, 28314.850
1103.372, 17948.420
1104.607, 11131.995
1105.842, 7325.578
1107.076, 4899.163
1108.311, 3542.753
1109.545, 2786.348
1110.779, 2099.945
1112.012, 1720.550
1113.246, 1500.159
1114.479, 1114.771
1115.712, 1100.397
1116.945, 796.027
1118.178, 747.658
1119.411, 737.302
1120.643, 468.948
1121.875, 669.597
1123.108, 593.422
1124.339, 376.077
1125.571, 692.736
1126.802, 326.575
1128.034, 367.238
1129.265, 405.536
1130.496, 238.799
1131.727, 310.470
1132.957, 142.281
1134.187, 266.956
1135.418, 259.631
1136.648, 124.310
1137.877, 226.989
1139.107, 304.668
1140.336, 85.346
1141.566, 176.023
1142.795, 114.700
1144.023, 0.374
1145.252, 116.043
1146.480, 58.713
1147.709, 109.374
1148.937, 90.040
1150.165, 38.712
1151.392, 107.383
1152.620, 29.952
1153.847, 44.711
1155.074, 145.495
1156.301, 48.836
1157.528, 64.827
1158.755, 270.495
1159.981, 17.832
1161.207, 111.935
1162.433, 112.608
1163.659, 131.287
1164.885, 140.971
1166.110, 43.660
1167.336, 132.321
1168.561, 147.987
1169.786, 28.654
1171.010, 162.324
1172.235, 101.989
1173.459, 120.625
1174.683, 197.249
1175.907, 13.125
1177.131, 249.501
1178.355, 213.130
1179.578, 49.722
1180.801, 204.316
1182.024, 28.913
1183.247, 105.511
1184.470, 163.105
1185.692, 105.300
1186.915, 151.268
1188.137, 134.838
1189.359, 1.528
1190.580, 233.042
1191.802, 61.280
1193.023, 7.948
1194.244, 60.912
1195.465, 27.890
1196.686, 40.322
1197.907, 47.255
1199.127, 45.424
1200.347, 137.107
1201.567, 122.546
1202.787, 110.080
1204.007, 191.614
1205.226, 52.620
1206.446, 155.156
1207.665, 130.080
1208.884, 111.958
1210.102, 159.546
1211.321, 143.001
1212.539, 59.508
1213.758, 311.014
1214.976, 106.885
1216.193, 276.392
1217.411, 293.092
1218.628, 12.732
1219.846, 311.769
1221.063, 126.572
1222.280, 43.898
1223.496, 290.402
1224.713, 42.305
1225.929, 192.867
1227.145, 240.431
1228.361, 67.875
1229.577, 173.430
1230.793, 273.412
1232.008, 57.882
1233.223, 428.391
1234.438, 94.051
1235.653, 262.562
1236.868, 387.073
1238.082, 319.590
1239.297, 501.108
1240.511, 399.630
1241.725, 262.178
1242.938, 426.696
1244.152, 203.213
1245.365, 341.697
1246.578, 374.173
1247.791, 178.736
1249.004, 526.161
1250.217, 289.581
1251.429, 324.395
1252.642, 412.787
1253.854, 242.180
1255.066, 317.567
1256.277, 540.938
1257.489, 155.745
1258.700, 423.544
1259.911, 357.862
1261.122, 245.395
1262.333, 560.577
1263.544, 304.665
1264.754, 313.079
1265.964, 525.135
1267.174, 287.367
1268.384, 531.776
1269.594, 532.806
1270.803, 430.953
1272.013, 671.936
1273.222, 483.910
1274.431, 404.036
1275.640, 668.275
1276.848, 554.140
1278.057, 455.274
1279.265, 444.907
1280.473, 410.488
1281.681, 547.663
1282.888, 313.110
1284.096, 332.915
1285.303, 708.887
1286.510, 146.046
1287.717, 410.383
1288.924, 268.279
1290.131, 226.956
1291.337, 458.648
1292.543, 329.874
1293.749, 234.905
1294.955, 589.942
1296.161, 463.377
1297.366, 387.648
1298.571, 452.659
1299.777, 120.614
1300.981, 335.622
1302.186, 284.014
1303.391, 176.796
1304.595, 449.660
1305.799, 134.683
1307.003, 309.710
1308.207, 495.734
1309.411, 281.764
1310.614, 551.744
1311.818, 445.146
1313.021, 442.118
1314.224, 602.591
1315.426, 490.356
1316.629, 424.999
1317.831, 803.771
1319.033, 377.854
1320.235, 549.626
1321.437, 699.336
1322.639, 311.103
1323.840, 571.354
1325.042, 466.947
1326.243, 263.596
1327.444, 525.242
1328.644, 224.109
1329.845, 294.523
1331.045, 426.903
1332.245, 168.483
1333.445, 145.869
1334.645, 248.123
1335.845, 30.547
1337.044, 141.981
1338.244, 72.410
1339.443, 19.168
1340.642, 236.249
1341.840, 54.659
1343.039, 102.063
1344.237, 219.460
1345.435, 38.151
1346.633, 301.235
1347.831, 208.607
1349.029, 65.958
1350.226, 317.294
1351.424, 86.597
1352.621, 78.898
1353.818, 298.198
1355.014, 22.502
1356.211, 191.806
1357.407, 266.112
1358.604, 99.431
1359.800, 261.759
1360.995, 143.108
1362.191, 54.490
1363.387, 317.912
1364.582, 121.384
1365.777, 40.861
1366.972, 356.367
1368.167, 101.634
1369.361, 26.135
1370.556, 185.610
1371.750, 64.137
1372.944, 190.301
1374.138, 89.785
1375.331, 31.673
1376.525, 263.880
1377.718, 171.635
1378.911, 249.423
1380.104, 338.310
1381.297, 227.307
1382.490, 457.332
1383.682, 395.399
1384.874, 213.310
1386.066, 435.500
1387.258, 316.155
1388.450, 292.293
1389.641, 412.709
1390.833, 180.104
1392.024, 233.619
1393.215, 493.544
1394.406, 121.195
1395.596, 445.187
1396.787, 288.456
1397.977, 246.325
1399.167, 358.141
1400.357, 119.973
1401.547, 119.480
1402.736, 288.938
1403.925, 7.629
1405.115, 270.240
1406.304, 275.938
1407.492, 12.875
1408.681, 254.678
1409.870, 147.789
1411.058, 100.306
1412.246, 365.703
1413.434, 159.281
1414.622, 204.498
1415.809, 345.422
1416.997, 148.521
1418.184, 111.412
1419.371, 279.251
1420.558, 79.928
1421.744, 197.740
1422.931, 182.682
1424.117, 27.456
1425.303, 267.038
1426.489, 125.604
1427.675, 126.484
1428.861, 270.175
1430.046, 54.278
1431.231, 179.712
1432.416, 275.232
1433.601, 0.875
1434.786, 0.000
##END=



