##NAMES=Dolomite
##RRUFFID=R040030
##IDEAL CHEMISTRY=CaMg(CO_3_)_2_
##LOCALITY=Austria
##OWNER=RRUFF
##SOURCE=University of Arizona Mineral Museum
##DESCRIPTION=Group of colorless tabular crystals
##STATUS=The identification of this mineral has been confirmed by X-ray diffraction and chemical analysis
##URL=rruff.info/R040030
##MEASURED CHEMISTRY=(Ca_0.99_Mg_0.01_)_Î£=1_Mg_1.00_(CO_3_)_2_ ; trace amounts of Mn; CO_2_ estimated by difference
##PIN_ID=M00035
##ORIENTATION=Laser parallel to -c* (0 0 -1). Fiducial mark perpendicular to laser is parallel to -a [-1 0 0]
91.398, 0.000
92.793, 27.963
94.188, 63.167
95.582, 115.506
96.976, 159.751
98.370, 200.850
99.764, 216.660
101.157, 232.546
102.550, 299.005
103.943, 300.624
105.336, 295.157
106.729, 245.500
108.121, 224.709
109.513, 276.623
110.905, 250.045
112.297, 317.795
113.688, 310.276
115.079, 300.118
116.470, 289.888
117.861, 264.413
119.251, 236.183
120.642, 165.837
122.032, 169.773
123.422, 153.556
124.811, 131.525
126.201, 143.289
127.590, 72.955
128.979, 110.393
130.367, 85.511
131.756, 85.295
133.144, 41.737
134.532, 47.914
135.920, 33.857
137.307, 14.619
138.695, 15.559
140.082, 2.557
141.469, 5.511
142.856, 3.618
144.242, 5.067
145.628, 8.148
147.014, 18.679
148.400, 27.739
149.786, 44.465
151.171, 33.052
152.556, 85.706
153.941, 57.800
155.325, 83.647
156.710, 101.351
158.094, 179.853
159.478, 141.883
160.862, 197.772
162.245, 231.389
163.629, 250.125
165.012, 293.550
166.395, 393.315
167.777, 461.732
169.160, 644.201
170.542, 979.509
171.924, 1304.920
173.306, 1973.310
174.687, 2609.316
176.068, 3242.614
177.449, 3785.805
178.830, 3685.680
180.211, 3199.052
181.591, 2273.775
182.972, 1502.067
184.351, 992.793
185.731, 567.075
187.111, 413.282
188.490, 302.514
189.869, 251.765
191.248, 182.029
192.626, 108.311
194.005, 85.603
195.383, 85.896
196.761, 53.188
198.139, 10.477
199.516, 56.765
200.893, 6.950
202.271, 4.672
203.647, 12.597
205.024, 36.145
206.400, 18.901
207.777, 21.675
209.152, 31.467
210.528, 0.261
211.904, 16.088
213.279, 30.936
214.654, 55.802
216.029, 15.687
217.403, 17.590
218.778, 13.514
220.152, 23.458
221.526, 18.579
222.900, 1.406
224.273, 19.414
225.646, 30.675
227.019, 1.960
228.392, 24.279
229.765, 19.409
231.137, 14.267
232.509, 1.958
233.881, 18.838
235.253, 27.258
236.625, 33.924
237.996, 2.410
239.367, 26.323
240.738, 0.028
242.108, 33.536
243.479, 12.991
244.849, 26.437
246.219, 12.707
247.589, 31.114
248.958, 12.581
250.328, 41.405
251.697, 72.161
253.065, 73.806
254.434, 44.062
255.803, 28.301
257.171, 26.937
258.539, 18.541
259.906, 20.635
261.274, 25.566
262.641, 21.433
264.008, 32.280
265.375, 47.252
266.742, 4.289
268.108, 18.510
269.475, 8.112
270.840, 57.065
272.206, 49.245
273.572, 22.155
274.937, 75.199
276.302, 50.603
277.667, 131.542
279.032, 90.601
280.396, 114.758
281.760, 147.778
283.125, 147.858
284.488, 130.771
285.852, 179.627
287.215, 176.373
288.578, 221.986
289.941, 300.581
291.304, 296.699
292.666, 393.155
294.029, 490.911
295.391, 545.247
296.753, 782.561
298.114, 864.731
299.476, 970.964
300.837, 1097.107
302.198, 994.184
303.558, 968.397
304.919, 855.537
306.279, 698.745
307.639, 468.883
308.999, 377.899
310.359, 333.805
311.718, 291.685
313.077, 235.516
314.436, 194.546
315.795, 182.189
317.154, 166.076
318.512, 145.588
319.870, 160.011
321.228, 174.485
322.586, 163.976
323.943, 138.338
325.300, 141.821
326.657, 171.068
328.014, 122.617
329.371, 202.155
330.727, 158.322
332.083, 213.530
333.439, 257.898
334.795, 327.150
336.150, 448.386
337.506, 541.644
338.861, 677.029
340.215, 717.245
341.570, 687.285
342.924, 617.510
344.279, 542.677
345.633, 479.661
346.986, 329.911
348.340, 220.886
349.693, 226.109
351.046, 203.035
352.399, 198.952
353.752, 138.855
355.104, 162.747
356.457, 142.696
357.809, 103.561
359.160, 128.414
360.512, 60.178
361.863, 88.624
363.214, 84.372
364.565, 126.878
365.916, 72.516
367.267, 55.938
368.617, 89.616
369.967, 60.359
371.317, 80.895
372.666, 52.822
374.016, 70.649
375.365, 96.471
376.714, 37.470
378.063, 93.885
379.411, 92.719
380.760, 21.378
382.108, 16.274
383.456, 44.654
384.803, 52.967
386.151, 58.680
387.498, 71.137
388.845, 75.757
390.192, 87.463
391.539, 89.855
392.885, 79.254
394.231, 87.412
395.577, 71.963
396.923, 96.430
398.269, 91.668
399.614, 78.955
400.959, 70.631
402.304, 64.053
403.649, 64.340
404.993, 57.565
406.337, 7.684
407.681, 16.829
409.025, 41.815
410.369, 3.929
411.712, 2.032
413.055, 13.355
414.398, 1.348
415.741, 5.066
417.084, 50.071
418.426, 11.107
419.768, 4.112
421.110, 59.019
422.452, 28.950
423.793, 55.875
425.134, 23.257
426.475, 42.648
427.816, 29.610
429.157, 29.060
430.497, 3.410
431.837, 43.933
433.177, 13.188
434.517, 46.621
435.857, 17.179
437.196, 17.949
438.535, 23.779
439.874, 7.707
441.213, 0.556
442.551, 6.443
443.889, 1.060
445.227, 10.163
446.565, 13.001
447.903, 21.822
449.240, 42.627
450.577, 37.417
451.914, 3.812
453.251, 51.938
454.588, 1.671
455.924, 62.385
457.260, 59.086
458.596, 86.772
459.932, 62.443
461.267, 76.113
462.602, 89.767
463.938, 44.409
465.272, 55.035
466.607, 31.646
467.941, 35.242
469.276, 53.822
470.610, 98.403
471.943, 74.971
473.277, 70.539
474.610, 12.094
475.944, 81.633
477.276, 12.158
478.609, 73.668
479.942, 82.170
481.274, 57.661
482.606, 42.138
483.938, 66.602
485.270, 33.054
486.601, 81.493
487.932, 7.920
489.263, 6.321
490.594, 80.720
491.925, 64.108
493.255, 21.484
494.585, 44.847
495.915, 45.197
497.245, 36.536
498.575, 8.862
499.904, 38.175
501.233, 77.475
502.562, 27.764
503.891, 36.041
505.219, 75.306
506.548, 10.560
507.876, 68.801
509.203, 10.104
510.531, 89.322
511.859, 76.230
513.186, 76.426
514.513, 91.797
515.840, 55.972
517.166, 92.229
518.493, 92.524
519.819, 95.668
521.145, 121.604
522.470, 72.734
523.796, 139.673
525.121, 110.449
526.446, 99.492
527.771, 60.405
529.096, 63.143
530.421, 66.029
531.745, 60.127
533.069, 85.732
534.393, 88.190
535.716, 45.345
537.040, 46.098
538.363, 65.213
539.686, 80.256
541.009, 93.931
542.331, 43.555
543.654, 97.413
544.976, 47.297
546.298, 73.202
547.620, 27.167
548.941, 96.139
550.263, 47.158
551.584, 31.177
552.905, 25.142
554.225, 43.145
555.546, 51.078
556.866, 83.111
558.186, 69.125
559.506, 101.077
560.826, 71.990
562.145, 94.868
563.465, 108.745
564.784, 43.584
566.103, 90.100
567.421, 71.708
568.740, 46.459
570.058, 87.503
571.376, 33.886
572.694, 118.435
574.011, 101.622
575.329, 87.570
576.646, 73.307
577.963, 101.800
579.279, 66.186
580.596, 58.939
581.912, 77.560
583.228, 115.287
584.544, 92.060
585.860, 151.718
587.175, 146.314
588.491, 114.720
589.806, 100.733
591.121, 113.380
592.435, 155.781
593.750, 90.427
595.064, 158.912
596.378, 146.008
597.692, 138.538
599.006, 179.065
600.319, 130.312
601.632, 204.281
602.945, 178.537
604.258, 164.892
605.571, 122.363
606.883, 110.769
608.195, 103.459
609.507, 129.996
610.819, 136.971
612.131, 146.629
613.442, 68.870
614.753, 118.330
616.064, 161.007
617.375, 159.753
618.685, 233.602
619.995, 247.257
621.306, 235.340
622.615, 360.852
623.925, 381.442
625.235, 459.956
626.544, 522.457
627.853, 601.962
629.162, 488.607
630.471, 497.542
631.779, 440.187
633.087, 272.490
634.395, 255.149
635.703, 225.445
637.011, 199.979
638.318, 153.580
639.625, 242.079
640.932, 252.508
642.239, 230.034
643.546, 311.415
644.852, 355.984
646.158, 359.211
647.464, 384.421
648.770, 382.973
650.076, 411.460
651.381, 372.764
652.686, 345.162
653.991, 369.557
655.296, 334.911
656.600, 322.116
657.905, 283.469
659.209, 168.984
660.513, 168.284
661.817, 113.615
663.120, 99.105
664.423, 76.305
665.726, 35.761
667.029, 73.951
668.332, 3.581
669.635, 90.888
670.937, 9.352
672.239, 93.809
673.541, 29.200
674.842, 5.655
676.144, 54.121
677.445, 31.586
678.746, 11.047
680.047, 50.516
681.348, 19.019
682.648, 12.426
683.948, 10.134
685.248, 20.755
686.548, 39.612
687.848, 10.988
689.147, 36.665
690.447, 17.292
691.746, 15.062
693.044, 77.285
694.343, 29.510
695.641, 67.810
696.940, 69.146
698.238, 70.479
699.535, 104.682
700.833, 86.009
702.130, 86.222
703.427, 150.541
704.724, 177.665
706.021, 157.975
707.318, 216.176
708.614, 225.306
709.910, 276.408
711.206, 256.583
712.502, 359.787
713.798, 348.071
715.093, 465.344
716.388, 572.620
717.683, 706.892
718.978, 878.159
720.272, 1167.424
721.567, 1545.575
722.861, 1939.834
724.155, 2395.089
725.448, 2797.249
726.742, 2671.502
728.035, 2584.612
729.328, 2161.860
730.621, 1620.107
731.914, 1300.356
733.206, 961.601
734.499, 726.844
735.791, 530.085
737.083, 432.299
738.374, 335.535
739.666, 192.767
740.957, 220.005
742.248, 179.240
743.539, 110.473
744.830, 158.712
746.120, 121.952
747.410, 118.189
748.701, 63.429
749.990, 90.667
751.280, 124.903
752.570, 35.143
753.859, 4.380
755.148, 77.615
756.437, 4.150
757.725, 39.077
759.014, 25.697
760.302, 14.511
761.590, 9.283
762.878, 4.913
764.166, 56.105
765.453, 26.295
766.740, 10.486
768.027, 53.674
769.314, 8.139
770.601, 8.038
771.887, 16.212
773.174, 46.616
774.460, 34.525
775.745, 1.336
777.031, 68.826
778.316, 14.956
779.602, 8.085
780.887, 13.212
782.172, 58.664
783.456, 45.425
784.741, 48.489
786.025, 7.567
787.309, 48.621
788.593, 11.673
789.876, 31.723
791.160, 11.228
792.443, 83.811
793.726, 75.848
795.009, 32.883
796.291, 94.917
797.574, 25.950
798.856, 27.981
800.138, 67.011
801.420, 34.041
802.702, 93.070
803.983, 57.098
805.264, 35.125
806.545, 38.151
807.826, 28.177
809.107, 28.201
810.387, 47.224
811.667, 16.248
812.947, 10.271
814.227, 20.292
815.507, 42.313
816.786, 57.334
818.065, 14.354
819.344, 61.374
820.623, 40.319
821.902, 44.338
823.180, 70.560
824.459, 25.576
825.737, 159.407
827.014, 117.365
828.292, 100.286
829.569, 238.199
830.847, 123.939
832.124, 117.962
833.401, 187.890
834.677, 143.898
835.954, 182.241
837.230, 78.092
838.506, 140.990
839.782, 102.541
841.057, 191.506
842.333, 171.352
843.608, 189.586
844.883, 195.036
846.158, 261.901
847.433, 164.902
848.707, 274.831
849.981, 177.832
851.255, 222.833
852.529, 308.833
853.803, 254.833
855.076, 303.834
856.350, 315.834
857.623, 336.835
858.895, 465.837
860.168, 407.839
861.441, 550.841
862.713, 502.844
863.985, 461.849
865.257, 458.853
866.528, 415.858
867.800, 347.864
869.071, 332.869
870.342, 262.875
871.613, 267.881
872.884, 262.887
874.154, 204.894
875.425, 175.901
876.695, 213.909
877.965, 264.918
879.234, 194.927
880.504, 318.937
881.773, 428.948
883.042, 424.959
884.311, 403.971
885.580, 299.984
886.848, 284.997
888.117, 191.011
889.385, 227.040
890.653, 167.070
891.920, 219.100
893.188, 189.132
894.455, 221.165
895.722, 224.198
896.989, 221.233
898.256, 271.275
899.523, 249.443
900.789, 213.394
902.055, 235.459
903.321, 225.525
904.587, 216.592
905.852, 161.662
907.118, 145.582
908.383, 148.654
909.648, 187.109
910.913, 198.184
912.177, 131.297
913.442, 206.317
914.706, 184.470
915.970, 162.430
917.233, 220.517
918.497, 134.599
919.760, 93.618
921.024, 92.710
922.287, 73.963
923.550, 111.988
924.812, 58.050
926.075, 94.909
927.337, 128.018
928.599, 0.729
929.861, 168.841
931.122, 91.917
932.384, 61.968
933.645, 86.044
934.906, 67.191
936.167, 74.316
937.428, 51.118
938.688, 95.189
939.948, 87.324
941.208, 141.423
942.468, 82.564
943.728, 111.750
944.987, 87.897
946.247, 146.048
947.506, 104.202
948.765, 72.360
950.023, 118.521
951.282, 64.685
952.540, 82.853
953.798, 121.024
955.056, 43.198
956.314, 132.376
957.572, 88.558
958.829, 83.743
960.086, 119.932
961.343, 22.124
962.600, 73.319
963.856, 61.519
965.113, 29.712
966.369, 58.919
967.625, 33.129
968.881, 80.343
970.136, 82.561
971.392, 55.782
972.647, 33.007
973.902, 58.764
975.157, 26.447
976.411, 26.662
977.666, 43.119
978.920, 46.086
980.174, 78.704
981.428, 19.525
982.682, 3.349
983.935, 62.170
985.188, 83.987
986.441, 25.148
987.694, 5.320
988.947, 54.497
990.199, 10.317
991.452, 63.877
992.704, 85.075
993.956, 12.278
995.207, 94.498
996.459, 65.728
997.710, 89.963
998.961, 146.202
1000.212, 212.445
1001.463, 444.693
1002.714, 535.945
1003.964, 606.201
1005.214, 489.462
1006.464, 263.726
1007.714, 169.995
1008.964, 130.407
1010.213, 97.685
1011.462, 134.967
1012.711, 81.253
1013.960, 53.543
1015.209, 107.838
1016.457, 89.137
1017.705, 157.440
1018.954, 178.748
1020.201, 199.651
1021.449, 304.376
1022.697, 249.697
1023.944, 308.022
1025.191, 329.351
1026.438, 190.685
1027.685, 289.023
1028.931, 275.366
1030.177, 195.713
1031.423, 218.064
1032.669, 192.420
1033.915, 282.780
1035.161, 181.145
1036.406, 138.514
1037.651, 213.887
1038.896, 207.553
1040.141, 157.936
1041.386, 230.322
1042.630, 263.817
1043.874, 215.212
1045.118, 267.612
1046.362, 194.016
1047.606, 339.013
1048.849, 283.030
1050.092, 264.182
1051.336, 353.620
1052.578, 373.084
1053.821, 376.530
1055.064, 347.301
1056.306, 380.777
1057.548, 423.257
1058.790, 412.746
1060.032, 487.243
1061.273, 570.465
1062.515, 509.174
1063.756, 655.729
1064.997, 732.268
1066.237, 820.811
1067.478, 920.358
1068.718, 972.924
1069.959, 1203.494
1071.199, 1361.077
1072.438, 1427.948
1073.678, 1580.544
1074.918, 1884.153
1076.157, 2146.789
1077.396, 2287.428
1078.635, 2356.044
1079.873, 2609.704
1081.112, 2712.368
1082.350, 2920.044
1083.588, 3278.723
1084.826, 3491.436
1086.064, 3820.151
1087.301, 4346.884
1088.539, 4965.623
1089.776, 6070.364
1091.013, 7117.110
1092.250, 9333.855
1093.486, 13070.611
1094.723, 18277.371
1095.959, 28144.131
1097.195, 39450.902
1098.431, 50957.668
1099.666, 52454.445
1100.902, 43081.215
1102.137, 29558.004
1103.372, 18194.791
1104.607, 11881.577
1105.842, 7748.367
1107.076, 5319.161
1108.311, 3938.959
1109.545, 3058.759
1110.779, 2339.564
1112.012, 1900.372
1113.246, 1582.185
1114.479, 1250.000
1115.712, 1082.824
1116.945, 909.651
1118.178, 845.483
1119.411, 696.318
1120.643, 588.156
1121.875, 611.997
1123.108, 500.937
1124.339, 413.786
1125.571, 458.639
1126.802, 345.553
1128.034, 317.412
1129.265, 283.138
1130.496, 311.276
1131.727, 273.297
1132.957, 209.846
1134.187, 231.724
1135.418, 234.605
1136.648, 210.491
1137.877, 165.380
1139.107, 144.954
1140.336, 35.851
1141.566, 156.750
1142.795, 52.654
1144.023, 103.561
1145.252, 88.472
1146.480, 91.386
1147.709, 58.303
1148.937, 41.224
1150.165, 46.147
1151.392, 86.074
1152.620, 21.003
1153.847, 13.936
1155.074, 66.871
1156.301, 5.190
1157.528, 91.748
1158.755, 76.689
1159.981, 18.633
1161.207, 100.579
1162.433, 13.528
1163.659, 118.478
1164.885, 79.431
1166.110, 33.385
1167.336, 112.342
1168.561, 27.302
1169.786, 34.263
1171.010, 138.226
1172.235, 97.190
1173.459, 48.157
1174.683, 85.126
1175.907, 34.097
1177.131, 96.070
1178.355, 111.044
1179.578, 73.020
1180.801, 94.997
1182.024, 57.977
1183.247, 113.957
1184.470, 53.939
1185.692, 60.077
1186.915, 98.880
1188.137, 7.889
1189.359, 3.152
1190.580, 79.807
1191.802, 26.882
1193.023, 7.844
1194.244, 32.116
1195.465, 48.166
1196.686, 34.238
1197.907, 26.590
1199.127, 0.504
1200.347, 33.435
1201.567, 5.458
1202.787, 9.453
1204.007, 90.366
1205.226, 62.485
1206.446, 103.399
1207.665, 12.686
1208.884, 2.779
1210.102, 1.126
1211.321, 9.169
1212.539, 31.218
1213.758, 67.135
1214.976, 58.394
1216.193, 94.322
1217.411, 108.509
1218.628, 17.472
1219.846, 104.423
1221.063, 30.482
1222.280, 65.448
1223.496, 102.344
1224.713, 35.320
1225.929, 68.681
1227.145, 107.659
1228.361, 72.248
1229.577, 70.219
1230.793, 150.870
1232.008, 77.865
1233.223, 237.771
1234.438, 65.676
1235.653, 130.579
1236.868, 169.479
1238.082, 165.379
1239.297, 263.281
1240.511, 201.185
1241.725, 183.088
1242.938, 246.993
1244.152, 126.899
1245.365, 203.806
1246.578, 171.713
1247.791, 87.622
1249.004, 233.531
1250.217, 222.440
1251.429, 195.352
1252.642, 199.263
1253.854, 195.366
1255.066, 184.866
1256.277, 201.003
1257.489, 173.158
1258.700, 163.073
1259.911, 151.989
1261.122, 104.160
1262.333, 223.077
1263.544, 103.143
1264.754, 138.082
1265.964, 217.000
1267.174, 203.919
1268.384, 292.022
1269.594, 273.955
1270.803, 227.139
1272.013, 307.072
1273.222, 311.014
1274.431, 309.957
1275.640, 273.917
1276.848, 329.882
1278.057, 222.848
1279.265, 243.828
1280.473, 280.808
1281.681, 245.788
1282.888, 143.769
1284.096, 110.750
1285.303, 154.733
1286.510, 73.717
1287.717, 195.701
1288.924, 101.685
1290.131, 103.643
1291.337, 213.601
1292.543, 178.524
1293.749, 145.439
1294.955, 185.354
1296.161, 176.269
1297.366, 202.160
1298.571, 190.026
1299.777, 81.873
1300.981, 134.720
1302.186, 113.392
1303.391, 138.202
1304.595, 157.990
1305.799, 53.762
1307.003, 157.508
1308.207, 216.252
1309.411, 145.993
1310.614, 265.732
1311.818, 227.469
1313.021, 279.203
1314.224, 287.935
1315.426, 252.664
1316.629, 287.391
1317.831, 317.114
1319.033, 215.834
1320.235, 294.548
1321.437, 354.246
1322.639, 233.938
1323.840, 319.625
1325.042, 178.306
1326.243, 168.979
1327.444, 278.648
1328.644, 91.312
1329.845, 175.971
1331.045, 155.336
1332.245, 41.983
1333.445, 127.625
1334.645, 113.156
1335.845, 28.784
1337.044, 98.405
1338.244, 37.022
1339.443, 56.043
1340.642, 52.046
1341.840, 51.087
1343.039, 71.496
1344.237, 47.054
1345.435, 71.366
1346.633, 62.890
1347.831, 61.446
1349.029, 8.000
1350.226, 147.548
1351.424, 115.096
1352.621, 68.921
1353.818, 57.273
1355.014, 39.216
1356.211, 22.323
1357.407, 49.878
1358.604, 42.578
1359.800, 47.956
1360.995, 25.432
1362.191, 27.104
1363.387, 128.367
1364.582, 24.083
1365.777, 22.531
1366.972, 69.225
1368.167, 34.793
1369.361, 28.624
1370.556, 39.013
1371.750, 15.381
1372.944, 41.240
1374.138, 32.070
1375.331, 36.576
1376.525, 82.029
1377.718, 94.314
1378.911, 129.439
1380.104, 136.432
1381.297, 143.362
1382.490, 198.293
1383.682, 104.224
1384.874, 151.155
1386.066, 238.085
1387.258, 101.015
1388.450, 167.945
1389.641, 175.875
1390.833, 95.803
1392.024, 149.729
1393.215, 147.643
1394.406, 107.554
1395.596, 245.464
1396.787, 153.371
1397.977, 93.275
1399.167, 108.177
1400.357, 25.077
1401.547, 112.975
1402.736, 136.871
1403.925, 5.236
1405.115, 159.653
1406.304, 37.541
1407.492, 65.425
1408.681, 230.308
1409.870, 121.189
1411.058, 35.069
1412.246, 242.948
1413.434, 28.830
1414.622, 165.713
1415.809, 166.598
1416.997, 163.485
1418.184, 100.375
1419.371, 127.268
1420.558, 142.163
1421.744, 188.061
1422.931, 202.963
1424.117, 180.869
1425.303, 221.780
1426.489, 192.696
1427.675, 226.583
1428.861, 262.555
1430.046, 253.358
1431.231, 315.234
1432.416, 342.102
1433.601, 450.081
1434.786, 489.660
1435.970, 560.590
1437.155, 696.489
1438.339, 880.411
1439.523, 942.705
1440.707, 1408.697
1441.890, 1740.403
1443.074, 1926.937
1444.257, 2119.958
1445.440, 1862.438
1446.623, 1584.272
1447.806, 1467.438
1448.989, 1342.382
1450.171, 1147.736
1451.353, 1196.093
1452.535, 1049.435
1453.717, 1137.755
1454.899, 1184.051
1456.080, 1048.322
1457.262, 1178.565
1458.443, 1104.783
1459.624, 966.970
1460.805, 1139.127
1461.985, 968.684
1463.166, 852.733
1464.346, 922.349
1465.526, 750.228
1466.706, 670.639
1467.886, 725.807
1469.065, 579.570
1470.245, 639.277
1471.424, 505.924
1472.603, 519.508
1473.782, 563.021
1474.960, 459.459
1476.139, 411.817
1477.317, 467.172
1478.495, 334.637
1479.673, 353.197
1480.851, 538.756
1482.029, 345.563
1483.206, 440.505
1484.383, 442.608
1485.560, 348.971
1486.737, 378.423
1487.914, 398.877
1489.091, 201.335
1490.267, 408.802
1491.443, 245.283
1492.619, 223.878
1493.795, 254.603
1494.971, 148.432
1496.146, 88.368
1497.322, 197.420
1498.497, 41.619
1499.672, 142.005
1500.846, 170.598
1502.021, 32.414
1503.196, 234.451
1504.370, 110.700
1505.544, 86.184
1506.718, 166.955
1507.892, 26.060
1509.065, 138.544
1510.238, 196.271
1511.412, 16.318
1512.585, 85.478
1513.758, 188.969
1514.930, 76.843
1516.103, 238.066
1517.275, 33.122
1518.447, 41.670
1519.619, 67.953
1520.791, 0.000
##END=



