##NAMES=Dolomite
##RRUFFID=R050129
##IDEAL CHEMISTRY=CaMg(CO_3_)_2_
##LOCALITY=Black Cloud mine, Leadville, Lake County, Colorado, USA
##OWNER=RRUFF
##SOURCE=Dave Bunk Minerals
##DESCRIPTION=Aggregate of colorless to white rhombohedra
##STATUS=The identification of this mineral has been confirmed by X-ray diffraction and chemical analysis
##URL=rruff.info/R050129
##MEASURED CHEMISTRY=Ca(Mg_0.62_Fe^2+^_0.33_Mn_0.05_)_Î£=1_(CO_3_)_2_ ; CO_2_ estimated by difference
##PIN_ID=M00287
##ORIENTATION=Laser parallel to a* (1 0 0). Fiducial mark perpendicular to laser is parallel to c [0 0 1]
92.793, 0.000
94.188, 52.460
95.582, 38.138
96.976, 125.657
98.370, 14.798
99.764, 2.405
101.157, 109.031
102.550, 57.452
103.943, 40.683
105.336, 37.768
106.729, 33.455
108.121, 148.869
109.513, 212.493
110.905, 281.061
112.297, 237.032
113.688, 327.292
115.079, 299.774
116.470, 321.550
117.861, 256.160
119.251, 119.316
120.642, 66.889
122.032, 47.594
123.422, 47.200
124.811, 2.208
126.201, 1.303
127.590, 38.738
128.979, 6.823
130.367, 3.417
131.756, 93.449
133.144, 52.877
134.532, 90.760
135.920, 64.155
137.307, 124.115
138.695, 169.685
140.082, 172.900
141.469, 152.792
142.856, 147.262
144.242, 167.949
145.628, 180.856
147.014, 227.337
148.400, 273.570
149.786, 334.015
151.171, 360.850
152.556, 463.580
153.941, 539.069
155.325, 650.165
156.710, 799.399
158.094, 906.017
159.478, 1151.937
160.862, 1460.502
162.245, 1794.613
163.629, 2400.095
165.012, 3002.440
166.395, 3808.941
167.777, 4441.273
169.160, 4892.191
170.542, 5118.562
171.924, 4966.712
173.306, 4460.903
174.687, 3725.064
176.068, 2990.229
177.449, 2375.499
178.830, 1755.848
180.211, 1399.249
181.591, 1077.696
182.972, 896.175
184.351, 699.680
185.731, 582.201
187.111, 457.732
188.490, 353.267
189.869, 314.793
191.248, 250.300
192.626, 233.767
194.005, 205.196
195.383, 134.582
196.761, 123.937
198.139, 89.260
199.516, 103.560
200.893, 25.834
202.271, 21.081
203.647, 14.301
205.024, 10.508
206.400, 16.353
207.777, 28.259
209.152, 17.166
210.528, 44.135
211.904, 7.853
213.279, 10.797
214.654, 13.695
216.029, 13.547
217.403, 25.355
218.778, 14.120
220.152, 11.973
221.526, 52.965
222.900, 7.375
224.273, 25.948
225.646, 6.524
227.019, 6.954
228.392, 7.391
229.765, 4.051
231.137, 36.685
232.509, 42.333
233.881, 58.936
235.253, 85.297
236.625, 59.799
237.996, 81.604
239.367, 102.997
240.738, 103.955
242.108, 178.047
243.479, 178.009
244.849, 138.374
246.219, 251.968
247.589, 241.712
248.958, 299.547
250.328, 327.283
251.697, 422.733
253.065, 423.103
254.434, 485.338
255.803, 532.760
257.171, 611.106
258.539, 668.679
259.906, 776.975
261.274, 895.307
262.641, 995.868
264.008, 1130.620
265.375, 1274.261
266.742, 1473.424
268.108, 1627.274
269.475, 1847.088
270.840, 2133.617
272.206, 2405.174
273.572, 2776.450
274.937, 3123.662
276.302, 3603.780
277.667, 4122.711
279.032, 4602.735
280.396, 5303.435
281.760, 5991.146
283.125, 6636.775
284.488, 7356.044
285.852, 8181.040
287.215, 8605.943
288.578, 9040.668
289.941, 9184.538
291.304, 9148.500
292.666, 8909.514
294.029, 8426.636
295.391, 7815.260
296.753, 6993.761
298.114, 6005.871
299.476, 5219.188
300.837, 4484.270
302.198, 3766.610
303.558, 3182.074
304.919, 2683.530
306.279, 2297.871
307.639, 1903.005
308.999, 1627.332
310.359, 1431.516
311.718, 1231.751
313.077, 1115.044
314.436, 967.115
315.795, 843.926
317.154, 748.704
318.512, 691.234
319.870, 633.767
321.228, 585.255
322.586, 592.660
323.943, 534.079
325.300, 495.361
326.657, 439.597
328.014, 445.797
329.371, 393.956
330.727, 404.080
332.083, 398.115
333.439, 359.121
334.795, 363.964
336.150, 337.815
337.506, 347.841
338.861, 307.725
340.215, 295.456
341.570, 269.344
342.924, 270.160
344.279, 243.953
345.633, 216.586
346.986, 215.193
348.340, 205.892
349.693, 163.447
351.046, 166.029
352.399, 516.635
353.752, 633.201
355.104, 640.529
356.457, 591.990
357.809, 481.132
359.160, 528.954
360.512, 141.674
361.863, 124.139
363.214, 100.698
364.565, 100.429
365.916, 85.037
367.267, 95.472
368.617, 71.656
369.967, 71.449
371.317, 72.476
372.666, 44.181
374.016, 62.175
375.365, 54.298
376.714, 47.497
378.063, 28.754
379.411, 13.987
380.760, 14.423
382.108, 51.641
383.456, 9.775
384.803, 53.519
386.151, 44.473
387.498, 32.821
388.845, 26.980
390.192, 48.869
391.539, 14.752
392.885, 1.518
394.231, 8.862
395.577, 38.287
396.923, 26.147
398.269, 44.393
399.614, 28.109
400.959, 1.766
402.304, 15.542
403.649, 8.296
404.993, 15.666
406.337, 34.660
407.681, 9.858
409.025, 11.377
410.369, 24.519
411.712, 37.715
413.055, 9.879
414.398, 8.003
415.741, 3.100
417.084, 3.170
418.426, 7.214
419.768, 56.231
421.110, 40.204
422.452, 3.864
423.793, 55.022
425.134, 8.121
426.475, 21.684
427.816, 22.503
429.157, 34.233
430.497, 3.043
431.837, 17.699
433.177, 13.320
434.517, 24.998
435.857, 38.562
437.196, 25.253
438.535, 38.821
439.874, 3.219
441.213, 47.692
442.551, 28.090
443.889, 31.442
445.227, 62.946
446.565, 59.317
447.903, 29.579
449.240, 48.867
450.577, 44.158
451.914, 39.518
453.251, 56.692
454.588, 62.870
455.924, 61.365
457.260, 49.458
458.596, 62.580
459.932, 56.765
461.267, 57.347
462.602, 54.852
463.938, 55.870
465.272, 46.963
466.607, 40.972
467.941, 70.940
469.276, 30.147
470.610, 59.979
471.943, 59.892
473.277, 25.747
474.610, 50.528
475.944, 82.349
477.276, 62.347
478.609, 104.094
479.942, 86.766
481.274, 81.462
482.606, 86.262
483.938, 65.934
485.270, 82.552
486.601, 79.286
487.932, 76.108
489.263, 75.433
490.594, 74.051
491.925, 86.542
493.255, 85.090
494.585, 117.565
495.915, 109.119
497.245, 60.635
498.575, 88.097
499.904, 118.557
501.233, 74.009
502.562, 84.405
503.891, 82.792
505.219, 141.268
506.548, 120.701
507.876, 84.967
509.203, 127.154
510.531, 98.109
511.859, 85.031
513.186, 87.210
514.513, 82.511
515.840, 88.618
517.166, 98.820
518.493, 97.932
519.819, 109.024
521.145, 123.726
522.470, 114.335
523.796, 98.927
525.121, 107.420
526.446, 106.845
527.771, 98.340
529.096, 114.711
530.421, 110.091
531.745, 134.491
533.069, 131.755
534.393, 97.145
535.716, 115.507
537.040, 119.838
538.363, 99.021
539.686, 120.081
541.009, 139.144
542.331, 120.479
543.654, 99.504
544.976, 97.838
546.298, 120.133
547.620, 117.348
548.941, 106.526
550.263, 114.839
551.584, 98.920
552.905, 107.793
554.225, 97.827
555.546, 149.086
556.866, 119.465
558.186, 120.700
559.506, 107.879
560.826, 85.829
562.145, 108.893
563.465, 98.892
564.784, 84.933
566.103, 101.782
567.421, 90.187
568.740, 85.187
570.058, 100.290
571.376, 83.451
572.694, 102.418
574.011, 74.363
575.329, 84.261
576.646, 84.153
577.963, 72.072
579.279, 79.260
580.596, 72.173
581.912, 67.082
583.228, 56.241
584.544, 69.745
585.860, 44.757
587.175, 56.768
588.491, 27.829
589.806, 61.686
591.121, 54.670
592.435, 31.616
593.750, 49.622
595.064, 10.683
596.378, 43.681
597.692, 64.729
599.006, 36.574
600.319, 46.648
601.632, 52.641
602.945, 4.673
604.258, 28.809
605.571, 76.918
606.883, 34.079
608.195, 26.148
609.507, 3.206
610.819, 45.184
612.131, 37.253
613.442, 8.658
614.753, 70.417
616.064, 31.438
617.375, 36.528
618.685, 22.570
619.995, 17.613
621.306, 29.643
622.615, 4.674
623.925, 17.664
625.235, 20.625
626.544, 8.293
627.853, 43.757
629.162, 15.505
630.471, 22.526
631.779, 33.638
633.087, 17.613
634.395, 5.700
635.703, 26.554
637.011, 54.742
638.318, 26.855
639.625, 1.057
640.932, 21.081
642.239, 28.096
643.546, 0.840
644.852, 42.084
646.158, 21.045
647.464, 11.090
648.770, 36.504
650.076, 17.597
651.381, 29.675
652.686, 5.886
653.991, 9.668
655.296, 17.028
656.600, 12.108
657.905, 9.312
659.209, 17.328
660.513, 14.386
661.817, 2.565
663.120, 5.386
664.423, 2.785
665.726, 7.834
667.029, 16.994
668.332, 23.097
669.635, 49.144
670.937, 33.200
672.239, 3.235
673.541, 9.293
674.842, 26.393
676.144, 72.489
677.445, 24.612
678.746, 31.732
680.047, 3.850
681.348, 31.953
682.648, 44.066
683.948, 17.178
685.248, 60.283
686.548, 55.391
687.848, 26.498
689.147, 89.604
690.447, 69.714
691.746, 44.057
693.044, 93.158
694.343, 63.259
695.641, 65.358
696.940, 125.458
698.238, 125.557
699.535, 125.655
700.833, 140.753
702.130, 164.850
703.427, 193.945
704.724, 208.040
706.021, 306.135
707.318, 329.228
708.614, 426.320
709.910, 507.414
711.206, 629.507
712.502, 814.600
713.798, 991.700
715.093, 1211.811
716.388, 1470.922
717.683, 1778.033
718.978, 1916.144
720.272, 1998.182
721.567, 2103.371
722.861, 1903.496
724.155, 1771.624
725.448, 1479.753
726.742, 1196.880
728.035, 1024.007
729.328, 768.135
730.621, 685.263
731.914, 519.391
733.206, 376.521
734.499, 367.650
735.791, 304.779
737.083, 265.908
738.374, 233.035
739.666, 185.173
740.957, 160.041
742.248, 133.867
743.539, 102.885
744.830, 105.901
746.120, 79.281
747.410, 55.790
748.701, 53.831
749.990, 59.884
751.280, 66.919
752.570, 38.018
753.859, 38.150
755.148, 38.224
756.437, 39.835
757.725, 7.967
759.014, 12.600
760.302, 13.965
761.590, 0.095
762.878, 10.169
764.166, 6.212
765.453, 31.840
766.740, 19.263
768.027, 59.334
769.314, 39.065
770.601, 13.173
771.887, 7.226
773.174, 18.302
774.460, 25.036
775.745, 38.394
777.031, 19.850
778.316, 19.962
779.602, 18.970
780.887, 26.992
782.172, 1.751
783.456, 9.144
784.741, 17.853
786.025, 0.119
787.309, 16.955
788.593, 24.036
789.876, 0.235
791.160, 23.086
792.443, 50.165
793.726, 54.197
795.009, 5.102
796.291, 10.113
797.574, 13.293
798.856, 11.191
800.138, 12.109
801.420, 7.650
802.702, 2.406
803.983, 6.641
805.264, 24.610
806.545, 70.632
807.826, 44.555
809.107, 23.604
810.387, 59.578
811.667, 15.533
812.947, 62.477
814.227, 43.457
815.507, 50.440
816.786, 47.301
818.065, 25.082
819.344, 63.009
820.623, 68.958
821.902, 48.947
823.180, 33.964
824.459, 40.007
825.737, 27.862
827.014, 33.375
828.292, 27.960
829.569, 52.000
830.847, 65.045
832.124, 90.082
833.401, 110.127
834.677, 30.080
835.954, 78.125
837.230, 32.170
838.506, 82.185
839.782, 52.230
841.057, 66.275
842.333, 32.321
843.608, 6.367
844.883, 18.587
846.158, 27.448
847.433, 49.483
848.707, 62.518
849.981, 54.553
851.255, 60.052
852.529, 47.626
853.803, 41.662
855.076, 34.699
856.350, 12.737
857.623, 29.775
858.895, 34.813
860.168, 12.852
861.441, 52.891
862.713, 14.931
863.985, 37.971
865.257, 95.012
866.528, 40.053
867.800, 58.095
869.071, 84.138
870.342, 109.181
871.613, 123.225
872.884, 97.270
874.154, 103.315
875.425, 81.361
876.695, 103.407
877.965, 89.189
879.234, 89.503
880.504, 62.552
881.773, 73.602
883.042, 31.652
884.311, 33.464
885.580, 18.756
886.848, 22.810
888.117, 18.864
889.385, 17.919
890.653, 13.975
891.920, 4.032
893.188, 28.910
894.455, 11.866
895.722, 31.593
896.989, 14.195
898.256, 37.781
899.523, 4.775
900.789, 13.228
902.055, 15.767
903.321, 1.231
904.587, 14.230
905.852, 7.230
907.118, 18.231
908.383, 25.766
909.648, 31.224
910.913, 20.187
912.177, 40.171
913.442, 5.165
914.706, 7.977
915.970, 7.960
917.233, 42.928
918.497, 32.955
919.760, 35.029
921.024, 17.966
922.287, 9.976
923.550, 15.988
924.812, 1.952
926.075, 14.002
927.337, 6.991
928.599, 7.981
929.861, 2.973
931.122, 30.035
932.384, 20.046
933.645, 14.059
934.906, 30.929
936.167, 7.226
937.428, 13.247
938.688, 53.033
939.948, 4.058
941.208, 13.504
942.468, 7.704
943.728, 39.326
944.987, 12.359
946.247, 45.394
947.506, 53.397
948.765, 13.562
950.023, 69.497
951.282, 23.682
952.540, 35.816
953.798, 17.862
955.056, 42.535
956.314, 48.581
957.572, 25.635
958.829, 13.693
960.086, 5.247
961.343, 36.815
962.600, 33.881
963.856, 17.953
965.113, 77.028
966.369, 0.890
967.625, 20.194
968.881, 19.283
970.136, 49.375
971.392, 14.470
972.647, 23.570
973.902, 5.671
975.157, 44.776
976.411, 47.884
977.666, 54.994
978.920, 52.108
980.174, 68.062
981.428, 66.125
982.682, 86.487
983.935, 71.621
985.188, 54.762
986.441, 59.905
987.694, 66.052
988.947, 73.200
990.199, 75.353
991.452, 49.508
992.704, 75.667
993.956, 74.828
995.207, 47.986
996.459, 69.914
997.710, 114.084
998.961, 70.258
1000.212, 56.434
1001.463, 105.619
1002.714, 122.814
1003.964, 91.016
1005.214, 144.222
1006.464, 92.430
1007.714, 114.642
1008.964, 132.856
1010.213, 135.074
1011.462, 130.295
1012.711, 163.520
1013.960, 115.753
1015.209, 171.998
1016.457, 187.250
1017.705, 167.510
1018.954, 208.774
1020.201, 188.041
1021.449, 197.325
1022.697, 198.611
1023.944, 235.902
1025.191, 251.196
1026.438, 197.493
1027.685, 237.803
1028.931, 262.116
1030.177, 254.437
1031.423, 290.768
1032.669, 294.103
1033.915, 306.440
1035.161, 337.788
1036.406, 345.255
1037.651, 387.495
1038.896, 379.854
1040.141, 388.184
1041.386, 406.542
1042.630, 393.934
1043.874, 411.568
1045.118, 416.198
1046.362, 431.691
1047.606, 524.080
1048.849, 511.225
1050.092, 550.248
1051.336, 539.651
1052.578, 580.123
1053.821, 568.455
1055.064, 634.872
1056.306, 636.292
1057.548, 679.716
1058.790, 737.656
1060.032, 774.479
1061.273, 861.531
1062.515, 898.975
1063.756, 967.422
1064.997, 1057.875
1066.237, 1146.346
1067.478, 1381.810
1068.718, 1402.287
1069.959, 1630.769
1071.199, 1743.253
1072.438, 1859.829
1073.678, 2085.320
1074.918, 2189.815
1076.157, 2502.600
1077.396, 2888.745
1078.635, 3386.852
1079.873, 4071.203
1081.112, 5029.722
1082.350, 6362.245
1083.588, 8222.776
1084.826, 10821.312
1086.064, 14769.854
1087.301, 20368.396
1088.539, 27536.943
1089.776, 38235.500
1091.013, 45564.062
1092.250, 49022.340
1093.486, 46750.902
1094.723, 38799.523
1095.959, 29178.098
1097.195, 20536.680
1098.431, 13874.724
1099.666, 9173.316
1100.902, 6396.912
1102.137, 4374.516
1103.372, 3345.123
1104.607, 2447.735
1105.842, 1944.350
1107.076, 1582.967
1108.311, 1357.588
1109.545, 1104.172
1110.779, 984.846
1112.012, 828.225
1113.246, 785.858
1114.479, 649.305
1115.712, 630.986
1116.945, 535.627
1118.178, 509.270
1119.411, 563.020
1120.643, 570.668
1121.875, 604.319
1123.108, 402.990
1124.339, 407.645
1125.571, 368.349
1126.802, 329.012
1128.034, 316.677
1129.265, 264.519
1130.496, 273.186
1131.727, 173.854
1132.957, 177.999
1134.187, 240.675
1135.418, 173.348
1136.648, 196.025
1137.877, 186.771
1139.107, 226.449
1140.336, 147.142
1141.566, 93.856
1142.795, 189.584
1144.023, 178.269
1145.252, 94.975
1146.480, 185.667
1147.709, 135.360
1148.937, 148.400
1150.165, 107.424
1151.392, 101.307
1152.620, 109.025
1153.847, 106.723
1155.074, 106.600
1156.301, 105.921
1157.528, 103.895
1158.755, 113.602
1159.981, 106.435
1161.207, 140.338
1162.433, 65.982
1163.659, 91.800
1164.885, 46.608
1166.110, 59.311
1167.336, 91.165
1168.561, 73.952
1169.786, 89.654
1171.010, 105.668
1172.235, 61.370
1173.459, 83.073
1174.683, 69.067
1175.907, 47.831
1177.131, 89.369
1178.355, 85.032
1179.578, 55.751
1180.801, 85.537
1182.024, 72.746
1183.247, 79.298
1184.470, 82.165
1185.692, 87.398
1186.915, 80.092
1188.137, 68.784
1189.359, 73.476
1190.580, 85.166
1191.802, 53.925
1193.023, 42.736
1194.244, 88.254
1195.465, 42.071
1196.686, 46.593
1197.907, 11.319
1199.127, 37.068
1200.347, 69.782
1201.567, 51.376
1202.787, 63.087
1204.007, 37.796
1205.226, 61.708
1206.446, 45.481
1207.665, 56.248
1208.884, 52.066
1210.102, 45.772
1211.321, 61.953
1212.539, 2.656
1213.758, 80.156
1214.976, 17.204
1216.193, 108.166
1217.411, 44.860
1218.628, 2.373
1219.846, 80.316
1221.063, 32.008
1222.280, 41.812
1223.496, 58.533
1224.713, 53.138
1225.929, 63.902
1227.145, 37.791
1228.361, 57.531
1229.577, 81.889
1230.793, 44.589
1232.008, 61.313
1233.223, 54.999
1234.438, 55.676
1235.653, 69.353
1236.868, 64.096
1238.082, 53.772
1239.297, 60.489
1240.511, 8.166
1241.725, 38.844
1242.938, 46.520
1244.152, 17.194
1245.365, 43.866
1246.578, 56.533
1247.791, 23.199
1249.004, 66.863
1250.217, 34.527
1251.429, 65.189
1252.642, 58.851
1253.854, 43.500
1255.066, 8.266
1256.277, 13.910
1257.489, 8.489
1258.700, 63.189
1259.911, 9.175
1261.122, 13.455
1262.333, 67.084
1263.544, 29.696
1264.754, 6.300
1265.964, 38.901
1267.174, 47.500
1268.384, 25.095
1269.594, 38.671
1270.803, 19.231
1272.013, 29.787
1273.222, 30.323
1274.431, 29.146
1275.640, 31.358
1276.848, 61.854
1278.057, 1.666
1279.265, 31.798
1280.473, 40.255
1281.681, 32.708
1282.888, 17.158
1284.096, 36.604
1285.303, 31.033
1286.510, 26.451
1287.717, 23.865
1288.924, 75.269
1290.131, 31.668
1291.337, 38.054
1292.543, 55.434
1293.749, 14.194
1294.955, 13.839
1296.161, 11.499
1297.366, 31.830
1298.571, 37.154
1299.777, 36.472
1300.981, 33.777
1302.186, 25.064
1303.391, 36.341
1304.595, 12.611
1305.799, 11.126
1307.003, 22.875
1308.207, 9.638
1309.411, 9.414
1310.614, 85.800
1311.818, 12.006
1313.021, 40.795
1314.224, 69.383
1315.426, 4.553
1316.629, 45.714
1317.831, 53.868
1319.033, 27.987
1320.235, 25.141
1321.437, 4.739
1322.639, 22.631
1323.840, 35.461
1325.042, 19.545
1326.243, 15.378
1327.444, 91.685
1328.644, 0.258
1329.845, 57.789
1331.045, 208.830
1332.245, 265.864
1333.445, 200.069
1334.645, 82.912
1335.845, 25.926
1337.044, 16.935
1338.244, 20.064
1339.443, 16.924
1340.642, 4.094
1341.840, 37.880
1343.039, 31.848
1344.237, 64.810
1345.435, 5.233
1346.633, 43.716
1347.831, 46.660
1349.029, 10.400
1350.226, 26.531
1351.424, 27.458
1352.621, 17.382
1353.818, 83.304
1355.014, 1.222
1356.211, 49.136
1357.407, 3.965
1358.604, 3.942
1359.800, 6.848
1360.995, 53.754
1362.191, 22.661
1363.387, 56.483
1364.582, 39.395
1365.777, 16.312
1366.972, 32.234
1368.167, 5.835
1369.361, 22.103
1370.556, 10.142
1371.750, 7.890
1372.944, 1.785
1374.138, 36.014
1375.331, 30.450
1376.525, 39.881
1377.718, 78.307
1378.911, 66.727
1380.104, 27.092
1381.297, 44.485
1382.490, 34.057
1383.682, 70.283
1384.874, 43.674
1386.066, 66.058
1387.258, 71.308
1388.450, 65.844
1389.641, 95.226
1390.833, 82.566
1392.024, 70.781
1393.215, 106.087
1394.406, 64.354
1395.596, 111.661
1396.787, 111.379
1397.977, 19.086
1399.167, 63.348
1400.357, 104.523
1401.547, 82.762
1402.736, 165.914
1403.925, 107.140
1405.115, 138.381
1406.304, 152.164
1407.492, 97.782
1408.681, 151.952
1409.870, 153.030
1411.058, 214.007
1412.246, 177.875
1413.434, 196.914
1414.622, 203.770
1415.809, 199.469
1416.997, 240.028
1418.184, 302.700
1419.371, 277.329
1420.558, 244.312
1421.744, 387.794
1422.931, 372.784
1424.117, 383.615
1425.303, 420.438
1426.489, 426.157
1427.675, 499.880
1428.861, 584.142
1430.046, 609.792
1431.231, 701.042
1432.416, 734.738
1433.601, 759.250
1434.786, 831.606
1435.970, 844.395
1437.155, 959.567
1438.339, 903.021
1439.523, 850.428
1440.707, 736.951
1441.890, 778.173
1443.074, 613.731
1444.257, 575.684
1445.440, 544.663
1446.623, 412.878
1447.806, 428.163
1448.989, 336.266
1450.171, 341.376
1451.353, 356.519
1452.535, 287.630
1453.717, 185.720
1454.899, 263.761
1456.080, 168.750
1457.262, 233.453
1458.443, 180.393
1459.624, 134.279
1460.805, 179.103
1461.985, 154.961
1463.166, 89.777
1464.346, 121.584
1465.526, 122.458
1466.706, 116.389
1467.886, 116.372
1469.065, 161.431
1470.245, 52.502
1471.424, 141.532
1472.603, 96.626
1473.782, 78.729
1474.960, 129.848
1476.139, 52.990
1477.317, 128.180
1478.495, 70.368
1479.673, 64.575
1480.851, 138.912
1482.029, 2.277
1483.206, 108.655
1484.383, 149.049
1485.560, 108.465
1486.737, 84.919
1487.914, 113.419
1489.091, 69.976
1490.267, 97.597
1491.443, 63.288
1492.619, 52.047
1493.795, 48.876
1494.971, 0.215
1496.146, 22.783
1497.322, 70.878
1498.497, 55.082
1499.672, 21.398
1500.846, 73.844
1502.021, 34.445
1503.196, 69.220
1504.370, 15.194
1505.544, 12.366
1506.718, 63.837
1507.892, 30.631
1509.065, 75.820
1510.238, 88.497
1511.412, 1.189
1512.585, 44.955
1513.758, 0.136
1514.930, 0.000
##END=



