##NAMES=Dolomite
##RRUFFID=R050357
##IDEAL CHEMISTRY=CaMg(CO_3_)_2_
##LOCALITY=Black Rock, Lawrence County, Arkansas, USA
##OWNER=RRUFF
##SOURCE=California Institute of Technology
##DESCRIPTION=Aggregate of pale pink curved saddle-shaped crystals
##STATUS=The identification of this mineral has been confirmed by X-ray diffraction and chemical analysis
##URL=rruff.info/R050357
##MEASURED CHEMISTRY=Ca_1.00_(Mg_0.98_Fe^2+^_0.02_)_Î£=1_(CO_3_)_2_ ; CO_2_ estimated by difference
##PIN_ID=L01901
##ORIENTATION=Laser parallel to a* (1 0 0). Fiducial mark perpendicular to laser is parallel to c [0 0 1]
109.5120, 0.0000000E+00
110.7440, 63.48584
111.9760, 15.04980
113.2080, 0.4707030
114.4400, 45.86621
115.6710, 50.75293
116.9030, 74.24951
118.1340, 115.6855
119.3650, 65.43848
120.5960, 12.66064
121.8270, 39.24707
123.0580, 49.04297
124.2880, 12.37109
125.5190, 51.92383
126.7490, 36.85938
127.9790, 58.37695
129.2090, 103.4263
130.4390, 163.9600
131.6680, 73.93604
132.8980, 79.31738
134.1270, 119.0737
135.3560, 68.17627
136.5850, 119.6025
137.8140, 211.3325
139.0430, 183.3462
140.2710, 206.6299
141.5000, 180.1660
142.7280, 228.9419
143.9560, 285.9463
145.1840, 212.1675
146.4120, 252.5957
147.6390, 217.2153
148.8670, 219.0098
150.0940, 318.9653
151.3210, 327.0698
152.5490, 413.3174
153.7750, 505.7007
155.0020, 483.2158
156.2290, 640.8574
157.4550, 553.6221
158.6810, 640.5049
159.9080, 875.5034
161.1340, 1170.618
162.3590, 1326.844
163.5850, 1670.181
164.8110, 2211.622
166.0360, 2966.167
167.2610, 3628.810
168.4860, 4391.550
169.7110, 5201.382
170.9360, 6307.307
172.1610, 7893.321
173.3850, 9743.423
174.6100, 11382.61
175.8340, 12258.88
177.0580, 11521.23
178.2820, 10026.67
179.5050, 7933.173
180.7290, 5987.758
181.9520, 4188.418
183.1760, 3164.143
184.3990, 2217.882
185.6220, 1691.603
186.8450, 1296.331
188.0670, 880.0728
189.2900, 857.8296
190.5120, 696.6084
191.7340, 560.4116
192.9560, 531.2441
194.1780, 440.1245
195.4000, 335.0508
196.6220, 292.0288
197.8430, 213.0547
199.0640, 354.1274
200.2860, 218.2471
201.5070, 298.4258
202.7270, 235.6523
203.9480, 109.9160
205.1690, 165.2168
206.3890, 168.5737
207.6090, 115.9849
208.8290, 192.4551
210.0490, 176.0000
211.2690, 195.6147
212.4890, 247.7480
213.7080, 201.9922
214.9280, 305.7559
216.1470, 461.5640
217.3660, 439.4053
218.5850, 584.2793
219.8030, 764.1855
221.0220, 896.1235
222.2400, 1157.095
223.4590, 1477.098
224.6770, 1567.463
225.8950, 1602.364
227.1120, 1717.359
228.3300, 1431.513
229.5480, 1219.698
230.7650, 1040.923
231.9820, 847.8828
233.1990, 679.5078
234.4160, 549.8613
235.6330, 505.2446
236.8490, 385.6567
238.0660, 367.0977
239.2820, 227.5664
240.4980, 345.0708
241.7140, 200.6060
242.9300, 353.1680
244.1460, 215.7578
245.3610, 170.3740
246.5770, 201.0210
247.7920, 286.7163
249.0070, 200.4482
250.2220, 270.2061
251.4370, 239.9893
252.6510, 244.7974
253.8660, 290.6299
255.0800, 306.4868
256.2940, 162.7144
257.5080, 386.2217
258.7220, 547.6157
259.9360, 479.7500
261.1490, 363.8071
262.3630, 463.9609
263.5760, 321.2573
264.7890, 446.6440
266.0020, 463.1143
267.2150, 476.3682
268.4270, 588.9897
269.6400, 632.6812
270.8520, 698.2271
272.0640, 703.0464
273.2760, 908.9253
274.4880, 1097.860
275.7000, 1084.849
276.9120, 1201.083
278.1230, 1448.798
279.3340, 1743.936
280.5450, 1943.120
281.7560, 2301.499
282.9670, 2691.770
284.1780, 3396.114
285.3880, 3902.061
286.5980, 4721.452
287.8090, 5921.880
289.0190, 7318.346
290.2290, 8703.274
291.4380, 10428.81
292.6480, 12471.12
293.8570, 14697.72
295.0670, 16843.35
296.2760, 19560.02
297.4850, 21637.72
298.6930, 23165.44
299.9020, 23000.21
301.1110, 21528.99
302.3190, 18869.57
303.5270, 15808.41
304.7350, 12965.27
305.9430, 10255.16
307.1510, 8062.517
308.3580, 6434.458
309.5660, 5186.133
310.7730, 4084.125
311.9800, 3390.976
313.1870, 2902.015
314.3940, 2431.076
315.6010, 2119.159
316.8070, 1818.762
318.0130, 1566.889
319.2200, 1336.882
320.4260, 1211.977
321.6310, 995.1646
322.8370, 957.3721
324.0430, 929.6040
325.2480, 806.8569
326.4540, 811.1270
327.6590, 744.4146
328.8640, 707.7207
330.0680, 736.0454
331.2730, 859.3872
332.4780, 749.7617
333.6820, 943.1592
334.8860, 890.5752
336.0900, 931.0083
337.2940, 873.4600
338.4980, 803.1021
339.7010, 869.5908
340.9050, 706.0957
342.1080, 631.6182
343.3110, 645.1577
344.5140, 446.7246
345.7170, 391.3086
346.9200, 353.9150
348.1220, 331.5376
349.3240, 235.9614
350.5270, 203.6157
351.7290, 193.2861
352.9310, 198.9102
354.1320, 179.3091
355.3340, 284.0278
356.5350, 188.7607
357.7370, 139.5068
358.9380, 189.2671
360.1390, 103.0415
361.3400, 49.82910
362.5400, 71.62988
363.7410, 138.4443
364.9410, 83.27246
366.1410, 182.1138
367.3410, 220.9673
368.5410, 242.5747
369.7410, 127.4561
370.9400, 183.4561
372.1400, 158.3613
373.3390, 153.2842
374.5380, 114.2192
375.7370, 114.1655
376.9360, 77.12256
378.1350, 96.09180
379.3330, 45.07617
380.5310, 33.21289
381.7300, 76.62451
382.9280, 27.67139
384.1260, 68.55273
385.3230, 27.92480
386.5210, 59.98584
387.7180, 27.04346
388.9160, 33.25000
390.1130, 122.1875
391.3100, 40.27441
392.5060, 57.36963
393.7030, 63.28027
394.9000, 18.60547
396.0960, 110.7285
397.2920, 51.86035
398.4880, 79.01562
399.6840, 145.1650
400.8800, 14.58301
402.0750, 22.59277
403.2710, 54.78809
404.4660, 130.0566
405.6610, 131.3550
406.8560, 124.3335
408.0510, 113.2256
409.2450, 89.50732
410.4400, 9.193359
411.6340, 24.12061
412.8280, 16.44971
414.0220, 11.79248
415.2160, 38.15039
416.4100, 23.67920
417.6030, 70.90674
418.7970, 5.304688
419.9900, 8.284668
421.1830, 43.86377
422.3760, 20.55469
423.5690, 102.9849
424.7610, 32.57227
425.9540, 71.87109
427.1460, 0.6738280
428.3380, 41.20850
429.5300, 7.253906
430.7220, 27.72705
431.9140, 91.21094
433.1050, 36.29492
434.2970, 104.1973
435.4880, 42.30078
436.6790, 67.19580
437.8700, 58.70264
439.0610, 71.61426
440.2510, 54.14014
441.4420, 128.6758
442.6320, 1.220215
443.8220, 78.77295
445.0120, 59.66504
446.2020, 100.8818
447.3910, 72.43701
448.5810, 18.00049
449.7700, 70.42676
450.9600, 7.124023
452.1490, 56.31641
453.3370, 129.6162
454.5260, 57.83301
455.7150, 105.7007
456.9030, 82.24219
458.0910, 121.7920
459.2800, 30.65137
460.4670, 28.89893
461.6550, 35.54297
462.8430, 33.00586
464.0300, 110.5620
465.2180, 71.12549
466.4050, 28.79834
467.5920, 5.375488
468.7790, 37.95850
469.9650, 121.5488
471.1520, 122.1445
472.3380, 128.7476
473.5250, 63.35693
474.7110, 36.08691
475.8970, 48.82275
477.0820, 103.4531
478.2680, 137.0928
479.4540, 17.73779
480.6390, 36.61133
481.8240, 75.23975
483.0090, 17.88232
484.1940, 109.5303
485.3780, 21.18311
486.5630, 53.29053
487.7470, 121.1328
488.9320, 125.1782
490.1160, 79.86279
491.3000, 6.447754
492.4830, 38.23877
493.6670, 141.9287
494.8500, 8.582520
496.0340, 40.88525
497.2170, 89.79248
498.4000, 61.47412
499.5820, 86.15918
500.7650, 30.84863
501.9480, 144.5415
503.1300, 55.23828
504.3120, 62.93848
505.4940, 113.6426
506.6760, 57.57031
507.8580, 146.2812
509.0390, 77.99512
510.2210, 1.748047
511.4020, 86.96631
512.5830, 14.68506
513.7640, 48.40967
514.9450, 175.3408
516.1250, 88.07471
517.3060, 123.8110
518.4860, 125.5508
519.6660, 199.3013
520.8460, 165.9712
522.0260, 16.72754
523.2060, 8.485840
524.3850, 3.757324
525.5650, 18.70947
526.7440, 11.21582
527.9230, 25.46240
529.1020, 94.19922
530.2810, 86.93799
531.4590, 161.6797
532.6380, 128.4229
533.8160, 122.1675
534.9940, 101.9146
536.1720, 27.66309
537.3500, 184.4136
538.5270, 100.1665
539.7050, 28.92041
540.8820, 104.6763
542.0590, 24.43311
543.2360, 76.89697
544.4130, 62.65869
545.5900, 27.42090
546.7660, 13.18359
547.9430, 66.94385
549.1190, 112.7046
550.2950, 53.46582
551.4710, 98.62500
552.6470, 106.2041
553.8220, 200.9722
554.9980, 63.74023
556.1730, 168.5093
557.3480, 42.27881
558.5230, 135.0483
559.6980, 136.8198
560.8730, 72.59180
562.0470, 105.1694
563.2220, 206.3193
564.3960, 142.1035
565.5700, 141.8882
566.7440, 45.52197
567.9170, 61.31299
569.0910, 97.07178
570.2640, 70.26758
571.4380, 38.05811
572.6110, 60.84863
573.7840, 79.63818
574.9570, 101.0000
576.1290, 170.7886
577.3020, 70.83496
578.4740, 97.62256
579.6460, 13.41797
580.8180, 49.20850
581.9900, 53.84326
583.1620, 77.78857
584.3330, 104.5610
585.5040, 98.34863
586.6760, 127.3711
587.8470, 104.1577
589.0180, 130.9438
590.1880, 96.72949
591.3590, 136.0776
592.5290, 80.86230
593.7000, 8.936035
594.8700, 131.7158
596.0400, 49.66260
597.2090, 69.44385
598.3790, 56.22363
599.5490, 118.0034
600.7180, 125.2832
601.8870, 101.0615
603.0560, 98.06592
604.2250, 47.84180
605.3940, 110.6167
606.5620, 7.608887
607.7300, 58.15430
608.8990, 69.91504
610.0670, 116.6758
611.2350, 127.4360
612.4020, 39.19482
613.5700, 106.9526
614.7370, 41.29102
615.9050, 6.903320
617.0720, 151.8130
618.2390, 63.42334
619.4060, 142.1367
620.5720, 36.84863
621.7390, 12.38574
622.9050, 38.09277
624.0710, 33.89160
625.2370, 134.6235
626.4030, 28.83887
627.5690, 16.86768
628.7340, 10.42969
629.9000, 100.2588
631.0650, 103.9482
632.2300, 94.84814
633.3950, 62.53027
634.5600, 0.2089840
635.7240, 111.5273
636.8890, 43.50098
638.0530, 61.16797
639.2170, 87.83252
640.3810, 82.43848
641.5450, 74.15625
642.7080, 99.81494
643.8720, 121.4780
645.0350, 70.13965
646.1980, 12.79834
647.3610, 35.45312
648.5240, 95.14795
649.6870, 2.815918
650.8490, 115.8408
652.0120, 136.7808
653.1740, 159.2534
654.3360, 8.783691
655.4980, 101.2363
656.6600, 148.8857
657.8210, 91.53223
658.9830, 174.2217
660.1440, 3.137207
661.3050, 91.49268
662.4660, 80.34912
663.6270, 94.56836
664.7870, 119.1602
665.9480, 63.92432
667.1080, 123.2061
668.2680, 84.80518
669.4280, 79.69043
670.5880, 93.29834
671.7480, 49.90332
672.9070, 76.50586
674.0670, 90.10449
675.2260, 77.12598
676.3850, 96.35596
677.5440, 79.00000
678.7030, 58.59619
679.8610, 59.17529
681.0200, 164.7651
682.1780, 64.74951
683.3360, 41.33496
684.4940, 171.9170
685.6520, 153.4443
686.8090, 94.60254
687.9670, 44.17529
689.1240, 72.74414
690.2810, 5.311035
691.4380, 47.86963
692.5950, 50.33643
693.7520, 126.8809
694.9080, 77.43115
696.0650, 88.97803
697.2210, 78.52100
698.3770, 126.4590
699.5330, 166.9956
700.6880, 215.5283
701.8440, 226.3208
702.9990, 95.54541
704.1550, 240.0767
705.3100, 190.6035
706.4650, 185.6372
707.6190, 241.1621
708.7740, 130.6831
709.9290, 179.2080
711.0830, 188.7285
712.2370, 163.2456
713.3910, 159.7588
714.5450, 229.2744
715.6980, 344.7861
716.8520, 398.3027
718.0050, 630.6055
719.1580, 661.6382
720.3110, 589.2363
721.4640, 805.7441
722.6170, 850.2480
723.7700, 913.7476
724.9220, 945.2437
726.0740, 924.7930
727.2260, 723.3623
728.3780, 626.8579
729.5300, 556.3496
730.6810, 447.0093
731.8330, 434.5083
732.9840, 344.7144
734.1350, 359.8013
735.2860, 213.3120
736.4370, 219.8208
737.5880, 160.3228
738.7380, 128.8208
739.8880, 147.3213
741.0390, 151.8179
742.1890, 126.3184
743.3380, 68.81445
744.4880, 134.3062
745.6380, 164.6914
746.7870, 160.1748
747.9360, 83.65430
749.0850, 57.12988
750.2340, 48.68359
751.3830, 267.0679
752.5310, 101.5303
753.6800, 1.125977
754.8280, 152.2109
755.9760, 5.345215
757.1240, 36.08691
758.2720, 48.51562
759.4190, 105.9395
760.5670, 95.20117
761.7140, 26.04346
762.8610, 37.46387
764.0080, 33.11865
765.1550, 91.83154
766.3020, 89.04883
767.4480, 127.0635
768.5950, 30.43945
769.7410, 108.8184
770.8870, 93.18994
772.0330, 15.44189
773.1780, 59.12109
774.3240, 126.4717
775.4690, 61.83008
776.6140, 128.1851
777.7590, 54.53613
778.9040, 81.88281
780.0490, 109.2256
781.1940, 95.19043
782.3380, 86.57910
783.4820, 39.85693
784.6260, 43.96484
785.7700, 24.28906
786.9140, 41.81250
788.0580, 21.83789
789.2010, 12.02783
790.3450, 1.938477
791.4880, 13.35693
792.6310, 9.443359
793.7730, 65.72461
794.9160, 138.0015
796.0590, 20.72559
797.2010, 51.52588
798.3430, 84.94434
799.4850, 8.187500
800.6270, 34.52393
801.7690, 88.75879
802.9100, 164.9941
804.0520, 81.23389
805.1930, 111.4712
806.3340, 11.70508
807.4750, 112.9326
808.6160, 147.1558
809.7560, 91.37500
810.8970, 66.59082
812.0370, 71.83594
813.1770, 23.08057
814.3170, 27.16064
815.4570, 59.39453
816.5960, 74.62939
817.7360, 84.12744
818.8750, 4.008789
820.0140, 91.18848
821.1530, 63.36426
822.2920, 34.53662
823.4310, 124.7061
824.5690, 38.87305
825.7070, 179.0371
826.8460, 111.1973
827.9840, 88.95703
829.1220, 3.890625
830.2590, 51.25000
831.3970, 88.38770
832.5340, 53.52148
833.6710, 80.65137
834.8080, 4.778320
835.9450, 85.89746
837.0820, 78.01367
838.2190, 6.125977
839.3550, 31.76855
840.4910, 63.31152
841.6270, 154.3887
842.7630, 14.54004
843.8990, 91.51660
845.0350, 199.5693
846.1700, 105.6201
847.3060, 92.66602
848.4410, 68.70996
849.5760, 154.7500
850.7100, 121.7861
851.8450, 100.8203
852.9800, 41.84961
854.1140, 20.12305
855.2480, 167.8848
856.3820, 26.89258
857.5160, 224.6094
858.6500, 158.6104
859.7830, 118.6074
860.9170, 45.60059
862.0500, 23.59180
863.1830, 20.60059
864.3160, 58.56250
865.4480, 52.54297
866.5810, 12.52051
867.7130, 33.49316
868.8460, 17.46289
869.9780, 1.569336
871.1100, 155.3896
872.2410, 30.34570
873.3730, 233.2979
874.5050, 194.2480
875.6360, 204.1953
876.7670, 323.1396
877.8980, 355.0811
879.0290, 532.0186
880.1590, 626.9541
881.2900, 763.8867
882.4200, 669.8213
883.5500, 499.7529
884.6800, 413.6826
885.8100, 249.6094
886.9400, 213.5332
888.0690, 63.45410
889.1990, 207.3721
890.3280, 80.64355
891.4570, 111.5752
892.5860, 74.60938
893.7140, 59.53809
894.8430, 185.4619
895.9710, 16.38477
897.1000, 97.69531
898.2280, 111.1016
899.3560, 91.98340
900.4830, 38.05566
901.6110, 81.94434
902.7380, 36.83203
903.8660, 46.94434
904.9930, 21.60840
906.1200, 45.49707
907.2460, 53.38281
908.3730, 28.68750
909.5000, 195.5742
910.6260, 30.45996
911.7520, 147.3428
912.8780, 54.22461
914.0040, 68.11328
915.1290, 94.00098
916.2550, 25.11328
917.3800, 67.76562
918.5050, 101.6445
919.6300, 147.5205
920.7550, 156.8115
921.8800, 66.77051
923.0040, 91.06543
924.1290, 88.80176
925.2530, 45.64355
926.3770, 85.25488
927.5010, 76.76758
928.6250, 95.21191
929.7480, 109.0244
930.8720, 34.83594
931.9950, 109.5996
933.1180, 0.5917970
934.2410, 37.21777
935.3640, 1.342773
936.4860, 75.46387
937.6090, 97.27051
938.7310, 168.0752
939.8530, 64.87891
940.9750, 52.68262
942.0970, 82.20996
943.2180, 65.01172
944.3400, 25.81250
945.4610, 37.61230
946.5820, 3.636719
947.7030, 2.597656
948.8240, 34.07031
949.9450, 2.663086
951.0650, 1.443359
952.1860, 13.22461
953.3060, 16.19727
954.4260, 17.06250
955.5460, 22.13867
956.6650, 19.93750
957.7850, 55.73633
958.9040, 61.53613
960.0230, 97.33398
961.1420, 114.8262
962.2610, 108.3232
963.3800, 132.7295
964.4990, 98.63086
965.6170, 55.43359
966.7350, 66.23926
967.8530, 41.04590
968.9710, 159.8535
970.0890, 267.2627
971.2070, 130.0713
972.3240, 40.87695
973.4410, 149.3369
974.5580, 135.5400
975.6750, 47.35059
976.7920, 8.169922
977.9090, 99.48340
979.0250, 106.3066
980.1410, 131.1299
981.2580, 3.955078
982.3740, 188.7793
983.4890, 73.60352
984.6050, 12.42871
985.7200, 68.25391
986.8360, 210.0918
987.9510, 89.92871
989.0660, 54.97363
990.1810, 73.81152
991.2950, 38.36523
992.4100, 129.4580
993.5240, 165.2832
994.6390, 122.1094
995.7530, 118.9443
996.8660, 117.7324
997.9800, 172.4990
999.0940, 151.3350
1000.207, 159.1709
1001.320, 125.8604
1002.433, 109.7080
1003.546, 165.4678
1004.659, 110.7314
1005.772, 93.58105
1006.884, 246.4297
1007.996, 156.2822
1009.108, 140.1523
1010.220, 145.0225
1011.332, 68.89453
1012.444, 189.7676
1013.555, 144.6406
1014.666, 181.5156
1015.777, 83.39160
1016.888, 55.27051
1017.999, 115.1494
1019.110, 184.0293
1020.220, 272.9102
1021.331, 189.7930
1022.441, 179.6768
1023.551, 169.5615
1024.661, 160.1025
1025.770, 235.3604
1026.880, 206.2549
1027.989, 282.1787
1029.098, 345.0771
1030.207, 332.4424
1031.316, 103.4141
1032.425, 309.2080
1033.533, 300.1123
1034.642, 214.0576
1035.750, 368.9805
1036.858, 332.9004
1037.966, 231.8652
1039.073, 285.9082
1040.181, 250.8486
1041.288, 402.9658
1042.396, 377.9502
1043.503, 321.9082
1044.610, 255.8730
1045.716, 310.8359
1046.823, 412.7881
1047.929, 265.7529
1049.036, 496.8281
1050.142, 263.2373
1051.248, 346.3535
1052.353, 547.3203
1053.459, 413.3467
1054.564, 316.3145
1055.670, 446.0811
1056.775, 419.0508
1057.880, 581.0234
1058.985, 639.1465
1060.089, 658.1299
1061.194, 785.1152
1062.298, 867.1035
1063.402, 896.0918
1064.506, 986.0811
1065.610, 1131.082
1066.713, 1244.994
1067.817, 1352.996
1068.920, 1439.901
1070.023, 1593.856
1071.126, 1762.913
1072.229, 1888.920
1073.332, 2086.929
1074.435, 2227.938
1075.537, 2466.949
1076.639, 2594.962
1077.741, 2821.033
1078.843, 2870.047
1079.945, 2929.029
1081.046, 3283.009
1082.148, 3501.152
1083.249, 3928.625
1084.350, 4383.709
1085.451, 5017.894
1086.551, 5950.925
1087.652, 7055.957
1088.752, 9008.988
1089.853, 11410.02
1090.953, 15158.06
1092.053, 20192.09
1093.152, 26614.13
1094.252, 34174.27
1095.351, 42416.29
1096.451, 49636.04
1097.550, 52797.25
1098.649, 49411.85
1099.748, 40784.32
1100.846, 30249.36
1101.945, 21655.52
1103.043, 14697.57
1104.141, 10179.62
1105.239, 7004.677
1106.337, 5118.728
1107.434, 3794.671
1108.532, 3058.324
1109.629, 2348.484
1110.726, 1862.438
1111.823, 1502.506
1112.920, 1188.574
1114.017, 966.6436
1115.113, 1087.713
1116.210, 941.7803
1117.306, 855.8486
1118.402, 729.4121
1119.498, 813.4785
1120.593, 813.6113
1121.689, 643.6855
1122.784, 669.7598
1123.879, 539.3037
1124.974, 510.5186
1126.069, 413.6934
1127.164, 337.3535
1128.259, 220.4404
1129.353, 272.5254
1130.447, 192.6289
1131.541, 292.7139
1132.635, 236.9463
1133.729, 295.1494
1134.822, 240.2422
1135.916, 229.7246
1137.009, 155.4287
1138.102, 166.5225
1139.195, 148.6143
1140.288, 81.73633
1141.380, 171.8291
1142.473, 87.91992
1143.565, 87.00977
1144.657, 124.1230
1145.749, 127.2627
1146.841, 116.5322
1147.932, 30.85449
1149.024, 128.9375
1150.115, 81.13379
1151.206, 166.2139
1152.297, 62.29102
1153.388, 87.41797
1154.479, 95.49316
1155.569, 100.5674
1156.659, 19.63867
1157.750, 140.7090
1158.839, 18.85645
1159.929, 50.08398
1161.019, 161.3330
1162.108, 42.64160
1163.198, 81.14355
1164.287, 106.0029
1165.376, 21.04688
1166.465, 27.08789
1167.553, 116.1260
1168.642, 26.31836
1169.730, 6.353516
1170.818, 92.68555
1171.906, 0.2871090
1172.994, 25.73633
1174.082, 92.40039
1175.170, 34.58203
1176.257, 195.9287
1177.344, 31.04199
1178.431, 108.0635
1179.518, 11.05371
1180.605, 31.96094
1181.691, 2.010742
1182.778, 113.9766
1183.864, 24.94141
1184.950, 170.9238
1186.036, 139.8809
1187.122, 98.85840
1188.207, 162.9189
1189.292, 132.2656
1190.378, 183.3818
1191.463, 132.4170
1192.548, 122.4170
1193.632, 93.49414
1194.717, 67.45605
1195.801, 90.41602
1196.886, 53.37012
1197.970, 112.3242
1199.054, 90.36230
1200.137, 162.2178
1201.221, 77.16113
1202.305, 184.0986
1203.388, 178.0342
1204.471, 131.9648
1205.554, 159.8926
1206.637, 103.8682
1207.719, 32.78809
1208.802, 222.7051
1209.884, 69.61621
1210.966, 76.75879
1212.048, 169.1250
1213.130, 2.958008
1214.212, 27.31543
1215.293, 76.78027
1216.374, 52.07520
1217.456, 60.92578
1218.536, 108.7744
1219.617, 97.61816
1220.698, 115.4580
1221.778, 85.29395
1222.859, 82.58301
1223.939, 30.54004
1225.019, 70.47754
1226.099, 4.706055
1227.178, 18.09961
1228.258, 2.100586
1229.337, 0.1308590
1230.417, 83.47266
1231.496, 28.33789
1232.574, 135.1094
1233.653, 146.9502
1234.732, 54.99316
1235.810, 89.77734
1236.888, 6.463867
1237.966, 17.71875
1239.044, 35.00781
1240.122, 6.271484
1241.199, 93.43750
1242.277, 188.1621
1243.354, 122.8613
1244.431, 125.5605
1245.508, 64.25488
1246.585, 129.9551
1247.661, 31.36035
1248.738, 85.29785
1249.814, 46.03223
1250.890, 132.6787
1251.966, 125.4062
1253.042, 24.05664
1254.117, 34.69531
1255.193, 44.57812
1256.268, 14.79590
1257.343, 139.8535
1258.418, 67.45605
1259.493, 62.05371
1260.567, 89.83594
1261.642, 23.57812
1262.716, 43.18750
1263.790, 106.7432
1264.864, 77.29297
1265.938, 169.8379
1267.011, 195.3779
1268.085, 75.05273
1269.158, 52.18457
1270.231, 87.49023
1271.304, 145.1289
1272.377, 104.6260
1273.450, 66.11719
1274.522, 59.60254
1275.594, 28.08301
1276.666, 17.55566
1277.738, 105.0215
1278.810, 45.48242
1279.882, 160.9346
1280.953, 156.3818
1282.025, 61.82422
1283.096, 117.2588
1284.167, 131.6895
