##NAMES=Dolomite
##RRUFFID=R040030
##IDEAL CHEMISTRY=CaMg(CO_3_)_2_
##LOCALITY=Austria
##OWNER=RRUFF
##SOURCE=University of Arizona Mineral Museum
##DESCRIPTION=Group of colorless tabular crystals
##STATUS=The identification of this mineral has been confirmed by X-ray diffraction and chemical analysis
##URL=rruff.info/R040030
##MEASURED CHEMISTRY=(Ca_0.99_Mg_0.01_)_Î£=1_Mg_1.00_(CO_3_)_2_ ; trace amounts of Mn; CO_2_ estimated by difference
##PIN_ID=M00005
##ORIENTATION=Laser parallel to a* (1 0 0). Fiducial mark perpendicular to laser is parallel to -c [0 0 -1]
91.398, 0.000
92.793, 79.196
94.188, 8.952
95.582, 59.134
96.976, 109.155
98.370, 41.760
99.764, 117.199
101.157, 113.050
102.550, 172.003
103.943, 164.870
105.336, 166.395
106.729, 194.451
108.121, 197.080
109.513, 213.224
110.905, 220.074
112.297, 205.592
113.688, 217.666
115.079, 207.354
116.470, 183.740
117.861, 227.251
119.251, 224.865
120.642, 147.570
122.032, 169.427
123.422, 142.300
124.811, 109.550
126.201, 83.681
127.590, 49.712
128.979, 41.284
130.367, 12.634
131.756, 35.552
133.144, 47.404
134.532, 63.202
135.920, 55.952
137.307, 6.338
138.695, 56.338
140.082, 16.986
141.469, 62.609
142.856, 15.211
144.242, 34.793
145.628, 79.358
147.014, 22.905
148.400, 55.438
149.786, 46.086
151.171, 68.959
152.556, 88.668
153.941, 103.657
155.325, 130.767
156.710, 173.750
158.094, 225.501
159.478, 203.268
160.862, 298.049
162.245, 332.845
163.629, 443.661
165.012, 542.472
166.395, 702.307
167.777, 959.030
169.160, 1339.867
170.542, 1995.143
171.924, 2919.991
173.306, 4312.920
174.687, 5873.898
176.068, 7717.879
177.449, 9501.874
178.830, 9930.912
180.211, 9209.959
181.591, 6830.045
182.972, 4659.142
184.351, 3154.259
185.731, 1958.389
187.111, 1357.542
188.490, 927.718
189.869, 680.908
191.248, 518.103
192.626, 332.306
194.005, 320.512
195.383, 178.719
196.761, 174.926
198.139, 84.130
199.516, 95.334
200.893, 118.538
202.271, 89.738
203.647, 19.939
205.024, 26.137
206.400, 22.330
207.777, 1.519
209.152, 9.296
210.528, 15.884
211.904, 9.061
213.279, 0.229
214.654, 80.609
216.029, 25.452
217.403, 67.294
218.778, 3.146
220.152, 18.008
221.526, 18.872
222.900, 51.259
224.273, 64.381
225.646, 126.494
227.019, 186.598
228.392, 210.691
229.765, 217.773
231.137, 213.966
232.509, 122.101
233.881, 63.390
235.253, 68.682
236.625, 66.806
237.996, 6.884
239.367, 70.335
240.738, 16.982
242.108, 30.852
243.479, 6.094
244.849, 6.865
246.219, 43.840
247.589, 11.043
248.958, 28.925
250.328, 7.078
251.697, 51.279
253.065, 38.456
254.434, 77.471
255.803, 61.969
257.171, 34.451
258.539, 75.417
259.906, 59.355
261.274, 47.111
262.641, 75.310
264.008, 104.611
265.375, 29.723
266.742, 80.373
268.108, 131.595
269.475, 148.384
270.840, 213.377
272.206, 230.575
273.572, 271.861
274.937, 352.033
276.302, 342.316
277.667, 486.731
279.032, 527.520
280.396, 604.746
281.760, 726.033
283.125, 913.760
284.488, 1083.529
285.852, 1270.775
287.215, 1593.065
288.578, 1820.214
289.941, 2417.801
291.304, 3236.251
292.666, 3644.665
294.029, 4739.917
295.391, 5969.077
296.753, 7898.263
298.114, 9667.422
299.476, 11796.445
300.837, 13465.816
302.198, 13964.788
303.558, 13493.855
304.919, 11433.103
306.279, 9262.207
307.639, 7022.335
308.999, 5306.433
310.359, 3997.421
311.718, 3052.495
313.077, 2453.678
314.436, 1937.999
315.795, 1590.919
317.154, 1354.927
318.512, 1051.826
319.870, 993.668
321.228, 743.888
322.586, 719.798
323.943, 621.800
325.300, 509.688
326.657, 476.606
328.014, 409.549
329.371, 427.610
330.727, 344.490
332.083, 408.212
333.439, 429.095
334.795, 419.821
336.150, 563.884
337.506, 589.699
338.861, 722.542
340.215, 851.077
341.570, 865.748
342.924, 811.349
344.279, 635.024
345.633, 507.611
346.986, 393.639
348.340, 322.393
349.693, 247.103
351.046, 197.417
352.399, 174.977
353.752, 144.720
355.104, 173.268
356.457, 132.156
357.809, 165.703
359.160, 133.357
360.512, 83.854
361.863, 134.342
363.214, 101.003
364.565, 109.474
365.916, 77.970
367.267, 99.448
368.617, 44.901
369.967, 74.520
371.317, 54.840
372.666, 34.848
374.016, 55.421
375.365, 26.835
376.714, 68.336
378.063, 47.973
379.411, 51.943
380.760, 12.410
382.108, 52.732
383.456, 28.213
384.803, 23.531
386.151, 2.542
387.498, 41.983
388.845, 60.465
390.192, 72.082
391.539, 46.400
392.885, 37.763
394.231, 71.168
395.577, 38.442
396.923, 63.828
398.269, 36.099
399.614, 37.529
400.959, 28.315
402.304, 32.583
403.649, 64.855
404.993, 25.045
406.337, 28.948
407.681, 35.117
409.025, 22.725
410.369, 35.003
411.712, 9.112
413.055, 17.254
414.398, 58.335
415.741, 29.383
417.084, 28.813
418.426, 2.174
419.768, 19.885
421.110, 43.905
422.452, 1.011
423.793, 19.947
425.134, 24.086
426.475, 50.863
427.816, 3.765
429.157, 35.742
430.497, 14.384
431.837, 1.536
433.177, 51.338
434.517, 32.154
435.857, 4.020
437.196, 34.762
438.535, 17.531
439.874, 2.339
441.213, 4.923
442.551, 33.874
443.889, 3.578
445.227, 13.734
446.565, 41.928
447.903, 30.577
449.240, 62.213
450.577, 6.837
451.914, 12.444
453.251, 14.037
454.588, 28.616
455.924, 48.182
457.260, 39.741
458.596, 44.287
459.932, 73.831
461.267, 13.363
462.602, 67.880
463.938, 57.397
465.272, 20.902
466.607, 45.394
467.941, 36.873
469.276, 42.339
470.610, 66.806
471.943, 44.261
473.277, 22.703
474.610, 11.136
475.944, 73.552
477.276, 49.958
478.609, 57.361
479.942, 57.752
481.274, 7.131
482.606, 33.496
483.938, 19.854
485.270, 36.198
486.601, 28.530
487.932, 24.854
489.263, 13.164
490.594, 31.460
491.925, 66.743
493.255, 28.014
494.585, 61.276
495.915, 10.525
497.245, 36.760
498.575, 28.984
499.904, 2.804
501.233, 66.388
502.562, 85.569
503.891, 61.738
505.219, 80.895
506.548, 9.142
507.876, 37.272
509.203, 0.563
510.531, 30.663
511.859, 77.954
513.186, 32.255
514.513, 77.978
515.840, 14.382
517.166, 74.532
518.493, 46.666
519.819, 87.677
521.145, 103.749
522.470, 39.182
523.796, 109.156
525.121, 78.268
526.446, 80.480
527.771, 97.497
529.096, 44.826
530.421, 108.789
531.745, 97.422
533.069, 50.342
534.393, 105.161
535.716, 41.737
537.040, 58.582
538.363, 88.785
539.686, 53.585
541.009, 43.135
542.331, 61.056
543.654, 83.756
544.976, 3.486
546.298, 60.688
547.620, 48.406
548.941, 23.186
550.263, 82.966
551.584, 69.656
552.905, 57.297
554.225, 86.040
555.546, 56.655
556.866, 81.363
558.186, 40.940
559.506, 101.508
560.826, 74.028
562.145, 69.552
563.465, 113.198
564.784, 55.657
566.103, 108.127
567.421, 109.611
568.740, 24.998
570.058, 112.624
571.376, 72.809
572.694, 93.124
574.011, 28.642
575.329, 41.563
576.646, 101.929
577.963, 64.530
579.279, 70.803
580.596, 53.196
581.912, 99.830
583.228, 73.064
584.544, 68.225
585.860, 144.597
587.175, 54.445
588.491, 93.729
589.806, 110.453
591.121, 62.972
592.435, 83.286
593.750, 68.509
595.064, 136.879
596.378, 157.090
597.692, 60.282
599.006, 85.046
600.319, 52.431
601.632, 119.740
602.945, 134.571
604.258, 93.374
605.571, 113.641
606.883, 96.749
608.195, 121.036
609.507, 115.881
610.819, 102.225
612.131, 108.122
613.442, 78.364
614.753, 75.691
616.064, 78.772
617.375, 108.463
618.685, 139.732
619.995, 119.620
621.306, 164.633
622.615, 163.858
623.925, 188.845
625.235, 296.080
626.544, 267.081
627.853, 321.538
629.162, 253.623
630.471, 253.603
631.779, 238.551
633.087, 138.246
634.395, 172.434
635.703, 114.894
637.011, 90.960
638.318, 187.061
639.625, 123.753
640.932, 164.175
642.239, 95.920
643.546, 193.899
644.852, 197.920
646.158, 163.676
647.464, 263.398
648.770, 191.341
650.076, 214.278
651.381, 224.695
652.686, 160.572
653.991, 196.187
655.296, 147.592
656.600, 170.322
657.905, 156.543
659.209, 102.392
660.513, 136.293
661.817, 81.103
663.120, 51.984
664.423, 96.444
665.726, 34.122
667.029, 83.406
668.332, 26.036
669.635, 21.859
670.937, 0.623
672.239, 10.418
673.541, 46.900
674.842, 47.664
676.144, 74.305
677.445, 56.087
678.746, 5.860
680.047, 74.451
681.348, 23.011
682.648, 16.700
683.948, 55.413
685.248, 12.869
686.548, 61.659
687.848, 1.652
689.147, 31.021
690.447, 93.536
691.746, 3.809
693.044, 79.644
694.343, 11.842
695.641, 76.769
696.940, 130.230
698.238, 43.640
699.535, 143.116
700.833, 56.679
702.130, 97.582
703.427, 153.035
704.724, 70.430
706.021, 141.673
707.318, 165.196
708.614, 203.655
709.910, 246.613
711.206, 178.567
712.502, 299.949
713.798, 306.426
715.093, 294.727
716.388, 423.214
717.683, 510.639
718.978, 645.038
720.272, 735.503
721.567, 984.830
722.861, 1214.281
724.155, 1517.725
725.448, 1874.898
726.742, 1906.350
728.035, 1932.755
729.328, 1682.195
730.621, 1254.403
731.914, 1035.678
733.206, 766.108
734.499, 552.473
735.791, 425.858
737.083, 294.163
738.374, 261.574
739.666, 203.956
740.957, 194.329
742.248, 144.730
743.539, 119.037
744.830, 170.427
746.120, 102.819
747.410, 116.162
748.701, 71.544
749.990, 48.899
751.280, 64.273
752.570, 28.642
753.859, 38.952
755.148, 21.311
756.437, 21.586
757.725, 28.494
759.014, 21.838
760.302, 32.182
761.590, 60.519
762.878, 41.984
764.166, 38.177
765.453, 28.499
766.740, 3.131
768.027, 8.440
769.314, 11.259
770.601, 53.026
771.887, 33.694
773.174, 36.559
774.460, 40.805
775.745, 37.954
777.031, 22.257
778.316, 31.462
779.602, 5.662
780.887, 46.855
782.172, 47.957
783.456, 73.197
784.741, 63.345
786.025, 10.511
787.309, 65.619
788.593, 21.746
789.876, 33.134
791.160, 28.961
792.443, 18.050
793.726, 16.133
795.009, 18.787
796.291, 76.275
797.574, 14.333
798.856, 13.615
800.138, 89.424
801.420, 20.458
802.702, 6.489
803.983, 40.515
805.264, 5.464
806.545, 46.547
807.826, 21.555
809.107, 5.442
810.387, 37.552
811.667, 1.543
812.947, 71.531
814.227, 81.515
815.507, 66.496
816.786, 40.472
818.065, 30.343
819.344, 90.312
820.623, 8.105
821.902, 50.070
823.180, 94.322
824.459, 5.054
825.737, 46.347
827.014, 29.175
828.292, 56.009
829.569, 116.672
830.847, 48.906
832.124, 66.771
833.401, 112.936
834.677, 6.133
835.954, 144.644
837.230, 56.021
838.506, 42.861
839.782, 55.271
841.057, 89.134
842.333, 147.247
843.608, 144.977
844.883, 105.878
846.158, 201.855
847.433, 93.750
848.707, 145.226
849.981, 149.116
851.255, 134.004
852.529, 177.779
853.803, 77.663
855.076, 203.490
856.350, 176.373
857.623, 201.253
858.895, 332.132
860.168, 165.010
861.441, 299.885
862.713, 258.760
863.985, 236.632
865.257, 247.502
866.528, 222.371
867.800, 156.238
869.071, 186.104
870.342, 88.968
871.613, 205.830
872.884, 148.691
874.154, 97.551
875.425, 114.409
876.695, 172.265
877.965, 106.120
879.234, 108.976
880.504, 224.829
881.773, 385.682
883.042, 384.532
884.311, 411.383
885.580, 265.232
886.848, 157.080
888.117, 139.927
889.385, 152.776
890.653, 69.625
891.920, 115.472
893.188, 68.319
894.455, 139.165
895.722, 114.010
896.989, 92.856
898.256, 213.701
899.523, 67.555
900.789, 138.408
902.055, 131.267
903.321, 47.086
904.587, 176.943
905.852, 83.679
907.118, 54.458
908.383, 137.164
909.648, 10.123
910.913, 207.613
912.177, 72.329
913.442, 170.088
914.706, 82.949
915.970, 49.751
917.233, 206.541
918.497, 5.710
919.760, 50.818
921.024, 118.486
922.287, 42.142
923.550, 87.000
924.812, 31.256
926.075, 56.047
927.337, 115.859
928.599, 4.862
929.861, 108.613
931.122, 117.405
932.384, 41.076
933.645, 110.937
934.906, 36.354
936.167, 7.237
937.428, 36.129
938.688, 47.925
939.948, 74.819
941.208, 58.598
942.468, 81.996
943.728, 79.130
944.987, 6.583
946.247, 73.351
947.506, 59.682
948.765, 43.586
950.023, 110.356
951.282, 33.039
952.540, 85.948
953.798, 104.753
955.056, 1.505
956.314, 121.402
957.572, 107.644
958.829, 77.561
960.086, 93.390
961.343, 33.662
962.600, 71.565
963.856, 77.271
965.113, 14.198
966.369, 76.128
967.625, 12.061
968.881, 115.995
970.136, 11.892
971.392, 24.831
972.647, 69.644
973.902, 37.412
975.157, 77.522
976.411, 52.318
977.666, 32.740
978.920, 57.155
980.174, 24.906
981.428, 11.973
982.682, 44.959
983.935, 58.105
985.188, 102.811
986.441, 6.956
987.694, 23.114
988.947, 29.813
990.199, 41.744
991.452, 94.684
992.704, 56.626
993.956, 26.581
995.207, 39.539
996.459, 38.500
997.710, 104.469
998.961, 147.439
1000.212, 207.588
1001.463, 207.401
1002.714, 347.386
1003.964, 318.375
1005.214, 365.365
1006.464, 168.358
1007.714, 93.355
1008.964, 116.355
1010.213, 86.358
1011.462, 112.364
1012.711, 63.373
1013.960, 120.385
1015.209, 95.400
1016.457, 69.418
1017.705, 151.439
1018.954, 132.463
1020.201, 112.537
1021.449, 254.565
1022.697, 128.597
1023.944, 218.632
1025.191, 267.670
1026.438, 216.709
1027.685, 235.752
1028.931, 211.968
1030.177, 171.016
1031.423, 237.068
1032.669, 172.123
1033.915, 207.180
1035.161, 216.259
1036.406, 186.322
1037.651, 252.389
1038.896, 167.288
1040.141, 220.362
1041.386, 266.439
1042.630, 143.696
1043.874, 243.780
1045.118, 263.878
1046.362, 170.397
1047.606, 308.502
1048.849, 191.889
1050.092, 320.013
1051.336, 351.707
1052.578, 366.841
1053.821, 469.977
1055.064, 397.247
1056.306, 377.404
1057.548, 445.564
1058.790, 429.901
1060.032, 479.523
1061.273, 627.314
1062.515, 594.537
1063.756, 761.738
1064.997, 716.989
1066.237, 877.520
1067.478, 963.729
1068.718, 1011.716
1069.959, 1255.937
1071.199, 1383.162
1072.438, 1479.565
1073.678, 1832.800
1074.918, 1932.050
1076.157, 2296.466
1077.396, 2571.729
1078.635, 2563.234
1079.873, 2837.558
1081.112, 2935.861
1082.350, 3065.222
1083.588, 3447.542
1084.826, 3532.894
1086.064, 4040.970
1087.301, 4502.326
1088.539, 4930.688
1089.776, 6155.052
1091.013, 7140.418
1092.250, 9205.798
1093.486, 12661.177
1094.723, 17366.564
1095.959, 27311.947
1097.195, 39327.340
1098.431, 52472.738
1099.666, 59028.133
1100.902, 50503.531
1102.137, 36438.938
1103.372, 23414.342
1104.607, 14619.750
1105.842, 9655.160
1107.076, 6360.573
1108.311, 4465.988
1109.545, 3564.405
1110.779, 2672.826
1112.012, 2183.249
1113.246, 1751.674
1114.479, 1425.100
1115.712, 1267.529
1116.945, 989.958
1118.178, 966.389
1119.411, 890.822
1120.643, 699.256
1121.875, 658.706
1123.108, 609.647
1124.339, 477.084
1125.571, 581.522
1126.802, 452.730
1128.034, 392.170
1129.265, 379.783
1130.496, 348.933
1131.727, 349.375
1132.957, 267.144
1134.187, 328.587
1135.418, 338.037
1136.648, 239.769
1137.877, 244.219
1139.107, 278.682
1140.336, 170.134
1141.566, 170.011
1142.795, 207.463
1144.023, 150.036
1145.252, 187.507
1146.480, 94.960
1147.709, 147.414
1148.937, 135.867
1150.165, 99.319
1151.392, 120.773
1152.620, 62.225
1153.847, 58.677
1155.074, 66.288
1156.301, 47.739
1157.528, 111.189
1158.755, 106.842
1159.981, 40.291
1161.207, 81.026
1162.433, 18.473
1163.659, 43.918
1164.885, 107.362
1166.110, 14.805
1167.336, 1.246
1168.561, 45.685
1169.786, 35.123
1171.010, 150.645
1172.235, 45.080
1173.459, 73.512
1174.683, 120.944
1175.907, 3.626
1177.131, 101.799
1178.355, 56.409
1179.578, 22.831
1180.801, 68.251
1182.024, 13.842
1183.247, 46.258
1184.470, 71.850
1185.692, 17.368
1186.915, 37.035
1188.137, 144.773
1189.359, 2.712
1190.580, 95.681
1191.802, 39.889
1193.023, 7.724
1194.244, 46.859
1195.465, 37.251
1196.686, 30.104
1197.907, 25.687
1199.127, 44.823
1200.347, 64.154
1201.567, 6.888
1202.787, 99.311
1204.007, 131.787
1205.226, 16.230
1206.446, 38.321
1207.665, 23.055
1208.884, 36.317
1210.102, 82.597
1211.321, 32.185
1212.539, 0.490
1213.758, 172.928
1214.976, 12.412
1216.193, 89.837
1217.411, 113.334
1218.628, 6.672
1219.846, 123.908
1221.063, 48.634
1222.280, 12.413
1223.496, 171.641
1224.713, 45.134
1225.929, 50.466
1227.145, 156.701
1228.361, 48.430
1229.577, 143.900
1230.793, 120.833
1232.008, 15.748
1233.223, 205.404
1234.438, 83.685
1235.653, 109.831
1236.868, 155.058
1238.082, 65.331
1239.297, 198.467
1240.511, 114.601
1241.725, 112.875
1242.938, 155.003
1244.152, 110.281
1245.365, 123.405
1246.578, 134.527
1247.791, 142.859
1249.004, 284.771
1250.217, 189.884
1251.429, 211.171
1252.642, 222.279
1253.854, 145.579
1255.066, 163.694
1256.277, 143.503
1257.489, 133.041
1258.700, 136.027
1259.911, 154.118
1261.122, 167.729
1262.333, 209.805
1263.544, 88.876
1264.754, 99.183
1265.964, 166.248
1267.174, 72.310
1268.384, 199.422
1269.594, 216.482
1270.803, 82.588
1272.013, 177.639
1273.222, 191.692
1274.431, 342.741
1275.640, 222.876
1276.848, 290.923
1278.057, 95.967
1279.265, 202.017
1280.473, 93.064
1281.681, 254.107
1282.888, 101.146
1284.096, 79.178
1285.303, 161.207
1286.510, 5.788
1287.717, 145.183
1288.924, 55.142
1290.131, 80.096
1291.337, 123.021
1292.543, 145.922
1293.749, 100.813
1294.955, 134.678
1296.161, 166.534
1297.366, 142.374
1298.571, 196.207
1299.777, 49.035
1300.981, 128.839
1302.186, 91.639
1303.391, 39.389
1304.595, 152.108
1305.799, 27.788
1307.003, 110.457
1308.207, 208.119
1309.411, 94.773
1310.614, 166.418
1311.818, 112.056
1313.021, 205.637
1314.224, 185.258
1315.426, 69.870
1316.629, 98.471
1317.831, 248.063
1319.033, 94.647
1320.235, 142.216
1321.437, 264.605
1322.639, 47.153
1323.840, 180.690
1325.042, 122.217
1326.243, 50.733
1327.444, 218.220
1328.644, 49.713
1329.845, 23.194
1331.045, 157.834
1332.245, 25.292
1333.445, 63.735
1334.645, 116.991
1335.845, 26.586
1337.044, 107.812
1338.244, 43.783
1339.443, 37.837
1340.642, 115.252
1341.840, 3.598
1343.039, 47.370
1344.237, 130.698
1345.435, 37.980
1346.633, 66.204
1347.831, 52.499
1349.029, 26.212
1350.226, 32.896
1351.424, 24.159
1352.621, 34.190
1353.818, 100.027
1355.014, 24.267
1356.211, 75.455
1357.407, 51.366
1358.604, 7.400
1359.800, 141.741
1360.995, 31.057
1362.191, 64.289
1363.387, 192.354
1364.582, 10.594
1365.777, 10.160
1366.972, 98.219
1368.167, 110.478
1369.361, 72.481
1370.556, 76.008
1371.750, 26.713
1372.944, 26.386
1374.138, 45.838
1375.331, 32.178
1376.525, 95.193
1377.718, 53.667
1378.911, 85.469
1380.104, 66.263
1381.297, 55.051
1382.490, 168.831
1383.682, 148.603
1384.874, 54.369
1386.066, 197.128
1387.258, 52.879
1388.450, 124.621
1389.641, 176.355
1390.833, 88.082
1392.024, 107.797
1393.215, 179.504
1394.406, 49.185
1395.596, 176.875
1396.787, 45.555
1397.977, 89.229
1399.167, 118.894
1400.357, 82.550
1401.547, 170.197
1402.736, 94.822
1403.925, 11.706
1405.115, 143.163
1406.304, 186.737
1407.492, 39.324
1408.681, 210.905
1409.870, 130.479
1411.058, 81.840
1412.246, 216.132
1413.434, 83.302
1414.622, 177.848
1415.809, 250.390
1416.997, 122.930
1418.184, 76.349
1419.371, 172.883
1420.558, 134.415
1421.744, 177.681
1422.931, 213.209
1424.117, 184.483
1425.303, 288.184
1426.489, 181.195
1427.675, 175.536
1428.861, 267.658
1430.046, 252.253
1431.231, 361.308
1432.416, 451.458
1433.601, 346.117
1434.786, 440.760
1435.970, 563.104
1437.155, 525.115
1438.339, 815.725
1439.523, 837.217
1440.707, 1215.982
1441.890, 1693.013
1443.074, 1786.427
1444.257, 2045.549
1445.440, 1795.290
1446.623, 1401.775
1447.806, 1329.757
1448.989, 1093.266
1450.171, 939.832
1451.353, 1041.262
1452.535, 797.626
1453.717, 832.917
1454.899, 988.486
1456.080, 770.989
1457.262, 780.063
1458.443, 827.031
1459.624, 721.357
1460.805, 815.554
1461.985, 680.503
1463.166, 643.703
1464.346, 713.229
1465.526, 599.146
1466.706, 528.008
1467.886, 588.935
1469.065, 364.543
1470.245, 415.303
1471.424, 491.979
1472.603, 292.575
1473.782, 454.093
1474.960, 396.706
1476.139, 278.343
1477.317, 362.116
1478.495, 293.973
1479.673, 203.885
1480.851, 394.774
1482.029, 226.707
1483.206, 305.000
1484.383, 358.623
1485.560, 228.249
1486.737, 324.888
1487.914, 290.533
1489.091, 207.211
1490.267, 268.922
1491.443, 165.724
1492.619, 188.609
1493.795, 303.579
1494.971, 65.661
1496.146, 142.877
1497.322, 226.261
1498.497, 81.830
1499.672, 144.590
1500.846, 177.569
1502.021, 34.758
1503.196, 276.147
1504.370, 105.778
1505.544, 93.696
1506.718, 264.946
1507.892, 13.417
1509.065, 88.661
1510.238, 171.239
1511.412, 30.810
1512.585, 88.376
1513.758, 166.445
1514.930, 0.307
1516.103, 105.344
1517.275, 85.559
1518.447, 0.000
##END=



