##NAMES=Dolomite
##RRUFFID=R050129
##IDEAL CHEMISTRY=CaMg(CO_3_)_2_
##LOCALITY=Black Cloud mine, Leadville, Lake County, Colorado, USA
##OWNER=RRUFF
##SOURCE=Dave Bunk Minerals
##DESCRIPTION=Aggregate of colorless to white rhombohedra
##STATUS=The identification of this mineral has been confirmed by X-ray diffraction and chemical analysis
##URL=rruff.info/R050129
##MEASURED CHEMISTRY=Ca(Mg_0.62_Fe^2+^_0.33_Mn_0.05_)_Î£=1_(CO_3_)_2_ ; CO_2_ estimated by difference
##PIN_ID=M00287
##ORIENTATION=Laser parallel to a* (1 0 0). Fiducial mark perpendicular to laser is parallel to c [0 0 1]
88.608, 0.000
90.003, 97.520
91.398, 95.115
92.793, 81.687
94.188, 19.580
95.582, 85.569
96.976, 75.014
98.370, 107.980
99.764, 41.513
101.157, 78.618
102.550, 52.513
103.943, 28.983
105.336, 116.052
106.729, 105.201
108.121, 151.112
109.513, 128.858
110.905, 143.125
112.297, 252.801
113.688, 323.229
115.079, 401.868
116.470, 361.656
117.861, 225.369
119.251, 117.875
120.642, 73.487
122.032, 12.074
123.422, 59.286
124.811, 6.061
126.201, 37.499
127.590, 39.501
128.979, 6.927
130.367, 62.750
131.756, 77.025
133.144, 9.817
134.532, 8.178
135.920, 31.151
137.307, 87.772
138.695, 114.999
140.082, 69.295
141.469, 84.663
142.856, 95.170
144.242, 175.654
145.628, 107.077
147.014, 218.422
148.400, 201.505
149.786, 204.545
151.171, 332.006
152.556, 316.659
153.941, 444.874
155.325, 424.153
156.710, 536.635
158.094, 644.455
159.478, 795.613
160.862, 1073.649
162.245, 1336.119
163.629, 1765.044
165.012, 2173.397
166.395, 2674.666
167.777, 3138.368
169.160, 3499.195
170.542, 3416.307
171.924, 3311.453
173.306, 2968.722
174.687, 2492.095
176.068, 1987.599
177.449, 1587.177
178.830, 1249.818
180.211, 970.507
181.591, 718.240
182.972, 622.015
184.351, 484.815
185.731, 420.632
187.111, 280.451
188.490, 227.252
189.869, 262.023
191.248, 212.720
192.626, 111.380
194.005, 115.011
195.383, 76.596
196.761, 83.157
198.139, 85.688
199.516, 32.188
200.893, 25.660
202.271, 8.899
203.647, 9.489
205.024, 19.114
206.400, 32.231
207.777, 20.459
209.152, 3.188
210.528, 30.954
211.904, 24.760
213.279, 18.603
214.654, 31.513
216.029, 16.411
217.403, 16.376
218.778, 52.621
220.152, 43.579
221.526, 56.496
222.900, 92.447
224.273, 129.425
225.646, 111.212
227.019, 73.523
228.392, 71.742
229.765, 40.003
231.137, 6.305
232.509, 44.646
233.881, 39.131
235.253, 78.831
236.625, 41.578
237.996, 43.193
239.367, 41.469
240.738, 118.671
242.108, 153.702
243.479, 147.597
244.849, 150.718
246.219, 203.616
247.589, 219.289
248.958, 225.859
250.328, 271.365
251.697, 298.973
253.065, 348.417
254.434, 428.471
255.803, 456.640
257.171, 542.241
258.539, 544.833
259.906, 675.287
261.274, 744.062
262.641, 856.214
264.008, 907.179
265.375, 1133.921
266.742, 1220.570
268.108, 1420.087
269.475, 1672.248
270.840, 1876.542
272.206, 2106.920
273.572, 2522.707
274.937, 2846.275
276.302, 3291.896
277.667, 3751.353
279.032, 4200.586
280.396, 4721.766
281.760, 5347.754
283.125, 5907.788
284.488, 6495.365
285.852, 7122.667
287.215, 7499.367
288.578, 7832.315
289.941, 7954.603
291.304, 7824.290
292.666, 7656.834
294.029, 7145.014
295.391, 6605.650
296.753, 5746.543
298.114, 4980.308
299.476, 4410.106
300.837, 3738.462
302.198, 3180.079
303.558, 2713.951
304.919, 2313.171
306.279, 2006.551
307.639, 1689.761
308.999, 1500.146
310.359, 1283.534
311.718, 1179.943
313.077, 1048.215
314.436, 928.204
315.795, 865.494
317.154, 764.520
318.512, 727.567
319.870, 721.588
321.228, 695.687
322.586, 664.429
323.943, 623.465
325.300, 593.337
326.657, 532.057
328.014, 477.564
329.371, 485.318
330.727, 424.718
332.083, 468.321
333.439, 410.803
334.795, 417.335
336.150, 344.812
337.506, 401.175
338.861, 412.481
340.215, 364.719
341.570, 410.942
342.924, 353.088
344.279, 368.316
345.633, 335.544
346.986, 367.787
348.340, 360.963
349.693, 287.125
351.046, 291.115
352.399, 328.998
353.752, 298.822
355.104, 222.416
356.457, 205.519
357.809, 266.630
359.160, 203.482
360.512, 238.287
361.863, 214.367
363.214, 154.521
364.565, 238.536
365.916, 105.125
367.267, 169.794
368.617, 123.702
369.967, 107.763
371.317, 146.561
372.666, 118.445
374.016, 91.560
375.365, 65.101
376.714, 72.963
378.063, 63.030
379.411, 23.082
380.760, 51.042
382.108, 8.210
383.456, 24.242
384.803, 31.063
386.151, 39.882
387.498, 41.551
388.845, 52.120
390.192, 32.418
391.539, 51.620
392.885, 41.559
394.231, 58.709
395.577, 41.686
396.923, 44.260
398.269, 11.612
399.614, 48.381
400.959, 24.133
402.304, 45.040
403.649, 46.494
404.993, 44.281
406.337, 55.328
407.681, 47.738
409.025, 51.411
410.369, 51.031
411.712, 21.657
413.055, 15.490
414.398, 9.786
415.741, 28.905
417.084, 4.551
418.426, 77.237
419.768, 43.921
421.110, 38.454
422.452, 37.074
423.793, 31.336
425.134, 36.748
426.475, 40.076
427.816, 34.364
429.157, 20.782
430.497, 33.119
431.837, 17.373
433.177, 3.343
434.517, 24.868
435.857, 14.923
437.196, 7.120
438.535, 13.238
439.874, 14.690
441.213, 24.389
442.551, 51.473
443.889, 22.421
445.227, 57.394
446.565, 58.278
447.903, 28.037
449.240, 70.928
450.577, 46.611
451.914, 25.362
453.251, 64.098
454.588, 13.926
455.924, 52.515
457.260, 10.229
458.596, 67.923
459.932, 32.515
461.267, 0.802
462.602, 29.281
463.938, 0.077
465.272, 57.496
466.607, 31.981
467.941, 69.479
469.276, 90.981
470.610, 2.315
471.943, 54.377
473.277, 40.294
474.610, 70.553
475.944, 33.808
477.276, 77.769
478.609, 54.084
479.942, 47.196
481.274, 18.312
482.606, 20.699
483.938, 83.794
485.270, 36.894
486.601, 62.000
487.932, 101.091
489.263, 32.111
490.594, 109.747
491.925, 53.723
493.255, 75.589
494.585, 59.155
495.915, 66.124
497.245, 88.761
498.575, 97.320
499.904, 106.996
501.233, 109.720
502.562, 122.258
503.891, 100.001
505.219, 96.534
506.548, 86.190
507.876, 94.809
509.203, 91.427
510.531, 118.002
511.859, 83.556
513.186, 127.173
514.513, 133.738
515.840, 157.245
517.166, 132.588
518.493, 103.938
519.819, 129.247
521.145, 55.677
522.470, 134.003
523.796, 127.122
525.121, 115.542
526.446, 83.433
527.771, 145.565
529.096, 116.644
530.421, 126.518
531.745, 110.583
533.069, 152.840
534.393, 100.673
535.716, 117.407
537.040, 80.197
538.363, 91.923
539.686, 137.396
541.009, 116.087
542.331, 135.413
543.654, 123.890
544.976, 115.416
546.298, 133.007
547.620, 105.601
548.941, 90.232
550.263, 133.729
551.584, 79.337
552.905, 110.894
554.225, 72.519
555.546, 124.065
556.866, 96.613
558.186, 94.902
559.506, 138.449
560.826, 49.832
562.145, 63.348
563.465, 86.858
564.784, 98.346
566.103, 109.955
567.421, 70.349
568.740, 114.830
570.058, 99.297
571.376, 71.577
572.694, 118.793
574.011, 111.374
575.329, 129.679
576.646, 66.758
577.963, 56.255
579.279, 81.599
580.596, 94.909
581.912, 104.723
583.228, 70.979
584.544, 139.245
585.860, 106.514
587.175, 38.750
588.491, 47.885
589.806, 58.091
591.121, 41.045
592.435, 47.692
593.750, 39.123
595.064, 66.258
596.378, 39.224
597.692, 40.886
599.006, 27.368
600.319, 17.456
601.632, 41.648
602.945, 26.708
604.258, 39.905
605.571, 62.096
606.883, 23.153
608.195, 68.379
609.507, 42.495
610.819, 41.513
612.131, 12.685
613.442, 63.615
614.753, 25.721
616.064, 22.611
617.375, 40.765
618.685, 12.764
619.995, 5.473
621.306, 7.488
622.615, 16.244
623.925, 30.307
625.235, 20.254
626.544, 31.647
627.853, 45.508
629.162, 8.770
630.471, 23.789
631.779, 42.106
633.087, 36.122
634.395, 9.023
635.703, 8.000
637.011, 53.917
638.318, 41.801
639.625, 70.557
640.932, 1.683
642.239, 25.343
643.546, 17.165
644.852, 14.087
646.158, 25.167
647.464, 8.048
648.770, 23.049
650.076, 52.906
651.381, 8.149
652.686, 5.720
653.991, 10.388
655.296, 9.415
656.600, 7.582
657.905, 45.386
659.209, 7.382
660.513, 31.338
661.817, 28.417
663.120, 32.464
664.423, 53.302
665.726, 29.172
667.029, 42.026
668.332, 43.989
669.635, 11.803
670.937, 18.791
672.239, 11.777
673.541, 43.756
674.842, 12.271
676.144, 77.617
677.445, 26.579
678.746, 67.260
680.047, 14.216
681.348, 16.167
682.648, 17.098
683.948, 62.895
685.248, 1.830
686.548, 44.760
687.848, 17.685
689.147, 2.410
690.447, 24.504
691.746, 25.362
693.044, 16.269
694.343, 23.041
695.641, 15.863
696.940, 25.382
698.238, 50.656
699.535, 47.549
700.833, 59.440
702.130, 75.329
703.427, 119.216
704.724, 74.099
706.021, 166.923
707.318, 122.802
708.614, 215.582
709.910, 250.456
711.206, 278.209
712.502, 428.078
713.798, 420.934
715.093, 619.784
716.388, 723.648
717.683, 846.313
718.978, 963.036
720.272, 998.857
721.567, 1023.714
722.861, 913.568
724.155, 887.325
725.448, 824.175
726.742, 568.024
728.035, 610.791
729.328, 442.639
730.621, 400.488
731.914, 321.337
733.206, 283.100
734.499, 257.821
735.791, 193.649
737.083, 214.494
738.374, 195.349
739.666, 214.160
740.957, 177.013
742.248, 98.007
743.539, 98.690
744.830, 100.415
746.120, 126.185
747.410, 156.887
748.701, 158.622
749.990, 138.324
751.280, 122.252
752.570, 128.740
753.859, 148.149
755.148, 124.336
756.437, 105.566
757.725, 72.316
759.014, 68.005
760.302, 116.753
761.590, 74.597
762.878, 129.281
764.166, 110.145
765.453, 103.916
766.740, 187.687
768.027, 170.339
769.314, 79.206
770.601, 154.442
771.887, 126.148
773.174, 195.934
774.460, 147.606
775.745, 148.851
777.031, 164.567
778.316, 203.268
779.602, 154.031
780.887, 200.097
782.172, 229.793
783.456, 197.631
784.741, 265.021
786.025, 235.224
787.309, 249.062
788.593, 231.879
789.876, 241.966
791.160, 312.674
792.443, 267.562
793.726, 309.421
795.009, 246.312
796.291, 255.188
797.574, 283.993
798.856, 227.769
800.138, 300.607
801.420, 224.425
802.702, 271.604
803.983, 342.422
805.264, 260.327
806.545, 361.151
807.826, 297.912
809.107, 339.982
810.387, 381.452
811.667, 374.233
812.947, 389.200
814.227, 431.450
815.507, 489.312
816.786, 410.364
818.065, 486.323
819.344, 492.248
820.623, 456.356
821.902, 556.287
823.180, 575.219
824.459, 570.069
825.737, 591.014
827.014, 590.874
828.292, 577.814
829.569, 573.071
830.847, 452.016
832.124, 492.959
833.401, 474.223
834.677, 362.125
835.954, 428.040
837.230, 380.964
838.506, 377.924
839.782, 380.756
841.057, 335.720
842.333, 323.668
843.608, 249.311
844.883, 263.283
846.158, 236.258
847.433, 271.222
848.707, 274.203
849.981, 183.177
851.255, 228.164
852.529, 129.154
853.803, 192.146
855.076, 160.142
856.350, 177.140
857.623, 245.141
858.895, 211.146
860.168, 161.153
861.441, 211.164
862.713, 142.178
863.985, 133.196
865.257, 225.217
866.528, 185.241
867.800, 199.269
869.071, 226.301
870.342, 330.335
871.613, 365.374
872.884, 313.703
874.154, 309.905
875.425, 157.515
876.695, 210.569
877.965, 113.627
879.234, 121.689
880.504, 81.755
881.773, 153.824
883.042, 95.898
884.311, 86.976
885.580, 50.057
886.848, 59.142
888.117, 48.930
889.385, 40.326
890.653, 39.425
891.920, 74.527
893.188, 48.633
894.455, 2.257
895.722, 9.856
896.989, 92.977
898.256, 47.102
899.523, 51.232
900.789, 55.366
902.055, 41.505
903.321, 1.351
904.587, 1.796
905.852, 9.731
907.118, 10.914
908.383, 12.748
909.648, 13.405
910.913, 8.562
912.177, 36.724
913.442, 71.890
914.706, 39.062
915.970, 3.238
917.233, 53.419
918.497, 44.605
919.760, 28.796
921.024, 5.993
922.287, 11.806
923.550, 66.396
924.812, 28.603
926.075, 39.814
927.337, 54.031
928.599, 0.744
929.861, 8.486
931.122, 2.796
932.384, 8.039
933.645, 14.204
934.906, 12.555
936.167, 7.278
937.428, 34.988
938.688, 45.267
939.948, 61.551
941.208, 59.831
942.468, 54.143
943.728, 28.449
944.987, 42.760
946.247, 12.077
947.506, 49.603
948.765, 18.704
950.023, 60.016
951.282, 1.667
952.540, 21.655
953.798, 68.982
955.056, 8.288
956.314, 71.657
957.572, 35.998
958.829, 39.341
960.086, 77.686
961.343, 8.961
962.600, 44.397
963.856, 26.761
965.113, 50.143
966.369, 5.532
967.625, 24.936
968.881, 24.647
970.136, 43.767
971.392, 5.814
972.647, 70.608
973.902, 49.035
975.157, 32.467
976.411, 25.096
977.666, 34.343
978.920, 38.787
980.174, 47.765
981.428, 68.674
982.682, 40.118
983.935, 30.434
985.188, 36.008
986.441, 34.457
987.694, 15.919
988.947, 32.388
990.199, 50.860
991.452, 101.340
992.704, 99.824
993.956, 107.604
995.207, 76.837
996.459, 93.352
997.710, 70.873
998.961, 58.398
1000.212, 58.928
1001.463, 37.464
1002.714, 42.004
1003.964, 65.561
1005.214, 117.123
1006.464, 66.690
1007.714, 137.263
1008.964, 90.843
1010.213, 80.426
1011.462, 107.015
1012.711, 14.609
1013.960, 69.221
1015.209, 148.838
1016.457, 80.459
1017.705, 100.105
1018.954, 141.758
1020.201, 151.414
1021.449, 155.076
1022.697, 170.411
1023.944, 166.424
1025.191, 185.113
1026.438, 134.806
1027.685, 155.505
1028.931, 193.208
1030.177, 145.916
1031.423, 242.631
1032.669, 214.350
1033.915, 211.073
1035.161, 241.813
1036.406, 216.557
1037.651, 244.313
1038.896, 283.074
1040.141, 234.839
1041.386, 303.613
1042.630, 351.393
1043.874, 346.176
1045.118, 351.894
1046.362, 339.177
1047.606, 407.977
1048.849, 359.780
1050.092, 402.588
1051.336, 464.401
1052.578, 382.217
1053.821, 469.936
1055.064, 388.763
1056.306, 443.144
1057.548, 548.476
1058.790, 467.729
1060.032, 621.571
1061.273, 623.417
1062.515, 657.271
1063.756, 665.128
1064.997, 726.990
1066.237, 773.952
1067.478, 942.821
1068.718, 972.695
1069.959, 1126.711
1071.199, 1158.592
1072.438, 1268.963
1073.678, 1415.858
1074.918, 1578.755
1076.157, 1830.734
1077.396, 1951.682
1078.635, 2240.616
1079.873, 2834.546
1081.112, 3504.479
1082.350, 4484.079
1083.588, 5948.021
1084.826, 7684.968
1086.064, 10451.615
1087.301, 14318.567
1088.539, 19205.527
1089.776, 26433.217
1091.013, 31000.178
1092.250, 32257.232
1093.486, 30234.201
1094.723, 24621.172
1095.959, 18378.141
1097.195, 12842.745
1098.431, 8739.761
1099.666, 5886.739
1100.902, 4119.650
1102.137, 2937.653
1103.372, 2315.639
1104.607, 1662.626
1105.842, 1334.719
1107.076, 1033.070
1108.311, 882.062
1109.545, 846.057
1110.779, 707.711
1112.012, 582.857
1113.246, 547.856
1114.479, 434.964
1115.712, 487.966
1116.945, 411.970
1118.178, 389.346
1119.411, 445.529
1120.643, 396.335
1121.875, 393.986
1123.108, 307.353
1124.339, 345.394
1125.571, 224.752
1126.802, 184.764
1128.034, 189.777
1129.265, 194.720
1130.496, 174.795
1131.727, 174.057
1132.957, 109.651
1134.187, 150.891
1135.418, 123.190
1136.648, 110.315
1137.877, 147.331
1139.107, 172.548
1140.336, 103.564
1141.566, 123.026
1142.795, 147.064
1144.023, 119.225
1145.252, 121.501
1146.480, 112.515
1147.709, 114.550
1148.937, 130.694
1150.165, 62.767
1151.392, 113.548
1152.620, 73.721
1153.847, 95.781
1155.074, 134.381
1156.301, 34.532
1157.528, 110.565
1158.755, 78.653
1159.981, 81.002
1161.207, 30.971
1162.433, 84.233
1163.659, 33.250
1164.885, 42.029
1166.110, 54.804
1167.336, 53.593
1168.561, 83.556
1169.786, 75.693
1171.010, 126.336
1172.235, 102.865
1173.459, 93.927
1174.683, 107.188
1175.907, 17.256
1177.131, 81.440
1178.355, 89.904
1179.578, 21.060
1180.801, 131.016
1182.024, 49.885
1183.247, 45.864
1184.470, 152.745
1185.692, 16.891
1186.915, 79.918
1188.137, 32.201
1189.359, 78.287
1190.580, 105.299
1191.802, 1.053
1193.023, 8.893
1194.244, 97.342
1195.465, 71.380
1196.686, 121.306
1197.907, 21.481
1199.127, 34.372
1200.347, 78.417
1201.567, 74.119
1202.787, 70.259
1204.007, 91.187
1205.226, 62.210
1206.446, 85.432
1207.665, 60.069
1208.884, 98.016
1210.102, 98.873
1211.321, 71.096
1212.539, 6.032
1213.758, 76.873
1214.976, 39.411
1216.193, 0.339
1217.411, 123.169
1218.628, 34.925
1219.846, 109.747
1221.063, 49.565
1222.280, 21.827
1223.496, 30.750
1224.713, 25.745
1225.929, 52.603
1227.145, 86.493
1228.361, 78.330
1229.577, 150.249
1230.793, 97.229
1232.008, 77.193
1233.223, 102.958
1234.438, 141.369
1235.653, 5.876
1236.868, 59.873
1238.082, 27.784
1239.297, 77.527
1240.511, 125.338
1241.725, 53.147
1242.938, 75.993
1244.152, 42.919
1245.365, 87.657
1246.578, 101.391
1247.791, 49.149
1249.004, 58.875
1250.217, 124.597
1251.429, 31.315
1252.642, 85.023
1253.854, 158.734
1255.066, 78.441
1256.277, 120.143
1257.489, 23.831
1258.700, 85.512
1259.911, 35.172
1261.122, 81.826
1262.333, 78.476
1263.544, 3.119
1264.754, 20.746
1265.964, 123.366
1267.174, 67.979
1268.384, 107.586
1269.594, 58.170
1270.803, 12.252
1272.013, 99.289
1273.222, 150.822
1274.431, 35.334
1275.640, 53.846
1276.848, 96.349
1278.057, 35.842
1279.265, 19.333
1280.473, 25.201
1281.681, 45.234
1282.888, 86.653
1284.096, 24.064
1285.303, 86.460
1286.510, 43.152
1287.717, 68.211
1288.924, 39.567
1290.131, 18.907
1291.337, 98.238
1292.543, 70.561
1293.749, 44.868
1294.955, 62.164
1296.161, 31.553
1297.366, 38.709
1298.571, 65.948
1299.777, 4.159
1300.981, 44.339
1302.186, 72.510
1303.391, 59.660
1304.595, 15.798
1305.799, 34.080
1307.003, 24.020
1308.207, 76.106
1309.411, 62.818
1310.614, 16.225
1311.818, 94.255
1313.021, 34.274
1314.224, 46.281
1315.426, 28.724
1316.629, 7.249
1317.831, 63.207
1319.033, 24.154
1320.235, 61.087
1321.437, 33.009
1322.639, 9.918
1323.840, 38.813
1325.042, 92.695
1326.243, 32.433
1327.444, 79.415
1328.644, 16.749
1329.845, 38.069
1331.045, 65.875
1332.245, 7.330
1333.445, 50.448
1334.645, 67.215
1335.845, 0.971
1337.044, 55.645
1338.244, 22.888
1339.443, 56.608
1340.642, 82.319
1341.840, 29.022
1343.039, 100.716
1344.237, 51.401
1345.435, 1.078
1346.633, 31.744
1347.831, 77.401
1349.029, 54.052
1350.226, 132.714
1351.424, 61.351
1352.621, 3.018
1353.818, 157.603
1355.014, 21.220
1356.211, 69.831
1357.407, 133.506
1358.604, 4.111
1359.800, 68.804
1360.995, 115.663
1362.191, 15.717
1363.387, 129.877
1364.582, 103.593
1365.777, 23.805
1366.972, 66.894
1368.167, 20.553
1369.361, 98.835
1370.556, 71.389
1371.750, 1.255
1372.944, 62.042
1374.138, 46.825
1375.331, 48.369
1376.525, 140.706
1377.718, 8.282
1378.911, 125.498
1380.104, 133.796
1381.297, 59.083
1382.490, 139.318
1383.682, 82.563
1384.874, 82.821
1386.066, 73.957
1387.258, 57.194
1388.450, 105.259
1389.641, 139.358
1390.833, 96.564
1392.024, 148.086
1393.215, 160.268
1394.406, 175.405
1395.596, 152.928
1396.787, 199.907
1397.977, 179.964
1399.167, 173.646
1400.357, 120.850
1401.547, 136.673
1402.736, 147.465
1403.925, 160.262
1405.115, 230.928
1406.304, 164.719
1407.492, 123.036
1408.681, 237.686
1409.870, 186.630
1411.058, 216.380
1412.246, 264.794
1413.434, 274.240
1414.622, 272.958
1415.809, 328.411
1416.997, 279.155
1418.184, 342.914
1419.371, 427.007
1420.558, 277.590
1421.744, 441.917
1422.931, 474.097
1424.117, 425.384
1425.303, 471.661
1426.489, 466.739
1427.675, 506.649
1428.861, 686.335
1430.046, 562.241
1431.231, 725.366
1432.416, 759.930
1433.601, 770.924
1434.786, 808.037
1435.970, 831.450
1437.155, 886.902
1438.339, 857.885
1439.523, 786.909
1440.707, 613.508
1441.890, 685.999
1443.074, 537.474
1444.257, 536.197
1445.440, 520.734
1446.623, 408.758
1447.806, 427.215
1448.989, 381.937
1450.171, 324.255
1451.353, 354.547
1452.535, 315.432
1453.717, 209.891
1454.899, 362.229
1456.080, 179.562
1457.262, 282.856
1458.443, 267.082
1459.624, 193.296
1460.805, 179.528
1461.985, 204.692
1463.166, 67.862
1464.346, 296.980
1465.526, 207.126
1466.706, 114.369
1467.886, 250.652
1469.065, 169.904
1470.245, 208.163
1471.424, 201.527
1472.603, 105.894
1473.782, 166.250
1474.960, 196.586
1476.139, 104.901
1477.317, 186.229
1478.495, 97.555
1479.673, 94.020
1480.851, 156.679
1482.029, 92.421
1483.206, 152.221
1484.383, 141.044
1485.560, 111.917
1486.737, 87.825
1487.914, 83.503
1489.091, 62.886
1490.267, 87.879
1491.443, 59.046
1492.619, 91.299
1493.795, 132.646
1494.971, 80.094
1496.146, 69.659
1497.322, 85.363
1498.497, 30.228
1499.672, 85.245
1500.846, 50.424
1502.021, 15.211
1503.196, 71.368
1504.370, 80.977
1505.544, 52.065
1506.718, 224.479
1507.892, 43.667
1509.065, 98.817
1510.238, 202.976
1511.412, 40.177
1512.585, 82.076
1513.758, 100.968
1514.930, 0.272
1516.103, 0.000
##END=



