##NAMES=Dolomite
##RRUFFID=R050370
##IDEAL CHEMISTRY=CaMg(CO_3_)_2_
##LOCALITY=Morro Velho mine, Nova Lima, Minas Gerais, Brazil
##OWNER=RRUFF
##SOURCE=Eugene Schlepp
##DESCRIPTION=Colorless bladed crystals associated with pyrrhotite and albite
##STATUS=The identification of this mineral has been confirmed by X-ray diffraction and chemical analysis
##URL=rruff.info/R050370
##MEASURED CHEMISTRY=(Ca_0.84_Fe_0.16_)_Σ=1_(Mg_0.98_Mn_0.02_)_Σ=1_(CO_3_)_2_ ; CO_2_ estimated by difference
##PIN_ID=L01076
##ORIENTATION=Laser parallel to a* (1 0 0). Fiducial mark perpendicular to laser is parallel to c [0 0 1]
118.1340, 0.0000000E+00
119.3650, 8.199707
120.5960, 54.39404
121.8270, 24.94775
123.0580, 4.254395
124.2880, 29.40723
125.5190, 1.162109
126.7490, 38.36182
127.9790, 61.66797
129.2090, 13.39502
130.4390, 116.1030
131.6680, 148.9106
132.8980, 143.8691
134.1270, 36.84912
135.3560, 64.74268
136.5850, 154.4590
137.8140, 209.9224
139.0430, 233.0640
140.2710, 207.8218
141.5000, 212.1440
142.7280, 302.9839
143.9560, 183.3008
145.1840, 207.0596
146.4120, 304.2314
147.6390, 395.7861
148.8670, 332.7021
150.0940, 352.9561
151.3210, 464.5303
152.5490, 447.4058
153.7750, 474.5688
155.0020, 644.0049
156.2290, 564.6978
157.4550, 707.6274
158.6810, 932.7778
159.9080, 1054.133
161.1340, 1279.661
162.3590, 1359.412
163.5850, 1690.318
164.8110, 1886.392
166.0360, 2050.626
167.2610, 2169.014
168.4860, 2333.550
169.7110, 2610.231
170.9360, 2939.053
172.1610, 3010.010
173.3850, 3061.098
174.6100, 3046.314
175.8340, 2892.653
177.0580, 2555.114
178.2820, 2157.694
179.5050, 1806.388
180.7290, 1483.193
181.9520, 1197.107
183.1760, 959.1274
184.3990, 842.2520
185.6220, 839.4771
186.8450, 729.8018
188.0670, 697.2241
189.2900, 608.7471
190.5120, 546.3926
191.7340, 533.5151
192.9560, 485.5562
194.1780, 498.6675
195.4000, 486.4849
196.6220, 447.3486
197.8430, 440.8271
199.0640, 385.1406
200.2860, 393.0786
201.5070, 421.0659
202.7270, 403.0894
203.9480, 349.1567
205.1690, 264.3003
206.3890, 331.5034
207.6090, 282.7524
208.8290, 315.0449
210.0490, 346.0679
211.2690, 406.7690
212.4890, 425.2002
213.7080, 416.6782
214.9280, 483.2026
216.1470, 533.7979
217.3660, 526.4399
218.5850, 581.1646
219.8030, 603.9341
221.0220, 582.7739
222.2400, 761.6611
223.4590, 855.5952
224.6770, 914.5747
225.8950, 889.5996
227.1120, 857.6709
228.3300, 704.7886
229.5480, 627.9517
230.7650, 707.1738
231.9820, 527.4536
233.1990, 558.7778
234.4160, 483.1494
235.6330, 416.5703
236.8490, 469.0347
238.0660, 277.5420
239.2820, 276.0913
240.4980, 510.6826
241.7140, 318.3154
242.9300, 362.9937
244.1460, 324.7173
245.3610, 390.4834
246.5770, 332.2915
247.7920, 370.1396
249.0070, 321.0273
250.2220, 418.9556
251.4370, 437.9229
252.6510, 479.9292
253.8660, 452.9722
255.0800, 549.0537
256.2940, 557.1729
257.5080, 652.3936
258.7220, 809.8477
259.9360, 941.0728
261.1490, 827.8311
262.3630, 784.3125
263.5760, 835.6357
264.7890, 908.0366
266.0020, 908.6846
267.2150, 1015.479
268.4270, 1190.059
269.6400, 1319.988
270.8520, 1477.179
272.0640, 1718.195
273.2760, 1888.129
274.4880, 2041.053
275.7000, 2444.538
276.9120, 2514.343
278.1230, 3023.239
279.3340, 3207.224
280.5450, 3648.291
281.7560, 4005.436
282.9670, 4409.591
284.1780, 4778.083
285.3880, 5073.242
286.5980, 5466.666
287.8090, 5805.154
289.0190, 6085.273
290.2290, 6277.006
291.4380, 6353.666
292.6480, 6337.354
293.8570, 6293.480
295.0670, 6057.296
296.2760, 6014.161
297.4850, 5611.074
298.6930, 5215.043
299.9020, 4608.068
301.1110, 4102.211
302.3190, 3523.319
303.5270, 2983.468
304.7350, 2578.656
305.9430, 2158.885
307.1510, 1984.152
308.3580, 1604.457
309.5660, 1392.799
310.7730, 1290.176
311.9800, 1051.354
313.1870, 958.8027
314.3940, 865.2842
315.6010, 675.7998
316.8070, 683.1035
318.0130, 644.6885
319.2200, 613.3047
320.4260, 622.9521
321.6310, 580.7051
322.8370, 456.2148
324.0430, 505.0840
325.2480, 466.8701
326.4540, 386.6943
327.6590, 426.5459
328.8640, 400.4258
330.0680, 466.3330
331.2730, 416.2881
332.4780, 362.2744
333.6820, 424.2920
334.8860, 338.3418
336.0900, 365.4170
337.2940, 515.5176
338.4980, 504.6426
339.7010, 525.7920
340.9050, 568.9678
342.1080, 604.5957
343.3110, 522.8184
344.5140, 479.0664
345.7170, 440.3369
346.9200, 423.9277
348.1220, 462.9512
349.3240, 394.8838
350.5270, 461.2500
351.7290, 381.8789
352.9310, 384.2891
354.1320, 337.7227
355.3340, 227.1777
356.5350, 180.6562
357.7370, 311.1553
358.9380, 223.6748
360.1390, 189.2188
361.3400, 139.7822
362.5400, 95.36719
363.7410, 109.9727
364.9410, 135.5996
366.1410, 163.0039
367.3410, 150.6709
368.5410, 162.2490
369.7410, 163.0645
370.9400, 130.2227
372.1400, 144.9678
373.3390, 79.73242
374.5380, 76.51562
375.7370, 9.319336
376.9360, 129.1523
378.1350, 134.0039
379.3330, 107.2217
380.5310, 105.9648
381.7300, 67.87402
382.9280, 83.79980
384.1260, 93.74512
385.3230, 22.70898
386.5210, 74.68945
387.7180, 41.68652
388.9160, 31.70117
390.1130, 120.7324
391.3100, 102.7793
392.5060, 106.8438
393.7030, 47.92383
394.9000, 3.978516
396.0960, 17.13379
397.2920, 12.44922
398.4880, 29.40430
399.6840, 7.572266
400.8800, 42.64160
402.0750, 5.436523
403.2710, 27.78027
404.4660, 8.987305
405.6610, 20.25195
406.8560, 50.50391
408.0510, 51.22949
409.2450, 31.95215
410.4400, 31.81738
411.6340, 46.20996
412.8280, 5.018555
414.0220, 29.66992
415.2160, 21.30566
416.4100, 40.67285
417.6030, 11.52930
418.7970, 18.88965
419.9900, 5.332031
421.1830, 90.79688
422.3760, 4.283203
423.5690, 23.79004
424.7610, 134.3174
425.9540, 26.13379
427.1460, 8.614258
428.3380, 45.29395
429.5300, 164.8926
430.7220, 93.50977
431.9140, 15.85449
433.1050, 51.20508
434.2970, 6.444336
435.4880, 24.88965
436.6790, 9.365234
437.8700, 24.47559
439.0610, 3.182617
440.2510, 83.07520
441.4420, 89.53418
442.6320, 62.79199
443.8220, 0.5664060
445.0120, 26.35547
446.2020, 52.16211
447.3910, 28.98242
448.5810, 138.8213
449.7700, 9.674805
450.9600, 92.54199
452.1490, 19.42578
453.3370, 39.32422
454.5260, 36.76172
455.7150, 81.15039
456.9030, 17.07910
458.0910, 66.02051
459.2800, 54.99512
460.4670, 188.9521
461.6550, 180.9111
462.8430, 82.88574
464.0300, 36.12598
465.2180, 59.88184
466.4050, 3.446289
467.5920, 27.20117
468.7790, 57.42578
469.9650, 72.50391
471.1520, 107.5527
472.3380, 60.61230
473.5250, 161.6582
474.7110, 59.75879
475.8970, 94.05859
477.0820, 17.86230
478.2680, 203.9814
479.4540, 88.11133
480.6390, 108.3271
481.8240, 136.4814
483.0090, 66.02539
484.1940, 37.79004
485.3780, 177.3838
486.5630, 91.56641
487.7470, 183.7627
488.9320, 174.9678
490.1160, 60.18457
491.3000, 0.4121090
492.4830, 60.64355
493.6670, 9.885742
494.8500, 88.13477
496.0340, 173.3926
497.2170, 83.66211
498.4000, 93.94043
499.5820, 206.2295
500.7650, 71.52734
501.9480, 103.8350
503.1300, 63.15234
504.3120, 184.4795
505.4940, 151.8164
506.6760, 105.1621
507.8580, 0.5166020
509.0390, 169.8740
510.2210, 213.2402
511.4020, 28.61523
512.5830, 9.000000
513.7640, 166.3887
514.9450, 76.78711
516.1250, 220.1943
517.3060, 175.6104
518.4860, 77.02441
519.6660, 87.45703
520.8460, 19.89648
522.0260, 52.90527
523.2060, 89.37109
524.3850, 120.8447
525.5650, 108.7979
526.7440, 104.2871
527.9230, 105.1045
529.1020, 96.72949
530.2810, 101.8018
531.4590, 103.3213
532.6380, 134.8486
533.8160, 173.3828
534.9940, 204.1484
536.1720, 113.7041
537.3500, 151.2051
538.5270, 152.7744
539.7050, 80.09668
540.8820, 171.2578
542.0590, 13.12793
543.2360, 221.6797
544.4130, 110.1768
545.5900, 132.7812
546.7660, 164.2012
547.9430, 55.81836
549.1190, 106.4688
550.2950, 91.29199
551.4710, 44.91895
552.6470, 172.5957
553.8220, 152.6152
554.9980, 191.1553
556.1730, 180.8525
557.3480, 167.8672
558.5230, 161.3809
559.6980, 129.1318
560.8730, 136.9395
562.0470, 99.51367
563.2220, 161.2129
564.3960, 88.91504
565.5700, 140.6230
566.7440, 309.3359
567.9170, 25.12109
569.0910, 30.84180
570.2640, 61.56738
571.4380, 181.2969
572.6110, 54.03125
573.7840, 258.2207
574.9570, 150.8555
576.1290, 141.6260
577.3020, 205.4277
578.4740, 189.8701
579.6460, 47.67676
580.8180, 26.48828
581.9900, 29.69727
583.1620, 7.783203
584.3330, 148.8828
585.5040, 104.5928
586.6760, 126.3857
587.8470, 186.1846
589.0180, 188.9854
590.1880, 72.79004
591.3590, 115.5986
592.5290, 50.41016
593.7000, 140.2266
594.8700, 132.0449
596.0400, 99.10059
597.2090, 56.92676
598.3790, 222.7559
599.5490, 1.588867
600.7180, 175.6631
601.8870, 119.4932
603.0560, 78.32520
604.2250, 149.1602
605.3940, 17.87012
606.5620, 8.035156
607.7300, 11.34375
608.8990, 20.53418
610.0670, 37.25781
611.2350, 97.05371
612.4020, 45.85059
613.5700, 67.34863
614.7370, 0.4121090
615.9050, 2.833984
617.0720, 11.08887
618.2390, 111.6436
619.4060, 163.3789
620.5720, 37.11523
621.7390, 133.2988
622.9050, 20.70605
624.0710, 199.4746
625.2370, 169.8379
626.4030, 149.6309
627.5690, 228.4346
628.7340, 284.2402
629.9000, 181.0488
631.0650, 175.8594
632.2300, 175.0820
633.3950, 187.8955
634.5600, 82.46973
635.7240, 73.28809
636.8890, 83.10938
638.0530, 124.9307
639.2170, 108.1943
640.3810, 57.58008
641.5450, 96.40723
642.7080, 91.27051
643.8720, 68.13574
645.0350, 73.00195
646.1980, 70.87109
647.3610, 78.74023
648.5240, 174.8545
649.6870, 56.72949
650.8490, 218.6045
652.0120, 184.4814
653.1740, 89.10059
654.3360, 158.9805
655.4980, 127.8604
656.6600, 106.7520
657.8210, 32.36621
658.9830, 205.4912
660.1440, 149.3496
661.3050, 13.34473
662.4660, 156.5166
663.6270, 79.37305
664.7870, 18.22949
665.9480, 96.08398
667.1080, 57.93652
668.2680, 200.7910
669.4280, 87.71582
670.5880, 170.5723
671.7480, 107.4287
672.9070, 106.3096
674.0670, 31.71387
675.2260, 328.5693
676.3850, 195.4248
677.5440, 153.2812
678.7030, 164.2373
679.8610, 23.90527
681.0200, 28.93164
682.1780, 19.83398
683.3360, 106.9844
684.4940, 131.9580
685.6520, 152.7783
686.8090, 132.6006
687.9670, 50.89258
689.1240, 141.7266
690.2810, 197.5693
691.4380, 47.41602
692.5950, 205.4678
693.7520, 91.32520
694.9080, 213.2031
696.0650, 90.08301
697.2210, 28.96680
698.3770, 4.145508
699.5330, 62.72949
700.6880, 56.86914
701.8440, 198.6953
702.9990, 140.5703
704.1550, 218.4453
705.3100, 255.3203
706.4650, 173.1934
707.6190, 314.8809
708.7740, 228.6592
709.9290, 217.5361
711.0830, 235.4121
712.2370, 240.1396
713.3910, 264.2871
714.5450, 380.9141
715.6980, 355.7998
716.8520, 447.1855
718.0050, 574.0762
719.1580, 620.9648
720.3110, 496.8320
721.4640, 639.0000
722.6170, 413.3887
723.7700, 477.2734
724.9220, 566.1592
726.0740, 486.0420
727.2260, 525.9258
728.3780, 406.8066
729.5300, 429.6895
730.6810, 414.5684
731.8330, 341.4492
732.9840, 329.3262
734.1350, 297.2031
735.2860, 245.5371
736.4370, 256.9707
737.5880, 206.8506
738.7380, 218.7031
739.8880, 188.2646
741.0390, 262.4854
742.1890, 140.3750
743.3380, 182.2637
744.4880, 167.1348
745.6380, 258.3750
746.7870, 201.6143
747.9360, 139.3057
749.0850, 132.1562
750.2340, 120.6992
751.3830, 269.9414
752.5310, 164.8604
753.6800, 167.7354
754.8280, 241.4219
755.9760, 145.6182
757.1240, 95.50879
758.2720, 190.3994
759.4190, 11.21484
760.5670, 14.32910
761.7140, 120.0645
762.8610, 148.5947
764.0080, 134.4756
765.1550, 265.3994
766.3020, 245.2783
767.4480, 149.1562
768.5950, 75.03320
769.7410, 194.9092
770.8870, 177.7871
772.0330, 105.6738
773.1780, 161.5527
774.3240, 117.4297
775.4690, 281.3066
776.6140, 134.1816
777.7590, 55.05664
778.9040, 177.9307
780.0490, 78.98242
781.1940, 136.8535
782.3380, 172.7246
783.4820, 86.59473
784.6260, 76.46289
785.7700, 129.5957
786.9140, 84.46484
788.0580, 75.33398
789.2010, 124.2002
790.3450, 40.06641
791.4880, 184.9326
792.6310, 83.79688
793.7730, 56.66016
794.9160, 155.5225
796.0590, 111.3936
797.2010, 74.25391
798.3430, 25.11426
799.4850, 20.58984
800.6270, 80.24512
801.7690, 74.07910
802.9100, 59.44141
804.0520, 126.2754
805.1930, 73.10840
806.3340, 43.94141
807.4750, 74.77148
808.6160, 132.6025
809.7560, 48.43262
810.8970, 8.739258
812.0370, 124.8604
813.1770, 135.6729
814.3170, 255.5645
815.4570, 38.37891
816.5960, 86.19043
817.7360, 252.4238
818.8750, 72.95703
820.0140, 186.4443
821.1530, 28.25879
822.2920, 118.0723
823.4310, 110.8848
824.5690, 11.54590
825.7070, 118.3301
826.8460, 105.1396
827.9840, 121.9473
829.1220, 24.70410
830.2590, 74.51074
831.3970, 91.27441
832.5340, 151.0811
833.6710, 179.8857
834.8080, 52.40430
835.9450, 151.8135
837.0820, 23.61914
838.2190, 155.4180
839.3550, 77.22070
840.4910, 158.0234
841.6270, 202.8252
842.7630, 154.6299
843.8990, 269.4336
845.0350, 183.2393
846.1700, 253.0439
847.3060, 102.8506
848.4410, 68.34277
849.5760, 40.42090
850.7100, 109.1836
851.8450, 127.9482
852.9800, 79.28711
854.1140, 170.4307
855.2480, 149.1484
856.3820, 22.86719
857.5160, 222.5850
858.6500, 133.3154
859.7830, 145.0527
860.9170, 215.7900
862.0500, 183.5283
863.1830, 195.2686
864.3160, 219.0088
865.4480, 58.75000
866.5810, 76.49023
867.7130, 124.2314
868.8460, 198.9746
869.9780, 171.7188
871.1100, 288.4629
872.2410, 297.2080
873.3730, 242.9551
874.5050, 99.70215
875.6360, 207.4551
876.7670, 211.2090
877.8980, 148.9639
879.0290, 343.7197
880.1590, 361.4766
881.2900, 180.2441
882.4200, 314.0146
883.5500, 282.7949
884.6800, 318.5850
885.8100, 156.3770
886.9400, 250.1709
888.0690, 48.96680
889.1990, 221.7861
890.3280, 192.6113
891.4570, 121.4424
892.5860, 64.28320
893.7140, 88.12500
894.8430, 38.96875
895.9710, 3.630859
897.1000, 93.45312
898.2280, 73.98047
899.3560, 93.09570
900.4830, 30.14258
901.6110, 86.60254
902.7380, 157.3496
903.8660, 96.09766
904.9930, 97.84863
906.1200, 59.60156
907.2460, 17.35645
908.3730, 54.11328
909.5000, 21.87109
910.6260, 61.63281
911.7520, 168.3955
912.8780, 243.1621
914.0040, 75.93066
915.1290, 133.2998
916.2550, 106.4043
917.3800, 188.1104
918.5050, 80.81934
919.6300, 133.5312
920.7550, 3.754883
921.8800, 51.95801
923.0040, 103.6738
924.1290, 95.39258
925.2530, 155.1309
926.3770, 135.6982
927.5010, 46.45117
928.6250, 98.20605
929.7480, 83.95703
930.8720, 52.71875
931.9950, 44.49805
933.1180, 76.27930
934.2410, 61.72852
935.3640, 66.20410
936.4860, 124.0049
937.6090, 180.8105
938.7310, 208.6211
939.8530, 125.4355
940.9750, 115.2539
942.0970, 153.0068
943.2180, 96.83105
944.3400, 151.6709
945.4610, 83.48828
946.5820, 156.7900
947.7030, 36.64258
948.8240, 3.500977
949.9450, 115.3574
951.0650, 152.1221
952.1860, 110.9893
953.3060, 18.87207
954.4260, 33.76074
955.5460, 2.664063
956.6650, 5.418945
957.7850, 49.33008
958.9040, 56.75391
960.0230, 75.68359
961.1420, 98.58301
962.2610, 207.4873
963.3800, 40.40039
964.4990, 180.1191
965.6170, 76.94824
966.7350, 119.9541
967.8530, 11.86133
968.9710, 136.7734
970.0890, 75.69238
971.2070, 38.64355
972.3240, 171.3848
973.4410, 105.3457
974.5580, 158.3115
975.6750, 74.28125
976.7920, 45.25684
977.9090, 60.48730
979.0250, 51.80273
980.1410, 78.21191
981.2580, 126.2070
982.3740, 166.2061
983.4890, 236.3604
984.6050, 160.3594
985.7200, 87.37500
986.8360, 167.3955
987.9510, 146.9248
989.0660, 63.95703
990.1810, 166.9951
991.2950, 47.89746
992.4100, 212.9512
993.5240, 180.0098
994.6390, 94.07617
995.7530, 82.14844
996.8660, 50.22559
997.9800, 92.30957
999.0940, 63.14844
1000.207, 166.5010
1001.320, 72.60840
1002.433, 94.72266
1003.546, 156.8418
1004.659, 223.9678
1005.772, 317.0996
1006.884, 125.2383
1007.996, 196.3828
1009.108, 98.53125
1010.220, 111.6875
1011.332, 178.8486
1012.444, 264.0166
1013.555, 234.1924
1014.666, 292.4131
1015.777, 144.5596
1016.888, 301.7520
1017.999, 233.9512
1019.110, 173.1562
1020.220, 237.3672
1021.331, 295.8662
1022.441, 225.0898
1023.551, 279.3193
1024.661, 328.5557
1025.770, 199.7969
1026.880, 401.0439
1027.989, 356.2969
1029.098, 261.5557
1030.207, 341.2529
1031.316, 258.6396
1032.425, 214.2676
1033.533, 381.6660
1034.642, 287.9277
1035.750, 252.2637
1036.858, 198.6064
1037.966, 526.9551
1039.073, 187.3115
1040.181, 358.6729
1041.288, 377.0488
1042.396, 262.4395
1043.503, 270.8379
1044.610, 329.2705
1045.716, 455.7100
1046.823, 516.1553
1047.929, 510.6689
1049.036, 415.9561
1050.142, 471.4287
1051.248, 456.9092
1052.353, 598.3955
1053.459, 611.8906
1054.564, 496.1348
1055.670, 584.6533
1056.775, 563.2031
1057.880, 534.4980
1058.985, 696.0664
1060.089, 696.4453
1061.194, 787.0371
1062.298, 901.6348
1063.402, 987.2393
1064.506, 1038.850
1065.610, 1134.598
1066.713, 1090.093
1067.817, 1296.727
1068.920, 1322.774
1070.023, 1426.434
1071.126, 1821.098
1072.229, 1740.769
1073.332, 1944.446
1074.435, 2275.130
1075.537, 2190.820
1076.639, 2350.734
1077.741, 2424.444
1078.843, 2865.160
1079.945, 3029.891
1081.046, 3660.627
1082.148, 4357.291
1083.249, 5304.039
1084.350, 6781.791
1085.451, 8587.555
1086.551, 11048.32
1087.652, 14940.09
1088.752, 19458.87
1089.853, 24386.65
1090.953, 29487.44
1092.053, 35146.38
1093.152, 39704.19
1094.252, 43202.00
1095.351, 44365.01
1096.451, 42419.83
1097.550, 37223.75
1098.649, 30415.63
1099.748, 22930.47
1100.846, 16406.31
1101.945, 11293.16
1103.043, 7807.205
1104.141, 5421.064
1105.239, 4095.932
1106.337, 3092.805
1107.434, 2409.683
1108.532, 1998.566
1109.629, 1665.455
1110.726, 1284.350
1111.823, 1162.248
1112.920, 992.1504
1114.017, 964.0586
1115.113, 901.9727
1116.210, 736.9131
1117.306, 785.8604
1118.402, 662.8350
1119.498, 787.8145
1120.593, 651.8213
1121.689, 568.8330
1122.784, 580.6748
1123.879, 508.6973
1124.974, 529.7236
1126.069, 519.9736
1127.164, 505.0088
1128.259, 469.0498
1129.353, 361.0938
1130.447, 292.1416
1131.541, 136.5996
1132.635, 257.6562
1133.729, 124.7168
1134.822, 292.7910
1135.916, 21.86816
1137.009, 202.9492
1138.102, 156.0342
1139.195, 13.12305
1140.288, 56.21680
1141.380, 263.3135
1142.473, 29.41406
1143.565, 197.5186
1144.657, 170.6260
1145.749, 93.86816
1146.841, 103.9824
1147.932, 323.1182
1149.024, 96.25781
1150.115, 225.4004
1151.206, 146.5459
1152.297, 15.30566
1153.388, 95.84375
1154.479, 58.99512
1155.569, 66.15137
1156.659, 169.3086
1157.750, 126.4707
1158.839, 185.6338
1159.929, 59.80078
1161.019, 130.9707
1162.108, 45.14551
1163.198, 97.34863
1164.287, 35.98633
1165.376, 39.23145
1166.465, 90.53906
1167.553, 99.78809
1168.642, 146.0508
1169.730, 92.28516
1170.818, 73.52148
1171.906, 45.06738
1172.994, 120.3076
1174.082, 106.7734
1175.170, 39.53516
1176.257, 11.80273
1177.344, 115.0576
1178.431, 2.696289
1179.518, 175.6016
1180.605, 408.1992
1181.691, 240.9219
1182.778, 117.7646
1183.864, 47.04785
1184.950, 152.4629
1186.036, 51.74805
1187.122, 63.86719
1188.207, 64.84668
1189.292, 169.1406
1190.378, 32.50977
1191.463, 170.7256
1192.548, 56.96094
1193.632, 152.1953
1194.717, 208.4287
1195.801, 92.66309
1196.886, 150.8955
1197.970, 131.6826
1199.054, 24.08594
1200.137, 143.1318
1201.221, 216.3477
1202.305, 33.56250
1203.388, 137.9033
1204.471, 62.11523
1205.554, 81.32715
1206.637, 35.46289
1207.719, 75.26074
1208.802, 174.4492
1209.884, 25.63477
1210.966, 80.82715
1212.048, 74.01074
1213.130, 14.19238
1214.212, 72.37305
1215.293, 167.5508
1216.374, 140.7275
1217.456, 128.9023
1218.536, 230.0771
1219.617, 85.25098
1220.698, 133.4219
1221.778, 63.59082
1222.859, 81.77051
1223.939, 91.94824
1225.019, 14.87695
1226.099, 36.28418
1227.178, 28.55859
1228.258, 54.57910
1229.337, 51.73047
1230.417, 98.87891
1231.496, 221.0264
1232.574, 76.83105
1233.653, 95.26562
1234.732, 70.35938
1235.810, 265.7617
1236.888, 194.8486
1237.966, 50.93262
1239.044, 79.01270
1240.122, 186.0908
1241.199, 139.1650
1242.277, 140.2354
1243.354, 39.30273
1244.431, 90.67871
1245.508, 163.7393
1246.585, 95.90332
1247.661, 179.4424
1248.738, 150.5430
1249.814, 138.5908
1250.890, 237.6338
1251.966, 1.328125
1253.042, 212.7002
1254.117, 205.7217
1255.193, 10.73926
1256.268, 310.7852
1257.343, 163.8770
1258.418, 84.87891
1259.493, 88.87793
1260.567, 9.129883
1261.642, 105.8457
1262.716, 239.8164
1263.790, 188.8496
1264.864, 164.8115
1265.938, 85.76855
1267.011, 80.77539
1268.085, 44.92285
1269.158, 179.7559
1270.231, 89.69336
1271.304, 90.62598
1272.377, 302.6465
1273.450, 218.5684
1274.522, 25.48633
1275.594, 284.3984
1276.666, 241.5107
1277.738, 116.4131
1278.810, 329.3076
1279.882, 275.1992
1280.953, 109.0840
1282.025, 75.75879
1283.096, 119.6328
1284.167, 170.5020
1285.238, 93.36621
1286.308, 81.22559
1287.379, 209.0791
1288.449, 196.9268
1289.519, 201.7705
1290.589, 93.60742
1291.659, 125.4395
