##NAMES=Dolomite
##RRUFFID=R050272
##IDEAL CHEMISTRY=CaMg(CO_3_)_2_
##LOCALITY=Eagle mine, Gillman, Colorado, USA
##OWNER=RRUFF
##SOURCE=University of Arizona Mineral Museum
##DESCRIPTION=Gray-white rhombohedral crystals
##STATUS=The identification of this mineral has been confirmed by X-ray diffraction and chemical analysis
##URL=rruff.info/R050272
##MEASURED CHEMISTRY=(Ca_0.96_Fe^2+^_0.04_)_Σ=1_(Mg_0.63_Mn^2+^_0.21_Fe^2+^_0.16_)_Σ=1_(CO_3_)_2_ ; CO_3_ estimated by difference and stoichiometry
##PIN_ID=L00059
##ORIENTATION=Laser parallel to c* (0 0 1). Fiducial mark perpendicular to laser is parallel to a [1 0 0]
63.360, 0.000
64.758, 0.133
66.157, 15.054
67.554, 16.922
68.952, 52.128
70.349, 48.820
71.747, 45.792
73.144, 7.175
74.540, 37.450
75.937, 10.648
77.333, 11.922
78.729, 31.912
80.125, 2.650
81.521, 19.998
82.916, 42.730
84.311, 55.448
85.706, 79.651
87.101, 114.696
88.496, 123.946
89.890, 136.472
91.284, 139.855
92.678, 132.395
94.071, 133.728
95.465, 122.105
96.858, 92.891
98.251, 106.981
99.644, 65.767
101.036, 59.811
102.428, 69.901
103.820, 71.487
105.212, 70.442
106.604, 80.185
107.995, 63.772
109.387, 63.064
110.777, 50.155
112.168, 41.008
113.559, 27.608
114.949, 128.942
116.339, 123.027
117.729, 80.882
119.119, 27.520
120.508, 9.955
121.897, 40.198
123.286, 36.257
124.675, 11.142
126.063, 7.138
127.452, 24.425
128.840, 24.878
130.228, 0.038
131.615, 37.868
133.003, 11.343
134.390, 37.007
135.777, 20.794
137.164, 56.229
138.550, 75.444
139.937, 91.888
141.323, 94.025
142.709, 101.799
144.094, 107.880
145.480, 122.329
146.865, 133.269
148.250, 173.077
149.635, 188.378
151.019, 230.766
152.403, 221.639
153.788, 259.959
155.171, 266.023
156.555, 332.016
157.939, 378.540
159.322, 460.327
160.705, 525.059
162.088, 652.358
163.470, 848.171
164.853, 1044.827
166.235, 1399.471
167.617, 1840.102
168.998, 2479.716
170.380, 3189.310
171.761, 3905.877
173.142, 4321.426
174.523, 3964.950
175.904, 3277.440
177.284, 2563.898
178.664, 1895.303
180.044, 1421.668
181.424, 1004.993
182.803, 750.280
184.183, 588.534
185.562, 475.758
186.940, 349.951
188.319, 316.115
189.698, 278.251
191.076, 225.360
192.454, 190.444
193.831, 138.503
195.209, 121.535
196.586, 118.541
197.963, 89.520
199.340, 71.472
200.717, 57.397
202.093, 53.295
203.470, 85.168
204.846, 19.015
206.221, 25.837
207.597, 45.752
208.972, 17.821
210.347, 17.112
211.722, 10.123
213.097, 0.948
214.472, 0.048
215.846, 14.857
217.220, 18.070
218.594, 3.749
219.967, 8.159
221.341, 46.979
222.714, 1.257
224.087, 18.717
225.460, 7.437
226.832, 6.114
228.204, 4.154
229.577, 24.042
230.948, 25.453
232.320, 11.932
233.692, 5.332
235.063, 31.568
236.434, 9.374
237.805, 11.070
239.175, 7.139
240.545, 23.383
241.916, 37.346
243.286, 59.148
244.655, 86.121
246.025, 32.382
247.394, 65.927
248.763, 44.399
250.132, 61.898
251.501, 86.523
252.869, 117.889
254.237, 122.491
255.605, 113.583
256.973, 131.784
258.340, 153.842
259.708, 149.799
261.075, 181.690
262.442, 189.323
263.808, 237.138
265.175, 262.518
266.541, 277.716
267.907, 307.950
269.273, 333.148
270.639, 371.265
272.004, 417.315
273.369, 471.342
274.734, 520.285
276.099, 561.943
277.463, 674.541
278.828, 791.889
280.192, 869.079
281.556, 1024.968
282.919, 1153.578
284.283, 1365.009
285.646, 1600.977
287.009, 1890.310
288.372, 2193.550
289.734, 2549.370
291.097, 2914.221
292.459, 3246.217
293.821, 3412.126
295.183, 3512.278
296.544, 3423.303
297.905, 3109.896
299.266, 2756.787
300.627, 2302.413
301.988, 1910.377
303.348, 1572.368
304.709, 1313.366
306.069, 1086.261
307.428, 903.173
308.788, 777.080
310.147, 656.977
311.507, 564.869
312.865, 511.826
314.224, 416.752
315.583, 376.797
316.941, 309.744
318.299, 349.686
319.657, 283.646
321.015, 298.562
322.372, 267.469
323.729, 265.336
325.086, 262.198
326.443, 261.003
327.800, 254.742
329.156, 244.464
330.512, 244.230
331.868, 288.870
333.224, 282.589
334.579, 286.240
335.935, 295.899
337.290, 298.508
338.645, 289.189
339.999, 292.761
341.354, 257.448
342.708, 255.086
344.062, 224.606
345.416, 206.198
346.769, 186.680
348.123, 172.148
349.476, 126.688
350.829, 122.129
352.182, 115.556
353.534, 115.000
354.887, 113.400
356.239, 132.687
357.591, 101.746
358.942, 93.723
360.294, 111.676
361.645, 83.497
362.996, 103.187
364.347, 102.750
365.698, 71.271
367.048, 75.042
368.398, 122.120
369.748, 74.312
371.098, 50.738
372.448, 105.780
373.797, 61.104
375.146, 86.866
376.495, 74.323
377.844, 70.724
379.192, 81.191
380.540, 52.212
381.889, 30.377
383.236, 54.158
384.584, 69.506
385.932, 79.833
387.279, 36.843
388.626, 56.603
389.973, 30.319
391.319, 36.477
392.666, 58.358
394.012, 26.123
395.358, 25.710
396.704, 21.290
398.049, 5.596
399.394, 38.252
400.740, 25.802
402.084, 28.356
403.429, 28.185
404.774, 40.153
406.118, 3.283
407.462, 20.544
408.806, 22.412
410.150, 39.542
411.493, 16.474
412.836, 4.466
414.179, 39.699
415.522, 12.977
416.865, 9.255
418.207, 16.477
419.549, 27.757
420.891, 30.112
422.233, 8.434
423.575, 11.873
424.916, 8.672
426.257, 2.815
427.598, 24.267
428.939, 10.705
430.279, 6.127
431.619, 10.535
432.959, 22.929
434.299, 0.309
435.639, 7.675
436.978, 40.028
438.318, 24.368
439.657, 39.697
440.996, 6.978
442.334, 27.325
443.673, 42.672
445.011, 6.050
446.349, 5.217
447.687, 14.474
449.024, 19.720
450.361, 18.955
451.699, 34.184
453.036, 17.409
454.372, 30.624
455.709, 41.833
457.045, 21.036
458.381, 17.229
459.717, 28.417
461.053, 28.596
462.388, 12.768
463.724, 20.930
465.059, 16.092
466.394, 28.270
467.728, 21.407
469.063, 15.534
470.397, 20.656
471.731, 11.769
473.065, 13.974
474.398, 16.970
475.732, 15.148
477.065, 22.227
478.398, 24.298
479.731, 13.361
481.063, 17.464
482.396, 13.223
483.728, 17.499
485.060, 13.683
486.391, 22.752
487.723, 33.774
489.054, 33.793
490.385, 18.805
491.716, 52.808
493.047, 21.805
494.377, 33.797
495.708, 27.808
497.038, 35.782
498.368, 24.755
499.697, 25.785
501.027, 4.743
502.356, 12.694
503.685, 36.636
505.014, 15.601
506.342, 41.535
507.671, 40.463
508.999, 16.384
510.327, 54.202
511.655, 36.989
512.982, 27.872
514.310, 52.629
515.637, 43.376
516.964, 55.201
518.291, 54.895
519.617, 39.554
520.944, 46.288
522.270, 42.903
523.596, 37.601
524.921, 51.306
526.247, 26.885
527.572, 71.479
528.897, 50.276
530.222, 51.877
531.547, 47.381
532.871, 39.122
534.196, 50.697
535.520, 33.396
536.844, 47.051
538.167, 36.701
539.491, 58.411
540.814, 55.004
542.137, 68.517
543.460, 68.677
544.783, 62.827
546.105, 65.568
547.427, 66.133
548.749, 63.787
550.071, 52.341
551.393, 71.933
552.714, 46.638
554.035, 47.229
555.356, 56.834
556.677, 36.426
557.998, 66.979
559.318, 43.673
560.638, 43.331
561.958, 34.005
563.278, 48.684
564.597, 53.415
565.917, 17.995
567.236, 37.648
568.555, 45.313
569.874, 33.052
571.192, 47.697
572.511, 24.205
573.829, 53.952
575.147, 47.589
576.464, 32.211
577.782, 23.865
579.099, 31.568
580.416, 50.284
581.733, 44.911
583.050, 66.554
584.366, 7.980
585.683, 60.586
586.999, 38.282
588.315, 12.922
589.630, 37.544
590.946, 14.185
592.261, 36.878
593.576, 11.477
594.891, 31.109
596.206, 34.876
597.520, 33.580
598.834, 8.350
600.148, 28.834
601.462, 1.446
602.776, 35.338
604.089, 23.847
605.402, 21.477
606.715, 16.147
608.028, 17.840
609.341, 14.637
610.653, 19.675
611.965, 14.365
613.277, 12.478
614.589, 19.275
615.901, 25.986
617.212, 12.093
618.523, 18.115
619.834, 19.590
621.145, 13.272
622.456, 4.989
623.766, 0.230
625.076, 36.703
626.386, 12.471
627.696, 24.729
629.006, 29.472
630.315, 13.159
631.624, 12.588
632.933, 3.701
634.242, 24.010
635.551, 25.864
636.859, 43.609
638.167, 12.310
639.475, 9.468
640.783, 8.570
642.090, 6.114
643.398, 0.216
644.705, 29.590
646.012, 17.597
647.318, 13.513
648.625, 32.245
649.931, 27.089
651.237, 7.836
652.543, 1.698
653.849, 27.473
655.155, 11.905
656.460, 1.322
657.765, 27.447
659.070, 34.136
660.375, 21.852
661.679, 4.783
662.984, 39.750
664.288, 41.576
665.592, 34.400
666.895, 8.238
668.199, 48.219
669.502, 3.497
670.805, 33.017
672.108, 34.835
673.411, 14.653
674.713, 25.470
676.016, 40.286
677.318, 45.246
678.620, 33.061
679.921, 51.968
681.223, 46.574
682.524, 37.450
683.825, 79.252
685.126, 40.457
686.427, 88.358
687.727, 93.276
689.028, 64.551
690.328, 59.849
691.628, 61.230
692.927, 78.038
694.227, 95.846
695.526, 125.654
696.825, 108.460
698.124, 148.437
699.423, 156.080
700.721, 195.885
702.020, 187.689
703.318, 217.492
704.616, 220.372
705.913, 283.143
707.211, 373.171
708.508, 410.061
709.805, 497.861
711.102, 682.660
712.399, 822.467
713.695, 1012.264
714.992, 1308.061
716.288, 1600.857
717.584, 2048.652
718.879, 2380.446
720.175, 2788.238
721.470, 2916.029
722.765, 2847.820
724.060, 2574.610
725.355, 2113.398
726.649, 1651.185
727.944, 1319.972
729.238, 975.758
730.532, 786.542
731.825, 595.326
733.119, 488.109
734.412, 369.891
735.705, 288.231
736.998, 216.011
738.291, 174.910
739.584, 188.687
740.876, 122.445
742.168, 118.221
743.460, 92.997
744.752, 81.771
746.043, 70.544
747.334, 53.316
748.626, 63.087
749.916, 55.857
751.207, 46.626
752.498, 67.473
753.788, 18.239
755.078, 16.997
756.368, 32.762
757.658, 34.468
758.947, 41.229
760.237, 42.990
761.526, 33.750
762.815, 38.164
764.104, 3.734
765.392, 25.144
766.680, 27.242
767.969, 3.008
769.257, 47.093
770.544, 15.836
771.832, 3.422
773.119, 12.314
774.406, 24.049
775.693, 19.783
776.980, 23.515
778.267, 3.237
779.553, 0.932
780.839, 4.657
782.125, 5.619
783.411, 8.097
784.697, 18.813
785.982, 8.473
787.267, 22.233
788.552, 10.860
789.837, 2.580
791.122, 24.281
792.406, 25.980
793.690, 3.322
794.974, 2.629
796.258, 5.942
797.542, 15.778
798.825, 4.218
800.108, 16.115
801.391, 2.540
802.674, 14.192
803.957, 10.842
805.239, 30.491
806.522, 4.134
807.804, 15.749
809.085, 22.608
810.367, 8.019
811.649, 33.582
812.930, 8.206
814.211, 13.829
815.492, 14.549
816.772, 0.038
818.053, 11.645
819.333, 12.250
820.613, 2.853
821.893, 1.445
823.173, 3.957
824.452, 8.489
825.732, 12.095
827.011, 8.677
828.290, 31.258
829.568, 25.644
830.847, 1.415
832.125, 7.989
833.403, 2.562
834.681, 25.867
835.959, 14.313
837.236, 11.230
838.514, 3.229
839.791, 2.308
841.068, 1.842
842.345, 4.627
843.621, 5.101
844.898, 6.581
846.174, 17.933
847.450, 22.445
848.726, 5.956
850.001, 18.465
851.277, 0.026
852.552, 11.521
853.827, 18.976
855.102, 12.472
856.376, 16.966
857.651, 1.459
858.925, 14.050
860.199, 1.568
861.473, 0.910
862.746, 18.386
864.020, 19.861
865.293, 3.335
866.566, 24.808
867.839, 17.279
869.112, 52.750
870.384, 44.220
871.656, 81.689
872.928, 80.157
874.200, 70.624
875.472, 61.091
876.744, 66.556
878.015, 43.021
879.286, 77.485
880.557, 94.948
881.828, 101.411
883.098, 63.873
884.369, 27.334
885.639, 36.795
886.909, 8.255
888.178, 9.285
889.448, 26.169
890.717, 1.378
891.987, 18.074
893.256, 32.525
894.524, 30.976
895.793, 33.153
897.061, 12.876
898.330, 24.325
899.598, 4.775
900.865, 10.223
902.133, 4.303
903.401, 7.120
904.668, 1.432
905.935, 5.015
907.202, 13.462
908.468, 12.908
909.735, 16.355
911.001, 28.801
912.267, 15.247
913.533, 4.694
914.799, 32.140
916.064, 12.586
917.330, 3.353
918.595, 7.908
919.860, 9.533
921.124, 8.392
922.389, 25.046
923.653, 4.485
924.918, 19.513
926.182, 22.945
927.445, 8.384
928.709, 9.823
929.972, 9.263
931.236, 11.620
932.499, 1.878
933.761, 18.274
935.024, 29.157
936.286, 10.578
937.549, 18.021
938.811, 18.732
940.073, 0.824
941.334, 1.387
942.596, 3.939
943.857, 31.385
945.118, 27.831
946.379, 27.840
947.640, 12.889
948.900, 40.744
950.161, 24.002
951.421, 21.392
952.681, 27.630
953.940, 15.961
955.200, 9.416
956.459, 19.871
957.719, 32.329
958.978, 40.723
960.236, 35.300
961.495, 33.021
962.753, 17.475
964.012, 18.939
965.270, 13.398
966.527, 10.928
967.785, 31.222
969.043, 16.456
970.300, 13.928
971.557, 31.404
972.814, 20.780
974.071, 26.100
975.327, 13.117
976.583, 27.877
977.840, 25.362
979.095, 26.853
980.351, 31.350
981.607, 34.851
982.862, 17.208
984.117, 58.715
985.372, 43.131
986.627, 74.851
987.882, 39.301
989.136, 61.816
990.390, 60.944
991.644, 14.376
992.898, 58.795
994.152, 53.863
995.405, 71.909
996.659, 77.874
997.912, 50.415
999.165, 73.959
1000.417, 42.508
1001.670, 47.060
1002.922, 72.443
1004.174, 76.164
1005.426, 88.332
1006.678, 96.295
1007.930, 105.865
1009.181, 113.360
1010.432, 116.965
1011.683, 111.316
1012.934, 105.807
1014.185, 100.391
1015.435, 110.979
1016.685, 148.563
1017.935, 129.162
1019.185, 124.765
1020.435, 177.372
1021.684, 164.982
1022.934, 163.602
1024.183, 149.227
1025.432, 162.076
1026.680, 164.989
1027.929, 187.121
1029.177, 192.759
1030.425, 200.403
1031.673, 227.050
1032.921, 252.702
1034.169, 252.362
1035.416, 266.030
1036.663, 315.700
1037.911, 319.374
1039.157, 322.490
1040.404, 315.171
1041.650, 361.733
1042.897, 404.420
1044.143, 357.110
1045.389, 426.804
1046.634, 433.503
1047.880, 438.206
1049.125, 460.912
1050.371, 458.626
1051.615, 507.344
1052.860, 543.065
1054.105, 558.823
1055.349, 596.438
1056.593, 611.170
1057.837, 647.906
1059.081, 685.644
1060.325, 732.387
1061.568, 790.132
1062.812, 865.865
1064.055, 938.533
1065.298, 1049.392
1066.540, 1128.151
1067.783, 1241.791
1069.025, 1381.213
1070.267, 1524.987
1071.509, 1789.411
1072.751, 1936.195
1073.993, 2082.983
1075.234, 2364.776
1076.475, 2557.574
1077.716, 2854.377
1078.957, 3265.183
1080.198, 3916.992
1081.438, 4780.806
1082.679, 5914.623
1083.919, 7491.446
1085.159, 9872.274
1086.398, 12403.105
1087.638, 16307.938
1088.877, 21082.781
1090.116, 27631.617
1091.355, 38836.445
1092.594, 48607.297
1093.833, 56123.148
1095.071, 56261.012
1096.309, 46406.883
1097.547, 34876.762
1098.785, 23342.633
1100.023, 14894.521
1101.260, 9832.411
1102.498, 6541.312
1103.735, 4672.216
1104.972, 3503.122
1106.208, 2618.033
1107.445, 2068.947
1108.681, 1713.865
1109.918, 1424.786
1111.154, 1221.717
1112.389, 1008.652
1113.625, 902.590
1114.860, 802.531
1116.096, 698.520
1117.331, 654.473
1118.566, 566.430
1119.800, 518.633
1121.035, 537.596
1122.269, 527.563
1123.503, 456.718
1124.737, 429.693
1125.971, 404.675
1127.205, 375.477
1128.438, 342.932
1129.671, 320.498
1130.904, 277.837
1132.137, 272.284
1133.370, 254.284
1134.602, 233.287
1135.834, 240.301
1137.066, 240.323
1138.298, 223.029
1139.530, 218.775
1140.762, 196.096
1141.993, 190.986
1143.224, 181.026
1144.455, 164.070
1145.686, 178.675
1146.917, 170.726
1148.147, 191.285
1149.377, 167.538
1150.607, 151.596
1151.837, 171.657
1153.067, 147.693
1154.296, 127.762
1155.526, 116.836
1156.755, 108.910
1157.984, 114.986
1159.213, 112.069
1160.441, 103.178
1161.670, 81.508
1162.898, 86.624
1164.126, 79.249
1165.354, 76.135
1166.581, 83.252
1167.809, 75.461
1169.036, 89.820
1170.263, 65.566
1171.490, 80.193
1172.717, 65.320
1173.943, 73.429
1175.170, 78.536
1176.396, 45.645
1177.622, 70.583
1178.848, 63.715
1180.073, 63.050
1181.299, 45.528
1182.524, 53.580
1183.749, 67.722
1184.974, 34.855
1186.199, 68.973
1187.423, 52.180
1188.648, 24.303
1189.872, 34.444
1191.096, 43.634
1192.320, 54.775
1193.543, 37.390
1194.767, 75.675
1195.990, 35.805
1197.213, 28.155
1198.436, 48.296
1199.659, 34.469
1200.881, 45.659
1202.104, 40.840
1203.326, 36.039
1204.548, 28.245
1205.770, 55.411
1206.991, 42.665
1208.213, 25.857
1209.434, 65.111
1210.655, 11.250
1211.876, 24.405
1213.096, 40.562
1214.317, 33.703
1215.537, 27.152
1216.757, 26.481
1217.977, 18.088
1219.197, 26.234
1220.417, 25.438
1221.636, 33.624
1222.855, 24.016
1224.074, 27.793
1225.293, 33.675
1226.512, 26.838
1227.731, 27.089
1228.949, 28.236
1230.167, 42.465
1231.385, 4.629
1232.603, 35.776
1233.820, 14.923
1235.038, 35.069
1236.255, 9.310
1237.472, 22.482
1238.689, 20.640
1239.906, 12.790
1241.122, 43.072
1242.338, 50.616
1243.555, 44.870
1244.771, 30.115
1245.986, 27.229
1247.202, 31.385
1248.417, 11.541
1249.633, 34.351
1250.848, 20.923
1252.063, 16.961
1253.277, 6.187
1254.492, 17.345
1255.706, 0.495
1256.920, 28.642
1258.134, 32.818
1259.348, 8.964
1260.562, 19.108
1261.775, 1.750
1262.988, 14.389
1264.201, 1.524
1265.414, 5.343
1266.627, 42.787
1267.839, 22.911
1269.052, 3.964
1270.264, 37.160
1271.476, 8.283
1272.688, 13.596
1273.899, 14.486
1275.111, 8.383
1276.322, 14.707
1277.533, 7.206
1278.744, 9.878
1279.955, 23.956
1281.165, 15.031
1282.376, 27.608
1283.586, 7.849
1284.796, 29.205
1286.006, 1.741
1287.215, 12.690
1288.425, 18.352
1289.634, 9.384
1290.843, 7.586
1292.052, 19.439
1293.261, 6.538
1294.469, 1.520
1295.678, 18.493
1296.886, 36.505
1298.094, 13.485
1299.302, 23.515
1300.509, 9.510
1301.717, 25.501
1302.924, 10.486
1304.131, 15.468
1305.338, 21.446
1306.545, 1.578
1307.752, 5.394
1308.958, 5.638
1310.164, 9.674
1311.370, 7.281
1312.576, 2.769
1313.782, 18.174
1314.987, 22.886
1316.193, 4.957
1317.398, 7.967
1318.603, 12.887
1319.807, 22.804
1321.012, 14.717
1322.216, 9.374
1323.421, 9.529
1324.625, 0.427
1325.829, 17.678
1327.032, 10.794
1328.236, 9.083
1329.439, 11.957
1330.642, 19.827
1331.845, 4.693
1333.048, 17.556
1334.251, 12.394
1335.453, 6.273
1336.656, 13.126
1337.858, 3.024
1339.060, 2.821
1340.261, 24.662
1341.463, 14.499
1342.664, 15.912
1343.866, 9.739
1345.067, 8.564
1346.267, 9.385
1347.468, 8.193
1348.669, 7.918
1349.869, 11.832
1351.069, 5.643
1352.269, 9.451
1353.469, 5.915
1354.668, 32.060
1355.868, 15.861
1357.067, 15.660
1358.266, 32.458
1359.465, 1.255
1360.664, 4.049
1361.862, 1.178
1363.061, 24.591
1364.259, 10.358
1365.457, 12.124
1366.655, 2.886
1367.852, 0.647
1369.050, 34.674
1370.247, 17.428
1371.444, 8.181
1372.641, 50.935
1373.838, 9.689
1375.035, 17.414
1376.231, 28.134
1377.427, 21.844
1378.623, 29.551
1379.819, 9.265
1381.015, 16.345
1382.211, 20.422
1383.406, 38.495
1384.601, 8.563
1385.796, 1.627
1386.991, 23.689
1388.185, 28.747
1389.380, 8.803
1390.574, 33.855
1391.768, 36.905
1392.962, 21.902
1394.156, 36.946
1395.350, 46.714
1396.543, 32.540
1397.736, 49.571
1398.929, 37.639
1400.122, 40.357
1401.315, 17.524
1402.507, 44.513
1403.700, 54.865
1404.892, 59.647
1406.084, 33.572
1407.276, 84.842
1408.467, 57.161
1409.659, 51.853
1410.850, 101.551
1412.041, 97.467
1413.232, 79.383
1414.423, 80.297
1415.614, 100.820
1416.804, 107.935
1417.994, 126.281
1419.184, 133.882
1420.374, 151.960
1421.564, 185.787
1422.753, 193.430
1423.943, 193.888
1425.132, 224.318
1426.321, 245.016
1427.510, 321.642
1428.698, 334.576
1429.887, 370.646
1431.075, 402.720
1432.263, 431.510
1433.451, 493.116
1434.639, 552.629
1435.827, 591.081
1437.014, 759.500
1438.201, 762.867
1439.388, 746.482
1440.575, 807.088
1441.762, 727.844
1442.949, 654.621
1444.135, 564.033
1445.321, 476.481
1446.507, 414.003
1447.693, 364.347
1448.879, 303.686
1450.064, 308.205
1451.250, 259.524
1452.435, 255.945
1453.620, 192.138
1454.805, 175.742
1455.989, 183.818
1457.174, 136.183
1458.358, 152.487
1459.542, 134.804
1460.726, 139.114
1461.910, 107.362
1463.093, 82.663
1464.277, 90.956
1465.460, 71.254
1466.643, 91.550
1467.826, 69.829
1469.009, 57.083
1470.191, 83.360
1471.373, 70.679
1472.556, 40.995
1473.738, 61.352
1474.919, 36.734
1476.101, 54.098
1477.283, 25.498
1478.464, 34.911
1479.645, 36.321
1480.826, 64.728
1482.007, 32.134
1483.187, 33.570
1484.368, 8.962
1485.548, 28.509
1486.728, 69.982
1487.908, 36.463
1489.088, 64.988
1490.268, 65.531
1491.447, 56.090
1492.626, 36.671
1493.805, 34.274
1494.984, 29.056
1496.163, 18.563
1497.341, 29.255
1498.520, 32.978
1499.698, 35.736
1500.876, 10.530
1502.054, 20.366
1503.232, 14.766
1504.409, 12.391
1505.586, 25.029
1506.763, 24.673
1507.940, 8.318
1509.117, 32.953
1510.294, 3.439
1511.470, 18.115
1512.647, 16.876
1513.823, 19.984
1514.999, 11.220
1516.174, 10.482
1517.350, 19.259
1518.526, 21.844
1519.701, 20.890
1520.876, 0.000
##END=



