##NAMES=Dolomite
##RRUFFID=R050272
##IDEAL CHEMISTRY=CaMg(CO_3_)_2_
##LOCALITY=Eagle mine, Gillman, Colorado, USA
##OWNER=RRUFF
##SOURCE=University of Arizona Mineral Museum
##DESCRIPTION=Gray-white rhombohedral crystals
##STATUS=The identification of this mineral has been confirmed by X-ray diffraction and chemical analysis
##URL=rruff.info/R050272
##MEASURED CHEMISTRY=(Ca_0.96_Fe^2+^_0.04_)_Σ=1_(Mg_0.63_Mn^2+^_0.21_Fe^2+^_0.16_)_Σ=1_(CO_3_)_2_ ; CO_3_ estimated by difference and stoichiometry
##PIN_ID=L00059
##ORIENTATION=Laser parallel to c* (0 0 1). Fiducial mark perpendicular to laser is parallel to a [1 0 0]
64.758, 0.000
66.157, 20.886
67.554, 10.954
68.952, 26.904
70.349, 29.905
71.747, 40.889
73.144, 26.456
74.540, 25.451
75.937, 0.730
77.333, 1.514
78.729, 0.395
80.125, 41.736
81.521, 41.590
82.916, 39.534
84.311, 84.518
85.706, 65.492
87.101, 52.712
88.496, 61.666
89.890, 71.437
91.284, 66.481
92.678, 65.902
94.071, 70.172
95.465, 63.881
96.858, 47.709
98.251, 43.789
99.644, 67.411
101.036, 28.199
102.428, 40.964
103.820, 21.557
105.212, 55.950
106.604, 53.662
107.995, 55.866
109.387, 27.750
110.777, 34.506
112.168, 30.100
113.559, 46.522
114.949, 64.751
116.339, 91.789
117.729, 86.648
119.119, 87.150
120.508, 8.876
121.897, 60.266
123.286, 19.516
124.675, 3.366
126.063, 5.373
127.452, 19.500
128.840, 23.192
130.228, 23.654
131.615, 6.829
133.003, 34.838
134.390, 36.069
135.777, 30.888
137.164, 49.826
138.550, 50.797
139.937, 60.303
141.323, 67.841
142.709, 64.434
144.094, 108.028
145.480, 90.954
146.865, 125.248
148.250, 143.112
149.635, 151.697
151.019, 180.937
152.403, 198.799
153.788, 208.167
155.171, 239.965
156.555, 286.251
157.939, 299.202
159.322, 341.048
160.705, 390.621
162.088, 506.962
163.470, 582.906
164.853, 775.595
166.235, 955.276
167.617, 1337.946
168.998, 1767.602
170.380, 2200.244
171.761, 2700.866
173.142, 2742.468
174.523, 2524.058
175.904, 2068.628
177.284, 1529.177
178.664, 1095.684
180.044, 804.160
181.424, 578.610
182.803, 451.034
184.183, 345.434
185.562, 297.812
186.940, 226.169
188.319, 185.503
189.698, 201.817
191.076, 130.113
192.454, 102.390
193.831, 129.647
195.209, 108.884
196.586, 69.101
197.963, 85.298
199.340, 48.475
200.717, 38.632
202.093, 36.769
203.470, 28.886
204.846, 7.984
206.221, 38.061
207.597, 32.119
208.972, 25.200
210.347, 4.391
211.722, 21.553
213.097, 18.719
214.472, 9.065
215.846, 10.770
217.220, 0.647
218.594, 2.445
219.967, 5.118
221.341, 10.382
222.714, 16.554
224.087, 5.677
225.460, 8.765
226.832, 4.295
228.204, 22.311
229.577, 22.262
230.948, 19.841
232.320, 4.745
233.692, 4.433
235.063, 8.832
236.434, 4.700
237.805, 21.496
239.175, 3.596
240.545, 32.623
241.916, 8.079
243.286, 25.668
244.655, 36.104
246.025, 56.782
247.394, 39.374
248.763, 59.769
250.132, 67.227
251.501, 64.578
252.869, 73.726
254.237, 86.862
255.605, 85.915
256.973, 88.916
258.340, 114.349
259.708, 134.206
261.075, 123.752
262.442, 153.280
263.808, 158.737
265.175, 168.248
266.541, 238.456
267.907, 207.964
269.273, 257.026
270.639, 258.289
272.004, 304.443
273.369, 343.664
274.734, 381.606
276.099, 433.557
277.463, 463.464
278.828, 566.337
280.192, 590.341
281.556, 711.509
282.919, 813.546
284.283, 949.530
285.646, 1080.948
287.009, 1261.939
288.372, 1505.448
289.734, 1644.147
291.097, 1912.814
292.459, 2092.263
293.821, 2197.763
295.183, 2286.229
296.544, 2106.354
297.905, 1949.830
299.266, 1656.317
300.627, 1444.663
301.988, 1166.158
303.348, 989.581
304.709, 801.122
306.069, 648.602
307.428, 570.960
308.788, 486.437
310.147, 396.728
311.507, 378.219
312.865, 298.834
314.224, 292.300
315.583, 264.772
316.941, 223.205
318.299, 230.595
319.657, 196.019
321.015, 201.377
322.372, 210.738
323.729, 204.098
325.086, 181.427
326.443, 179.699
327.800, 199.995
329.156, 184.319
330.512, 220.567
331.868, 230.819
333.224, 234.998
334.579, 284.224
335.935, 291.463
337.290, 298.609
338.645, 304.822
339.999, 282.960
341.354, 243.114
342.708, 236.232
344.062, 207.341
345.416, 164.447
346.769, 130.519
348.123, 128.580
349.476, 111.631
350.829, 104.672
352.182, 100.703
353.534, 85.723
354.887, 89.610
356.239, 95.372
357.591, 79.240
358.942, 97.012
360.294, 81.611
361.645, 75.269
362.996, 66.715
364.347, 63.181
365.698, 73.408
367.048, 58.660
368.398, 59.539
369.748, 51.867
371.098, 46.207
372.448, 39.326
373.797, 42.070
375.146, 39.200
376.495, 49.289
377.844, 47.234
379.192, 43.071
380.540, 45.270
381.889, 37.983
383.236, 42.752
384.584, 50.668
385.932, 52.692
387.279, 41.480
388.626, 39.356
389.973, 17.604
391.319, 29.723
392.666, 15.847
394.012, 33.100
395.358, 31.280
396.704, 17.459
398.049, 21.246
399.394, 39.373
400.740, 17.314
402.084, 4.894
403.429, 20.095
404.774, 3.574
406.118, 0.484
407.462, 1.467
408.806, 1.420
410.150, 13.558
411.493, 9.705
412.836, 2.762
414.179, 16.846
415.522, 6.954
416.865, 19.104
418.207, 12.236
419.549, 14.632
420.891, 13.587
422.233, 46.877
423.575, 18.114
424.916, 13.433
426.257, 10.742
427.598, 16.038
428.939, 7.675
430.279, 13.599
431.619, 14.863
432.959, 29.117
434.299, 6.361
435.639, 16.595
436.978, 18.820
438.318, 12.035
439.657, 44.242
440.996, 26.441
442.334, 6.630
443.673, 25.809
445.011, 31.979
446.349, 10.140
447.687, 2.706
449.024, 18.439
450.361, 29.578
451.699, 0.713
453.036, 13.844
454.372, 5.968
455.709, 9.085
457.045, 13.194
458.381, 18.298
459.717, 9.396
461.053, 22.504
462.388, 16.588
463.724, 24.664
465.059, 1.264
466.394, 2.800
467.728, 16.858
469.063, 23.910
470.397, 42.956
471.731, 11.996
473.065, 4.969
474.398, 12.057
475.732, 19.086
477.065, 22.104
478.398, 26.554
479.731, 13.120
481.063, 24.118
482.396, 18.938
483.728, 15.096
485.060, 18.077
486.391, 28.051
487.723, 19.024
489.054, 8.999
490.385, 23.968
491.716, 19.930
493.047, 34.888
494.377, 19.841
495.708, 13.789
497.038, 37.730
498.368, 13.667
499.697, 28.605
501.027, 21.553
502.356, 27.476
503.685, 26.395
505.014, 24.311
506.342, 33.224
507.671, 31.132
508.999, 37.038
510.327, 40.934
511.655, 53.800
512.982, 49.647
514.310, 51.852
515.637, 41.232
516.964, 48.057
518.291, 40.815
519.617, 40.648
520.944, 40.415
522.270, 36.522
523.596, 34.868
524.921, 31.565
526.247, 29.309
527.572, 24.995
528.897, 26.689
530.222, 25.351
531.547, 37.991
532.871, 42.606
534.196, 47.237
535.520, 63.861
536.844, 61.422
538.167, 67.023
539.491, 58.875
540.814, 61.560
542.137, 50.223
543.460, 29.911
544.783, 53.635
546.105, 36.371
547.427, 50.066
548.749, 60.754
550.071, 30.361
551.393, 45.035
552.714, 48.670
554.035, 69.393
555.356, 35.117
556.677, 46.793
557.998, 45.488
559.318, 60.268
560.638, 54.959
561.958, 41.602
563.278, 59.418
564.597, 57.062
565.917, 31.696
567.236, 49.337
568.555, 46.950
569.874, 34.644
571.192, 41.324
572.511, 45.976
573.829, 49.688
575.147, 31.360
576.464, 59.083
577.782, 43.780
579.099, 31.961
580.416, 39.665
581.733, 31.509
583.050, 41.233
584.366, 26.938
585.683, 43.632
586.999, 28.354
588.315, 36.837
589.630, 22.550
590.946, 41.270
592.261, 19.051
593.576, 33.737
594.891, 35.466
596.206, 29.206
597.520, 11.917
598.834, 14.766
600.148, 9.860
601.462, 13.233
602.776, 15.011
604.089, 22.812
605.402, 35.521
606.715, 24.445
608.028, 11.191
609.341, 10.985
610.653, 29.660
611.965, 21.390
613.277, 22.088
614.589, 17.800
615.901, 14.530
617.212, 5.284
618.523, 1.002
619.834, 15.776
621.145, 10.525
622.456, 41.845
623.766, 8.514
625.076, 19.209
626.386, 23.371
627.696, 8.157
629.006, 31.229
630.315, 19.130
631.624, 24.768
632.933, 4.305
634.242, 6.343
635.551, 13.297
636.859, 18.102
638.167, 19.859
639.475, 27.656
640.783, 48.451
642.090, 25.523
643.398, 35.371
644.705, 9.087
646.012, 9.789
647.318, 8.529
648.625, 12.346
649.931, 11.379
651.237, 17.392
652.543, 19.193
653.849, 15.956
655.155, 31.800
656.460, 5.565
657.765, 2.925
659.070, 45.723
660.375, 17.184
661.679, 36.133
662.984, 20.560
664.288, 20.396
665.592, 53.949
666.895, 30.099
668.199, 72.948
669.502, 41.864
670.805, 33.693
672.108, 60.976
673.411, 41.804
674.713, 59.012
676.016, 42.122
677.318, 56.947
678.620, 64.332
679.921, 48.864
681.223, 70.880
682.524, 74.519
683.825, 91.577
685.126, 89.912
686.427, 65.359
687.727, 84.180
689.028, 78.324
690.328, 78.143
691.628, 117.565
692.927, 111.442
694.227, 123.973
695.526, 124.789
696.825, 138.178
698.124, 151.421
699.423, 174.291
700.721, 197.464
702.020, 219.234
703.318, 256.046
704.616, 289.857
705.913, 324.667
707.211, 426.476
708.508, 492.285
709.805, 610.093
711.102, 786.940
712.399, 949.746
713.695, 1209.551
714.992, 1449.356
716.288, 1898.159
717.584, 2350.961
718.879, 2714.762
720.175, 3271.567
721.470, 3393.371
722.765, 3210.174
724.060, 2954.977
725.355, 2349.778
726.649, 1969.578
727.944, 1497.378
729.238, 1147.178
730.532, 911.976
731.825, 639.773
733.119, 523.569
734.412, 418.364
735.705, 305.161
736.998, 278.956
738.291, 189.750
739.584, 169.543
740.876, 149.335
742.168, 114.365
743.460, 116.155
744.752, 93.945
746.043, 90.036
747.334, 80.824
748.626, 62.610
749.916, 57.395
751.207, 47.179
752.498, 61.961
753.788, 12.923
755.078, 46.703
756.368, 26.481
757.658, 11.258
758.947, 26.034
760.237, 20.808
761.526, 2.418
762.815, 40.351
764.104, 26.156
765.392, 11.923
766.680, 18.689
767.969, 16.454
769.257, 24.217
770.544, 18.980
771.832, 26.130
773.119, 17.889
774.406, 13.629
775.693, 15.386
776.980, 5.858
778.267, 10.892
779.553, 20.641
780.839, 3.611
782.125, 14.131
783.411, 0.128
784.697, 0.610
785.982, 4.612
787.267, 9.654
788.552, 0.918
789.837, 0.803
791.122, 12.521
792.406, 8.759
793.690, 15.018
794.974, 5.747
796.258, 1.540
797.542, 3.168
798.825, 11.127
800.108, 27.430
801.391, 18.248
802.674, 5.926
803.957, 2.601
805.239, 1.725
806.522, 5.943
807.804, 13.611
809.085, 16.276
810.367, 16.158
811.649, 5.404
812.930, 15.232
814.211, 7.113
815.492, 1.535
816.772, 6.819
818.053, 11.819
819.333, 8.544
820.613, 1.915
821.893, 4.709
823.173, 2.332
824.452, 11.952
825.732, 20.429
827.011, 6.176
828.290, 3.220
829.568, 1.621
830.847, 13.973
832.125, 6.434
833.403, 8.847
834.681, 0.268
835.959, 10.692
837.236, 1.124
838.514, 0.439
839.791, 14.000
841.068, 4.560
842.345, 2.881
843.621, 27.673
844.898, 7.774
846.174, 1.772
847.450, 9.684
848.726, 24.853
850.001, 29.389
851.277, 8.923
852.552, 1.457
853.827, 4.989
855.102, 3.481
856.376, 5.046
857.651, 11.571
858.925, 16.105
860.199, 45.620
861.473, 29.143
862.746, 7.664
864.020, 1.185
865.293, 21.705
866.566, 43.224
867.839, 28.741
869.112, 25.259
870.384, 67.775
871.656, 92.291
872.928, 108.806
874.200, 91.320
875.472, 80.833
876.744, 88.762
878.015, 43.859
879.286, 98.370
880.557, 93.881
881.828, 108.392
883.098, 44.902
884.369, 25.411
885.639, 53.920
886.909, 47.629
888.178, 35.849
889.448, 39.270
890.717, 14.952
891.987, 10.459
893.256, 14.966
894.524, 21.528
895.793, 10.967
897.061, 15.462
898.330, 6.043
899.598, 21.448
900.865, 5.940
902.133, 26.431
903.401, 6.922
904.668, 20.413
905.935, 4.096
907.202, 1.392
908.468, 10.881
909.735, 2.370
911.001, 16.854
912.267, 29.343
913.533, 13.832
914.799, 4.025
916.064, 1.485
917.330, 14.004
918.595, 14.493
919.860, 6.982
921.124, 23.472
922.389, 14.962
923.653, 9.547
924.918, 11.940
926.182, 3.427
927.445, 26.915
928.709, 19.404
929.972, 22.357
931.236, 14.844
932.499, 5.334
933.761, 12.417
935.024, 10.908
936.286, 19.194
937.549, 8.478
938.811, 28.981
940.073, 1.324
941.334, 9.901
942.596, 5.226
943.857, 16.719
945.118, 3.794
946.379, 1.299
947.640, 29.177
948.900, 3.363
950.161, 10.787
951.421, 17.387
952.681, 24.965
953.940, 24.466
955.200, 30.953
956.459, 17.365
957.719, 23.132
958.978, 40.044
960.236, 21.552
961.495, 20.061
962.753, 11.572
964.012, 30.552
965.270, 18.066
966.527, 22.945
967.785, 33.335
969.043, 36.240
970.300, 33.761
971.557, 17.565
972.814, 20.775
974.071, 13.286
975.327, 22.731
976.583, 35.263
977.840, 11.343
979.095, 42.878
980.351, 34.037
981.607, 43.294
982.862, 54.837
984.117, 42.822
985.372, 50.093
986.627, 51.019
987.882, 48.755
989.136, 49.073
990.390, 49.489
991.644, 49.049
992.898, 64.610
994.152, 50.850
995.405, 39.418
996.659, 79.386
997.912, 74.902
999.165, 68.764
1000.417, 68.344
1001.670, 71.926
1002.922, 76.513
1004.174, 71.049
1005.426, 101.647
1006.678, 92.930
1007.930, 71.534
1009.181, 102.141
1010.432, 118.752
1011.683, 92.368
1012.934, 145.989
1014.185, 142.613
1015.435, 124.203
1016.685, 160.842
1017.935, 163.484
1019.185, 177.130
1020.435, 151.778
1021.684, 189.430
1022.934, 207.085
1024.183, 179.743
1025.432, 222.409
1026.680, 230.078
1027.929, 240.752
1029.177, 256.428
1030.425, 260.107
1031.673, 268.795
1032.921, 271.486
1034.169, 279.181
1035.416, 308.879
1036.663, 345.581
1037.911, 316.286
1039.157, 361.997
1040.404, 365.710
1041.650, 407.427
1042.897, 423.149
1044.143, 410.875
1045.389, 467.364
1046.634, 447.099
1047.880, 471.841
1049.125, 529.284
1050.371, 474.033
1051.615, 573.787
1052.860, 591.545
1054.105, 604.308
1055.349, 675.074
1056.593, 671.666
1057.837, 724.444
1059.081, 779.230
1060.325, 815.019
1061.568, 919.811
1062.812, 1016.608
1064.055, 1071.407
1065.298, 1218.213
1066.540, 1289.988
1067.783, 1444.804
1069.025, 1646.626
1070.267, 1758.451
1071.509, 2053.280
1072.751, 2221.113
1073.993, 2332.561
1075.234, 2756.401
1076.475, 2832.244
1077.716, 3254.091
1078.957, 3821.942
1080.198, 4298.802
1081.438, 5581.667
1082.679, 6590.537
1083.919, 8496.410
1085.159, 11559.290
1086.398, 13736.171
1087.638, 19103.789
1088.877, 24234.682
1090.116, 31518.564
1091.355, 46200.465
1092.594, 54953.375
1093.833, 64774.285
1095.071, 64886.129
1096.309, 52060.027
1097.547, 39746.949
1098.785, 26187.879
1100.023, 16500.809
1101.260, 11209.749
1102.498, 7432.698
1103.735, 5258.665
1104.972, 3918.622
1106.208, 2949.584
1107.445, 2393.551
1108.681, 1912.521
1109.918, 1569.495
1111.154, 1363.472
1112.389, 1153.453
1113.625, 1023.440
1114.860, 900.464
1116.096, 773.517
1117.331, 717.568
1118.566, 625.575
1119.800, 573.703
1121.035, 600.832
1122.269, 529.854
1123.503, 495.879
1124.737, 424.908
1125.971, 422.940
1127.205, 396.981
1128.438, 360.109
1129.671, 336.290
1130.904, 330.344
1132.137, 296.401
1133.370, 285.464
1134.602, 266.533
1135.834, 275.607
1137.066, 286.687
1138.298, 252.775
1139.530, 225.863
1140.762, 241.954
1141.993, 209.047
1143.224, 224.493
1144.455, 205.594
1145.686, 196.700
1146.917, 188.810
1148.147, 174.925
1149.377, 174.047
1150.607, 160.712
1151.837, 138.040
1153.067, 145.012
1154.296, 141.152
1155.526, 145.284
1156.755, 134.766
1157.984, 113.905
1159.213, 110.583
1160.441, 105.139
1161.670, 113.339
1162.898, 112.218
1164.126, 116.667
1165.354, 111.762
1166.581, 103.380
1167.809, 92.286
1169.036, 87.477
1170.263, 65.642
1171.490, 70.889
1172.717, 60.126
1173.943, 76.291
1175.170, 49.662
1176.396, 65.841
1177.622, 66.026
1178.848, 56.359
1180.073, 51.532
1181.299, 71.878
1182.524, 66.147
1183.749, 57.325
1184.974, 48.694
1186.199, 66.256
1187.423, 49.438
1188.648, 52.622
1189.872, 62.209
1191.096, 42.436
1192.320, 27.657
1193.543, 22.528
1194.767, 20.462
1195.990, 42.944
1197.213, 29.143
1198.436, 44.442
1199.659, 54.174
1200.881, 34.487
1202.104, 39.709
1203.326, 32.660
1204.548, 28.247
1205.770, 33.346
1206.991, 26.640
1208.213, 26.678
1209.434, 36.182
1210.655, 26.390
1211.876, 29.771
1213.096, 36.689
1214.317, 37.019
1215.537, 51.769
1216.757, 36.048
1217.977, 20.265
1219.197, 15.624
1220.417, 25.878
1221.636, 16.118
1222.855, 13.333
1224.074, 12.571
1225.293, 42.786
1226.512, 5.967
1227.731, 35.242
1228.949, 18.670
1230.167, 9.929
1231.385, 23.151
1232.603, 22.395
1233.820, 10.611
1235.038, 19.858
1236.255, 34.087
1237.472, 17.356
1238.689, 3.577
1239.906, 22.829
1241.122, 28.052
1242.338, 25.333
1243.555, 9.584
1244.771, 27.841
1245.986, 21.096
1247.202, 40.326
1248.417, 24.635
1249.633, 0.947
1250.848, 14.284
1252.063, 24.517
1253.277, 9.760
1254.492, 18.992
1255.706, 12.224
1256.920, 17.471
1258.134, 5.705
1259.348, 2.939
1260.562, 1.827
1261.775, 2.591
1262.988, 2.358
1264.201, 2.875
1265.414, 3.891
1266.627, 3.661
1267.839, 14.563
1269.052, 0.785
1270.264, 13.005
1271.476, 10.221
1272.688, 16.426
1273.899, 2.370
1275.111, 3.167
1276.322, 4.034
1277.533, 3.228
1278.744, 3.421
1279.955, 13.606
1281.165, 26.789
1282.376, 13.971
1283.586, 2.148
1284.796, 27.325
1286.006, 11.498
1287.215, 6.665
1288.425, 5.176
1289.634, 25.980
1290.843, 16.131
1292.052, 16.274
1293.261, 29.407
1294.469, 5.538
1295.678, 8.333
1296.886, 1.216
1298.094, 12.106
1299.302, 4.998
1300.509, 11.099
1301.717, 3.803
1302.924, 8.292
1304.131, 6.624
1305.338, 4.547
1306.545, 1.526
1307.752, 9.404
1308.958, 18.340
1310.164, 0.715
1311.370, 2.766
1312.576, 9.814
1313.782, 3.859
1314.987, 9.898
1316.193, 1.934
1317.398, 14.034
1318.603, 23.989
1319.807, 0.009
1321.012, 10.024
1322.216, 9.035
1323.421, 14.958
1324.625, 23.041
1325.829, 1.035
1327.032, 3.024
1328.236, 25.009
1329.439, 0.990
1330.642, 2.034
1331.845, 23.936
1333.048, 18.902
1334.251, 2.135
1335.453, 6.821
1336.656, 7.773
1337.858, 6.278
1339.060, 11.336
1340.261, 9.599
1341.463, 19.530
1342.664, 4.457
1343.866, 3.619
1345.067, 4.299
1346.267, 12.213
1347.468, 6.877
1348.669, 0.973
1349.869, 9.074
1351.069, 5.818
1352.269, 10.706
1353.469, 5.591
1354.668, 28.473
1355.868, 3.352
1357.067, 5.773
1358.266, 5.206
1359.465, 2.927
1360.664, 7.935
1361.862, 17.794
1363.061, 4.651
1364.259, 10.515
1365.457, 13.368
1366.655, 26.237
1367.852, 14.089
1369.050, 21.931
1370.247, 9.229
1371.444, 9.605
1372.641, 3.474
1373.838, 11.301
1375.035, 19.126
1376.231, 13.962
1377.427, 29.849
1378.623, 13.565
1379.819, 18.727
1381.015, 11.887
1382.211, 37.044
1383.406, 15.199
1384.601, 27.350
1385.796, 12.499
1386.991, 17.629
1388.185, 16.770
1389.380, 17.908
1390.574, 27.043
1391.768, 12.137
1392.962, 7.146
1394.156, 34.138
1395.350, 25.129
1396.543, 23.245
1397.736, 39.357
1398.929, 36.216
1400.122, 23.319
1401.315, 39.420
1402.507, 38.517
1403.700, 52.606
1404.892, 42.697
1406.084, 47.356
1407.276, 79.438
1408.467, 42.513
1409.659, 51.633
1410.850, 85.591
1412.041, 77.189
1413.232, 65.520
1414.423, 75.926
1415.614, 118.205
1416.804, 93.984
1417.994, 130.917
1419.184, 133.771
1420.374, 134.230
1421.564, 145.880
1422.753, 150.127
1423.943, 188.803
1425.132, 192.587
1426.321, 212.646
1427.510, 268.550
1428.698, 275.766
1429.887, 335.545
1431.075, 401.793
1432.263, 461.479
1433.451, 523.275
1434.639, 661.832
1435.827, 699.502
1437.014, 850.069
1438.201, 849.661
1439.388, 847.876
1440.575, 904.432
1441.762, 768.999
1442.949, 716.347
1444.135, 598.977
1445.321, 520.603
1446.507, 463.307
1447.693, 413.432
1448.879, 357.970
1450.064, 333.504
1451.250, 293.829
1452.435, 256.448
1453.620, 235.857
1454.805, 205.241
1455.989, 172.656
1457.174, 193.507
1458.358, 150.917
1459.542, 142.276
1460.726, 146.603
1461.910, 96.930
1463.093, 89.224
1464.277, 76.491
1465.460, 83.732
1466.643, 92.976
1467.826, 92.213
1469.009, 51.488
1470.191, 71.733
1471.373, 50.984
1472.556, 50.250
1473.738, 47.500
1474.919, 53.734
1476.101, 61.995
1477.283, 39.263
1478.464, 28.582
1479.645, 33.913
1480.826, 38.286
1482.007, 21.665
1483.187, 61.031
1484.368, 39.450
1485.548, 62.868
1486.728, 70.278
1487.908, 33.686
1489.088, 39.104
1490.268, 28.532
1491.447, 44.967
1492.626, 32.411
1493.805, 25.872
1494.984, 19.351
1496.163, 22.849
1497.341, 17.370
1498.520, 7.918
1499.698, 2.505
1500.876, 12.096
1502.054, 4.723
1503.232, 19.375
1504.409, 14.994
1505.586, 2.777
1506.763, 11.537
1507.940, 1.346
1509.117, 5.209
1510.294, 9.600
1511.470, 20.382
1512.647, 20.187
1513.823, 0.228
1514.999, 15.921
1516.174, 32.781
1517.350, 2.891
1518.526, 0.046
1519.701, 0.000
##END=



