##NAMES=Dolomite
##RRUFFID=R050129
##IDEAL CHEMISTRY=CaMg(CO_3_)_2_
##LOCALITY=Black Cloud mine, Leadville, Lake County, Colorado, USA
##OWNER=RRUFF
##SOURCE=Dave Bunk Minerals
##DESCRIPTION=Aggregate of colorless to white rhombohedra
##STATUS=The identification of this mineral has been confirmed by X-ray diffraction and chemical analysis
##URL=rruff.info/R050129
##MEASURED CHEMISTRY=Ca(Mg_0.62_Fe^2+^_0.33_Mn_0.05_)_Î£=1_(CO_3_)_2_ ; CO_2_ estimated by difference
##PIN_ID=M00233
##ORIENTATION=Laser parallel to -c* (0 0 -1). Fiducial mark perpendicular to laser is parallel to [1 1 0]
109.513, 0.000
110.905, 1.017
112.297, 59.200
113.688, 65.416
115.079, 51.114
116.470, 151.560
117.861, 196.207
119.251, 134.052
120.642, 85.759
122.032, 7.035
123.422, 2.836
124.811, 41.961
126.201, 68.764
127.590, 127.187
128.979, 127.356
130.367, 145.219
131.756, 133.829
133.144, 129.889
134.532, 133.921
135.920, 98.465
137.307, 42.105
138.695, 112.883
140.082, 170.390
141.469, 87.750
142.856, 94.699
144.242, 112.936
145.628, 104.500
147.014, 72.457
148.400, 153.925
149.786, 68.297
151.171, 167.954
152.556, 144.272
153.941, 192.917
155.325, 142.156
156.710, 217.417
158.094, 236.128
159.478, 250.118
160.862, 398.690
162.245, 374.714
163.629, 571.794
165.012, 659.757
166.395, 858.026
167.777, 1240.855
169.160, 1511.937
170.542, 2358.511
171.924, 2606.749
173.306, 2962.630
174.687, 2728.474
176.068, 2017.094
177.449, 1648.749
178.830, 1053.600
180.211, 833.314
181.591, 560.653
182.972, 496.129
184.351, 484.873
185.731, 325.513
187.111, 256.396
188.490, 209.680
189.869, 207.456
191.248, 167.304
192.626, 217.288
194.005, 240.541
195.383, 211.905
196.761, 222.364
198.139, 200.896
199.516, 181.458
200.893, 70.052
202.271, 97.682
203.647, 59.340
205.024, 39.018
206.400, 71.699
207.777, 50.379
209.152, 27.053
210.528, 60.257
211.904, 40.633
213.279, 16.583
214.654, 60.737
216.029, 10.928
217.403, 25.023
218.778, 43.996
220.152, 3.474
221.526, 14.911
222.900, 41.526
224.273, 2.253
225.646, 19.919
227.019, 55.959
228.392, 41.207
229.765, 27.871
231.137, 6.059
232.509, 21.187
233.881, 19.779
235.253, 28.435
236.625, 25.356
237.996, 9.642
239.367, 0.370
240.738, 2.032
242.108, 40.032
243.479, 24.321
244.849, 38.591
246.219, 38.714
247.589, 33.702
248.958, 34.512
250.328, 26.539
251.697, 42.279
253.065, 13.050
254.434, 41.546
255.803, 28.995
257.171, 33.333
258.539, 15.513
259.906, 48.587
261.274, 70.758
262.641, 21.318
264.008, 63.428
265.375, 61.016
266.742, 100.508
268.108, 82.218
269.475, 87.123
270.840, 117.416
272.206, 130.639
273.572, 177.609
274.937, 158.873
276.302, 181.497
277.667, 256.979
279.032, 297.160
280.396, 369.039
281.760, 367.424
283.125, 393.597
284.488, 516.566
285.852, 516.141
287.215, 707.253
288.578, 725.792
289.941, 896.623
291.304, 1023.336
292.666, 1064.316
294.029, 1292.151
295.391, 1168.835
296.753, 1257.379
298.114, 1091.735
299.476, 1000.032
300.837, 875.992
302.198, 668.378
303.558, 603.149
304.919, 429.015
306.279, 391.470
307.639, 378.790
308.999, 261.912
310.359, 205.180
311.718, 235.973
313.077, 198.164
314.436, 166.511
315.795, 171.418
317.154, 164.199
318.512, 130.920
319.870, 143.259
321.228, 133.062
322.586, 151.538
323.943, 126.040
325.300, 139.585
326.657, 143.426
328.014, 175.060
329.371, 173.170
330.727, 213.040
332.083, 263.014
333.439, 232.746
334.795, 284.324
336.150, 303.801
337.506, 289.131
338.861, 325.294
340.215, 262.569
341.570, 286.597
342.924, 254.703
344.279, 172.794
345.633, 211.631
346.986, 150.459
348.340, 160.357
349.693, 153.089
351.046, 140.279
352.399, 125.235
353.752, 115.222
355.104, 126.065
356.457, 129.958
357.809, 94.925
359.160, 106.759
360.512, 71.604
361.863, 108.404
363.214, 94.033
364.565, 100.871
365.916, 95.977
367.267, 123.650
368.617, 120.044
369.967, 84.938
371.317, 53.507
372.666, 58.621
374.016, 96.221
375.365, 125.547
376.714, 111.385
378.063, 85.927
379.411, 75.622
380.760, 121.597
382.108, 71.902
383.456, 124.181
384.803, 101.328
386.151, 95.589
387.498, 68.505
388.845, 53.299
390.192, 75.842
391.539, 54.307
392.885, 21.209
394.231, 87.877
395.577, 45.633
396.923, 46.552
398.269, 53.396
399.614, 35.823
400.959, 50.285
402.304, 30.316
403.649, 36.479
404.993, 55.389
406.337, 42.092
407.681, 37.953
409.025, 19.858
410.369, 21.629
411.712, 26.503
413.055, 46.170
414.398, 55.030
415.741, 32.208
417.084, 51.574
418.426, 46.844
419.768, 51.518
421.110, 44.679
422.452, 18.546
423.793, 4.599
425.134, 14.659
426.475, 11.251
427.816, 28.159
429.157, 44.398
430.497, 37.436
431.837, 34.629
433.177, 62.809
434.517, 52.842
435.857, 29.515
437.196, 53.919
438.535, 30.478
439.874, 22.071
441.213, 3.719
442.551, 35.361
443.889, 33.587
445.227, 43.113
446.565, 58.661
447.903, 43.117
449.240, 28.576
450.577, 52.014
451.914, 82.375
453.251, 38.730
454.588, 35.031
455.924, 51.308
457.260, 40.549
458.596, 49.927
459.932, 39.139
461.267, 55.292
462.602, 78.477
463.938, 56.572
465.272, 60.639
466.607, 44.692
467.941, 53.701
469.276, 89.683
470.610, 17.589
471.943, 56.344
473.277, 29.932
474.610, 92.499
475.944, 51.419
477.276, 30.837
478.609, 67.202
479.942, 58.403
481.274, 33.732
482.606, 76.905
483.938, 51.141
485.270, 21.255
486.601, 67.520
487.932, 43.707
489.263, 46.976
490.594, 76.219
491.925, 25.612
493.255, 41.223
494.585, 54.665
495.915, 54.204
497.245, 64.723
498.575, 102.224
499.904, 39.707
501.233, 124.172
502.562, 48.619
503.891, 37.090
505.219, 82.170
506.548, 67.407
507.876, 33.377
509.203, 35.379
510.531, 77.360
511.859, 84.275
513.186, 56.174
514.513, 41.954
515.840, 92.963
517.166, 89.791
518.493, 68.467
519.819, 89.258
521.145, 52.822
522.470, 89.532
523.796, 75.176
525.121, 57.846
526.446, 69.542
527.771, 59.303
529.096, 40.054
530.421, 49.655
531.745, 65.124
533.069, 61.617
534.393, 68.267
535.716, 56.040
537.040, 82.759
538.363, 39.377
539.686, 107.959
541.009, 46.735
542.331, 52.305
543.654, 50.101
544.976, 34.823
546.298, 89.522
547.620, 107.118
548.941, 83.655
550.263, 61.324
551.584, 86.933
552.905, 48.407
554.225, 97.172
555.546, 17.763
556.866, 73.377
558.186, 54.022
559.506, 41.616
560.826, 55.275
562.145, 36.859
563.465, 73.478
564.784, 41.177
566.103, 79.823
567.421, 30.454
568.740, 57.010
570.058, 17.576
571.376, 39.163
572.694, 37.144
574.011, 61.546
575.329, 43.177
576.646, 19.889
577.963, 19.583
579.279, 11.039
580.596, 28.000
581.912, 24.592
583.228, 27.167
584.544, 62.397
585.860, 29.976
587.175, 14.626
588.491, 44.342
589.806, 4.029
591.121, 33.701
592.435, 52.518
593.750, 14.264
595.064, 2.910
596.378, 6.345
597.692, 41.339
599.006, 48.968
600.319, 23.492
601.632, 21.845
602.945, 39.790
604.258, 16.462
605.571, 31.058
606.883, 22.726
608.195, 19.333
609.507, 30.536
610.819, 25.213
612.131, 64.513
613.442, 28.148
614.753, 52.751
616.064, 2.572
617.375, 23.159
618.685, 51.267
619.995, 16.975
621.306, 46.778
622.615, 51.538
623.925, 27.325
625.235, 67.992
626.544, 71.696
627.853, 66.575
629.162, 3.127
630.471, 24.158
631.779, 48.455
633.087, 15.005
634.395, 34.291
635.703, 54.913
637.011, 27.343
638.318, 8.133
639.625, 50.728
640.932, 31.697
642.239, 53.764
643.546, 3.312
644.852, 25.495
646.158, 46.138
647.464, 57.873
648.770, 33.811
650.076, 24.381
651.381, 66.175
652.686, 51.867
653.991, 80.596
655.296, 72.835
656.600, 50.204
657.905, 37.929
659.209, 67.737
660.513, 20.403
661.817, 48.020
663.120, 28.816
664.423, 80.979
665.726, 62.001
667.029, 25.619
668.332, 26.598
669.635, 13.420
670.937, 73.702
672.239, 2.256
673.541, 39.529
674.842, 46.816
676.144, 13.588
677.445, 66.368
678.746, 38.100
680.047, 86.878
681.348, 75.679
682.648, 18.419
683.948, 65.193
685.248, 79.718
686.548, 139.389
687.848, 36.111
689.147, 109.924
690.447, 122.693
691.746, 59.460
693.044, 127.211
694.343, 102.758
695.641, 107.443
696.940, 156.205
698.238, 122.938
699.535, 180.682
700.833, 159.384
702.130, 166.057
703.427, 233.812
704.724, 176.575
706.021, 252.327
707.318, 333.078
708.614, 341.827
709.910, 419.567
711.206, 501.359
712.502, 689.973
713.798, 730.717
715.093, 1017.459
716.388, 1299.177
717.683, 1448.917
718.978, 2004.714
720.272, 2245.451
721.567, 2503.170
722.861, 2686.904
724.155, 2123.579
725.448, 2159.310
726.742, 1472.934
728.035, 1174.649
729.328, 974.356
730.621, 687.081
731.914, 589.804
733.206, 415.440
734.499, 388.074
735.791, 283.674
737.083, 194.344
738.374, 171.000
739.666, 191.668
740.957, 118.381
742.248, 129.064
743.539, 33.683
744.830, 97.390
746.120, 82.964
747.410, 21.810
748.701, 83.511
749.990, 82.166
751.280, 42.734
752.570, 18.195
753.859, 21.888
755.148, 29.582
756.437, 25.236
757.725, 28.265
759.014, 26.951
760.302, 11.425
761.590, 27.842
762.878, 41.891
764.166, 2.770
765.453, 9.105
766.740, 5.474
768.027, 37.172
769.314, 27.194
770.601, 24.432
771.887, 19.887
773.174, 19.526
774.460, 38.080
775.745, 60.622
777.031, 19.462
778.316, 19.342
779.602, 36.922
780.887, 36.517
782.172, 25.108
783.456, 30.697
784.741, 30.172
786.025, 24.919
787.309, 4.498
788.593, 3.427
789.876, 22.139
791.160, 41.703
792.443, 6.733
793.726, 32.729
795.009, 13.720
796.291, 17.183
797.574, 39.349
798.856, 34.245
800.138, 30.222
801.420, 9.718
802.702, 6.211
803.983, 48.700
805.264, 6.156
806.545, 107.641
807.826, 17.123
809.107, 12.718
810.387, 65.195
811.667, 8.669
812.947, 121.971
814.227, 80.936
815.507, 51.159
816.786, 69.498
818.065, 17.045
819.344, 0.402
820.623, 33.500
821.902, 5.918
823.180, 17.336
824.459, 1.693
825.737, 1.732
827.014, 33.165
828.292, 0.418
829.569, 36.991
830.847, 54.326
832.124, 19.731
833.401, 31.133
834.677, 18.533
835.954, 69.930
837.230, 33.275
838.506, 5.332
839.782, 68.051
841.057, 21.432
842.333, 12.811
843.608, 24.187
844.883, 50.560
846.158, 34.932
847.433, 22.699
848.707, 47.652
849.981, 26.001
851.255, 18.349
852.529, 78.693
853.803, 8.964
855.076, 31.368
856.350, 65.698
857.623, 18.026
858.895, 38.352
860.168, 28.676
861.441, 20.997
862.713, 28.305
863.985, 10.635
865.257, 28.950
866.528, 46.263
867.800, 48.575
869.071, 24.885
870.342, 69.193
871.613, 7.499
872.884, 91.802
874.154, 34.104
875.425, 25.404
876.695, 78.702
877.965, 94.998
879.234, 83.292
880.504, 71.586
881.773, 63.983
883.042, 79.167
884.311, 44.455
885.580, 22.742
886.848, 41.028
888.117, 55.313
889.385, 43.598
890.653, 16.882
891.920, 44.164
893.188, 32.445
894.455, 105.724
895.722, 29.002
896.989, 33.280
898.256, 100.556
899.523, 3.836
900.789, 69.085
902.055, 7.361
903.321, 36.635
904.587, 43.909
905.852, 50.142
907.118, 10.389
908.383, 67.660
909.648, 77.920
910.913, 96.192
912.177, 38.462
913.442, 6.131
914.706, 2.867
915.970, 41.607
917.233, 49.137
918.497, 13.532
919.760, 52.120
921.024, 45.354
922.287, 8.685
923.550, 65.895
924.812, 54.087
926.075, 42.854
927.337, 39.086
928.599, 20.680
929.861, 21.505
931.122, 52.654
932.384, 3.865
933.645, 79.074
934.906, 11.259
936.167, 64.467
937.428, 77.673
938.688, 17.865
939.948, 29.391
941.208, 15.989
942.468, 35.173
943.728, 32.782
944.987, 5.833
946.247, 27.055
947.506, 25.088
948.765, 0.084
950.023, 69.142
951.282, 32.928
952.540, 17.155
953.798, 52.307
955.056, 44.379
956.314, 116.609
957.572, 68.680
958.829, 46.912
960.086, 4.897
961.343, 29.276
962.600, 40.509
963.856, 45.645
965.113, 43.879
966.369, 7.114
967.625, 6.350
968.881, 28.586
970.136, 41.408
971.392, 17.770
972.647, 65.465
973.902, 22.511
975.157, 17.286
976.411, 21.377
977.666, 8.775
978.920, 71.461
980.174, 11.193
981.428, 67.432
982.682, 47.940
983.935, 37.892
985.188, 33.135
986.441, 22.354
987.694, 61.603
988.947, 97.853
990.199, 80.597
991.452, 80.585
992.704, 57.834
993.956, 64.049
995.207, 39.312
996.459, 54.578
997.710, 57.846
998.961, 120.333
1000.212, 102.606
1001.463, 119.881
1002.714, 96.144
1003.964, 97.704
1005.214, 50.741
1006.464, 100.026
1007.714, 93.319
1008.964, 118.603
1010.213, 88.900
1011.462, 114.205
1012.711, 136.512
1013.960, 64.833
1015.209, 120.111
1016.457, 35.436
1017.705, 118.764
1018.954, 137.094
1020.201, 117.427
1021.449, 189.762
1022.697, 149.001
1023.944, 169.339
1025.191, 216.680
1026.438, 125.023
1027.685, 182.368
1028.931, 216.716
1030.177, 173.066
1031.423, 196.427
1032.669, 189.790
1033.915, 165.156
1035.161, 246.537
1036.406, 178.157
1037.651, 269.543
1038.896, 230.010
1040.141, 241.401
1041.386, 299.814
1042.630, 235.229
1043.874, 303.645
1045.118, 319.071
1046.362, 289.540
1047.606, 440.973
1048.849, 362.311
1050.092, 332.602
1051.336, 433.043
1052.578, 328.487
1053.821, 496.933
1055.064, 421.381
1056.306, 460.832
1057.548, 610.283
1058.790, 518.740
1060.032, 626.198
1061.273, 658.659
1062.515, 714.129
1063.756, 835.011
1064.997, 835.079
1066.237, 902.845
1067.478, 1089.331
1068.718, 1096.096
1069.959, 1276.595
1071.199, 1396.096
1072.438, 1444.654
1073.678, 1795.176
1074.918, 1578.699
1076.157, 1920.336
1077.396, 2045.885
1078.635, 2062.211
1079.873, 2694.499
1081.112, 2792.068
1082.350, 3420.644
1083.588, 4658.220
1084.826, 5010.801
1086.064, 7324.389
1087.301, 9361.980
1088.539, 11859.572
1089.776, 19797.174
1091.013, 24014.775
1092.250, 34432.469
1093.486, 44300.070
1094.723, 40777.688
1095.959, 40875.898
1097.195, 30243.518
1098.431, 19511.139
1099.666, 14408.823
1100.902, 8416.470
1102.137, 5861.118
1103.372, 4310.769
1104.607, 2763.425
1105.842, 2394.133
1107.076, 1741.792
1108.311, 1331.452
1109.545, 1267.999
1110.779, 877.664
1112.012, 864.339
1113.246, 761.008
1114.479, 574.678
1115.712, 611.351
1116.945, 478.026
1118.178, 363.702
1119.411, 483.522
1120.643, 431.554
1121.875, 460.243
1123.108, 416.935
1124.339, 329.018
1125.571, 294.930
1126.802, 292.601
1128.034, 176.339
1129.265, 234.044
1130.496, 209.750
1131.727, 276.459
1132.957, 197.168
1134.187, 200.879
1135.418, 236.289
1136.648, 188.009
1137.877, 194.723
1139.107, 243.808
1140.336, 215.527
1141.566, 188.247
1142.795, 190.899
1144.023, 136.621
1145.252, 167.545
1146.480, 119.411
1147.709, 124.378
1148.937, 151.158
1150.165, 100.889
1151.392, 103.813
1152.620, 128.055
1153.847, 57.792
1155.074, 119.875
1156.301, 43.611
1157.528, 51.347
1158.755, 86.607
1159.981, 64.343
1161.207, 75.730
1162.433, 123.765
1163.659, 4.499
1164.885, 75.411
1166.110, 81.144
1167.336, 20.964
1168.561, 16.840
1169.786, 58.569
1171.010, 57.298
1172.235, 83.026
1173.459, 61.753
1174.683, 51.591
1175.907, 33.383
1177.131, 21.204
1178.355, 63.011
1179.578, 30.811
1180.801, 30.653
1182.024, 23.426
1183.247, 9.834
1184.470, 9.045
1185.692, 2.951
1186.915, 22.756
1188.137, 46.033
1189.359, 36.838
1190.580, 58.538
1191.802, 15.843
1193.023, 7.043
1194.244, 130.075
1195.465, 20.954
1196.686, 34.724
1197.907, 108.563
1199.127, 9.342
1200.347, 77.053
1201.567, 28.976
1202.787, 31.789
1204.007, 98.489
1205.226, 53.534
1206.446, 76.210
1207.665, 75.866
1208.884, 46.242
1210.102, 93.892
1211.321, 91.841
1212.539, 32.663
1213.758, 145.371
1214.976, 6.497
1216.193, 58.159
1217.411, 75.803
1218.628, 20.393
1219.846, 85.028
1221.063, 68.661
1222.280, 12.891
1223.496, 115.515
1224.713, 66.303
1225.929, 54.195
1227.145, 70.818
1228.361, 82.111
1229.577, 100.768
1230.793, 43.643
1232.008, 78.727
1233.223, 96.329
1234.438, 118.051
1235.653, 44.644
1236.868, 100.235
1238.082, 24.109
1239.297, 49.694
1240.511, 122.277
1241.725, 5.766
1242.938, 84.863
1244.152, 83.438
1245.365, 37.132
1246.578, 93.705
1247.791, 60.275
1249.004, 84.239
1250.217, 83.805
1251.429, 38.375
1252.642, 73.937
1253.854, 62.495
1255.066, 76.238
1256.277, 77.792
1257.489, 51.345
1258.700, 105.891
1259.911, 54.434
1261.122, 55.232
1262.333, 131.800
1263.544, 73.328
1264.754, 23.932
1265.964, 103.452
1267.174, 93.969
1268.384, 127.475
1269.594, 100.978
1270.803, 10.472
1272.013, 17.945
1273.222, 51.415
1274.431, 60.880
1275.640, 134.341
1276.848, 76.799
1278.057, 75.294
1279.265, 140.743
1280.473, 1.824
1281.681, 61.581
1282.888, 71.982
1284.096, 5.376
1285.303, 66.734
1286.510, 85.078
1287.717, 4.589
1288.924, 65.733
1290.131, 19.048
1291.337, 32.356
1292.543, 15.657
1293.749, 55.949
1294.955, 76.224
1296.161, 22.491
1297.366, 3.750
1298.571, 85.999
1299.777, 9.774
1300.981, 70.442
1302.186, 92.623
1303.391, 12.229
1304.595, 71.900
1305.799, 29.980
1307.003, 14.108
1308.207, 81.188
1309.411, 29.257
1310.614, 73.317
1311.818, 51.366
1313.021, 38.406
1314.224, 89.437
1315.426, 90.455
1316.629, 78.586
1317.831, 108.463
1319.033, 47.452
1320.235, 58.432
1321.437, 51.398
1322.639, 19.647
1323.840, 56.288
1325.042, 46.213
1326.243, 34.873
1327.444, 70.018
1328.644, 45.660
1329.845, 15.527
1331.045, 107.303
1332.245, 58.852
1333.445, 51.963
1334.645, 83.767
1335.845, 11.439
1337.044, 8.337
1338.244, 16.103
1339.443, 20.854
1340.642, 80.692
1341.840, 38.422
1343.039, 52.143
1344.237, 67.814
1345.435, 23.517
1346.633, 42.209
1347.831, 68.893
1349.029, 13.569
1350.226, 73.234
1351.424, 88.416
1352.621, 12.934
1353.818, 127.700
1355.014, 20.327
1356.211, 36.946
1357.407, 66.557
1358.604, 10.162
1359.800, 76.485
1360.995, 97.075
1362.191, 16.341
1363.387, 148.192
1364.582, 99.924
1365.777, 42.537
1366.972, 115.892
1368.167, 35.558
1369.361, 23.938
1370.556, 142.498
1371.750, 4.983
1372.944, 69.447
1374.138, 25.163
1375.331, 8.398
1376.525, 86.027
1377.718, 50.679
1378.911, 80.595
1380.104, 142.837
1381.297, 23.981
1382.490, 94.598
1383.682, 86.808
1384.874, 17.961
1386.066, 70.152
1387.258, 83.279
1388.450, 54.453
1389.641, 182.617
1390.833, 95.764
1392.024, 18.911
1393.215, 160.048
1394.406, 84.023
1395.596, 88.141
1396.787, 142.005
1397.977, 41.863
1399.167, 163.952
1400.357, 119.032
1401.547, 87.274
1402.736, 167.321
1403.925, 33.923
1405.115, 78.818
1406.304, 138.583
1407.492, 69.113
1408.681, 91.047
1409.870, 112.136
1411.058, 132.366
1412.246, 126.312
1413.434, 121.239
1414.622, 116.209
1415.809, 142.829
1416.997, 102.562
1418.184, 213.209
1419.371, 263.049
1420.558, 75.725
1421.744, 153.316
1422.931, 188.001
1424.117, 141.119
1425.303, 290.612
1426.489, 233.820
1427.675, 195.405
1428.861, 407.533
1430.046, 266.783
1431.231, 402.891
1432.416, 440.011
1433.601, 384.068
1434.786, 590.287
1435.970, 651.122
1437.155, 710.691
1438.339, 942.618
1439.523, 877.651
1440.707, 715.201
1441.890, 859.095
1443.074, 562.431
1444.257, 558.087
1445.440, 564.832
1446.623, 381.644
1447.806, 447.111
1448.989, 405.229
1450.171, 240.952
1451.353, 363.302
1452.535, 287.189
1453.717, 266.128
1454.899, 295.643
1456.080, 162.357
1457.262, 185.135
1458.443, 300.709
1459.624, 170.808
1460.805, 137.269
1461.985, 181.680
1463.166, 131.319
1464.346, 175.417
1465.526, 182.653
1466.706, 78.861
1467.886, 227.081
1469.065, 115.274
1470.245, 81.394
1471.424, 188.313
1472.603, 99.400
1473.782, 120.473
1474.960, 139.686
1476.139, 63.899
1477.317, 179.062
1478.495, 146.168
1479.673, 28.296
1480.851, 155.375
1482.029, 73.495
1483.206, 123.854
1484.383, 168.323
1485.560, 97.865
1486.737, 124.402
1487.914, 124.951
1489.091, 75.504
1490.267, 158.077
1491.443, 132.663
1492.619, 9.702
1493.795, 130.967
1494.971, 73.673
1496.146, 52.432
1497.322, 192.259
1498.497, 39.146
1499.672, 59.108
1500.846, 157.860
1502.021, 69.998
1503.196, 85.215
1504.370, 67.515
1505.544, 1.914
1506.718, 163.976
1507.892, 78.104
1509.065, 26.273
1510.238, 145.465
1511.412, 19.680
1512.585, 81.819
1513.758, 48.699
1514.930, 0.992
1516.103, 73.473
1517.275, 87.511
1518.447, 0.202
1519.619, 0.000
##END=



