##NAMES=Dolomite
##RRUFFID=R050370
##IDEAL CHEMISTRY=CaMg(CO_3_)_2_
##LOCALITY=Morro Velho mine, Nova Lima, Minas Gerais, Brazil
##OWNER=RRUFF
##SOURCE=Eugene Schlepp
##DESCRIPTION=Colorless bladed crystals associated with pyrrhotite and albite
##STATUS=The identification of this mineral has been confirmed by X-ray diffraction and chemical analysis
##URL=rruff.info/R050370
##MEASURED CHEMISTRY=(Ca_0.84_Fe_0.16_)_Σ=1_(Mg_0.98_Mn_0.02_)_Σ=1_(CO_3_)_2_ ; CO_2_ estimated by difference
##PIN_ID=L00563
##ORIENTATION=Laser parallel to -c* (0 0 -1). Fiducial mark perpendicular to laser is parallel to a [1 0 0]
118.1340, 0.0000000E+00
119.3650, 30.26855
120.5960, 11.98877
121.8270, 3.307373
123.0580, 35.51831
124.2880, 17.98047
125.5190, 51.73145
126.7490, 53.52759
127.9790, 48.18604
129.2090, 103.5662
130.4390, 22.55811
131.6680, 3.075928
132.8980, 40.06250
134.1270, 141.4641
135.3560, 114.2288
136.5850, 168.3140
137.8140, 176.6860
139.0430, 159.3145
140.2710, 145.1741
141.5000, 209.2432
142.7280, 171.5044
143.9560, 180.9417
145.1840, 137.5413
146.4120, 185.3694
147.6390, 213.3635
148.8670, 261.4758
150.0940, 293.6995
151.3210, 328.9006
152.5490, 355.4521
153.7750, 404.9709
155.0020, 439.5801
156.2290, 493.2734
157.4550, 549.0425
158.6810, 707.8813
159.9080, 831.7874
161.1340, 1038.758
162.3590, 1261.790
163.5850, 1458.884
164.8110, 1713.037
166.0360, 1908.249
167.2610, 2290.514
168.4860, 2550.831
169.7110, 2931.197
170.9360, 3126.610
172.1610, 3185.068
173.3850, 3023.503
174.6100, 2862.433
175.8340, 2522.066
177.0580, 2038.644
178.2820, 1705.271
179.5050, 1208.932
180.7290, 944.6260
181.9520, 778.3521
183.1760, 576.1101
184.3990, 429.8987
185.6220, 426.7153
186.8450, 391.5767
188.0670, 326.4636
189.2900, 300.6399
190.5120, 198.3638
191.7340, 226.3752
192.9560, 141.3828
194.1780, 140.3760
195.4000, 157.3674
196.6220, 153.3682
197.8430, 127.3811
199.0640, 118.4199
200.2860, 47.46655
201.5070, 114.5706
202.7270, 120.6877
203.9480, 99.81274
205.1690, 28.95728
206.3890, 37.18481
207.6090, 65.41992
208.8290, 4.663086
210.0490, 64.95874
211.2690, 54.29102
212.4890, 87.63062
213.7080, 113.9773
214.9280, 27.33179
216.1470, 55.69434
217.3660, 36.06421
218.5850, 15.44238
219.8030, 56.82886
221.0220, 56.23975
222.2400, 46.95557
223.4590, 61.08472
224.6770, 11.51855
225.8950, 33.95996
227.1120, 11.59131
228.3300, 15.13525
229.5480, 27.67163
230.7650, 102.8013
231.9820, 4.716797
233.1990, 14.77295
234.4160, 121.2703
235.6330, 31.75732
236.8490, 39.25903
238.0660, 68.76782
239.2820, 79.28345
240.4980, 37.80591
241.7140, 73.97876
242.9300, 2.872070
244.1460, 82.41528
245.3610, 126.9656
246.5770, 92.52002
247.7920, 61.15820
249.0070, 69.71777
250.2220, 54.28369
251.4370, 114.8562
252.6510, 88.43457
253.8660, 176.9382
255.0800, 113.5210
256.2940, 152.1099
257.5080, 168.7046
258.7220, 284.3330
259.9360, 327.9399
261.1490, 260.1309
262.3630, 233.3179
263.5760, 195.9148
264.7890, 265.3516
266.0020, 327.2290
267.2150, 365.9587
268.4270, 404.4578
269.6400, 434.4175
270.8520, 481.9211
272.0640, 474.4954
273.2760, 545.6023
274.4880, 662.7241
275.7000, 642.9067
276.9120, 770.1226
278.1230, 900.6426
279.3340, 970.9175
280.5450, 1121.218
281.7560, 1232.645
282.9670, 1426.210
284.1780, 1571.603
285.3880, 1693.071
286.5980, 1850.659
287.8090, 1943.087
289.0190, 2127.533
290.2290, 2269.994
291.4380, 2382.890
292.6480, 2359.863
293.8570, 2418.368
295.0670, 2334.888
296.2760, 2217.419
297.4850, 2207.963
298.6930, 1902.519
299.9020, 1683.317
301.1110, 1428.895
302.3190, 1271.621
303.5270, 1106.219
304.7350, 981.8259
305.9430, 822.4424
307.1510, 665.0674
308.3580, 571.7017
309.5660, 483.3440
310.7730, 412.0059
311.9800, 367.1394
313.1870, 324.3196
314.3940, 302.9929
315.6010, 267.6736
316.8070, 232.3611
318.0130, 248.0557
319.2200, 266.7537
320.4260, 229.4502
321.6310, 174.4358
322.8370, 147.2122
324.0430, 197.9265
325.2480, 166.6467
326.4540, 233.3726
327.6590, 271.1040
328.8640, 253.8406
330.0680, 304.5825
331.2730, 301.9243
332.4780, 239.0811
333.6820, 320.8379
334.8860, 298.5991
336.0900, 320.3650
337.2940, 333.1348
338.4980, 299.9092
339.7010, 333.6875
340.9050, 297.5986
342.1080, 274.3860
343.3110, 272.1775
344.5140, 167.1648
345.7170, 196.9644
346.9200, 165.7678
348.1220, 53.57495
349.3240, 104.3860
350.5270, 125.2007
351.7290, 16.98120
352.9310, 63.83643
354.1320, 95.66797
355.3340, 98.49170
356.5350, 119.1802
357.7370, 53.15234
358.9380, 103.9883
360.1390, 32.83081
361.3400, 20.67603
362.5400, 110.5239
363.7410, 54.37427
364.9410, 49.22778
366.1410, 49.08325
367.3410, 23.07275
368.5410, 12.80225
369.7410, 8.666260
370.9400, 69.55908
372.1400, 79.28613
373.3390, 33.94385
374.5380, 0.2707520
375.7370, 15.14771
376.9360, 62.98584
378.1350, 50.86743
379.3330, 81.75146
380.5310, 73.34229
381.7300, 27.51733
382.9280, 66.40405
384.1260, 39.29297
385.3230, 71.18384
386.5210, 62.07715
387.7180, 15.02710
388.9160, 23.86694
390.1130, 29.76904
391.3100, 54.67334
392.5060, 74.57959
393.7030, 84.48779
394.9000, 35.39844
396.0960, 3.310791
397.2920, 37.22534
398.4880, 24.13794
399.6840, 64.05249
400.8800, 13.03101
402.0750, 29.11597
403.2710, 8.206543
404.4660, 46.70190
405.6610, 33.60132
406.8560, 50.49976
408.0510, 4.599365
409.2450, 59.30249
410.4400, 13.21021
411.6340, 55.12402
412.8280, 51.04541
414.0220, 71.97192
415.2160, 62.90332
416.4100, 19.83960
417.6030, 14.21973
418.7970, 106.7166
419.9900, 38.65723
421.1830, 19.39819
422.3760, 86.53931
423.5690, 20.48071
424.7610, 3.425781
425.9540, 52.62695
427.1460, 6.296387
428.3380, 0.2221680
429.5300, 28.14844
430.7220, 22.07861
431.9140, 16.01172
433.1050, 97.94824
434.2970, 21.11230
435.4880, 73.18213
436.6790, 14.71289
437.8700, 119.6104
439.0610, 12.51123
440.2510, 17.41504
441.4420, 55.32129
442.6320, 51.76953
443.8220, 106.1147
445.0120, 32.99854
446.2020, 9.872559
447.3910, 63.74609
448.5810, 41.62207
449.7700, 18.50098
450.9600, 93.38184
452.1490, 25.26562
453.3370, 44.15234
454.5260, 10.04053
455.7150, 112.9316
456.9030, 126.8247
458.0910, 65.72070
459.2800, 40.61865
460.4670, 42.51953
461.6550, 9.421875
462.8430, 39.32715
464.0300, 17.76611
465.2180, 6.132324
466.4050, 60.03076
467.5920, 55.93311
468.7790, 81.83643
469.9650, 86.06055
471.1520, 39.65088
472.3380, 87.56104
473.5250, 76.47363
474.7110, 92.38867
475.8970, 49.30518
477.0820, 23.22461
478.2680, 26.22070
479.4540, 10.72852
480.6390, 12.99414
481.8240, 18.92139
483.0090, 4.328125
484.1940, 14.78027
485.3780, 24.71240
486.5630, 2.646484
487.7470, 36.58057
488.9320, 70.51709
490.1160, 58.45508
491.3000, 87.58301
492.4830, 77.33691
493.6670, 90.28076
494.8500, 54.43408
496.0340, 8.381836
497.2170, 87.33203
498.4000, 78.28369
499.5820, 144.0029
500.7650, 59.95850
501.9480, 142.6489
503.1300, 63.60791
504.3120, 44.56934
505.4940, 86.53271
506.6760, 107.4980
507.8580, 62.46533
509.0390, 81.43408
510.2210, 29.40527
511.4020, 30.44141
512.5830, 8.419434
513.7640, 55.39502
514.9450, 75.69727
516.1250, 73.67822
517.3060, 74.60449
518.4860, 132.6113
519.6660, 42.63135
520.8460, 169.6528
522.0260, 135.6787
523.2060, 112.7070
524.3850, 72.73682
525.5650, 63.76904
526.7440, 69.80273
527.9230, 62.83838
529.1020, 51.87549
530.2810, 107.0581
531.4590, 139.4966
532.6380, 129.5518
533.8160, 148.6089
534.9940, 164.6680
536.1720, 140.7290
537.3500, 202.7910
538.5270, 113.8291
539.7050, 120.9009
540.8820, 44.97461
542.0590, 115.0503
543.2360, 147.3018
544.4130, 122.6729
545.5900, 118.1689
546.7660, 124.2671
547.9430, 160.3677
549.1190, 28.47021
550.2950, 139.1504
551.4710, 120.2568
552.6470, 27.36475
553.8220, 127.4751
554.9980, 111.5874
556.1730, 103.7012
557.3480, 56.81689
558.5230, 103.9346
559.6980, 89.23584
560.8730, 160.2007
562.0470, 107.3242
563.2220, 69.17676
564.3960, 60.29150
565.5700, 75.43262
566.7440, 48.46387
567.9170, 97.37891
569.0910, 72.49170
570.2640, 138.3726
571.4380, 118.5361
572.6110, 103.7002
573.7840, 77.88330
574.9570, 67.47754
576.1290, 109.8374
577.3020, 67.54590
578.4740, 78.73730
579.6460, 148.9321
580.8180, 118.1279
581.9900, 60.32617
583.1620, 136.5273
584.3330, 154.4985
585.5040, 27.70312
586.6760, 68.77295
587.8470, 14.98340
589.0180, 136.1958
590.1880, 91.41113
591.3590, 126.6289
592.5290, 80.84912
593.7000, 110.0718
594.8700, 12.29688
596.0400, 82.52344
597.2090, 54.75342
598.3790, 54.98584
599.5490, 51.22119
600.7180, 77.45801
601.8870, 113.6978
603.0560, 91.93848
604.2250, 102.1831
605.3940, 20.14648
606.5620, 51.32764
607.7300, 81.57910
608.8990, 143.8330
610.0670, 23.08887
611.2350, 57.34717
612.4020, 27.60791
613.5700, 49.87012
614.7370, 103.1357
615.9050, 10.40234
617.0720, 147.6724
618.2390, 45.94336
619.4060, 87.21729
620.5720, 51.49365
621.7390, 66.77148
622.9050, 27.05225
624.0710, 62.20605
625.2370, 56.49072
626.4030, 43.77734
627.5690, 9.898438
628.7340, 43.18945
629.9000, 92.48242
631.0650, 65.77734
632.2300, 123.0747
633.3950, 158.3730
634.5600, 34.67432
635.7240, 65.98096
636.8890, 69.27979
638.0530, 44.60156
639.2170, 18.08398
640.3810, 3.224121
641.5450, 17.47314
642.7080, 118.8423
643.8720, 4.151367
645.0350, 80.46191
646.1980, 130.8262
647.3610, 83.14111
648.5240, 96.45703
649.6870, 100.7749
650.8490, 3.905273
652.0120, 0.4150390
653.1740, 104.7109
654.3360, 9.964844
655.4980, 107.3574
656.6600, 21.33301
657.8210, 17.46436
658.9830, 70.33203
660.1440, 66.66113
661.3050, 25.48096
662.4660, 112.9565
663.6270, 49.28906
664.7870, 69.64453
665.9480, 116.0215
667.1080, 52.36475
668.2680, 52.72021
669.4280, 80.07666
670.5880, 24.67236
671.7480, 144.6782
672.9070, 10.02881
674.0670, 144.3809
675.2260, 152.7344
676.3850, 180.0884
677.5440, 200.4497
678.7030, 105.1436
679.8610, 143.5176
681.0200, 192.9517
682.1780, 100.3267
683.3360, 192.7061
684.4940, 48.18457
685.6520, 140.9565
686.8090, 92.34961
687.9670, 146.7427
689.1240, 95.13574
690.2810, 153.5317
691.4380, 135.9277
692.5950, 209.3242
693.7520, 122.7285
694.9080, 136.1333
696.0650, 204.5386
697.2210, 180.9443
698.3770, 282.3501
699.5330, 279.8794
700.6880, 331.2896
701.8440, 344.6768
702.9990, 281.1172
704.1550, 337.5391
705.3100, 366.9561
706.4650, 347.3740
707.6190, 415.8052
708.7740, 573.2373
709.9290, 564.2368
711.0830, 706.6831
712.2370, 931.7344
713.3910, 932.3550
714.5450, 1233.806
715.6980, 1388.261
716.8520, 1548.735
718.0050, 1834.208
719.1580, 2065.682
720.3110, 2219.154
721.4640, 2293.625
722.6170, 2336.098
723.7700, 2344.582
724.9220, 2188.065
726.0740, 1983.558
727.2260, 1625.049
728.3780, 1389.540
729.5300, 1190.030
730.6810, 965.5190
731.8330, 730.0073
732.9840, 584.4951
734.1350, 456.4585
735.2860, 385.4678
736.4370, 318.9531
737.5880, 240.5801
738.7380, 241.0635
739.8880, 241.5454
741.0390, 210.0269
742.1890, 115.5068
743.3380, 179.9858
744.4880, 209.4702
745.6380, 73.95312
746.7870, 118.4355
747.9360, 66.91650
749.0850, 178.3965
750.2340, 226.8750
751.3830, 122.3530
752.5310, 49.82910
753.6800, 90.30469
754.8280, 101.7783
755.9760, 57.25146
757.1240, 167.7231
758.2720, 28.19336
759.4190, 34.66260
760.5670, 160.1299
761.7140, 56.59668
762.8610, 77.06299
764.0080, 47.52783
765.1550, 14.99072
766.3020, 37.45361
767.4480, 75.91602
768.5950, 74.37598
769.7410, 87.83398
770.8870, 83.36865
772.0330, 70.45020
773.1780, 50.20166
774.3240, 49.65430
775.4690, 17.10547
776.6140, 37.76416
777.7590, 27.44678
778.9040, 44.04736
780.0490, 21.75977
781.1940, 67.20312
782.3380, 56.64502
783.4820, 13.08496
784.6260, 47.52295
785.7700, 45.95996
786.9140, 72.39551
788.0580, 90.82959
789.2010, 88.67725
790.3450, 32.62549
791.4880, 64.05420
792.6310, 21.15820
793.7730, 50.41650
794.9160, 5.022949
796.0590, 32.63867
797.2010, 70.72119
798.3430, 8.0077998E-02
799.4850, 8.432617
800.6270, 62.78125
801.7690, 16.12939
802.9100, 14.64355
804.0520, 124.4062
805.1930, 82.16455
806.3340, 94.50439
807.4750, 36.15723
808.6160, 49.76953
809.7560, 81.07910
810.8970, 82.38672
812.0370, 108.7671
813.1770, 50.07178
814.3170, 24.89990
815.4570, 11.80029
816.5960, 68.68701
817.7360, 17.97168
818.8750, 102.2539
820.0140, 128.5337
821.1530, 16.00781
822.2920, 42.71777
823.4310, 62.52588
824.5690, 80.76758
825.7070, 51.00732
826.8460, 188.2446
827.9840, 29.47998
829.1220, 52.71338
830.2590, 60.64307
831.3970, 60.87744
832.5340, 52.10449
833.6710, 99.32910
834.8080, 52.55127
835.9450, 14.77100
837.0820, 162.9883
838.2190, 78.20215
839.3550, 36.41455
840.4910, 23.62500
841.6270, 140.8325
842.7630, 46.03809
843.8990, 59.24121
845.0350, 110.4424
846.1700, 77.35889
847.3060, 116.8677
848.4410, 43.98438
849.5760, 15.12939
850.7100, 134.2383
851.8450, 48.34521
852.9800, 110.4492
854.1140, 115.5513
855.2480, 68.65039
856.3820, 64.74658
857.5160, 47.84033
858.6500, 86.93213
859.7830, 141.0210
860.9170, 81.10791
862.0500, 54.19189
863.1830, 38.27393
864.3160, 93.35303
865.4480, 104.4297
866.5810, 139.5044
867.7130, 118.5767
868.8460, 117.0674
869.9780, 24.71338
871.1100, 71.77832
872.2410, 51.84082
873.3730, 12.90137
874.5050, 52.95117
875.6360, 86.01318
876.7670, 91.06592
877.8980, 117.1157
879.0290, 140.1646
880.1590, 111.2109
881.2900, 127.2549
882.4200, 161.2974
883.5500, 167.3369
884.6800, 140.3755
885.8100, 45.41113
886.9400, 97.44580
888.0690, 35.47754
889.1990, 77.50830
890.3280, 101.5361
891.4570, 48.56299
892.5860, 37.58789
893.7140, 195.6108
894.8430, 48.63184
895.9710, 28.65137
897.1000, 131.6689
898.2280, 71.68506
899.3560, 19.69971
900.4830, 58.71191
901.6110, 105.6987
902.7380, 16.70850
903.8660, 58.71582
904.9930, 77.72217
906.1200, 106.7261
907.2460, 122.1353
908.3730, 146.7310
909.5000, 108.7310
910.6260, 89.72949
911.7520, 4.715332
912.8780, 15.70850
914.0040, 5.703613
915.1290, 106.6953
916.2550, 116.6890
917.3800, 114.6821
918.5050, 177.6738
919.6300, 127.3735
920.7550, 90.60010
921.8800, 57.58984
923.0040, 102.5830
924.1290, 80.57471
925.2530, 32.56592
926.3770, 110.5562
927.5010, 32.54834
928.6250, 78.54199
929.7480, 118.8823
930.8720, 23.06885
931.9950, 88.52002
933.1180, 96.51025
934.2410, 98.01318
935.3640, 156.8613
936.4860, 132.8540
937.6090, 1.174316
938.7310, 21.22607
939.8530, 37.24902
940.9750, 73.70605
942.0970, 130.6606
943.2180, 132.7271
944.3400, 42.68896
945.4610, 38.65088
946.5820, 1.386230
947.7030, 73.58057
948.8240, 9.451660
949.9450, 90.50977
951.0650, 52.86621
952.1860, 86.06787
953.3060, 101.9424
954.4260, 58.87695
955.5460, 5.187500
956.6650, 12.65479
957.7850, 58.20850
958.9040, 104.1426
960.0230, 72.07666
961.1420, 75.01172
962.2610, 101.9473
963.3800, 88.88379
964.4990, 32.17920
965.6170, 0.7431640
966.7350, 23.66602
967.8530, 102.5894
968.9710, 53.51416
970.0890, 79.43945
971.2070, 86.24707
972.3240, 139.1738
973.4410, 31.10205
974.5580, 68.03076
975.6750, 152.9556
976.7920, 64.88623
977.9090, 68.81836
979.0250, 144.7515
980.1410, 13.68555
981.2580, 58.94580
982.3740, 26.03564
983.4890, 78.26562
984.6050, 27.99854
985.7200, 55.90430
986.8360, 53.81104
987.9510, 39.72021
989.0660, 55.63086
990.1810, 94.54297
991.2950, 96.45703
992.4100, 122.3735
993.5240, 124.5156
994.6390, 129.0962
995.7530, 126.1348
996.8660, 115.0791
997.9800, 124.0254
999.0940, 82.97412
1000.207, 76.92432
1001.320, 80.87695
1002.433, 77.83594
1003.546, 102.8013
1004.659, 104.7681
1005.772, 180.7378
1006.884, 108.7261
1007.996, 178.5747
1009.108, 53.56836
1010.220, 174.5732
1011.332, 189.5811
1012.444, 198.5908
1013.555, 143.6035
1014.666, 139.6182
1015.777, 110.6357
1016.888, 180.6562
1017.999, 46.67920
1019.110, 98.70947
1020.220, 246.7427
1021.331, 156.7783
1022.441, 158.8164
1023.551, 160.8667
1024.661, 192.9204
1025.770, 172.9819
1026.880, 198.0454
1027.989, 155.1113
1029.098, 150.1802
1030.207, 185.2515
1031.316, 161.3252
1032.425, 204.4019
1033.533, 215.4810
1034.642, 193.5630
1035.750, 285.6484
1036.858, 335.7363
1037.966, 275.8291
1039.073, 309.9253
1040.181, 244.0239
1041.288, 367.1265
1042.396, 348.2310
1043.503, 447.3398
1044.610, 348.4512
1045.716, 398.3564
1046.823, 459.4741
1047.929, 428.4399
1049.036, 397.5791
1050.142, 405.7222
1051.248, 415.4585
1052.353, 428.9868
1053.459, 512.1680
1054.564, 473.6973
1055.670, 598.8340
1056.775, 605.0000
1057.880, 746.1689
1058.985, 649.3403
1060.089, 790.2319
1061.194, 714.4209
1062.298, 838.6123
1063.402, 922.8242
1064.506, 869.0420
1065.610, 1152.274
1066.713, 1248.003
1067.817, 1263.243
1068.920, 1439.708
1070.023, 1550.955
1071.126, 1744.036
1072.229, 1890.870
1073.332, 1998.708
1074.435, 2224.967
1075.537, 2339.496
1076.639, 2441.772
1077.741, 2728.052
1078.843, 2985.333
1079.945, 3458.983
1081.046, 3901.271
1082.148, 4637.036
1083.249, 5500.330
1084.350, 6676.431
1085.451, 8661.738
1086.551, 11314.04
1087.652, 14862.37
1088.752, 19977.49
1089.853, 25918.82
1090.953, 32483.17
1092.053, 39348.52
1093.152, 45722.87
1094.252, 49426.22
1095.351, 50211.58
1096.451, 46995.94
1097.550, 39787.61
1098.649, 31660.98
1099.748, 23236.35
1100.846, 16102.73
1101.945, 11153.11
1103.043, 7551.492
1104.141, 5399.880
1105.239, 3946.270
1106.337, 2986.662
1107.434, 2247.060
1108.532, 1813.458
1109.629, 1607.904
1110.726, 1311.309
1111.823, 994.7173
1112.920, 1009.128
1114.017, 731.4883
1115.113, 653.9277
1116.210, 618.3882
1117.306, 497.9263
1118.402, 565.3940
1119.498, 557.8652
1120.593, 495.3403
1121.689, 399.8184
1122.784, 330.2998
1123.879, 373.7852
1124.974, 309.3555
1126.069, 292.8467
1127.164, 268.3403
1128.259, 234.5342
1129.353, 182.0537
1130.447, 156.6328
1131.541, 117.1919
1132.635, 108.5718
1133.729, 93.95703
1134.822, 113.3901
1135.916, 83.60498
1137.009, 137.4399
1138.102, 77.95801
1139.195, 89.48975
1140.288, 158.1333
1141.380, 92.81445
1142.473, 42.35547
1143.565, 109.8984
1144.657, 170.4438
1145.749, 180.9907
1146.841, 59.66650
1147.932, 83.21777
1149.024, 181.7886
1150.115, 89.51953
1151.206, 131.0767
1152.297, 67.65674
1153.388, 74.27246
1154.479, 115.2090
1155.569, 59.84473
1156.659, 69.37158
1157.750, 110.9434
1158.839, 39.51025
1159.929, 24.07812
1161.019, 96.64746
1162.108, 80.21777
1163.198, 37.78857
1164.287, 120.3613
1165.376, 70.93457
1166.465, 1.508789
1167.553, 140.5610
1168.642, 99.17188
1169.730, 48.93506
1170.818, 17.51270
1171.906, 45.28662
1172.994, 5.866211
1174.082, 65.65918
1175.170, 59.24023
1176.257, 108.8228
1177.344, 87.40674
1178.431, 45.99121
1179.518, 112.5327
1180.605, 14.11914
1181.691, 105.7065
1182.778, 72.29346
1183.864, 34.88135
1184.950, 11.24072
1186.036, 22.65625
1187.122, 117.9189
1188.207, 76.49365
1189.292, 134.1113
1190.378, 16.56592
1191.463, 18.00244
1192.548, 6.571777
1193.632, 121.4561
1194.717, 119.0234
1195.801, 26.59131
1196.886, 11.84180
1197.970, 46.72021
1199.054, 5.718262
1200.137, 71.93164
1201.221, 51.48926
1202.305, 50.04688
1203.388, 30.61084
1204.471, 48.18457
1205.554, 6.242676
1206.637, 133.3267
1207.719, 152.8945
1208.802, 91.46240
1209.884, 25.94287
1210.966, 48.61084
1212.048, 72.16260
1213.130, 74.71631
1214.212, 116.2690
1215.293, 109.9204
1216.374, 96.11377
1217.456, 123.0117
1218.536, 42.71729
1219.617, 65.28076
1220.698, 33.84424
1221.778, 54.40283
1222.859, 58.95996
1223.939, 77.51514
1225.019, 101.2539
1226.099, 108.7402
1227.178, 107.9058
1228.258, 121.9658
1229.337, 90.52100
1230.417, 66.07422
1231.496, 52.62500
1232.574, 39.81152
1233.653, 34.14062
1234.732, 34.26855
1235.810, 29.81201
1236.888, 36.35352
1237.966, 28.89307
1239.044, 15.43018
1240.122, 102.9644
1241.199, 53.49707
1242.277, 75.02686
1243.354, 117.6890
1244.431, 66.22852
1245.508, 60.00586
1246.585, 11.62891
1247.661, 32.97803
1248.738, 84.69824
1249.814, 89.50146
1250.890, 68.04443
1251.966, 108.7407
1253.042, 86.26416
1254.117, 12.86230
1255.193, 116.3794
1256.268, 46.89453
1257.343, 70.28516
1258.418, 30.31934
1259.493, 73.78613
1260.567, 64.25000
1261.642, 41.71045
1262.716, 8.682129
1263.790, 8.515137
1264.864, 70.92383
1265.938, 104.3594
1267.011, 57.15674
1268.085, 119.3687
1269.158, 15.38525
1270.231, 27.22656
1271.304, 47.13916
1272.377, 133.5020
1273.450, 44.98975
1274.522, 75.34619
1275.594, 12.69971
1276.666, 95.22070
1277.738, 39.68555
1278.810, 10.97119
1279.882, 90.35791
1280.953, 39.68408
1282.025, 32.00586
1283.096, 29.67578
1284.167, 28.72119
1285.238, 6.989258
1286.308, 45.28955
1287.379, 55.56445
1288.449, 116.8359
1289.519, 109.5786
1290.589, 124.3687
