##NAMES=Dolomite
##RRUFFID=R050370
##IDEAL CHEMISTRY=CaMg(CO_3_)_2_
##LOCALITY=Morro Velho mine, Nova Lima, Minas Gerais, Brazil
##OWNER=RRUFF
##SOURCE=Eugene Schlepp
##DESCRIPTION=Colorless bladed crystals associated with pyrrhotite and albite
##STATUS=The identification of this mineral has been confirmed by X-ray diffraction and chemical analysis
##URL=rruff.info/R050370
##MEASURED CHEMISTRY=(Ca_0.84_Fe_0.16_)_Σ=1_(Mg_0.98_Mn_0.02_)_Σ=1_(CO_3_)_2_ ; CO_2_ estimated by difference
##PIN_ID=L01076
##ORIENTATION=Laser parallel to a* (1 0 0). Fiducial mark perpendicular to laser is parallel to c [0 0 1]
118.1340, 0.0000000E+00
119.3650, 22.61694
120.5960, 9.569092
121.8270, 38.87378
123.0580, 4.242310
124.2880, 1.910278
125.5190, 36.54785
126.7490, 11.75586
127.9790, 0.5732420
129.2090, 42.33936
130.4390, 23.31836
131.6680, 43.22266
132.8980, 71.93677
134.1270, 67.36548
135.3560, 87.42920
136.5850, 95.06323
137.8140, 126.2131
139.0430, 188.8298
140.2710, 125.8706
141.5000, 136.2974
142.7280, 212.0767
143.9560, 184.1794
145.1840, 191.5796
146.4120, 287.2546
147.6390, 282.1848
148.8670, 344.3516
150.0940, 374.7385
151.3210, 490.3320
152.5490, 539.1206
153.7750, 642.0986
155.0020, 719.2585
156.2290, 878.5879
157.4550, 1137.074
158.6810, 1456.706
159.9080, 1836.471
161.1340, 2402.362
162.3590, 2899.372
163.5850, 3342.491
164.8110, 3795.716
166.0360, 4208.040
167.2610, 4562.459
168.4860, 4863.966
169.7110, 5011.560
170.9360, 5298.235
172.1610, 5385.991
173.3850, 5198.824
174.6100, 5107.729
175.8340, 4638.703
177.0580, 4064.745
178.2820, 3405.850
179.5050, 2751.014
180.7290, 2228.237
181.9520, 1750.514
183.1760, 1379.865
184.3990, 1107.265
185.6220, 1011.723
186.8450, 812.2639
188.0670, 721.9387
189.2900, 604.6802
190.5120, 537.4656
191.7340, 505.3364
192.9560, 445.2275
194.1780, 398.1045
195.4000, 344.0242
196.6220, 345.9595
197.8430, 268.9243
199.0640, 284.8916
200.2860, 296.8750
201.5070, 276.8743
202.7270, 277.8948
203.9480, 154.9382
205.1690, 150.9924
206.3890, 148.0588
207.6090, 145.1648
208.8290, 141.2869
210.0490, 140.4211
211.2690, 146.1272
212.4890, 129.7737
213.7080, 138.9790
214.9280, 196.2000
216.1470, 148.4358
217.3660, 241.6846
218.5850, 205.9465
219.8030, 214.2322
221.0220, 164.5386
222.2400, 263.8784
223.4590, 270.2771
224.6770, 233.7051
225.8950, 191.1433
227.1120, 197.5916
228.3300, 247.0500
229.5480, 146.5190
230.7650, 144.9983
231.9820, 216.4956
233.1990, 231.0037
234.4160, 222.5210
235.6330, 184.0471
236.8490, 210.5820
238.0660, 208.8755
239.2820, 220.1570
240.4980, 245.2363
241.7140, 254.8037
242.9300, 277.3782
244.1460, 280.9604
245.3610, 323.5493
246.5770, 424.1382
247.7920, 479.7312
249.0070, 471.3303
250.2220, 534.9358
251.4370, 538.5476
252.6510, 662.2532
253.8660, 648.7185
255.0800, 759.3901
256.2940, 867.7632
257.5080, 1029.934
258.7220, 1177.360
259.9360, 1188.967
261.1490, 1269.538
262.3630, 1348.361
263.5760, 1468.065
264.7890, 1682.614
266.0020, 1775.406
267.2150, 2118.477
268.4270, 2343.259
269.6400, 2603.562
270.8520, 2869.569
272.0640, 3262.237
273.2760, 3655.334
274.4880, 4125.140
275.7000, 4721.023
276.9120, 5298.951
278.1230, 5958.932
279.3340, 6667.088
280.5450, 7306.160
281.7560, 8008.639
282.9670, 8823.794
284.1780, 9493.983
285.3880, 10128.02
286.5980, 10710.28
287.8090, 11290.47
289.0190, 11688.78
290.2290, 11703.12
291.4380, 12047.51
292.6480, 11663.93
293.8570, 11431.34
295.0670, 10880.40
296.2760, 10266.34
297.4850, 9469.812
298.6930, 8695.304
299.9020, 7762.808
301.1110, 6895.331
302.3190, 5996.868
303.5270, 5009.586
304.7350, 4301.153
305.9430, 3679.782
307.1510, 3165.374
308.3580, 2652.181
309.5660, 2306.845
310.7730, 1948.472
311.9800, 1779.180
313.1870, 1529.827
314.3940, 1323.483
315.6010, 1193.148
316.8070, 1050.785
318.0130, 957.5044
319.2200, 872.8311
320.4260, 791.6934
321.6310, 736.5010
322.8370, 674.6299
324.0430, 645.6729
325.2480, 600.0527
326.4540, 566.3989
327.6590, 596.1328
328.8640, 523.3770
330.0680, 487.1208
331.2730, 523.8696
332.4780, 557.6282
333.6820, 536.3960
334.8860, 458.1670
336.0900, 545.9419
337.2940, 447.7190
338.4980, 478.4983
339.7010, 499.2861
340.9050, 460.1509
342.1080, 364.9424
343.3110, 356.4106
344.5140, 350.2053
345.7170, 222.1018
346.9200, 290.9141
348.1220, 301.7131
349.3240, 277.5132
350.5270, 146.3152
351.7290, 163.1182
352.9310, 146.9221
354.1320, 142.7263
355.3340, 144.5352
356.5350, 101.3406
357.7370, 114.6670
358.9380, 84.95166
360.1390, 117.7573
361.3400, 108.5627
362.5400, 115.3682
363.7410, 135.1726
364.9410, 71.97705
366.1410, 39.78101
367.3410, 20.58374
368.5410, 76.38574
369.7410, 69.18652
370.9400, 49.98706
372.1400, 23.21533
373.3390, 126.5769
374.5380, 31.36743
375.7370, 96.15991
376.9360, 75.95044
378.1350, 42.73926
379.3330, 35.52588
380.5310, 76.31079
381.7300, 64.09351
382.9280, 53.87402
384.1260, 22.34741
385.3230, 67.42871
386.5210, 17.79688
387.7180, 37.97119
388.9160, 9.738525
390.1130, 20.49707
391.3100, 61.74414
392.5060, 15.99023
393.7030, 28.27759
394.9000, 71.44531
396.0960, 15.83423
397.2920, 5.874268
398.4880, 0.5759280
399.6840, 42.26929
400.8800, 10.94312
402.0750, 18.61279
403.2710, 20.72412
404.4660, 7.929932
405.6610, 18.41895
406.8560, 50.21826
408.0510, 66.15259
409.2450, 8.555908
410.4400, 21.03857
411.6340, 4.362549
412.8280, 95.23511
414.0220, 53.16406
415.2160, 27.40894
416.4100, 19.01660
417.6030, 19.54639
418.7970, 28.88940
419.9900, 26.65747
421.1830, 26.20435
422.3760, 2.750732
423.5690, 53.29565
424.7610, 17.16064
425.9540, 58.36987
427.1460, 21.89941
428.3380, 7.572266
429.5300, 28.94702
430.7220, 8.535645
431.9140, 19.97144
433.1050, 68.47656
434.2970, 8.979492
435.4880, 9.579346
436.6790, 23.07690
437.8700, 18.42871
439.0610, 4.8827998E-02
440.2510, 67.51831
441.4420, 24.98486
442.6320, 79.44897
443.8220, 44.90942
445.0120, 40.36719
446.2020, 25.17847
447.3910, 35.25366
448.5810, 12.68237
449.7700, 34.10669
450.9600, 8.527344
452.1490, 13.94189
453.3370, 61.35205
454.5260, 13.75830
455.7150, 71.15942
456.9030, 61.55688
458.0910, 35.95020
459.2800, 20.33960
460.4670, 24.75439
461.6550, 2.135010
462.8430, 10.50513
464.0300, 6.558594
465.2180, 29.22314
466.4050, 9.573242
467.5920, 29.08447
468.7790, 28.26978
469.9650, 24.51733
471.1520, 10.20020
472.3380, 60.13354
473.5250, 74.47876
474.7110, 62.13501
475.8970, 59.82300
477.0820, 65.90063
478.2680, 129.6335
479.4540, 76.86841
480.6390, 65.09766
481.8240, 80.83447
483.0090, 26.05371
484.1940, 64.27466
485.3780, 7.533691
486.5630, 45.73779
487.7470, 25.93652
488.9320, 32.12915
490.1160, 116.3159
491.3000, 110.4973
492.4830, 61.87402
493.6670, 83.07007
494.8500, 41.24341
496.0340, 61.40454
497.2170, 36.56567
498.4000, 79.72632
499.5820, 51.86890
500.7650, 53.03003
501.9480, 86.16113
503.1300, 58.28638
504.3120, 68.40601
505.4940, 64.52002
506.6760, 77.62866
507.8580, 98.73120
509.0390, 99.82959
510.2210, 147.9224
511.4020, 96.00977
512.5830, 42.09155
513.7640, 86.16748
514.9450, 147.3606
516.1250, 101.4248
517.3060, 95.22974
518.4860, 185.2822
519.6660, 171.3289
520.8460, 116.3701
522.0260, 84.40576
523.2060, 81.43726
524.3850, 101.4832
525.5650, 95.50293
526.7440, 79.55859
527.9230, 117.7256
529.1020, 98.93335
530.2810, 90.18018
531.4590, 98.20093
532.6380, 171.2056
533.8160, 100.6289
534.9940, 131.6560
536.1720, 169.2441
537.3500, 95.22876
538.5270, 42.37964
539.7050, 116.3535
540.8820, 66.28198
542.0590, 95.24805
543.2360, 88.46118
544.4130, 74.41650
545.5900, 83.13208
546.7660, 82.08008
547.9430, 134.8857
549.1190, 105.8311
550.2950, 116.6025
551.4710, 73.94092
552.6470, 111.8774
553.8220, 120.4143
554.9980, 149.3411
556.1730, 135.3025
557.3480, 89.71899
558.5230, 109.2756
559.6980, 52.18213
560.8730, 47.07178
562.0470, 108.9688
563.2220, 77.86084
564.3960, 77.62061
565.5700, 108.5029
566.7440, 39.01416
567.9170, 122.8870
569.0910, 185.7551
570.2640, 98.80103
571.4380, 135.6592
572.6110, 69.60059
573.7840, 35.44897
574.9570, 42.51001
576.1290, 18.10303
577.3020, 33.91235
578.4740, 42.74121
579.6460, 46.93188
580.8180, 65.26147
581.9900, 139.0762
583.1620, 36.90039
584.3330, 138.7200
585.5040, 48.53491
586.6760, 43.34546
587.8470, 64.98486
589.0180, 105.7859
590.1880, 99.53198
591.3590, 105.3240
592.5290, 124.9075
593.7000, 48.64185
594.8700, 117.4202
596.0400, 161.1226
597.2090, 91.89185
598.3790, 62.65698
599.5490, 34.41748
600.7180, 22.55933
601.8870, 62.92432
603.0560, 40.03491
604.2250, 34.52173
605.3940, 63.82861
606.5620, 41.56250
607.7300, 66.92017
608.8990, 47.03442
610.0670, 71.13843
611.2350, 64.85522
612.4020, 11.06348
613.5700, 9.771729
614.7370, 17.52466
615.9050, 18.13599
617.0720, 45.83984
618.2390, 0.4855960
619.4060, 34.18115
620.5720, 53.84448
621.7390, 19.49585
622.9050, 33.14648
624.0710, 101.5564
625.2370, 15.22852
626.4030, 25.19116
627.5690, 25.82471
628.7340, 39.35474
629.9000, 50.96558
631.0650, 33.58813
632.2300, 3.206299
633.3950, 17.39404
634.5600, 21.42773
635.7240, 23.03271
636.8890, 21.66846
638.0530, 20.26172
639.2170, 70.85522
640.3810, 17.44531
641.5450, 91.03638
642.7080, 25.62402
643.8720, 54.20776
645.0350, 108.7881
646.1980, 46.37793
647.3610, 102.9509
648.5240, 53.81445
649.6870, 120.4346
650.8490, 31.05493
652.0120, 97.61987
653.1740, 68.17993
654.3360, 77.73755
655.4980, 29.29614
656.6600, 8.148926
657.8210, 100.3999
658.9830, 35.96313
660.1440, 57.52271
661.3050, 29.16016
662.4660, 24.02222
663.6270, 17.57153
664.7870, 41.13794
665.9480, 13.31836
667.1080, 2.895508
668.2680, 64.78564
669.4280, 0.5812990
670.5880, 16.98779
671.7480, 27.50659
672.9070, 96.67798
674.0670, 18.36206
675.2260, 7.902344
676.3850, 106.4446
677.5440, 51.98364
678.7030, 101.5229
679.8610, 77.05884
681.0200, 105.4136
682.1780, 15.05713
683.3360, 80.45776
684.4940, 33.71899
685.6520, 94.23267
686.8090, 111.7429
687.9670, 153.0154
689.1240, 164.6230
690.2810, 98.66357
691.4380, 164.1858
692.5950, 130.7039
693.7520, 114.2280
694.9080, 200.7485
696.0650, 134.2803
697.2210, 154.8081
698.3770, 215.3752
699.5330, 135.9026
700.6880, 212.4353
701.8440, 244.9644
702.9990, 253.5188
704.1550, 246.0417
705.3100, 252.5615
706.4650, 302.0840
707.6190, 339.6030
708.7740, 476.1296
709.9290, 579.6455
711.0830, 657.1582
712.2370, 802.6721
713.3910, 911.1824
714.5450, 1040.689
715.6980, 1161.093
716.8520, 1452.594
718.0050, 1648.092
719.1580, 1720.594
720.3110, 1913.094
721.4640, 1855.919
722.6170, 1975.413
723.7700, 1948.904
724.9220, 1944.391
726.0740, 1652.875
727.2260, 1510.365
728.3780, 1281.852
729.5300, 1124.336
730.6810, 963.8169
731.8330, 804.2952
732.9840, 690.2566
734.1350, 580.3169
735.2860, 484.7122
736.4370, 417.1785
737.5880, 343.6414
738.7380, 284.2810
739.8880, 252.5278
741.0390, 223.9814
742.1890, 186.0396
743.3380, 174.0930
744.4880, 145.3364
745.6380, 147.7839
746.7870, 164.2297
747.9360, 149.6843
749.0850, 143.1470
750.2340, 123.6064
751.3830, 116.0007
752.5310, 172.3755
753.6800, 117.1404
754.8280, 96.15674
755.9760, 193.4810
757.1240, 54.60376
758.2720, 101.0496
759.4190, 48.49243
760.5670, 133.4202
761.7140, 23.70605
762.8610, 16.71289
764.0080, 97.13379
765.1550, 40.55005
766.3020, 56.96362
767.4480, 89.37500
768.5950, 47.78369
769.7410, 92.18994
770.8870, 103.3923
772.0330, 37.76758
773.1780, 54.15698
774.3240, 16.55078
775.4690, 71.93604
776.6140, 73.31348
777.7590, 70.70117
778.9040, 42.21313
780.0490, 86.59570
781.1940, 30.97559
782.3380, 107.3528
783.4820, 21.72778
784.6260, 26.10010
785.7700, 1.469727
786.9140, 12.83447
788.0580, 12.19604
789.2010, 27.87744
790.3450, 30.23364
791.4880, 53.58740
792.6310, 43.98999
793.7730, 46.86597
794.9160, 35.77783
796.0590, 32.26343
797.2010, 41.60522
798.3430, 13.94434
799.4850, 4.280518
800.6270, 32.61108
801.7690, 23.00806
802.9100, 28.21558
804.0520, 29.31226
805.1930, 22.47388
806.3340, 12.79175
807.4750, 7.697021
808.6160, 38.86475
809.7560, 1.238525
810.8970, 10.02832
812.0370, 52.25952
813.1770, 84.39600
814.3170, 50.65381
815.4570, 73.90942
816.5960, 66.16284
817.7360, 4.585938
818.8750, 57.65527
820.0140, 40.64233
821.1530, 4.120850
822.2920, 61.10693
823.4310, 24.33252
824.5690, 20.44385
825.7070, 18.23804
826.8460, 29.95166
827.9840, 59.13940
829.1220, 77.32495
830.2590, 83.00537
831.3970, 54.20825
832.5340, 60.38721
833.6710, 34.56372
834.8080, 13.73828
835.9450, 57.91040
837.0820, 24.08032
838.2190, 45.24805
839.3550, 14.41357
840.4910, 25.57690
841.6270, 67.73828
842.7630, 63.89746
843.8990, 56.05469
845.0350, 17.20972
846.1700, 68.36304
847.3060, 34.51416
848.4410, 97.66333
849.5760, 55.81030
850.7100, 48.95605
851.8450, 31.09937
852.9800, 80.24146
854.1140, 20.38135
855.2480, 25.51978
856.3820, 39.65625
857.5160, 47.20898
858.6500, 86.89575
859.7830, 139.9983
860.9170, 115.0994
862.0500, 64.19873
863.1830, 110.2964
864.3160, 83.39282
865.4480, 44.48755
866.5810, 49.58057
867.7130, 56.67212
868.8460, 65.76245
869.9780, 85.85083
871.1100, 96.93848
872.2410, 139.0242
873.3730, 106.1089
874.5050, 175.1919
875.6360, 126.2737
876.7670, 113.3545
877.8980, 205.4338
879.0290, 157.5125
880.1590, 162.5896
881.2900, 114.6655
882.4200, 133.7405
883.5500, 34.81421
884.6800, 63.88696
885.8100, 15.95850
886.9400, 26.02881
888.0690, 100.0984
889.1990, 8.832764
890.3280, 51.23462
891.4570, 11.69263
892.5860, 63.37085
893.7140, 41.43506
894.8430, 24.49854
895.9710, 41.56104
897.1000, 5.370605
898.2280, 11.84839
899.3560, 16.12451
900.4830, 47.93018
901.6110, 23.98413
902.7380, 75.03760
903.8660, 5.090332
904.9930, 49.14258
906.1200, 55.19458
907.2460, 50.24683
908.3730, 60.29883
909.5000, 31.35083
910.6260, 81.36768
911.7520, 27.41895
912.8780, 70.46973
914.0040, 19.47925
915.1290, 25.56152
916.2550, 33.60181
917.3800, 36.64990
918.5050, 94.69775
919.6300, 52.74561
920.7550, 126.8064
921.8800, 40.57349
923.0040, 39.58032
924.1290, 23.41357
925.2530, 57.63892
926.3770, 32.69189
927.5010, 16.74536
928.6250, 78.79858
929.7480, 17.14771
930.8720, 69.09839
931.9950, 89.91577
933.1180, 64.93018
934.2410, 50.86426
935.3640, 71.57056
936.4860, 2.413574
937.6090, 3.418457
938.7310, 29.39844
939.8530, 41.61279
940.9750, 25.61011
942.0970, 46.53711
943.2180, 66.52368
944.3400, 10.44189
945.4610, 17.94019
946.5820, 47.82520
947.7030, 18.85229
948.8240, 48.88135
949.9450, 33.91406
951.0650, 39.59375
952.1860, 93.98315
953.3060, 51.19775
954.4260, 36.23584
955.5460, 43.28076
956.6650, 95.57715
957.7850, 69.40942
958.9040, 117.6753
960.0230, 57.96606
961.1420, 84.40210
962.2610, 87.45728
963.3800, 56.51465
964.4990, 35.42627
965.6170, 121.6213
966.7350, 25.67090
967.8530, 82.72266
968.9710, 2.776611
970.0890, 34.79663
971.2070, 66.85474
972.3240, 4.915283
973.4410, 42.97827
974.5580, 74.01440
975.6750, 55.08179
976.7920, 35.15137
977.9090, 47.49634
979.0250, 39.29785
980.1410, 42.36377
981.2580, 47.44312
982.3740, 37.52490
983.4890, 49.81641
984.6050, 57.69604
985.7200, 74.78564
986.8360, 56.87769
987.9510, 84.97217
989.0660, 117.0696
990.1810, 156.1694
991.2950, 149.2720
992.4100, 136.0500
993.5240, 146.6074
994.6390, 124.2739
995.7530, 121.4001
996.8660, 129.5293
997.9800, 79.66162
999.0940, 105.7974
1000.207, 95.93579
1001.320, 123.0774
1002.433, 181.2219
1003.546, 80.36963
1004.659, 97.52051
1005.772, 120.6746
1006.884, 148.8318
1007.996, 134.9968
1009.108, 134.8650
1010.220, 149.3364
1011.332, 117.5110
1012.444, 84.68921
1013.555, 112.8704
1014.666, 80.05493
1015.777, 81.24438
1016.888, 104.0254
1017.999, 150.6338
1019.110, 148.8333
1020.220, 199.0366
1021.331, 225.2432
1022.441, 249.4543
1023.551, 186.9597
1024.661, 200.1782
1025.770, 245.5271
1026.880, 281.7524
1027.989, 204.9817
1029.098, 206.2141
1030.207, 222.5066
1031.316, 261.2649
1032.425, 271.5278
1033.533, 281.1890
1034.642, 328.4595
1035.750, 328.6545
1036.858, 362.0115
1037.966, 352.2949
1039.073, 363.5815
1040.181, 371.8721
1041.288, 388.1702
1042.396, 410.4722
1043.503, 423.7778
1044.610, 438.0874
1045.716, 523.4009
1046.823, 419.7686
1047.929, 559.9382
1049.036, 522.2629
1050.142, 589.3608
1051.248, 574.6929
1052.353, 585.0291
1053.459, 652.3691
1054.564, 621.7168
1055.670, 651.0842
1056.775, 718.1416
1057.880, 775.2051
1058.985, 806.5947
1060.089, 855.9883
1061.194, 889.3855
1062.298, 1004.787
1063.402, 1019.302
1064.506, 1121.569
1065.610, 1275.981
1066.713, 1421.398
1067.817, 1433.834
1068.920, 1714.276
1070.023, 1782.633
1071.126, 1968.075
1072.229, 2133.947
1073.332, 2372.184
1074.435, 2430.646
1075.537, 2702.113
1076.639, 2973.588
1077.741, 3243.728
1078.843, 3588.665
1079.945, 4095.231
1081.046, 4760.740
1082.148, 5813.736
1083.249, 6981.251
1084.350, 8804.770
1085.451, 11371.29
1086.551, 15249.83
1087.652, 20218.37
1088.752, 26706.93
1089.853, 33921.48
1090.953, 41291.05
1092.053, 48095.62
1093.152, 52601.20
1094.252, 54724.79
1095.351, 53655.38
1096.451, 49390.99
1097.550, 42085.07
1098.649, 34109.71
1099.748, 25652.34
1100.846, 18135.96
1101.945, 12604.59
1103.043, 8843.218
1104.141, 6149.855
1105.239, 4443.494
1106.337, 3382.137
1107.434, 2609.783
1108.532, 2058.433
1109.629, 1804.086
1110.726, 1542.743
1111.823, 1210.416
1112.920, 1013.103
1114.017, 817.7705
1115.113, 862.4414
1116.210, 658.1162
1117.306, 689.7944
1118.402, 674.4761
1119.498, 698.1606
1120.593, 664.7783
1121.689, 583.5498
1122.784, 591.2500
1123.879, 564.9526
1124.974, 530.0928
1126.069, 380.8467
1127.164, 337.8574
1128.259, 285.5879
1129.353, 230.3213
1130.447, 206.3564
1131.541, 197.7969
1132.635, 173.5391
1133.729, 178.2852
1134.822, 196.0332
1135.916, 217.7852
1137.009, 161.5391
1138.102, 254.3369
1139.195, 70.06543
1140.288, 154.8286
1141.380, 89.59473
1142.473, 55.36328
1143.565, 146.1353
1144.657, 69.90918
1145.749, 67.68604
1146.841, 49.81104
1147.932, 81.59326
1149.024, 74.72949
1150.115, 67.16602
1151.206, 98.95605
1152.297, 82.74854
1153.388, 111.7285
1154.479, 146.5259
1155.569, 116.7739
1156.659, 93.25293
1157.750, 76.06592
1158.839, 119.8809
1159.929, 103.6978
1161.019, 15.51709
1162.108, 71.96338
1163.198, 12.85889
1164.287, 16.31299
1165.376, 30.51758
1166.465, 35.36914
1167.553, 64.20361
1168.642, 84.32324
1169.730, 80.98145
1170.818, 35.00098
1171.906, 73.71875
1172.994, 42.56250
1174.082, 30.40771
1175.170, 20.25488
1176.257, 12.10400
1177.344, 3.045898
1178.431, 70.80518
1179.518, 8.663574
1180.605, 38.47705
1181.691, 148.3682
1182.778, 57.78467
1183.864, 59.03760
1184.950, 114.7939
1186.036, 42.90527
1187.122, 18.26855
1188.207, 43.10254
1189.292, 89.99414
1190.378, 63.82227
1191.463, 112.6519
1192.548, 21.48145
1193.632, 85.31299
1194.717, 61.14844
1195.801, 174.0034
1196.886, 86.85889
1197.970, 118.3218
1199.054, 160.2832
1200.137, 43.14014
1201.221, 21.00195
1202.305, 57.84668
1203.388, 31.29736
1204.471, 40.54346
1205.554, 100.3843
1206.637, 56.22510
1207.719, 34.09033
1208.802, 9.005859
1209.884, 1.133301
1210.966, 42.71240
1212.048, 9.450195
1213.130, 53.38184
1214.212, 65.21387
1215.293, 52.04590
1216.374, 15.34521
1217.456, 25.44482
1218.536, 69.33740
1219.617, 101.1680
1220.698, 164.0596
1221.778, 40.88867
1222.859, 41.71729
1223.939, 51.54492
1225.019, 101.3755
1226.099, 41.21289
1227.178, 10.06055
1228.258, 5.307617
1229.337, 73.16211
1230.417, 56.99170
1231.496, 82.81348
1232.574, 108.6475
1233.653, 98.47363
1234.732, 56.29883
1235.810, 31.12207
1236.888, 61.94531
1237.966, 66.76709
1239.044, 46.58740
1240.122, 163.4062
1241.199, 14.22412
1242.277, 12.04102
1243.354, 144.8564
1244.431, 62.67041
1245.508, 52.48242
1246.585, 54.29346
1247.661, 110.1030
1248.738, 28.91113
1249.814, 48.73633
1250.890, 111.5410
1251.966, 40.34521
1253.042, 45.14697
1254.117, 5.2733999E-02
1255.193, 16.24902
1256.268, 29.45996
1257.343, 39.31055
1258.418, 113.0791
1259.493, 72.84521
1260.567, 77.60986
1261.642, 77.37305
1262.716, 95.14258
1263.790, 57.91016
1264.864, 84.67529
1265.938, 33.43896
1267.011, 18.20020
1268.085, 7.040527
1269.158, 48.70801
1270.231, 65.45801
1271.304, 112.2056
1272.377, 62.95166
1273.450, 119.6953
1274.522, 47.43701
1275.594, 4.176270
1276.666, 98.91016
1277.738, 103.6421
1278.810, 54.37158
1279.882, 111.0991
1280.953, 87.82373
1282.025, 9.546875
1283.096, 98.26562
1284.167, 12.98193
1285.238, 82.69434
1286.308, 34.40527
1287.379, 35.11328
1288.449, 124.8188
1289.519, 57.52197
1290.589, 30.77734
