##NAMES=Dolomite
##RRUFFID=R050357
##IDEAL CHEMISTRY=CaMg(CO_3_)_2_
##LOCALITY=Black Rock, Lawrence County, Arkansas, USA
##OWNER=RRUFF
##SOURCE=California Institute of Technology
##DESCRIPTION=Aggregate of pale pink curved saddle-shaped crystals
##STATUS=The identification of this mineral has been confirmed by X-ray diffraction and chemical analysis
##URL=rruff.info/R050357
##MEASURED CHEMISTRY=Ca_1.00_(Mg_0.98_Fe^2+^_0.02_)_Î£=1_(CO_3_)_2_ ; CO_2_ estimated by difference
##PIN_ID=L01901
##ORIENTATION=Laser parallel to a* (1 0 0). Fiducial mark perpendicular to laser is parallel to c [0 0 1]
109.5120, 0.0000000E+00
110.7440, 0.2838130
111.9760, 19.52710
113.2080, 1.416870
114.4400, 40.92542
115.6710, 29.34839
116.9030, 47.05750
118.1340, 49.02393
119.3650, 45.87048
120.5960, 18.29150
121.8270, 27.73328
123.0580, 37.35486
124.2880, 0.5964360
125.5190, 4.171875
126.7490, 39.10217
127.9790, 26.17932
129.2090, 47.38623
130.4390, 40.70776
131.6680, 76.13232
132.8980, 18.64929
134.1270, 58.25000
135.3560, 69.92761
136.5850, 66.69312
137.8140, 9.462036
139.0430, 107.4395
140.2710, 46.39551
141.5000, 79.40771
142.7280, 123.5046
143.9560, 66.65881
145.1840, 87.86377
146.4120, 156.1023
147.6390, 109.3726
148.8670, 91.67212
150.0940, 124.9993
151.3210, 144.3524
152.5490, 195.7302
153.7750, 157.1320
155.0020, 178.5570
156.2290, 193.0045
157.4550, 268.4745
158.6810, 283.9659
159.9080, 298.4783
161.1340, 412.0109
162.3590, 441.5627
163.5850, 604.8530
164.8110, 686.4268
166.0360, 960.0198
167.2610, 1205.631
168.4860, 1450.261
169.7110, 1786.908
170.9360, 2366.614
172.1610, 3040.400
173.3850, 3851.092
174.6100, 4731.801
175.8340, 5327.505
177.0580, 5163.261
178.2820, 4330.809
179.5050, 3440.542
180.7290, 2504.294
181.9520, 1831.060
183.1760, 1324.842
184.3990, 952.6309
185.6220, 691.4172
186.8450, 550.2059
188.0670, 377.0049
189.2900, 297.8140
190.5120, 289.6265
191.7340, 218.4421
192.9560, 204.2628
194.1780, 204.0909
195.4000, 140.9391
196.6220, 149.7930
197.8430, 160.6555
199.0640, 136.5243
200.2860, 128.4150
201.5070, 131.3119
202.7270, 133.2147
203.9480, 75.13550
205.1690, 110.0635
206.3890, 50.99878
207.6090, 86.94287
208.8290, 27.89575
210.0490, 67.85425
211.2690, 3.817871
212.4890, 10.79126
213.7080, 86.76990
214.9280, 48.75415
216.1470, 12.25623
217.3660, 86.74683
218.5850, 47.76721
219.8030, 43.79407
221.0220, 57.82703
222.2400, 53.86865
223.4590, 84.92126
224.6770, 64.97852
225.8950, 25.03979
227.1120, 35.10498
228.3300, 57.17383
229.5480, 31.24658
230.7650, 41.32349
231.9820, 1.587524
233.1990, 50.50525
234.4160, 3.398560
235.6330, 46.70117
236.8490, 12.80139
238.0660, 17.09460
239.2820, 9.012451
240.4980, 47.12988
241.7140, 75.25745
242.9300, 56.38794
244.1460, 1.479004
245.3610, 28.65674
246.5770, 15.20276
247.7920, 23.93860
249.0070, 25.08411
250.2220, 53.27917
251.4370, 2.629639
252.6510, 29.77783
253.8660, 19.92847
255.0800, 36.08179
256.2940, 49.71667
257.5080, 80.42505
258.7220, 73.19812
259.9360, 123.9075
261.1490, 71.85437
262.3630, 70.70764
263.5760, 85.61353
264.7890, 25.53638
266.0020, 111.3180
267.2150, 95.23389
268.4270, 147.2006
269.6400, 166.1799
270.8520, 150.0610
272.0640, 162.9904
273.2760, 194.9950
274.4880, 197.0099
275.7000, 217.0350
276.9120, 259.1443
278.1230, 237.1874
279.3340, 314.1873
280.5450, 419.2468
281.7560, 450.4592
282.9670, 565.9224
284.1780, 635.6257
285.3880, 771.7166
286.5980, 970.8136
287.8090, 1097.917
289.0190, 1376.156
290.2290, 1697.270
291.4380, 2007.390
292.6480, 2325.514
293.8570, 2873.644
295.0670, 3478.777
296.2760, 3766.774
297.4850, 4340.917
298.6930, 4530.063
299.9020, 4505.436
301.1110, 4233.591
302.3190, 3738.750
303.5270, 3060.914
304.7350, 2558.535
305.9430, 2045.705
307.1510, 1664.879
308.3580, 1299.056
309.5660, 1082.233
310.7730, 863.4133
311.9800, 691.5969
313.1870, 642.0913
314.3940, 530.2808
315.6010, 442.4731
316.8070, 397.6682
318.0130, 318.8654
319.2200, 327.1057
320.4260, 300.3037
321.6310, 293.5044
322.8370, 278.3995
324.0430, 258.6011
325.2480, 223.9110
326.4540, 244.1173
327.6590, 279.3259
328.8640, 281.8575
330.0680, 340.0717
331.2730, 386.2878
332.4780, 423.8401
333.6820, 529.0603
334.8860, 637.9019
336.0900, 724.1318
337.2940, 843.3853
338.4980, 872.6194
339.7010, 775.8550
340.9050, 689.0927
342.1080, 546.3320
343.3110, 435.5729
344.5140, 313.8158
345.7170, 337.0601
346.9200, 294.3058
348.1220, 169.5583
349.3240, 200.8123
350.5270, 108.0677
351.7290, 91.12378
352.9310, 138.3817
354.1320, 121.6409
355.3340, 64.90125
356.5350, 71.16272
357.7370, 42.42542
358.9380, 122.6891
360.1390, 85.95374
361.3400, 104.9518
362.5400, 113.2185
363.7410, 19.48621
364.9410, 105.7549
366.1410, 96.02429
367.3410, 53.29456
368.5410, 74.56543
369.7410, 82.27502
370.9400, 95.55042
372.1400, 87.13257
373.3390, 68.09766
374.5380, 50.37244
375.7370, 45.29468
376.9360, 46.90564
378.1350, 33.18188
379.3330, 26.41272
380.5310, 21.68994
381.7300, 45.40771
382.9280, 33.23755
384.1260, 74.55530
385.3230, 63.87012
386.5210, 6.308105
387.7180, 71.58765
388.9160, 0.1495360
390.1130, 3.869751
391.3100, 51.02454
392.5060, 11.30383
393.7030, 11.58350
394.9000, 30.86304
396.0960, 44.14185
397.2920, 50.42078
398.4880, 25.76550
399.6840, 74.04504
400.8800, 5.677246
402.0750, 3.398560
403.2710, 30.88049
404.4660, 0.8377690
405.6610, 50.44482
406.8560, 21.72888
408.0510, 2.097046
409.2450, 14.61621
410.4400, 19.66418
411.6340, 2.945923
412.8280, 41.22876
414.0220, 34.51270
415.2160, 61.79797
416.4100, 26.08435
417.6030, 47.37158
418.7970, 23.65991
419.9900, 5.1270001E-02
421.1830, 12.23743
422.3760, 15.47314
423.5690, 22.80859
424.7610, 39.09082
425.9540, 13.96594
427.1460, 5.734863
428.3380, 6.546387
429.5300, 8.828247
430.7220, 9.356323
431.9140, 17.60718
433.1050, 8.666016
434.2970, 47.93921
435.4880, 23.29773
436.6790, 39.57153
437.8700, 63.68958
439.0610, 12.88000
440.2510, 89.38672
441.4420, 39.65381
442.6320, 2.078979
443.8220, 90.18628
445.0120, 46.48938
446.2020, 62.75464
447.3910, 5.979858
448.5810, 15.28125
449.7700, 18.54248
450.9600, 26.80371
452.1490, 22.06494
453.3370, 82.32605
454.5260, 46.58716
455.7150, 3.151733
456.9030, 81.10632
458.0910, 75.36438
459.2800, 49.62244
460.4670, 38.88025
461.6550, 2.137939
462.8430, 31.39490
464.0300, 44.65186
465.2180, 9.091431
466.4050, 26.15881
467.5920, 15.59094
468.7790, 70.65283
469.9650, 104.8928
471.1520, 2.867310
472.3380, 32.59949
473.5250, 36.83582
474.7110, 2.928101
475.8970, 56.30444
477.0820, 7.463379
478.2680, 73.10730
479.4540, 4.333252
480.6390, 50.55823
481.8240, 59.78296
483.0090, 39.00720
484.1940, 30.23096
485.3780, 19.45422
486.5630, 11.80688
487.7470, 24.89917
488.9320, 13.12085
490.1160, 40.53625
491.3000, 64.75684
492.4830, 16.97693
493.6670, 8.803589
494.8500, 62.40808
496.0340, 51.61914
497.2170, 155.6943
498.4000, 99.34827
499.5820, 76.57129
500.7650, 41.45654
501.9480, 34.36255
503.1300, 30.87378
504.3120, 51.08240
505.4940, 35.29028
506.6760, 71.50183
507.8580, 41.71338
509.0390, 12.92395
510.2210, 21.13379
511.4020, 18.65466
512.5830, 8.543579
513.7640, 40.74097
514.9450, 56.03369
516.1250, 66.22998
517.3060, 36.42517
518.4860, 35.61987
519.6660, 56.81372
520.8460, 72.00647
522.0260, 39.19922
523.2060, 2.609131
524.3850, 67.58325
525.5650, 5.788086
526.7440, 5.991455
527.9230, 2.193115
529.1020, 32.39258
530.2810, 24.05200
531.4590, 73.74390
532.6380, 19.74414
533.8160, 44.94556
534.9940, 26.14600
536.1720, 43.34521
537.3500, 48.54419
538.5270, 35.74194
539.7050, 4.960449
540.8820, 52.15649
542.0590, 41.35181
543.2360, 68.25854
544.4130, 53.27734
545.5900, 110.4802
546.7660, 20.60449
547.9430, 84.81274
549.1190, 12.98022
550.2950, 61.21777
551.4710, 79.57178
552.6470, 22.76807
553.8220, 26.96313
554.9980, 65.15796
556.1730, 17.35181
557.3480, 39.54419
558.5230, 22.73584
559.6980, 27.92944
560.8730, 86.12183
562.0470, 62.23901
563.2220, 26.43018
564.3960, 97.68115
565.5700, 38.87915
566.7440, 5.923828
567.9170, 7.267090
569.0910, 46.06982
570.2640, 61.25854
571.4380, 36.44702
572.6110, 50.63403
573.7840, 25.68921
574.9570, 16.87427
576.1290, 2.058105
577.3020, 22.24023
578.4740, 73.42114
579.6460, 37.61060
580.8180, 52.94141
581.9900, 97.12891
583.1620, 11.31543
584.3330, 34.28003
585.5040, 3.464600
586.6760, 31.64941
587.8470, 42.83374
589.0180, 43.56128
590.1880, 29.74316
591.3590, 34.42993
592.5290, 43.10352
593.7000, 25.28198
594.8700, 36.45923
596.0400, 29.63550
597.2090, 31.51318
598.3790, 29.69775
599.5490, 13.88135
600.7180, 33.06348
601.8870, 29.35840
603.0560, 44.38354
604.2250, 46.56226
605.3940, 26.73950
606.5620, 43.22314
607.7300, 44.39844
608.8990, 8.466309
610.0670, 71.63916
611.2350, 28.81055
612.4020, 2.340576
613.5700, 44.82642
614.7370, 48.99194
615.9050, 63.82251
617.0720, 16.98584
618.2390, 20.47144
619.4060, 38.67798
620.5720, 12.80469
621.7390, 41.96582
622.9050, 18.11157
624.0710, 56.25610
625.2370, 89.39917
626.4030, 16.54150
627.5690, 27.68237
628.7340, 61.82202
629.9000, 18.03955
631.0650, 73.09888
632.2300, 40.26489
633.3950, 44.38965
634.5600, 89.71313
635.7240, 96.83496
636.8890, 46.95557
638.0530, 26.09131
639.2170, 64.20923
640.3810, 13.32617
641.5450, 28.71069
642.7080, 36.82495
643.8720, 12.95923
645.0350, 59.07104
646.1980, 54.15332
647.3610, 16.40942
648.5240, 22.51709
649.6870, 30.62329
650.8490, 45.27441
652.0120, 20.94092
653.1740, 43.04688
654.3360, 0.8454590
655.4980, 53.34985
656.6600, 15.45337
657.8210, 41.56104
658.9830, 49.66895
660.1440, 54.77466
661.3050, 81.90576
662.4660, 51.01904
663.6270, 41.01953
664.7870, 71.65747
665.9480, 42.71606
667.1080, 90.77612
668.2680, 86.71191
669.4280, 87.80444
670.5880, 98.22974
671.7480, 80.98560
672.9070, 88.90234
674.0670, 74.00098
675.2260, 60.10645
676.3850, 50.24414
677.5440, 40.33716
678.7030, 9.598633
679.8610, 79.62256
681.0200, 83.70996
682.1780, 90.79590
683.3360, 72.35059
684.4940, 71.44604
685.6520, 77.33862
686.8090, 92.21704
687.9670, 99.32471
689.1240, 116.6165
690.2810, 140.7036
691.4380, 127.7927
692.5950, 102.8809
693.7520, 127.0378
694.9080, 152.1206
696.0650, 213.2080
697.2210, 126.2979
698.3770, 176.9653
699.5330, 161.0400
700.6880, 184.2551
701.8440, 197.3262
702.9990, 217.5928
704.1550, 248.6152
705.3100, 293.6836
706.4650, 294.1846
707.6190, 378.2600
708.7740, 383.3604
709.9290, 422.5239
711.0830, 431.5830
712.2370, 536.6411
713.3910, 605.7019
714.5450, 675.7615
715.6980, 853.7329
716.8520, 1004.787
718.0050, 1191.113
719.1580, 1526.194
720.3110, 1739.253
721.4640, 1971.301
722.6170, 2325.346
723.7700, 2468.401
724.9220, 2520.833
726.0740, 2376.900
727.2260, 2053.937
728.3780, 1705.973
729.5300, 1295.007
730.6810, 1056.039
731.8330, 827.0681
732.9840, 576.0947
734.1350, 493.1187
735.2860, 411.6091
736.4370, 325.6296
737.5880, 327.6472
738.7380, 180.6626
739.8880, 251.6748
741.0390, 229.6848
742.1890, 126.6926
743.3380, 153.6973
744.4880, 164.6995
745.6380, 146.7021
746.7870, 128.7021
747.9360, 115.7009
749.0850, 141.7004
750.2340, 82.69751
751.3830, 53.46313
752.5310, 103.4561
753.6800, 69.44653
754.8280, 108.4365
755.9760, 53.42334
757.1240, 79.06616
758.2720, 88.05054
759.4190, 21.03271
760.5670, 36.01196
761.7140, 50.98901
762.8610, 67.96338
764.0080, 32.93506
765.1550, 90.90405
766.3020, 98.87085
767.4480, 69.83496
768.5950, 20.60254
769.7410, 13.56128
770.8870, 33.51758
772.0330, 28.47144
773.1780, 49.42603
774.3240, 29.37817
775.4690, 19.32788
776.6140, 54.27515
777.7590, 72.22021
778.9040, 1.162354
780.0490, 80.09961
781.1940, 18.03442
782.3380, 56.96655
783.4820, 10.10376
784.6260, 4.814941
785.7700, 53.72949
786.9140, 39.64209
788.0580, 3.294678
789.2010, 76.60767
790.3450, 47.91235
791.4880, 82.81616
792.6310, 8.621582
793.7730, 73.51929
794.9160, 62.59204
796.0590, 24.48511
797.2010, 26.46069
798.3430, 18.34863
799.4850, 22.23389
800.6270, 14.88354
801.7690, 34.01318
802.9100, 57.83301
804.0520, 31.67676
805.1930, 107.5186
806.3340, 29.35864
807.4750, 63.19653
808.6160, 27.03198
809.7560, 5.584961
810.8970, 32.23853
812.0370, 24.05957
813.1770, 15.87769
814.3170, 94.69312
815.4570, 6.506104
816.5960, 82.29443
817.7360, 88.10107
818.8750, 99.90601
820.0140, 32.29175
821.1530, 98.01978
822.2920, 11.09717
823.4310, 15.13037
824.5690, 23.62671
825.7070, 4.381348
826.8460, 54.13501
827.9840, 80.88647
829.1220, 26.63550
830.2590, 12.38184
831.3970, 41.12549
832.5340, 24.86646
833.6710, 23.60498
834.8080, 1.659180
835.9450, 55.06885
837.0820, 7.794678
838.2190, 86.51636
839.3550, 26.76416
840.4910, 46.93457
841.6270, 32.63110
842.7630, 18.32520
843.8990, 18.01929
845.0350, 15.59692
846.1700, 8.400146
847.3060, 26.08618
848.4410, 58.09595
849.5760, 69.87036
850.7100, 23.45654
851.8450, 63.13354
852.9800, 25.80859
854.1140, 29.51831
855.2480, 15.13306
856.3820, 20.78198
857.5160, 54.42822
858.6500, 38.07275
859.7830, 19.71509
860.9170, 0.6447750
862.0500, 14.98926
863.1830, 84.62109
864.3160, 73.25073
865.4480, 33.87866
866.5810, 59.50415
867.7130, 29.12817
868.8460, 75.75000
869.9780, 75.37012
871.1100, 34.01147
872.2410, 72.58374
873.3730, 26.17725
874.5050, 58.76880
875.6360, 114.3589
876.7670, 78.94702
877.8980, 87.53369
879.0290, 186.1187
880.1590, 221.7019
881.2900, 329.2837
882.4200, 249.8638
883.5500, 218.4421
884.6800, 160.0193
885.8100, 88.59473
886.9400, 107.1687
888.0690, 17.74219
889.1990, 58.31421
890.3280, 14.88501
891.4570, 48.45435
892.5860, 43.02222
893.7140, 24.59473
894.8430, 33.16553
895.9710, 71.72192
897.1000, 63.29126
898.2280, 64.85962
899.3560, 49.42651
900.4830, 56.86206
901.6110, 67.55640
902.7380, 55.11938
903.8660, 54.68213
904.9930, 27.23755
906.1200, 58.76367
907.2460, 32.33301
908.3730, 51.90112
909.5000, 88.46851
910.6260, 72.43066
911.7520, 88.37476
912.8780, 68.14795
914.0040, 74.71167
915.1290, 59.00513
916.2550, 23.56714
917.3800, 60.10693
918.5050, 41.66724
919.6300, 19.25488
920.7550, 19.66699
921.8800, 37.22534
923.0040, 2.216797
924.1290, 34.79346
925.2530, 22.65112
926.3770, 39.89111
927.5010, 27.43311
928.6250, 57.88501
929.7480, 19.57349
930.8720, 77.95728
931.9950, 1.514404
933.1180, 15.01636
934.2410, 68.51929
935.3640, 44.03833
936.4860, 15.22876
937.6090, 16.22021
938.7310, 23.75000
939.8530, 41.30542
940.9750, 35.86084
942.0970, 64.41650
943.2180, 26.97192
944.3400, 44.47217
945.4610, 53.24487
946.5820, 12.77856
947.7030, 80.30396
948.8240, 99.79541
949.9450, 63.33105
951.0650, 87.69678
952.1860, 49.23291
953.3060, 20.76953
954.4260, 70.30640
955.5460, 46.62573
956.6650, 10.10986
957.7850, 49.29590
958.9040, 40.33472
960.0230, 6.833252
961.1420, 6.063721
962.2610, 60.58301
963.3800, 69.10254
964.4990, 79.62231
965.6170, 88.07153
966.7350, 76.38965
967.8530, 7.111084
968.9710, 47.62476
970.0890, 33.55933
971.2070, 20.08569
972.3240, 78.47046
973.4410, 28.99902
974.5580, 73.37891
975.6750, 63.90967
976.7920, 103.4419
977.9090, 93.94824
979.0250, 81.45557
980.1410, 52.95508
981.2580, 27.38989
982.3740, 13.07080
983.4890, 44.46606
984.6050, 117.0049
985.7200, 95.54370
986.8360, 114.8623
987.9510, 60.62817
989.0660, 68.89795
990.1810, 102.4116
991.2950, 64.95142
992.4100, 99.50073
993.5240, 99.05176
994.6390, 29.59521
995.7530, 68.72144
996.8660, 19.25049
997.9800, 69.80908
999.0940, 105.3694
1000.207, 60.93115
1001.320, 86.51343
1002.433, 75.09741
1003.546, 109.6836
1004.659, 36.27783
1005.772, 79.40527
1006.884, 79.00317
1007.996, 111.6038
1009.108, 99.20654
1010.220, 67.81323
1011.332, 117.4248
1012.444, 122.0386
1013.555, 88.65430
1014.666, 63.27197
1015.777, 120.8926
1016.888, 94.51538
1017.999, 118.1401
1019.110, 97.76782
1020.220, 118.3977
1021.331, 115.0305
1022.441, 123.0303
1023.551, 71.31006
1024.661, 138.9531
1025.770, 120.5986
1026.880, 112.2466
1027.989, 150.8972
1029.098, 124.7644
1030.207, 134.4194
1031.316, 221.0771
1032.425, 242.7371
1033.533, 242.0867
1034.642, 122.0642
1035.750, 204.7327
1036.858, 196.5190
1037.966, 141.2029
1039.073, 196.1328
1040.181, 205.5215
1041.288, 179.2126
1042.396, 235.9062
1043.503, 185.6030
1044.610, 244.3022
1045.716, 191.0254
1046.823, 170.7302
1047.929, 274.4473
1049.036, 287.1680
1050.142, 263.9092
1051.248, 269.6528
1052.353, 332.3997
1053.459, 288.1531
1054.564, 323.9099
1055.670, 380.6692
1056.775, 463.2795
1057.880, 450.0479
1058.985, 470.4204
1060.089, 509.1936
1061.194, 575.9697
1062.298, 655.7483
1063.402, 801.3525
1064.506, 783.1367
1065.610, 912.2068
1066.713, 1040.996
1067.817, 1082.788
1068.920, 1212.582
1070.023, 1341.385
1071.126, 1420.202
1072.229, 1740.035
1073.332, 1802.856
1074.435, 2014.685
1075.537, 2149.511
1076.639, 2331.339
1077.741, 2406.621
1078.843, 2569.457
1079.945, 2774.296
1081.046, 2836.138
1082.148, 3103.073
1083.249, 3339.920
1084.350, 3794.770
1085.451, 4347.623
1086.551, 5100.478
1087.652, 6137.334
1088.752, 7302.671
1089.853, 9195.241
1090.953, 11993.12
1092.053, 16245.02
1093.152, 21978.91
1094.252, 29892.32
1095.351, 40251.21
1096.451, 50152.11
1097.550, 55138.00
1098.649, 52130.91
1099.748, 41907.90
1100.846, 30696.80
1101.945, 21514.71
1103.043, 14649.62
1104.141, 10025.54
1105.239, 6991.464
1106.337, 5036.387
1107.434, 3884.324
1108.532, 2885.266
1109.629, 2363.209
1110.726, 1833.157
1111.823, 1578.156
1112.920, 1368.107
1114.017, 1070.062
1115.113, 958.6914
1116.210, 801.6504
1117.306, 758.6108
1118.402, 720.5742
1119.498, 659.5391
1120.593, 558.5066
1121.689, 605.4858
1122.784, 538.4675
1123.879, 444.4519
1124.974, 332.4380
1126.069, 378.4263
1127.164, 277.4214
1128.259, 252.4158
1129.353, 233.4700
1130.447, 199.4685
1131.541, 211.4695
1132.635, 225.7786
1133.729, 178.7830
1134.822, 141.8042
1135.916, 148.2141
1137.009, 123.2388
1138.102, 138.2756
1139.195, 124.3142
1140.288, 122.3540
1141.380, 76.83008
1142.473, 109.3184
1143.565, 84.36279
1144.657, 55.40845
1145.749, 80.45557
1146.841, 104.5403
1147.932, 122.5898
1149.024, 104.6416
1150.115, 30.76392
1151.206, 84.81787
1152.297, 42.98901
1153.388, 74.79126
1154.479, 63.84888
1155.569, 91.90747
1156.659, 74.96680
1157.750, 43.02759
1158.839, 72.08936
1159.929, 8.847656
1161.019, 12.21387
1162.108, 28.27637
1163.198, 90.33984
1164.287, 20.40430
1165.376, 31.46948
1166.465, 77.80273
1167.553, 4.699707
1168.642, 115.3667
1169.730, 8.566162
1170.818, 17.50098
1171.906, 11.56689
1172.994, 73.62671
1174.082, 78.87524
1175.170, 39.93628
1176.257, 0.9243160
1177.344, 66.13745
1178.431, 31.55884
1179.518, 85.62158
1180.605, 25.89819
1181.691, 35.96118
1182.778, 41.14404
1183.864, 44.20728
1184.950, 29.34839
1186.036, 36.79736
1187.122, 30.24194
1188.207, 31.87134
1189.292, 30.94922
1190.378, 14.02197
1191.463, 30.09131
1192.548, 72.16064
1193.632, 89.22949
1194.717, 48.30347
1195.801, 6.622803
1196.886, 44.44751
1197.970, 18.51733
1199.054, 42.58716
1200.137, 119.6882
1201.221, 69.78247
1202.305, 96.14941
1203.388, 98.86768
1204.471, 5.883789
1205.554, 44.89966
1206.637, 59.91455
1207.719, 34.92896
1208.802, 35.95386
1209.884, 37.97803
1210.966, 31.10352
1212.048, 0.1264650
1213.130, 19.14722
1214.212, 13.16748
1215.293, 49.21265
1216.374, 16.23145
1217.456, 74.24927
1218.536, 35.26636
1219.617, 36.29346
1220.698, 26.32153
1221.778, 7.618164
1222.859, 19.53687
1223.939, 6.601807
1225.019, 22.41650
1226.099, 39.43408
1227.178, 14.45020
1228.258, 88.51025
1229.337, 1.523926
1230.417, 52.59863
1231.496, 28.68994
1232.574, 121.7349
1233.653, 83.42456
1234.732, 79.43066
1235.810, 27.47729
1236.888, 44.49976
1237.966, 67.09985
1239.044, 76.17407
1240.122, 42.26050
1241.199, 6.257324
1242.277, 55.25195
1243.354, 99.24512
1244.431, 76.23633
1245.508, 86.22778
1246.585, 93.86426
1247.661, 90.20508
1248.738, 86.19116
1249.814, 90.17529
1250.890, 64.15771
1251.966, 35.22437
1253.042, 66.20288
1254.117, 87.18188
1255.193, 64.17529
1256.268, 21.14990
1257.343, 105.1230
1258.418, 9.094238
1259.493, 42.06323
1260.567, 31.03003
1261.642, 63.00513
1262.716, 39.92090
1263.790, 54.44507
1264.864, 14.63306
1265.938, 97.27441
1267.011, 83.17969
1268.085, 108.0825
1269.158, 49.98315
1270.231, 0.8818360
1271.304, 0.7734380
1272.377, 73.65869
1273.450, 63.54150
1274.522, 40.42212
1275.594, 21.30005
1276.666, 37.17554
1277.738, 54.13916
1278.810, 14.00977
1279.882, 53.87769
1280.953, 8.742920
1282.025, 3.395264
1283.096, 79.45703
1284.167, 110.3071
