##NAMES=Dolomite
##RRUFFID=R050272
##IDEAL CHEMISTRY=CaMg(CO_3_)_2_
##LOCALITY=Eagle mine, Gillman, Colorado, USA
##OWNER=RRUFF
##SOURCE=University of Arizona Mineral Museum
##DESCRIPTION=Gray-white rhombohedral crystals
##STATUS=The identification of this mineral has been confirmed by X-ray diffraction and chemical analysis
##URL=rruff.info/R050272
##MEASURED CHEMISTRY=(Ca_0.96_Fe^2+^_0.04_)_Σ=1_(Mg_0.63_Mn^2+^_0.21_Fe^2+^_0.16_)_Σ=1_(CO_3_)_2_ ; CO_3_ estimated by difference and stoichiometry
##PIN_ID=L00059
##ORIENTATION=Laser parallel to c* (0 0 1). Fiducial mark perpendicular to laser is parallel to a [1 0 0]
46.563, 0.000
47.964, 18.800
49.365, 0.269
50.765, 73.756
52.166, 8.384
53.566, 45.352
54.966, 82.543
56.365, 64.169
57.765, 102.781
59.164, 64.691
60.563, 80.120
61.962, 67.018
63.360, 34.876
64.758, 77.432
66.157, 87.352
67.554, 64.089
68.952, 21.372
70.349, 52.491
71.747, 8.089
73.144, 0.281
74.540, 18.664
75.937, 23.032
77.333, 45.948
78.729, 24.910
80.125, 59.444
81.521, 67.011
82.916, 40.156
84.311, 93.219
85.706, 71.875
87.101, 65.180
88.496, 41.397
89.890, 133.914
91.284, 123.019
92.678, 136.189
94.071, 126.032
95.465, 108.618
96.858, 96.913
98.251, 77.142
99.644, 97.056
101.036, 50.278
102.428, 50.338
103.820, 6.226
105.212, 50.937
106.604, 47.482
107.995, 46.867
109.387, 4.901
110.777, 12.185
112.168, 14.131
113.559, 22.942
114.949, 63.625
116.339, 90.185
117.729, 57.628
119.119, 12.632
120.508, 10.963
121.897, 17.997
123.286, 7.373
124.675, 1.404
126.063, 2.114
127.452, 29.585
128.840, 16.015
130.228, 33.667
131.615, 34.372
133.003, 32.234
134.390, 63.390
135.777, 56.252
137.164, 56.216
138.550, 110.356
139.937, 112.808
141.323, 117.458
142.709, 116.547
144.094, 119.950
145.480, 156.323
146.865, 156.147
148.250, 157.995
149.635, 143.113
151.019, 191.069
152.403, 191.783
153.788, 234.259
155.171, 294.440
156.555, 316.390
157.939, 354.424
159.322, 457.836
160.705, 488.097
162.088, 624.310
163.470, 766.484
164.853, 962.628
166.235, 1241.741
167.617, 1676.799
168.998, 2274.814
170.380, 2956.783
171.761, 3675.713
173.142, 3980.602
174.523, 3665.455
175.904, 2969.271
177.284, 2239.056
178.664, 1617.810
180.044, 1157.535
181.424, 839.230
182.803, 624.899
184.183, 462.544
185.562, 397.165
186.940, 288.761
188.319, 252.333
189.698, 178.881
191.076, 139.406
192.454, 144.906
193.831, 113.383
195.209, 99.837
196.586, 79.267
197.963, 66.673
199.340, 53.159
200.717, 35.813
202.093, 32.134
203.470, 13.762
204.846, 16.338
206.221, 25.855
207.597, 2.545
208.972, 16.985
210.347, 17.483
211.722, 6.973
213.097, 36.899
214.472, 1.951
215.846, 19.659
217.220, 5.630
218.594, 0.200
219.967, 18.889
221.341, 27.798
222.714, 13.508
224.087, 5.120
225.460, 5.487
226.832, 21.301
228.204, 2.252
229.577, 0.512
230.948, 12.801
232.320, 9.930
233.692, 21.317
235.063, 9.588
236.434, 24.524
237.805, 3.279
239.175, 28.745
240.545, 19.432
241.916, 25.103
243.286, 18.671
244.655, 23.925
246.025, 51.311
247.394, 18.659
248.763, 48.831
250.132, 69.010
251.501, 60.157
252.869, 66.039
254.237, 76.685
255.605, 83.723
256.973, 85.626
258.340, 86.511
259.708, 110.280
261.075, 107.945
262.442, 125.503
263.808, 119.023
265.175, 142.534
266.541, 116.720
267.907, 121.959
269.273, 154.508
270.639, 216.607
272.004, 200.602
273.369, 239.668
274.734, 259.562
276.099, 303.136
277.463, 314.688
278.828, 336.361
280.192, 412.396
281.556, 475.508
282.919, 498.411
284.283, 608.790
285.646, 664.993
287.009, 774.390
288.372, 918.578
289.734, 1042.521
291.097, 1147.443
292.459, 1279.893
293.821, 1312.988
295.183, 1346.202
296.544, 1234.334
297.905, 1192.393
299.266, 1031.740
300.627, 891.902
301.988, 752.051
303.348, 605.446
304.709, 528.854
306.069, 428.209
307.428, 378.486
308.788, 327.871
310.147, 282.299
311.507, 246.700
312.865, 237.063
314.224, 192.341
315.583, 185.871
316.941, 176.292
318.299, 152.829
319.657, 157.350
321.015, 161.802
322.372, 162.252
323.729, 177.673
325.086, 161.099
326.443, 168.530
327.800, 183.925
329.156, 180.320
330.512, 170.668
331.868, 223.005
333.224, 246.348
334.579, 259.627
335.935, 249.904
337.290, 292.222
338.645, 300.542
339.999, 274.777
341.354, 227.996
342.708, 207.203
344.062, 194.398
345.416, 181.621
346.769, 135.794
348.123, 152.966
349.476, 102.147
350.829, 126.285
352.182, 109.412
353.534, 101.461
354.887, 93.336
356.239, 87.904
357.591, 79.975
358.942, 87.659
360.294, 81.249
361.645, 89.778
362.996, 81.208
364.347, 66.487
365.698, 72.729
367.048, 74.736
368.398, 59.783
369.748, 71.946
371.098, 61.313
372.448, 72.775
373.797, 47.209
375.146, 59.063
376.495, 28.252
377.844, 48.842
379.192, 69.062
380.540, 27.766
381.889, 34.158
383.236, 33.045
384.584, 43.005
385.932, 24.775
387.279, 41.346
388.626, 35.909
389.973, 24.850
391.319, 25.968
392.666, 39.179
394.012, 9.604
395.358, 33.173
396.704, 22.880
398.049, 31.464
399.394, 13.171
400.740, 16.513
402.084, 1.229
403.429, 5.157
404.774, 19.498
406.118, 15.076
407.462, 12.696
408.806, 12.531
410.150, 0.923
411.493, 24.869
412.836, 4.261
414.179, 19.558
415.522, 13.392
416.865, 11.259
418.207, 17.145
419.549, 20.028
420.891, 24.903
422.233, 19.868
423.575, 22.701
424.916, 0.822
426.257, 13.795
427.598, 21.857
428.939, 0.803
430.279, 11.764
431.619, 18.857
432.959, 29.023
434.299, 3.180
435.639, 1.673
436.978, 4.469
438.318, 12.604
439.657, 10.731
440.996, 9.851
442.334, 12.961
443.673, 17.085
445.011, 15.177
446.349, 17.263
447.687, 20.348
449.024, 8.428
450.361, 1.502
451.699, 5.571
453.036, 4.388
454.372, 6.877
455.709, 12.747
457.045, 12.799
458.381, 11.847
459.717, 9.889
461.053, 30.925
462.388, 15.956
463.724, 23.998
465.059, 11.024
466.394, 17.044
467.728, 27.061
469.063, 0.928
470.397, 17.077
471.731, 17.078
473.065, 22.073
474.398, 22.063
475.732, 5.047
477.065, 27.024
478.398, 13.998
479.731, 12.967
481.063, 24.931
482.396, 20.893
483.728, 23.852
485.060, 18.805
486.391, 13.754
487.723, 18.667
489.054, 14.996
490.385, 22.572
491.716, 21.502
493.047, 16.426
494.377, 32.345
495.708, 25.259
497.038, 12.168
498.368, 8.071
499.697, 24.968
501.027, 41.861
502.356, 28.748
503.685, 35.631
505.014, 14.508
506.342, 26.382
507.671, 20.252
508.999, 15.119
510.327, 24.888
511.655, 39.746
512.982, 31.542
514.310, 36.304
515.637, 36.031
516.964, 57.737
518.291, 60.410
519.617, 21.117
520.944, 45.799
522.270, 33.519
523.596, 28.204
524.921, 33.829
526.247, 31.483
527.572, 48.150
528.897, 47.759
530.222, 39.424
531.547, 33.053
532.871, 73.747
534.196, 33.350
535.520, 43.009
536.844, 73.566
538.167, 47.216
539.491, 44.969
540.814, 36.555
542.137, 31.176
543.460, 30.968
544.783, 30.677
546.105, 34.062
547.427, 36.735
548.749, 45.394
550.071, 48.027
551.393, 44.674
552.714, 54.386
554.035, 45.989
555.356, 61.697
556.677, 40.366
557.998, 29.085
559.318, 36.732
560.638, 50.400
561.958, 55.009
563.278, 56.534
564.597, 56.229
565.917, 55.911
567.236, 37.588
568.555, 42.268
569.874, 48.889
571.192, 52.630
572.511, 25.207
573.829, 55.932
575.147, 67.635
576.464, 38.333
577.782, 51.058
579.099, 31.799
580.416, 30.564
581.733, 49.310
583.050, 50.072
584.366, 55.745
585.683, 48.476
586.999, 45.243
588.315, 46.896
589.630, 19.656
590.946, 44.419
592.261, 24.227
593.576, 15.929
594.891, 27.600
596.206, 23.312
597.520, 16.059
598.834, 24.801
600.148, 13.542
601.462, 1.703
602.776, 38.071
604.089, 38.840
605.402, 15.620
606.715, 19.845
608.028, 12.591
609.341, 16.311
610.653, 17.053
611.965, 11.792
613.277, 2.543
614.589, 0.584
615.901, 1.362
617.212, 6.163
618.523, 23.935
619.834, 20.799
621.145, 1.395
622.456, 24.971
623.766, 12.772
625.076, 14.389
626.386, 12.249
627.696, 13.333
629.006, 14.532
630.315, 18.426
631.624, 28.294
632.933, 21.143
634.242, 26.255
635.551, 10.653
636.859, 25.592
638.167, 19.997
639.475, 14.898
640.783, 32.492
642.090, 30.360
643.398, 5.798
644.705, 22.939
646.012, 21.793
647.318, 12.574
648.625, 24.444
649.931, 40.346
651.237, 11.193
652.543, 10.383
653.849, 22.270
655.155, 27.173
656.460, 27.070
657.765, 15.960
659.070, 24.999
660.375, 11.907
661.679, 26.800
662.984, 28.018
664.288, 43.233
665.592, 34.570
666.895, 45.735
668.199, 30.624
669.502, 49.552
670.805, 46.439
672.108, 35.384
673.411, 67.893
674.713, 49.782
676.016, 54.091
677.318, 50.243
678.620, 76.296
679.921, 48.181
681.223, 71.067
682.524, 67.956
683.825, 58.022
685.126, 65.001
686.427, 130.279
687.727, 101.394
689.028, 137.139
690.328, 95.024
691.628, 113.026
692.927, 125.162
694.227, 157.047
695.526, 157.224
696.825, 163.815
698.124, 176.710
699.423, 190.883
700.721, 214.906
702.020, 232.852
703.318, 266.963
704.616, 297.326
705.913, 327.445
707.211, 449.327
708.508, 493.208
709.805, 591.089
711.102, 762.970
712.399, 949.850
713.695, 1184.730
714.992, 1505.609
716.288, 1853.488
717.584, 2411.366
718.879, 2746.243
720.175, 3406.122
721.470, 3495.999
722.765, 3339.876
724.060, 3104.752
725.355, 2526.628
726.649, 2063.503
727.944, 1587.378
729.238, 1203.252
730.532, 985.126
731.825, 693.999
733.119, 557.871
734.412, 412.743
735.705, 310.614
736.998, 261.483
738.291, 195.352
739.584, 196.431
740.876, 146.299
742.168, 127.165
743.460, 114.031
744.752, 92.078
746.043, 70.942
747.334, 49.804
748.626, 55.701
749.916, 29.571
751.207, 51.431
752.498, 36.291
753.788, 50.150
755.078, 21.007
756.368, 17.865
757.658, 15.698
758.947, 25.553
760.237, 24.406
761.526, 5.741
762.815, 17.106
764.104, 9.952
765.392, 15.459
766.680, 37.303
767.969, 12.263
769.257, 1.106
770.544, 17.059
771.832, 3.770
773.119, 13.598
774.406, 8.425
775.693, 10.165
776.980, 22.029
778.267, 6.781
779.553, 10.412
780.839, 16.554
782.125, 20.352
783.411, 8.851
784.697, 2.938
785.982, 4.725
787.267, 10.510
788.552, 9.553
789.837, 10.916
791.122, 1.860
792.406, 6.369
793.690, 13.605
794.974, 8.946
796.258, 12.895
797.542, 6.312
798.825, 1.574
800.108, 7.159
801.391, 12.109
802.674, 11.614
803.957, 4.334
805.239, 17.053
806.522, 1.229
807.804, 12.484
809.085, 3.196
810.367, 2.905
811.649, 6.864
812.930, 1.319
814.211, 5.027
815.492, 7.728
816.772, 2.572
818.053, 1.877
819.333, 4.187
820.613, 1.614
821.893, 11.179
823.173, 3.858
824.452, 11.535
825.732, 3.211
827.011, 7.115
828.290, 5.552
829.568, 3.783
830.847, 1.123
832.125, 0.533
833.403, 10.186
834.681, 6.007
835.959, 5.187
837.236, 0.138
838.514, 1.783
839.791, 3.573
841.068, 7.066
842.345, 1.703
843.621, 13.338
844.898, 0.972
846.174, 1.396
847.450, 10.231
848.726, 23.858
850.001, 7.483
851.277, 4.107
852.552, 4.270
853.827, 3.348
855.102, 1.965
856.376, 1.421
857.651, 5.809
858.925, 1.702
860.199, 5.399
861.473, 6.001
862.746, 11.970
864.020, 6.200
865.293, 19.799
866.566, 22.396
867.839, 23.992
869.112, 38.588
870.384, 47.182
871.656, 69.776
872.928, 85.368
874.200, 57.960
875.472, 74.551
876.744, 67.141
878.015, 37.729
879.286, 75.318
880.557, 122.905
881.828, 95.492
883.098, 62.078
884.369, 19.663
885.639, 23.247
886.909, 30.831
888.178, 6.414
889.448, 2.996
890.717, 20.578
891.987, 2.841
893.256, 28.738
894.524, 6.316
895.793, 13.893
897.061, 2.530
898.330, 2.044
899.598, 16.618
900.865, 0.192
902.133, 0.765
903.401, 3.337
904.668, 10.908
905.935, 19.479
907.202, 15.050
908.468, 0.621
909.735, 3.191
911.001, 10.761
912.267, 5.331
913.533, 13.900
914.799, 12.039
916.064, 14.608
917.330, 12.823
918.595, 12.740
919.860, 2.696
921.124, 12.866
922.389, 20.333
923.653, 7.730
924.918, 34.271
926.182, 33.833
927.445, 18.606
928.709, 10.949
929.972, 3.978
931.236, 25.522
932.499, 5.724
933.761, 33.831
935.024, 17.386
936.286, 13.221
937.549, 26.707
938.811, 11.242
940.073, 3.800
941.334, 0.641
942.596, 0.059
943.857, 23.499
945.118, 11.473
946.379, 4.002
947.640, 7.824
948.900, 3.613
950.161, 4.362
951.421, 9.616
952.681, 8.180
953.940, 18.804
955.200, 31.373
956.459, 17.909
957.719, 11.481
958.978, 16.763
960.236, 13.338
961.495, 31.848
962.753, 9.350
964.012, 10.932
965.270, 0.629
966.527, 18.942
967.785, 37.530
969.043, 20.754
970.300, 17.021
971.557, 22.156
972.814, 35.444
974.071, 37.041
975.327, 42.214
976.583, 53.201
977.840, 43.745
979.095, 40.730
980.351, 34.337
981.607, 19.524
982.862, 49.872
984.117, 47.320
985.372, 63.937
986.627, 40.559
987.882, 56.179
989.136, 39.626
990.390, 82.162
991.644, 49.402
992.898, 54.036
994.152, 65.583
995.405, 57.223
996.659, 52.747
997.912, 69.139
999.165, 72.786
1000.417, 75.435
1001.670, 41.086
1002.922, 78.729
1004.174, 74.981
1005.426, 56.615
1006.678, 91.215
1007.930, 107.652
1009.181, 136.838
1010.432, 102.272
1011.683, 84.944
1012.934, 137.620
1014.185, 134.297
1015.435, 152.978
1016.685, 150.662
1017.935, 142.348
1019.185, 166.039
1020.435, 155.732
1021.684, 156.428
1022.934, 219.126
1024.183, 204.828
1025.432, 198.534
1026.680, 239.244
1027.929, 212.958
1029.177, 213.677
1030.425, 256.400
1031.673, 232.125
1032.921, 261.855
1034.169, 269.589
1035.416, 313.325
1036.663, 321.066
1037.911, 313.810
1039.157, 329.558
1040.404, 330.308
1041.650, 378.062
1042.897, 409.612
1044.143, 392.376
1045.389, 438.144
1046.634, 441.916
1047.880, 468.509
1049.125, 496.289
1050.371, 517.719
1051.615, 544.824
1052.860, 581.610
1054.105, 601.407
1055.349, 646.208
1056.593, 654.013
1057.837, 716.820
1059.081, 768.632
1060.325, 810.450
1061.568, 900.271
1062.812, 952.101
1064.055, 1019.933
1065.298, 1181.775
1066.540, 1235.622
1067.783, 1374.812
1069.025, 1572.666
1070.267, 1707.406
1071.509, 1955.267
1072.751, 2163.131
1073.993, 2363.009
1075.234, 2639.889
1076.475, 2689.777
1077.716, 3141.755
1078.957, 3677.653
1080.198, 4136.560
1081.438, 5259.471
1082.679, 6306.228
1083.919, 8056.156
1085.159, 10651.088
1086.398, 13015.023
1087.638, 17469.965
1088.877, 22308.912
1090.116, 28845.863
1091.355, 41226.809
1092.594, 50869.773
1093.833, 61053.738
1095.071, 63442.707
1096.309, 52785.691
1097.547, 41108.684
1098.785, 27349.717
1100.023, 17537.711
1101.260, 11674.759
1102.498, 7638.767
1103.735, 5369.782
1104.972, 4004.798
1106.208, 2922.819
1107.445, 2471.844
1108.681, 1940.873
1109.918, 1577.605
1111.154, 1392.642
1112.389, 1148.698
1113.625, 994.741
1114.860, 910.783
1116.096, 814.121
1117.331, 689.174
1118.566, 665.233
1119.800, 572.296
1121.035, 567.365
1122.269, 549.438
1123.503, 530.514
1124.737, 460.594
1125.971, 415.677
1127.205, 368.409
1128.438, 350.502
1129.671, 322.597
1130.904, 304.698
1132.137, 286.803
1133.370, 286.911
1134.602, 293.622
1135.834, 284.736
1137.066, 281.250
1138.298, 242.373
1139.530, 241.498
1140.762, 235.628
1141.993, 196.880
1143.224, 201.016
1144.455, 187.155
1145.686, 191.297
1146.917, 197.443
1148.147, 186.009
1149.377, 175.744
1150.607, 168.898
1151.837, 160.075
1153.067, 143.364
1154.296, 136.545
1155.526, 140.712
1156.755, 123.882
1157.984, 105.071
1159.213, 137.250
1160.441, 134.431
1161.670, 125.614
1162.898, 115.808
1164.126, 86.046
1165.354, 112.236
1166.581, 90.647
1167.809, 64.841
1169.036, 68.037
1170.263, 88.235
1171.490, 80.436
1172.717, 84.038
1173.943, 82.578
1175.170, 74.847
1176.396, 63.641
1177.622, 56.951
1178.848, 79.184
1180.073, 61.795
1181.299, 51.010
1182.524, 66.227
1183.749, 33.971
1184.974, 42.191
1186.199, 43.434
1187.423, 70.679
1188.648, 74.065
1189.872, 41.137
1191.096, 50.488
1192.320, 52.718
1193.543, 25.300
1194.767, 50.533
1195.990, 41.125
1197.213, 32.463
1198.436, 41.708
1199.659, 42.005
1200.881, 33.330
1202.104, 25.571
1203.326, 31.840
1204.548, 25.103
1205.770, 30.799
1206.991, 6.626
1208.213, 28.872
1209.434, 17.214
1210.655, 24.461
1211.876, 25.502
1213.096, 26.486
1214.317, 23.735
1215.537, 22.989
1216.757, 12.250
1217.977, 13.536
1219.197, 15.790
1220.417, 13.071
1221.636, 21.335
1222.855, 25.819
1224.074, 16.085
1225.293, 24.709
1226.512, 24.104
1227.731, 21.429
1228.949, 42.890
1230.167, 10.272
1231.385, 46.542
1232.603, 27.878
1233.820, 0.194
1235.038, 2.524
1236.255, 2.334
1237.472, 21.768
1238.689, 13.037
1239.906, 29.335
1241.122, 7.773
1242.338, 39.045
1243.555, 13.371
1244.771, 4.281
1245.986, 7.282
1247.202, 2.387
1248.417, 34.868
1249.633, 3.141
1250.848, 29.415
1252.063, 25.690
1253.277, 5.966
1254.492, 26.240
1255.706, 14.486
1256.920, 26.790
1258.134, 0.941
1259.348, 7.341
1260.562, 13.609
1261.775, 7.111
1262.988, 15.156
1264.201, 11.424
1265.414, 17.693
1266.627, 20.961
1267.839, 4.229
1269.052, 19.498
1270.264, 5.767
1271.476, 4.036
1272.688, 11.695
1273.899, 13.570
1275.111, 6.835
1276.322, 7.101
1277.533, 6.361
1278.744, 23.618
1279.955, 10.126
1281.165, 17.124
1282.376, 6.629
1283.586, 2.616
1284.796, 3.859
1286.006, 28.096
1287.215, 1.670
1288.425, 9.560
1289.634, 16.789
1290.843, 15.010
1292.052, 25.229
1293.261, 19.523
1294.469, 24.656
1295.678, 10.857
1296.886, 2.047
1298.094, 0.765
1299.302, 3.422
1300.509, 9.598
1301.717, 17.764
1302.924, 4.926
1304.131, 16.084
1305.338, 11.229
1306.545, 11.372
1307.752, 7.512
1308.958, 1.643
1310.164, 11.771
1311.370, 1.104
1312.576, 15.016
1313.782, 32.130
1314.987, 13.242
1316.193, 18.350
1317.398, 3.544
1318.603, 2.443
1319.807, 2.653
1321.012, 6.254
1322.216, 1.832
1323.421, 7.915
1324.625, 3.006
1325.829, 17.068
1327.032, 23.137
1328.236, 4.797
1329.439, 27.262
1330.642, 9.317
1331.845, 9.367
1333.048, 1.413
1334.251, 9.545
1335.453, 2.488
1336.656, 22.516
1337.858, 1.460
1339.060, 19.558
1340.261, 1.427
1341.463, 3.582
1342.664, 14.587
1343.866, 12.412
1345.067, 4.582
1346.267, 19.572
1347.468, 10.559
1348.669, 12.543
1349.869, 2.477
1351.069, 4.501
1352.269, 20.469
1353.469, 12.564
1354.668, 18.395
1355.868, 7.649
1357.067, 6.685
1358.266, 26.260
1359.465, 19.202
1360.664, 17.143
1361.862, 17.082
1363.061, 14.019
1364.259, 11.046
1365.457, 17.884
1366.655, 14.187
1367.852, 17.752
1369.050, 0.315
1370.247, 4.607
1371.444, 8.529
1372.641, 13.489
1373.838, 5.431
1375.035, 19.370
1376.231, 8.284
1377.427, 10.333
1378.623, 9.090
1379.819, 2.675
1381.015, 4.554
1382.211, 22.781
1383.406, 16.005
1384.601, 5.126
1385.796, 35.297
1386.991, 12.510
1388.185, 10.720
1389.380, 2.172
1390.574, 14.353
1391.768, 27.550
1392.962, 24.425
1394.156, 32.614
1395.350, 35.800
1396.543, 30.984
1397.736, 29.420
1398.929, 37.591
1400.122, 24.759
1401.315, 30.213
1402.507, 21.893
1403.700, 43.039
1404.892, 23.037
1406.084, 30.177
1407.276, 57.314
1408.467, 57.448
1409.659, 36.555
1410.850, 82.498
1412.041, 66.622
1413.232, 70.726
1414.423, 100.847
1415.614, 96.887
1416.804, 80.706
1417.994, 131.818
1419.184, 129.929
1420.374, 132.997
1421.564, 160.166
1422.753, 143.076
1423.943, 203.573
1425.132, 176.867
1426.321, 215.898
1427.510, 237.680
1428.698, 251.244
1429.887, 311.732
1431.075, 376.196
1432.263, 413.040
1433.451, 483.199
1434.639, 576.145
1435.827, 642.346
1437.014, 820.336
1438.201, 875.416
1439.388, 846.686
1440.575, 920.577
1441.762, 802.438
1442.949, 722.414
1444.135, 660.980
1445.321, 556.096
1446.507, 452.519
1447.693, 418.746
1448.879, 338.329
1450.064, 342.819
1451.250, 291.070
1452.435, 237.671
1453.620, 260.956
1454.805, 227.294
1455.989, 170.164
1457.174, 187.725
1458.358, 157.263
1459.542, 144.781
1460.726, 111.270
1461.910, 93.725
1463.093, 120.164
1464.277, 100.601
1465.460, 77.005
1466.643, 77.382
1467.826, 52.722
1469.009, 64.031
1470.191, 78.303
1471.373, 66.572
1472.556, 33.824
1473.738, 56.061
1474.919, 12.281
1476.101, 48.501
1477.283, 46.715
1478.464, 49.922
1479.645, 50.152
1480.826, 48.967
1482.007, 32.738
1483.187, 42.106
1484.368, 46.513
1485.548, 33.948
1486.728, 60.422
1487.908, 38.901
1489.088, 41.405
1490.268, 37.905
1491.447, 31.403
1492.626, 30.904
1493.805, 17.412
1494.984, 16.934
1496.163, 10.330
1497.341, 7.671
1498.520, 1.658
1499.698, 10.308
1500.876, 11.005
1502.054, 21.748
1503.232, 8.534
1504.409, 9.362
1505.586, 10.237
1506.763, 11.170
1507.940, 8.174
1509.117, 3.263
1510.294, 5.260
1511.470, 24.534
1512.647, 22.932
1513.823, 0.516
1514.999, 20.812
1516.174, 8.400
1517.350, 33.657
1518.526, 0.087
1519.701, 0.000
##END=



