##NAMES=Dolomite
##RRUFFID=R040030
##IDEAL CHEMISTRY=CaMg(CO_3_)_2_
##LOCALITY=Austria
##OWNER=RRUFF
##SOURCE=University of Arizona Mineral Museum
##DESCRIPTION=Group of colorless tabular crystals
##STATUS=The identification of this mineral has been confirmed by X-ray diffraction and chemical analysis
##URL=rruff.info/R040030
##MEASURED CHEMISTRY=(Ca_0.99_Mg_0.01_)_Î£=1_Mg_1.00_(CO_3_)_2_ ; trace amounts of Mn; CO_2_ estimated by difference
##PIN_ID=M00035
##ORIENTATION=Laser parallel to -c* (0 0 -1). Fiducial mark perpendicular to laser is parallel to -a [-1 0 0]
91.398, 0.000
92.793, 32.848
94.188, 23.419
95.582, 116.589
96.976, 129.179
98.370, 145.630
99.764, 195.132
101.157, 186.163
102.550, 206.321
103.943, 230.278
105.336, 231.088
106.729, 240.518
108.121, 228.479
109.513, 282.939
110.905, 196.715
112.297, 398.661
113.688, 293.935
115.079, 336.703
116.470, 201.681
117.861, 250.904
119.251, 221.545
120.642, 194.193
122.032, 195.398
123.422, 141.993
124.811, 134.276
126.201, 141.574
127.590, 88.584
128.979, 82.233
130.367, 57.526
131.756, 102.516
133.144, 76.224
134.532, 76.675
135.920, 39.897
137.307, 25.877
138.695, 31.620
140.082, 7.143
141.469, 31.469
142.856, 11.244
144.242, 9.809
145.628, 17.002
147.014, 4.904
148.400, 19.209
149.786, 31.120
151.171, 70.129
152.556, 62.557
153.941, 94.748
155.325, 90.895
156.710, 101.117
158.094, 107.266
159.478, 112.269
160.862, 131.113
162.245, 127.864
163.629, 182.026
165.012, 244.192
166.395, 263.827
167.777, 344.346
169.160, 501.001
170.542, 753.003
171.924, 1088.552
173.306, 1556.100
174.687, 2021.115
176.068, 2485.445
177.449, 2845.396
178.830, 2787.037
180.211, 2493.651
181.591, 1831.795
182.972, 1234.585
184.351, 835.484
185.731, 511.318
187.111, 342.175
188.490, 240.051
189.869, 181.939
191.248, 99.836
192.626, 82.740
194.005, 72.650
195.383, 42.563
196.761, 41.476
198.139, 37.385
199.516, 31.290
200.893, 5.186
202.271, 9.933
203.647, 10.060
205.024, 11.199
206.400, 5.650
207.777, 21.518
209.152, 7.293
210.528, 31.916
211.904, 11.857
213.279, 10.389
214.654, 15.652
216.029, 9.065
217.403, 2.232
218.778, 45.545
220.152, 18.876
221.526, 33.228
222.900, 12.599
224.273, 29.991
225.646, 15.597
227.019, 1.832
228.392, 13.134
229.765, 7.775
231.137, 9.056
232.509, 42.866
233.881, 35.667
235.253, 23.625
236.625, 23.331
237.996, 32.935
239.367, 43.461
240.738, 38.716
242.108, 44.780
243.479, 42.775
244.849, 36.965
246.219, 34.966
247.589, 29.207
248.958, 20.903
250.328, 30.166
251.697, 44.538
253.065, 28.913
254.434, 46.299
255.803, 14.815
257.171, 35.199
258.539, 36.832
259.906, 60.645
261.274, 35.887
262.641, 19.823
264.008, 39.478
265.375, 35.189
266.742, 30.062
268.108, 55.799
269.475, 58.056
270.840, 84.753
272.206, 98.039
273.572, 104.696
274.937, 91.607
276.302, 107.444
277.667, 114.455
279.032, 127.914
280.396, 149.739
281.760, 179.251
283.125, 194.558
284.488, 206.946
285.852, 223.203
287.215, 280.347
288.578, 342.539
289.941, 386.685
291.304, 443.845
292.666, 560.962
294.029, 708.070
295.391, 866.008
296.753, 1136.039
298.114, 1364.915
299.476, 1676.873
300.837, 1871.651
302.198, 1865.341
303.558, 1783.184
304.919, 1506.832
306.279, 1189.472
307.639, 929.958
308.999, 681.497
310.359, 541.552
311.718, 419.111
313.077, 406.666
314.436, 293.992
315.795, 289.362
317.154, 263.866
318.512, 239.148
319.870, 207.331
321.228, 198.452
322.586, 198.432
323.943, 168.382
325.300, 186.283
326.657, 186.175
328.014, 180.152
329.371, 178.198
330.727, 217.191
332.083, 239.054
333.439, 287.005
334.795, 355.018
336.150, 469.805
337.506, 564.626
338.861, 753.624
340.215, 808.655
341.570, 818.813
342.924, 733.654
344.279, 602.570
345.633, 470.417
346.986, 367.088
348.340, 288.354
349.693, 234.478
351.046, 185.107
352.399, 154.816
353.752, 148.533
355.104, 169.126
356.457, 138.731
357.809, 132.292
359.160, 117.754
360.512, 136.199
361.863, 83.532
363.214, 68.819
364.565, 77.552
365.916, 44.369
367.267, 66.204
368.617, 82.915
369.967, 56.648
371.317, 80.688
372.666, 59.444
374.016, 61.918
375.365, 86.824
376.714, 17.595
378.063, 67.039
379.411, 40.896
380.760, 41.123
382.108, 70.644
383.456, 35.848
384.803, 66.063
386.151, 47.561
387.498, 89.927
388.845, 76.770
390.192, 95.905
391.539, 67.672
392.885, 60.424
394.231, 92.051
395.577, 76.103
396.923, 74.096
398.269, 82.964
399.614, 50.817
400.959, 46.787
402.304, 27.780
403.649, 0.737
404.993, 52.714
406.337, 27.810
407.681, 21.781
409.025, 30.922
410.369, 12.246
411.712, 38.488
413.055, 16.301
414.398, 23.197
415.741, 39.967
417.084, 16.150
418.426, 11.413
419.768, 4.177
421.110, 0.066
422.452, 6.129
423.793, 0.877
425.134, 20.075
426.475, 13.750
427.816, 0.367
429.157, 8.916
430.497, 6.398
431.837, 13.731
433.177, 7.573
434.517, 13.891
435.857, 2.456
437.196, 1.770
438.535, 5.052
439.874, 20.645
441.213, 22.325
442.551, 5.012
443.889, 35.629
445.227, 13.255
446.565, 30.864
447.903, 49.457
449.240, 30.041
450.577, 31.609
451.914, 19.161
453.251, 20.700
454.588, 16.230
455.924, 46.745
457.260, 17.248
458.596, 45.736
459.932, 19.211
461.267, 54.676
462.602, 69.127
463.938, 25.565
465.272, 65.989
466.607, 61.399
467.941, 41.806
469.276, 72.199
470.610, 75.592
471.943, 46.973
473.277, 32.350
474.610, 72.713
475.944, 47.065
477.276, 9.405
478.609, 45.742
479.942, 52.070
481.274, 49.389
482.606, 67.696
483.938, 67.517
485.270, 73.280
486.601, 68.556
487.932, 43.822
489.263, 23.078
490.594, 32.321
491.925, 59.554
493.255, 34.776
494.585, 15.988
495.915, 66.187
497.245, 54.377
498.575, 9.556
499.904, 3.724
501.233, 3.611
502.562, 34.021
503.891, 12.152
505.219, 25.271
506.548, 64.380
507.876, 56.479
509.203, 51.600
510.531, 75.730
511.859, 42.856
513.186, 37.990
514.513, 73.107
515.840, 58.234
517.166, 55.482
518.493, 45.695
519.819, 45.314
521.145, 86.229
522.470, 58.417
523.796, 87.314
525.121, 118.860
526.446, 53.656
527.771, 89.736
529.096, 58.558
530.421, 73.293
531.745, 74.208
533.069, 36.365
534.393, 57.207
535.716, 45.834
537.040, 41.291
538.363, 41.182
539.686, 48.871
541.009, 42.562
542.331, 37.398
543.654, 55.096
544.976, 54.937
546.298, 82.706
547.620, 74.760
548.941, 55.568
550.263, 71.523
551.584, 51.381
552.905, 61.212
554.225, 66.153
555.546, 59.038
556.866, 72.909
558.186, 70.591
559.506, 49.571
560.826, 76.309
562.145, 63.960
563.465, 69.319
564.784, 25.061
566.103, 44.691
567.421, 2.276
568.740, 71.903
570.058, 75.427
571.376, 71.074
572.694, 59.589
574.011, 61.979
575.329, 52.792
576.646, 55.056
577.963, 59.509
579.279, 54.877
580.596, 31.144
581.912, 104.028
583.228, 65.239
584.544, 101.740
585.860, 89.184
587.175, 88.458
588.491, 144.853
589.806, 135.711
591.121, 108.107
592.435, 127.889
593.750, 125.272
595.064, 130.373
596.378, 118.516
597.692, 70.452
599.006, 129.908
600.319, 95.367
601.632, 131.306
602.945, 124.943
604.258, 114.322
605.571, 98.829
606.883, 115.796
608.195, 103.258
609.507, 130.723
610.819, 88.629
612.131, 71.653
613.442, 47.084
614.753, 135.304
616.064, 68.843
617.375, 121.389
618.685, 179.071
619.995, 186.596
621.306, 241.207
622.615, 251.630
623.925, 331.190
625.235, 444.912
626.544, 420.363
627.853, 523.414
629.162, 461.993
630.471, 403.347
631.779, 363.806
633.087, 281.365
634.395, 238.002
635.703, 198.628
637.011, 190.784
638.318, 169.704
639.625, 215.144
640.932, 183.656
642.239, 182.164
643.546, 257.682
644.852, 265.186
646.158, 306.582
647.464, 362.887
648.770, 319.273
650.076, 359.723
651.381, 350.065
652.686, 305.325
653.991, 331.791
655.296, 297.204
656.600, 289.418
657.905, 252.581
659.209, 162.597
660.513, 122.910
661.817, 99.128
663.120, 97.398
664.423, 48.828
665.726, 38.221
667.029, 33.590
668.332, 32.014
669.635, 27.341
670.937, 28.649
672.239, 24.064
673.541, 2.457
674.842, 3.539
676.144, 21.184
677.445, 1.468
678.746, 0.054
680.047, 15.341
681.348, 22.250
682.648, 8.141
683.948, 0.488
685.248, 10.132
686.548, 44.216
687.848, 25.581
689.147, 1.059
690.447, 26.184
691.746, 22.489
693.044, 42.767
694.343, 20.003
695.641, 61.236
696.940, 55.499
698.238, 85.734
699.535, 110.945
700.833, 70.227
702.130, 130.507
703.427, 138.811
704.724, 144.111
706.021, 245.385
707.318, 179.677
708.614, 239.927
709.910, 223.211
711.206, 256.492
712.502, 369.765
713.798, 402.037
715.093, 460.306
716.388, 607.531
717.683, 714.793
718.978, 964.053
720.272, 1180.311
721.567, 1514.427
722.861, 1927.624
724.155, 2399.621
725.448, 2823.867
726.742, 2876.116
728.035, 2754.362
729.328, 2267.605
730.621, 1736.846
731.914, 1384.073
733.206, 978.315
734.499, 715.554
735.791, 528.792
737.083, 391.937
738.374, 303.174
739.666, 254.410
740.957, 182.644
742.248, 164.876
743.539, 153.107
744.830, 115.337
746.120, 114.378
747.410, 94.799
748.701, 97.033
749.990, 56.270
751.280, 38.506
752.570, 45.742
753.859, 42.979
755.148, 46.214
756.437, 45.507
757.725, 3.679
759.014, 28.909
760.302, 20.137
761.590, 17.637
762.878, 28.574
764.166, 31.783
765.453, 3.009
766.740, 20.808
768.027, 13.377
769.314, 6.440
770.601, 2.735
771.887, 13.577
773.174, 15.925
774.460, 26.231
775.745, 17.385
777.031, 17.537
778.316, 27.686
779.602, 30.166
780.887, 56.960
782.172, 34.915
783.456, 25.187
784.741, 25.714
786.025, 6.367
787.309, 29.446
788.593, 1.523
789.876, 33.404
791.160, 7.352
792.443, 3.308
793.726, 20.730
795.009, 22.766
796.291, 31.789
797.574, 68.833
798.856, 35.864
800.138, 50.893
801.420, 38.271
802.702, 5.948
803.983, 29.974
805.264, 39.998
806.545, 42.021
807.826, 41.509
809.107, 35.066
810.387, 28.085
811.667, 41.105
812.947, 48.125
814.227, 16.145
815.507, 44.164
816.786, 25.183
818.065, 47.202
819.344, 37.219
820.623, 43.497
821.902, 89.168
823.180, 58.433
824.459, 70.593
825.737, 83.538
827.014, 68.279
828.292, 110.141
829.569, 143.073
830.847, 50.903
832.124, 42.484
833.401, 99.744
834.677, 121.632
835.954, 109.903
837.230, 95.760
838.506, 93.456
839.782, 93.490
841.057, 105.907
842.333, 180.419
843.608, 157.027
844.883, 171.960
846.158, 223.207
847.433, 166.204
848.707, 227.113
849.981, 169.109
851.255, 185.104
852.529, 254.100
853.803, 205.095
855.076, 269.090
856.350, 225.085
857.623, 370.078
858.895, 356.072
860.168, 388.065
861.441, 443.058
862.713, 445.051
863.985, 436.043
865.257, 426.036
866.528, 290.028
867.800, 286.020
869.071, 319.011
870.342, 187.003
871.613, 243.995
872.884, 199.986
874.154, 201.978
875.425, 203.970
876.695, 189.963
877.965, 147.956
879.234, 157.950
880.504, 300.943
881.773, 406.938
883.042, 417.931
884.311, 339.926
885.580, 273.920
886.848, 195.914
888.117, 229.909
889.385, 171.905
890.653, 185.900
891.920, 152.896
893.188, 161.893
894.455, 197.889
895.722, 152.886
896.989, 201.884
898.256, 189.888
899.523, 135.903
900.789, 163.918
902.055, 181.934
903.321, 159.951
904.587, 212.968
905.852, 171.987
907.118, 185.006
908.383, 111.025
909.648, 161.051
910.913, 209.944
912.177, 92.971
913.442, 180.967
914.706, 139.578
915.970, 91.608
917.233, 127.644
918.497, 75.183
919.760, 91.610
921.024, 52.600
922.287, 91.934
923.550, 66.819
924.812, 69.817
926.075, 61.565
927.337, 53.615
928.599, 52.145
929.861, 72.672
931.122, 32.736
932.384, 64.617
933.645, 35.684
934.906, 59.275
936.167, 52.346
937.428, 31.525
938.688, 54.536
939.948, 99.613
941.208, 60.503
942.468, 63.223
943.728, 30.585
944.987, 50.208
946.247, 66.297
947.506, 42.389
948.765, 6.483
950.023, 80.580
951.282, 35.680
952.540, 63.782
953.798, 81.887
955.056, 59.948
956.314, 88.059
957.572, 73.172
958.829, 106.288
960.086, 63.407
961.343, 52.528
962.600, 27.653
963.856, 19.931
965.113, 65.910
966.369, 31.042
967.625, 40.178
968.881, 78.317
970.136, 2.458
971.392, 32.603
972.647, 36.750
973.902, 9.100
975.157, 27.949
976.411, 44.194
977.666, 38.660
978.920, 2.526
980.174, 75.390
981.428, 22.285
982.682, 12.816
983.935, 35.079
985.188, 20.017
986.441, 33.117
987.694, 25.227
988.947, 83.342
990.199, 0.460
991.452, 64.587
992.704, 29.716
993.956, 0.151
995.207, 45.987
996.459, 32.129
997.710, 86.281
998.961, 130.437
1000.212, 202.596
1001.463, 366.759
1002.714, 463.925
1003.964, 505.095
1005.214, 460.268
1006.464, 255.444
1007.714, 128.623
1008.964, 43.806
1010.213, 35.993
1011.462, 80.183
1012.711, 69.376
1013.960, 76.573
1015.209, 103.774
1016.457, 129.978
1017.705, 93.185
1018.954, 150.396
1020.201, 180.611
1021.449, 258.829
1022.697, 244.050
1023.944, 280.275
1025.191, 276.504
1026.438, 255.736
1027.685, 269.972
1028.931, 246.211
1030.177, 183.454
1031.423, 235.701
1032.669, 182.951
1033.915, 195.205
1035.161, 163.462
1036.406, 203.723
1037.651, 171.988
1038.896, 152.256
1040.141, 187.528
1041.386, 179.804
1042.630, 190.083
1043.874, 208.366
1045.118, 205.653
1046.362, 209.943
1047.606, 281.789
1048.849, 271.238
1050.092, 303.545
1051.336, 333.880
1052.578, 338.341
1053.821, 355.666
1055.064, 326.000
1056.306, 377.331
1057.548, 388.666
1058.790, 425.240
1060.032, 486.583
1061.273, 546.932
1062.515, 611.758
1063.756, 686.503
1064.997, 766.172
1066.237, 852.630
1067.478, 946.009
1068.718, 1051.159
1069.959, 1301.570
1071.199, 1429.991
1072.438, 1599.434
1073.678, 1797.880
1074.918, 1965.480
1076.157, 2298.954
1077.396, 2451.431
1078.635, 2615.853
1079.873, 2826.342
1081.112, 2946.834
1082.350, 3168.343
1083.588, 3528.855
1084.826, 3745.382
1086.064, 4180.914
1087.301, 4642.455
1088.539, 5208.000
1089.776, 6442.550
1091.013, 7681.102
1092.250, 10008.668
1093.486, 13906.242
1094.723, 19663.820
1095.959, 30471.404
1097.195, 42678.977
1098.431, 55536.574
1099.666, 57444.160
1100.902, 46641.762
1102.137, 32539.348
1103.372, 20406.949
1104.607, 13114.550
1105.842, 8752.158
1107.076, 5882.765
1108.311, 4278.375
1109.545, 3332.989
1110.779, 2625.605
1112.012, 2084.225
1113.246, 1655.847
1114.479, 1436.473
1115.712, 1212.102
1116.945, 1012.733
1118.178, 941.368
1119.411, 800.006
1120.643, 643.648
1121.875, 676.292
1123.108, 572.634
1124.339, 524.063
1125.571, 464.716
1126.802, 420.557
1128.034, 378.147
1129.265, 408.696
1130.496, 316.445
1131.727, 314.113
1132.957, 247.193
1134.187, 275.869
1135.418, 294.547
1136.648, 206.228
1137.877, 183.913
1139.107, 211.594
1140.336, 159.285
1141.566, 187.979
1142.795, 146.662
1144.023, 71.362
1145.252, 148.065
1146.480, 114.772
1147.709, 148.481
1148.937, 50.193
1150.165, 67.907
1151.392, 105.625
1152.620, 75.345
1153.847, 89.068
1155.074, 87.684
1156.301, 61.522
1157.528, 72.253
1158.755, 54.985
1159.981, 30.720
1161.207, 79.457
1162.433, 41.197
1163.659, 99.938
1164.885, 67.681
1166.110, 67.427
1167.336, 62.174
1168.561, 59.924
1169.786, 39.676
1171.010, 97.429
1172.235, 41.185
1173.459, 89.942
1174.683, 75.701
1175.907, 14.463
1177.131, 84.226
1178.355, 81.990
1179.578, 56.757
1180.801, 55.525
1182.024, 37.295
1183.247, 23.067
1184.470, 5.840
1185.692, 6.062
1186.915, 23.392
1188.137, 22.181
1189.359, 35.960
1190.580, 69.741
1191.802, 20.524
1193.023, 29.307
1194.244, 30.907
1195.465, 39.770
1196.686, 4.011
1197.907, 0.306
1199.127, 4.030
1200.347, 1.727
1201.567, 0.484
1202.787, 68.242
1204.007, 39.118
1205.226, 24.029
1206.446, 48.785
1207.665, 27.946
1208.884, 20.261
1210.102, 3.923
1211.321, 22.711
1212.539, 20.536
1213.758, 63.208
1214.976, 14.658
1216.193, 71.278
1217.411, 101.481
1218.628, 27.776
1219.846, 76.589
1221.063, 0.591
1222.280, 23.449
1223.496, 81.192
1224.713, 27.851
1225.929, 97.875
1227.145, 68.602
1228.361, 37.274
1229.577, 44.000
1230.793, 77.980
1232.008, 17.811
1233.223, 119.537
1234.438, 26.346
1235.653, 104.072
1236.868, 179.798
1238.082, 114.524
1239.297, 143.252
1240.511, 149.980
1241.725, 143.709
1242.938, 117.440
1244.152, 119.171
1245.365, 107.903
1246.578, 183.635
1247.791, 84.369
1249.004, 192.103
1250.217, 118.838
1251.429, 142.594
1252.642, 169.330
1253.854, 102.067
1255.066, 150.805
1256.277, 139.543
1257.489, 93.283
1258.700, 127.054
1259.911, 112.794
1261.122, 164.543
1262.333, 193.363
1263.544, 99.104
1264.754, 226.116
1265.964, 212.858
1267.174, 130.602
1268.384, 239.432
1269.594, 184.177
1270.803, 163.966
1272.013, 256.717
1273.222, 219.495
1274.431, 211.256
1275.640, 247.035
1276.848, 250.818
1278.057, 188.602
1279.265, 148.393
1280.473, 188.185
1281.681, 176.976
1282.888, 131.768
1284.096, 136.560
1285.303, 171.353
1286.510, 24.146
1287.717, 133.938
1288.924, 67.722
1290.131, 95.500
1291.337, 143.274
1292.543, 116.048
1293.749, 134.821
1294.955, 160.590
1296.161, 167.354
1297.366, 124.112
1298.571, 137.588
1299.777, 76.578
1300.981, 111.269
1302.186, 112.932
1303.391, 89.585
1304.595, 134.236
1305.799, 100.878
1307.003, 163.515
1308.207, 213.150
1309.411, 158.783
1310.614, 231.414
1311.818, 228.044
1313.021, 271.672
1314.224, 223.298
1315.426, 195.922
1316.629, 228.543
1317.831, 280.163
1319.033, 220.780
1320.235, 263.394
1321.437, 268.006
1322.639, 172.614
1323.840, 260.216
1325.042, 201.814
1326.243, 150.409
1327.444, 161.000
1328.644, 89.587
1329.845, 132.171
1331.045, 100.751
1332.245, 27.326
1333.445, 32.897
1334.645, 100.464
1335.845, 49.026
1337.044, 40.584
1338.244, 36.137
1339.443, 11.866
1340.642, 21.526
1341.840, 5.938
1343.039, 0.572
1344.237, 44.958
1345.435, 38.482
1346.633, 77.999
1347.831, 11.521
1349.029, 13.041
1350.226, 14.324
1351.424, 1.841
1352.621, 0.646
1353.818, 14.865
1355.014, 5.778
1356.211, 30.728
1357.407, 50.152
1358.604, 14.341
1359.800, 27.599
1360.995, 15.708
1362.191, 48.989
1363.387, 13.261
1364.582, 44.257
1365.777, 10.079
1366.972, 70.036
1368.167, 11.482
1369.361, 30.066
1370.556, 31.557
1371.750, 7.970
1372.944, 108.504
1374.138, 3.939
1375.331, 10.368
1376.525, 38.789
1377.718, 12.370
1378.911, 43.781
1380.104, 74.019
1381.297, 100.761
1382.490, 146.501
1383.682, 55.242
1384.874, 92.981
1386.066, 152.720
1387.258, 51.458
1388.450, 65.195
1389.641, 135.931
1390.833, 52.666
1392.024, 98.400
1393.215, 33.132
1394.406, 27.862
1395.596, 117.588
1396.787, 105.312
1397.977, 55.035
1399.167, 128.756
1400.357, 43.475
1401.547, 27.190
1402.736, 35.904
1403.925, 33.614
1405.115, 19.341
1406.304, 60.027
1407.492, 7.729
1408.681, 42.428
1409.870, 71.125
1411.058, 19.819
1412.246, 110.511
1413.434, 29.202
1414.622, 72.894
1415.809, 34.585
1416.997, 118.277
1418.184, 80.969
1419.371, 94.661
1420.558, 65.353
1421.744, 80.045
1422.931, 121.739
1424.117, 144.433
1425.303, 222.128
1426.489, 132.825
1427.675, 164.507
1428.861, 180.206
1430.046, 246.908
1431.231, 234.491
1432.416, 335.714
1433.601, 389.597
1434.786, 490.308
1435.970, 529.677
1437.155, 659.618
1438.339, 835.281
1439.523, 1040.481
1440.707, 1410.773
1441.890, 1798.988
1443.074, 1983.070
1444.257, 2118.410
1445.440, 1820.558
1446.623, 1563.949
1447.806, 1401.527
1448.989, 1200.186
1450.171, 1139.358
1451.353, 1156.683
1452.535, 999.996
1453.717, 1048.292
1454.899, 1087.570
1456.080, 979.829
1457.262, 1013.068
1458.443, 978.240
1459.624, 857.435
1460.805, 907.607
1461.985, 807.679
1463.166, 714.780
1464.346, 808.679
1465.526, 653.062
1466.706, 594.853
1467.886, 582.732
1469.065, 510.624
1470.245, 447.523
1471.424, 454.382
1472.603, 342.197
1473.782, 438.964
1474.960, 375.680
1476.139, 381.341
1477.317, 295.024
1478.495, 339.693
1479.673, 290.323
1480.851, 361.956
1482.029, 297.720
1483.206, 291.834
1484.383, 331.099
1485.560, 303.429
1486.737, 288.772
1487.914, 308.113
1489.091, 207.453
1490.267, 202.796
1491.443, 133.146
1492.619, 192.510
1493.795, 166.916
1494.971, 144.381
1496.146, 112.892
1497.322, 96.460
1498.497, 31.104
1499.672, 115.844
1500.846, 68.699
1502.021, 6.312
1503.196, 59.782
1504.370, 33.965
1505.544, 32.253
1506.718, 107.668
1507.892, 4.764
1509.065, 47.980
1510.238, 70.928
1511.412, 41.104
1512.585, 97.217
1513.758, 81.951
1514.930, 49.234
1516.103, 77.422
1517.275, 81.580
1518.447, 0.156
1519.619, 69.292
1520.791, 0.000
##END=



