##NAMES=Dravite
##RRUFFID=R040088
##IDEAL CHEMISTRY=NaMg_3_Al_6_(Si_6_O_18_)(BO_3_)_3_(OH)_3_OH
##LOCALITY=Yinnietharra Station, Pilbara, Western Australia, Australia
##OWNER=RRUFF
##SOURCE=University of Arizona Mineral Museum
##DESCRIPTION=Brown short prismatic crystal
##STATUS=The identification of this mineral has been confirmed by X-ray diffraction and chemical analysis
##URL=rruff.info/R040088
##MEASURED CHEMISTRY=(Na_0.88_Ca_0.06_[box]_0.06_)(Mg_0.88_Al_0.10_Ti_0.04_Fe_0.02_)_3_Al_6.00_(B_1_O_3_)_3_Si_6.00_O_18_((OH)_0.98_F_0.02_)_4_
##PIN_ID=L00133
##ORIENTATION=Laser parallel to a [1 0 0]. Fiducial mark perpendicular to laser is parallel to c* (0 0 1)
173.221, 0.000
174.605, 6.667
175.989, 10.263
177.373, 0.487
178.757, 48.860
180.140, 59.113
181.524, 124.460
182.907, 167.712
184.289, 298.725
185.672, 429.384
187.054, 490.602
188.436, 794.306
189.818, 906.439
191.200, 1175.955
192.581, 1397.815
193.963, 1723.984
195.343, 2146.433
196.724, 2572.134
198.105, 3188.066
199.485, 3806.210
200.865, 4756.549
202.245, 5875.068
203.624, 7493.758
205.004, 9478.604
206.383, 11693.602
207.762, 14798.739
209.140, 17414.012
210.519, 20399.410
211.897, 22424.926
213.275, 23440.549
214.653, 24456.270
216.030, 22502.080
217.408, 21317.977
218.785, 19013.955
220.162, 16910.012
221.538, 15146.144
222.915, 13482.348
224.291, 12858.621
225.667, 11784.962
227.042, 11861.369
228.418, 11727.841
229.793, 11644.375
231.168, 12300.970
232.543, 12357.624
233.917, 13474.337
235.292, 13961.107
236.666, 15487.934
238.040, 16614.816
239.413, 17691.752
240.787, 18868.742
242.160, 18955.785
243.533, 19512.881
244.906, 18330.027
246.278, 17537.223
247.651, 16434.457
249.023, 14541.688
250.395, 13128.921
251.766, 11146.164
253.138, 10183.421
254.509, 8800.693
255.880, 7827.986
257.250, 7015.299
258.621, 6292.635
259.991, 5996.995
261.361, 5590.380
262.731, 5244.791
264.101, 4608.229
265.470, 4222.693
266.839, 3947.186
268.208, 3334.706
269.577, 3264.255
270.945, 2831.833
272.313, 2644.440
273.681, 2419.075
275.049, 2050.740
276.417, 1989.433
277.784, 1772.154
279.151, 1614.906
280.518, 1483.686
281.885, 1291.495
283.251, 1157.333
284.617, 1018.199
285.983, 1027.094
287.349, 807.018
288.715, 800.970
290.080, 668.950
291.445, 703.959
292.810, 666.996
294.174, 585.061
295.539, 665.154
296.903, 680.274
298.267, 687.423
299.631, 735.599
300.994, 695.803
302.357, 850.036
303.720, 892.296
305.083, 1172.583
306.446, 1438.897
307.808, 1901.238
309.170, 2571.606
310.532, 2970.000
311.894, 3613.421
313.256, 3425.868
314.617, 3114.341
315.978, 2560.840
317.339, 2004.365
318.699, 1661.916
320.060, 1276.493
321.420, 1214.831
322.780, 1069.137
324.139, 1025.504
325.499, 1071.990
326.858, 989.564
328.217, 1159.206
329.576, 1181.908
330.934, 1232.667
332.293, 1376.478
333.651, 1401.337
335.009, 1643.243
336.367, 1707.192
337.724, 1972.182
339.081, 2194.212
340.438, 2384.280
341.795, 2738.384
343.152, 2881.522
344.508, 3390.695
345.864, 3630.899
347.220, 4136.135
348.576, 4580.402
349.931, 5132.698
351.286, 5949.023
352.641, 6461.376
353.996, 7769.756
355.351, 8658.163
356.705, 10156.596
358.059, 12155.055
359.413, 14203.538
360.767, 18232.047
362.120, 21580.578
363.473, 25539.135
364.826, 29397.713
366.179, 32556.316
367.532, 36504.941
368.884, 35353.586
370.236, 34922.258
371.588, 31570.947
372.940, 27819.658
374.291, 24428.391
375.643, 20187.146
376.994, 17615.920
378.344, 14614.715
379.695, 12823.531
381.045, 11272.366
382.395, 9651.221
383.745, 9030.096
385.095, 7918.990
386.444, 7307.903
387.794, 6756.835
389.143, 6195.785
390.491, 6194.754
391.840, 5609.741
393.188, 5593.747
394.537, 5239.771
395.884, 5081.812
397.232, 5103.872
398.580, 4732.949
399.927, 4895.045
401.274, 4625.159
402.621, 4734.291
403.967, 4599.441
405.314, 4418.609
406.660, 4402.795
408.006, 3932.999
409.352, 3938.221
410.697, 3438.460
412.042, 3194.718
413.387, 2913.993
414.732, 2556.285
416.077, 2523.594
417.421, 2108.921
418.765, 1963.266
420.109, 1765.627
421.453, 1598.006
422.797, 1516.401
424.140, 1306.814
425.483, 1313.243
426.826, 1191.689
428.168, 1108.152
429.511, 1178.632
430.853, 943.127
432.195, 1015.640
433.537, 961.168
434.878, 979.713
436.220, 932.273
437.561, 956.851
438.902, 923.444
440.242, 797.052
441.583, 857.677
442.923, 753.317
444.263, 743.974
445.603, 789.646
446.942, 651.333
448.282, 737.037
449.621, 698.755
450.960, 689.489
452.298, 657.239
453.637, 668.020
454.975, 671.783
456.313, 709.578
457.651, 689.388
458.989, 734.214
460.326, 704.054
461.663, 846.909
463.000, 783.779
464.337, 942.664
465.673, 973.563
467.010, 954.485
468.346, 1113.428
469.682, 1041.392
471.017, 1223.376
472.353, 1316.382
473.688, 1398.407
475.023, 1594.452
476.358, 1526.517
477.692, 1680.601
479.026, 1770.705
480.361, 1817.827
481.694, 2029.968
483.028, 1999.128
484.362, 2267.307
485.695, 2418.504
487.028, 2643.719
488.361, 2854.953
489.693, 2831.205
491.026, 3287.474
492.358, 3081.760
493.690, 3425.065
495.021, 3439.387
496.353, 3347.727
497.684, 3471.083
499.015, 3237.458
500.346, 3348.849
501.677, 3138.257
503.007, 2855.683
504.337, 2886.125
505.667, 2493.583
506.997, 2536.059
508.327, 2234.551
509.656, 2107.059
510.985, 1943.584
512.314, 1694.125
513.643, 1789.682
514.971, 1508.255
516.300, 1350.845
517.628, 1338.451
518.956, 1131.072
520.283, 1160.709
521.611, 1060.362
522.938, 1046.030
524.265, 927.714
525.591, 860.414
526.918, 1118.128
528.244, 1007.859
529.570, 1149.604
530.896, 1157.365
532.222, 1132.141
533.547, 1275.932
534.873, 1136.738
536.198, 1214.558
537.523, 1206.394
538.847, 1152.244
540.171, 1122.109
541.496, 987.989
542.820, 1045.883
544.143, 815.792
545.467, 816.715
546.790, 750.652
548.113, 578.604
549.436, 628.570
550.759, 494.550
552.081, 496.544
553.404, 413.552
554.726, 300.573
556.047, 315.609
557.369, 186.658
558.690, 224.721
560.011, 197.797
561.332, 68.887
562.653, 201.990
563.974, 84.107
565.294, 73.237
566.614, 175.380
567.934, 48.536
569.254, 78.705
570.573, 43.886
571.892, 42.081
573.211, 75.287
574.530, 81.507
575.849, 98.320
577.167, 85.079
578.485, 119.257
579.803, 68.539
581.121, 47.835
582.438, 93.148
583.756, 80.478
585.073, 139.822
586.390, 101.184
587.706, 177.562
589.023, 258.957
590.339, 253.369
591.655, 298.797
592.971, 225.242
594.287, 309.705
595.602, 409.183
596.917, 386.678
598.232, 525.189
599.547, 515.717
600.861, 617.262
602.176, 717.826
603.490, 613.406
604.804, 861.003
606.118, 818.617
607.431, 938.248
608.744, 972.892
610.057, 1050.553
611.370, 1297.229
612.683, 1219.920
613.995, 1326.627
615.307, 1466.348
616.619, 1372.083
617.931, 1610.831
619.243, 1575.593
620.554, 1699.369
621.865, 1864.156
623.176, 2019.956
624.487, 2376.767
625.797, 2557.588
627.108, 3124.422
628.418, 3733.265
629.728, 4175.116
631.037, 4974.978
632.347, 5225.848
633.656, 5587.728
634.965, 5497.616
636.274, 5061.514
637.582, 4828.418
638.891, 4423.331
640.199, 4295.251
641.507, 4094.179
642.815, 4096.114
644.122, 4423.057
645.430, 4345.007
646.737, 4951.964
648.044, 5300.928
649.350, 5617.899
650.657, 6211.877
651.963, 6223.861
653.269, 6575.853
654.575, 6547.850
655.881, 6509.854
657.186, 6751.864
658.491, 6483.880
659.796, 6755.902
661.101, 6877.930
662.406, 7059.963
663.710, 7712.003
665.014, 7884.047
666.318, 8996.098
667.622, 9638.153
668.926, 10350.214
670.229, 11572.279
671.532, 11874.350
672.835, 12776.426
674.138, 12888.505
675.440, 12430.590
676.743, 12612.679
678.045, 11384.772
679.347, 11186.870
680.648, 10278.973
681.950, 9501.078
683.251, 9273.188
684.552, 8465.302
685.853, 8507.419
687.153, 8159.539
688.454, 7941.663
689.754, 8403.791
691.054, 8225.922
692.354, 9038.056
693.653, 9210.192
694.953, 9912.332
696.252, 10814.475
697.551, 11106.619
698.849, 12218.767
700.148, 12590.916
701.446, 12523.068
702.744, 12925.223
704.042, 11677.379
705.340, 11119.538
706.637, 9871.698
707.935, 8323.859
709.232, 7356.023
710.529, 5958.188
711.825, 5112.354
713.122, 4304.599
714.418, 3440.768
715.714, 3239.456
717.010, 2541.325
718.305, 2165.894
719.601, 1953.930
720.896, 1686.701
722.191, 1602.767
723.486, 1303.761
724.780, 1205.516
726.075, 1156.822
727.369, 978.005
728.663, 1007.145
729.956, 818.426
731.250, 851.462
732.543, 723.929
733.836, 627.212
735.129, 698.302
736.422, 545.538
737.714, 593.677
739.007, 597.140
740.299, 536.683
741.591, 648.177
742.882, 529.780
744.174, 552.072
745.465, 679.458
746.756, 671.781
748.047, 791.752
749.337, 810.073
750.628, 993.269
751.918, 1064.331
753.208, 1078.669
754.498, 1289.737
755.787, 1301.700
757.077, 1412.542
758.366, 1407.525
759.655, 1245.503
760.944, 1199.198
762.232, 1034.834
763.520, 858.363
764.809, 773.692
766.096, 663.845
767.384, 666.583
768.672, 544.646
769.959, 523.065
771.246, 521.116
772.533, 419.540
773.820, 535.605
775.106, 489.637
776.392, 430.663
777.679, 469.682
778.964, 405.710
780.250, 451.716
781.536, 479.715
782.821, 488.706
784.106, 603.691
785.391, 529.669
786.675, 695.639
787.960, 673.602
789.244, 673.558
790.528, 765.506
791.812, 705.447
793.095, 784.379
794.379, 787.304
795.662, 762.221
796.945, 836.131
798.228, 738.032
799.510, 827.926
800.793, 867.811
802.075, 889.687
803.357, 1111.555
804.639, 1126.416
805.920, 1411.267
807.201, 1760.110
808.483, 1870.944
809.764, 2361.770
811.044, 2453.586
812.325, 2744.394
813.605, 3134.193
814.885, 3012.983
816.165, 3460.763
817.445, 3337.535
818.724, 3226.297
820.004, 3138.050
821.283, 2790.793
822.562, 2595.527
823.840, 2428.251
825.119, 2079.965
826.397, 1870.670
827.675, 1696.365
828.953, 1542.050
830.231, 1368.725
831.508, 1312.390
832.785, 1323.044
834.062, 1186.689
835.339, 1180.323
836.616, 1114.947
837.892, 1012.560
839.169, 1027.163
840.445, 789.755
841.720, 788.336
842.996, 650.907
844.272, 417.467
845.547, 413.015
846.822, 316.553
848.097, 146.081
849.371, 148.596
850.646, 9.898
851.920, 18.594
853.194, 104.924
854.468, 143.459
855.741, 79.012
857.015, 179.581
858.288, 122.169
859.561, 185.775
860.834, 170.401
862.106, 119.047
863.378, 237.710
864.651, 211.396
865.923, 202.104
867.194, 232.833
868.466, 180.585
869.737, 273.358
871.008, 234.154
872.279, 192.974
873.550, 224.815
874.821, 204.678
876.091, 274.563
877.361, 292.472
878.631, 282.407
879.901, 306.367
881.170, 240.353
882.440, 261.361
883.709, 248.393
884.978, 173.449
886.247, 249.523
887.515, 223.619
888.783, 195.737
890.052, 255.875
891.320, 199.037
892.587, 177.220
893.855, 152.423
895.122, 183.646
896.389, 183.888
897.656, 124.152
898.923, 112.432
900.189, 90.728
901.456, 49.041
902.722, 145.368
903.988, 6.712
905.253, 14.931
906.519, 73.436
907.784, 26.183
909.049, 77.210
910.314, 1.620
911.579, 16.959
912.843, 20.526
914.108, 86.083
915.372, 0.625
916.636, 74.157
917.899, 180.676
919.163, 78.182
920.426, 194.676
921.689, 146.157
922.952, 182.626
924.215, 258.083
925.477, 196.528
926.740, 314.962
928.002, 282.385
929.264, 230.797
930.525, 362.196
931.787, 315.583
933.048, 421.957
934.309, 447.318
935.570, 373.668
936.831, 519.005
938.091, 488.331
939.352, 498.645
940.612, 616.948
941.872, 593.240
943.131, 726.520
944.391, 764.789
945.650, 835.046
946.909, 932.292
948.168, 886.526
949.427, 1031.747
950.685, 1190.956
951.944, 1131.153
953.202, 1380.336
954.460, 1285.507
955.717, 1504.665
956.975, 1550.810
958.232, 1605.941
959.489, 1759.059
960.746, 1734.164
962.003, 1765.255
963.259, 1979.333
964.516, 1843.397
965.772, 1838.448
967.028, 1917.485
968.283, 1911.509
969.539, 1929.518
970.794, 1814.515
972.049, 2270.497
973.304, 2268.466
974.559, 1919.421
975.813, 1953.363
977.068, 1673.291
978.322, 1738.205
979.576, 1780.105
980.830, 1582.992
982.083, 1718.866
983.336, 1651.725
984.589, 1671.571
985.842, 1700.404
987.095, 1602.145
988.348, 1706.950
989.600, 1660.222
990.852, 1603.303
992.104, 1766.669
993.356, 1680.555
994.607, 1710.695
995.859, 1882.525
997.110, 1871.414
998.361, 2030.529
999.612, 2131.079
1000.862, 2201.738
1002.112, 2345.428
1003.363, 2361.962
1004.613, 2485.727
1005.862, 2646.048
1007.112, 2716.538
1008.361, 2968.208
1009.610, 3093.717
1010.859, 3324.438
1012.108, 3611.691
1013.357, 3723.937
1014.605, 4042.130
1015.853, 4122.199
1017.101, 4410.818
1018.349, 4903.255
1019.597, 4887.642
1020.844, 5365.790
1022.091, 5643.367
1023.338, 5733.074
1024.585, 6251.776
1025.832, 6366.302
1027.078, 6717.823
1028.324, 7156.697
1029.570, 7075.360
1030.816, 7404.226
1032.062, 7512.761
1033.307, 7011.983
1034.552, 7481.281
1035.797, 7080.379
1037.042, 6989.761
1038.287, 6998.919
1039.531, 6718.523
1040.776, 6718.367
1042.020, 6303.795
1043.264, 6280.344
1044.507, 6285.497
1045.751, 5815.986
1046.994, 5884.777
1048.237, 5829.407
1049.480, 5490.644
1050.723, 5559.332
1051.965, 5219.634
1053.207, 5241.035
1054.449, 5040.442
1055.691, 4672.634
1056.933, 4811.162
1058.174, 4572.591
1059.416, 4402.068
1060.657, 4410.627
1061.898, 4244.313
1063.139, 4115.873
1064.379, 4186.192
1065.619, 3896.543
1066.860, 4018.825
1068.100, 3848.096
1069.339, 3548.407
1070.579, 3507.778
1071.818, 3171.161
1073.057, 3111.649
1074.296, 2948.164
1075.535, 2676.714
1076.774, 2610.127
1078.012, 2349.740
1079.250, 2258.876
1080.488, 2126.369
1081.726, 1855.791
1082.964, 1834.808
1084.201, 1627.157
1085.438, 1521.306
1086.675, 1470.231
1087.912, 1355.471
1089.149, 1324.454
1090.385, 1197.455
1091.621, 1046.331
1092.857, 1152.197
1094.093, 1030.270
1095.329, 917.113
1096.564, 965.945
1097.800, 888.821
1099.035, 851.631
1100.270, 743.430
1101.504, 709.218
1102.739, 740.994
1103.973, 653.760
1105.207, 607.515
1106.441, 686.258
1107.675, 584.990
1108.908, 651.711
1110.142, 609.422
1111.375, 498.128
1112.608, 511.817
1113.841, 504.494
1115.073, 509.160
1116.305, 488.266
1117.538, 432.459
1118.770, 427.093
1120.001, 358.715
1121.233, 301.327
1122.464, 379.928
1123.696, 347.521
1124.927, 294.106
1126.157, 309.683
1127.388, 220.253
1128.618, 241.815
1129.849, 195.370
1131.079, 133.919
1132.309, 178.462
1133.538, 123.997
1134.768, 92.527
1135.997, 79.050
1137.226, 12.568
1138.455, 110.080
1139.684, 18.587
1140.912, 15.089
1142.140, 38.584
1143.369, 26.926
1144.596, 16.557
1145.824, 17.964
1147.052, 8.509
1148.279, 2.979
1149.506, 53.555
1150.733, 37.958
1151.960, 16.506
1153.187, 107.936
1154.413, 63.469
1155.639, 68.042
1156.865, 41.511
1158.091, 65.918
1159.317, 10.515
1160.542, 67.081
1161.767, 24.559
1162.992, 76.061
1164.217, 7.471
1165.442, 98.108
1166.666, 104.451
1167.891, 41.893
1169.115, 63.521
1170.338, 114.091
1171.562, 73.252
1172.786, 115.426
1174.009, 105.710
1175.232, 56.033
1176.455, 54.369
1177.678, 52.733
1178.900, 114.267
1180.123, 81.749
1181.345, 18.529
1182.567, 102.278
1183.789, 17.990
1185.010, 41.648
1186.232, 45.327
1187.453, 1.059
1188.674, 75.913
1189.895, 56.807
1191.115, 69.517
1192.336, 89.438
1193.556, 119.096
1194.776, 93.786
1195.996, 44.535
1197.216, 53.322
1198.435, 40.825
1199.655, 40.452
1200.874, 51.484
1202.093, 66.514
1203.311, 71.558
1204.530, 96.522
1205.748, 104.260
1206.966, 114.141
1208.184, 87.095
1209.402, 132.124
1210.620, 32.258
1211.837, 111.404
1213.054, 98.435
1214.271, 13.267
1215.488, 87.179
1216.705, 46.381
1217.921, 0.323
1219.138, 70.549
1220.354, 17.734
1221.570, 23.812
1222.785, 6.927
1224.001, 55.656
1225.216, 46.579
1226.431, 31.128
1227.646, 23.825
1228.861, 11.372
1230.075, 112.304
1231.290, 5.971
1232.504, 77.627
1233.718, 26.298
1234.932, 16.947
1236.145, 28.573
1237.359, 42.189
1238.572, 48.794
1239.785, 17.390
1240.998, 12.975
1242.211, 1.450
1243.423, 83.115
1244.635, 9.669
1245.848, 65.241
1247.059, 43.776
1248.271, 16.300
1249.483, 90.814
1250.694, 10.318
1251.905, 24.812
1253.116, 49.296
1254.327, 44.769
1255.538, 54.232
1256.748, 51.685
1257.958, 37.686
1259.168, 37.560
1260.378, 4.981
1261.588, 12.393
1262.797, 0.206
1264.006, 14.639
1265.215, 75.565
1266.424, 50.935
1267.633, 54.294
1268.842, 55.643
1270.050, 39.984
1271.258, 54.317
1272.466, 45.606
1273.674, 49.954
1274.881, 38.128
1276.089, 40.424
1277.296, 31.621
1278.503, 12.896
1279.710, 79.163
1280.916, 29.835
1282.123, 32.228
1283.329, 26.620
1284.535, 6.905
1285.741, 67.003
1286.947, 24.125
1288.152, 39.142
1289.358, 1.713
1290.563, 8.184
1291.768, 54.355
1292.973, 5.779
1294.177, 47.456
1295.382, 0.618
1296.586, 65.742
1297.790, 47.145
1298.994, 9.271
1300.197, 24.508
1301.401, 114.991
1302.604, 115.299
1303.807, 94.816
1305.010, 89.299
1306.213, 89.564
1307.415, 85.835
1308.618, 52.110
1309.820, 66.684
1311.022, 18.116
1312.223, 2.175
1313.425, 25.722
1314.626, 39.887
1315.828, 38.172
1317.029, 29.483
1318.230, 5.598
1319.430, 13.930
1320.631, 42.462
1321.831, 31.077
1323.031, 59.485
1324.231, 56.196
1325.431, 46.799
1326.630, 41.182
1327.830, 61.615
1329.029, 65.001
1330.228, 56.395
1331.427, 10.151
1332.625, 20.617
1333.824, 19.948
1335.022, 71.638
1336.220, 44.375
1337.418, 31.959
1338.616, 19.093
1339.813, 27.265
1341.010, 17.827
1342.208, 27.988
1343.404, 73.750
1344.601, 59.277
1345.798, 38.145
1346.994, 58.403
1348.190, 22.255
1349.386, 11.421
1350.582, 36.761
1351.778, 5.867
1352.973, 23.720
1354.169, 9.509
1355.364, 25.888
1356.559, 58.495
1357.753, 24.814
1358.948, 5.763
1360.142, 19.582
1361.336, 12.159
1362.530, 5.224
1363.724, 2.605
1364.918, 20.951
1366.111, 16.540
1367.305, 11.132
1368.498, 15.860
1369.690, 12.063
1370.883, 10.681
1372.076, 6.187
1373.268, 8.825
1374.460, 5.680
1375.652, 69.798
1376.844, 39.268
1378.035, 102.726
1379.227, 75.167
1380.418, 49.623
1381.609, 78.041
1382.800, 60.248
1383.991, 22.845
1385.181, 81.222
1386.371, 53.587
1387.562, 89.939
1388.751, 122.277
1389.941, 113.710
1391.131, 126.021
1392.320, 127.315
1393.509, 137.577
1394.698, 150.894
1395.887, 138.013
1397.076, 167.652
1398.264, 202.279
1399.453, 185.893
1400.641, 151.494
1401.829, 236.083
1403.016, 217.511
1404.204, 245.944
1405.391, 157.466
1406.578, 163.694
1407.765, 205.190
1408.952, 191.438
1410.139, 183.706
1411.325, 183.618
1412.512, 173.935
1413.698, 174.183
1414.884, 161.655
1416.069, 149.148
1417.255, 145.424
1418.440, 130.637
1419.625, 144.308
1420.810, 113.334
1421.995, 136.708
1423.180, 146.858
1424.364, 152.563
1425.548, 122.418
1426.732, 113.019
1427.916, 106.031
1429.100, 115.260
1430.284, 70.875
1431.467, 90.893
1432.650, 90.238
1433.833, 49.910
1435.016, 98.847
1436.199, 71.775
1437.381, 117.759
1438.563, 125.061
1439.745, 107.282
1440.927, 84.384
1442.109, 87.651
1443.290, 105.868
1444.472, 76.092
1445.653, 117.326
1446.834, 102.551
1448.015, 55.766
1449.195, 72.924
1450.376, 72.119
1451.556, 39.304
1452.736, 33.481
1453.916, 52.650
1455.096, 59.812
1456.275, 77.967
1457.454, 98.114
1458.634, 33.255
1459.813, 122.393
1460.991, 6.516
1462.170, 14.621
1463.348, 86.707
1464.527, 21.778
1465.705, 35.837
1466.883, 8.886
1468.060, 17.933
1469.238, 55.000
1470.415, 33.090
1471.592, 30.069
1472.769, 32.266
1473.946, 14.353
1475.123, 8.755
1476.299, 19.566
1477.476, 21.311
1478.652, 22.187
1479.828, 48.048
1481.003, 31.905
1482.179, 43.234
1483.354, 32.370
1484.529, 19.501
1485.704, 8.377
1486.879, 50.258
1488.054, 25.857
1489.228, 10.032
1490.403, 11.923
1491.577, 2.182
1492.751, 8.713
1493.924, 17.392
1495.098, 26.501
1496.271, 3.384
1497.444, 6.734
1498.618, 31.854
1499.790, 28.023
1500.963, 4.921
1502.135, 17.688
1503.308, 14.593
1504.480, 64.566
1505.652, 120.612
1506.824, 5.602
1507.995, 44.504
1509.167, 42.816
1510.338, 77.813
1511.509, 22.277
1512.680, 29.043
1513.850, 97.710
1515.021, 41.007
1516.191, 23.467
1517.361, 53.986
1518.531, 2.462
1519.701, 9.259
1520.871, 12.341
1522.040, 0.000
##END=



