##NAMES=Dravite
##RRUFFID=R060280
##IDEAL CHEMISTRY=NaMg_3_Al_6_(Si_6_O_18_)(BO_3_)_3_(OH)_3_OH
##LOCALITY=near Merelani, Tanzania
##OWNER=RRUFF
##SOURCE=Herb Obodda
##DESCRIPTION=Green fragment
##STATUS=The identification of this mineral has been confirmed by X-ray diffraction and chemical analysis
##URL=rruff.info/R060280
##MEASURED CHEMISTRY=(Na_0.45_Ca_0.40_[box]_0.15_)(Mg_0.89_Al_0.07_Ti_0.04_)_3_Al_6_(BO_3_)_3_(Si_0.93_B_0.07_)_6_O_18_((OH)_0.95_O_0.05_)_4_
##PIN_ID=L00930
##ORIENTATION=Laser parallel to c* (0 0 1). Fiducial mark perpendicular to laser is parallel to -b [0 -1 0]
168.4860, 0.0000000E+00
169.7110, 51.51562
170.9360, 281.2852
172.1610, 204.1133
173.3850, 346.5078
174.6100, 365.3301
175.8340, 502.9121
177.0580, 28.05078
178.2820, 81.20312
179.5050, 219.8906
180.7290, 121.3574
181.9520, 92.04297
183.1760, 207.7188
184.3990, 131.3750
185.6220, 429.7676
186.8450, 628.7754
188.0670, 806.2754
189.2900, 940.0176
190.5120, 1067.791
191.7340, 1105.418
192.9560, 1331.754
194.1780, 1528.672
195.4000, 1641.072
196.6220, 2172.855
197.8430, 2112.951
199.0640, 2589.311
200.2860, 2654.951
201.5070, 3297.740
202.7270, 3866.625
203.9480, 3581.287
205.1690, 4203.734
206.3890, 4776.992
207.6090, 4974.988
208.8290, 5711.674
210.0490, 6754.012
211.2690, 7269.977
212.4890, 8241.551
213.7080, 8402.727
214.9280, 8770.486
216.1470, 8860.814
217.3660, 8659.705
218.5850, 7972.148
219.8030, 7332.139
221.0220, 6687.664
222.2400, 6001.723
223.4590, 5646.311
224.6770, 4771.414
225.8950, 4688.031
227.1120, 4370.158
228.3300, 3736.785
229.5480, 4074.348
230.7650, 4083.250
231.9820, 4018.207
233.1990, 4260.746
234.4160, 4292.770
235.6330, 4836.270
236.8490, 4912.158
238.0660, 5262.568
239.2820, 5429.391
240.4980, 5777.770
241.7140, 5881.527
242.9300, 5467.744
244.1460, 5227.113
245.3610, 5106.623
246.5770, 4390.223
247.7920, 3846.941
249.0070, 3086.811
250.2220, 2837.910
251.4370, 2077.264
252.6510, 1699.875
253.8660, 1198.762
255.0800, 1129.922
256.2940, 793.3633
257.5080, 566.0938
258.7220, 569.3789
259.9360, 422.7656
261.1490, 542.0508
262.3630, 382.9609
263.5760, 308.1680
264.7890, 260.6758
266.0020, 661.4844
267.2150, 860.5938
268.4270, 1269.008
269.6400, 1562.727
270.8520, 1745.746
272.0640, 1796.066
273.2760, 1959.688
274.4880, 2243.605
275.7000, 1701.828
276.9120, 2032.348
278.1230, 1739.156
279.3340, 1378.258
280.5450, 1380.648
281.7560, 921.3320
282.9670, 705.3008
284.1780, 356.5586
285.3880, 149.1016
286.5980, 230.9375
287.8090, 97.05469
289.0190, 22.54297
290.2290, 132.1484
291.4380, 61.87891
292.6480, 29.37500
293.8570, 21.90625
295.0670, 47.27734
296.2760, 152.8125
297.4850, 593.1836
298.6930, 274.8281
299.9020, 137.7500
301.1110, 545.9414
302.3190, 238.4102
303.5270, 52.85938
304.7350, 58.13672
305.9430, 138.6055
307.1510, 116.0742
308.3580, 371.2773
309.5660, 333.1445
310.7730, 266.5977
311.9800, 105.5859
313.1870, 43.23047
314.3940, 90.39453
315.6010, 141.9922
316.8070, 370.8320
318.0130, 454.5430
319.2200, 652.9258
320.4260, 1302.957
321.6310, 1745.574
322.8370, 2056.957
324.0430, 2344.160
325.2480, 3221.328
326.4540, 3602.660
327.6590, 4192.746
328.8640, 4666.270
330.0680, 5249.582
331.2730, 5975.602
332.4780, 6474.367
333.6820, 7226.508
334.8860, 7877.980
336.0900, 8500.773
337.2940, 8883.867
338.4980, 9020.262
339.7010, 9180.945
340.9050, 9487.914
342.1080, 9310.164
343.3110, 9332.688
344.5140, 8684.477
345.7170, 8893.527
346.9200, 8723.840
348.1220, 8191.406
349.3240, 8419.219
350.5270, 8046.266
351.7290, 8477.555
352.9310, 8910.074
354.1320, 9345.820
355.3340, 10033.80
356.5350, 10896.00
357.7370, 11639.43
358.9380, 12728.07
360.1390, 13615.95
361.3400, 14641.56
362.5400, 16475.37
363.7410, 16975.91
364.9410, 18390.66
366.1410, 20053.64
367.3410, 20934.81
368.5410, 21902.20
369.7410, 22591.78
370.9400, 22929.57
372.1400, 23000.61
373.3390, 23154.75
374.5380, 22203.13
375.7370, 21393.70
376.9360, 20223.46
378.1350, 18338.41
379.3330, 16940.55
380.5310, 15532.88
381.7300, 13923.40
382.9280, 12493.07
384.1260, 11158.81
385.3230, 10066.68
386.5210, 9089.734
387.7180, 8175.133
388.9160, 7735.395
390.1130, 6783.000
391.3100, 6294.789
392.5060, 5933.770
393.7030, 5192.926
394.9000, 4914.266
396.0960, 4697.793
397.2920, 4262.508
398.4880, 4080.746
399.6840, 3921.465
400.8800, 3706.719
402.0750, 3611.148
403.2710, 3652.758
404.4660, 3107.547
405.6610, 2897.508
406.8560, 3099.648
408.0510, 2402.961
409.2450, 2481.449
410.4400, 2145.109
411.6340, 1918.941
412.8280, 1565.945
414.0220, 1460.121
415.2160, 1339.469
416.4100, 1021.980
417.6030, 825.6562
418.7970, 704.5039
419.9900, 787.5195
421.1830, 674.6992
422.3760, 530.0391
423.5690, 646.5430
424.7610, 566.5117
425.9540, 869.0352
427.1460, 758.0195
428.3380, 1107.168
429.5300, 1580.477
430.7220, 1241.938
431.9140, 1329.559
433.1050, 1780.152
434.2970, 1896.082
435.4880, 1960.609
436.6790, 1968.848
437.8700, 1944.238
439.0610, 2289.387
440.2510, 2186.082
441.4420, 2000.926
442.6320, 2515.914
443.8220, 2237.059
445.0120, 2181.344
446.2020, 1960.777
447.3910, 1937.203
448.5810, 1778.148
449.7700, 1666.246
450.9600, 1562.094
452.1490, 1398.379
453.3370, 1271.570
454.5260, 1013.375
455.7150, 801.0781
456.9030, 1046.867
458.0910, 695.8867
459.2800, 626.0820
460.4670, 698.7969
461.6550, 501.4453
462.8430, 711.7031
464.0300, 583.7695
465.2180, 498.0820
466.4050, 514.9336
467.5920, 750.5938
468.7790, 846.1992
469.9650, 1002.645
471.1520, 1345.738
472.3380, 1560.691
473.5250, 1659.664
474.7110, 1746.492
475.8970, 2464.465
477.0820, 2328.090
478.2680, 2683.480
479.4540, 2701.477
480.6390, 3086.621
481.8240, 3199.922
483.0090, 3772.375
484.1940, 3633.977
485.3780, 4083.734
486.5630, 3938.641
487.7470, 4036.691
488.9320, 4132.895
490.1160, 4247.242
491.3000, 4229.734
492.4830, 4417.375
493.6670, 4680.156
494.8500, 4499.086
496.0340, 4845.152
497.2170, 5120.363
498.4000, 5235.715
499.5820, 5312.207
500.7650, 5442.840
501.9480, 5610.613
503.1300, 5648.098
504.3120, 5585.789
505.4940, 5765.973
506.6760, 5474.289
507.8580, 5189.695
509.0390, 5135.281
510.2210, 4821.992
511.4020, 4606.840
512.5830, 4387.398
513.7640, 3832.930
514.9450, 3810.164
516.1250, 3532.535
517.3060, 3492.637
518.4860, 3448.652
519.6660, 3650.398
520.8460, 3851.273
522.0260, 4106.398
523.2060, 4396.270
524.3850, 4690.953
525.5650, 5102.020
526.7440, 5362.516
527.9230, 5847.133
529.1020, 6217.871
530.2810, 7211.730
531.4590, 7402.715
532.6380, 7819.812
533.8160, 7945.035
534.9940, 8413.371
536.1720, 8475.828
537.3500, 8265.402
538.5270, 8239.090
539.7050, 8019.898
540.8820, 7793.816
542.0590, 7521.852
543.2360, 7324.996
544.4130, 6978.258
545.5900, 6682.918
546.7660, 6386.113
547.9430, 5964.707
549.1190, 5714.410
550.2950, 5273.223
551.4710, 4882.141
552.6470, 5008.172
553.8220, 4795.309
554.9980, 4480.551
556.1730, 4580.898
557.3480, 4410.352
558.5230, 4149.906
559.6980, 4123.570
560.8730, 4008.332
562.0470, 3856.457
563.2220, 3910.164
564.3960, 3581.227
565.5700, 3709.398
566.7440, 3528.664
567.9170, 3517.027
569.0910, 3341.488
570.2640, 3281.051
571.4380, 3250.707
572.6110, 2667.457
573.7840, 2345.305
574.9570, 2250.250
576.1290, 1918.285
577.3020, 1669.418
578.4740, 1691.645
579.6460, 868.9648
580.8180, 1080.375
581.9900, 620.8750
583.1620, 726.4727
584.3330, 650.1875
585.5040, 253.9922
586.6760, 113.9141
587.8470, 8.050781
589.0180, 155.8984
590.1880, 82.71875
591.3590, 294.4805
592.5290, 260.2109
593.7000, 373.8555
594.8700, 404.4492
596.0400, 395.9688
597.2090, 526.4336
598.3790, 217.9375
599.5490, 196.3516
600.7180, 141.6406
601.8870, 154.8047
603.0560, 280.8672
604.2250, 363.8281
605.3940, 399.7617
606.5620, 117.6758
607.7300, 168.4492
608.8990, 0.1328130
610.0670, 343.6719
611.2350, 221.2500
612.4020, 232.8633
613.5700, 169.4609
614.7370, 162.0586
615.9050, 120.6562
617.0720, 63.71875
618.2390, 79.16016
619.4060, 139.6680
620.5720, 485.2539
621.7390, 375.8984
622.9050, 1107.609
624.0710, 851.3828
625.2370, 967.2188
626.4030, 1533.113
627.5690, 1276.066
628.7340, 1277.082
629.9000, 1410.156
631.0650, 1523.277
632.2300, 1373.465
633.3950, 1147.703
634.5600, 909.9922
635.7240, 579.3398
636.8890, 642.7422
638.0530, 555.1953
639.2170, 508.6953
640.3810, 178.2500
641.5450, 253.8555
642.7080, 45.50781
643.8720, 72.17578
645.0350, 274.8750
646.1980, 308.6172
647.3610, 99.40234
648.5240, 649.2227
649.6870, 514.0820
650.8490, 791.9922
652.0120, 1179.941
653.1740, 1255.938
654.3360, 1361.969
655.4980, 1935.043
656.6600, 2168.156
657.8210, 2299.312
658.9830, 2678.504
660.1440, 2799.738
661.3050, 2961.008
662.4660, 3240.312
663.6270, 3254.652
664.7870, 3544.027
665.9480, 3606.438
667.1080, 3583.883
668.2680, 3312.359
669.4280, 3530.867
670.5880, 3210.406
671.7480, 3257.977
672.9070, 2986.578
674.0670, 2766.207
675.2260, 2539.867
676.3850, 2400.016
677.5440, 2854.266
678.7030, 2259.004
679.8610, 2243.773
681.0200, 2371.562
682.1780, 1999.379
683.3360, 2060.219
684.4940, 2055.078
685.6520, 2170.965
686.8090, 2263.871
687.9670, 1962.797
689.1240, 2439.742
690.2810, 2456.711
691.4380, 2454.695
692.5950, 3044.699
693.7520, 3323.723
694.9080, 3511.762
696.0650, 3806.816
697.2210, 3951.887
698.3770, 4221.969
699.5330, 4485.070
700.6880, 5117.184
701.8440, 5582.312
702.9990, 5938.449
704.1550, 6693.594
705.3100, 6948.758
706.4650, 7677.930
707.6190, 8305.109
708.7740, 8946.297
709.9290, 9607.785
711.0830, 10177.70
712.2370, 11106.91
713.3910, 12298.13
714.5450, 13576.35
715.6980, 14583.59
716.8520, 15869.81
718.0050, 16953.05
719.1580, 18557.29
720.3110, 19725.92
721.4640, 21286.55
722.6170, 22643.85
723.7700, 23558.39
724.9220, 24338.55
726.0740, 24548.83
727.2260, 24466.03
728.3780, 23794.25
729.5300, 23150.31
730.6810, 21634.78
731.8330, 20048.76
732.9840, 18706.82
734.1350, 17097.59
735.2860, 15794.93
736.4370, 14385.31
737.5880, 13495.52
738.7380, 12696.36
739.8880, 11609.82
741.0390, 11539.59
742.1890, 10898.43
743.3380, 10894.53
744.4880, 10865.62
745.6380, 11062.81
746.7870, 11053.11
747.9360, 11187.38
749.0850, 11581.88
750.2340, 12014.24
751.3830, 12275.49
752.5310, 12900.30
753.6800, 13073.10
754.8280, 13825.66
755.9760, 14245.70
757.1240, 14421.15
758.2720, 14713.20
759.4190, 15000.62
760.5670, 15210.30
761.7140, 15366.08
762.8610, 15280.70
764.0080, 15035.30
765.1550, 14925.87
766.3020, 14498.40
767.4480, 14069.91
768.5950, 14001.38
769.7410, 13581.81
770.8870, 13438.22
772.0330, 13168.59
773.1780, 13095.93
774.3240, 13046.23
775.4690, 12763.51
776.6140, 13094.75
777.7590, 12708.95
778.9040, 12567.12
780.0490, 12916.27
781.1940, 12664.80
782.3380, 12755.21
783.4820, 12884.24
784.6260, 13160.24
785.7700, 13125.25
786.9140, 13277.17
788.0580, 13678.06
789.2010, 13615.92
790.3450, 13695.73
791.4880, 13839.52
792.6310, 14075.26
793.7730, 13667.97
794.9160, 13829.63
796.0590, 13724.26
797.2010, 13201.85
798.3430, 12928.40
799.4850, 12712.91
800.6270, 12652.39
801.7690, 13022.82
802.9100, 12647.20
804.0520, 12698.56
805.1930, 13246.86
806.3340, 14014.13
807.4750, 14557.36
808.6160, 15394.53
809.7560, 16267.67
810.8970, 16980.77
812.0370, 17828.82
813.1770, 18820.83
814.3170, 19600.79
815.4570, 20113.71
816.5960, 20700.59
817.7360, 21255.41
818.8750, 21615.20
820.0140, 21868.93
821.1530, 21442.93
822.2920, 21463.27
823.4310, 20009.88
824.5690, 18940.43
825.7070, 17814.94
826.8460, 16663.59
827.9840, 15768.81
829.1220, 14618.17
830.2590, 13670.48
831.3970, 12792.75
832.5340, 11599.97
833.6710, 10810.14
834.8080, 10006.26
835.9450, 9085.332
837.0820, 8341.352
838.2190, 7535.324
839.3550, 6742.246
840.4910, 6269.117
841.6270, 5341.938
842.7630, 4858.711
843.8990, 4053.426
845.0350, 3517.094
846.1700, 3003.707
847.3060, 2523.270
848.4410, 2069.777
849.5760, 1697.648
850.7100, 1392.641
851.8450, 1096.996
852.9800, 991.3008
854.1140, 869.5469
855.2480, 674.7461
856.3820, 443.8906
857.5160, 444.9727
858.6500, 136.9961
859.7830, 287.9180
860.9170, 145.7617
862.0500, 141.5117
863.1830, 33.85156
864.3160, 94.62891
865.4480, 118.0430
866.5810, 135.6250
867.7130, 229.4453
868.8460, 278.4688
869.9780, 493.6992
871.1100, 418.2461
872.2410, 343.0703
873.3730, 304.0977
874.5050, 426.3750
875.6360, 330.9805
876.7670, 268.8672
877.8980, 468.9961
879.0290, 388.4570
880.1590, 390.3711
881.2900, 382.9414
882.4200, 284.4336
883.5500, 217.9258
884.6800, 105.6641
885.8100, 72.54297
886.9400, 139.2930
888.0690, 33.76172
889.1990, 78.75391
890.3280, 244.6914
891.4570, 320.5859
892.5860, 315.4141
893.7140, 388.2031
894.8430, 457.9453
895.9710, 780.6562
897.1000, 528.3945
898.2280, 795.1094
899.3560, 782.7969
900.4830, 812.4961
901.6110, 1151.148
902.7380, 1186.832
903.8660, 1020.504
904.9930, 1358.184
906.1200, 1325.820
907.2460, 1285.441
908.3730, 1471.078
909.5000, 1534.770
910.6260, 1606.410
911.7520, 1711.492
912.8780, 1816.684
914.0040, 1819.262
915.1290, 1854.828
916.2550, 1825.367
917.3800, 1863.934
918.5050, 2048.508
919.6300, 1771.039
920.7550, 2016.520
921.8800, 2019.949
923.0040, 1967.352
924.1290, 2181.707
925.2530, 2107.008
926.3770, 2324.262
927.5010, 2137.469
928.6250, 2414.633
929.7480, 2150.746
930.8720, 2428.812
931.9950, 2526.824
933.1180, 2346.781
934.2410, 2409.695
935.3640, 2470.555
936.4860, 2657.359
937.6090, 2784.117
938.7310, 2821.816
939.8530, 2821.469
940.9750, 2977.070
942.0970, 2861.617
943.2180, 2996.121
944.3400, 3024.570
945.4610, 3185.973
946.5820, 3310.328
947.7030, 3136.625
948.8240, 3384.875
949.9450, 3240.074
951.0650, 3237.227
952.1860, 3440.328
953.3060, 3672.383
954.4260, 3606.383
955.5460, 3827.340
956.6650, 4052.246
957.7850, 4089.160
958.9040, 4131.906
960.0230, 4302.664
961.1420, 4354.379
962.2610, 4439.047
963.3800, 4671.656
964.4990, 4428.227
965.6170, 4808.746
966.7350, 4759.211
967.8530, 4876.641
968.9710, 4934.020
970.0890, 5360.348
971.2070, 5285.625
972.3240, 5504.867
973.4410, 5580.055
974.5580, 5716.199
975.6750, 5775.973
976.7920, 5812.137
977.9090, 5819.352
979.0250, 5793.309
980.1410, 5764.219
981.2580, 5644.090
982.3740, 5829.910
983.4890, 5743.691
984.6050, 5838.422
985.7200, 5615.109
986.8360, 5594.758
987.9510, 5501.352
989.0660, 5378.438
990.1810, 5413.418
991.2950, 5149.504
992.4100, 4853.281
993.5240, 5093.570
994.6390, 5240.094
995.7530, 5292.613
996.8660, 4980.121
997.9800, 5131.508
999.0940, 5100.090
1000.207, 5061.426
1001.320, 5272.578
1002.433, 4993.461
1003.546, 5191.402
1004.659, 5184.125
1005.772, 5269.285
1006.884, 5169.148
1007.996, 5130.137
1009.108, 5273.457
1010.220, 5317.543
1011.332, 5200.188
1012.444, 5287.695
1013.555, 4991.824
1014.666, 5549.125
1015.777, 5746.828
1016.888, 6036.805
1017.999, 6353.887
1019.110, 6726.441
1020.220, 7095.828
1021.331, 7382.840
1022.441, 7654.516
1023.551, 7927.453
1024.661, 8119.188
1025.770, 8360.629
1026.880, 8615.691
1027.989, 8731.270
1029.098, 9111.246
1030.207, 9319.633
1031.316, 9541.762
1032.425, 9864.730
1033.533, 10018.62
1034.642, 10337.46
1035.750, 10636.29
1036.858, 11077.73
1037.966, 11415.66
1039.073, 11837.96
1040.181, 12278.51
1041.288, 12449.99
1042.396, 12848.24
1043.503, 13197.34
1044.610, 13730.45
1045.716, 13929.03
1046.823, 14352.47
1047.929, 14691.86
1049.036, 14776.89
1050.142, 15104.60
1051.248, 15206.61
1052.353, 15543.02
1053.459, 15605.27
1054.564, 15518.48
1055.670, 15921.04
1056.775, 15938.22
1057.880, 16047.49
1058.985, 16695.17
1060.089, 16874.30
1061.194, 17202.81
1062.298, 17764.90
1063.402, 18011.96
1064.506, 18617.02
1065.610, 18640.05
1066.713, 19360.06
1067.817, 19772.06
1068.920, 20172.04
1070.023, 20124.01
1071.126, 19966.95
1072.229, 19746.88
1073.332, 19400.79
1074.435, 19380.69
1075.537, 18906.57
1076.639, 18417.44
1077.741, 17317.28
1078.843, 17207.11
1079.945, 16134.93
1081.046, 15786.74
1082.148, 15245.52
1083.249, 14501.29
1084.350, 14240.05
1085.451, 12829.80
1086.551, 12324.53
1087.652, 11758.24
1088.752, 11023.95
1089.853, 10447.63
1090.953, 9877.312
1092.053, 9137.973
1093.152, 8483.617
1094.252, 7958.250
1095.351, 7795.875
1096.451, 7341.484
1097.550, 6977.086
1098.649, 6519.672
1099.748, 6112.246
1100.846, 5800.039
1101.945, 5512.793
1103.043, 5259.902
1104.141, 5040.438
1105.239, 4932.957
1106.337, 4637.465
1107.434, 4558.961
1108.532, 4239.453
1109.629, 4340.930
1110.726, 4064.398
1111.823, 4056.855
1112.920, 4161.309
1114.017, 3799.750
1115.113, 3791.176
1116.210, 3806.602
1117.306, 3643.016
1118.402, 3472.418
1119.498, 3321.812
1120.593, 3275.406
1121.689, 3158.590
1122.784, 3025.965
1123.879, 3018.332
1124.974, 2470.699
1126.069, 2423.086
1127.164, 2110.473
1128.259, 1962.879
1129.353, 1653.305
1130.447, 1609.781
1131.541, 1550.281
1132.635, 1143.801
1133.729, 1095.402
1134.822, 955.1133
1135.916, 766.9336
1137.009, 727.9336
1138.102, 611.8867
1139.195, 493.3711
1140.288, 480.7891
1141.380, 390.3516
1142.473, 332.0547
1143.565, 217.8711
1144.657, 290.8555
1145.749, 107.9844
1146.841, 29.73438
1147.932, 81.33203
1149.024, 26.86328
1150.115, 195.3125
1151.206, 16.80469
1152.297, 153.2891
1153.388, 39.78516
1154.479, 57.73047
1155.569, 196.2617
1156.659, 142.5273
1157.750, 134.6367
1158.839, 31.16016
1159.929, 91.70703
1161.019, 280.3164
1162.108, 129.0508
1163.198, 78.85938
1164.287, 204.7148
1165.376, 27.69141
1166.465, 282.7031
1167.553, 132.8789
1168.642, 188.1094
1169.730, 16.44531
1170.818, 133.8047
1171.906, 228.2539
1172.994, 383.8398
1174.082, 73.37109
1175.170, 184.4258
1176.257, 134.3359
1177.344, 69.66406
1178.431, 131.3359
1179.518, 46.42969
1180.605, 216.5625
1181.691, 189.9023
1182.778, 48.75391
1183.864, 190.8750
1184.950, 241.6758
1186.036, 72.35547
1187.122, 84.66016
1188.207, 52.85938
1189.292, 13.30469
1190.378, 236.6094
1191.463, 24.45312
1192.548, 194.6289
1193.632, 222.0156
1194.717, 337.1367
1195.801, 262.2734
1196.886, 246.1172
1197.970, 419.9531
1199.054, 488.5742
1200.137, 391.8164
1201.221, 512.4922
1202.305, 244.7305
1203.388, 317.8047
1204.471, 537.9414
1205.554, 450.7500
1206.637, 574.8750
1207.719, 618.4961
1208.802, 296.3594
1209.884, 610.3281
1210.966, 649.1914
1212.048, 405.5781
1213.130, 697.7578
1214.212, 493.0938
1215.293, 465.7461
1216.374, 571.8594
1217.456, 538.8828
1218.536, 725.1953
1219.617, 700.2188
1220.698, 656.3672
1221.778, 694.8867
1222.859, 499.9570
1223.939, 738.1484
1225.019, 680.4805
1226.099, 783.3984
1227.178, 1073.926
1228.258, 1106.449
1229.337, 912.9805
1230.417, 1281.508
1231.496, 1181.039
1232.574, 1444.574
1233.653, 1103.137
1234.732, 1319.680
1235.810, 1352.227
1236.888, 1421.781
1237.966, 1630.336
1239.044, 1463.895
1240.122, 1620.488
1241.199, 1665.090
1242.277, 1938.695
1243.354, 1598.336
1244.431, 1752.980
1245.508, 1511.629
1246.585, 1477.312
1247.661, 1719.004
1248.738, 1685.695
1249.814, 1753.391
1250.890, 1885.094
1251.966, 1745.801
1253.042, 1357.512
1254.117, 1595.223
1255.193, 1732.941
1256.268, 1417.668
1257.343, 1584.395
1258.418, 1569.129
1259.493, 1522.867
1260.567, 1315.609
1261.642, 1510.355
1262.716, 1586.109
1263.790, 1530.863
1264.864, 1876.629
1265.938, 1682.391
1267.011, 1690.156
1268.085, 1752.926
1269.158, 1690.699
1270.231, 1678.469
1271.304, 1688.242
1272.377, 1602.020
1273.450, 1828.789
1274.522, 1581.562
1275.594, 1823.328
1276.666, 1537.270
1277.738, 1520.160
1278.810, 1636.160
1279.882, 1450.789
1280.953, 1411.188
1282.025, 1418.285
1283.096, 1472.559
1284.167, 1394.164
1285.238, 1464.922
1286.308, 1441.668
1287.379, 1465.723
1288.449, 1214.180
1289.519, 1509.828
1290.589, 1339.270
1291.659, 1127.727
1292.729, 1390.227
1293.798, 1307.613
1294.868, 1491.035
1295.937, 1041.461
1297.006, 1374.508
1298.075, 1085.887
1299.143, 1155.809
1300.212, 1126.965
1301.280, 918.6875
1302.348, 1127.676
1303.416, 1237.410
1304.484, 1042.551
1305.552, 1041.586
1306.620, 835.3086
1307.687, 864.0820
1308.754, 945.1836
1309.821, 883.6445
1310.888, 1191.781
1311.955, 870.5195
1313.021, 1086.430
1314.088, 1175.352
1315.154, 903.9258
1316.220, 1078.875
1317.286, 1173.727
1318.352, 879.1680
1319.417, 1020.156
1320.483, 973.7461
1321.548, 1081.766
1322.613, 725.7930
1323.678, 841.8281
1324.743, 751.8828
1325.807, 740.9453
1326.872, 766.0234
1327.936, 400.1133
1329.000, 700.2188
1330.064, 668.3398
1331.128, 319.4805
1332.191, 384.6289
1333.255, 368.7969
1334.318, 514.9766
1335.381, 287.1680
1336.444, 275.3828
