##NAMES=Dravite
##RRUFFID=R050077
##IDEAL CHEMISTRY=NaMg_3_Al_6_(Si_6_O_18_)(BO_3_)_3_(OH)_3_OH
##LOCALITY=Yinnietharra Station, Western Australia, Australia
##OWNER=RRUFF
##SOURCE=Rock Currier
##DESCRIPTION=Dark brown euhedral prismatic single crystal
##STATUS=The identification of this mineral has been confirmed by X-ray diffraction and chemical analysis
##URL=rruff.info/R050077
##MEASURED CHEMISTRY=(Na_0.783_Ca_0.217_)(Mg_0.771_Fe^2+^_0.221_Ti^4+^_0.008_)_3_(Al_0.956_Mg_0.044_)_6_(BO_3_)_3_[Si_6_O_18_]((OH)_0.914_F_0.086_)_4_
##PIN_ID=L00540
##ORIENTATION=Laser parallel to -a* (-1 0 0). Fiducial mark perpendicular to laser is parallel to c [0 0 1]
118.1340, 0.0000000E+00
119.3650, 75.76758
120.5960, 5.294922
121.8270, 419.1016
123.0580, 225.7637
124.2880, 118.3906
125.5190, 236.5566
126.7490, 47.13672
127.9790, 24.93555
129.2090, 614.3105
130.4390, 766.4902
131.6680, 900.4492
132.8980, 749.6855
134.1270, 761.6172
135.3560, 1056.705
136.5850, 1477.482
137.8140, 2159.564
139.0430, 2828.742
140.2710, 2816.008
141.5000, 2228.516
142.7280, 1812.680
143.9560, 1786.713
145.1840, 1802.020
146.4120, 1655.428
147.6390, 2129.770
148.8670, 1878.619
150.0940, 1894.506
151.3210, 1837.828
152.5490, 1701.229
153.7750, 1481.043
155.0020, 1316.887
156.2290, 1126.324
157.4550, 505.3574
158.6810, 378.2324
159.9080, 161.0625
161.1340, 331.4336
162.3590, 581.6934
163.5850, 993.6621
164.8110, 1389.398
166.0360, 1012.648
167.2610, 619.5840
168.4860, 1020.389
169.7110, 1195.223
170.9360, 1496.229
172.1610, 1357.535
173.3850, 1023.266
174.6100, 1216.521
175.8340, 1280.404
177.0580, 1316.996
178.2820, 1580.375
179.5050, 1841.609
180.7290, 2114.756
181.9520, 2171.877
183.1760, 2507.023
184.3990, 2979.252
185.6220, 3527.604
186.8450, 4089.123
188.0670, 4580.236
189.2900, 5097.838
190.5120, 5625.104
191.7340, 6307.791
192.9560, 6880.148
194.1780, 8076.199
195.4000, 8970.963
196.6220, 10224.43
197.8430, 11645.14
199.0640, 12962.45
200.2860, 15573.02
201.5070, 17891.89
202.7270, 20135.11
203.9480, 21176.69
205.1690, 22015.35
206.3890, 22776.24
207.6090, 23779.69
208.8290, 24282.50
210.0490, 24562.88
211.2690, 24220.86
212.4890, 23720.36
213.7080, 22956.99
214.9280, 21965.76
216.1470, 21057.64
217.3660, 19857.63
218.5850, 19101.71
219.8030, 18207.87
221.0220, 17731.10
222.2400, 16988.41
223.4590, 16999.78
224.6770, 17045.19
225.8950, 17558.66
227.1120, 17949.17
228.3300, 18775.73
229.5480, 19937.32
230.7650, 21229.94
231.9820, 22890.60
233.1990, 24250.27
234.4160, 24892.94
235.6330, 25965.56
236.8490, 26169.13
238.0660, 26239.60
239.2820, 25618.00
240.4980, 24857.32
241.7140, 23486.58
242.9300, 21673.76
244.1460, 19985.88
245.3610, 18167.95
246.5770, 16262.95
247.7920, 14680.89
249.0070, 12892.79
250.2220, 11340.63
251.4370, 10185.42
252.6510, 8789.934
253.8660, 8463.379
255.0800, 8041.801
256.2940, 7529.895
257.5080, 6657.250
258.7220, 6250.352
259.9360, 5656.742
261.1490, 5055.912
262.3630, 4714.455
263.5760, 4006.199
264.7890, 3592.953
266.0020, 3336.338
267.2150, 3022.867
268.4270, 2747.912
269.6400, 2524.783
270.8520, 2273.826
272.0640, 1916.004
273.2760, 1694.855
274.4880, 1351.312
275.7000, 1170.754
276.9120, 929.2461
278.1230, 679.7656
279.3340, 411.2930
280.5450, 373.8047
281.7560, 298.3008
282.9670, 1.439453
284.1780, 102.9355
285.3880, 467.6797
286.5980, 478.6992
287.8090, 531.9922
289.0190, 653.5488
290.2290, 683.4473
291.4380, 699.6816
292.6480, 525.2715
293.8570, 484.1465
295.0670, 433.2988
296.2760, 364.7090
297.4850, 220.3770
298.6930, 76.24023
299.9020, 125.7188
301.1110, 322.5625
302.3190, 716.3184
303.5270, 1111.025
304.7350, 1517.682
305.9430, 1698.256
307.1510, 2033.738
308.3580, 2309.070
309.5660, 2558.209
310.7730, 2328.180
311.9800, 1987.982
313.1870, 2065.611
314.3940, 2050.078
315.6010, 1921.391
316.8070, 1908.752
318.0130, 1967.576
319.2200, 1793.467
320.4260, 2009.230
321.6310, 2094.875
322.8370, 2035.404
324.0430, 2407.824
325.2480, 2577.141
326.4540, 2948.355
327.6590, 3114.477
328.8640, 3469.510
330.0680, 4595.457
331.2730, 5524.320
332.4780, 6038.107
333.6820, 6148.816
334.8860, 5826.455
336.0900, 6073.027
337.2940, 6549.533
338.4980, 6941.975
339.7010, 7318.355
340.9050, 7693.805
342.1080, 7745.934
343.3110, 8430.137
344.5140, 8574.219
345.7170, 9049.125
346.9200, 9586.600
348.1220, 10218.28
349.3240, 11360.08
350.5270, 12735.93
351.7290, 14077.02
352.9310, 15932.47
354.1320, 18090.51
355.3340, 20697.40
356.5350, 23533.30
357.7370, 27164.22
358.9380, 30507.17
360.1390, 33540.12
361.3400, 36875.11
362.5400, 39360.11
363.7410, 40512.11
364.9410, 40942.14
366.1410, 40805.20
367.3410, 40000.27
368.5410, 38204.35
369.7410, 35817.46
370.9400, 33622.58
372.1400, 30948.73
373.3390, 28573.89
374.5380, 25981.07
375.7370, 23705.27
376.9360, 21376.50
378.1350, 19473.73
379.3330, 17446.99
380.5310, 15583.27
381.7300, 14215.57
382.9280, 13373.90
384.1260, 12269.25
385.3230, 11562.62
386.5210, 10752.01
387.7180, 10450.43
388.9160, 10049.88
390.1130, 9589.930
391.3100, 9068.850
392.5060, 8991.375
393.7030, 8712.932
394.9000, 8623.512
396.0960, 8533.125
397.2920, 8241.766
398.4880, 8450.441
399.6840, 8012.814
400.8800, 7654.881
402.0750, 7261.648
403.2710, 7255.449
404.4660, 6747.283
405.6610, 6503.148
406.8560, 5941.051
408.0510, 5566.988
409.2450, 5162.906
410.4400, 4719.824
411.6340, 4416.742
412.8280, 3962.652
414.0220, 3551.557
415.2160, 3278.453
416.4100, 2947.346
417.6030, 2794.242
418.7970, 2798.133
419.9900, 2279.020
421.1830, 2681.631
422.3760, 2118.879
423.5690, 1835.855
424.7610, 1639.422
425.9540, 1265.680
427.1460, 1216.148
428.3380, 1222.611
429.5300, 806.2812
430.7220, 1072.012
431.9140, 693.7090
433.1050, 426.0352
434.2970, 540.9746
435.4880, 361.2754
436.6790, 333.5977
437.8700, 229.8555
439.0610, 368.2969
440.2510, 340.6973
441.4420, 329.1953
442.6320, 140.7969
443.8220, 498.9941
445.0120, 391.8809
446.2020, 689.1230
447.3910, 740.9141
448.5810, 797.6250
449.7700, 1060.855
450.9600, 1615.871
452.1490, 2032.240
453.3370, 2904.707
454.5260, 3645.453
455.7150, 4801.949
456.9030, 5985.494
458.0910, 7523.082
459.2800, 9817.715
460.4670, 9160.406
461.6550, 8853.141
462.8430, 7866.928
464.0300, 6756.770
465.2180, 6066.664
466.4050, 5365.615
467.5920, 4679.619
468.7790, 4254.678
469.9650, 3889.795
471.1520, 3708.973
472.3380, 3450.203
473.5250, 3502.498
474.7110, 3555.852
475.8970, 3706.264
477.0820, 3640.742
478.2680, 3983.277
479.4540, 4140.879
480.6390, 4235.793
481.8240, 4268.271
483.0090, 4492.064
484.1940, 4620.922
485.3780, 4735.848
486.5630, 4943.838
487.7470, 4883.896
488.9320, 4925.023
490.1160, 5106.219
491.3000, 4992.492
492.4830, 5063.844
493.6670, 5015.273
494.8500, 4788.795
496.0340, 4737.406
497.2170, 4559.105
498.4000, 4451.900
499.5820, 4355.787
500.7650, 4086.988
501.9480, 3762.838
503.1300, 3595.006
504.3120, 3205.266
505.4940, 3014.621
506.6760, 2693.068
507.8580, 2548.611
509.0390, 2355.248
510.2210, 2218.979
511.4020, 1793.807
512.5830, 1777.727
513.7640, 1716.742
514.9450, 1338.855
516.1250, 1357.062
517.3060, 1020.367
518.4860, 1154.766
519.6660, 1018.260
520.8460, 1114.852
522.0260, 1377.539
523.2060, 1197.322
524.3850, 1276.201
525.5650, 1428.178
526.7440, 1412.252
527.9230, 1436.420
529.1020, 1738.688
530.2810, 1756.053
531.4590, 1670.514
532.6380, 1865.070
533.8160, 1732.727
534.9940, 1829.480
536.1720, 1692.330
537.3500, 1775.277
538.5270, 1685.324
539.7050, 1615.465
540.8820, 1575.557
542.0590, 1446.045
543.2360, 1404.480
544.4130, 1223.014
545.5900, 1121.645
546.7660, 1219.373
547.9430, 1009.199
549.1190, 866.1230
550.2950, 914.1445
551.4710, 850.2656
552.6470, 673.2344
553.8220, 660.8066
554.9980, 461.2324
556.1730, 265.7637
557.3480, 489.4004
558.5230, 274.1484
559.6980, 254.0098
560.8730, 272.0039
562.0470, 216.1367
563.2220, 145.4180
564.3960, 73.14258
565.5700, 149.5293
566.7440, 84.23828
567.9170, 161.7402
569.0910, 275.4727
570.2640, 2.931641
571.4380, 73.03711
572.6110, 230.5430
573.7840, 20.70898
574.9570, 111.3633
576.1290, 55.59570
577.3020, 233.3359
578.4740, 214.7051
579.6460, 264.7148
580.8180, 147.3711
581.9900, 277.6641
583.1620, 173.7012
584.3330, 231.6719
585.5040, 203.5254
586.6760, 249.4746
587.8470, 208.7891
589.0180, 56.95508
590.1880, 217.9512
591.3590, 157.8398
592.5290, 30.36133
593.7000, 167.3105
594.8700, 115.8848
596.0400, 202.6328
597.2090, 344.2773
598.3790, 190.0586
599.5490, 171.9824
600.7180, 26.04102
601.8870, 310.2676
603.0560, 351.6016
604.2250, 303.0547
605.3940, 299.6191
606.5620, 481.2754
607.7300, 474.0312
608.8990, 607.8984
610.0670, 797.2441
611.2350, 1055.932
612.4020, 1184.102
613.5700, 1447.598
614.7370, 1603.047
615.9050, 1892.180
617.0720, 2195.725
618.2390, 2561.357
619.4060, 3025.082
620.5720, 3526.893
621.7390, 4050.787
622.9050, 4812.770
624.0710, 5378.834
625.2370, 5808.979
626.4030, 6331.203
627.5690, 6580.510
628.7340, 6704.898
629.9000, 6672.361
631.0650, 6690.905
632.2300, 6638.525
633.3950, 6453.225
634.5600, 6530.000
635.7240, 6407.852
636.8890, 6710.777
638.0530, 6721.777
639.2170, 7098.853
640.3810, 7412.997
641.5450, 7848.215
642.7080, 8218.507
643.8720, 8557.373
645.0350, 8815.055
646.1980, 9063.951
647.3610, 9289.017
648.5240, 9422.991
649.6870, 9633.690
650.8490, 9739.456
652.0120, 9826.287
653.1740, 9965.181
654.3360, 10155.14
655.4980, 9957.158
656.6600, 9941.241
657.8210, 10284.84
658.9830, 10789.59
660.1440, 10972.85
661.3050, 11441.17
662.4660, 11768.55
663.6270, 12305.98
664.7870, 12894.47
665.9480, 13100.02
667.1080, 13528.61
668.2680, 13992.27
669.4280, 13614.97
670.5880, 13744.73
671.7480, 13533.54
672.9070, 13120.39
674.0670, 13218.30
675.2260, 12328.25
676.3850, 12164.25
677.5440, 11625.30
678.7030, 11463.40
679.8610, 11122.54
681.0200, 10791.72
682.1780, 10619.95
683.3360, 10570.27
684.4940, 10755.52
685.6520, 10806.87
686.8090, 11264.26
687.9670, 11717.69
689.1240, 14046.16
690.2810, 12875.66
691.4380, 13943.61
692.5950, 16278.15
693.7520, 15706.13
694.9080, 16153.10
696.0650, 16945.64
697.2210, 17299.84
698.3770, 17402.68
699.5330, 17194.64
700.6880, 16987.46
701.8440, 15846.79
702.9990, 15056.16
704.1550, 14037.11
705.3100, 13144.35
706.4650, 11977.79
707.6190, 11117.56
708.7740, 9952.396
709.9290, 9197.339
711.0830, 8751.788
712.2370, 7957.141
713.3910, 7606.588
714.5450, 7237.590
715.6980, 6976.775
716.8520, 6554.529
718.0050, 6636.918
719.1580, 6296.163
720.3110, 6430.526
721.4640, 6408.695
722.6170, 6260.002
723.7700, 6024.746
724.9220, 6081.491
726.0740, 6184.268
727.2260, 6344.141
728.3780, 6396.291
729.5300, 6462.342
730.6810, 6541.916
731.8330, 6565.157
732.9840, 6656.566
734.1350, 6819.430
735.2860, 6882.124
736.4370, 7078.811
737.5880, 7079.247
738.7380, 7468.012
739.8880, 7758.705
741.0390, 7979.320
742.1890, 8028.311
743.3380, 8301.997
744.4880, 8478.772
745.6380, 8620.370
746.7870, 8965.462
747.9360, 9068.070
749.0850, 9291.062
750.2340, 9513.869
751.3830, 9215.638
752.5310, 9405.905
753.6800, 9750.021
754.8280, 9450.952
755.9760, 9480.563
757.1240, 9252.006
758.2720, 8893.205
759.4190, 9007.003
760.5670, 9002.646
761.7140, 8628.841
762.8610, 8383.962
764.0080, 8209.020
765.1550, 8031.504
766.3020, 7961.800
767.4480, 7888.762
768.5950, 7858.532
769.7410, 7916.230
770.8870, 7796.855
772.0330, 7710.406
773.1780, 7649.881
774.3240, 7516.280
775.4690, 7549.604
776.6140, 7472.848
777.7590, 7394.015
778.9040, 7411.102
780.0490, 7202.111
781.1940, 7236.039
782.3380, 7164.887
783.4820, 6984.648
784.6260, 6941.332
785.7700, 7145.933
786.9140, 6819.448
788.0580, 6030.881
789.2010, 6143.227
790.3450, 5529.488
791.4880, 5137.664
792.6310, 4915.752
793.7730, 4576.752
794.9160, 4334.666
796.0590, 4081.490
797.2010, 3908.225
798.3430, 3763.869
799.4850, 3732.423
800.6270, 3446.887
801.7690, 3529.257
802.9100, 3439.537
804.0520, 3460.725
805.1930, 3679.818
806.3340, 3508.818
807.4750, 3457.725
808.6160, 3401.538
809.7560, 3139.256
810.8970, 3307.877
812.0370, 3208.404
813.1770, 2965.836
814.3170, 2743.170
815.4570, 2402.408
816.5960, 2251.549
817.7360, 2173.592
818.8750, 1957.535
820.0140, 1553.381
821.1530, 1395.127
822.2920, 1362.771
823.4310, 1169.317
824.5690, 1155.762
825.7070, 963.1035
826.8460, 896.3418
827.9840, 668.4785
829.1220, 543.5078
830.2590, 449.4238
831.3970, 469.2227
832.5340, 347.5449
833.6710, 274.4648
834.8080, 225.8945
835.9450, 58.18945
837.0820, 40.30957
838.2190, 1.755859
839.3550, 1.028320
840.4910, 70.77930
841.6270, 81.22559
842.7630, 237.1709
843.8990, 189.4521
845.0350, 339.0176
846.1700, 245.9326
847.3060, 297.3262
848.4410, 379.8086
849.5760, 400.8096
850.7100, 114.2314
851.8450, 297.9102
852.9800, 227.9531
854.1140, 195.2939
855.2480, 287.9199
856.3820, 251.8721
857.5160, 169.1514
858.6500, 187.6914
859.7830, 182.5195
860.9170, 150.6240
862.0500, 115.9912
863.1830, 237.5967
864.3160, 153.5088
865.4480, 109.7080
866.5810, 32.85449
867.7130, 98.24316
868.8460, 20.54199
869.9780, 97.47559
871.1100, 76.33496
872.2410, 20.01660
873.3730, 6.497070
874.5050, 15.77051
875.6360, 96.16016
876.7670, 275.6484
877.8980, 86.31445
879.0290, 260.8076
880.1590, 747.1553
881.2900, 359.3857
882.4200, 215.4814
883.5500, 343.4287
884.6800, 291.2402
885.8100, 304.9111
886.9400, 427.4453
888.0690, 531.8496
889.1990, 552.1309
890.3280, 581.2871
891.4570, 641.3213
892.5860, 665.8574
893.7140, 708.3232
894.8430, 786.7119
895.9710, 806.2773
897.1000, 959.7305
898.2280, 1068.072
899.3560, 924.3076
900.4830, 936.0332
901.6110, 1204.712
902.7380, 1377.822
903.8660, 1460.594
904.9930, 1182.490
906.1200, 1370.069
907.2460, 1370.832
908.3730, 1363.876
909.5000, 1616.694
910.6260, 1390.479
911.7520, 1638.952
912.8780, 1697.791
914.0040, 1843.276
915.1290, 1800.787
916.2550, 1816.280
917.3800, 1878.737
918.5050, 1950.247
919.6300, 2024.681
920.7550, 2002.014
921.8800, 2028.283
923.0040, 2102.466
924.1290, 2163.561
925.2530, 2217.528
926.3770, 2286.471
927.5010, 2336.305
928.6250, 2373.044
929.7480, 2416.703
930.8720, 2479.263
931.9950, 2540.742
933.1180, 2676.141
934.2410, 2766.459
935.3640, 2980.746
936.4860, 3049.938
937.6090, 3053.063
938.7310, 3226.152
939.8530, 3280.189
940.9750, 3526.156
942.0970, 3563.045
943.2180, 3701.857
944.3400, 3883.652
945.4610, 3815.418
946.5820, 4175.156
947.7030, 4361.846
948.8240, 4535.480
949.9450, 4585.048
951.0650, 4816.535
952.1860, 4840.933
953.3060, 5097.240
954.4260, 5289.454
955.5460, 5361.580
956.6650, 5407.613
957.7850, 5698.561
958.9040, 5799.418
960.0230, 5893.185
961.1420, 6153.865
962.2610, 6275.457
963.3800, 6267.551
964.4990, 6708.008
965.6170, 6566.957
966.7350, 6599.879
967.8530, 6653.179
968.9710, 6462.758
970.0890, 6581.645
971.2070, 6818.358
972.3240, 6819.160
973.4410, 6764.396
974.5580, 6912.541
975.6750, 6978.389
976.7920, 6991.398
977.9090, 6945.236
979.0250, 6705.225
980.1410, 6709.773
981.2580, 6618.191
982.3740, 6519.139
983.4890, 6556.592
984.6050, 6349.902
985.7200, 6257.789
986.8360, 6222.078
987.9510, 6277.692
989.0660, 6250.301
990.1810, 6143.443
991.2950, 6147.004
992.4100, 5975.118
993.5240, 5871.037
994.6390, 5963.250
995.7530, 5912.754
996.8660, 5966.792
997.9800, 6057.494
999.0940, 6058.467
1000.207, 6227.186
1001.320, 6331.666
1002.433, 6130.293
1003.546, 6543.617
1004.659, 6868.181
1005.772, 6972.135
1006.884, 6891.023
1007.996, 7428.088
1009.108, 7625.750
1010.220, 7976.410
1011.332, 8276.070
1012.444, 8452.281
1013.555, 8861.721
1014.666, 9260.995
1015.777, 9338.370
1016.888, 9946.175
1017.999, 10178.38
1019.110, 10649.14
1020.220, 10986.99
1021.331, 11047.81
1022.441, 11192.05
1023.551, 11587.37
1024.661, 11983.78
1025.770, 11853.45
1026.880, 12344.19
1027.989, 12500.11
1029.098, 12225.34
1030.207, 12566.65
1031.316, 12510.32
1032.425, 12551.99
1033.533, 12766.64
1034.642, 12650.28
1035.750, 12521.91
1036.858, 12409.53
1037.966, 12410.62
1039.073, 12491.73
1040.181, 12479.32
1041.288, 12512.90
1042.396, 12612.47
1043.503, 12600.03
1044.610, 12475.72
1045.716, 12540.43
1046.823, 12344.97
1047.929, 12905.50
1049.036, 12303.24
1050.142, 12325.08
1051.248, 11723.99
1052.353, 11829.84
1053.459, 11738.62
1054.564, 11405.68
1055.670, 11165.72
1056.775, 10949.81
1057.880, 10680.80
1058.985, 10453.27
1060.089, 10274.51
1061.194, 10018.57
1062.298, 9769.975
1063.402, 9648.448
1064.506, 9481.357
1065.610, 9277.547
1066.713, 9147.846
1067.817, 8858.898
1068.920, 8415.562
1070.023, 8359.630
1071.126, 7994.406
1072.229, 7728.727
1073.332, 7531.730
1074.435, 7276.387
1075.537, 6772.450
1076.639, 6653.606
1077.741, 6375.629
1078.843, 6404.283
1079.945, 5937.739
1081.046, 5576.556
1082.148, 5360.734
1083.249, 5306.013
1084.350, 5017.451
1085.451, 4884.888
1086.551, 4497.324
1087.652, 4320.758
1088.752, 4445.193
1089.853, 4083.627
1090.953, 3947.062
1092.053, 3831.498
1093.152, 3609.936
1094.252, 3471.375
1095.351, 3649.816
1096.451, 3521.263
1097.550, 3580.715
1098.649, 3261.180
1099.748, 3079.652
1100.846, 3140.139
1101.945, 3184.642
1103.043, 2916.165
1104.141, 2674.728
1105.239, 2959.334
1106.337, 2707.998
1107.434, 2433.718
1108.532, 2737.513
1109.629, 2426.387
1110.726, 2454.383
1111.823, 2430.486
1112.920, 2357.738
1114.017, 2293.415
1115.113, 2196.630
1116.210, 2083.305
1117.306, 2087.146
1118.402, 1990.079
1119.498, 1927.152
1120.593, 1707.346
1121.689, 1923.656
1122.784, 1650.102
1123.879, 1452.678
1124.974, 1597.359
1126.069, 1329.424
1127.164, 1252.061
1128.259, 1058.069
1129.353, 1100.172
1130.447, 932.3994
1131.541, 905.7314
1132.635, 868.1543
1133.729, 752.6328
1134.822, 747.7441
1135.916, 731.5654
1137.009, 671.3789
1138.102, 711.0596
1139.195, 657.7969
1140.288, 549.5957
1141.380, 544.4531
1142.473, 545.3984
1143.565, 373.3721
1144.657, 398.3916
1145.749, 398.4395
1146.841, 284.5049
1147.932, 478.5967
1149.024, 315.7207
1150.115, 485.8701
1151.206, 344.0488
1152.297, 357.2549
1153.388, 373.4824
1154.479, 380.7324
1155.569, 342.0029
1156.659, 225.2930
1157.750, 347.6025
1158.839, 340.9297
1159.929, 390.2754
1161.019, 243.6387
1162.108, 259.0176
1163.198, 144.4102
1164.287, 162.6279
1165.376, 207.2402
1166.465, 211.6768
1167.553, 103.1270
1168.642, 116.5918
1169.730, 75.07031
1170.818, 269.5635
1171.906, 127.0713
1172.994, 136.5938
1174.082, 138.4189
1175.170, 117.8398
1176.257, 3.989258
1177.344, 57.83105
1178.431, 70.41602
1179.518, 113.7344
1180.605, 43.86035
1181.691, 75.80273
1182.778, 111.9404
1183.864, 6.363281
1184.950, 161.9688
1186.036, 58.66113
1187.122, 58.73926
1188.207, 11.53027
1189.292, 66.74609
1190.378, 90.35059
1191.463, 11.50684
1192.548, 76.85840
1193.632, 34.48438
1194.717, 66.15918
1195.801, 69.82324
1196.886, 70.51270
1197.970, 243.2256
1199.054, 4.990234
1200.137, 113.7871
1201.221, 219.5967
1202.305, 163.5107
1203.388, 93.50098
1204.471, 52.51758
1205.554, 58.54297
1206.637, 284.5898
1207.719, 233.7773
1208.802, 243.0811
1209.884, 159.5049
1210.966, 132.7285
1212.048, 73.13477
1213.130, 40.07910
1214.212, 48.37891
1215.293, 100.8506
1216.374, 135.3379
1217.456, 226.8369
1218.536, 216.3496
1219.617, 197.8779
1220.698, 215.0381
1221.778, 147.9922
1222.859, 173.5801
1223.939, 163.1816
1225.019, 123.7959
1226.099, 214.5449
1227.178, 361.0674
1228.258, 358.7236
1229.337, 416.3926
1230.417, 449.0762
1231.496, 516.7744
1232.574, 600.4844
1233.653, 609.1484
1234.732, 724.9463
1235.810, 657.6953
1236.888, 617.4590
1237.966, 660.2344
1239.044, 639.0225
1240.122, 739.8223
1241.199, 797.6328
1242.277, 818.4551
1243.354, 778.2871
1244.431, 729.1289
1245.508, 766.9805
1246.585, 756.8398
1247.661, 739.7080
1248.738, 819.5820
1249.814, 773.4639
1250.890, 790.3525
1251.966, 760.2441
1253.042, 808.1426
1254.117, 706.0459
1255.193, 852.9521
1256.268, 760.8623
1257.343, 619.7754
1258.418, 917.6904
1259.493, 720.6084
1260.567, 716.5273
1261.642, 912.4473
1262.716, 617.3682
1263.790, 757.2881
1264.864, 932.2090
1265.938, 763.1279
1267.011, 814.0449
1268.085, 788.9639
1269.158, 664.8789
1270.231, 735.7910
1271.304, 596.7012
1272.377, 666.4785
1273.450, 783.2422
1274.522, 847.9512
1275.594, 863.4072
1276.666, 682.1201
1277.738, 754.8779
1278.810, 725.8232
1279.882, 692.5840
1280.953, 801.0986
1282.025, 648.4004
1283.096, 754.6475
1284.167, 757.5312
1285.238, 807.7188
1286.308, 755.4512
1287.379, 734.8184
1288.449, 816.6602
