##NAMES=Dravite
##RRUFFID=R060286
##IDEAL CHEMISTRY=NaMg_3_Al_6_(Si_6_O_18_)(BO_3_)_3_(OH)_3_OH
##LOCALITY=Badakshan Province, Afghanistan
##OWNER=RRUFF
##SOURCE=Herb Obodda
##DESCRIPTION=Brown prismatic tourmaline crystal
##STATUS=The identification of this mineral has been confirmed by X-ray diffraction and chemical analysis
##URL=rruff.info/R060286
##MEASURED CHEMISTRY=(Na_0.48_Ca_0.38_[box]_0.14_)_Σ=1_(Mg_2.90_Ti_0.10_)_Σ=3_Al_6.00_(B_1.00_O_3_)_3_(Si_5.56_B_0.44_)_Σ=6_O_18_(OH)_4_; (OH) assumed from stoichiometry; B estimated by difference and charge balance
##PIN_ID=L01259
##ORIENTATION=Laser parallel to c* (0 0 1). Fiducial mark perpendicular to laser is parallel to a [1 0 0]
118.1340, 0.0000000E+00
119.3650, 5.500000
120.5960, 17.24609
121.8270, 340.5518
123.0580, 1098.017
124.2880, 1492.180
125.5190, 1460.049
126.7490, 1425.966
127.9790, 1844.452
129.2090, 2294.011
130.4390, 2595.874
131.6680, 2834.584
132.8980, 2880.815
134.1270, 2453.682
135.3560, 2815.312
136.5850, 2639.533
137.8140, 2793.906
139.0430, 3218.418
140.2710, 3464.636
141.5000, 3358.253
142.7280, 2935.398
143.9560, 2927.564
145.1840, 2812.795
146.4120, 2845.843
147.6390, 2911.702
148.8670, 2639.025
150.0940, 2544.776
151.3210, 2278.649
152.5490, 2038.305
153.7750, 1749.469
155.0020, 1489.029
156.2290, 1147.381
157.4550, 705.7773
158.6810, 433.3203
159.9080, 106.8525
161.1340, 147.9443
162.3590, 83.09766
163.5850, 18.36426
164.8110, 315.4199
166.0360, 94.28516
167.2610, 127.7832
168.4860, 135.6787
169.7110, 388.9248
170.9360, 277.5049
172.1610, 71.42676
173.3850, 59.29492
174.6100, 281.6504
175.8340, 221.6289
177.0580, 306.2207
178.2820, 55.41699
179.5050, 210.2109
180.7290, 4.596680
181.9520, 275.4326
183.1760, 453.8809
184.3990, 824.7539
185.6220, 1219.053
186.8450, 1696.783
188.0670, 1897.949
189.2900, 2305.551
190.5120, 2720.596
191.7340, 2904.047
192.9560, 3331.785
194.1780, 3639.830
195.4000, 3956.180
196.6220, 4262.832
197.8430, 4616.775
199.0640, 5207.996
200.2860, 5847.490
201.5070, 6792.242
202.7270, 8026.244
203.9480, 8573.469
205.1690, 9752.918
206.3890, 11178.58
207.6090, 12926.44
208.8290, 14513.50
210.0490, 16685.78
211.2690, 18122.28
212.4890, 19246.33
213.7080, 19839.21
214.9280, 20277.57
216.1470, 19438.20
217.3660, 18240.48
218.5850, 16674.10
219.8030, 15433.86
221.0220, 14080.58
222.2400, 12663.44
223.4590, 10952.57
224.6770, 9999.066
225.8950, 9265.934
227.1120, 8680.168
228.3300, 8458.766
229.5480, 8140.729
230.7650, 8321.055
231.9820, 8556.746
233.1990, 8762.793
234.4160, 9477.203
235.6330, 10122.97
236.8490, 10919.10
238.0660, 11611.58
239.2820, 12084.41
240.4980, 12338.59
241.7140, 12473.12
242.9300, 12210.99
244.1460, 11190.20
245.3610, 10532.76
246.5770, 9657.660
247.7920, 8082.904
249.0070, 6778.486
250.2220, 5510.410
251.4370, 4120.676
252.6510, 3362.281
253.8660, 2315.225
255.0800, 1848.504
256.2940, 1492.121
257.5080, 1652.072
258.7220, 1409.250
259.9360, 1146.098
261.1490, 1434.932
262.3630, 738.2168
263.5760, 749.8281
264.7890, 952.2871
266.0020, 1296.785
267.2150, 1451.445
268.4270, 1908.395
269.6400, 2212.559
270.8520, 2317.879
272.0640, 2785.320
273.2760, 2808.854
274.4880, 3107.477
275.7000, 2977.139
276.9120, 2897.812
278.1230, 2802.535
279.3340, 2516.264
280.5450, 1994.984
281.7560, 1663.742
282.9670, 1397.572
284.1780, 1160.500
285.3880, 1074.430
286.5980, 819.6875
287.8090, 686.9902
289.0190, 464.4609
290.2290, 433.1504
291.4380, 381.0566
292.6480, 501.6621
293.8570, 599.8398
295.0670, 764.9707
296.2760, 822.4121
297.4850, 906.2168
298.6930, 617.3730
299.9020, 652.9082
301.1110, 389.8457
302.3190, 33.18359
303.5270, 76.91992
304.7350, 232.9277
305.9430, 614.0098
307.1510, 502.8887
308.3580, 546.6484
309.5660, 524.4219
310.7730, 334.3906
311.9800, 151.2090
313.1870, 20.49023
314.3940, 285.5391
315.6010, 472.0410
316.8070, 912.8887
318.0130, 1174.963
319.2200, 1579.988
320.4260, 2190.215
321.6310, 2563.824
322.8370, 3116.352
324.0430, 4079.430
325.2480, 4658.934
326.4540, 5562.400
327.6590, 6121.869
328.8640, 6979.574
330.0680, 8134.516
331.2730, 8952.691
332.4780, 9686.098
333.6820, 10518.73
334.8860, 11506.60
336.0900, 12048.70
337.2940, 12434.02
338.4980, 13078.57
339.7010, 12861.34
340.9050, 12662.34
342.1080, 12843.56
343.3110, 12192.01
344.5140, 11975.69
345.7170, 11788.58
346.9200, 11683.70
348.1220, 11523.04
349.3240, 11735.61
350.5270, 11786.39
351.7290, 12544.40
352.9310, 13272.62
354.1320, 13871.07
355.3340, 15114.74
356.5350, 16344.64
357.7370, 17737.62
358.9380, 19047.67
360.1390, 20972.83
361.3400, 22877.19
362.5400, 25206.79
363.7410, 26823.61
364.9410, 29808.64
366.1410, 31815.91
367.3410, 34228.41
368.5410, 36254.13
369.7410, 37564.06
370.9400, 38404.23
372.1400, 38522.17
373.3390, 38081.21
374.5380, 36876.04
375.7370, 34880.08
376.9360, 32308.36
378.1350, 29555.83
379.3330, 26882.52
380.5310, 24113.43
381.7300, 21564.55
382.9280, 19223.89
384.1260, 17200.44
385.3230, 15594.20
386.5210, 13934.16
387.7180, 12797.34
388.9160, 11541.72
390.1130, 10667.31
391.3100, 10022.11
392.5060, 9321.109
393.7030, 8653.314
394.9000, 8165.723
396.0960, 7733.332
397.2920, 7327.293
398.4880, 7165.156
399.6840, 6704.365
400.8800, 6555.773
402.0750, 6274.377
403.2710, 6052.992
404.4660, 5908.176
405.6610, 5678.369
406.8560, 5582.754
408.0510, 5352.330
409.2450, 5032.113
410.4400, 4801.111
411.6340, 3977.316
412.8280, 3700.729
414.0220, 3255.348
415.2160, 2745.176
416.4100, 2663.207
417.6030, 2204.443
418.7970, 2035.891
419.9900, 1785.543
421.1830, 1825.398
422.3760, 1309.465
423.5690, 1300.736
424.7610, 1123.221
425.9540, 1209.910
427.1460, 1056.812
428.3380, 1031.920
429.5300, 1129.238
430.7220, 1084.768
431.9140, 1005.510
433.1050, 1102.467
434.2970, 1186.635
435.4880, 1229.014
436.6790, 1110.607
437.8700, 1395.416
439.0610, 1372.393
440.2510, 1490.658
441.4420, 1679.379
442.6320, 1639.121
443.8220, 1814.010
445.0120, 1851.889
446.2020, 1795.865
447.3910, 1893.047
448.5810, 1813.605
449.7700, 1703.223
450.9600, 1782.164
452.1490, 1625.555
453.3370, 1611.662
454.5260, 1508.582
455.7150, 1637.416
456.9030, 1607.633
458.0910, 1693.285
459.2800, 1815.357
460.4670, 1990.969
461.6550, 2066.240
462.8430, 2416.988
464.0300, 2686.346
465.2180, 3128.137
466.4050, 3527.742
467.5920, 3898.762
468.7790, 4563.199
469.9650, 5205.820
471.1520, 5949.621
472.3380, 6975.602
473.5250, 7761.754
474.7110, 8337.086
475.8970, 8951.592
477.0820, 9769.270
478.2680, 9794.125
479.4540, 10321.15
480.6390, 10644.35
481.8240, 10556.72
483.0090, 10925.26
484.1940, 10946.97
485.3780, 10821.85
486.5630, 10776.89
487.7470, 10759.11
488.9320, 10403.49
490.1160, 10450.04
491.3000, 10154.75
492.4830, 10005.62
493.6670, 9840.656
494.8500, 9710.859
496.0340, 9502.219
497.2170, 9138.742
498.4000, 9093.422
499.5820, 8913.264
500.7650, 8276.262
501.9480, 7908.420
503.1300, 7595.734
504.3120, 7142.205
505.4940, 6823.834
506.6760, 6286.617
507.8580, 5697.555
509.0390, 5152.646
510.2210, 4708.891
511.4020, 4313.904
512.5830, 4095.832
513.7640, 3856.527
514.9450, 3664.373
516.1250, 3602.955
517.3060, 3713.502
518.4860, 3669.787
519.6660, 3829.219
520.8460, 4143.791
522.0260, 4675.508
523.2060, 4854.369
524.3850, 5289.367
525.5650, 5688.508
526.7440, 6088.789
527.9230, 6370.205
529.1020, 6827.760
530.2810, 6893.453
531.4590, 7230.277
532.6380, 7286.238
533.8160, 7175.334
534.9940, 7203.562
536.1720, 7090.803
537.3500, 6866.414
538.5270, 6795.031
539.7050, 6470.781
540.8820, 6173.656
542.0590, 5722.660
543.2360, 5751.789
544.4130, 5652.045
545.5900, 5204.422
546.7660, 5182.924
547.9430, 4929.547
549.1190, 4841.293
550.2950, 4717.668
551.4710, 4695.146
552.6470, 4429.246
553.8220, 4291.469
554.9980, 4056.805
556.1730, 3905.254
557.3480, 3692.633
558.5230, 3352.498
559.6980, 3307.287
560.8730, 3032.189
562.0470, 2914.199
563.2220, 2604.320
564.3960, 2342.549
565.5700, 1968.881
566.7440, 2147.320
567.9170, 1739.865
569.0910, 1450.510
570.2640, 1541.260
571.4380, 973.1113
572.6110, 938.0625
573.7840, 677.1191
574.9570, 628.2871
576.1290, 430.5781
577.3020, 433.9961
578.4740, 100.5879
579.6460, 154.6172
580.8180, 272.7090
581.9900, 234.7520
583.1620, 362.6777
584.3330, 468.5410
585.5040, 480.3633
586.6760, 492.1484
587.8470, 544.9082
589.0180, 570.2148
590.1880, 728.4102
591.3590, 601.1758
592.5290, 626.9336
593.7000, 526.6875
594.8700, 416.4258
596.0400, 614.1113
597.2090, 362.8535
598.3790, 474.5664
599.5490, 329.3457
600.7180, 315.1113
601.8870, 431.8184
603.0560, 213.5703
604.2250, 167.2793
605.3940, 178.9434
606.5620, 24.39258
607.7300, 100.8340
608.8990, 192.3984
610.0670, 193.0684
611.2350, 163.8457
612.4020, 471.7031
613.5700, 469.6484
614.7370, 551.6797
615.9050, 749.7930
617.0720, 674.9766
618.2390, 910.2305
619.4060, 1300.543
620.5720, 1448.914
621.7390, 1475.344
622.9050, 1835.828
624.0710, 2008.365
625.2370, 2054.953
626.4030, 2535.584
627.5690, 2620.260
628.7340, 3022.980
629.9000, 3147.736
631.0650, 3082.535
632.2300, 3146.369
633.3950, 3184.240
634.5600, 2858.146
635.7240, 2654.086
636.8890, 2215.059
638.0530, 2052.062
639.2170, 2111.098
640.3810, 1796.160
641.5450, 1806.252
642.7080, 1784.371
643.8720, 1652.516
645.0350, 1977.686
646.1980, 1933.877
647.3610, 2184.090
648.5240, 2317.326
649.6870, 2591.580
650.8490, 2833.855
652.0120, 3394.146
653.1740, 3466.455
654.3360, 4097.779
655.4980, 4395.115
656.6600, 4970.467
657.8210, 5343.830
658.9830, 5737.203
660.1440, 5960.586
661.3050, 6708.979
662.4660, 7023.377
663.6270, 7427.783
664.7870, 7515.195
665.9480, 7930.611
667.1080, 8189.029
668.2680, 8510.449
669.4280, 8377.867
670.5880, 8337.291
671.7480, 8365.711
672.9070, 8238.127
674.0670, 8135.543
675.2260, 7988.951
676.3850, 7776.354
677.5440, 7519.748
678.7030, 7364.139
679.8610, 7158.520
681.0200, 7022.889
682.1780, 6791.246
683.3360, 6748.596
684.4940, 6755.930
685.6520, 6645.252
686.8090, 6836.555
687.9670, 6991.844
689.1240, 7138.115
690.2810, 7351.367
691.4380, 7776.602
692.5950, 8214.818
693.7520, 8556.010
694.9080, 9066.180
696.0650, 9591.328
697.2210, 10355.45
698.3770, 11010.54
699.5330, 11870.62
700.6880, 12380.66
701.8440, 13271.68
702.9990, 14393.66
704.1550, 15285.61
705.3100, 16593.54
706.4650, 17588.43
707.6190, 18950.28
708.7740, 20540.11
709.9290, 21799.89
711.0830, 23978.65
712.2370, 25729.53
713.3910, 28055.18
714.5450, 29676.04
715.6980, 31784.50
716.8520, 34040.73
718.0050, 36128.98
719.1580, 37705.38
720.3110, 39401.48
721.4640, 39783.95
722.6170, 40033.70
723.7700, 40160.68
724.9220, 38766.66
726.0740, 37138.65
727.2260, 35474.23
728.3780, 33092.19
729.5300, 30913.42
730.6810, 28853.61
731.8330, 26593.55
732.9840, 24987.57
734.1350, 23278.35
735.2860, 21881.01
736.4370, 20859.54
737.5880, 19975.89
738.7380, 19516.34
739.8880, 19160.21
741.0390, 18915.60
742.1890, 18967.54
743.3380, 19246.82
744.4880, 19660.53
745.6380, 19930.89
746.7870, 20969.09
747.9360, 21795.66
749.0850, 22603.49
750.2340, 23391.69
751.3830, 23771.24
752.5310, 25006.35
753.6800, 25501.04
754.8280, 26531.83
755.9760, 27481.81
757.1240, 28282.31
758.2720, 29017.32
759.4190, 29673.12
760.5670, 29952.41
761.7140, 30195.50
762.8610, 30073.18
764.0080, 29820.06
765.1550, 29572.05
766.3020, 28973.29
767.4480, 28634.43
768.5950, 28282.46
769.7410, 27716.40
770.8870, 27525.23
772.0330, 27119.96
773.1780, 26570.57
774.3240, 26436.10
775.4690, 26025.51
776.6140, 25389.81
777.7590, 25184.01
778.9040, 24662.10
780.0490, 24405.09
781.1940, 24068.97
782.3380, 23817.74
783.4820, 23855.40
784.6260, 23684.96
785.7700, 24081.41
786.9140, 24027.75
788.0580, 24165.98
789.2010, 24310.11
790.3450, 24642.11
791.4880, 24977.02
792.6310, 24860.81
793.7730, 24914.50
794.9160, 24964.08
796.0590, 24024.54
797.2010, 24133.89
798.3430, 23612.14
799.4850, 22872.27
800.6270, 22609.29
801.7690, 22047.21
802.9100, 21392.01
804.0520, 20869.70
805.1930, 20636.28
806.3340, 20282.74
807.4750, 20176.67
808.6160, 20164.34
809.7560, 20180.48
810.8970, 20281.49
812.0370, 20466.40
813.1770, 20477.57
814.3170, 20530.86
815.4570, 20565.43
816.5960, 20656.87
817.7360, 20638.21
818.8750, 20124.42
820.0140, 19739.52
821.1530, 19225.50
822.2920, 18394.37
823.4310, 17553.12
824.5690, 16658.76
825.7070, 15481.28
826.8460, 14595.67
827.9840, 13421.96
829.1220, 12051.12
830.2590, 10895.16
831.3970, 9953.082
832.5340, 9015.893
833.6710, 8007.576
834.8080, 7055.143
835.9450, 6368.588
837.0820, 5424.914
838.2190, 4933.119
839.3550, 4308.203
840.4910, 3611.168
841.6270, 3233.012
842.7630, 2560.734
843.8990, 2354.336
845.0350, 1726.812
846.1700, 1400.170
847.3060, 1142.404
848.4410, 865.5156
849.5760, 584.4922
850.7100, 374.3184
851.8450, 209.9746
852.9800, 6.566406
854.1140, 135.3828
855.2480, 202.5391
856.3820, 136.0273
857.5160, 354.7793
858.6500, 357.6406
859.7830, 505.4219
860.9170, 488.3379
862.0500, 487.6504
863.1830, 515.3613
864.3160, 516.4688
865.4480, 519.9629
866.5810, 476.9541
867.7130, 484.2930
868.8460, 387.5898
869.9780, 436.4844
871.1100, 451.7500
872.2410, 364.3555
873.3730, 224.3066
874.5050, 280.5039
875.6360, 439.0078
876.7670, 266.9062
877.8980, 219.0723
879.0290, 157.5371
880.1590, 20.27539
881.2900, 110.2090
882.4200, 50.42773
883.5500, 73.08594
884.6800, 56.38672
885.8100, 237.4688
886.9400, 278.3770
888.0690, 225.1094
889.1990, 247.6602
890.3280, 505.0352
891.4570, 469.2598
892.5860, 631.3320
893.7140, 698.2539
894.8430, 721.6992
895.9710, 815.7227
897.1000, 842.2559
898.2280, 912.6641
899.3560, 1076.943
900.4830, 1025.107
901.6110, 1294.152
902.7380, 1318.086
903.8660, 1467.939
904.9930, 1393.686
906.1200, 1669.328
907.2460, 1767.857
908.3730, 1766.293
909.5000, 1905.643
910.6260, 2074.930
911.7520, 2116.156
912.8780, 2345.309
914.0040, 2380.006
915.1290, 2231.451
916.2550, 2562.484
917.3800, 2591.480
918.5050, 2810.395
919.6300, 2905.279
920.7550, 2781.102
921.8800, 3060.885
923.0040, 3015.600
924.1290, 3325.266
925.2530, 3118.877
926.3770, 3263.469
927.5010, 3413.994
928.6250, 3460.523
929.7480, 3665.023
930.8720, 3752.463
931.9950, 3769.924
933.1180, 3712.336
934.2410, 3857.600
935.3640, 4050.059
936.4860, 4147.387
937.6090, 4261.645
938.7310, 4554.855
939.8530, 4672.982
940.9750, 4759.012
942.0970, 4896.998
943.2180, 4968.891
944.3400, 4979.709
945.4610, 5352.434
946.5820, 5320.062
947.7030, 5579.592
948.8240, 5600.023
949.9450, 5673.363
951.0650, 5812.605
952.1860, 5958.750
953.3060, 6218.803
954.4260, 6383.760
955.5460, 6360.623
956.6650, 6663.395
957.7850, 6727.068
958.9040, 7016.652
960.0230, 6943.145
961.1420, 7331.543
962.2610, 7407.852
963.3800, 7678.070
964.4990, 7881.197
965.6170, 7896.232
966.7350, 8193.330
967.8530, 8304.041
968.9710, 8585.809
970.0890, 8772.492
971.2070, 8877.086
972.3240, 9237.592
973.4410, 9424.012
974.5580, 9682.346
975.6750, 9895.594
976.7920, 10215.76
977.9090, 10320.84
979.0250, 10493.83
980.1410, 10628.74
981.2580, 10719.57
982.3740, 10784.31
983.4890, 10868.80
984.6050, 10690.41
985.7200, 10566.68
986.8360, 10201.24
987.9510, 9962.898
989.0660, 9698.430
990.1810, 9532.711
991.2950, 9183.129
992.4100, 8886.793
993.5240, 8524.254
994.6390, 8278.719
995.7530, 7962.668
996.8660, 7734.953
997.9800, 7523.512
999.0940, 7111.021
1000.207, 6981.336
1001.320, 6835.387
1002.433, 6639.016
1003.546, 6732.762
1004.659, 6512.488
1005.772, 6665.322
1006.884, 6328.705
1007.996, 6541.951
1009.108, 6703.746
1010.220, 6739.672
1011.332, 6844.486
1012.444, 7258.398
1013.555, 7485.270
1014.666, 8385.854
1015.777, 8386.408
1016.888, 8844.801
1017.999, 8774.023
1019.110, 9441.889
1020.220, 9825.273
1021.331, 9992.195
1022.441, 10396.45
1023.551, 10904.02
1024.661, 11154.38
1025.770, 11635.44
1026.880, 11929.86
1027.989, 12322.68
1029.098, 12773.02
1030.207, 13371.34
1031.316, 13931.86
1032.425, 14393.95
1033.533, 14626.69
1034.642, 15328.33
1035.750, 15739.05
1036.858, 16638.14
1037.966, 17215.82
1039.073, 17841.47
1040.181, 18431.72
1041.288, 18642.09
1042.396, 19697.72
1043.503, 19835.40
1044.610, 20515.43
1045.716, 20974.35
1046.823, 21533.12
1047.929, 21785.94
1049.036, 21748.07
1050.142, 22296.38
1051.248, 22294.07
1052.353, 22840.25
1053.459, 22256.39
1054.564, 22752.38
1055.670, 23158.46
1056.775, 23214.07
1057.880, 23576.68
1058.985, 23856.96
1060.089, 24433.29
1061.194, 24856.38
1062.298, 25480.04
1063.402, 26048.37
1064.506, 26663.09
1065.610, 27181.40
1066.713, 27557.21
1067.817, 27869.19
1068.920, 27971.93
1070.023, 27935.19
1071.126, 27709.72
1072.229, 27117.45
1073.332, 26490.33
1074.435, 25541.08
1075.537, 24530.95
1076.639, 23868.13
1077.741, 22669.11
1078.843, 21641.39
1079.945, 20611.72
1081.046, 19441.96
1082.148, 18404.18
1083.249, 17359.38
1084.350, 16338.77
1085.451, 15380.73
1086.551, 14424.88
1087.652, 13602.02
1088.752, 12744.14
1089.853, 12024.24
1090.953, 11345.33
1092.053, 10577.41
1093.152, 9904.473
1094.252, 9520.516
1095.351, 8979.547
1096.451, 8357.568
1097.550, 7642.574
1098.649, 7381.566
1099.748, 6964.547
1100.846, 6772.514
1101.945, 6499.473
1103.043, 6471.418
1104.141, 6147.350
1105.239, 5682.271
1106.337, 5626.184
1107.434, 5230.086
1108.532, 5363.977
1109.629, 5131.855
1110.726, 4794.729
1111.823, 4848.590
1112.920, 4694.441
1114.017, 4821.287
1115.113, 4840.125
1116.210, 4924.959
1117.306, 4962.801
1118.402, 5028.654
1119.498, 5365.541
1120.593, 5533.496
1121.689, 5632.557
1122.784, 5870.738
1123.879, 5835.020
1124.974, 6017.465
1126.069, 6028.074
1127.164, 5934.883
1128.259, 5831.887
1129.353, 5466.084
1130.447, 5452.486
1131.541, 5156.094
1132.635, 5006.902
1133.729, 4688.904
1134.822, 4401.102
1135.916, 4138.463
1137.009, 3710.008
1138.102, 3388.736
1139.195, 2731.625
1140.288, 2545.637
1141.380, 2107.787
1142.473, 1773.115
1143.565, 1481.578
1144.657, 1185.158
1145.749, 1058.842
1146.841, 914.5938
1147.932, 788.0117
1149.024, 698.6348
1150.115, 644.3008
1151.206, 550.2988
1152.297, 497.0000
1153.388, 458.2969
1154.479, 335.4336
1155.569, 336.5273
1156.659, 352.6309
1157.750, 276.7441
1158.839, 217.8633
1159.929, 97.98438
1161.019, 195.1055
1162.108, 178.2246
1163.198, 113.3457
1164.287, 124.4570
1165.376, 98.56250
1166.465, 10.66016
1167.553, 123.2598
1168.642, 13.74609
1169.730, 17.75000
1170.818, 109.7383
1171.906, 63.28516
1172.994, 67.35938
1174.082, 167.4785
1175.170, 186.7031
1176.257, 103.0430
1177.344, 114.4570
1178.431, 343.9492
1179.518, 283.5918
1180.605, 228.4062
1181.691, 72.31055
1182.778, 270.2773
1183.864, 124.4121
1184.950, 231.6113
1186.036, 103.8887
1187.122, 174.2480
1188.207, 156.7324
1189.292, 277.3184
1190.378, 101.0410
1191.463, 366.8047
1192.548, 230.7578
1193.632, 120.8633
1194.717, 412.0703
1195.801, 157.5332
1196.886, 212.1152
1197.970, 181.8457
1199.054, 272.7109
1200.137, 56.76172
1201.221, 155.8809
1202.305, 5.876953
1203.388, 149.5957
1204.471, 156.7012
1205.554, 144.8789
1206.637, 34.55859
1207.719, 106.9453
1208.802, 323.4316
1209.884, 255.9082
1210.966, 282.3730
1212.048, 297.8301
1213.130, 333.2793
1214.212, 537.7148
1215.293, 653.1426
1216.374, 657.5586
1217.456, 679.9648
1218.536, 903.3633
1219.617, 1153.750
1220.698, 1145.127
1221.778, 1295.967
1222.859, 1250.854
1223.939, 1436.203
1225.019, 1381.541
1226.099, 1522.873
1227.178, 1652.191
1228.258, 1610.500
1229.337, 1518.801
1230.417, 1640.092
1231.496, 1878.373
1232.574, 1801.645
1233.653, 1960.904
1234.732, 1855.158
1235.810, 1970.400
1236.888, 1873.635
1237.966, 2144.859
1239.044, 1934.072
1240.122, 2181.277
1241.199, 2163.473
1242.277, 2269.656
1243.354, 2095.834
1244.431, 2288.002
1245.508, 2232.160
1246.585, 2019.311
1247.661, 2192.447
1248.738, 2360.576
1249.814, 2516.697
1250.890, 2112.807
1251.966, 2216.902
1253.042, 2106.988
1254.117, 2301.062
1255.193, 2178.125
1256.268, 2100.170
1257.343, 2156.199
1258.418, 2105.740
1259.493, 2201.205
1260.567, 2160.176
1261.642, 2184.131
1262.716, 2253.061
1263.790, 2026.969
1264.864, 2379.854
1265.938, 2330.713
1267.011, 2305.545
1268.085, 2131.355
1269.158, 2107.139
1270.231, 2053.895
1271.304, 2257.617
1272.377, 2229.316
1273.450, 1937.986
1274.522, 2288.625
1275.594, 2132.230
1276.666, 2023.807
1277.738, 2042.352
1278.810, 1968.863
1279.882, 1885.346
1280.953, 1886.793
1282.025, 2069.209
1283.096, 1777.590
1284.167, 1657.939
1285.238, 1917.254
1286.308, 1873.539
