##NAMES=Dravite
##RRUFFID=R050077
##IDEAL CHEMISTRY=NaMg_3_Al_6_(Si_6_O_18_)(BO_3_)_3_(OH)_3_OH
##LOCALITY=Yinnietharra Station, Western Australia, Australia
##OWNER=RRUFF
##SOURCE=Rock Currier
##DESCRIPTION=Dark brown euhedral prismatic single crystal
##STATUS=The identification of this mineral has been confirmed by X-ray diffraction and chemical analysis
##URL=rruff.info/R050077
##MEASURED CHEMISTRY=(Na_0.783_Ca_0.217_)(Mg_0.771_Fe^2+^_0.221_Ti^4+^_0.008_)_3_(Al_0.956_Mg_0.044_)_6_(BO_3_)_3_[Si_6_O_18_]((OH)_0.914_F_0.086_)_4_
##PIN_ID=L00540
##ORIENTATION=Laser parallel to -a* (-1 0 0). Fiducial mark perpendicular to laser is parallel to c [0 0 1]
118.1340, 0.0000000E+00
119.3650, 54.99756
120.5960, 19.25635
121.8270, 174.7886
123.0580, 151.4805
124.2880, 374.7954
125.5190, 165.7285
126.7490, 18.13281
127.9790, 174.8691
129.2090, 1007.871
130.4390, 725.5044
131.6680, 737.1816
132.8980, 555.3926
134.1270, 711.8198
135.3560, 900.0156
136.5850, 1098.379
137.8140, 1289.200
139.0430, 1384.455
140.2710, 1483.281
141.5000, 1579.245
142.7280, 1532.826
143.9560, 1677.106
145.1840, 1630.723
146.4120, 1669.614
147.6390, 1553.198
148.8670, 1442.436
150.0940, 1475.295
151.3210, 1482.748
152.5490, 1185.772
153.7750, 892.3486
155.0020, 814.4590
156.2290, 526.0776
157.4550, 314.1704
158.6810, 127.7070
159.9080, 2.335449
161.1340, 67.79980
162.3590, 27.38623
163.5850, 76.55566
164.8110, 156.9390
166.0360, 102.4712
167.2610, 72.67188
168.4860, 88.66455
169.7110, 21.44678
170.9360, 22.98730
172.1610, 85.35596
173.3850, 54.52930
174.6100, 46.64697
175.8340, 222.0015
177.0580, 347.5962
178.2820, 459.4351
179.5050, 794.5200
180.7290, 905.8530
181.9520, 1124.436
183.1760, 1454.271
184.3990, 1741.361
185.6220, 2106.705
186.8450, 2387.306
188.0670, 2864.164
189.2900, 3322.280
190.5120, 3984.655
191.7340, 4373.260
192.9560, 5142.976
194.1780, 6107.791
195.4000, 6920.702
196.6220, 8099.664
197.8430, 9596.742
199.0640, 11252.94
200.2860, 13424.27
201.5070, 15598.73
202.7270, 18132.66
203.9480, 20845.91
205.1690, 23475.72
206.3890, 26792.73
207.6090, 29552.40
208.8290, 31770.32
210.0490, 33292.89
211.2690, 33800.66
212.4890, 33455.62
213.7080, 32290.71
214.9280, 30717.99
216.1470, 28802.38
217.3660, 26991.87
218.5850, 25169.53
219.8030, 23992.22
221.0220, 22756.62
222.2400, 22036.68
223.4590, 21369.13
224.6770, 20804.79
225.8950, 21138.66
227.1120, 21569.73
228.3300, 22662.00
229.5480, 23779.47
230.7650, 25662.15
231.9820, 27688.02
233.1990, 29996.10
234.4160, 32561.38
235.6330, 35080.86
236.8490, 37365.52
238.0660, 39097.38
239.2820, 39913.42
240.4980, 39552.66
241.7140, 38365.09
242.9300, 36494.72
244.1460, 33324.54
245.3610, 30560.53
246.5770, 27355.72
247.7920, 24396.10
249.0070, 21234.67
250.2220, 18379.43
251.4370, 16303.38
252.6510, 14310.51
253.8660, 12549.83
255.0800, 11346.34
256.2940, 10137.04
257.5080, 9671.923
258.7220, 8657.906
259.9360, 7885.604
261.1490, 7371.667
262.3630, 6483.283
263.5760, 6137.083
264.7890, 5746.979
266.0020, 5257.991
267.2150, 4846.385
268.4270, 4502.454
269.6400, 3854.103
270.8520, 3630.068
272.0640, 3028.219
273.2760, 2597.972
274.4880, 2389.473
275.7000, 1924.146
276.9120, 1625.986
278.1230, 1302.985
279.3340, 1184.156
280.5450, 817.5156
281.7560, 622.0771
282.9670, 315.8345
284.1780, 200.7935
285.3880, 130.9341
286.5980, 15.84326
287.8090, 115.3955
289.0190, 174.9893
290.2290, 259.5137
291.4380, 317.9053
292.6480, 302.0952
293.8570, 290.3662
295.0670, 200.8433
296.2760, 143.4053
297.4850, 28.70410
298.6930, 121.0884
299.9020, 228.1465
301.1110, 475.4155
302.3190, 649.8760
303.5270, 1083.516
304.7350, 1539.311
305.9430, 2118.036
307.1510, 2780.873
308.3580, 3398.105
309.5660, 4087.489
310.7730, 4318.012
311.9800, 4401.260
313.1870, 3996.290
314.3940, 3395.801
315.6010, 3014.940
316.8070, 2838.872
318.0130, 1902.357
319.2200, 1559.842
320.4260, 1276.460
321.6310, 1151.215
322.8370, 1112.103
324.0430, 1970.124
325.2480, 2667.277
326.4540, 1737.562
327.6590, 1555.979
328.8640, 1726.526
330.0680, 1910.202
331.2730, 2130.007
332.4780, 2374.940
333.6820, 2679.830
334.8860, 2922.188
336.0900, 3365.500
337.2940, 3699.938
338.4980, 4067.501
339.7010, 4635.188
340.9050, 5035.000
342.1080, 5449.939
343.3110, 5967.000
344.5140, 6718.188
345.7170, 7454.500
346.9200, 8257.935
348.1220, 9071.493
349.3240, 10280.13
350.5270, 11556.77
351.7290, 13274.42
352.9310, 15331.15
354.1320, 17662.99
355.3340, 20475.97
356.5350, 23815.07
357.7370, 27878.30
358.9380, 32367.65
360.1390, 37337.12
361.3400, 42374.73
362.5400, 47880.45
363.7410, 51840.31
364.9410, 55348.28
366.1410, 57082.37
367.3410, 56830.60
368.5410, 55525.94
369.7410, 52704.40
370.9400, 48540.99
372.1400, 43973.68
373.3390, 39563.52
374.5380, 34984.45
375.7370, 30672.51
376.9360, 27133.69
378.1350, 23942.99
379.3330, 22165.40
380.5310, 20335.92
381.7300, 18480.57
382.9280, 16210.33
384.1260, 14945.84
385.3230, 13499.92
386.5210, 12494.28
387.7180, 11547.49
388.9160, 10895.82
390.1130, 10521.25
391.3100, 10195.80
392.5060, 9785.456
393.7030, 9744.222
394.9000, 9250.097
396.0960, 9515.083
397.2920, 9212.172
398.4880, 9174.372
399.6840, 9173.678
400.8800, 9109.090
402.0750, 8868.609
403.2710, 8568.232
404.4660, 8219.960
405.6610, 7796.791
406.8560, 7426.725
408.0510, 6694.764
409.2450, 6053.919
410.4400, 5459.195
411.6340, 4880.135
412.8280, 4427.118
414.0220, 3852.762
415.2160, 3403.530
416.4100, 2939.420
417.6030, 2709.659
418.7970, 2273.423
419.9900, 2144.477
421.1830, 1786.052
422.3760, 1514.401
423.5690, 1371.606
424.7610, 1183.231
425.9540, 1070.846
427.1460, 1036.167
428.3380, 1049.218
429.5300, 790.1289
430.7220, 726.5640
431.9140, 754.8706
433.1050, 687.4722
434.2970, 562.0537
435.4880, 560.6982
436.6790, 589.7778
437.8700, 454.2422
439.0610, 406.7617
440.2510, 324.3115
441.4420, 323.4976
442.6320, 361.6621
443.8220, 375.1069
445.0120, 333.6538
446.2020, 379.8633
447.3910, 369.6675
448.5810, 296.5728
449.7700, 469.5845
450.9600, 572.7153
452.1490, 585.9463
453.3370, 860.2769
454.5260, 938.7061
455.7150, 1327.260
456.9030, 1532.927
458.0910, 2002.714
459.2800, 2474.604
460.4670, 2770.592
461.6550, 2956.934
462.8430, 3159.892
464.0300, 2977.186
465.2180, 2760.576
466.4050, 2421.061
467.5920, 2420.641
468.7790, 2557.315
469.9650, 2421.082
471.1520, 2677.943
472.3380, 2719.898
473.5250, 2828.944
474.7110, 2841.083
475.8970, 3108.313
477.0820, 3185.635
478.2680, 3258.046
479.4540, 3542.549
480.6390, 3822.141
481.8240, 4006.821
483.0090, 4113.591
484.1940, 4384.448
485.3780, 4723.394
486.5630, 4825.426
487.7470, 5142.547
488.9320, 5445.753
490.1160, 5508.045
491.3000, 5447.422
492.4830, 5632.885
493.6670, 5628.432
494.8500, 5779.064
496.0340, 5752.782
497.2170, 5578.583
498.4000, 5497.470
499.5820, 5137.439
500.7650, 4925.491
501.9480, 4655.625
503.1300, 4351.760
504.3120, 4067.138
505.4940, 3786.516
506.6760, 3522.973
507.8580, 3263.511
509.0390, 2994.627
510.2210, 2636.822
511.4020, 2507.594
512.5830, 2183.444
513.7640, 2015.372
514.9450, 1780.375
516.1250, 1579.454
517.3060, 1454.609
518.4860, 1287.839
519.6660, 1288.142
520.8460, 1237.519
522.0260, 1167.970
523.2060, 1170.492
524.3850, 1336.087
525.5650, 1359.754
526.7440, 1460.491
527.9230, 1591.299
529.1020, 1608.177
530.2810, 1683.394
531.4590, 1639.141
532.6380, 1740.225
533.8160, 1758.377
534.9940, 1752.597
536.1720, 1753.456
537.3500, 1705.235
538.5270, 1630.654
539.7050, 1568.137
540.8820, 1403.685
542.0590, 1268.297
543.2360, 1144.972
544.4130, 909.7109
545.5900, 861.5195
546.7660, 904.3745
547.9430, 709.2993
549.1190, 589.2837
550.2950, 509.3296
551.4710, 409.4360
552.6470, 297.6035
553.8220, 243.3867
554.9980, 198.1187
556.1730, 118.4688
557.3480, 101.8809
558.5230, 30.35986
559.6980, 24.59668
560.8730, 66.52881
562.0470, 132.9233
563.2220, 162.3164
564.3960, 192.7358
565.5700, 215.1777
566.7440, 174.6450
567.9170, 184.1216
569.0910, 267.5830
570.2640, 188.0864
571.4380, 234.6016
572.6110, 170.1255
573.7840, 220.6406
574.9570, 305.1504
576.1290, 232.7061
577.3020, 281.2529
578.4740, 239.8066
579.6460, 216.3530
580.8180, 145.9053
581.9900, 192.4395
583.1620, 114.9897
584.3330, 160.5312
585.5040, 86.07715
586.6760, 38.61475
587.8470, 88.89453
589.0180, 113.0850
590.1880, 158.1274
591.3590, 199.8657
592.5290, 196.6895
593.7000, 242.5967
594.8700, 326.5718
596.0400, 293.6245
597.2090, 455.7271
598.3790, 422.8940
599.5490, 484.1074
600.7180, 540.3687
601.8870, 607.5366
603.0560, 693.3521
604.2250, 794.4536
605.3940, 892.9414
606.5620, 1033.447
607.7300, 1170.996
608.8990, 1307.584
610.0670, 1453.232
611.2350, 1667.867
612.4020, 1766.560
613.5700, 1942.284
614.7370, 2150.041
615.9050, 2540.830
617.0720, 2941.649
618.2390, 3127.498
619.4060, 3765.373
620.5720, 4349.274
621.7390, 4988.200
622.9050, 5785.151
624.0710, 6517.124
625.2370, 7536.116
626.4030, 8323.134
627.5690, 9045.170
628.7340, 9539.225
629.9000, 9845.299
631.0650, 9776.396
632.2300, 9617.507
633.3950, 9595.635
634.5600, 9301.777
635.7240, 9206.935
636.8890, 9284.108
638.0530, 9325.295
639.2170, 9721.496
640.3810, 9913.710
641.5450, 10482.94
642.7080, 11047.17
643.8720, 11711.42
645.0350, 12054.68
646.1980, 12632.95
647.3610, 12868.23
648.5240, 12912.51
649.6870, 13083.81
650.8490, 13186.11
652.0120, 13086.42
653.1740, 12872.73
654.3360, 12866.05
655.4980, 12822.38
656.6600, 12715.71
657.8210, 12844.04
658.9830, 13112.37
660.1440, 13367.71
661.3050, 13850.06
662.4660, 14485.40
663.6270, 15030.74
664.7870, 15972.09
665.9480, 16509.30
667.1080, 17337.99
668.2680, 17876.12
669.4280, 18297.47
670.5880, 18383.93
671.7480, 18214.14
672.9070, 17878.47
674.0670, 17566.80
675.2260, 16689.12
676.3850, 16044.44
677.5440, 15249.75
678.7030, 14641.06
679.8610, 14004.36
681.0200, 13615.66
682.1780, 13094.94
683.3360, 13013.22
684.4940, 12871.48
685.6520, 12929.74
686.8090, 13207.99
687.9670, 13391.23
689.1240, 13966.47
690.2810, 14521.83
691.4380, 15336.28
692.5950, 16342.75
693.7520, 17442.53
694.9080, 18489.62
696.0650, 19486.08
697.2210, 20300.27
698.3770, 20929.70
699.5330, 20855.22
700.6880, 20640.63
701.8440, 19877.11
702.9990, 18492.00
704.1550, 16805.52
705.3100, 15032.56
706.4650, 13141.35
707.6190, 11390.90
708.7740, 9821.325
709.9290, 8419.080
711.0830, 7341.594
712.2370, 6125.309
713.3910, 5351.132
714.5450, 4615.750
715.6980, 3806.179
716.8520, 3366.656
718.0050, 2980.508
719.1580, 2798.883
720.3110, 2493.787
721.4640, 2215.992
722.6170, 1974.429
723.7700, 1809.430
724.9220, 1684.355
726.0740, 1568.158
727.2260, 1496.213
728.3780, 1446.046
729.5300, 1418.867
730.6810, 1400.000
731.8330, 1405.758
732.9840, 1283.821
734.1350, 1355.282
735.2860, 1240.865
736.4370, 1361.606
737.5880, 1309.524
738.7380, 1318.142
739.8880, 1442.107
741.0390, 1508.682
742.1890, 1544.299
743.3380, 1672.164
744.4880, 1697.999
745.6380, 1864.918
746.7870, 1894.234
747.9360, 2037.772
749.0850, 2129.537
750.2340, 2250.693
751.3830, 2303.811
752.5310, 2360.077
753.6800, 2339.259
754.8280, 2403.305
755.9760, 2401.027
757.1240, 2370.303
758.2720, 2190.413
759.4190, 2142.779
760.5670, 1970.478
761.7140, 1876.340
762.8610, 1725.044
764.0080, 1618.516
765.1550, 1688.226
766.3020, 1548.684
767.4480, 1576.230
768.5950, 1478.583
769.7410, 1472.800
770.8870, 1371.908
772.0330, 1419.968
773.1780, 1387.980
774.3240, 1363.944
775.4690, 1435.859
776.6140, 1332.726
777.7590, 1399.543
778.9040, 1332.311
780.0490, 1455.028
781.1940, 1273.696
782.3380, 1366.314
783.4820, 1407.882
784.6260, 1359.398
785.7700, 1349.864
786.9140, 1383.279
788.0580, 1246.643
789.2010, 1305.955
790.3450, 1239.216
791.4880, 1258.425
792.6310, 1247.581
793.7730, 1051.686
794.9160, 1044.737
796.0590, 944.7358
797.2010, 857.6826
798.3430, 789.5757
799.4850, 756.4160
800.6270, 657.2026
801.7690, 740.9370
802.9100, 654.6172
804.0520, 711.2441
805.1930, 758.8174
806.3340, 716.3374
807.4750, 722.8032
808.6160, 864.2148
809.7560, 755.5728
810.8970, 815.8760
812.0370, 773.1250
813.1770, 798.3193
814.3170, 830.4590
815.4570, 838.5435
816.5960, 794.5732
817.7360, 668.5479
818.8750, 719.4673
820.0140, 628.3306
821.1530, 610.1392
822.2920, 538.8911
823.4310, 441.5876
824.5690, 445.2288
825.7070, 327.8130
826.8460, 301.3411
827.9840, 279.8103
829.1220, 274.2212
830.2590, 232.0630
831.3970, 195.9341
832.5340, 162.0820
833.6710, 107.2354
834.8080, 80.31226
835.9450, 54.31372
837.0820, 0.7548830
838.2190, 8.749023
839.3550, 72.87109
840.4910, 32.38770
841.6270, 61.71606
842.7630, 56.12476
843.8990, 173.6191
845.0350, 102.2590
846.1700, 87.98730
847.3060, 173.8142
848.4410, 106.7734
849.5760, 153.8450
850.7100, 66.04175
851.8450, 113.2974
852.9800, 157.6531
854.1140, 145.1206
855.2480, 118.7036
856.3820, 115.3916
857.5160, 114.1992
858.6500, 84.11523
859.7830, 118.1411
860.9170, 46.28345
862.0500, 106.5215
863.1830, 20.89648
864.3160, 71.38721
865.4480, 72.01904
866.5810, 93.79321
867.7130, 88.72070
868.8460, 30.79785
869.9780, 69.99487
871.1100, 46.66846
872.2410, 28.75439
873.3730, 80.70532
874.5050, 38.08398
875.6360, 35.62451
876.7670, 95.54712
877.8980, 30.64038
879.0290, 16.64600
880.1590, 68.56006
881.2900, 60.39331
882.4200, 98.14404
883.5500, 158.8179
884.6800, 134.4214
885.8100, 193.9517
886.9400, 193.4148
888.0690, 185.8101
889.1990, 159.1379
890.3280, 185.3962
891.4570, 218.5867
892.5860, 275.7129
893.7140, 304.6113
894.8430, 243.7822
895.9710, 381.7251
897.1000, 331.6104
898.2280, 358.4377
899.3560, 403.2078
900.4830, 334.9219
901.6110, 383.5786
902.7380, 351.1846
903.8660, 385.9431
904.9930, 406.7988
906.1200, 480.6741
907.2460, 451.0645
908.3730, 515.4019
909.5000, 526.6931
910.6260, 552.9312
911.7520, 629.1167
912.8780, 735.2515
914.0040, 673.3337
915.1290, 704.3638
916.2550, 836.3508
917.3800, 734.2974
918.5050, 816.1987
919.6300, 797.0654
920.7550, 816.8994
921.8800, 844.6855
923.0040, 912.4302
924.1290, 912.1245
925.2530, 934.7717
926.3770, 1035.370
927.5010, 1009.925
928.6250, 1112.430
929.7480, 1126.912
930.8720, 1104.362
931.9950, 1232.791
933.1180, 1241.181
934.2410, 1356.543
935.3640, 1302.862
936.4860, 1379.159
937.6090, 1438.431
938.7310, 1622.674
939.8530, 1702.898
940.9750, 1822.083
942.0970, 1791.229
943.2180, 1964.354
944.3400, 1988.433
945.4610, 2251.479
946.5820, 2320.485
947.7030, 2463.450
948.8240, 2561.371
949.9450, 2770.245
951.0650, 2859.075
952.1860, 3040.859
953.3060, 3100.604
954.4260, 3165.307
955.5460, 3389.979
956.6650, 3466.621
957.7850, 3568.217
958.9040, 3711.775
960.0230, 3801.293
961.1420, 3911.754
962.2610, 4047.052
963.3800, 4046.204
964.4990, 3979.288
965.6170, 4164.000
966.7350, 4005.354
967.8530, 4028.278
968.9710, 3934.419
970.0890, 3936.069
971.2070, 3768.154
972.3240, 3853.130
973.4410, 3716.574
974.5580, 3727.902
975.6750, 3634.799
976.7920, 3669.823
977.9090, 3685.166
979.0250, 3531.104
980.1410, 3646.492
981.2580, 3587.749
982.3740, 3396.593
983.4890, 3511.621
984.6050, 3549.671
985.7200, 3510.212
986.8360, 3575.766
987.9510, 3651.516
989.0660, 3616.035
990.1810, 3699.195
991.2950, 3674.549
992.4100, 3789.964
993.5240, 3908.255
994.6390, 3922.401
995.7530, 4035.046
996.8660, 4096.904
997.9800, 4196.208
999.0940, 4387.184
1000.207, 4473.202
1001.320, 4729.852
1002.433, 5009.825
1003.546, 5057.443
1004.659, 5322.611
1005.772, 5609.604
1006.884, 5886.387
1007.996, 6204.271
1009.108, 6522.511
1010.220, 6852.142
1011.332, 7199.882
1012.444, 7535.524
1013.555, 7897.868
1014.666, 8268.186
1015.777, 8620.367
1016.888, 9138.099
1017.999, 9544.552
1019.110, 9806.727
1020.220, 10242.46
1021.331, 10494.17
1022.441, 10825.81
1023.551, 11114.22
1024.661, 11546.85
1025.770, 11852.74
1026.880, 12018.02
1027.989, 12261.42
1029.098, 12482.50
1030.207, 12495.20
1031.316, 12613.68
1032.425, 12559.68
1033.533, 12464.02
1034.642, 12372.49
1035.750, 12310.07
1036.858, 12215.58
1037.966, 12216.82
1039.073, 12237.72
1040.181, 12114.52
1041.288, 12068.31
1042.396, 12191.44
1043.503, 12009.20
1044.610, 11940.97
1045.716, 11930.89
1046.823, 11768.64
1047.929, 11775.38
1049.036, 11595.87
1050.142, 11417.87
1051.248, 11142.94
1052.353, 11014.10
1053.459, 10690.92
1054.564, 10500.10
1055.670, 10194.64
1056.775, 9783.336
1057.880, 9594.541
1058.985, 9210.366
1060.089, 9056.156
1061.194, 8748.828
1062.298, 8500.305
1063.402, 8397.804
1064.506, 7996.777
1065.610, 7777.461
1066.713, 7528.681
1067.817, 7379.405
1068.920, 7091.696
1070.023, 6839.393
1071.126, 6584.436
1072.229, 6166.211
1073.332, 5977.545
1074.435, 5699.855
1075.537, 5320.118
1076.639, 5143.826
1077.741, 4962.967
1078.843, 4762.028
1079.945, 4502.440
1081.046, 4295.053
1082.148, 4032.626
1083.249, 3739.195
1084.350, 3551.789
1085.451, 3255.997
1086.551, 3256.284
1087.652, 3070.609
1088.752, 2951.912
1089.853, 2775.457
1090.953, 2688.515
1092.053, 2566.173
1093.152, 2471.708
1094.252, 2356.932
1095.351, 2303.441
1096.451, 2153.919
1097.550, 2090.447
1098.649, 2048.975
1099.748, 1933.506
1100.846, 1927.041
1101.945, 1825.138
1103.043, 1661.690
1104.141, 1714.254
1105.239, 1615.841
1106.337, 1676.454
1107.434, 1555.078
1108.532, 1577.734
1109.629, 1493.429
1110.726, 1427.163
1111.823, 1417.966
1112.920, 1480.820
1114.017, 1599.721
1115.113, 1793.691
1116.210, 1871.714
1117.306, 2085.235
1118.402, 2259.568
1119.498, 2456.114
1120.593, 2548.364
1121.689, 2563.446
1122.784, 2579.042
1123.879, 2387.466
1124.974, 2229.943
1126.069, 1922.467
1127.164, 1426.046
1128.259, 1252.663
1129.353, 903.3320
1130.447, 737.0317
1131.541, 601.7744
1132.635, 515.5608
1133.729, 432.3965
1134.822, 398.2800
1135.916, 383.1965
1137.009, 317.1558
1138.102, 327.1313
1139.195, 310.1384
1140.288, 267.1597
1141.380, 234.1973
1142.473, 269.2688
1143.565, 227.3525
1144.657, 185.4541
1145.749, 205.5747
1146.841, 161.7100
1147.932, 108.8601
1149.024, 153.0232
1150.115, 147.1951
1151.206, 135.3777
1152.297, 198.5679
1153.388, 121.7664
1154.479, 124.9734
1155.569, 143.1892
1156.659, 77.41357
1157.750, 64.64502
1158.839, 91.88159
1159.929, 41.12305
1161.019, 50.37085
1162.108, 6.621826
1163.198, 6.877197
1164.287, 50.13574
1165.376, 42.39746
1166.465, 28.33667
1167.553, 42.92261
1168.642, 18.81421
1169.730, 4.554443
1170.818, 125.7061
1171.906, 7.968506
1172.994, 34.76685
1174.082, 74.48682
1175.170, 9.742676
1176.257, 2.999023
1177.344, 33.25879
1178.431, 23.51929
1179.518, 39.21729
1180.605, 47.96899
1181.691, 29.74048
1182.778, 65.52319
1183.864, 75.33545
1184.950, 9.183105
1186.036, 37.03394
1187.122, 58.09961
1188.207, 8.764404
1189.292, 1.367920
1190.378, 20.50049
1191.463, 19.62207
1192.548, 97.25293
1193.632, 65.17725
1194.717, 104.1343
1195.801, 35.14429
1196.886, 75.17212
1197.970, 16.23096
1199.054, 91.29932
1200.137, 81.40332
1201.221, 66.55029
1202.305, 101.7324
1203.388, 25.95752
1204.471, 25.19678
1205.554, 88.45020
1206.637, 8.250732
1207.719, 38.04834
1208.802, 19.36841
1209.884, 6.701172
1210.966, 13.95996
1212.048, 35.63306
1213.130, 63.30835
1214.212, 15.99146
1215.293, 1.323486
1216.374, 2.643066
1217.456, 37.96875
1218.536, 37.31738
1219.617, 43.31519
1220.698, 2.950684
1221.778, 8.417725
1222.859, 122.2061
1223.939, 0.8330080
1225.019, 112.4546
1226.099, 21.92090
1227.178, 107.6877
1228.258, 52.29883
1229.337, 98.91284
1230.417, 140.5293
1231.496, 29.85107
1232.574, 165.7471
1233.653, 139.3479
1234.732, 89.95093
1235.810, 192.5569
1236.888, 137.1650
1237.966, 135.7756
1239.044, 167.3882
1240.122, 132.0027
1241.199, 157.6189
1242.277, 173.2368
1243.354, 215.8555
1244.431, 200.8765
1245.508, 209.0962
1246.585, 183.7175
1247.661, 168.3389
1248.738, 174.9604
1249.814, 174.5820
1250.890, 162.2029
1251.966, 177.8230
1253.042, 115.4421
1254.117, 208.0598
1255.193, 172.6768
1256.268, 186.2915
1257.343, 132.9043
1258.418, 188.5151
1259.493, 235.1238
1260.567, 136.7297
1261.642, 175.3335
1262.716, 222.9341
1263.790, 44.53149
1264.864, 140.1255
1265.938, 147.7156
1267.011, 624.3022
1268.085, 352.7207
1269.158, 813.4634
1270.231, 133.0376
1271.304, 65.60742
1272.377, 190.1731
1273.450, 177.7336
1274.522, 126.2900
1275.594, 172.8416
1276.666, 122.3879
1277.738, 208.9299
1278.810, 169.4670
1279.882, 164.9993
1280.953, 162.5261
1282.025, 208.0483
1283.096, 190.5657
1284.167, 177.0779
1285.238, 220.5850
1286.308, 207.0601
1287.379, 215.2310
1288.449, 229.0759
