##NAMES=Dravite
##RRUFFID=R060286
##IDEAL CHEMISTRY=NaMg_3_Al_6_(Si_6_O_18_)(BO_3_)_3_(OH)_3_OH
##LOCALITY=Badakshan Province, Afghanistan
##OWNER=RRUFF
##SOURCE=Herb Obodda
##DESCRIPTION=Brown prismatic tourmaline crystal
##STATUS=The identification of this mineral has been confirmed by X-ray diffraction and chemical analysis
##URL=rruff.info/R060286
##MEASURED CHEMISTRY=(Na_0.48_Ca_0.38_[box]_0.14_)_Σ=1_(Mg_2.90_Ti_0.10_)_Σ=3_Al_6.00_(B_1.00_O_3_)_3_(Si_5.56_B_0.44_)_Σ=6_O_18_(OH)_4_; (OH) assumed from stoichiometry; B estimated by difference and charge balance
##PIN_ID=L00909
##ORIENTATION=Laser parallel to a* (1 0 0). Fiducial mark perpendicular to laser is parallel to -c [0 0 -1]
118.1340, 0.0000000E+00
119.3650, 63.35742
120.5960, 61.60449
121.8270, 64.24512
123.0580, 409.7422
124.2880, 633.3691
125.5190, 138.3916
126.7490, 9.323242
127.9790, 165.2852
129.2090, 362.6221
130.4390, 711.6367
131.6680, 795.8994
132.8980, 993.9111
134.1270, 1120.980
135.3560, 1239.439
136.5850, 1453.730
137.8140, 1772.706
139.0430, 2090.349
140.2710, 2310.067
141.5000, 2322.288
142.7280, 2478.828
143.9560, 2349.062
145.1840, 2460.222
146.4120, 2712.402
147.6390, 2905.475
148.8670, 2715.639
150.0940, 2579.688
151.3210, 2604.418
152.5490, 2452.828
153.7750, 1991.918
155.0020, 1605.685
156.2290, 1337.129
157.4550, 874.2334
158.6810, 602.9727
159.9080, 355.3301
161.1340, 155.2852
162.3590, 103.8184
163.5850, 59.90918
164.8110, 65.54102
166.0360, 95.30078
167.2610, 151.6357
168.4860, 147.4932
169.7110, 40.10352
170.9360, 32.86914
172.1610, 22.41016
173.3850, 190.5166
174.6100, 309.1846
175.8340, 221.4160
177.0580, 233.2061
178.2820, 149.5557
179.5050, 68.53711
180.7290, 229.0732
181.9520, 573.0527
183.1760, 1200.476
184.3990, 2280.344
185.6220, 3777.655
186.8450, 5324.410
188.0670, 6158.609
189.2900, 7911.250
190.5120, 10939.33
191.7340, 13909.88
192.9560, 16609.89
194.1780, 18861.26
195.4000, 20283.95
196.6220, 20085.83
197.8430, 19985.01
199.0640, 19667.48
200.2860, 17394.22
201.5070, 15266.23
202.7270, 13691.51
203.9480, 13105.02
205.1690, 13492.77
206.3890, 15195.72
207.6090, 16711.88
208.8290, 19356.25
210.0490, 21761.85
211.2690, 23982.69
212.4890, 26016.78
213.7080, 26701.06
214.9280, 26670.51
216.1470, 25497.97
217.3660, 23867.45
218.5850, 21673.13
219.8030, 19173.82
221.0220, 16879.45
222.2400, 15283.23
223.4590, 13878.32
224.6770, 12698.73
225.8950, 11839.45
227.1120, 11360.48
228.3300, 11185.82
229.5480, 11043.47
230.7650, 11185.43
231.9820, 11389.70
233.1990, 11815.27
234.4160, 12566.15
235.6330, 13486.34
236.8490, 14509.83
238.0660, 15356.63
239.2820, 16460.73
240.4980, 17611.13
241.7140, 18005.82
242.9300, 18525.82
244.1460, 18176.11
245.3610, 17719.70
246.5770, 16531.59
247.7920, 15043.77
249.0070, 13415.25
250.2220, 11483.02
251.4370, 9779.073
252.6510, 8313.418
253.8660, 6967.053
255.0800, 5823.975
256.2940, 4959.180
257.5080, 4754.670
258.7220, 4140.402
259.9360, 3674.102
261.1490, 3563.824
262.3630, 3041.432
263.5760, 2546.314
264.7890, 2719.490
266.0020, 2617.351
267.2150, 2612.430
268.4270, 2699.306
269.6400, 2869.221
270.8520, 2853.146
272.0640, 3131.422
273.2760, 3032.552
274.4880, 2886.933
275.7000, 2818.449
276.9120, 2510.316
278.1230, 2423.143
279.3340, 2083.880
280.5450, 2010.545
281.7560, 1865.210
282.9670, 1652.944
284.1780, 1543.787
285.3880, 1443.825
286.5980, 1376.777
287.8090, 1333.664
289.0190, 1344.089
290.2290, 1359.387
291.4380, 1312.838
292.6480, 1326.910
293.8570, 1254.792
295.0670, 991.8633
296.2760, 1056.324
297.4850, 876.1904
298.6930, 954.4609
299.9020, 786.0752
301.1110, 715.0430
302.3190, 756.3311
303.5270, 824.9219
304.7350, 824.8320
305.9430, 1047.365
307.1510, 1160.416
308.3580, 1334.074
309.5660, 1513.152
310.7730, 1979.555
311.9800, 2224.727
313.1870, 2457.488
314.3940, 2866.618
315.6010, 2937.846
316.8070, 3132.354
318.0130, 3112.586
319.2200, 3103.326
320.4260, 3046.664
321.6310, 3227.542
322.8370, 3270.700
324.0430, 3551.113
325.2480, 3966.047
326.4540, 4343.186
327.6590, 5128.528
328.8640, 5751.072
330.0680, 6182.817
331.2730, 6711.762
332.4780, 7348.412
333.6820, 8047.238
334.8860, 8632.768
336.0900, 9147.488
337.2940, 9545.590
338.4980, 10099.50
339.7010, 10120.79
340.9050, 10251.26
342.1080, 10425.92
343.3110, 10158.77
344.5140, 10278.80
345.7170, 10216.02
346.9200, 10402.41
348.1220, 10339.99
349.3240, 10872.75
350.5270, 11461.69
351.7290, 12167.80
352.9310, 13505.10
354.1320, 14648.57
355.3340, 16345.23
356.5350, 18606.06
357.7370, 21012.06
358.9380, 23647.25
360.1390, 26990.60
361.3400, 30503.14
362.5400, 33352.84
363.7410, 36702.73
364.9410, 39249.78
366.1410, 41495.02
367.3410, 42695.43
368.5410, 43322.01
369.7410, 42688.77
370.9400, 41902.69
372.1400, 39733.79
373.3390, 36884.07
374.5380, 33877.50
375.7370, 30512.11
376.9360, 27353.88
378.1350, 24129.81
379.3330, 21097.91
380.5310, 18751.18
381.7300, 16349.60
382.9280, 14590.19
384.1260, 13020.93
385.3230, 11741.84
386.5210, 10457.89
387.7180, 9640.111
388.9160, 8642.480
390.1130, 8244.002
391.3100, 7591.680
392.5060, 7161.506
393.7030, 6760.484
394.9000, 6468.609
396.0960, 6271.885
397.2920, 5940.307
398.4880, 5711.873
399.6840, 5788.584
400.8800, 5630.439
402.0750, 5705.438
403.2710, 5827.574
404.4660, 5345.852
405.6610, 5097.270
406.8560, 5024.824
408.0510, 4533.518
409.2450, 4389.328
410.4400, 3682.275
411.6340, 3383.357
412.8280, 3016.586
414.0220, 2614.957
415.2160, 2369.535
416.4100, 1930.539
417.6030, 1637.561
418.7970, 1363.711
419.9900, 1206.980
421.1830, 946.1309
422.3760, 848.5605
423.5690, 721.0547
424.7610, 624.4316
425.9540, 810.7402
427.1460, 669.5625
428.3380, 920.2539
429.5300, 955.6484
430.7220, 835.3418
431.9140, 863.8691
433.1050, 893.4395
434.2970, 1049.930
435.4880, 888.3164
436.6790, 959.2188
437.8700, 907.9160
439.0610, 824.6162
440.2510, 728.6533
441.4420, 719.3271
442.6320, 739.0508
443.8220, 1008.075
445.0120, 901.3691
446.2020, 1062.968
447.3910, 1234.582
448.5810, 1159.824
449.7700, 1340.799
450.9600, 1367.979
452.1490, 1463.891
453.3370, 1517.584
454.5260, 1400.635
455.7150, 1551.851
456.9030, 1556.240
458.0910, 1448.802
459.2800, 1462.479
460.4670, 1519.289
461.6550, 1735.223
462.8430, 1729.320
464.0300, 1914.611
465.2180, 2289.064
466.4050, 2371.682
467.5920, 2834.438
468.7790, 3104.299
469.9650, 3162.266
471.1520, 3487.336
472.3380, 3937.512
473.5250, 4245.789
474.7110, 4499.168
475.8970, 4763.648
477.0820, 5065.227
478.2680, 5254.906
479.4540, 5461.904
480.6390, 5665.558
481.8240, 5725.528
483.0090, 6006.594
484.1940, 6001.756
485.3780, 6264.009
486.5630, 6206.355
487.7470, 5998.795
488.9320, 6198.322
490.1160, 6092.941
491.3000, 6057.649
492.4830, 6173.445
493.6670, 5976.328
494.8500, 5969.296
496.0340, 5715.350
497.2170, 5818.488
498.4000, 5707.709
499.5820, 5411.014
500.7650, 5330.399
501.9480, 5176.865
503.1300, 4935.410
504.3120, 4600.034
505.4940, 4558.737
506.6760, 4174.516
507.8580, 3605.371
509.0390, 3677.301
510.2210, 3240.304
511.4020, 3114.380
512.5830, 2916.529
513.7640, 2485.748
514.9450, 2280.039
516.1250, 2122.398
517.3060, 2039.825
518.4860, 1842.320
519.6660, 1848.883
520.8460, 1974.509
522.0260, 1804.200
523.2060, 1937.956
524.3850, 2052.774
525.5650, 2053.654
526.7440, 2364.596
527.9230, 2376.597
529.1020, 2464.657
530.2810, 2693.775
531.4590, 2552.952
532.6380, 2629.186
533.8160, 2669.474
534.9940, 2603.817
536.1720, 2654.215
537.3500, 2767.665
538.5270, 2306.167
539.7050, 2333.721
540.8820, 1844.325
542.0590, 1855.979
543.2360, 1558.680
544.4130, 1394.430
545.5900, 1128.227
546.7660, 943.2578
547.9430, 922.9570
549.1190, 637.8896
550.2950, 511.8643
551.4710, 484.8828
552.6470, 157.9434
553.8220, 214.0459
554.9980, 202.1875
556.1730, 57.63184
557.3480, 60.45215
558.5230, 213.2764
559.6980, 264.1738
560.8730, 25.16992
562.0470, 196.1631
563.2220, 158.2305
564.3960, 94.35449
565.5700, 181.5127
566.7440, 302.7441
567.9170, 306.1084
569.0910, 519.6094
570.2640, 231.3535
571.4380, 43.80664
572.6110, 222.3320
573.7840, 143.9160
574.9570, 520.8418
576.1290, 411.0020
577.3020, 431.2910
578.4740, 268.7139
579.6460, 485.1807
580.8180, 548.7910
581.9900, 553.5957
583.1620, 327.5654
584.3330, 374.6006
585.5040, 248.7139
586.6760, 180.8848
587.8470, 262.0186
589.0180, 147.1660
590.1880, 293.2910
591.3590, 343.4648
592.5290, 72.72754
593.7000, 80.06445
594.8700, 155.9727
596.0400, 227.9922
597.2090, 236.1318
598.3790, 203.3389
599.5490, 441.6318
600.7180, 365.9775
601.8870, 660.3887
603.0560, 579.8926
604.2250, 591.4561
605.3940, 649.0449
606.5620, 705.6475
607.7300, 808.2686
608.8990, 951.9072
610.0670, 1123.561
611.2350, 1243.233
612.4020, 1366.940
613.5700, 1435.652
614.7370, 1745.370
615.9050, 1988.093
617.0720, 1996.812
618.2390, 2395.533
619.4060, 2440.252
620.5720, 2756.967
621.7390, 3064.676
622.9050, 3343.379
624.0710, 3532.074
625.2370, 3975.758
626.4030, 4247.432
627.5690, 4830.096
628.7340, 4752.744
629.9000, 4928.381
631.0650, 4909.002
632.2300, 4939.608
633.3950, 4862.199
634.5600, 4620.773
635.7240, 4497.329
636.8890, 4479.867
638.0530, 4417.387
639.2170, 4211.887
640.3810, 4290.367
641.5450, 4446.826
642.7080, 4764.263
643.8720, 5113.680
645.0350, 5600.072
646.1980, 5993.443
647.3610, 6560.788
648.5240, 7106.108
649.6870, 7782.402
650.8490, 8212.672
652.0120, 8731.914
653.1740, 9154.129
654.3360, 9768.316
655.4980, 10152.47
656.6600, 10662.61
657.8210, 11269.70
658.9830, 11795.77
660.1440, 12323.81
661.3050, 13314.82
662.4660, 14017.79
663.6270, 15026.73
664.7870, 16086.64
665.9480, 16729.51
667.1080, 17989.35
668.2680, 19161.16
669.4280, 20255.93
670.5880, 21481.66
671.7480, 22191.36
672.9070, 23536.01
674.0670, 23860.64
675.2260, 23788.22
676.3850, 23869.76
677.5440, 22979.27
678.7030, 21862.73
679.8610, 20359.16
681.0200, 18977.54
682.1780, 17190.88
683.3360, 16032.18
684.4940, 14802.44
685.6520, 13841.65
686.8090, 13179.82
687.9670, 13139.94
689.1240, 12905.03
690.2810, 13140.06
691.4380, 13414.05
692.5950, 13761.00
693.7520, 14423.90
694.9080, 15162.75
696.0650, 15995.49
697.2210, 16733.91
698.3770, 18055.43
699.5330, 18915.93
700.6880, 19781.41
701.8440, 20828.10
702.9990, 21698.61
704.1550, 22180.15
705.3100, 22343.90
706.4650, 22182.42
707.6190, 21783.37
708.7740, 20867.89
709.9290, 19613.73
711.0830, 18218.86
712.2370, 16665.47
713.3910, 15000.06
714.5450, 13763.89
715.6980, 12427.25
716.8520, 11098.31
718.0050, 10040.34
719.1580, 9077.097
720.3110, 8518.032
721.4640, 7744.085
722.6170, 7302.669
723.7700, 6985.338
724.9220, 6639.121
726.0740, 6480.662
727.2260, 6333.000
728.3780, 6276.458
729.5300, 6494.842
730.6810, 6288.177
731.8330, 6358.476
732.9840, 6340.621
734.1350, 6334.027
735.2860, 6398.277
736.4370, 6432.321
737.5880, 6582.293
738.7380, 6566.720
739.8880, 6816.212
741.0390, 6854.608
742.1890, 7342.104
743.3380, 7542.687
744.4880, 7821.268
745.6380, 8477.713
746.7870, 8940.957
747.9360, 9501.448
749.0850, 10018.41
750.2340, 10746.61
751.3830, 11530.18
752.5310, 12220.65
753.6800, 13051.54
754.8280, 13743.16
755.9760, 14708.41
757.1240, 15402.80
758.2720, 16250.03
759.4190, 16630.55
760.5670, 16108.13
761.7140, 16128.99
762.8610, 15551.99
764.0080, 15142.93
765.1550, 14253.70
766.3020, 13853.24
767.4480, 13290.71
768.5950, 12765.11
769.7410, 12406.44
770.8870, 11944.70
772.0330, 11837.89
773.1780, 11337.01
774.3240, 11190.07
775.4690, 11003.05
776.6140, 10742.97
777.7590, 10654.81
778.9040, 10336.59
780.0490, 10179.30
781.1940, 10176.93
782.3380, 9991.501
783.4820, 9819.001
784.6260, 10185.43
785.7700, 9821.793
786.9140, 9866.085
788.0580, 10200.31
789.2010, 10311.46
790.3450, 10275.55
791.4880, 10438.57
792.6310, 10402.52
793.7730, 10776.40
794.9160, 10777.21
796.0590, 10845.96
797.2010, 10743.63
798.3430, 10704.22
799.4850, 10623.78
800.6270, 10464.25
801.7690, 10319.66
802.9100, 10082.99
804.0520, 9939.261
805.1930, 9648.464
806.3340, 9452.597
807.4750, 9157.662
808.6160, 8980.664
809.7560, 8891.598
810.8970, 8690.463
812.0370, 8688.263
813.1770, 8841.995
814.3170, 8926.659
815.4570, 8960.258
816.5960, 8720.787
817.7360, 8565.252
818.8750, 8654.649
820.0140, 8402.975
821.1530, 7910.236
822.2920, 7875.432
823.4310, 7361.561
824.5690, 7097.621
825.7070, 6713.615
826.8460, 6217.543
827.9840, 5712.402
829.1220, 5175.196
830.2590, 4685.922
831.3970, 4190.584
832.5340, 3684.176
833.6710, 3345.721
834.8080, 2885.221
835.9450, 2561.790
837.0820, 2242.198
838.2190, 1980.636
839.3550, 1610.061
840.4910, 1400.466
841.6270, 1142.835
842.7630, 976.1914
843.8990, 652.5625
845.0350, 472.9502
846.1700, 301.8926
847.3060, 242.8389
848.4410, 89.19531
849.5760, 36.49219
850.7100, 49.70410
851.8450, 139.0791
852.9800, 172.9688
854.1140, 215.9746
855.2480, 258.1592
856.3820, 201.4912
857.5160, 339.9209
858.6500, 278.5195
859.7830, 327.3115
860.9170, 183.3105
862.0500, 422.4697
863.1830, 386.9316
864.3160, 318.6562
865.4480, 328.6348
866.5810, 282.8359
867.7130, 325.2217
868.8460, 318.8799
869.9780, 232.8379
871.1100, 280.0596
872.2410, 87.57031
873.3730, 152.2656
874.5050, 34.17969
875.6360, 85.25098
876.7670, 197.5039
877.8980, 73.99707
879.0290, 49.33789
880.1590, 172.5625
881.2900, 99.70020
882.4200, 105.7402
883.5500, 84.68457
884.6800, 52.53125
885.8100, 6.725586
886.9400, 225.8867
888.0690, 227.4189
889.1990, 244.8701
890.3280, 402.2441
891.4570, 388.5469
892.5860, 336.7832
893.7140, 357.9473
894.8430, 507.0430
895.9710, 475.0986
897.1000, 630.0967
898.2280, 576.0352
899.3560, 573.9141
900.4830, 594.7334
901.6110, 634.4971
902.7380, 785.2158
903.8660, 803.8857
904.9930, 853.5137
906.1200, 936.0879
907.2460, 1744.668
908.3730, 2133.216
909.5000, 1829.641
910.6260, 1886.238
911.7520, 1219.691
912.8780, 1255.141
914.0040, 1209.537
915.1290, 1204.937
916.2550, 1211.353
917.3800, 1219.741
918.5050, 1335.131
919.6300, 1551.493
920.7550, 1552.845
921.8800, 1608.867
923.0040, 1636.156
924.1290, 1585.758
925.2530, 1679.998
926.3770, 1671.247
927.5010, 1877.466
928.6250, 1855.646
929.7480, 1888.832
930.8720, 1997.020
931.9950, 1983.228
933.1180, 2151.438
934.2410, 2196.605
935.3640, 2370.750
936.4860, 2413.846
937.6090, 2508.947
938.7310, 2683.057
939.8530, 2805.147
940.9750, 2910.226
942.0970, 2924.286
943.2180, 3106.300
944.3400, 3016.270
945.4610, 3210.193
946.5820, 3456.070
947.7030, 3412.903
948.8240, 3710.690
949.9450, 4063.434
951.0650, 4090.130
952.1860, 4268.784
953.3060, 4325.395
954.4260, 4381.959
955.5460, 4717.479
956.6650, 4927.959
957.7850, 5103.395
958.9040, 5415.788
960.0230, 5490.138
961.1420, 5870.447
962.2610, 6005.713
963.3800, 6225.938
964.4990, 6469.121
965.6170, 6603.262
966.7350, 6746.365
967.8530, 6874.424
968.9710, 7060.445
970.0890, 7170.424
971.2070, 7198.361
972.3240, 7414.264
973.4410, 7213.121
974.5580, 7624.940
975.6750, 7635.721
976.7920, 7793.459
977.9090, 7575.158
979.0250, 7762.777
980.1410, 7414.599
981.2580, 7668.459
982.3740, 7232.781
983.4890, 7022.845
984.6050, 6933.945
985.7200, 6693.943
986.8360, 6297.568
987.9510, 6205.049
989.0660, 6158.812
990.1810, 5794.912
991.2950, 5444.557
992.4100, 5236.502
993.5240, 5261.293
994.6390, 4922.015
995.7530, 5182.773
996.8660, 4873.525
997.9800, 4935.517
999.0940, 4859.809
1000.207, 4688.496
1001.320, 4637.086
1002.433, 4682.046
1003.546, 4618.440
1004.659, 4726.279
1005.772, 4785.206
1006.884, 4984.273
1007.996, 5090.433
1009.108, 5284.770
1010.220, 5429.301
1011.332, 5703.740
1012.444, 5971.010
1013.555, 6253.127
1014.666, 6501.179
1015.777, 6777.293
1016.888, 7109.545
1017.999, 7584.477
1019.110, 7812.874
1020.220, 8050.957
1021.331, 8145.605
1022.441, 8592.284
1023.551, 8706.126
1024.661, 9039.868
1025.770, 9261.806
1026.880, 9713.292
1027.989, 10032.87
1029.098, 10287.31
1030.207, 10933.26
1031.316, 11233.01
1032.425, 11442.78
1033.533, 11852.57
1034.642, 12324.64
1035.750, 12729.68
1036.858, 13187.52
1037.966, 13697.00
1039.073, 13798.08
1040.181, 14396.59
1041.288, 14993.24
1042.396, 15621.39
1043.503, 15793.35
1044.610, 16345.36
1045.716, 16567.79
1046.823, 17151.99
1047.929, 17511.74
1049.036, 18003.57
1050.142, 18378.36
1051.248, 18549.18
1052.353, 18801.86
1053.459, 18942.43
1054.564, 18425.89
1055.670, 17879.93
1056.775, 17721.49
1057.880, 17028.37
1058.985, 16619.05
1060.089, 16986.78
1061.194, 16172.79
1062.298, 16257.24
1063.402, 16089.39
1064.506, 16002.17
1065.610, 15921.15
1066.713, 15708.38
1067.817, 15894.29
1068.920, 15548.38
1070.023, 15388.34
1071.126, 14977.72
1072.229, 14887.13
1073.332, 14385.19
1074.435, 14230.89
1075.537, 13845.83
1076.639, 13302.47
1077.741, 12952.10
1078.843, 12282.72
1079.945, 11870.34
1081.046, 11434.95
1082.148, 10701.55
1083.249, 10214.14
1084.350, 9895.729
1085.451, 9502.305
1086.551, 8821.875
1087.652, 8210.438
1088.752, 7933.998
1089.853, 7815.549
1090.953, 7285.090
1092.053, 6972.627
1093.152, 6513.160
1094.252, 6376.686
1095.351, 6023.205
1096.451, 5878.719
1097.550, 5733.227
1098.649, 5518.729
1099.748, 5367.154
1100.846, 4995.717
1101.945, 5017.203
1103.043, 4964.686
1104.141, 4814.162
1105.239, 4916.633
1106.337, 4718.100
1107.434, 4579.562
1108.532, 4461.021
1109.629, 4437.475
1110.726, 4356.926
1111.823, 4336.490
1112.920, 4343.816
1114.017, 4327.270
1115.113, 4404.727
1116.210, 4428.199
1117.306, 4273.725
1118.402, 4451.270
1119.498, 4483.893
1120.593, 4358.594
1121.689, 4157.393
1122.784, 4303.297
1123.879, 4009.293
1124.974, 3902.414
1126.069, 3616.646
1127.164, 3432.004
1128.259, 3174.443
1129.353, 3037.037
1130.447, 2842.766
1131.541, 2590.615
1132.635, 2483.590
1133.729, 2373.676
1134.822, 2208.883
1135.916, 1962.209
1137.009, 1879.635
1138.102, 1726.168
1139.195, 1434.762
1140.288, 1272.426
1141.380, 885.1387
1142.473, 814.9043
1143.565, 608.7578
1144.657, 468.6367
1145.749, 532.5918
1146.841, 375.5273
1147.932, 245.4785
1149.024, 397.4434
1150.115, 296.4219
1151.206, 327.4199
1152.297, 263.4492
1153.388, 359.4844
1154.479, 328.5273
1155.569, 176.5742
1156.659, 28.62109
1157.750, 176.6680
1158.839, 127.7168
1159.929, 102.2324
1161.019, 13.23438
1162.108, 155.7480
1163.198, 39.72852
1164.287, 37.70508
1165.376, 6.671875
1166.465, 41.36914
1167.553, 13.44141
1168.642, 47.53125
1169.730, 38.34180
1170.818, 221.7910
1171.906, 79.05273
1172.994, 133.3691
1174.082, 73.23242
1175.170, 128.1719
1176.257, 133.6602
1177.344, 19.77344
1178.431, 183.8047
1179.518, 247.4941
1180.605, 70.33398
1181.691, 181.2266
1182.778, 66.23438
1183.864, 127.2969
1184.950, 28.44727
1186.036, 148.6348
1187.122, 91.92188
1188.207, 101.7207
1189.292, 187.6328
1190.378, 44.10938
1191.463, 15.63477
1192.548, 165.1895
1193.632, 166.8184
1194.717, 225.5605
1195.801, 155.4258
1196.886, 25.62500
1197.970, 57.33594
1199.054, 41.64453
1200.137, 152.3730
1201.221, 174.4883
1202.305, 62.72461
1203.388, 88.62891
1204.471, 66.35742
1205.554, 69.24609
1206.637, 140.8613
1207.719, 212.4707
1208.802, 298.0215
1209.884, 259.6758
1210.966, 363.2734
1212.048, 308.8652
1213.130, 188.4512
1214.212, 506.0332
1215.293, 544.6094
1216.374, 736.1797
1217.456, 705.7441
1218.536, 666.3008
1219.617, 828.8516
1220.698, 785.3984
1221.778, 728.9395
1222.859, 650.4707
1223.939, 963.9980
1225.019, 1020.520
1226.099, 1224.033
1227.178, 1089.543
1228.258, 1409.047
1229.337, 1764.543
1230.417, 1177.035
1231.496, 1200.520
1232.574, 1284.002
1233.653, 1325.473
1234.732, 1203.943
1235.810, 1194.406
1236.888, 1340.861
1237.966, 1238.311
1239.044, 1365.756
1240.122, 1262.197
1241.199, 1137.629
1242.277, 1245.594
1243.354, 1323.477
1244.431, 1350.895
1245.508, 1167.305
1246.585, 1211.709
1247.661, 1072.109
1248.738, 1100.502
1249.814, 1221.887
1250.890, 1066.266
1251.966, 1156.639
1253.042, 1163.002
1254.117, 1219.357
1255.193, 1068.707
1256.268, 1111.045
1257.343, 998.3711
1258.418, 1021.691
1259.493, 1100.000
1260.567, 1192.291
1261.642, 1093.574
1262.716, 1115.844
1263.790, 1026.102
1264.864, 1171.340
1265.938, 1241.566
1267.011, 943.7734
1268.085, 1064.969
1269.158, 1127.145
1270.231, 1057.303
1271.304, 1049.443
1272.377, 913.5664
1273.450, 1017.672
1274.522, 890.7578
1275.594, 977.8262
1276.666, 816.8750
1277.738, 881.9082
1278.810, 895.9199
1279.882, 835.9121
1280.953, 902.8906
1282.025, 899.8457
1283.096, 765.7832
1284.167, 965.6992
1285.238, 961.5977
1286.308, 897.2344
