##NAMES=Dravite
##RRUFFID=R040088
##IDEAL CHEMISTRY=NaMg_3_Al_6_(Si_6_O_18_)(BO_3_)_3_(OH)_3_OH
##LOCALITY=Yinnietharra Station, Pilbara, Western Australia, Australia
##OWNER=RRUFF
##SOURCE=University of Arizona Mineral Museum
##DESCRIPTION=Brown short prismatic crystal
##STATUS=The identification of this mineral has been confirmed by X-ray diffraction and chemical analysis
##URL=rruff.info/R040088
##MEASURED CHEMISTRY=(Na_0.88_Ca_0.06_[box]_0.06_)(Mg_0.88_Al_0.10_Ti_0.04_Fe_0.02_)_3_Al_6.00_(B_1_O_3_)_3_Si_6.00_O_18_((OH)_0.98_F_0.02_)_4_
##PIN_ID=L00133
##ORIENTATION=Laser parallel to a [1 0 0]. Fiducial mark perpendicular to laser is parallel to c* (0 0 1)
174.605, 0.000
175.989, 88.811
177.373, 5.016
178.757, 48.783
180.140, 12.903
181.524, 125.271
182.907, 67.290
184.289, 180.125
185.672, 279.966
187.054, 443.677
188.436, 404.444
189.818, 453.969
191.200, 550.183
192.581, 569.148
193.963, 627.435
195.343, 680.866
196.724, 681.678
198.105, 769.382
199.485, 943.786
200.865, 1124.312
202.245, 1448.904
203.624, 1802.765
205.004, 2124.979
206.383, 2564.323
207.762, 3008.849
209.140, 3259.818
210.519, 3653.333
211.897, 3834.313
213.275, 4132.321
214.653, 4051.439
216.030, 4030.740
217.408, 3691.698
218.785, 3460.790
220.162, 3108.204
221.538, 2764.104
222.915, 2508.631
224.291, 2303.918
225.667, 2114.229
227.042, 2044.866
228.418, 2033.159
229.793, 2001.945
231.168, 2147.114
232.543, 2160.539
233.917, 2409.507
235.292, 2354.898
236.666, 2674.601
238.040, 2691.375
239.413, 2815.733
240.787, 2915.405
242.160, 3145.005
243.533, 2911.431
244.906, 3168.798
246.278, 2339.232
247.651, 2072.209
249.023, 1750.149
250.395, 1589.368
251.766, 1190.862
253.138, 1116.628
254.509, 934.654
255.880, 892.928
257.250, 843.434
258.621, 794.157
259.991, 1010.080
261.361, 921.871
262.731, 893.125
264.101, 931.907
265.470, 721.489
266.839, 708.199
268.208, 620.024
269.577, 711.952
270.945, 546.971
272.313, 447.074
273.681, 353.251
275.049, 309.278
276.417, 300.795
277.784, 306.145
279.151, 342.533
280.518, 304.248
281.885, 267.388
283.251, 255.811
284.617, 187.204
285.983, 174.562
287.349, 104.893
288.715, 88.197
290.080, 78.478
291.445, 171.738
292.810, 155.982
294.174, 214.211
295.539, 209.429
296.903, 249.637
298.267, 147.828
299.631, 49.982
300.994, 44.897
302.357, 92.803
303.720, 172.754
305.083, 193.788
306.446, 270.949
307.808, 289.182
309.170, 217.443
310.532, 222.710
311.894, 206.088
313.256, 178.722
314.617, 152.702
315.978, 6.892
317.339, 10.144
318.699, 143.110
320.060, 110.998
321.420, 239.908
322.780, 423.487
324.139, 541.400
325.499, 718.483
326.858, 721.737
328.217, 1081.879
329.576, 1119.294
330.934, 1344.737
332.293, 1642.183
333.651, 1750.610
335.009, 1968.003
336.367, 2098.350
337.724, 2264.643
339.081, 2394.872
340.438, 2463.024
341.795, 2563.087
343.152, 2416.055
344.508, 2453.926
345.864, 2294.700
347.220, 2494.379
348.576, 2441.963
349.931, 2482.449
351.286, 2733.832
352.641, 2882.111
353.996, 3180.284
355.351, 3468.327
356.705, 3816.209
358.059, 4413.940
359.413, 4851.520
360.767, 5838.979
362.120, 6656.333
363.473, 7753.565
364.826, 8700.692
366.179, 9417.720
367.532, 10324.653
368.884, 10271.500
370.236, 10028.266
371.588, 9244.941
372.940, 8411.508
374.291, 7517.984
375.643, 6544.366
376.994, 6000.633
378.344, 5276.740
379.695, 4932.650
381.045, 4528.456
382.395, 4044.196
383.745, 3989.870
385.095, 3635.310
386.444, 3420.339
387.794, 3234.841
389.143, 3018.815
390.491, 2962.349
391.840, 2805.529
393.188, 2628.616
394.537, 2451.722
395.884, 2321.875
397.232, 2198.074
398.580, 2027.317
399.927, 1953.604
401.274, 1656.935
402.621, 1658.307
403.967, 1425.722
405.314, 1324.176
406.660, 1368.670
408.006, 1206.205
409.352, 1084.779
410.697, 1035.391
412.042, 972.042
413.387, 932.731
414.732, 812.460
416.077, 815.226
417.421, 735.031
418.765, 729.564
420.109, 709.479
421.453, 632.920
422.797, 745.379
424.140, 552.049
425.483, 587.310
426.826, 635.227
428.168, 542.700
429.511, 787.115
430.853, 593.089
432.195, 751.899
433.537, 635.467
434.878, 676.553
436.220, 715.421
437.561, 623.919
438.902, 651.154
440.242, 512.091
441.583, 587.102
442.923, 630.950
444.263, 586.135
445.603, 678.315
446.942, 533.450
448.282, 545.324
449.621, 496.465
450.960, 521.336
452.298, 428.110
453.637, 314.498
454.975, 363.894
456.313, 344.953
457.651, 251.367
458.989, 204.427
460.326, 164.891
461.663, 356.616
463.000, 266.735
464.337, 329.632
465.673, 446.924
467.010, 335.635
468.346, 488.389
469.682, 512.185
471.017, 449.021
472.353, 586.897
473.688, 677.816
475.023, 661.774
476.358, 644.774
477.692, 765.814
479.026, 905.896
480.361, 884.021
481.694, 1007.187
483.028, 1081.396
484.362, 1254.650
485.695, 1371.949
487.028, 1539.293
488.361, 1498.682
489.693, 1586.119
491.026, 1649.604
492.358, 1639.137
493.690, 1728.720
495.021, 1802.353
496.353, 1677.036
497.684, 1845.771
499.015, 1632.561
500.346, 1809.404
501.677, 1601.279
503.007, 1521.819
504.337, 1501.602
505.667, 1291.257
506.997, 1300.381
508.327, 1028.934
509.656, 893.177
510.985, 841.480
512.314, 722.845
513.643, 649.270
514.971, 621.759
516.300, 544.311
517.628, 582.584
518.956, 615.860
520.283, 715.353
521.611, 775.165
522.938, 941.045
524.265, 1054.994
525.591, 1139.013
526.918, 1445.102
528.244, 1449.261
529.570, 1708.494
530.896, 1890.801
532.222, 1690.185
533.547, 1877.649
534.873, 1786.197
536.198, 1924.829
537.523, 1773.546
538.847, 1555.348
540.171, 1609.236
541.496, 1328.211
542.820, 1344.270
544.143, 1114.415
545.467, 1119.646
546.790, 1112.963
548.113, 895.365
549.436, 864.854
550.759, 723.428
552.081, 683.088
553.404, 597.834
554.726, 613.667
556.047, 657.585
557.369, 566.590
558.690, 553.680
560.011, 579.856
561.332, 460.119
562.653, 553.470
563.974, 458.911
565.294, 424.446
566.614, 531.076
567.934, 370.798
569.254, 509.610
570.573, 365.516
571.892, 313.515
573.211, 379.609
574.530, 288.808
575.849, 338.112
577.167, 178.536
578.485, 197.095
579.803, 96.811
581.121, 28.683
582.438, 164.729
583.756, 72.966
585.073, 79.373
586.390, 60.027
587.706, 1.267
589.023, 43.325
590.339, 130.152
591.655, 18.779
592.971, 145.122
594.287, 219.216
595.602, 64.925
596.917, 180.620
598.232, 64.939
599.547, 94.002
600.861, 107.809
602.176, 13.374
603.490, 138.683
604.804, 112.164
606.118, 58.170
607.431, 52.341
608.744, 100.629
610.057, 117.058
611.370, 314.606
612.683, 206.253
613.995, 203.009
615.307, 310.866
616.619, 158.815
617.931, 511.853
619.243, 275.978
620.554, 436.196
621.865, 539.495
623.176, 555.879
624.487, 691.343
625.797, 757.882
627.108, 887.500
628.418, 1113.196
629.728, 1025.967
631.037, 1140.812
632.347, 1128.732
633.656, 1037.726
634.965, 891.792
636.274, 670.933
637.582, 444.146
638.891, 181.432
640.199, 112.789
641.507, 17.217
642.815, 127.283
644.122, 59.756
645.430, 170.176
646.737, 141.587
648.044, 18.024
649.350, 52.297
650.657, 153.434
651.963, 215.232
653.269, 303.097
654.575, 361.029
655.881, 499.635
657.186, 807.091
658.491, 804.221
659.796, 1084.414
661.101, 1289.671
662.406, 1238.992
663.710, 1557.376
665.014, 1643.821
666.318, 1578.330
667.622, 1663.898
668.926, 1620.528
670.229, 1669.218
671.532, 1518.967
672.835, 1532.776
674.138, 1716.643
675.440, 1386.567
676.743, 1678.548
678.045, 1419.585
679.347, 1432.679
680.648, 1474.826
681.950, 1433.028
683.251, 1555.284
684.552, 1546.592
685.853, 1685.954
687.153, 1834.366
688.454, 1894.830
689.754, 2218.343
691.054, 2350.907
692.354, 2978.519
693.653, 3169.179
694.953, 3619.886
696.252, 4250.639
697.551, 4601.440
698.849, 5342.285
700.148, 5853.175
701.446, 5874.108
702.744, 6545.085
704.042, 5916.104
705.340, 5807.166
706.637, 5478.268
707.935, 4599.408
709.232, 4280.589
710.529, 3531.809
711.825, 3123.065
713.122, 2804.360
714.418, 2320.006
715.714, 2336.869
717.010, 2007.376
718.305, 1789.852
719.601, 1863.880
720.896, 1808.251
722.191, 1836.395
723.486, 1762.709
724.780, 1814.579
726.075, 1916.410
727.369, 1908.104
728.663, 2069.637
729.956, 2135.510
731.250, 2361.426
732.543, 2416.909
733.836, 2478.387
735.129, 2936.762
736.422, 3113.815
737.714, 3257.770
739.007, 3523.979
740.299, 3792.380
741.591, 4250.035
742.882, 4680.320
744.174, 4834.277
745.465, 5704.856
746.756, 6132.385
748.047, 7049.785
749.337, 7893.314
750.628, 8712.678
751.918, 9847.824
753.208, 10795.211
754.498, 11891.221
755.787, 12395.159
757.077, 12968.724
758.366, 12981.936
759.655, 12526.628
760.944, 12198.652
762.232, 11501.605
763.520, 10663.431
764.809, 10424.789
766.096, 9476.748
767.384, 9458.322
768.672, 9349.591
769.959, 9230.827
771.246, 9572.034
772.533, 9473.206
773.820, 9824.344
775.106, 10375.450
776.392, 10446.521
777.679, 11368.066
778.964, 12100.755
780.250, 13129.516
781.536, 14110.444
782.821, 15097.351
784.106, 16246.614
785.391, 16211.652
786.675, 17217.838
787.960, 17418.564
789.244, 17287.887
790.528, 17188.537
791.812, 16549.146
793.095, 16099.718
794.379, 15480.248
795.662, 14570.732
796.945, 14231.173
798.228, 13301.570
799.510, 12621.924
800.793, 12282.232
802.075, 11822.497
803.357, 12152.715
804.639, 12072.886
805.920, 12463.011
807.201, 13663.088
808.483, 13573.120
809.764, 14123.104
811.044, 14843.035
812.325, 14802.920
813.605, 15562.755
814.885, 14812.541
816.165, 14952.275
817.445, 14061.957
818.724, 12991.588
820.004, 12281.168
821.283, 11090.692
822.562, 9720.165
823.840, 8939.585
825.119, 7588.945
826.397, 6938.254
827.675, 6027.506
828.953, 5596.701
830.231, 5035.840
831.508, 4784.921
832.785, 4493.945
834.062, 4102.911
835.339, 3859.817
836.616, 3756.663
837.892, 3326.450
839.169, 3107.175
840.445, 2841.840
841.720, 2383.443
842.996, 2207.984
844.272, 1712.463
845.547, 1454.878
846.822, 1280.230
848.097, 853.518
849.371, 783.742
850.646, 519.900
851.920, 347.994
853.194, 314.017
854.468, 213.969
855.741, 111.843
857.015, 7.616
858.288, 38.758
859.561, 91.353
860.834, 164.077
862.106, 99.105
863.378, 183.354
864.651, 99.879
865.923, 63.619
867.194, 165.557
868.466, 105.757
869.737, 179.166
871.008, 177.848
872.279, 147.785
873.550, 151.942
874.821, 132.360
876.091, 103.997
877.361, 148.855
878.631, 144.958
879.901, 144.304
881.170, 108.902
882.440, 1.713
883.709, 101.689
884.978, 57.106
886.247, 45.229
887.515, 14.243
888.783, 126.562
890.052, 54.772
891.320, 93.849
892.587, 180.809
893.855, 201.670
895.122, 225.439
896.389, 140.118
897.656, 387.690
898.923, 241.185
900.189, 419.591
901.456, 522.921
902.722, 379.179
903.988, 456.359
905.253, 550.464
906.519, 544.498
907.784, 737.459
909.049, 636.351
910.314, 735.170
911.579, 712.919
912.843, 725.597
914.108, 920.208
915.372, 853.748
916.636, 869.227
917.899, 1019.636
919.163, 965.979
920.426, 1084.272
921.689, 1083.506
922.952, 1184.699
924.215, 1168.869
925.477, 1091.970
926.740, 1322.024
928.002, 1275.068
929.264, 1226.043
930.525, 1346.962
931.787, 1341.824
933.048, 1509.631
934.309, 1531.411
935.570, 1498.144
936.831, 1714.815
938.091, 1537.460
939.352, 1701.042
940.612, 1869.607
941.872, 1841.133
943.131, 1908.598
944.391, 2070.049
945.650, 1924.454
946.909, 2163.815
948.168, 2119.146
949.427, 2164.417
950.685, 2333.643
951.944, 2178.804
953.202, 2466.901
954.460, 2375.933
955.717, 2293.900
956.975, 2397.804
958.232, 2453.643
959.489, 2563.419
960.746, 2637.132
962.003, 2441.782
963.259, 2790.369
964.516, 2698.895
965.772, 2683.356
967.028, 2831.757
968.283, 2713.095
969.539, 2873.373
970.794, 2777.590
972.049, 3001.746
973.304, 2960.841
974.559, 2802.877
975.813, 3050.853
977.068, 2906.769
978.322, 2963.625
979.576, 3118.423
980.830, 2962.163
982.083, 3063.843
983.336, 3013.466
984.589, 3161.032
985.842, 3111.540
987.095, 2903.992
988.348, 3068.071
989.600, 2909.912
990.852, 2704.089
992.104, 2843.276
993.356, 2789.887
994.607, 2670.132
995.859, 2810.582
997.110, 2612.837
998.361, 2655.201
999.612, 2907.202
1000.862, 2578.616
1002.112, 2602.465
1003.363, 2436.115
1004.613, 2515.854
1005.862, 2490.395
1007.112, 2431.958
1008.361, 2449.556
1009.610, 2470.807
1010.859, 2408.373
1012.108, 2554.874
1013.357, 2482.206
1014.605, 2576.776
1015.853, 2576.365
1017.101, 2681.404
1018.349, 2793.905
1019.597, 2885.421
1020.844, 2836.031
1022.091, 3063.476
1023.338, 2950.052
1024.585, 3210.808
1025.832, 3278.290
1027.078, 3330.110
1028.324, 3607.966
1029.570, 3499.157
1030.816, 3694.663
1032.062, 3967.653
1033.307, 3783.271
1034.552, 4217.925
1035.797, 4233.663
1037.042, 4379.832
1038.287, 4755.358
1039.531, 4791.231
1040.776, 4937.370
1042.020, 5083.500
1043.264, 5119.619
1044.507, 5595.730
1045.751, 5671.835
1046.994, 5677.930
1048.237, 5984.506
1049.480, 5910.587
1050.723, 6008.290
1051.965, 6044.358
1053.207, 6140.678
1054.449, 6246.835
1055.691, 6092.887
1056.933, 6268.935
1058.174, 6259.001
1059.416, 6155.040
1060.657, 6513.917
1061.898, 6661.726
1063.139, 6667.752
1064.379, 7045.961
1065.619, 6924.046
1066.860, 7202.399
1068.100, 7126.613
1069.339, 6966.667
1070.579, 7163.477
1071.818, 6817.678
1073.057, 6654.331
1074.296, 6570.409
1075.535, 5841.948
1076.774, 5778.614
1078.012, 5245.386
1079.250, 4895.143
1080.488, 4545.360
1081.726, 4078.440
1082.964, 3845.079
1084.201, 3615.039
1085.438, 3230.008
1086.675, 3087.974
1087.912, 2759.938
1089.149, 2715.900
1090.385, 2572.859
1091.621, 2128.818
1092.857, 2245.777
1094.093, 2020.734
1095.329, 1835.692
1096.564, 1840.649
1097.800, 1793.608
1099.035, 1675.567
1100.270, 1644.527
1101.504, 1519.490
1102.739, 1500.453
1103.973, 1367.419
1105.207, 1370.389
1106.441, 1299.456
1107.675, 1149.335
1108.908, 1208.401
1110.142, 1100.298
1111.375, 1072.284
1112.608, 1009.275
1113.841, 927.272
1115.073, 839.274
1116.305, 952.280
1117.538, 732.293
1118.770, 732.312
1120.001, 758.337
1121.233, 558.369
1122.464, 596.409
1123.696, 454.460
1124.927, 446.523
1126.157, 528.611
1127.388, 500.748
1128.618, 509.946
1129.849, 450.227
1131.079, 389.612
1132.309, 398.083
1133.538, 474.667
1134.768, 281.335
1135.997, 362.079
1137.226, 234.930
1138.455, 303.871
1139.684, 240.924
1140.912, 172.091
1142.140, 184.361
1143.369, 184.736
1144.596, 162.211
1145.824, 80.776
1147.052, 99.446
1148.279, 66.220
1149.506, 87.098
1150.733, 51.067
1151.960, 280.095
1153.187, 360.213
1154.413, 259.373
1155.639, 199.604
1156.865, 207.887
1158.091, 158.202
1159.317, 300.558
1160.542, 164.950
1161.767, 156.368
1162.992, 167.809
1164.217, 73.272
1165.442, 256.765
1166.666, 121.273
1167.891, 181.801
1169.115, 138.344
1170.338, 78.899
1171.562, 169.471
1172.786, 113.058
1174.009, 131.659
1175.232, 150.708
1176.455, 104.901
1177.678, 113.550
1178.900, 113.208
1180.123, 17.104
1181.345, 119.592
1182.567, 42.679
1183.789, 34.045
1185.010, 8.214
1186.232, 1.464
1187.453, 47.299
1188.674, 170.087
1189.895, 80.089
1191.115, 36.720
1192.336, 59.456
1193.556, 189.628
1194.776, 50.112
1195.996, 46.132
1197.216, 43.374
1198.435, 47.623
1199.655, 134.884
1200.874, 74.197
1202.093, 16.534
1203.311, 132.858
1204.530, 12.250
1205.748, 158.633
1206.966, 93.101
1208.184, 11.606
1209.402, 167.105
1210.620, 65.695
1211.837, 72.309
1213.054, 112.952
1214.271, 9.651
1215.488, 67.347
1216.705, 24.929
1217.921, 69.224
1219.138, 61.531
1220.354, 89.854
1221.570, 114.190
1222.785, 150.539
1224.001, 172.901
1225.216, 201.278
1226.431, 307.667
1227.646, 389.071
1228.861, 238.489
1230.075, 364.918
1231.290, 465.358
1232.504, 278.809
1233.718, 387.269
1234.932, 418.741
1236.145, 399.223
1237.359, 476.713
1238.572, 322.211
1239.785, 416.718
1240.998, 443.234
1242.211, 409.759
1243.423, 495.291
1244.635, 364.830
1245.848, 466.375
1247.059, 527.927
1248.271, 478.484
1249.483, 495.046
1250.694, 563.612
1251.905, 542.184
1253.116, 665.758
1254.327, 425.335
1255.538, 558.917
1256.748, 483.500
1257.958, 549.089
1259.168, 552.680
1260.378, 584.270
1261.588, 550.860
1262.797, 519.450
1264.006, 565.036
1265.215, 538.619
1266.424, 665.197
1267.633, 468.783
1268.842, 548.377
1270.050, 591.979
1271.258, 499.587
1272.466, 603.201
1273.674, 479.821
1274.881, 466.445
1276.089, 501.074
1277.296, 539.706
1278.503, 395.341
1279.710, 526.979
1280.916, 397.619
1282.123, 457.260
1283.329, 463.020
1284.535, 388.663
1285.741, 480.306
1286.947, 475.948
1288.152, 395.590
1289.358, 487.230
1290.563, 304.222
1291.768, 442.858
1292.973, 339.492
1294.177, 361.469
1295.382, 338.098
1296.586, 406.722
1297.790, 178.344
1298.994, 297.963
1300.197, 177.579
1301.401, 258.354
1302.604, 237.966
1303.807, 187.162
1305.010, 175.245
1306.213, 172.253
1307.415, 155.756
1308.618, 155.428
1309.820, 169.270
1311.022, 153.807
1312.223, 186.824
1313.425, 182.174
1314.626, 179.573
1315.828, 145.229
1317.029, 207.424
1318.230, 159.622
1319.430, 181.050
1320.631, 153.640
1321.831, 160.695
1323.031, 163.124
1324.231, 183.288
1325.431, 196.079
1326.630, 225.695
1327.830, 184.167
1329.029, 242.628
1330.228, 163.836
1331.427, 321.486
1332.625, 198.519
1333.824, 282.436
1335.022, 279.284
1336.220, 256.177
1337.418, 184.774
1338.616, 297.407
1339.813, 211.435
1341.010, 225.107
1342.208, 168.050
1343.404, 249.792
1344.601, 335.019
1345.798, 189.736
1346.994, 247.671
1348.190, 227.327
1349.386, 187.402
1350.582, 215.142
1351.778, 238.825
1352.973, 217.553
1354.169, 204.439
1355.364, 206.812
1356.559, 272.146
1357.753, 196.009
1358.948, 263.327
1360.142, 266.663
1361.336, 220.769
1362.530, 312.840
1363.724, 311.245
1364.918, 330.127
1366.111, 232.974
1367.305, 273.431
1368.498, 248.416
1369.690, 298.295
1370.883, 275.136
1372.076, 306.629
1373.268, 261.149
1374.460, 397.497
1375.652, 349.766
1376.844, 329.923
1378.035, 288.004
1379.227, 293.013
1380.418, 297.028
1381.609, 294.270
1382.800, 343.634
1383.991, 331.307
1385.181, 366.896
1386.371, 418.091
1387.562, 320.629
1388.751, 329.981
1389.941, 436.254
1391.131, 423.354
1392.320, 305.325
1393.509, 378.161
1394.698, 405.883
1395.887, 319.467
1397.076, 401.042
1398.264, 387.605
1399.453, 333.157
1400.641, 278.698
1401.829, 300.225
1403.016, 317.740
1404.204, 288.240
1405.391, 269.727
1406.578, 301.200
1407.765, 202.656
1408.952, 158.094
1410.139, 219.515
1411.325, 89.922
1412.512, 236.312
1413.698, 127.682
1414.884, 136.024
1416.069, 204.344
1417.255, 247.602
1418.440, 45.801
1419.625, 179.980
1420.810, 157.119
1421.995, 50.169
1423.180, 180.187
1424.364, 150.277
1425.548, 250.345
1426.732, 213.294
1427.916, 194.618
1429.100, 95.850
1430.284, 145.224
1431.467, 27.685
1432.650, 41.277
1433.833, 50.989
1435.016, 73.746
1436.199, 133.481
1437.381, 32.800
1438.563, 55.905
1439.745, 39.405
1440.927, 67.267
1442.109, 26.938
1443.290, 84.610
1444.472, 37.289
1445.653, 10.017
1446.834, 41.310
1448.015, 14.580
1449.195, 41.179
1450.376, 33.023
1451.556, 17.180
1452.736, 68.717
1453.916, 9.324
1455.096, 36.693
1456.275, 128.791
1457.454, 20.018
1458.634, 34.284
1459.813, 4.623
1460.991, 81.976
1462.170, 50.343
1463.348, 107.727
1464.527, 26.132
1465.705, 71.558
1466.883, 151.737
1468.060, 66.213
1469.238, 93.722
1470.415, 154.398
1471.592, 147.972
1472.769, 190.705
1473.946, 50.370
1475.123, 228.092
1476.299, 123.417
1477.476, 196.190
1478.652, 210.893
1479.828, 183.855
1481.003, 127.242
1482.179, 220.493
1483.354, 90.061
1484.529, 96.471
1485.704, 254.167
1486.879, 128.296
1488.054, 173.692
1489.228, 252.753
1490.403, 56.896
1491.577, 152.232
1492.751, 126.663
1493.924, 154.631
1495.098, 176.785
1496.271, 64.922
1497.444, 58.047
1498.618, 149.491
1499.790, 80.454
1500.963, 121.082
1502.135, 153.901
1503.308, 84.019
1504.480, 124.209
1505.652, 203.720
1506.824, 55.798
1507.995, 165.024
1509.167, 50.505
1510.338, 99.760
1511.509, 132.254
1512.680, 4.898
1513.850, 18.216
1515.021, 80.358
1516.191, 87.909
1517.361, 84.833
1518.531, 69.436
1519.701, 41.999
1520.871, 0.000
##END=



