##NAMES=Dravite
##RRUFFID=R040088
##IDEAL CHEMISTRY=NaMg_3_Al_6_(Si_6_O_18_)(BO_3_)_3_(OH)_3_OH
##LOCALITY=Yinnietharra Station, Pilbara, Western Australia, Australia
##OWNER=RRUFF
##SOURCE=University of Arizona Mineral Museum
##DESCRIPTION=Brown short prismatic crystal
##STATUS=The identification of this mineral has been confirmed by X-ray diffraction and chemical analysis
##URL=rruff.info/R040088
##MEASURED CHEMISTRY=(Na_0.88_Ca_0.06_[box]_0.06_)(Mg_0.88_Al_0.10_Ti_0.04_Fe_0.02_)_3_Al_6.00_(B_1_O_3_)_3_Si_6.00_O_18_((OH)_0.98_F_0.02_)_4_
##PIN_ID=M00003
##ORIENTATION=Laser parallel to c* (0 0 1). Fiducial mark perpendicular to laser is parallel to a [1 0 0]
184.183, 0.000
185.562, 51.058
186.940, 6.770
188.319, 190.021
189.698, 133.688
191.076, 150.761
192.454, 236.455
193.831, 141.231
195.209, 220.473
196.586, 201.851
197.963, 155.687
199.340, 237.973
200.717, 289.144
202.093, 519.074
203.470, 654.170
204.846, 786.464
206.221, 947.507
207.597, 1459.174
208.972, 1662.461
210.347, 2036.032
211.722, 2432.220
213.097, 2698.630
214.472, 3203.684
215.846, 3483.715
217.220, 3501.296
218.594, 3771.701
219.967, 3619.741
221.341, 3439.032
222.714, 3048.130
224.087, 2793.008
225.460, 2563.477
226.832, 2478.620
228.204, 2087.283
229.577, 1911.549
230.948, 1943.827
232.320, 1905.606
233.692, 1960.985
235.063, 1905.210
236.434, 2062.991
237.805, 2186.495
239.175, 2364.149
240.545, 2536.569
241.916, 2628.017
243.286, 2705.361
244.655, 2545.926
246.025, 2516.492
247.394, 2366.109
248.763, 2136.464
250.132, 1954.248
251.501, 1759.879
252.869, 1490.748
254.237, 1242.047
255.605, 1144.874
256.973, 898.301
258.340, 844.754
259.708, 720.206
261.075, 733.646
262.442, 643.085
263.808, 809.528
265.175, 655.985
266.541, 746.547
267.907, 692.459
269.273, 772.711
270.639, 826.289
272.004, 825.174
273.369, 995.349
274.734, 1032.792
276.099, 1077.484
277.463, 992.406
278.828, 944.540
280.192, 727.866
281.556, 601.370
282.919, 527.035
284.283, 357.843
285.646, 264.777
287.009, 211.821
288.372, 237.961
289.734, 92.189
291.097, 99.497
292.459, 77.874
293.821, 36.305
295.183, 192.781
296.544, 204.293
297.905, 230.827
299.266, 329.355
300.627, 297.859
301.988, 289.332
303.348, 209.767
304.709, 84.155
306.069, 20.503
307.428, 235.200
308.788, 208.926
310.147, 320.666
311.507, 279.407
312.865, 277.133
314.224, 296.842
315.583, 224.556
316.941, 235.317
318.299, 83.166
319.657, 115.155
321.015, 1.313
322.372, 47.566
323.729, 139.146
325.086, 333.848
326.443, 379.509
327.800, 515.937
329.156, 565.920
330.512, 825.431
331.868, 826.510
333.224, 1054.271
334.579, 1185.864
335.935, 1280.393
337.290, 1459.004
338.645, 1725.732
339.999, 1874.599
341.354, 1992.563
342.708, 1981.618
344.062, 2042.761
345.416, 2015.993
346.769, 2032.315
348.123, 2066.194
349.476, 2012.927
350.829, 2137.484
352.182, 2221.640
353.534, 2295.217
354.887, 2539.044
356.239, 2630.811
357.591, 2872.498
358.942, 3034.091
360.294, 3195.576
361.645, 3546.950
362.996, 3788.202
364.347, 4089.324
365.698, 4120.305
367.048, 4771.135
368.398, 5011.808
369.748, 5762.324
371.098, 6252.689
372.448, 7312.911
373.797, 7752.988
375.146, 8092.905
376.495, 8462.664
377.844, 8242.271
379.192, 7801.705
380.540, 7340.930
381.889, 6629.936
383.236, 6158.735
384.584, 5447.320
385.932, 5005.692
387.279, 4623.872
388.626, 4211.875
389.973, 3999.727
391.319, 3747.455
392.666, 3525.080
394.012, 3252.608
395.358, 3060.044
396.704, 2727.374
398.049, 2594.540
399.394, 2561.519
400.740, 2250.226
402.084, 2176.642
403.429, 1965.921
404.774, 1969.112
406.118, 1774.234
407.462, 1703.229
408.806, 1716.796
410.150, 1673.783
411.493, 1479.209
412.836, 1429.131
414.179, 1301.709
415.522, 1236.095
416.865, 1059.404
418.207, 1194.761
419.549, 904.615
420.891, 904.359
422.233, 1062.699
423.575, 995.210
424.916, 883.254
426.257, 879.315
427.598, 821.802
428.939, 910.833
430.279, 901.752
431.619, 966.119
432.959, 848.819
434.299, 844.838
435.639, 857.964
436.978, 855.377
438.318, 905.730
439.657, 865.020
440.996, 847.292
442.334, 928.264
443.673, 811.051
445.011, 837.416
446.349, 713.443
447.687, 910.070
449.024, 738.730
450.361, 661.247
451.699, 733.444
453.036, 610.235
454.372, 688.394
455.709, 642.822
457.045, 475.451
458.381, 495.583
459.717, 426.458
461.053, 467.779
462.388, 365.954
463.724, 479.188
465.059, 324.486
466.394, 421.463
467.728, 479.150
469.063, 376.656
470.397, 402.106
471.731, 384.837
473.065, 381.453
474.398, 492.505
475.732, 443.612
477.065, 521.548
478.398, 508.102
479.731, 565.497
481.063, 637.180
482.396, 725.305
483.728, 783.824
485.060, 910.930
486.391, 889.819
487.723, 1102.523
489.054, 1101.982
490.385, 1284.228
491.716, 1332.316
493.047, 1439.255
494.377, 1500.912
495.708, 1533.031
497.038, 1574.842
498.368, 1553.727
499.697, 1572.689
501.027, 1488.728
502.356, 1543.841
503.685, 1377.030
505.014, 1428.294
506.342, 1256.633
507.671, 1193.048
508.999, 1094.494
510.327, 962.971
511.655, 785.481
512.982, 869.022
514.310, 597.596
515.637, 653.201
516.964, 501.839
518.291, 381.509
519.617, 506.213
520.944, 395.950
522.270, 536.723
523.596, 728.530
524.921, 699.374
526.247, 918.253
527.572, 1072.171
528.897, 1316.127
530.222, 1367.123
531.547, 1632.158
532.871, 1630.233
534.196, 1908.351
535.520, 1926.512
536.844, 1884.715
538.167, 1862.962
539.491, 1822.664
540.814, 1829.592
542.137, 1777.979
543.460, 1736.412
544.783, 1844.898
546.105, 1773.441
547.427, 1801.708
548.749, 1710.727
550.071, 1799.521
551.393, 1818.392
552.714, 1807.372
554.035, 1936.475
555.356, 1795.725
556.677, 1675.098
557.998, 1934.610
559.318, 1734.257
560.638, 1674.037
561.958, 1434.964
563.278, 1493.052
564.597, 1415.283
565.917, 1172.682
567.236, 1105.246
568.555, 1046.945
569.874, 1037.797
571.192, 948.802
572.511, 824.949
573.829, 767.253
575.147, 597.701
576.464, 643.280
577.782, 522.999
579.099, 329.827
580.416, 352.776
581.733, 328.854
583.050, 251.054
584.366, 293.357
585.683, 50.756
586.999, 87.251
588.315, 85.834
589.630, 138.503
590.946, 102.205
592.261, 22.900
593.576, 26.015
594.891, 24.995
596.206, 84.934
597.520, 26.189
598.834, 73.616
600.148, 75.359
601.462, 22.041
602.776, 46.347
604.089, 10.191
605.402, 66.347
606.715, 85.970
608.028, 47.682
609.341, 71.479
610.653, 126.380
611.965, 51.381
613.277, 254.487
614.589, 200.704
615.901, 138.005
617.212, 270.389
618.523, 175.850
619.834, 203.384
621.145, 224.990
622.456, 263.669
623.766, 349.424
625.076, 325.270
626.386, 491.229
627.696, 346.357
629.006, 459.646
630.315, 535.125
631.624, 465.778
632.933, 558.607
634.242, 472.614
635.551, 435.778
636.859, 485.103
638.167, 316.544
639.475, 229.111
640.783, 28.771
642.090, 5.537
643.398, 28.632
644.705, 114.745
646.012, 79.817
647.318, 113.847
648.625, 185.838
649.931, 91.808
651.237, 18.263
652.543, 34.613
653.849, 91.560
655.155, 301.784
656.460, 347.061
657.765, 536.389
659.070, 644.769
660.375, 800.198
661.679, 1031.678
662.984, 1094.207
664.288, 1198.784
665.592, 1192.411
666.895, 1199.084
668.199, 1170.806
669.502, 1066.574
670.805, 1068.389
672.108, 906.251
673.411, 937.158
674.713, 832.111
676.016, 691.110
677.318, 632.154
678.620, 734.241
679.921, 645.374
681.223, 655.549
682.524, 775.768
683.825, 592.030
685.126, 583.335
686.427, 591.681
687.727, 756.069
689.028, 684.500
690.328, 709.970
691.628, 765.480
692.927, 859.031
694.227, 784.621
695.526, 1036.251
696.825, 1041.918
698.124, 1120.625
699.423, 1316.375
700.721, 1439.726
702.020, 1487.922
703.318, 1854.083
704.616, 1962.484
705.913, 2325.236
707.211, 2548.705
708.508, 2857.884
709.805, 3184.456
711.102, 3574.452
712.399, 3908.873
713.695, 4336.574
714.992, 4623.296
716.288, 5199.173
717.584, 5708.228
718.879, 6250.282
720.175, 7068.316
721.470, 8201.938
722.765, 8664.760
724.060, 10030.197
725.355, 11018.866
726.649, 11527.387
727.944, 11862.756
729.238, 11120.941
730.532, 10696.489
731.825, 9538.471
733.119, 8632.349
734.412, 7689.067
735.705, 6628.166
736.998, 6338.619
738.291, 5647.543
739.584, 5432.179
740.876, 5135.602
742.168, 5099.242
743.460, 5011.005
744.752, 5182.525
746.043, 5125.086
747.334, 5246.116
748.626, 5476.905
749.916, 5667.439
751.207, 5697.274
752.498, 6006.237
753.788, 6465.898
755.078, 6464.736
756.368, 7163.195
757.658, 7162.123
758.947, 7521.302
760.237, 8010.298
761.526, 8089.388
762.815, 8708.460
764.104, 8917.516
765.392, 9806.550
766.680, 9675.564
767.969, 9974.565
769.257, 9993.543
770.544, 10112.502
771.832, 10041.437
773.119, 10430.350
774.406, 10189.243
775.693, 10728.110
776.980, 10966.954
778.267, 11915.775
779.553, 12764.568
780.839, 13593.339
782.125, 14672.079
783.411, 15840.791
784.697, 16729.482
785.982, 17338.133
787.267, 18896.758
788.552, 19235.348
789.837, 20133.910
791.122, 19852.441
792.406, 20030.928
793.690, 19599.381
794.974, 18467.807
796.258, 18156.184
797.542, 17054.502
798.825, 16522.506
800.108, 15338.954
801.391, 14786.087
802.674, 13782.462
803.957, 13317.025
805.239, 13283.776
806.522, 13181.836
807.804, 13619.471
809.085, 14437.450
810.367, 14485.385
811.649, 15333.277
812.930, 15661.127
814.211, 15608.931
815.492, 16466.691
816.772, 15924.407
818.053, 15782.075
819.333, 14709.696
820.613, 14037.273
821.893, 13084.801
823.173, 11572.281
824.452, 10459.715
825.732, 9447.097
827.011, 8304.432
828.290, 7221.715
829.568, 6328.949
830.847, 5626.133
832.125, 5323.264
833.403, 4750.344
834.681, 4557.372
835.959, 4216.176
837.236, 4081.269
838.514, 3738.137
839.791, 3433.951
841.068, 3286.712
842.345, 2920.416
843.621, 2664.065
844.898, 2390.659
846.174, 1856.196
847.450, 1611.677
848.726, 1250.101
850.001, 997.466
851.277, 799.774
852.552, 510.023
853.827, 381.213
855.102, 198.337
856.376, 131.390
857.651, 68.359
858.925, 89.776
860.199, 73.904
861.473, 61.521
862.746, 110.117
864.020, 195.914
865.293, 104.955
866.566, 155.196
867.839, 137.663
869.112, 122.348
870.384, 171.245
871.656, 217.379
872.928, 151.776
874.200, 239.404
875.472, 225.308
876.744, 106.481
878.015, 156.864
879.286, 153.481
880.557, 102.333
881.828, 146.393
883.098, 103.684
884.369, 46.185
885.639, 75.866
886.909, 43.257
888.178, 1.246
889.448, 19.922
890.717, 4.743
891.987, 94.253
893.256, 130.646
894.524, 123.935
895.793, 200.114
897.061, 215.205
898.330, 164.210
899.598, 255.118
900.865, 257.960
902.133, 322.733
903.401, 432.429
904.668, 427.070
905.935, 525.642
907.202, 497.154
908.468, 578.634
909.735, 699.053
911.001, 630.417
912.267, 724.726
913.533, 803.986
914.799, 837.216
916.064, 949.385
917.330, 918.500
918.595, 965.565
919.860, 1031.587
921.124, 1051.572
922.389, 1142.519
923.653, 1162.401
924.918, 1192.225
926.182, 1350.980
927.445, 1188.669
928.709, 1381.299
929.972, 1406.861
931.236, 1397.358
932.499, 1483.788
933.761, 1505.151
935.024, 1626.445
936.286, 1693.674
937.549, 1686.834
938.811, 1852.928
940.073, 1879.954
941.334, 1974.913
942.596, 2062.806
943.857, 2116.630
945.118, 2209.389
946.379, 2170.081
947.640, 2280.707
948.900, 2329.265
950.161, 2253.758
951.421, 2545.187
952.681, 2396.558
953.940, 2468.868
955.200, 2572.122
956.459, 2505.326
957.719, 2534.473
958.978, 2668.553
960.236, 2560.570
961.495, 2803.522
962.753, 2631.409
964.012, 2844.231
965.270, 2715.988
966.527, 2791.682
967.785, 2883.310
969.043, 2853.873
970.300, 2966.373
971.557, 2908.809
972.814, 2918.181
974.071, 2958.489
975.327, 2908.734
976.583, 2933.916
977.840, 2989.035
979.095, 2834.090
980.351, 2978.084
981.607, 2909.015
982.862, 2910.883
984.117, 2996.689
985.372, 2902.434
986.627, 3009.118
987.882, 3004.738
989.136, 2909.300
990.390, 3033.799
991.644, 2892.237
992.898, 2956.616
994.152, 2871.934
995.405, 2916.192
996.659, 2929.535
997.912, 2931.530
999.165, 2916.609
1000.417, 2998.630
1001.670, 2867.593
1002.922, 2837.496
1004.174, 2936.334
1005.426, 2782.553
1006.678, 2942.903
1007.930, 2837.270
1009.181, 2809.373
1010.432, 2916.104
1011.683, 2819.097
1012.934, 2775.259
1014.185, 2967.205
1015.435, 2893.604
1016.685, 3148.559
1017.935, 3120.208
1019.185, 3226.815
1020.435, 3276.244
1021.684, 3280.473
1022.934, 3451.680
1024.183, 3486.884
1025.432, 3546.476
1026.680, 3646.846
1027.929, 3714.576
1029.177, 3829.050
1030.425, 3853.649
1031.673, 3941.377
1032.921, 4036.264
1034.169, 4073.759
1035.416, 4244.798
1036.663, 4483.913
1037.911, 4470.161
1039.157, 4704.003
1040.404, 4686.541
1041.650, 4970.501
1042.897, 5268.724
1044.143, 5168.178
1045.389, 5647.341
1046.634, 5848.467
1047.880, 5810.520
1049.125, 6270.750
1050.371, 6176.285
1051.615, 6110.468
1052.860, 6473.105
1054.105, 6349.378
1055.349, 6602.040
1056.593, 6427.124
1057.837, 6388.283
1059.081, 6962.083
1060.325, 6817.472
1061.568, 6803.494
1062.812, 6860.794
1064.055, 6882.302
1065.298, 7276.963
1066.540, 7322.823
1067.783, 7279.949
1069.025, 7748.424
1070.267, 7428.319
1071.509, 7548.155
1072.751, 7461.679
1073.993, 6986.643
1075.234, 6829.759
1076.475, 6352.836
1077.716, 5957.527
1078.957, 5720.574
1080.198, 5154.051
1081.438, 5007.067
1082.679, 4540.065
1083.919, 4103.049
1085.159, 3946.019
1086.398, 3748.974
1087.638, 4121.915
1088.877, 3144.842
1090.116, 3527.756
1091.355, 3520.657
1092.594, 2524.545
1093.833, 2368.420
1095.071, 2301.282
1096.309, 2258.133
1097.547, 2154.973
1098.785, 2069.800
1100.023, 1983.617
1101.260, 2035.422
1102.498, 1951.217
1103.735, 1805.001
1104.972, 1961.775
1106.208, 1738.540
1107.445, 1803.294
1108.681, 1767.039
1109.918, 1667.775
1111.154, 1853.502
1112.389, 1681.221
1113.625, 1667.932
1114.860, 1594.634
1116.096, 1492.330
1117.331, 1509.018
1118.566, 1503.700
1119.800, 1365.375
1121.035, 1270.044
1122.269, 1460.708
1123.503, 1468.365
1124.737, 1297.020
1125.971, 963.671
1127.205, 866.316
1128.438, 768.960
1129.671, 642.600
1130.904, 646.238
1132.137, 552.873
1133.370, 650.505
1134.602, 599.137
1135.834, 436.769
1137.066, 492.398
1138.298, 348.029
1139.530, 416.659
1140.762, 347.289
1141.993, 193.922
1143.224, 277.556
1144.455, 195.191
1145.686, 195.832
1146.917, 323.474
1148.147, 104.119
1149.377, 236.769
1150.607, 222.419
1151.837, 129.095
1153.067, 151.773
1154.296, 256.460
1155.526, 212.177
1156.755, 251.912
1157.984, 170.675
1159.213, 190.512
1160.441, 252.375
1161.670, 217.341
1162.898, 219.385
1164.126, 289.527
1165.354, 224.775
1166.581, 351.112
1167.809, 206.535
1169.036, 240.207
1170.263, 262.211
1171.490, 112.031
1172.717, 219.850
1173.943, 239.111
1175.170, 187.239
1176.396, 192.722
1177.622, 195.962
1178.848, 165.335
1180.073, 163.523
1181.299, 110.523
1182.524, 143.169
1183.749, 135.905
1184.974, 150.694
1186.199, 163.530
1187.423, 29.422
1188.648, 102.373
1189.872, 117.382
1191.096, 37.424
1192.320, 116.497
1193.543, 21.685
1194.767, 22.193
1195.990, 31.942
1197.213, 85.820
1198.436, 59.681
1199.659, 12.547
1200.881, 82.406
1202.104, 8.712
1203.326, 52.158
1204.548, 160.040
1205.770, 17.982
1206.991, 48.924
1208.213, 62.878
1209.434, 85.849
1210.655, 155.850
1211.876, 33.917
1213.096, 58.990
1214.317, 83.083
1215.537, 107.206
1216.757, 130.370
1217.977, 129.590
1219.197, 4.864
1220.417, 42.139
1221.636, 50.572
1222.855, 65.288
1224.074, 36.992
1225.293, 126.715
1226.512, 6.573
1227.731, 70.136
1228.949, 171.849
1230.167, 99.564
1231.385, 147.281
1232.603, 202.000
1233.820, 118.720
1235.038, 307.441
1236.255, 263.165
1237.472, 266.889
1238.689, 276.614
1239.906, 178.338
1241.122, 308.062
1242.338, 220.786
1243.555, 346.510
1244.771, 285.232
1245.986, 368.953
1247.202, 308.672
1248.417, 489.389
1249.633, 375.109
1250.848, 478.827
1252.063, 534.537
1253.277, 415.259
1254.492, 619.994
1255.706, 445.742
1256.920, 516.502
1258.134, 554.275
1259.348, 483.061
1260.562, 505.860
1261.775, 611.671
1262.988, 427.495
1264.201, 541.333
1265.414, 651.183
1266.627, 515.046
1267.839, 681.923
1269.052, 474.812
1270.264, 542.215
1271.476, 500.131
1272.688, 397.060
1273.899, 612.498
1275.111, 592.452
1276.322, 460.766
1277.533, 538.825
1278.744, 538.815
1279.955, 424.440
1281.165, 599.651
1282.376, 454.747
1283.586, 424.480
1284.796, 562.741
1286.006, 362.840
1287.215, 504.056
1288.425, 435.126
1289.634, 368.766
1290.843, 470.875
1292.052, 370.256
1293.261, 512.053
1294.469, 348.781
1295.678, 315.901
1296.886, 395.299
1298.094, 373.001
1299.302, 298.748
1300.509, 389.791
1301.717, 303.739
1302.924, 195.713
1304.131, 271.978
1305.338, 225.326
1306.545, 356.830
1307.752, 310.156
1308.958, 129.939
1310.164, 266.089
1311.370, 192.757
1312.576, 160.827
1313.782, 99.153
1314.987, 43.941
1316.193, 116.746
1317.398, 206.176
1318.603, 66.591
1319.807, 133.088
1321.012, 69.078
1322.216, 150.834
1323.421, 260.660
1324.625, 118.984
1325.829, 172.748
1327.032, 313.813
1328.236, 165.582
1329.439, 390.975
1330.642, 292.390
1331.845, 180.465
1333.048, 295.427
1334.251, 261.924
1335.453, 286.291
1336.656, 337.678
1337.858, 164.255
1339.060, 219.511
1340.261, 306.805
1341.463, 170.098
1342.664, 356.765
1343.866, 224.857
1345.067, 238.652
1346.267, 322.254
1347.468, 255.456
1348.669, 240.445
1349.869, 366.836
1351.069, 240.427
1352.269, 290.341
1353.469, 353.133
1354.668, 227.938
1355.868, 336.517
1357.067, 370.274
1358.266, 238.232
1359.465, 385.869
1360.664, 223.318
1361.862, 468.813
1363.061, 356.108
1364.259, 426.270
1365.457, 297.430
1366.655, 257.670
1367.852, 328.552
1369.050, 356.728
1370.247, 280.792
1371.444, 202.998
1372.641, 337.576
1373.838, 230.050
1375.035, 410.427
1376.231, 354.719
1377.427, 287.915
1378.623, 432.018
1379.819, 413.345
1381.015, 221.285
1382.211, 534.137
1383.406, 345.892
1384.601, 379.563
1385.796, 440.162
1386.991, 305.858
1388.185, 422.276
1389.380, 448.619
1390.574, 561.924
1391.768, 581.104
1392.962, 445.407
1394.156, 389.455
1395.350, 463.246
1396.543, 494.850
1397.736, 399.460
1398.929, 490.076
1400.122, 319.698
1401.315, 424.328
1402.507, 481.964
1403.700, 296.605
1404.892, 363.249
1406.084, 454.896
1407.276, 296.543
1408.467, 398.191
1409.659, 249.839
1410.850, 214.485
1412.041, 314.126
1413.232, 87.764
1414.423, 272.394
1415.614, 266.012
1416.804, 94.618
1417.994, 248.195
1419.184, 134.737
1420.374, 200.218
1421.564, 288.672
1422.753, 75.055
1423.943, 178.362
1425.132, 210.570
1426.321, 66.538
1427.510, 179.025
1428.698, 221.664
1429.887, 26.118
1431.075, 251.009
1432.263, 103.558
1433.451, 40.239
1434.639, 172.906
1435.827, 80.527
1437.014, 97.104
1438.201, 250.516
1439.388, 47.983
1440.575, 113.400
1441.762, 105.929
1442.949, 40.516
1444.135, 80.100
1445.321, 79.770
1446.507, 6.501
1447.693, 220.373
1448.879, 123.682
1450.064, 54.421
1451.250, 129.687
1452.435, 82.990
1453.620, 166.372
1454.805, 94.783
1455.989, 2.759
1457.174, 151.748
1458.358, 42.312
1459.542, 19.934
1460.726, 74.630
1461.910, 15.593
1463.093, 129.271
1464.277, 186.235
1465.460, 112.701
1466.643, 100.481
1467.826, 198.710
1469.009, 17.058
1470.191, 207.180
1471.373, 107.423
1472.556, 108.672
1473.738, 152.926
1474.919, 161.186
1476.101, 110.289
1477.283, 359.363
1478.464, 123.764
1479.645, 285.797
1480.826, 355.985
1482.007, 170.243
1483.187, 360.791
1484.368, 302.966
1485.548, 283.877
1486.728, 369.965
1487.908, 355.342
1489.088, 321.808
1490.268, 437.054
1491.447, 191.585
1492.626, 298.782
1493.805, 316.521
1494.984, 138.003
1496.163, 336.769
1497.341, 280.759
1498.520, 175.431
1499.698, 451.739
1500.876, 290.838
1502.054, 150.204
1503.232, 283.449
1504.409, 158.537
1505.586, 295.997
1506.763, 225.838
1507.940, 138.663
1509.117, 227.320
1510.294, 323.761
1511.470, 120.208
1512.647, 287.604
1513.823, 216.766
1514.999, 199.086
1516.174, 245.413
1517.350, 167.430
1518.526, 201.914
1519.701, 364.069
1520.876, 76.406
1522.051, 164.881
1523.226, 327.695
1524.400, 269.381
1525.574, 454.132
1526.749, 129.445
1527.923, 85.215
1529.097, 196.135
1530.270, 182.094
1531.444, 119.199
1532.617, 230.485
1533.790, 1.769
1534.963, 184.789
1536.136, 0.000
##END=



