##NAMES=Dravite
##RRUFFID=R050059
##IDEAL CHEMISTRY=NaMg_3_Al_6_(Si_6_O_18_)(BO_3_)_3_(OH)_3_OH
##LOCALITY=Nepal
##OWNER=RRUFF
##SOURCE=Rock Currier
##DESCRIPTION=Dark brown single crystal
##STATUS=The identification of this mineral has been confirmed by X-ray diffraction and chemical analysis
##URL=rruff.info/R050059
##MEASURED CHEMISTRY=(Na_0.79_[box]_0.16_Ca_0.05_)_Σ=1_(Mg_2.44_Al_0.29_[box]_0.14_Fe^2+^_0.08_Ti_0.05_)_Σ=3_Al_6.00_(BO_3_)_3_Si_6.00_O_18_(OH)_4_ ; H_2_O assumed ideal from stoichiometry; B_2_O_3_ estimated by difference
##PIN_ID=L00191
##ORIENTATION=Laser parallel to -a* (-1 0 0). Fiducial mark perpendicular to laser is parallel to -c [0 0 -1]
103.206, 0.000
104.600, 2.808
105.994, 72.041
107.387, 227.955
108.781, 207.748
110.174, 279.127
111.566, 272.303
112.959, 432.617
114.351, 523.863
115.744, 556.905
117.136, 600.647
118.527, 454.775
119.919, 461.662
121.310, 468.915
122.701, 478.747
124.092, 601.557
125.482, 486.461
126.873, 564.976
128.263, 493.146
129.653, 617.067
131.042, 697.568
132.432, 730.350
133.821, 753.150
135.210, 774.730
136.599, 915.294
137.987, 928.844
139.376, 979.964
140.764, 1059.476
142.152, 924.417
143.539, 1059.983
144.927, 1115.709
146.314, 865.608
147.701, 857.385
149.088, 705.529
150.474, 650.875
151.861, 566.421
153.247, 597.162
154.633, 468.087
156.018, 380.186
157.404, 329.446
158.789, 195.854
160.174, 175.398
161.559, 142.061
162.943, 171.824
164.327, 31.666
165.711, 46.565
167.095, 8.484
168.479, 15.519
169.862, 61.574
171.246, 17.314
172.628, 44.854
174.011, 31.918
175.394, 24.632
176.776, 90.287
178.158, 112.879
179.540, 120.410
180.922, 120.122
182.303, 102.264
183.684, 69.572
185.065, 5.208
186.446, 44.126
187.826, 102.319
189.207, 285.772
190.587, 292.464
191.967, 525.375
193.346, 567.482
194.726, 677.764
196.105, 789.200
197.484, 827.770
198.862, 990.455
200.241, 1093.238
201.619, 1421.105
202.997, 1556.036
204.375, 2070.013
205.753, 2440.016
207.130, 3003.024
208.507, 3928.036
209.884, 4720.050
211.261, 5980.063
212.638, 6880.064
214.014, 8260.040
215.390, 9309.962
216.766, 9559.821
218.141, 9999.570
219.517, 9209.216
220.892, 8718.763
222.267, 7768.190
223.642, 6827.417
225.016, 6446.406
226.391, 5721.200
227.765, 5810.938
229.139, 5351.688
230.512, 5404.480
231.886, 5452.328
233.259, 5453.228
234.632, 5858.182
236.005, 5666.188
237.377, 6246.248
238.749, 6215.360
240.122, 6604.524
241.493, 6833.737
242.865, 6763.000
244.237, 7162.315
245.608, 6461.678
246.979, 6621.090
248.350, 6080.552
249.720, 5788.062
251.090, 5353.621
252.461, 4715.229
253.830, 4388.897
255.200, 3750.627
256.570, 3536.471
257.939, 3061.452
259.308, 2790.593
260.677, 2698.896
262.045, 2389.334
263.414, 2426.913
264.782, 2178.634
266.150, 2194.458
267.517, 2118.390
268.885, 1965.385
270.252, 2013.271
271.619, 1854.201
272.986, 1789.027
274.353, 1521.733
275.719, 1495.280
277.085, 1367.658
278.451, 1157.849
279.817, 1127.837
281.182, 850.624
282.548, 805.210
283.913, 767.588
285.278, 581.747
286.642, 617.679
288.007, 477.361
289.371, 507.788
290.735, 437.988
292.099, 373.990
293.462, 380.803
294.826, 241.422
296.189, 353.821
297.552, 275.983
298.914, 417.886
300.277, 426.474
301.639, 464.822
303.001, 507.918
304.363, 421.716
305.724, 631.083
307.086, 548.024
308.447, 797.652
309.808, 932.202
311.168, 1221.745
312.529, 1529.316
313.889, 1530.925
315.249, 1650.463
316.609, 1303.722
317.969, 1022.180
319.328, 794.168
320.687, 602.857
322.046, 578.359
323.405, 429.793
324.764, 443.090
326.122, 484.085
327.480, 534.569
328.838, 648.486
330.196, 657.077
331.553, 857.345
332.910, 848.220
334.267, 1017.657
335.624, 1170.023
336.981, 1208.394
338.337, 1460.264
339.693, 1517.799
341.049, 1623.417
342.405, 1743.819
343.760, 1848.947
345.116, 2072.289
346.471, 1968.946
347.826, 2146.844
349.180, 2192.543
350.535, 2405.183
351.889, 2474.666
353.243, 2665.399
354.597, 3150.212
355.950, 3349.795
357.304, 3962.405
358.657, 4397.038
360.010, 5178.693
361.362, 6188.374
362.715, 7200.075
364.067, 8941.802
365.419, 10383.545
366.771, 12605.312
368.123, 14047.104
369.474, 14878.913
370.825, 15840.744
372.176, 14412.597
373.527, 13834.472
374.877, 11746.367
376.228, 10088.281
377.578, 8660.224
378.928, 7223.054
380.277, 6284.165
381.627, 5088.171
382.976, 4443.198
384.325, 3906.250
385.674, 3367.327
387.023, 3197.427
388.371, 2642.554
389.719, 2668.708
391.067, 2243.890
392.415, 2148.099
393.762, 2075.334
395.110, 1786.598
396.457, 1909.888
397.804, 1659.206
399.150, 1644.550
400.497, 1610.920
401.843, 1459.763
403.189, 1684.187
404.535, 1553.172
405.881, 1661.337
407.226, 1516.183
408.571, 1379.756
409.916, 1378.675
411.261, 1163.691
412.605, 1173.307
413.950, 967.090
415.294, 883.981
416.638, 816.349
417.981, 585.570
419.325, 578.914
420.668, 470.669
422.011, 455.779
423.354, 419.005
424.697, 237.163
426.039, 362.248
427.381, 226.523
428.723, 282.406
430.065, 218.228
431.406, 277.313
432.748, 267.086
434.089, 196.928
435.430, 372.105
436.770, 275.931
438.111, 292.240
439.451, 312.052
440.791, 233.858
442.131, 226.659
443.471, 151.457
444.810, 160.251
446.149, 207.042
447.488, 119.832
448.827, 208.622
450.166, 115.411
451.504, 179.203
452.842, 93.997
454.180, 43.794
455.518, 127.596
456.855, 68.402
458.193, 190.215
459.530, 74.034
460.867, 114.862
462.203, 132.699
463.540, 85.546
464.876, 152.405
466.212, 109.276
467.548, 157.163
468.883, 229.065
470.219, 210.985
471.554, 358.924
472.889, 225.880
474.224, 343.855
475.558, 364.847
476.892, 469.857
478.227, 533.886
479.561, 455.934
480.894, 650.002
482.228, 656.091
483.561, 736.203
484.894, 955.342
486.227, 861.508
487.559, 1094.703
488.892, 1130.924
490.224, 1225.183
491.556, 1335.476
492.888, 1335.815
494.220, 1454.191
495.551, 1433.599
496.882, 1532.051
498.213, 1517.533
499.544, 1482.063
500.874, 1672.637
502.205, 1476.270
503.535, 1624.969
504.865, 1550.734
506.194, 1432.565
507.524, 1468.456
508.853, 1300.397
510.182, 1362.368
511.511, 1181.364
512.840, 1126.382
514.168, 1130.417
515.496, 1003.468
516.824, 1050.531
518.152, 826.607
519.480, 801.696
520.807, 724.796
522.134, 560.909
523.461, 573.033
524.788, 467.170
526.114, 569.318
527.441, 510.477
528.767, 522.940
530.093, 688.831
531.418, 532.024
532.744, 718.228
534.069, 710.444
535.394, 782.669
536.719, 828.906
538.044, 754.154
539.368, 815.413
540.693, 727.684
542.017, 706.967
543.340, 661.262
544.664, 567.572
545.987, 510.894
547.311, 437.238
548.634, 425.605
549.956, 357.163
551.279, 305.321
552.601, 254.843
553.923, 199.317
555.245, 144.810
556.567, 110.332
557.889, 86.884
559.210, 91.457
560.531, 51.933
561.852, 22.687
563.173, 2.333
564.493, 97.994
565.813, 47.344
567.133, 111.696
568.453, 83.086
569.773, 116.497
571.092, 124.938
572.412, 59.400
573.731, 206.871
575.049, 30.408
576.368, 81.945
577.686, 115.501
579.005, 72.101
580.323, 157.711
581.640, 1.376
582.958, 93.034
584.275, 56.728
585.593, 59.445
586.909, 102.187
588.226, 10.977
589.543, 71.772
590.859, 9.600
592.175, 46.567
593.491, 55.261
594.807, 80.883
596.122, 1.032
597.438, 63.178
598.753, 90.329
600.068, 51.484
601.382, 101.643
602.697, 130.805
604.011, 175.970
605.325, 162.139
606.639, 121.311
607.952, 204.484
609.266, 191.789
610.579, 310.844
611.892, 294.027
613.205, 286.214
614.518, 434.402
615.830, 447.594
617.142, 782.788
618.454, 860.984
619.766, 860.182
621.078, 961.383
622.389, 466.585
623.700, 518.790
625.011, 553.996
626.322, 583.203
627.632, 884.412
628.943, 812.623
630.253, 1125.834
631.563, 1359.046
632.872, 1546.260
634.182, 1986.473
635.491, 2142.688
636.800, 2552.902
638.109, 2501.117
639.418, 2401.332
640.726, 2394.547
642.035, 2111.762
643.343, 2245.976
644.651, 2090.189
645.958, 2125.401
647.266, 2420.612
648.573, 2269.822
649.880, 2637.030
651.187, 2677.237
652.494, 2783.441
653.800, 3027.643
655.106, 2848.842
656.412, 3163.038
657.718, 2926.232
659.024, 3001.422
660.329, 2982.608
661.634, 2846.791
662.939, 3066.969
664.244, 3093.142
665.549, 3159.310
666.853, 3441.473
668.157, 3399.629
669.461, 3944.781
670.765, 4062.926
672.069, 4269.065
673.372, 4871.197
674.675, 4760.324
675.978, 5229.441
677.281, 5131.555
678.583, 5122.661
679.886, 5236.759
681.188, 4693.850
682.490, 5076.936
683.792, 4480.013
685.093, 4393.082
686.394, 4369.144
687.696, 4052.197
688.997, 4317.243
690.297, 4013.281
691.598, 4188.311
692.898, 4346.331
694.198, 4233.559
695.498, 4921.695
696.798, 5016.145
698.097, 5407.663
699.397, 6086.200
700.696, 6141.118
701.995, 6924.789
703.293, 6821.392
704.592, 6769.236
705.890, 6826.220
707.188, 5820.500
708.486, 5663.074
709.784, 4874.158
711.081, 4326.912
712.378, 3826.680
713.675, 3110.515
714.972, 2996.035
716.269, 2438.643
717.565, 2230.188
718.862, 2046.871
720.158, 1718.151
721.453, 1723.405
722.749, 1567.788
724.045, 1396.057
725.340, 1384.217
726.635, 1283.212
727.930, 1321.550
729.224, 1233.439
730.519, 1133.919
731.813, 1141.581
733.107, 1108.515
734.401, 1128.941
735.694, 1052.714
736.988, 1048.004
738.281, 1159.976
739.574, 1028.014
740.867, 1161.297
742.160, 1117.951
743.452, 1183.338
744.744, 1289.362
746.036, 1245.169
747.328, 1455.302
748.620, 1446.067
749.911, 1464.454
751.202, 1789.027
752.493, 1765.230
753.784, 2009.892
755.075, 2143.460
756.365, 2111.848
757.655, 2358.295
758.945, 2232.654
760.235, 2234.999
761.525, 2181.329
762.814, 1960.646
764.103, 1826.947
765.392, 1639.233
766.681, 1623.505
767.969, 1504.435
769.258, 1404.153
770.546, 1404.232
771.834, 1263.444
773.122, 1269.642
774.409, 1299.824
775.697, 1239.990
776.984, 1359.142
778.271, 1391.279
779.558, 1411.400
780.844, 1547.506
782.131, 1557.597
783.417, 1723.672
784.703, 1769.731
785.989, 1796.774
787.274, 1975.802
788.560, 1835.813
789.845, 2019.809
791.130, 1972.789
792.415, 1881.752
793.699, 1923.700
794.983, 1740.631
796.268, 1709.525
797.552, 1741.445
798.835, 1515.327
800.119, 1616.192
801.402, 1458.041
802.686, 1520.874
803.969, 1518.689
805.251, 1480.488
806.534, 1623.270
807.816, 1550.036
809.098, 1700.784
810.380, 1772.515
811.662, 1719.229
812.944, 1973.927
814.225, 1797.606
815.506, 1913.270
816.787, 1902.915
818.068, 1707.543
819.349, 1717.154
820.629, 1520.748
821.909, 1480.324
823.189, 1308.883
824.469, 1154.425
825.749, 1178.949
827.028, 935.455
828.307, 853.944
829.586, 833.415
830.865, 680.868
832.144, 700.304
833.422, 624.722
834.700, 661.122
835.978, 645.505
837.256, 563.869
838.534, 515.216
839.811, 470.545
841.088, 428.856
842.365, 411.149
843.642, 300.424
844.919, 321.681
846.195, 261.920
847.472, 141.141
848.748, 161.343
850.023, 84.525
851.299, 66.685
852.575, 60.822
853.850, 26.936
855.125, 41.024
856.400, 9.913
857.674, 13.893
858.949, 23.082
860.223, 68.970
861.497, 10.097
862.771, 66.266
864.045, 2.492
865.318, 45.786
866.591, 47.126
867.864, 10.528
869.137, 75.973
870.410, 66.495
871.682, 30.078
872.955, 57.713
874.227, 25.829
875.499, 16.043
876.770, 9.903
878.042, 13.678
879.313, 44.473
880.584, 107.297
881.855, 23.182
883.126, 98.100
884.396, 13.052
885.667, 31.034
886.937, 9.046
888.207, 53.069
889.476, 51.134
890.746, 0.221
892.015, 0.339
893.284, 21.533
894.553, 61.394
895.822, 26.266
897.090, 81.149
898.359, 65.033
899.627, 55.919
900.895, 121.792
902.163, 126.657
903.430, 160.529
904.698, 128.384
905.965, 132.228
907.232, 151.053
908.499, 213.865
909.765, 172.668
911.032, 234.453
912.298, 229.225
913.564, 300.982
914.830, 261.739
916.095, 297.479
917.361, 287.216
918.626, 319.938
919.891, 381.656
921.156, 401.357
922.420, 380.049
923.685, 413.496
924.949, 373.387
926.213, 433.045
927.477, 435.688
928.740, 461.317
930.004, 516.936
931.267, 503.539
932.530, 527.125
933.793, 590.696
935.056, 510.251
936.318, 670.790
937.581, 580.312
938.843, 604.818
940.104, 675.309
941.366, 683.783
942.628, 676.241
943.889, 709.683
945.150, 734.110
946.411, 891.520
947.672, 812.915
948.932, 993.293
950.193, 937.657
951.453, 1003.005
952.713, 1128.337
953.973, 1130.654
955.232, 1187.955
956.491, 1258.240
957.751, 1229.510
959.010, 1462.764
960.268, 1386.003
961.527, 1433.227
962.785, 1569.436
964.044, 1498.629
965.302, 1588.807
966.559, 1635.971
967.817, 1625.118
969.075, 1712.251
970.332, 1739.370
971.589, 1729.472
972.846, 1874.561
974.102, 1703.634
975.359, 1907.693
976.615, 1873.737
977.871, 1829.766
979.127, 1977.781
980.383, 1824.782
981.638, 2010.768
982.893, 1900.740
984.149, 1855.697
985.404, 1921.640
986.658, 1871.569
987.913, 1801.483
989.167, 1835.384
990.421, 1713.271
991.675, 1855.143
992.929, 1819.000
994.183, 1702.846
995.436, 1819.677
996.689, 1721.495
997.942, 1808.298
999.195, 1790.874
1000.448, 1766.519
1001.700, 1951.827
1002.952, 1863.045
1004.204, 1963.223
1005.456, 2046.079
1006.708, 1992.077
1007.959, 2179.120
1009.210, 2199.162
1010.461, 2309.780
1011.712, 2543.143
1012.963, 2488.203
1014.213, 2663.653
1015.464, 2811.575
1016.714, 2818.417
1017.964, 3154.152
1019.214, 3108.125
1020.463, 3312.937
1021.712, 3453.448
1022.962, 3388.229
1024.210, 3815.193
1025.459, 3729.423
1026.708, 3711.120
1027.956, 4125.094
1029.204, 3865.842
1030.452, 4128.818
1031.700, 4123.900
1032.948, 4050.186
1034.195, 4178.648
1035.442, 3984.464
1036.689, 3979.181
1037.936, 4074.421
1039.183, 3858.125
1040.429, 4029.556
1041.676, 3853.385
1042.922, 3676.108
1044.168, 3874.746
1045.413, 3581.309
1046.659, 3713.011
1047.904, 3742.881
1049.149, 3414.525
1050.394, 3719.844
1051.639, 3437.022
1052.884, 3432.330
1054.128, 3553.827
1055.372, 3262.116
1056.616, 3371.434
1057.860, 3214.560
1059.104, 3010.646
1060.347, 3180.993
1061.590, 2949.045
1062.833, 3022.897
1064.076, 3080.957
1065.319, 2821.480
1066.561, 2961.836
1067.803, 2908.609
1069.046, 2825.511
1070.287, 3027.927
1071.529, 2659.006
1072.771, 2748.536
1074.012, 2653.997
1075.253, 2470.449
1076.494, 2546.972
1077.735, 2361.654
1078.975, 2167.412
1080.216, 2184.677
1081.456, 1942.061
1082.696, 1866.409
1083.936, 1805.655
1085.175, 1571.020
1086.415, 1618.252
1087.654, 1398.478
1088.893, 1348.697
1090.132, 1279.910
1091.371, 1160.117
1092.609, 1204.317
1093.847, 1017.511
1095.085, 953.699
1096.323, 989.881
1097.561, 850.057
1098.799, 797.414
1100.036, 846.578
1101.273, 672.736
1102.510, 765.889
1103.747, 702.035
1104.983, 583.176
1106.220, 638.311
1107.456, 564.441
1108.692, 555.565
1109.928, 506.684
1111.163, 489.797
1112.399, 571.905
1113.634, 479.008
1114.869, 486.130
1116.104, 409.222
1117.339, 328.309
1118.573, 473.391
1119.808, 421.468
1121.042, 389.540
1122.276, 507.606
1123.509, 426.668
1124.743, 442.725
1125.976, 460.778
1127.210, 426.825
1128.443, 456.971
1129.675, 400.010
1130.908, 333.043
1132.141, 507.071
1133.373, 448.096
1134.605, 460.115
1135.837, 435.130
1137.068, 438.141
1138.300, 421.147
1139.531, 325.149
1140.762, 271.147
1141.993, 328.279
1143.224, 222.268
1144.455, 210.253
1145.685, 150.233
1146.915, 93.210
1148.145, 145.184
1149.375, 84.154
1150.605, 67.122
1151.834, 107.089
1153.063, 39.053
1154.292, 93.018
1155.521, 100.163
1156.750, 0.138
1157.978, 108.212
1159.207, 42.242
1160.435, 39.251
1161.663, 81.468
1162.891, 17.514
1164.118, 27.723
1165.345, 31.854
1166.573, 44.935
1167.800, 89.025
1169.026, 31.157
1170.253, 34.923
1171.480, 136.851
1172.706, 0.028
1173.932, 30.268
1175.158, 62.704
1176.383, 19.086
1177.609, 17.144
1178.834, 6.507
1180.059, 25.780
1181.284, 56.182
1182.509, 18.501
1183.734, 47.827
1184.958, 15.254
1186.182, 4.396
1187.406, 85.969
1188.630, 11.438
1189.854, 36.828
1191.077, 16.225
1192.301, 59.377
1193.524, 35.011
1194.747, 62.665
1195.969, 11.296
1197.192, 4.987
1198.414, 48.583
1199.636, 34.307
1200.858, 6.949
1202.080, 17.799
1203.302, 19.441
1204.523, 13.322
1205.744, 26.096
1206.966, 49.110
1208.186, 8.686
1209.407, 4.491
1210.628, 57.303
1211.848, 18.869
1213.068, 45.983
1214.288, 2.866
1215.508, 38.688
1216.727, 38.394
1217.947, 25.530
1219.166, 8.526
1220.385, 23.576
1221.604, 47.379
1222.822, 5.632
1224.041, 1.363
1225.259, 20.367
1226.477, 85.609
1227.695, 32.581
1228.913, 39.545
1230.130, 66.503
1231.348, 32.455
1232.565, 82.400
1233.782, 135.339
1234.999, 69.272
1236.215, 141.204
1237.432, 116.133
1238.648, 69.059
1239.864, 90.984
1241.080, 71.905
1242.296, 84.825
1243.511, 98.742
1244.726, 18.657
1245.942, 119.569
1247.156, 93.479
1248.371, 69.386
1249.586, 166.292
1250.800, 287.195
1252.014, 209.260
1253.228, 163.994
1254.442, 100.891
1255.656, 160.784
1256.869, 101.675
1258.083, 126.564
1259.296, 135.451
1260.509, 58.335
1261.722, 159.216
1262.934, 143.095
1264.147, 64.970
1265.359, 192.844
1266.571, 83.715
1267.783, 85.584
1268.994, 117.449
1270.206, 131.311
1271.417, 132.169
1272.628, 169.023
1273.839, 40.875
1275.050, 168.723
1276.260, 117.560
1277.471, 72.393
1278.681, 133.222
1279.891, 111.047
1281.101, 90.868
1282.310, 92.687
1283.520, 100.500
1284.729, 113.311
1285.938, 127.117
1287.147, 33.921
1288.356, 136.720
1289.564, 77.515
1290.773, 151.308
1291.981, 148.098
1293.189, 68.885
1294.397, 91.669
1295.604, 107.451
1296.812, 83.230
1298.019, 96.007
1299.226, 94.115
1300.433, 25.472
1301.640, 102.676
1302.846, 47.183
1304.053, 58.019
1305.259, 90.783
1306.465, 21.472
1307.671, 68.346
1308.876, 30.942
1310.082, 53.579
1311.287, 71.379
1312.492, 72.098
1313.697, 67.254
1314.902, 85.085
1316.106, 10.253
1317.310, 98.564
1318.515, 59.159
1319.719, 14.785
1320.922, 102.422
1322.126, 67.290
1323.329, 39.858
1324.533, 131.388
1325.736, 47.098
1326.939, 83.098
1328.141, 129.477
1329.344, 57.256
1330.546, 150.925
1331.748, 114.240
1332.950, 57.954
1334.152, 119.622
1335.354, 82.861
1336.555, 112.390
1337.757, 140.655
1338.958, 89.209
1340.159, 58.012
1341.359, 79.377
1342.560, 48.675
1343.760, 103.312
1344.960, 120.285
1346.160, 111.749
1347.360, 141.393
1348.560, 82.983
1349.759, 73.745
1350.959, 118.759
1352.158, 88.349
1353.357, 123.342
1354.555, 103.114
1355.754, 59.883
1356.952, 189.168
1358.151, 80.586
1359.349, 45.558
1360.546, 120.333
1361.744, 83.561
1362.941, 99.081
1364.139, 173.105
1365.336, 106.248
1366.533, 131.260
1367.730, 124.122
1368.926, 74.780
1370.123, 173.316
1371.319, 102.298
1372.515, 82.104
1373.711, 126.897
1374.906, 63.748
1376.102, 93.437
1377.297, 123.222
1378.492, 76.993
1379.687, 136.699
1380.882, 148.398
1382.077, 90.090
1383.271, 217.776
1384.465, 117.260
1385.659, 166.929
1386.853, 174.592
1388.047, 124.248
1389.240, 125.896
1390.434, 173.536
1391.627, 130.141
1392.820, 239.766
1394.013, 167.383
1395.205, 142.992
1396.398, 246.592
1397.590, 133.185
1398.782, 209.649
1399.974, 208.224
1401.166, 134.791
1402.357, 267.349
1403.549, 162.899
1404.740, 143.271
1405.931, 217.802
1407.122, 221.323
1408.313, 165.836
1409.503, 216.340
1410.693, 181.834
1411.883, 200.082
1413.073, 194.371
1414.263, 152.562
1415.453, 181.780
1416.642, 142.121
1417.831, 120.520
1419.020, 170.973
1420.209, 177.271
1421.398, 109.286
1422.587, 200.407
1423.775, 115.531
1424.963, 175.797
1426.151, 155.912
1427.339, 98.015
1428.526, 163.224
1429.714, 78.439
1430.901, 150.630
1432.088, 169.759
1433.275, 113.089
1434.462, 91.429
1435.648, 141.773
1436.835, 127.138
1438.021, 249.501
1439.207, 118.881
1440.393, 71.218
1441.579, 150.720
1442.764, 111.257
1443.949, 0.828
1445.135, 115.442
1446.320, 47.102
1447.504, 48.783
1448.689, 139.489
1449.873, 38.221
1451.058, 72.957
1452.242, 96.689
1453.426, 31.422
1454.609, 64.151
1455.793, 6.878
1456.976, 26.604
1458.159, 86.328
1459.342, 51.052
1460.525, 41.777
1461.708, 99.504
1462.890, 2.766
1464.073, 36.969
1465.255, 70.708
1466.437, 35.547
1467.619, 45.216
1468.800, 21.997
1469.982, 29.186
1471.163, 50.679
1472.344, 44.576
1473.525, 83.503
1474.706, 132.464
1475.886, 41.459
1477.066, 8.491
1478.247, 95.555
1479.427, 35.652
1480.607, 108.784
1481.786, 101.948
1482.966, 4.503
1484.145, 67.145
1485.324, 109.859
1486.503, 23.027
1487.682, 121.531
1488.860, 58.076
1490.039, 67.830
1491.217, 120.373
1492.395, 70.161
1493.573, 61.012
1494.751, 47.936
1495.928, 1.307
1497.106, 72.892
1498.283, 149.623
1499.460, 96.658
1500.637, 121.903
1501.814, 59.250
1502.990, 81.723
1504.166, 132.983
1505.342, 43.190
1506.518, 15.535
1507.694, 110.992
1508.870, 63.036
1510.045, 75.897
1511.221, 70.379
1512.396, 15.628
1513.571, 83.540
1514.745, 27.460
