##NAMES=Dravite
##RRUFFID=R060534
##IDEAL CHEMISTRY=NaMg_3_Al_6_(Si_6_O_18_)(BO_3_)_3_(OH)_3_OH
##LOCALITY=Sri Lanka
##OWNER=RRUFF
##SOURCE=Gemological Institute of America
##DESCRIPTION=Black trigonal prism
##STATUS=The identification of this mineral has been confirmed by X-ray diffraction and chemical analysis
##URL=rruff.info/R060534
##MEASURED CHEMISTRY=(Na_0.79_Ca_0.21_)(Mg_0.68_Fe^2+^_0.29_Ti_0.02_Al_0.01_)_3_Al_6.00_(BO_3_)_3_(Si_0.95_Al_005_)_6.00_O_18_(OH)_4_
##PIN_ID=L01264
##ORIENTATION=Laser parallel to a* (1 0 0). Fiducial mark perpendicular to laser is parallel to -c [0 0 -1]
168.4860, 0.0000000E+00
169.7110, 249.7510
170.9360, 426.2295
172.1610, 37.63574
173.3850, 54.99219
174.6100, 36.57324
175.8340, 29.12598
177.0580, 61.05859
178.2820, 194.8242
179.5050, 353.3457
180.7290, 421.9922
181.9520, 278.4697
183.1760, 665.7383
184.3990, 983.4697
185.6220, 1347.051
186.8450, 1724.867
188.0670, 2009.580
189.2900, 2467.843
190.5120, 2815.139
191.7340, 3290.805
192.9560, 3862.867
194.1780, 4176.054
195.4000, 5257.165
196.6220, 5650.049
197.8430, 6501.580
199.0640, 7598.877
200.2860, 8968.659
201.5070, 10566.46
202.7270, 11629.11
203.9480, 12132.84
205.1690, 13111.88
206.3890, 14870.45
207.6090, 16825.69
208.8290, 19285.78
210.0490, 21610.85
211.2690, 23782.02
212.4890, 25310.41
213.7080, 25983.10
214.9280, 25769.21
216.1470, 25173.79
217.3660, 24485.91
218.5850, 23328.64
219.8030, 22090.01
221.0220, 20749.11
222.2400, 19580.94
223.4590, 18400.54
224.6770, 18279.95
225.8950, 17958.18
227.1120, 17027.26
228.3300, 17565.65
229.5480, 17602.90
230.7650, 18569.59
231.9820, 19773.84
233.1990, 21331.78
234.4160, 22986.52
235.6330, 25432.15
236.8490, 27812.81
238.0660, 30388.86
239.2820, 32709.27
240.4980, 35203.04
241.7140, 36662.14
242.9300, 37501.50
244.1460, 37301.04
245.3610, 35878.80
246.5770, 33769.80
247.7920, 30883.10
249.0070, 27682.71
250.2220, 24549.62
251.4370, 21323.85
252.6510, 18791.38
253.8660, 16077.22
255.0800, 14191.36
256.2940, 12618.79
257.5080, 13489.52
258.7220, 11119.91
259.9360, 11296.81
261.1490, 8446.353
262.3630, 7231.151
263.5760, 6451.200
264.7890, 5891.488
266.0020, 5466.014
267.2150, 5079.770
268.4270, 4585.751
269.6400, 4121.952
270.8520, 5081.370
272.0640, 4034.700
273.2760, 3762.819
274.4880, 2906.796
275.7000, 2447.910
276.9120, 1979.159
278.1230, 1821.546
279.3340, 1283.070
280.5450, 1021.730
281.7560, 788.5322
282.9670, 574.4727
284.1780, 378.5518
285.3880, 233.5020
286.5980, 234.1328
287.8090, 3.633789
289.0190, 105.1650
290.2290, 183.4531
291.4380, 360.0225
292.6480, 435.9639
293.8570, 468.7627
295.0670, 642.4170
296.2760, 459.8623
297.4850, 575.0537
298.6930, 666.9326
299.9020, 458.5215
301.1110, 391.7588
302.3190, 240.8662
303.5270, 93.23242
304.7350, 162.0908
305.9430, 450.8320
307.1510, 705.3184
308.3580, 1170.744
309.5660, 1617.357
310.7730, 2477.133
311.9800, 4309.064
313.1870, 4266.131
314.3940, 5122.640
315.6010, 4768.604
316.8070, 4717.969
318.0130, 4391.455
319.2200, 3782.781
320.4260, 3133.339
321.6310, 2512.176
322.8370, 1934.032
324.0430, 1720.704
325.2480, 1569.725
326.4540, 1653.062
327.6590, 1546.682
328.8640, 1580.563
330.0680, 1867.684
331.2730, 2032.016
332.4780, 2188.062
333.6820, 2383.215
334.8860, 2561.049
336.0900, 2833.755
337.2940, 3165.132
338.4980, 3442.363
339.7010, 3863.714
340.9050, 4244.179
342.1080, 4724.754
343.3110, 5095.436
344.5140, 5594.214
345.7170, 6187.053
346.9200, 6942.902
348.1220, 7557.750
349.3240, 8292.602
350.5270, 9330.463
351.7290, 10396.35
352.9310, 11640.25
354.1320, 12996.18
355.3340, 14805.15
356.5350, 16684.16
357.7370, 18968.21
358.9380, 21822.30
360.1390, 25071.44
361.3400, 28714.62
362.5400, 33018.86
363.7410, 37169.15
364.9410, 41380.50
366.1410, 45415.89
367.3410, 49144.36
368.5410, 51020.88
369.7410, 51970.13
370.9400, 52167.09
372.1400, 50386.79
373.3390, 47931.52
374.5380, 44372.10
375.7370, 40087.29
376.9360, 36237.88
378.1350, 32305.98
379.3330, 28988.54
380.5310, 25620.87
381.7300, 23140.32
382.9280, 20873.88
384.1260, 19021.54
385.3230, 17299.31
386.5210, 16193.19
387.7180, 15088.18
388.9160, 14134.26
390.1130, 13269.46
391.3100, 12507.19
392.5060, 11864.15
393.7030, 11338.66
394.9000, 10820.25
396.0960, 10548.95
397.2920, 10258.75
398.4880, 9917.260
399.6840, 9939.627
400.8800, 9449.707
402.0750, 9547.879
403.2710, 9522.144
404.4660, 9022.496
405.6610, 9138.942
406.8560, 8815.474
408.0510, 8574.090
409.2450, 8157.797
410.4400, 7675.586
411.6340, 7109.461
412.8280, 6680.419
414.0220, 6305.460
415.2160, 5693.584
416.4100, 5114.786
417.6030, 4961.070
418.7970, 4273.986
419.9900, 4423.707
421.1830, 3368.237
422.3760, 2927.478
423.5690, 2824.702
424.7610, 2353.012
425.9540, 2228.166
427.1460, 2107.333
428.3380, 1740.264
429.5300, 1592.914
430.7220, 1614.740
431.9140, 1410.883
433.1050, 1478.041
434.2970, 1320.246
435.4880, 1239.383
436.6790, 1216.593
437.8700, 1039.262
439.0610, 939.2695
440.2510, 890.8643
441.4420, 896.7109
442.6320, 656.7129
443.8220, 622.5850
445.0120, 586.8594
446.2020, 653.6113
447.3910, 608.9336
448.5810, 558.3682
449.7700, 532.6055
450.9600, 499.7793
452.1490, 382.1523
453.3370, 338.5928
454.5260, 534.0986
455.7150, 394.6709
456.9030, 377.3096
458.0910, 533.0205
459.2800, 502.8066
460.4670, 488.6719
461.6550, 537.6230
462.8430, 645.6543
464.0300, 1052.770
465.2180, 836.3584
466.4050, 936.2227
467.5920, 703.5537
468.7790, 964.1504
469.9650, 1190.412
471.1520, 1080.936
472.3380, 1284.521
473.5250, 1472.166
474.7110, 1643.872
475.8970, 1797.636
477.0820, 1903.457
478.2680, 2038.335
479.4540, 2079.270
480.6390, 2305.260
481.8240, 2464.385
483.0090, 2866.404
484.1940, 2880.559
485.3780, 3159.766
486.5630, 3360.025
487.7470, 3529.339
488.9320, 3699.703
490.1160, 3825.119
491.3000, 4069.509
492.4830, 4535.109
493.6670, 4559.682
494.8500, 4785.307
496.0340, 5061.983
497.2170, 4886.712
498.4000, 5165.490
499.5820, 5184.322
500.7650, 5127.204
501.9480, 4978.135
503.1300, 4791.119
504.3120, 4506.152
505.4940, 4413.234
506.6760, 4115.369
507.8580, 3899.551
509.0390, 3627.541
510.2210, 3355.062
511.4020, 3018.392
512.5830, 2841.768
513.7640, 2557.193
514.9450, 2364.666
516.1250, 2246.187
517.3060, 1865.755
518.4860, 1950.374
519.6660, 1666.035
520.8460, 1356.770
522.0260, 1304.553
523.2060, 1249.393
524.3850, 1108.291
525.5650, 1003.246
526.7440, 1159.257
527.9230, 1156.324
529.1020, 1050.446
530.2810, 1193.624
531.4590, 1383.854
532.6380, 1457.139
533.8160, 1533.477
534.9940, 1629.868
536.1720, 1627.310
537.3500, 1512.804
538.5270, 1513.349
539.7050, 1567.943
540.8820, 1487.170
542.0590, 1504.285
543.2360, 1391.027
544.4130, 1318.820
545.5900, 1201.661
546.7660, 1144.298
547.9430, 1029.712
549.1190, 998.4658
550.2950, 845.4961
551.4710, 702.5742
552.6470, 671.6992
553.8220, 388.8721
554.9980, 248.0977
556.1730, 232.3760
557.3480, 147.7080
558.5230, 107.0908
559.6980, 103.5332
560.8730, 2.933594
562.0470, 19.66113
563.2220, 175.6660
564.3960, 78.98047
565.5700, 17.22949
566.7440, 259.3955
567.9170, 51.57422
569.0910, 122.6924
570.2640, 225.7822
571.4380, 171.8955
572.6110, 255.9980
573.7840, 205.1475
574.9570, 225.2861
576.1290, 222.3848
577.3020, 279.4287
578.4740, 231.4316
579.6460, 299.3701
580.8180, 349.2100
581.9900, 233.0166
583.1620, 244.7109
584.3330, 167.2812
585.5040, 136.1445
586.6760, 220.1445
587.8470, 56.47266
589.0180, 12.22754
590.1880, 111.0117
591.3590, 54.14844
592.5290, 84.71484
593.7000, 64.62598
594.8700, 183.5762
596.0400, 365.5723
597.2090, 309.6025
598.3790, 299.6885
599.5490, 383.8105
600.7180, 432.9668
601.8870, 550.1953
603.0560, 485.4561
604.2250, 631.7520
605.3940, 727.0771
606.5620, 1150.436
607.7300, 1095.538
608.8990, 1202.234
610.0670, 1246.686
611.2350, 1227.150
612.4020, 1491.640
613.5700, 1584.149
614.7370, 1727.686
615.9050, 2024.241
617.0720, 2071.816
618.2390, 2383.410
619.4060, 2623.021
620.5720, 3121.652
621.7390, 3429.300
622.9050, 3927.964
624.0710, 4354.644
625.2370, 5114.340
626.4030, 5851.055
627.5690, 6748.781
628.7340, 7723.520
629.9000, 8576.271
631.0650, 9240.032
632.2300, 9637.809
633.3950, 10067.59
634.5600, 10134.38
635.7240, 10175.19
636.8890, 10382.00
638.0530, 10282.82
639.2170, 10219.65
640.3810, 10317.48
641.5450, 10760.33
642.7080, 11024.17
643.8720, 11718.03
645.0350, 12315.89
646.1980, 12775.75
647.3610, 13008.62
648.5240, 13016.50
649.6870, 13195.37
650.8490, 12893.25
652.0120, 12847.13
653.1740, 12739.02
654.3360, 12173.90
655.4980, 12200.79
656.6600, 12141.68
657.8210, 12087.57
658.9830, 12202.45
660.1440, 12436.34
661.3050, 12885.23
662.4660, 13323.11
663.6270, 13826.99
664.7870, 14365.86
665.9480, 14919.64
667.1080, 15880.61
668.2680, 16105.47
669.4280, 16571.33
670.5880, 17144.19
671.7480, 17048.04
672.9070, 16926.88
674.0670, 16588.71
675.2260, 16069.54
676.3850, 15445.36
677.5440, 14599.16
678.7030, 13932.96
679.8610, 13451.76
681.0200, 12913.54
682.1780, 12420.30
683.3360, 12067.06
684.4940, 11451.81
685.6520, 11515.55
686.8090, 11412.27
687.9670, 11482.56
689.1240, 11864.57
690.2810, 11952.59
691.4380, 12584.60
692.5950, 13428.25
693.7520, 13974.63
694.9080, 14758.25
696.0650, 15831.33
697.2210, 16890.71
698.3770, 17952.91
699.5330, 19275.22
700.6880, 20016.76
701.8440, 20602.14
702.9990, 20428.60
704.1550, 20075.25
705.3100, 19023.98
706.4650, 17683.68
707.6190, 15680.27
708.7740, 13999.73
709.9290, 11966.16
711.0830, 10279.56
712.2370, 8757.098
713.3910, 7521.129
714.5450, 6442.762
715.6980, 5617.770
716.8520, 4855.773
718.0050, 4200.808
719.1580, 3833.031
720.3110, 3296.043
721.4640, 3052.676
722.6170, 2915.879
723.7700, 2515.026
724.9220, 2399.667
726.0740, 2360.198
727.2260, 2229.668
728.3780, 2206.014
729.5300, 2108.543
730.6810, 2069.108
731.8330, 2007.460
732.9840, 2038.919
734.1350, 1901.528
735.2860, 1947.624
736.4370, 1927.658
737.5880, 1898.354
738.7380, 1852.121
739.8880, 1927.798
741.0390, 1936.236
742.1890, 2008.111
743.3380, 2263.109
744.4880, 2174.846
745.6380, 2525.654
746.7870, 2564.543
747.9360, 2491.726
749.0850, 2665.629
750.2340, 2891.717
751.3830, 2962.482
752.5310, 3189.663
753.6800, 3092.283
754.8280, 3192.571
755.9760, 3239.734
757.1240, 3345.734
758.2720, 3346.070
759.4190, 3191.953
760.5670, 3056.079
761.7140, 3015.980
762.8610, 2905.864
764.0080, 2825.568
765.1550, 2728.647
766.3020, 2680.934
767.4480, 2574.198
768.5950, 2534.467
769.7410, 2420.535
770.8870, 2385.604
772.0330, 2277.621
773.1780, 2212.580
774.3240, 2338.485
775.4690, 2152.335
776.6140, 2214.128
777.7590, 2023.867
778.9040, 2048.549
780.0490, 1988.175
781.1940, 1965.744
782.3380, 1957.256
783.4820, 1870.711
784.6260, 1865.109
785.7700, 1905.450
786.9140, 1809.733
788.0580, 1739.958
789.2010, 1745.126
790.3450, 1762.233
791.4880, 1691.283
792.6310, 1814.275
793.7730, 1569.209
794.9160, 1610.082
796.0590, 1538.896
797.2010, 1392.652
798.3430, 1278.350
799.4850, 1229.985
800.6270, 1171.562
801.7690, 1166.080
802.9100, 972.5391
804.0520, 827.9365
805.1930, 883.2754
806.3340, 780.5566
807.4750, 796.7754
808.6160, 782.9346
809.7560, 746.0342
810.8970, 637.0732
812.0370, 729.0527
813.1770, 650.2217
814.3170, 695.8320
815.4570, 639.6309
816.5960, 614.3711
817.7360, 692.0498
818.8750, 611.6680
820.0140, 573.2256
821.1530, 713.7227
822.2920, 455.1592
823.4310, 459.5361
824.5690, 314.8506
825.7070, 383.1006
826.8460, 375.2861
827.9840, 379.4082
829.1220, 228.4658
830.2590, 144.4541
831.3970, 124.3643
832.5340, 90.19629
833.6710, 141.9443
834.8080, 35.61523
835.9450, 85.80957
837.0820, 39.39258
838.2190, 72.10156
839.3550, 147.9580
840.4910, 181.9600
841.6270, 152.1465
842.7630, 212.5137
843.8990, 131.0400
845.0350, 124.7285
846.1700, 119.5596
847.3060, 153.5078
848.4410, 55.60156
849.5760, 83.77051
850.7100, 176.0400
851.8450, 69.45215
852.9800, 56.95410
854.1140, 20.52344
855.2480, 116.1523
856.3820, 145.8730
857.5160, 128.6895
858.6500, 102.6201
859.7830, 34.64941
860.9170, 112.7578
862.0500, 201.9941
863.1830, 77.38281
864.3160, 166.8984
865.4480, 18.60059
866.5810, 48.41797
867.7130, 0.6552730
868.8460, 105.6240
869.9780, 6.515625
871.1100, 167.3066
872.2410, 34.97656
873.3730, 94.62109
874.5050, 84.13965
875.6360, 97.42090
876.7670, 100.8662
877.8980, 61.07617
879.0290, 134.2041
880.1590, 62.25977
881.2900, 52.23438
882.4200, 291.1289
883.5500, 208.5332
884.6800, 262.7178
885.8100, 205.4150
886.9400, 270.0439
888.0690, 175.6094
889.1990, 279.1064
890.3280, 344.5410
891.4570, 360.9131
892.5860, 386.7559
893.7140, 293.4795
894.8430, 387.6719
895.9710, 315.8057
897.1000, 355.8779
898.2280, 345.8926
899.3560, 197.8477
900.4830, 570.7402
901.6110, 551.5781
902.7380, 437.3613
903.8660, 543.0889
904.9930, 433.7637
906.1200, 516.3848
907.2460, 605.9521
908.3730, 496.4668
909.5000, 643.9277
910.6260, 642.3379
911.7520, 621.6943
912.8780, 627.9990
914.0040, 651.2588
915.1290, 753.4658
916.2550, 820.6348
917.3800, 849.7539
918.5050, 741.8232
919.6300, 869.8418
920.7550, 864.8105
921.8800, 846.7295
923.0040, 896.5986
924.1290, 991.4189
925.2530, 998.1943
926.3770, 1061.938
927.5010, 1045.646
928.6250, 1022.308
929.7480, 1035.934
930.8720, 1096.532
931.9950, 1137.084
933.1180, 1170.617
934.2410, 1221.104
935.3640, 1372.591
936.4860, 1272.071
937.6090, 1483.519
938.7310, 1559.936
939.8530, 1527.329
940.9750, 1665.685
942.0970, 1794.021
943.2180, 1936.314
944.3400, 2062.578
945.4610, 2089.842
946.5820, 2094.093
947.7030, 2219.338
948.8240, 2362.575
949.9450, 2439.771
951.0650, 2671.926
952.1860, 2852.043
953.3060, 2975.139
954.4260, 3047.186
955.5460, 3248.217
956.6650, 3302.241
957.7850, 3409.234
958.9040, 3383.203
960.0230, 3619.546
961.1420, 3929.145
962.2610, 3663.669
963.3800, 3908.179
964.4990, 3776.986
965.6170, 4037.014
966.7350, 3881.744
967.8530, 3921.124
968.9710, 4443.832
970.0890, 3950.833
971.2070, 3963.666
972.3240, 4089.391
973.4410, 3828.044
974.5580, 3815.919
975.6750, 3857.646
976.7920, 3751.234
977.9090, 3718.029
979.0250, 3693.386
980.1410, 3642.238
981.2580, 3626.868
982.3740, 3619.372
983.4890, 3602.029
984.6050, 3679.925
985.7200, 3487.038
986.8360, 3513.853
987.9510, 3632.465
989.0660, 3542.375
990.1810, 3628.293
991.2950, 3522.358
992.4100, 3713.516
993.5240, 3747.323
994.6390, 3702.414
995.7530, 3836.717
996.8660, 3943.239
997.9800, 3961.701
999.0940, 4007.570
1000.207, 4079.773
1001.320, 4385.136
1002.433, 4444.607
1003.546, 4718.396
1004.659, 4901.741
1005.772, 5053.664
1006.884, 5369.033
1007.996, 5542.689
1009.108, 5944.215
1010.220, 6328.779
1011.332, 6739.525
1012.444, 7039.778
1013.555, 7387.854
1014.666, 7861.137
1015.777, 8073.289
1016.888, 8595.309
1017.999, 9123.978
1019.110, 9445.872
1020.220, 9926.523
1021.331, 10356.44
1022.441, 10760.89
1023.551, 11274.84
1024.661, 11476.07
1025.770, 11899.37
1026.880, 12168.77
1027.989, 12387.90
1029.098, 12651.19
1030.207, 12850.30
1031.316, 13034.58
1032.425, 13351.82
1033.533, 13627.44
1034.642, 13234.11
1035.750, 13226.78
1036.858, 13406.41
1037.966, 13174.08
1039.073, 13325.71
1040.181, 13095.37
1041.288, 13198.02
1042.396, 13073.68
1043.503, 12977.33
1044.610, 12992.99
1045.716, 12807.64
1046.823, 12524.27
1047.929, 12548.92
1049.036, 12157.29
1050.142, 12253.14
1051.248, 11940.79
1052.353, 11798.44
1053.459, 11379.09
1054.564, 11256.75
1055.670, 10836.40
1056.775, 10575.05
1057.880, 10046.41
1058.985, 9885.872
1060.089, 9756.749
1061.194, 9320.967
1062.298, 9128.347
1063.402, 8724.750
1064.506, 8592.613
1065.610, 8406.597
1066.713, 8268.263
1067.817, 8006.717
1068.920, 7842.201
1070.023, 7553.518
1071.126, 7280.625
1072.229, 7116.289
1073.332, 6850.988
1074.435, 6570.307
1075.537, 6367.268
1076.639, 6116.980
1077.741, 5870.525
1078.843, 5693.104
1079.945, 5328.748
1081.046, 5122.254
1082.148, 4885.486
1083.249, 4566.897
1084.350, 4449.738
1085.451, 4311.523
1086.551, 4130.643
1087.652, 3781.102
1088.752, 3682.959
1089.853, 3520.268
1090.953, 3201.355
1092.053, 3138.018
1093.152, 2931.676
1094.252, 2851.114
1095.351, 2619.030
1096.451, 2643.852
1097.550, 2540.561
1098.649, 2442.237
1099.748, 2338.184
1100.846, 2126.908
1101.945, 2061.614
1103.043, 2055.364
1104.141, 2111.136
1105.239, 1961.134
1106.337, 1951.747
1107.434, 1839.906
1108.532, 1786.898
1109.629, 1682.162
1110.726, 1557.304
1111.823, 1575.507
1112.920, 1568.769
1114.017, 1370.088
1115.113, 1472.474
1116.210, 1398.900
1117.306, 1374.404
1118.402, 1297.952
1119.498, 1261.543
1120.593, 1230.935
1121.689, 1163.839
1122.784, 1176.560
1123.879, 1084.343
1124.974, 1052.186
1126.069, 1174.081
1127.164, 872.0107
1128.259, 828.9961
1129.353, 638.0586
1130.447, 700.1660
1131.541, 606.3428
1132.635, 668.5479
1133.729, 591.2510
1134.822, 633.0576
1135.916, 463.3359
1137.009, 473.6357
1138.102, 439.9453
1139.195, 343.2871
1140.288, 291.6406
1141.380, 353.0068
1142.473, 346.4209
1143.565, 290.8467
1144.657, 334.2852
1145.749, 335.6338
1146.841, 331.1953
1147.932, 315.4785
1149.024, 239.1494
1150.115, 245.6357
1151.206, 225.1279
1152.297, 187.6279
1153.388, 53.13184
1154.479, 83.64258
1155.569, 25.15918
1156.659, 252.6797
1157.750, 146.2041
1158.839, 276.7305
1159.929, 140.2617
1161.019, 127.7959
1162.108, 65.33398
1163.198, 145.8760
1164.287, 179.4209
1165.376, 113.2324
1166.465, 95.38477
1167.553, 91.68164
1168.642, 85.92773
1169.730, 131.7930
1170.818, 131.3506
1171.906, 119.9082
1172.994, 165.0781
1174.082, 111.5781
1175.170, 110.5889
1176.257, 77.15137
1177.344, 27.39160
1178.431, 54.16016
1179.518, 61.28711
1180.605, 0.7607420
1181.691, 33.76367
1182.778, 38.73828
1183.864, 82.94238
1184.950, 88.33789
1186.036, 108.8633
1187.122, 36.38867
1188.207, 14.08496
1189.292, 70.56836
1190.378, 43.08594
1191.463, 8.627930
1192.548, 50.17676
1193.632, 65.75195
1194.717, 3.637695
1195.801, 104.9775
1196.886, 99.35059
1197.970, 174.3213
1199.054, 142.0869
1200.137, 42.93262
1201.221, 54.80371
1202.305, 78.70898
1203.388, 11.42871
1204.471, 87.62207
1205.554, 5.363281
1206.637, 40.65723
1207.719, 156.7051
1208.802, 104.8438
1209.884, 137.0449
1210.966, 118.3252
1212.048, 10.32422
1213.130, 37.96777
1214.212, 8.388672
1215.293, 28.23926
1216.374, 106.1328
1217.456, 3.564453
1218.536, 120.0098
1219.617, 14.52832
1220.698, 43.06445
1221.778, 114.3652
1222.859, 51.19531
1223.939, 3.205078
1225.019, 38.39453
1226.099, 22.97461
1227.178, 51.34375
1228.258, 146.7109
1229.337, 18.07715
1230.417, 32.56250
1231.496, 152.7686
1232.574, 55.09766
1233.653, 104.4238
1234.732, 23.74902
1235.810, 228.0693
1236.888, 174.3857
1237.966, 261.7012
1239.044, 25.01367
1240.122, 94.31836
1241.199, 223.6211
1242.277, 119.5186
1243.354, 131.1934
1244.431, 111.5020
1245.508, 73.78711
1246.585, 57.46680
1247.661, 208.3398
1248.738, 142.6074
1249.814, 199.8701
1250.890, 215.1270
1251.966, 208.3779
1253.042, 123.6211
1254.117, 337.8594
1255.193, 246.8496
1256.268, 147.3135
1257.343, 230.5283
1258.418, 112.7383
1259.493, 90.93848
1260.567, 207.1309
1261.642, 190.3135
1262.716, 114.4893
1263.790, 125.6562
1264.864, 130.8145
1265.938, 269.9619
1267.011, 283.1025
1268.085, 271.2334
1269.158, 222.3555
1270.231, 362.4678
1271.304, 284.5713
1272.377, 320.6650
1273.450, 277.7480
1274.522, 174.8223
1275.594, 209.8867
1276.666, 230.9414
1277.738, 324.9863
1278.810, 242.0215
1279.882, 309.0459
1280.953, 279.0596
1282.025, 306.0635
1283.096, 283.0576
1284.167, 227.0410
1285.238, 349.0156
1286.308, 342.9795
1287.379, 302.9326
1288.449, 222.8760
1289.519, 269.8086
1290.589, 322.7324
1291.659, 391.6455
1292.729, 215.5488
1293.798, 321.4414
1294.868, 320.3252
1295.937, 32.19727
1297.006, 333.0537
1298.075, 166.8994
1299.143, 76.73633
1300.212, 82.56641
1301.280, 179.3877
1302.348, 168.2002
1303.416, 263.0020
1304.484, 169.7930
1305.552, 26.63477
1306.620, 228.2051
1307.687, 344.9482
1308.754, 377.7930
1309.821, 88.85645
1310.888, 218.8623
1311.955, 181.0381
1313.021, 136.3057
1314.088, 325.2344
1315.154, 83.59277
1316.220, 268.7861
1317.286, 282.8740
1318.352, 371.8350
1319.417, 293.5049
1320.483, 268.9902
1321.548, 411.2109
1322.613, 458.8760
1323.678, 363.0859
1324.743, 454.4229
1325.807, 206.8203
1326.872, 251.3701
1327.936, 473.9795
1329.000, 424.9004
1330.064, 481.0186
1331.128, 367.6016
1332.191, 427.1162
1333.255, 496.0068
1334.318, 540.2461
1335.381, 407.9795
