##NAMES=Dravite
##RRUFFID=R060280
##IDEAL CHEMISTRY=NaMg_3_Al_6_(Si_6_O_18_)(BO_3_)_3_(OH)_3_OH
##LOCALITY=near Merelani, Tanzania
##OWNER=RRUFF
##SOURCE=Herb Obodda
##DESCRIPTION=Green fragment
##STATUS=The identification of this mineral has been confirmed by X-ray diffraction and chemical analysis
##URL=rruff.info/R060280
##MEASURED CHEMISTRY=(Na_0.45_Ca_0.40_[box]_0.15_)(Mg_0.89_Al_0.07_Ti_0.04_)_3_Al_6_(BO_3_)_3_(Si_0.93_B_0.07_)_6_O_18_((OH)_0.95_O_0.05_)_4_
##PIN_ID=L00930
##ORIENTATION=Laser parallel to c* (0 0 1). Fiducial mark perpendicular to laser is parallel to -b [0 -1 0]
168.4860, 0.0000000E+00
169.7110, 301.5098
170.9360, 542.1602
172.1610, 280.3516
173.3850, 393.1523
174.6100, 221.7070
175.8340, 161.3203
177.0580, 196.4551
178.2820, 7.193359
179.5050, 44.88086
180.7290, 18.99219
181.9520, 38.07812
183.1760, 140.9688
184.3990, 264.4043
185.6220, 524.1543
186.8450, 444.3594
188.0670, 803.1016
189.2900, 902.9980
190.5120, 1162.746
191.7340, 1312.109
192.9560, 1706.906
194.1780, 1705.992
195.4000, 2018.256
196.6220, 2477.602
197.8430, 2710.959
199.0640, 3231.354
200.2860, 3830.809
201.5070, 4154.088
202.7270, 4912.178
203.9480, 5310.484
205.1690, 5185.609
206.3890, 5599.139
207.6090, 6387.828
208.8290, 6974.676
210.0490, 7794.699
211.2690, 8658.910
212.4890, 9267.328
213.7080, 10432.97
214.9280, 10280.84
216.1470, 10191.96
217.3660, 9517.340
218.5850, 9280.990
219.8030, 8222.928
221.0220, 7248.150
222.2400, 6711.682
223.4590, 5790.518
224.6770, 5152.664
225.8950, 4633.137
227.1120, 4298.934
228.3300, 4388.053
229.5480, 4153.141
230.7650, 4052.131
231.9820, 4589.168
233.1990, 4653.549
234.4160, 4906.281
235.6330, 5193.363
236.8490, 5347.182
238.0660, 5584.527
239.2820, 6014.227
240.4980, 6187.158
241.7140, 6282.211
242.9300, 6096.406
244.1460, 5548.777
245.3610, 5405.311
246.5770, 4912.998
247.7920, 4137.781
249.0070, 3570.770
250.2220, 2800.992
251.4370, 2352.461
252.6510, 1859.180
253.8660, 1548.152
255.0800, 1437.391
256.2940, 1036.895
257.5080, 1248.672
258.7220, 992.6211
259.9360, 881.0625
261.1490, 870.6426
262.3630, 713.5176
263.5760, 848.6699
264.7890, 948.1016
266.0020, 1051.818
267.2150, 1214.822
268.4270, 1534.119
269.6400, 1753.701
270.8520, 1985.578
272.0640, 2214.744
273.2760, 2174.199
274.4880, 2436.945
275.7000, 2221.975
276.9120, 1920.287
278.1230, 2075.875
279.3340, 1590.729
280.5450, 1457.850
281.7560, 1110.240
282.9670, 856.8984
284.1780, 645.8262
285.3880, 411.8672
286.5980, 246.2246
287.8090, 66.23242
289.0190, 28.24023
290.2290, 82.48242
291.4380, 6.064453
292.6480, 33.11914
293.8570, 155.9668
295.0670, 324.3203
296.2760, 334.9453
297.4850, 336.8379
298.6930, 304.0000
299.9020, 279.9355
301.1110, 244.9512
302.3190, 172.0742
303.5270, 91.27539
304.7350, 12.25977
305.9430, 236.5293
307.1510, 368.5352
308.3580, 653.2188
309.5660, 376.5020
310.7730, 585.4688
311.9800, 307.3398
313.1870, 279.9805
314.3940, 224.6660
315.6010, 359.3242
316.8070, 497.9141
318.0130, 724.4199
319.2200, 968.7734
320.4260, 1315.756
321.6310, 1818.207
322.8370, 1868.270
324.0430, 2456.766
325.2480, 2736.527
326.4540, 3415.137
327.6590, 3931.746
328.8640, 4340.688
330.0680, 4883.973
331.2730, 5756.570
332.4780, 6341.480
333.6820, 6813.676
334.8860, 7426.160
336.0900, 8001.914
337.2940, 8147.934
338.4980, 8512.219
339.7010, 8359.758
340.9050, 8281.543
342.1080, 8149.582
343.3110, 7926.859
344.5140, 7592.039
345.7170, 7364.133
346.9200, 6886.113
348.1220, 6813.324
349.3240, 6741.754
350.5270, 6891.379
351.7290, 7306.199
352.9310, 7630.215
354.1320, 8552.434
355.3340, 9266.840
356.5350, 10217.45
357.7370, 11295.27
358.9380, 12551.33
360.1390, 14004.66
361.3400, 15437.29
362.5400, 17212.19
363.7410, 18695.36
364.9410, 20118.79
366.1410, 21918.47
367.3410, 23169.37
368.5410, 24586.46
369.7410, 25712.74
370.9400, 26133.21
372.1400, 25951.87
373.3390, 25836.72
374.5380, 25277.73
375.7370, 23493.94
376.9360, 22136.32
378.1350, 20613.89
379.3330, 18646.64
380.5310, 16837.58
381.7300, 15045.70
382.9280, 13551.85
384.1260, 12167.88
385.3230, 11130.85
386.5210, 9970.949
387.7180, 8979.242
388.9160, 8192.727
390.1130, 7392.406
391.3100, 7072.273
392.5060, 6423.336
393.7030, 6040.586
394.9000, 5566.031
396.0960, 5163.664
397.2920, 4892.062
398.4880, 4690.508
399.6840, 4392.711
400.8800, 4188.105
402.0750, 3942.691
403.2710, 3686.461
404.4660, 3614.414
405.6610, 3361.562
406.8560, 3201.980
408.0510, 3034.406
409.2450, 2831.109
410.4400, 2633.992
411.6340, 2407.059
412.8280, 2179.309
414.0220, 1731.742
415.2160, 1626.355
416.4100, 1197.152
417.6030, 1219.125
418.7970, 968.2773
419.9900, 987.6094
421.1830, 1347.121
422.3760, 923.8086
423.5690, 1213.676
424.7610, 1294.715
425.9540, 1271.934
427.1460, 1548.324
428.3380, 1801.891
429.5300, 1988.625
430.7220, 2205.539
431.9140, 2281.625
433.1050, 2442.883
434.2970, 2872.773
435.4880, 2603.336
436.6790, 2756.594
437.8700, 2801.527
439.0610, 2596.637
440.2510, 3012.910
441.4420, 2644.352
442.6320, 2645.957
443.8220, 2878.734
445.0120, 2580.672
446.2020, 2609.066
447.3910, 2364.367
448.5810, 2170.820
449.7700, 2332.059
450.9600, 1817.367
452.1490, 1866.324
453.3370, 1715.793
454.5260, 1371.809
455.7150, 1386.340
456.9030, 1230.207
458.0910, 1102.176
459.2800, 852.6172
460.4670, 553.6914
461.6550, 650.5781
462.8430, 497.9414
464.0300, 451.5781
465.2180, 525.5039
466.4050, 423.6211
467.5920, 312.6562
468.7790, 614.1953
469.9650, 465.3398
471.1520, 683.2695
472.3380, 1024.469
473.5250, 1269.777
474.7110, 1544.957
475.8970, 1511.934
477.0820, 2089.812
478.2680, 2149.879
479.4540, 2406.129
480.6390, 2836.562
481.8240, 2568.188
483.0090, 2903.992
484.1940, 3052.984
485.3780, 3299.160
486.5630, 3473.516
487.7470, 3526.055
488.9320, 3508.777
490.1160, 3781.680
491.3000, 4078.762
492.4830, 3985.023
493.6670, 4611.461
494.8500, 4668.082
496.0340, 5114.879
497.2170, 5300.852
498.4000, 5867.004
499.5820, 6100.723
500.7650, 6243.941
501.9480, 6563.469
503.1300, 6581.492
504.3120, 6642.340
505.4940, 6832.906
506.6760, 6638.941
507.8580, 6353.555
509.0390, 5877.250
510.2210, 5477.109
511.4020, 5220.133
512.5830, 4989.320
513.7640, 4713.668
514.9450, 4290.184
516.1250, 4061.855
517.3060, 4044.691
518.4860, 3883.688
519.6660, 4131.848
520.8460, 4344.164
522.0260, 4545.641
523.2060, 5078.281
524.3850, 5429.078
525.5650, 6246.031
526.7440, 6593.145
527.9230, 7294.422
529.1020, 8130.855
530.2810, 8638.449
531.4590, 9482.203
532.6380, 9735.113
533.8160, 10132.18
534.9940, 10294.41
536.1720, 10547.79
537.3500, 10524.33
538.5270, 10587.03
539.7050, 9885.875
540.8820, 9911.879
542.0590, 9390.039
543.2360, 8752.352
544.4130, 8641.812
545.5900, 8263.434
546.7660, 7524.195
547.9430, 7370.113
549.1190, 6700.180
550.2950, 6483.398
551.4710, 6350.762
552.6470, 6049.277
553.8220, 5729.941
554.9980, 5436.750
556.1730, 5415.707
557.3480, 5292.809
558.5230, 5035.055
559.6980, 4736.445
560.8730, 4748.984
562.0470, 4797.664
563.2220, 4520.488
564.3960, 4579.453
565.5700, 4279.559
566.7440, 4292.809
567.9170, 4013.195
569.0910, 3853.727
570.2640, 3553.395
571.4380, 3484.203
572.6110, 3340.145
573.7840, 2874.230
574.9570, 2462.449
576.1290, 2423.816
577.3020, 1720.316
578.4740, 1642.957
579.6460, 1423.730
580.8180, 1115.637
581.9900, 900.6836
583.1620, 550.8555
584.3330, 408.1680
585.5040, 340.6172
586.6760, 265.8047
587.8470, 58.18750
589.0180, 196.4414
590.1880, 263.6367
591.3590, 85.25391
592.5290, 182.6250
593.7000, 232.2148
594.8700, 256.6406
596.0400, 292.8125
597.2090, 233.8438
598.3790, 271.6953
599.5490, 192.3906
600.7180, 178.9492
601.8870, 59.34375
603.0560, 174.4883
604.2250, 238.4414
605.3940, 63.77734
606.5620, 183.2031
607.7300, 210.0898
608.8990, 58.78125
610.0670, 49.14844
611.2350, 136.1133
612.4020, 61.39453
613.5700, 151.2656
614.7370, 13.12891
615.9050, 173.1328
617.0720, 289.9180
618.2390, 679.5508
619.4060, 506.9570
620.5720, 642.4766
621.7390, 605.1133
622.9050, 961.8633
624.0710, 1349.719
625.2370, 1748.680
626.4030, 1659.742
627.5690, 1617.914
628.7340, 1875.188
629.9000, 1977.562
631.0650, 1637.039
632.2300, 1594.609
633.3950, 1649.281
634.5600, 970.0469
635.7240, 721.9141
636.8890, 602.8711
638.0530, 354.9297
639.2170, 25.07812
640.3810, 147.7031
641.5450, 248.6562
642.7080, 444.3125
643.8720, 305.2695
645.0350, 255.3008
646.1980, 220.3828
647.3610, 247.5000
648.5240, 2.671875
649.6870, 122.5312
650.8490, 541.1758
652.0120, 624.2227
653.1740, 905.3594
654.3360, 1273.574
655.4980, 1469.867
656.6600, 1788.090
657.8210, 1948.707
658.9830, 2266.246
660.1440, 2440.859
661.3050, 2507.551
662.4660, 2507.316
663.6270, 2604.664
664.7870, 2620.082
665.9480, 2608.078
667.1080, 2620.145
668.2680, 2453.285
669.4280, 2486.500
670.5880, 2271.777
671.7480, 2083.133
672.9070, 2105.555
674.0670, 1906.043
675.2260, 1910.598
676.3850, 1732.223
677.5440, 1513.914
678.7030, 1297.668
679.8610, 1362.488
681.0200, 1284.371
682.1780, 1249.312
683.3360, 1167.320
684.4940, 1291.391
685.6520, 1193.516
686.8090, 1290.703
687.9670, 1680.949
689.1240, 1247.250
690.2810, 1660.613
691.4380, 2112.023
692.5950, 2136.496
693.7520, 2337.023
694.9080, 2760.602
696.0650, 3037.230
697.2210, 3334.914
698.3770, 3843.648
699.5330, 4352.430
700.6880, 4746.266
701.8440, 5236.148
702.9990, 5705.078
704.1550, 6395.055
705.3100, 7136.074
706.4650, 7698.141
707.6190, 8146.250
708.7740, 9257.410
709.9290, 9947.609
711.0830, 10957.85
712.2370, 12038.13
713.3910, 13184.46
714.5450, 14468.82
715.6980, 15753.24
716.8520, 16997.66
718.0050, 18671.13
719.1580, 20355.65
720.3110, 22200.20
721.4640, 24180.78
722.6170, 25805.04
723.7700, 26711.07
724.9220, 27501.17
726.0740, 27811.05
727.2260, 27553.90
728.3780, 27141.39
729.5300, 25965.13
730.6810, 24273.38
731.8330, 22633.79
732.9840, 21373.16
734.1350, 19447.85
735.2860, 18058.80
736.4370, 16666.93
737.5880, 15281.68
738.7380, 14433.45
739.8880, 14011.48
741.0390, 13518.04
742.1890, 12914.74
743.3380, 12992.78
744.4880, 12963.80
745.6380, 12923.12
746.7870, 13238.82
747.9360, 13746.73
749.0850, 14223.39
750.2340, 14754.17
751.3830, 15378.50
752.5310, 16002.43
753.6800, 16654.87
754.8280, 17180.37
755.9760, 17749.27
757.1240, 18277.77
758.2720, 18652.56
759.4190, 18975.75
760.5670, 19235.06
761.7140, 19260.32
762.8610, 19269.49
764.0080, 19035.55
765.1550, 18418.64
766.3020, 18346.44
767.4480, 17893.23
768.5950, 17293.98
769.7410, 17393.73
770.8870, 16899.45
772.0330, 16542.13
773.1780, 16565.81
774.3240, 16299.45
775.4690, 16235.07
776.6140, 16107.66
777.7590, 15939.84
778.9040, 15630.67
780.0490, 15872.33
781.1940, 15739.65
782.3380, 16186.29
783.4820, 16027.35
784.6260, 16204.09
785.7700, 16326.39
786.9140, 16563.75
788.0580, 16965.09
789.2010, 17101.70
790.3450, 17135.71
791.4880, 17666.97
792.6310, 17518.22
793.7730, 18049.43
794.9160, 16820.62
796.0590, 16626.78
797.2010, 15857.92
798.3430, 15621.03
799.4850, 15076.11
800.6270, 15097.16
801.7690, 15067.18
802.9100, 15053.18
804.0520, 15345.14
805.1930, 15713.08
806.3340, 16197.98
807.4750, 17270.86
808.6160, 18299.70
809.7560, 19219.51
810.8970, 20134.29
812.0370, 21369.04
813.1770, 22683.75
814.3170, 23399.43
815.4570, 24257.08
816.5960, 24829.69
817.7360, 25580.27
818.8750, 25571.81
820.0140, 25332.32
821.1530, 24857.79
822.2920, 24344.22
823.4310, 23500.01
824.5690, 22173.97
825.7070, 21337.29
826.8460, 20063.58
827.9840, 18539.82
829.1220, 17299.02
830.2590, 16172.18
831.3970, 14934.30
832.5340, 13828.39
833.6710, 12559.43
834.8080, 11571.42
835.9450, 10654.39
837.0820, 9643.637
838.2190, 8805.148
839.3550, 7887.996
840.4910, 7166.777
841.6270, 6371.520
842.7630, 5643.215
843.8990, 4629.863
845.0350, 4281.469
846.1700, 3768.027
847.3060, 2941.539
848.4410, 2760.004
849.5760, 2125.418
850.7100, 1925.793
851.8450, 1471.113
852.9800, 1434.391
854.1140, 933.6133
855.2480, 842.8359
856.3820, 737.9219
857.5160, 602.0000
858.6500, 440.0273
859.7830, 358.0000
860.9170, 472.9043
862.0500, 264.7520
863.1830, 61.58008
864.3160, 231.2969
865.4480, 43.97656
866.5810, 26.42383
867.7130, 341.9980
868.8460, 154.8672
869.9780, 384.9258
871.1100, 227.2852
872.2410, 279.8633
873.3730, 367.6973
874.5050, 196.8184
875.6360, 287.1641
876.7670, 416.7773
877.8980, 391.7539
879.0290, 414.0547
880.1590, 160.6777
881.2900, 404.5527
882.4200, 342.7949
883.5500, 128.3242
884.6800, 243.0879
885.8100, 239.1152
886.9400, 155.4297
888.0690, 178.9570
889.1990, 42.26562
890.3280, 70.37305
891.4570, 287.3555
892.5860, 195.2734
893.7140, 365.1035
894.8430, 323.8711
895.9710, 491.5703
897.1000, 513.2168
898.2280, 529.8203
899.3560, 605.3906
900.4830, 487.9102
901.6110, 644.3984
902.7380, 824.8926
903.8660, 744.3496
904.9930, 1032.754
906.1200, 845.1113
907.2460, 949.4102
908.3730, 1135.660
909.5000, 1027.859
910.6260, 1274.000
911.7520, 1403.092
912.8780, 1613.129
914.0040, 1591.852
915.1290, 1760.133
916.2550, 1623.182
917.3800, 1700.930
918.5050, 1639.520
919.6300, 1755.730
920.7550, 1683.010
921.8800, 1749.309
923.0040, 1724.580
924.1290, 1542.801
925.2530, 1715.002
926.3770, 1666.211
927.5010, 1704.416
928.6250, 1793.576
929.7480, 1875.695
930.8720, 2124.797
931.9950, 1922.896
933.1180, 2088.979
934.2410, 1977.043
935.3640, 2207.078
936.4860, 2148.094
937.6090, 2024.098
938.7310, 2162.090
939.8530, 2283.043
940.9750, 2169.977
942.0970, 2472.873
943.2180, 2428.777
944.3400, 2457.643
945.4610, 2568.457
946.5820, 2575.682
947.7030, 2694.377
948.8240, 2682.600
949.9450, 2889.211
951.0650, 2930.766
952.1860, 2974.312
953.3060, 3235.801
954.4260, 3042.238
955.5460, 3545.625
956.6650, 3251.953
957.7850, 3676.342
958.9040, 3785.746
960.0230, 4234.629
961.1420, 4052.748
962.2610, 3975.814
963.3800, 3973.828
964.4990, 4046.785
965.6170, 4202.691
966.7350, 4340.545
967.8530, 4545.346
968.9710, 4510.098
970.0890, 4441.795
971.2070, 4537.436
972.3240, 4889.031
973.4410, 4767.574
974.5580, 4740.059
975.6750, 4830.496
976.7920, 4751.883
977.9090, 4909.215
979.0250, 5116.494
980.1410, 5133.723
981.2580, 5161.902
982.3740, 5043.031
983.4890, 5097.109
984.6050, 4894.133
985.7200, 4916.107
986.8360, 4825.912
987.9510, 4670.906
989.0660, 4663.729
990.1810, 4734.498
991.2950, 4654.219
992.4100, 4371.895
993.5240, 4904.867
994.6390, 4484.061
995.7530, 4299.168
996.8660, 4573.035
997.9800, 4564.902
999.0940, 4765.928
1000.207, 4742.967
1001.320, 4981.828
1002.433, 4705.797
1003.546, 5218.430
1004.659, 5013.551
1005.772, 4929.502
1006.884, 4757.086
1007.996, 4660.104
1009.108, 4723.795
1010.220, 4800.777
1011.332, 5152.584
1012.444, 5215.934
1013.555, 5287.865
1014.666, 5829.689
1015.777, 5894.201
1016.888, 6224.270
1017.999, 6642.141
1019.110, 6702.824
1020.220, 7282.135
1021.331, 7361.807
1022.441, 7773.785
1023.551, 8349.023
1024.661, 8451.934
1025.770, 8556.500
1026.880, 8923.012
1027.989, 9473.820
1029.098, 9630.930
1030.207, 9601.797
1031.316, 10458.29
1032.425, 10542.61
1033.533, 11384.12
1034.642, 11551.75
1035.750, 11504.77
1036.858, 11821.94
1037.966, 12373.70
1039.073, 12772.76
1040.181, 13198.40
1041.288, 13628.38
1042.396, 14064.16
1043.503, 14551.05
1044.610, 14990.10
1045.716, 15329.67
1046.823, 15701.31
1047.929, 15933.07
1049.036, 16257.70
1050.142, 16484.73
1051.248, 16676.60
1052.353, 16991.58
1053.459, 17014.59
1054.564, 17266.11
1055.670, 17441.06
1056.775, 17688.83
1057.880, 17838.11
1058.985, 18280.68
1060.089, 18555.97
1061.194, 18784.68
1062.298, 19413.85
1063.402, 19960.02
1064.506, 20751.20
1065.610, 20964.67
1066.713, 21516.53
1067.817, 21632.86
1068.920, 21731.03
1070.023, 21751.65
1071.126, 21643.30
1072.229, 21471.23
1073.332, 21178.70
1074.435, 20803.37
1075.537, 20326.91
1076.639, 19681.01
1077.741, 19138.17
1078.843, 18458.89
1079.945, 17606.31
1081.046, 16984.08
1082.148, 16141.03
1083.249, 15217.85
1084.350, 14846.83
1085.451, 13910.51
1086.551, 13167.18
1087.652, 12444.82
1088.752, 11804.44
1089.853, 11242.03
1090.953, 10696.60
1092.053, 9847.154
1093.152, 9473.684
1094.252, 9000.193
1095.351, 8220.680
1096.451, 8157.145
1097.550, 7639.379
1098.649, 7193.012
1099.748, 6987.412
1100.846, 6627.793
1101.945, 6280.152
1103.043, 6062.494
1104.141, 5517.814
1105.239, 5550.113
1106.337, 5541.393
1107.434, 5165.656
1108.532, 5131.895
1109.629, 4917.117
1110.726, 4900.320
1111.823, 4725.504
1112.920, 4688.668
1114.017, 4832.816
1115.113, 4533.941
1116.210, 4548.611
1117.306, 4184.145
1118.402, 4286.217
1119.498, 4063.271
1120.593, 3811.309
1121.689, 3634.330
1122.784, 3434.332
1123.879, 3181.316
1124.974, 3054.289
1126.069, 2820.832
1127.164, 2461.189
1128.259, 2370.121
1129.353, 2124.053
1130.447, 1795.002
1131.541, 1666.951
1132.635, 1421.928
1133.729, 1277.945
1134.822, 1184.191
1135.916, 972.3145
1137.009, 987.6758
1138.102, 953.1348
1139.195, 763.7031
1140.288, 619.4082
1141.380, 511.2031
1142.473, 424.8105
1143.565, 624.1660
1144.657, 345.3633
1145.749, 348.7051
1146.841, 360.1289
1147.932, 12.69727
1149.024, 253.3867
1150.115, 159.1465
1151.206, 64.00781
1152.297, 45.96680
1153.388, 11.00195
1154.479, 34.18750
1155.569, 8.207031
1156.659, 69.67383
1157.750, 17.02734
1158.839, 51.34375
1159.929, 7.494141
1161.019, 45.49023
1162.108, 35.51562
1163.198, 98.58008
1164.287, 2.283203
1165.376, 88.88086
1166.465, 214.1113
1167.553, 56.47461
1168.642, 5.890625
1169.730, 40.66992
1170.818, 85.21289
1171.906, 79.59766
1172.994, 86.45312
1174.082, 56.72852
1175.170, 38.19531
1176.257, 38.63867
1177.344, 13.93945
1178.431, 80.44531
1179.518, 120.1875
1180.605, 109.9141
1181.691, 85.72852
1182.778, 180.3828
1183.864, 203.5215
1184.950, 119.4336
1186.036, 25.62305
1187.122, 74.26953
1188.207, 95.85547
1189.292, 210.0625
1190.378, 157.4121
1191.463, 19.87891
1192.548, 9.384766
1193.632, 106.9316
1194.717, 154.5664
1195.801, 111.3184
1196.886, 117.1602
1197.970, 45.09570
1199.054, 90.08984
1200.137, 129.1680
1201.221, 142.3477
1202.305, 0.3613280
1203.388, 101.9590
1204.471, 34.37305
1205.554, 191.8379
1206.637, 25.43555
1207.719, 107.9160
1208.802, 58.25195
1209.884, 19.56641
1210.966, 197.8555
1212.048, 137.1289
1213.130, 160.3887
1214.212, 120.3691
1215.293, 309.7734
1216.374, 382.9023
1217.456, 259.0176
1218.536, 637.1191
1219.617, 561.2051
1220.698, 386.2773
1221.778, 488.3359
1222.859, 586.3789
1223.939, 801.4102
1225.019, 558.4297
1226.099, 725.4297
1227.178, 969.4238
1228.258, 767.4004
1229.337, 853.3652
1230.417, 908.3535
1231.496, 1167.330
1232.574, 1217.291
1233.653, 1107.244
1234.732, 1175.184
1235.810, 1371.121
1236.888, 1196.053
1237.966, 1481.977
1239.044, 1463.885
1240.122, 1585.783
1241.199, 1427.672
1242.277, 1316.547
1243.354, 1482.453
1244.431, 1566.342
1245.508, 1523.855
1246.585, 1455.098
1247.661, 1511.959
1248.738, 1538.807
1249.814, 1539.645
1250.890, 1578.912
1251.966, 1688.283
1253.042, 1553.088
1254.117, 1513.879
1255.193, 1349.658
1256.268, 1454.430
1257.343, 1654.188
1258.418, 1469.938
1259.493, 1461.676
1260.567, 1408.398
1261.642, 1405.008
1262.716, 1430.822
1263.790, 1553.516
1264.864, 1646.199
1265.938, 1874.869
1267.011, 1784.529
1268.085, 1977.174
1269.158, 1551.805
1270.231, 1865.424
1271.304, 1636.027
1272.377, 1895.617
1273.450, 1904.193
1274.522, 1830.242
1275.594, 1747.297
1276.666, 1719.822
1277.738, 1755.656
1278.810, 1668.145
1279.882, 1832.621
1280.953, 1535.721
1282.025, 1565.723
1283.096, 1743.959
1284.167, 1454.361
1285.238, 1656.957
1286.308, 1563.434
1287.379, 1507.326
1288.449, 1619.674
1289.519, 1551.969
1290.589, 1364.652
1291.659, 1581.604
1292.729, 1450.773
1293.798, 1504.016
1294.868, 1454.629
1295.937, 1502.984
1297.006, 1385.473
1298.075, 1430.570
1299.143, 1219.133
1300.212, 1218.898
1301.280, 1382.621
1302.348, 1221.348
1303.416, 1241.934
1304.484, 1092.340
1305.552, 1114.836
1306.620, 1184.941
1307.687, 1182.547
1308.754, 1136.309
1309.821, 1217.590
1310.888, 1145.324
1311.955, 1352.281
1313.021, 1004.508
1314.088, 1337.188
1315.154, 1133.422
1316.220, 1108.887
1317.286, 1505.637
1318.352, 1029.164
1319.417, 1108.945
1320.483, 1232.266
1321.548, 1134.113
1322.613, 1207.922
1323.678, 914.6914
1324.743, 1171.137
1325.807, 928.1797
1326.872, 821.7031
1327.936, 1050.375
1329.000, 934.5625
1330.064, 745.8945
1331.128, 639.9766
1332.191, 480.8008
1333.255, 625.8477
1334.318, 442.9922
1335.381, 535.5625
1336.444, 560.0391
