##NAMES=Dravite
##RRUFFID=R050077
##IDEAL CHEMISTRY=NaMg_3_Al_6_(Si_6_O_18_)(BO_3_)_3_(OH)_3_OH
##LOCALITY=Yinnietharra Station, Western Australia, Australia
##OWNER=RRUFF
##SOURCE=Rock Currier
##DESCRIPTION=Dark brown euhedral prismatic single crystal
##STATUS=The identification of this mineral has been confirmed by X-ray diffraction and chemical analysis
##URL=rruff.info/R050077
##MEASURED CHEMISTRY=(Na_0.783_Ca_0.217_)(Mg_0.771_Fe^2+^_0.221_Ti^4+^_0.008_)_3_(Al_0.956_Mg_0.044_)_6_(BO_3_)_3_[Si_6_O_18_]((OH)_0.914_F_0.086_)_4_
##PIN_ID=L01436
##ORIENTATION=Laser parallel to c* (0 0 1). Fiducial mark perpendicular to laser is parallel to a [1 0 0]
118.1340, 0.0000000E+00
119.3650, 706.1758
120.5960, 37.13281
121.8270, 106.5469
123.0580, 976.5312
124.2880, 1072.305
125.5190, 412.8320
126.7490, 63.33203
127.9790, 725.3281
129.2090, 1340.555
130.4390, 1839.195
131.6680, 2452.023
132.8980, 2826.293
134.1270, 3170.086
135.3560, 3743.027
136.5850, 4369.504
137.8140, 5915.703
139.0430, 7363.906
140.2710, 7865.703
141.5000, 7661.316
142.7280, 7681.031
143.9560, 7787.500
145.1840, 8266.047
146.4120, 8488.293
147.6390, 8777.176
148.8670, 8567.891
150.0940, 8951.121
151.3210, 8992.035
152.5490, 9858.746
153.7750, 9081.250
155.0020, 9203.172
156.2290, 8885.961
157.4550, 8334.023
158.6810, 8241.066
159.9080, 7967.773
161.1340, 8003.328
162.3590, 8376.781
163.5850, 8293.758
164.8110, 8826.953
166.0360, 8316.422
167.2610, 7893.949
168.4860, 8599.570
169.7110, 8602.551
170.9360, 8728.547
172.1610, 8098.605
173.3850, 8935.102
174.6100, 8314.426
175.8340, 7932.723
177.0580, 7735.430
178.2820, 7507.738
179.5050, 7392.871
180.7290, 7235.715
181.9520, 7102.418
183.1760, 7097.113
184.3990, 7090.520
185.6220, 7166.867
186.8450, 7210.055
188.0670, 7357.547
189.2900, 7189.480
190.5120, 7193.219
191.7340, 7168.547
192.9560, 7736.176
194.1780, 7752.543
195.4000, 8013.484
196.6220, 7971.184
197.8430, 8258.281
199.0640, 8783.492
200.2860, 9603.320
201.5070, 10710.71
202.7270, 10317.43
203.9480, 10645.00
205.1690, 9818.430
206.3890, 10136.23
207.6090, 10499.78
208.8290, 10983.04
210.0490, 11274.66
211.2690, 11734.57
212.4890, 11626.87
213.7080, 11945.57
214.9280, 11534.43
216.1470, 10811.50
217.3660, 9771.711
218.5850, 9377.273
219.8030, 9119.367
221.0220, 8476.301
222.2400, 7982.762
223.4590, 7642.820
224.6770, 6781.699
225.8950, 6751.375
227.1120, 6465.812
228.3300, 5964.000
229.5480, 6110.906
230.7650, 5776.516
231.9820, 5741.137
233.1990, 6162.785
234.4160, 5589.379
235.6330, 5481.551
236.8490, 5160.254
238.0660, 5287.449
239.2820, 4853.094
240.4980, 4612.188
241.7140, 4109.719
242.9300, 3633.711
244.1460, 3011.160
245.3610, 2617.074
246.5770, 2144.469
247.7920, 1759.352
249.0070, 1681.730
250.2220, 1302.688
251.4370, 1070.844
252.6510, 895.9180
253.8660, 469.1484
255.0800, 778.4414
256.2940, 953.6250
257.5080, 1001.824
258.7220, 544.4609
259.9360, 738.3164
261.1490, 670.2656
262.3630, 590.7930
263.5760, 874.4219
264.7890, 538.5703
266.0020, 858.3086
267.2150, 906.1992
268.4270, 1082.723
269.6400, 997.9883
270.8520, 994.7031
272.0640, 915.4219
273.2760, 1046.047
274.4880, 796.7227
275.7000, 792.2031
276.9120, 613.4141
278.1230, 571.2969
279.3340, 310.7969
280.5450, 22.15234
281.7560, 266.3398
282.9670, 109.6797
284.1780, 253.3359
285.3880, 272.3711
286.5980, 407.9062
287.8090, 519.5625
289.0190, 372.2422
290.2290, 534.7422
291.4380, 406.1230
292.6480, 635.3652
293.8570, 856.5293
295.0670, 717.6738
296.2760, 713.7695
297.4850, 824.8145
298.6930, 631.8496
299.9020, 786.8340
301.1110, 801.8184
302.3190, 602.8027
303.5270, 774.7363
304.7350, 487.6621
305.9430, 463.5234
307.1510, 308.3457
308.3580, 356.1289
309.5660, 71.06641
310.7730, 325.3281
311.9800, 330.6816
313.1870, 518.1387
314.3940, 672.7441
315.6010, 680.5254
316.8070, 1042.521
318.0130, 873.7676
319.2200, 1332.285
320.4260, 1667.105
321.6310, 1749.264
322.8370, 2311.775
324.0430, 2531.670
325.2480, 2679.969
326.4540, 3208.695
327.6590, 3639.809
328.8640, 3613.266
330.0680, 3973.031
331.2730, 4358.047
332.4780, 4393.230
333.6820, 4667.727
334.8860, 4760.469
336.0900, 5157.492
337.2940, 5505.836
338.4980, 5524.562
339.7010, 5401.713
340.9050, 5574.271
342.1080, 5553.252
343.3110, 5757.617
344.5140, 5651.285
345.7170, 5916.078
346.9200, 5732.750
348.1220, 5767.184
349.3240, 5938.311
350.5270, 6093.758
351.7290, 6317.434
352.9310, 6700.328
354.1320, 6967.785
355.3340, 7309.836
356.5350, 7877.584
357.7370, 7852.281
358.9380, 8471.051
360.1390, 8981.441
361.3400, 9608.875
362.5400, 9904.734
363.7410, 10594.65
364.9410, 11040.07
366.1410, 11712.89
367.3410, 12591.51
368.5410, 12936.96
369.7410, 13433.25
370.9400, 13449.37
372.1400, 13751.33
373.3390, 13403.13
374.5380, 13122.31
375.7370, 12860.25
376.9360, 12254.58
378.1350, 11377.75
379.3330, 11194.77
380.5310, 10399.64
381.7300, 9992.365
382.9280, 9397.951
384.1260, 8958.389
385.3230, 8707.695
386.5210, 8226.863
387.7180, 8049.900
388.9160, 7744.297
390.1130, 7377.990
391.3100, 7178.652
392.5060, 6947.658
393.7030, 6803.258
394.9000, 6495.721
396.0960, 6041.232
397.2920, 6087.656
398.4880, 5718.191
399.6840, 5698.285
400.8800, 5547.777
402.0750, 5318.000
403.2710, 5397.367
404.4660, 5040.504
405.6610, 4969.709
406.8560, 4783.758
408.0510, 4749.092
409.2450, 4207.059
410.4400, 4534.730
411.6340, 4350.865
412.8280, 4642.254
414.0220, 4307.680
415.2160, 3950.820
416.4100, 3851.035
417.6030, 3753.080
418.7970, 3643.355
419.9900, 3590.314
421.1830, 3493.473
422.3760, 3377.797
423.5690, 3289.807
424.7610, 3076.650
425.9540, 2870.662
427.1460, 2630.428
428.3380, 2627.898
429.5300, 2512.896
430.7220, 2328.344
431.9140, 3056.096
433.1050, 1913.074
434.2970, 2057.629
435.4880, 1708.051
436.6790, 2278.891
437.8700, 1748.676
439.0610, 1310.020
440.2510, 1217.477
441.4420, 1069.844
442.6320, 1162.227
443.8220, 803.8008
445.0120, 795.3789
446.2020, 1175.410
447.3910, 903.6250
448.5810, 927.8555
449.7700, 638.6211
450.9600, 503.1562
452.1490, 606.7422
453.3370, 641.0156
454.5260, 481.5898
455.7150, 304.4492
456.9030, 372.4609
458.0910, 377.9531
459.2800, 672.6055
460.4670, 575.7188
461.6550, 721.4688
462.8430, 903.8242
464.0300, 910.5938
465.2180, 1025.523
466.4050, 795.2227
467.5920, 1165.672
468.7790, 1237.770
469.9650, 1379.086
471.1520, 1769.387
472.3380, 1994.684
473.5250, 1938.969
474.7110, 2115.262
475.8970, 2024.559
477.0820, 1968.863
478.2680, 2330.180
479.4540, 2535.516
480.6390, 2407.875
481.8240, 2663.254
483.0090, 2955.660
484.1940, 2892.098
485.3780, 3007.570
486.5630, 3071.086
487.7470, 3252.637
488.9320, 3031.242
490.1160, 3047.898
491.3000, 3074.609
492.4830, 3361.391
493.6670, 3413.242
494.8500, 3348.070
496.0340, 3861.660
497.2170, 3632.781
498.4000, 3325.211
499.5820, 3522.023
500.7650, 3390.117
501.9480, 3022.699
503.1300, 2835.570
504.3120, 3208.039
505.4940, 3236.277
506.6760, 2906.906
507.8580, 2759.926
509.0390, 2763.199
510.2210, 2541.598
511.4020, 2461.133
512.5830, 2750.793
513.7640, 2600.586
514.9450, 2764.516
516.1250, 3038.582
517.3060, 2700.785
518.4860, 2681.125
519.6660, 3085.605
520.8460, 3574.227
522.0260, 3800.992
523.2060, 3654.898
524.3850, 4152.953
525.5650, 4322.156
526.7440, 4802.508
527.9230, 4629.008
529.1020, 4950.656
530.2810, 5082.457
531.4590, 5125.422
532.6380, 5413.566
533.8160, 5425.887
534.9940, 5678.395
536.1720, 5732.098
537.3500, 5998.004
538.5270, 6065.125
539.7050, 6308.164
540.8820, 6235.562
542.0590, 6424.469
543.2360, 6493.242
544.4130, 6648.262
545.5900, 6584.789
546.7660, 6629.559
547.9430, 6533.562
549.1190, 6636.812
550.2950, 6594.344
551.4710, 6834.023
552.6470, 6583.984
553.8220, 6384.172
554.9980, 6378.586
556.1730, 6497.227
557.3480, 6516.102
558.5230, 6534.211
559.6980, 6454.566
560.8730, 6491.195
562.0470, 5987.129
563.2220, 6160.383
564.3960, 5769.977
565.5700, 5828.012
566.7440, 5856.598
567.9170, 5676.062
569.0910, 5794.340
570.2640, 5526.586
571.4380, 5319.438
572.6110, 5221.965
573.7840, 4666.215
574.9570, 4401.129
576.1290, 4287.777
577.3020, 3982.117
578.4740, 3529.211
579.6460, 3421.117
580.8180, 3151.793
581.9900, 2557.242
583.1620, 2207.465
584.3330, 1875.426
585.5040, 1804.102
586.6760, 1406.520
587.8470, 1467.656
589.0180, 1311.480
590.1880, 1176.879
591.3590, 1134.934
592.5290, 1076.602
593.7000, 1052.871
594.8700, 927.5586
596.0400, 872.6641
597.2090, 963.1602
598.3790, 628.0547
599.5490, 600.3086
600.7180, 428.8828
601.8870, 513.8047
603.0560, 984.0391
604.2250, 419.5469
605.3940, 842.3320
606.5620, 1184.379
607.7300, 333.6836
608.8990, 596.2344
610.0670, 839.0391
611.2350, 687.0703
612.4020, 671.3320
613.5700, 904.8164
614.7370, 638.5234
615.9050, 1085.449
617.0720, 897.5938
618.2390, 1040.957
619.4060, 1142.539
620.5720, 1010.328
621.7390, 1133.332
622.9050, 1140.547
624.0710, 700.9688
625.2370, 1054.598
626.4030, 791.4375
627.5690, 800.4805
628.7340, 865.7344
629.9000, 465.1875
631.0650, 417.8516
632.2300, 58.71875
633.3950, 81.78906
634.5600, 82.94141
635.7240, 134.4766
636.8890, 483.8320
638.0530, 326.0703
639.2170, 676.1562
640.3810, 578.1797
641.5450, 480.1133
642.7080, 593.9336
643.8720, 608.6680
645.0350, 369.3242
646.1980, 290.8516
647.3610, 76.23047
648.5240, 144.2617
649.6870, 373.5625
650.8490, 636.7461
652.0120, 1151.109
653.1740, 1467.809
654.3360, 1844.605
655.4980, 2101.332
656.6600, 2464.441
657.8210, 2736.734
658.9830, 2781.203
660.1440, 2833.855
661.3050, 2992.688
662.4660, 3138.695
663.6270, 2900.879
664.7870, 3073.238
665.9480, 2643.770
667.1080, 2474.473
668.2680, 2224.352
669.4280, 2290.398
670.5880, 2070.609
671.7480, 1958.992
672.9070, 1606.543
674.0670, 1489.254
675.2260, 1516.129
676.3850, 1436.164
677.5440, 1397.359
678.7030, 1430.973
679.8610, 1397.223
681.0200, 1529.887
682.1780, 1640.707
683.3360, 1790.672
684.4940, 1932.473
685.6520, 2189.062
686.8090, 2332.477
687.9670, 2416.031
689.1240, 2811.734
690.2810, 3165.574
691.4380, 3317.555
692.5950, 3651.672
693.7520, 4304.926
694.9080, 4375.312
696.0650, 5046.828
697.2210, 5374.484
698.3770, 5458.438
699.5330, 6003.277
700.6880, 6480.152
701.8440, 7236.281
702.9990, 7583.746
704.1550, 8465.000
705.3100, 8732.238
706.4650, 9693.281
707.6190, 10506.17
708.7740, 11159.99
709.9290, 11855.40
711.0830, 12982.70
712.2370, 13718.26
713.3910, 15112.70
714.5450, 16375.19
715.6980, 17413.16
716.8520, 18808.35
718.0050, 19980.49
719.1580, 20938.56
720.3110, 22060.26
721.4640, 22926.89
722.6170, 23250.09
723.7700, 23775.47
724.9220, 23350.32
726.0740, 23411.54
727.2260, 23116.18
728.3780, 22649.07
729.5300, 22079.75
730.6810, 22121.60
731.8330, 21983.21
732.9840, 21778.29
734.1350, 21824.07
735.2860, 21900.81
736.4370, 22393.46
737.5880, 22568.92
738.7380, 22739.24
739.8880, 23698.79
741.0390, 25479.09
742.1890, 24855.87
743.3380, 25413.28
744.4880, 24638.80
745.6380, 25085.38
746.7870, 25283.11
747.9360, 24948.09
749.0850, 25563.83
750.2340, 25491.00
751.3830, 25583.13
752.5310, 25665.04
753.6800, 25776.44
754.8280, 25828.98
755.9760, 25689.03
757.1240, 25716.55
758.2720, 25463.15
759.4190, 25534.73
760.5670, 25432.66
761.7140, 25720.56
762.8610, 25391.75
764.0080, 25288.87
765.1550, 25415.90
766.3020, 25059.85
767.4480, 25186.71
768.5950, 24942.49
769.7410, 24622.18
770.8870, 24524.78
772.0330, 24466.28
773.1780, 23818.79
774.3240, 23266.54
775.4690, 23156.74
776.6140, 22729.64
777.7590, 22179.16
778.9040, 22323.42
780.0490, 21835.41
781.1940, 21357.69
782.3380, 21268.62
783.4820, 20950.79
784.6260, 20596.58
785.7700, 20218.00
786.9140, 19750.19
788.0580, 19000.27
789.2010, 18272.24
790.3450, 17694.09
791.4880, 16558.82
792.6310, 15880.45
793.7730, 14610.95
794.9160, 13815.34
796.0590, 12845.61
797.2010, 11872.76
798.3430, 11079.78
799.4850, 10196.68
800.6270, 10104.45
801.7690, 9677.105
802.9100, 9109.625
804.0520, 9288.020
805.1930, 8849.279
806.3340, 8869.410
807.4750, 8696.406
808.6160, 8534.270
809.7560, 8511.994
810.8970, 8196.762
812.0370, 7959.070
813.1770, 7452.340
814.3170, 7250.510
815.4570, 6486.535
816.5960, 5977.418
817.7360, 5666.152
818.8750, 5145.740
820.0140, 4698.180
821.1530, 4036.469
822.2920, 3550.607
823.4310, 3321.594
824.5690, 3082.426
825.7070, 2809.102
826.8460, 2401.621
827.9840, 2359.984
829.1220, 1786.188
830.2590, 1578.229
831.3970, 1195.109
832.5340, 1111.826
833.6710, 748.3789
834.8080, 485.7578
835.9450, 211.9492
837.0820, 81.90820
838.2190, 66.58008
839.3550, 32.95703
840.4910, 243.9844
841.6270, 348.3926
842.7630, 418.3262
843.8990, 329.8242
845.0350, 258.8496
846.1700, 278.3594
847.3060, 414.3730
848.4410, 444.9648
849.5760, 390.1504
850.7100, 465.9062
851.8450, 437.2148
852.9800, 436.3262
854.1140, 431.8164
855.2480, 394.9902
856.3820, 401.7480
857.5160, 318.0957
858.6500, 324.2422
859.7830, 117.4395
860.9170, 186.3320
862.0500, 301.7109
863.1830, 3.634766
864.3160, 169.0527
865.4480, 176.5742
866.5810, 209.6836
867.7130, 77.29492
868.8460, 225.6582
869.9780, 14.68359
871.1100, 100.5723
872.2410, 33.51562
873.3730, 78.98242
874.5050, 285.1250
875.6360, 39.98438
876.7670, 321.4668
877.8980, 465.6777
879.0290, 353.6445
880.1590, 536.3438
881.2900, 476.8086
882.4200, 524.0332
883.5500, 457.0234
884.6800, 588.7656
885.8100, 639.2832
886.9400, 838.5801
888.0690, 879.0977
889.1990, 986.5488
890.3280, 938.2246
891.4570, 1042.691
892.5860, 913.9590
893.7140, 1358.018
894.8430, 1344.887
895.9710, 1346.564
897.1000, 1375.053
898.2280, 1515.350
899.3560, 1518.459
900.4830, 1529.379
901.6110, 1746.113
902.7380, 1981.658
903.8660, 2087.016
904.9930, 1979.189
906.1200, 2094.174
907.2460, 2142.975
908.3730, 2023.588
909.5000, 2383.020
910.6260, 2643.279
911.7520, 2390.395
912.8780, 2837.352
914.0040, 3305.189
915.1290, 3033.898
916.2550, 2835.463
917.3800, 2940.902
918.5050, 2822.217
919.6300, 2973.385
920.7550, 2986.393
921.8800, 3087.250
923.0040, 3090.557
924.1290, 3161.562
925.2530, 3231.297
926.3770, 3218.236
927.5010, 3354.355
928.6250, 3419.344
929.7480, 3441.203
930.8720, 3532.904
931.9950, 3554.531
933.1180, 3648.070
934.2410, 3650.475
935.3640, 3712.760
936.4860, 3826.924
937.6090, 3893.943
938.7310, 4086.805
939.8530, 4381.518
940.9750, 4284.123
942.0970, 4596.559
943.2180, 4528.867
944.3400, 4745.055
945.4610, 4670.074
946.5820, 4957.938
947.7030, 5020.805
948.8240, 5059.270
949.9450, 5196.699
951.0650, 5396.957
952.1860, 5365.053
953.3060, 5587.672
954.4260, 5688.746
955.5460, 5850.348
956.6650, 5866.785
957.7850, 5861.057
958.9040, 6089.980
960.0230, 6201.123
961.1420, 6432.914
962.2610, 6335.543
963.3800, 6363.016
964.4990, 6575.332
965.6170, 6742.486
966.7350, 6618.486
967.8530, 6813.330
968.9710, 6667.014
970.0890, 6905.375
971.2070, 7048.820
972.3240, 6884.199
973.4410, 7010.305
974.5580, 6905.043
975.6750, 7212.953
976.7920, 7462.852
977.9090, 7120.910
979.0250, 7286.090
980.1410, 7123.303
981.2580, 7249.883
982.3740, 7122.529
983.4890, 7074.883
984.6050, 6976.311
985.7200, 6882.635
986.8360, 6688.430
987.9510, 6716.961
989.0660, 6507.482
990.1810, 6372.029
991.2950, 6617.887
992.4100, 6525.738
993.5240, 6327.973
994.6390, 6241.957
995.7530, 6227.406
996.8660, 6102.412
997.9800, 6179.938
999.0940, 5686.129
1000.207, 5892.445
1001.320, 5687.523
1002.433, 5584.760
1003.546, 5651.449
1004.659, 5477.342
1005.772, 5492.574
1006.884, 5446.518
1007.996, 5432.020
1009.108, 5456.029
1010.220, 5422.729
1011.332, 5571.578
1012.444, 5421.863
1013.555, 5662.422
1014.666, 5617.773
1015.777, 5731.979
1016.888, 5754.939
1017.999, 6052.543
1019.110, 6071.297
1020.220, 5971.529
1021.331, 6130.703
1022.441, 6039.998
1023.551, 5939.701
1024.661, 6370.160
1025.770, 5953.018
1026.880, 6204.301
1027.989, 6393.400
1029.098, 6691.410
1030.207, 6727.398
1031.316, 6806.471
1032.425, 6985.561
1033.533, 6958.625
1034.642, 6987.664
1035.750, 7078.680
1036.858, 7303.672
1037.966, 7784.643
1039.073, 7569.594
1040.181, 8104.527
1041.288, 7975.439
1042.396, 8189.338
1043.503, 8302.219
1044.610, 8167.084
1045.716, 8638.934
1046.823, 8471.770
1047.929, 8504.594
1049.036, 8345.406
1050.142, 8352.293
1051.248, 8441.996
1052.353, 8440.162
1053.459, 8538.930
1054.564, 8786.254
1055.670, 8360.473
1056.775, 8653.426
1057.880, 8745.242
1058.985, 8154.811
1060.089, 8684.805
1061.194, 8519.496
1062.298, 8504.834
1063.402, 8533.973
1064.506, 8671.014
1065.610, 8749.473
1066.713, 8901.914
1067.817, 8425.189
1068.920, 8505.631
1070.023, 8423.109
1071.126, 7951.896
1072.229, 8082.941
1073.332, 7877.922
1074.435, 7365.604
1075.537, 7406.998
1076.639, 7087.914
1077.741, 6771.596
1078.843, 6580.736
1079.945, 6389.268
1081.046, 6205.277
1082.148, 5884.965
1083.249, 5582.656
1084.350, 5943.352
1085.451, 5711.055
1086.551, 5558.760
1087.652, 5421.473
1088.752, 5309.596
1089.853, 5205.076
1090.953, 5113.629
1092.053, 5029.420
1093.152, 4963.182
1094.252, 4868.959
1095.351, 4802.748
1096.451, 4667.553
1097.550, 4703.709
1098.649, 4649.117
1099.748, 4707.055
1100.846, 4634.924
1101.945, 4493.814
1103.043, 4461.736
1104.141, 4123.711
1105.239, 4145.762
1106.337, 3935.900
1107.434, 3791.133
1108.532, 3990.537
1109.629, 3893.143
1110.726, 3603.967
1111.823, 3734.990
1112.920, 3554.197
1114.017, 3309.592
1115.113, 3383.215
1116.210, 3565.074
1117.306, 3441.156
1118.402, 3681.484
1119.498, 3377.055
1120.593, 3410.863
1121.689, 3252.484
1122.784, 3188.197
1123.879, 2967.713
1124.974, 2821.547
1126.069, 2698.398
1127.164, 2471.514
1128.259, 2175.809
1129.353, 2025.322
1130.447, 1623.971
1131.541, 1509.717
1132.635, 1407.650
1133.729, 1380.775
1134.822, 1240.059
1135.916, 940.1055
1137.009, 1181.936
1138.102, 1290.328
1139.195, 1272.500
1140.288, 749.8672
1141.380, 879.4043
1142.473, 747.7402
1143.565, 605.5098
1144.657, 827.1133
1145.749, 378.4863
1146.841, 594.5312
1147.932, 841.6934
1149.024, 857.3672
1150.115, 891.1133
1151.206, 616.9570
1152.297, 705.8691
1153.388, 542.8672
1154.479, 786.9180
1155.569, 376.0430
1156.659, 545.2188
1157.750, 632.4473
1158.839, 458.7344
1159.929, 622.0645
1161.019, 704.4551
1162.108, 276.8906
1163.198, 354.3711
1164.287, 281.8926
1165.376, 529.4590
1166.465, 534.0723
1167.553, 480.6953
1168.642, 252.4492
1169.730, 352.2129
1170.818, 367.0254
1171.906, 354.8789
1172.994, 114.7910
1174.082, 408.7441
1175.170, 697.9961
1176.257, 379.8848
1177.344, 440.0703
1178.431, 53.05859
1179.518, 87.26953
1180.605, 184.5254
1181.691, 112.8262
1182.778, 18.82812
1183.864, 210.5586
1184.950, 127.0117
1186.036, 327.5820
1187.122, 6.250000
1188.207, 132.8750
1189.292, 126.5020
1190.378, 190.1328
1191.463, 219.8164
1192.548, 230.3887
1193.632, 262.2695
1194.717, 259.1035
1195.801, 301.7637
1196.886, 317.2363
1197.970, 259.9902
1199.054, 225.1035
1200.137, 151.2734
1201.221, 78.45898
1202.305, 102.6309
1203.388, 285.8027
1204.471, 26.94141
1205.554, 218.2676
1206.637, 208.5293
1207.719, 55.16016
1208.802, 59.10352
1209.884, 180.3496
1210.966, 114.6309
1212.048, 209.0820
1213.130, 160.8359
1214.212, 25.64062
1215.293, 240.4883
1216.374, 70.38477
1217.456, 227.3262
1218.536, 108.3145
1219.617, 187.3496
1220.698, 483.4297
1221.778, 289.5586
1222.859, 514.7324
1223.939, 377.9551
1225.019, 1048.223
1226.099, 344.5371
1227.178, 741.8965
1228.258, 628.3027
1229.337, 555.7578
1230.417, 734.2559
1231.496, 674.8027
1232.574, 879.3945
1233.653, 1031.035
1234.732, 866.7188
1235.810, 1374.449
1236.888, 899.2227
1237.966, 1157.041
1239.044, 1105.904
1240.122, 1003.807
1241.199, 1045.752
1242.277, 1156.736
1243.354, 1044.762
1244.431, 1278.824
1245.508, 1245.924
1246.585, 1237.061
1247.661, 1147.230
1248.738, 1170.434
1249.814, 1179.672
1250.890, 1402.941
1251.966, 1398.242
1253.042, 1244.570
1254.117, 1151.930
1255.193, 1378.314
1256.268, 1225.729
1257.343, 1286.166
1258.418, 1279.629
1259.493, 1307.117
1260.567, 1174.629
1261.642, 1154.164
1262.716, 1071.721
1263.790, 1486.299
1264.864, 1302.469
1265.938, 1241.516
1267.011, 1317.152
1268.085, 1128.812
1269.158, 1297.486
1270.231, 1196.809
1271.304, 1449.520
1272.377, 1395.604
1273.450, 1223.680
1274.522, 1243.438
1275.594, 1007.648
1276.666, 959.4375
1277.738, 945.2383
1278.810, 1238.051
1279.882, 902.4727
1280.953, 1172.088
1282.025, 1033.613
1283.096, 845.9902
1284.167, 965.0469
1285.238, 1235.934
1286.308, 1101.488
1287.379, 1256.078
1288.449, 1360.998
