##NAMES=Dravite
##RRUFFID=R060286
##IDEAL CHEMISTRY=NaMg_3_Al_6_(Si_6_O_18_)(BO_3_)_3_(OH)_3_OH
##LOCALITY=Badakshan Province, Afghanistan
##OWNER=RRUFF
##SOURCE=Herb Obodda
##DESCRIPTION=Brown prismatic tourmaline crystal
##STATUS=The identification of this mineral has been confirmed by X-ray diffraction and chemical analysis
##URL=rruff.info/R060286
##MEASURED CHEMISTRY=(Na_0.48_Ca_0.38_[box]_0.14_)_Σ=1_(Mg_2.90_Ti_0.10_)_Σ=3_Al_6.00_(B_1.00_O_3_)_3_(Si_5.56_B_0.44_)_Σ=6_O_18_(OH)_4_; (OH) assumed from stoichiometry; B estimated by difference and charge balance
##PIN_ID=L01259
##ORIENTATION=Laser parallel to c* (0 0 1). Fiducial mark perpendicular to laser is parallel to a [1 0 0]
118.1340, 0.0000000E+00
119.3650, 7.522461
120.5960, 233.2617
121.8270, 341.2363
123.0580, 913.2559
124.2880, 1140.434
125.5190, 1019.792
126.7490, 1075.587
127.9790, 1590.039
129.2090, 1917.239
130.4390, 2212.245
131.6680, 2450.592
132.8980, 2607.860
134.1270, 2800.184
135.3560, 3044.522
136.5850, 3163.281
137.8140, 3340.021
139.0430, 3841.704
140.2710, 3864.831
141.5000, 3998.552
142.7280, 3864.689
143.9560, 3952.364
145.1840, 4059.229
146.4120, 4152.176
147.6390, 4285.733
148.8670, 3778.467
150.0940, 3718.355
151.3210, 3638.360
152.5490, 3145.449
153.7750, 2659.594
155.0020, 2276.772
156.2290, 1907.953
157.4550, 1399.105
158.6810, 1104.202
159.9080, 760.3174
161.1340, 360.0889
162.3590, 233.8096
163.5850, 97.33203
164.8110, 35.96582
166.0360, 20.22559
167.2610, 213.4639
168.4860, 258.1514
169.7110, 236.3672
170.9360, 187.1191
172.1610, 151.3916
173.3850, 293.1768
174.6100, 224.4619
175.8340, 89.23926
177.0580, 74.50098
178.2820, 193.7598
179.5050, 475.5488
180.7290, 896.8721
181.9520, 1135.734
183.1760, 1408.137
184.3990, 1840.084
185.6220, 2228.578
186.8450, 2915.625
188.0670, 3261.223
189.2900, 3704.374
190.5120, 4013.082
191.7340, 4424.316
192.9560, 4878.008
194.1780, 5181.172
195.4000, 5483.804
196.6220, 5714.884
197.8430, 6098.389
199.0640, 6823.295
200.2860, 7720.574
201.5070, 8720.787
202.7270, 10060.18
203.9480, 11346.47
205.1690, 12794.02
206.3890, 14555.81
207.6090, 16839.84
208.8290, 18882.12
210.0490, 21019.68
211.2690, 23046.52
212.4890, 24598.86
213.7080, 25032.15
214.9280, 24820.78
216.1470, 24254.97
217.3660, 23072.52
218.5850, 21240.03
219.8030, 19201.49
221.0220, 17413.13
222.2400, 15945.18
223.4590, 14420.66
224.6770, 13368.58
225.8950, 12057.94
227.1120, 11408.74
228.3300, 11351.98
229.5480, 10978.65
230.7650, 11210.75
231.9820, 11543.29
233.1990, 12174.26
234.4160, 12775.65
235.6330, 13380.48
236.8490, 14031.73
238.0660, 14940.41
239.2820, 15362.50
240.4980, 15656.01
241.7140, 15716.93
242.9300, 15115.27
244.1460, 14467.02
245.3610, 13422.17
246.5770, 11809.74
247.7920, 10603.71
249.0070, 9000.090
250.2220, 7627.877
251.4370, 6145.066
252.6510, 5036.660
253.8660, 3802.656
255.0800, 3070.053
256.2940, 2497.848
257.5080, 2780.041
258.7220, 2302.783
259.9360, 3030.617
261.1490, 2184.992
262.3630, 1542.762
263.5760, 1594.922
264.7890, 1941.736
266.0020, 2317.355
267.2150, 2532.658
268.4270, 2812.301
269.6400, 3327.145
270.8520, 3528.117
272.0640, 3895.125
273.2760, 4181.121
274.4880, 4241.105
275.7000, 4335.092
276.9120, 4236.004
278.1230, 3874.729
279.3340, 3485.227
280.5450, 3146.578
281.7560, 2878.854
282.9670, 2447.109
284.1780, 1992.395
285.3880, 1723.744
286.5980, 1437.102
287.8090, 1398.070
289.0190, 1211.443
290.2290, 1044.014
291.4380, 1049.223
292.6480, 844.0000
293.8570, 1053.926
295.0670, 799.3750
296.2760, 843.3242
297.4850, 961.8145
298.6930, 732.8418
299.9020, 765.3770
301.1110, 301.4395
302.3190, 208.0273
303.5270, 68.88477
304.7350, 313.3105
305.9430, 532.2520
307.1510, 564.6133
308.3580, 476.5234
309.5660, 488.0801
310.7730, 320.5938
311.9800, 158.6934
313.1870, 140.4395
314.3940, 403.1113
315.6010, 525.4414
316.8070, 1084.162
318.0130, 1355.246
319.2200, 1864.844
320.4260, 2299.773
321.6310, 2759.658
322.8370, 3273.412
324.0430, 3932.744
325.2480, 4541.363
326.4540, 5304.264
327.6590, 6008.445
328.8640, 6802.910
330.0680, 7631.650
331.2730, 8119.666
332.4780, 8921.959
333.6820, 9580.523
334.8860, 9840.363
336.0900, 10423.47
337.2940, 10495.84
338.4980, 10520.48
339.7010, 10508.39
340.9050, 10510.56
342.1080, 10458.00
343.3110, 10119.70
344.5140, 10118.66
345.7170, 10313.88
346.9200, 10334.36
348.1220, 10553.09
349.3240, 10876.09
350.5270, 11525.34
351.7290, 12306.85
352.9310, 13402.62
354.1320, 14459.64
355.3340, 15865.92
356.5350, 17325.46
357.7370, 18822.13
358.9380, 20694.93
360.1390, 22830.88
361.3400, 25261.09
362.5400, 27901.55
363.7410, 30557.28
364.9410, 33377.27
366.1410, 36377.51
367.3410, 39250.02
368.5410, 41531.80
369.7410, 43057.82
370.9400, 44510.10
372.1400, 44522.66
373.3390, 44057.45
374.5380, 42750.50
375.7370, 40369.80
376.9360, 38002.36
378.1350, 34993.16
379.3330, 31690.21
380.5310, 28418.51
381.7300, 25435.05
382.9280, 22831.84
384.1260, 20427.87
385.3230, 18361.15
386.5210, 16726.66
387.7180, 15250.41
388.9160, 14000.40
390.1130, 12879.63
391.3100, 11800.09
392.5060, 11002.79
393.7030, 10392.72
394.9000, 10170.88
396.0960, 9541.270
397.2920, 9062.893
398.4880, 8542.742
399.6840, 8383.816
400.8800, 8189.119
402.0750, 7960.645
403.2710, 7629.391
404.4660, 7466.363
405.6610, 7122.742
406.8560, 6935.963
408.0510, 6496.590
409.2450, 6150.449
410.4400, 5852.539
411.6340, 5428.852
412.8280, 4747.391
414.0220, 4360.152
415.2160, 3899.137
416.4100, 3363.348
417.6030, 3212.781
418.7970, 2672.439
419.9900, 2386.322
421.1830, 2380.432
422.3760, 1925.770
423.5690, 2139.336
424.7610, 1685.133
425.9540, 1682.158
427.1460, 1672.416
428.3380, 1570.906
429.5300, 1621.627
430.7220, 1518.580
431.9140, 1551.303
433.1050, 1501.695
434.2970, 1662.223
435.4880, 1430.344
436.6790, 1591.521
437.8700, 1629.238
439.0610, 1825.793
440.2510, 1745.656
441.4420, 1879.887
442.6320, 2033.568
443.8220, 2131.812
445.0120, 2119.609
446.2020, 2199.846
447.3910, 2068.939
448.5810, 2412.111
449.7700, 2520.270
450.9600, 2426.889
452.1490, 2467.854
453.3370, 2552.971
454.5260, 2632.578
455.7150, 2709.684
456.9030, 2839.258
458.0910, 2777.695
459.2800, 2960.223
460.4670, 3105.348
461.6550, 3192.057
462.8430, 3603.598
464.0300, 3987.408
465.2180, 4333.455
466.4050, 5026.729
467.5920, 5651.195
468.7790, 6209.857
469.9650, 7300.715
471.1520, 8058.764
472.3380, 8999.006
473.5250, 9869.439
474.7110, 10763.06
475.8970, 11465.88
477.0820, 12099.88
478.2680, 12528.06
479.4540, 13163.45
480.6390, 13119.01
481.8240, 13082.75
483.0090, 13230.68
484.1940, 13261.80
485.3780, 13112.09
486.5630, 13101.57
487.7470, 13019.23
488.9320, 12865.06
490.1160, 12687.08
491.3000, 12574.27
492.4830, 12431.63
493.6670, 12191.18
494.8500, 12069.89
496.0340, 11843.78
497.2170, 11170.84
498.4000, 10935.07
499.5820, 10461.47
500.7650, 10047.04
501.9480, 9761.777
503.1300, 9072.684
504.3120, 8442.758
505.4940, 8088.000
506.6760, 7371.406
507.8580, 6943.977
509.0390, 6349.709
510.2210, 5964.604
511.4020, 5726.658
512.5830, 5210.875
513.7640, 4994.627
514.9450, 4617.777
516.1250, 4596.465
517.3060, 4319.305
518.4860, 4411.301
519.6660, 4555.451
520.8460, 5016.752
522.0260, 5288.203
523.2060, 5542.805
524.3850, 5916.555
525.5650, 6318.451
526.7440, 7162.496
527.9230, 7419.686
529.1020, 7712.018
530.2810, 7805.494
531.4590, 8092.113
532.6380, 7962.871
533.8160, 8103.770
534.9940, 8099.809
536.1720, 7875.984
537.3500, 7806.295
538.5270, 7375.742
539.7050, 7123.324
540.8820, 6972.039
542.0590, 6641.887
543.2360, 6354.863
544.4130, 6253.973
545.5900, 6030.209
546.7660, 5693.576
547.9430, 5501.068
549.1190, 5225.307
550.2950, 5044.430
551.4710, 4725.297
552.6470, 4498.285
553.8220, 4260.396
554.9980, 3939.627
556.1730, 3647.977
557.3480, 3325.836
558.5230, 2997.029
559.6980, 2627.729
560.8730, 2245.543
562.0470, 1850.473
563.2220, 1654.514
564.3960, 1482.664
565.5700, 819.9258
566.7440, 966.2949
567.9170, 502.7734
569.0910, 406.3574
570.2640, 310.0449
571.4380, 123.8379
572.6110, 154.2676
573.7840, 159.3848
574.9570, 312.5039
576.1290, 443.6973
577.3020, 510.0059
578.4740, 640.4590
579.6460, 556.0703
580.8180, 737.7871
581.9900, 736.6699
583.1620, 627.7090
584.3330, 721.8203
585.5040, 724.0488
586.6760, 635.4082
587.8470, 600.8418
589.0180, 683.3262
590.1880, 502.8965
591.3590, 503.4180
592.5290, 529.9082
593.7000, 402.3848
594.8700, 348.8027
596.0400, 298.1777
597.2090, 213.8672
598.3790, 29.70312
599.5490, 83.75391
600.7180, 28.67969
601.8870, 46.56250
603.0560, 298.9688
604.2250, 299.5742
605.3940, 305.3457
606.5620, 605.3066
607.7300, 633.4453
608.8990, 738.7246
610.0670, 699.1270
611.2350, 833.6230
612.4020, 940.2188
613.5700, 1239.906
614.7370, 1420.676
615.9050, 1477.525
617.0720, 1467.451
618.2390, 1919.451
619.4060, 1950.518
620.5720, 2290.646
621.7390, 2296.832
622.9050, 2658.080
624.0710, 2911.383
625.2370, 3126.737
626.4030, 3384.283
627.5690, 3554.592
628.7340, 3728.086
629.9000, 3942.621
631.0650, 3960.195
632.2300, 4200.809
633.3950, 3711.459
634.5600, 3486.143
635.7240, 3161.864
636.8890, 3028.617
638.0530, 2552.404
639.2170, 2259.221
640.3810, 2203.068
641.5450, 2074.944
642.7080, 1939.848
643.8720, 1980.777
645.0350, 1988.732
646.1980, 2250.711
647.3610, 2420.713
648.5240, 2492.736
649.6870, 2931.781
650.8490, 3078.846
652.0120, 3714.927
653.1740, 3894.026
654.3360, 4524.141
655.4980, 5040.271
656.6600, 5365.416
657.8210, 5967.572
658.9830, 6456.090
660.1440, 7090.918
661.3050, 7584.105
662.4660, 8012.301
663.6270, 8634.505
664.7870, 9148.713
665.9480, 9472.927
667.1080, 9816.143
668.2680, 10045.36
669.4280, 10318.58
670.5880, 10362.81
671.7480, 10561.03
672.9070, 10376.25
674.0670, 10233.47
675.2260, 9949.679
676.3850, 9769.728
677.5440, 9611.091
678.7030, 9317.287
679.8610, 9105.475
681.0200, 8865.652
682.1780, 8703.079
683.3360, 8473.979
684.4940, 8467.123
685.6520, 8428.256
686.8090, 8410.375
687.9670, 8581.057
689.1240, 8805.563
690.2810, 9066.632
691.4380, 9422.682
692.5950, 9886.713
693.7520, 10419.72
694.9080, 10840.72
696.0650, 11621.68
697.2210, 12282.59
698.3770, 13186.55
699.5330, 13944.44
700.6880, 14907.31
701.8440, 15940.52
702.9990, 17087.32
704.1550, 18507.75
705.3100, 19724.51
706.4650, 21442.22
707.6190, 23030.91
708.7740, 24856.57
709.9290, 26311.20
711.0830, 28774.79
712.2370, 30664.81
713.3910, 32861.86
714.5450, 35532.81
715.6980, 37738.32
716.8520, 39738.02
718.0050, 42263.76
719.1580, 43745.87
720.3110, 44768.46
721.4640, 45722.36
722.6170, 45240.31
723.7700, 44533.95
724.9220, 43072.50
726.0740, 41168.70
727.2260, 38703.01
728.3780, 36100.86
729.5300, 33332.93
730.6810, 30804.63
731.8330, 28325.12
732.9840, 25966.73
734.1350, 24268.19
735.2860, 22679.26
736.4370, 21465.20
737.5880, 20408.85
738.7380, 19777.78
739.8880, 19397.62
741.0390, 19253.85
742.1890, 19203.48
743.3380, 19473.08
744.4880, 19705.00
745.6380, 20327.27
746.7870, 21010.12
747.9360, 21531.03
749.0850, 22407.83
750.2340, 23089.42
751.3830, 24144.35
752.5310, 24877.57
753.6800, 25733.36
754.8280, 26835.70
755.9760, 27844.99
757.1240, 28667.80
758.2720, 29349.88
759.4190, 29935.76
760.5670, 30528.35
761.7140, 30249.85
762.8610, 30262.45
764.0080, 30376.73
765.1550, 29450.87
766.3020, 29255.91
767.4480, 28270.76
768.5950, 27778.36
769.7410, 27454.86
770.8870, 26974.27
772.0330, 26654.59
773.1780, 26322.81
774.3240, 25798.94
775.4690, 25475.18
776.6140, 25080.92
777.7590, 24706.77
778.9040, 24503.53
780.0490, 24194.19
781.1940, 23975.46
782.3380, 24287.22
783.4820, 23803.59
784.6260, 23658.87
785.7700, 24079.04
786.9140, 24114.13
788.0580, 24289.11
789.2010, 24834.99
790.3450, 24943.79
791.4880, 25362.47
792.6310, 25234.06
793.7730, 25272.56
794.9160, 25139.95
796.0590, 24931.24
797.2010, 24514.44
798.3430, 24345.53
799.4850, 23805.53
800.6270, 23287.43
801.7690, 22739.22
802.9100, 22299.18
804.0520, 22041.51
805.1930, 21540.00
806.3340, 21129.39
807.4750, 20984.69
808.6160, 20982.87
809.7560, 20970.96
810.8970, 20965.94
812.0370, 21058.71
813.1770, 21479.61
814.3170, 21346.29
815.4570, 21372.86
816.5960, 21675.34
817.7360, 21330.70
818.8750, 21230.96
820.0140, 20536.12
821.1530, 20083.17
822.2920, 18970.13
823.4310, 18223.96
824.5690, 17280.70
825.7070, 16326.33
826.8460, 15111.85
827.9840, 13901.26
829.1220, 12600.57
830.2590, 11718.77
831.3970, 10526.86
832.5340, 9380.850
833.6710, 8561.727
834.8080, 7418.494
835.9450, 6723.154
837.0820, 5914.704
838.2190, 5121.145
839.3550, 4655.477
840.4910, 4148.699
841.6270, 3429.811
842.7630, 2995.812
843.8990, 2331.703
845.0350, 1970.485
846.1700, 1671.156
847.3060, 1243.715
848.4410, 1040.165
849.5760, 651.5586
850.7100, 556.8818
851.8450, 231.1611
852.9800, 176.3926
854.1140, 64.41895
855.2480, 112.3447
856.3820, 233.4287
857.5160, 272.6895
858.6500, 405.1494
859.7830, 422.3828
860.9170, 378.9336
862.0500, 441.2188
863.1830, 463.8135
864.3160, 420.7344
865.4480, 524.9414
866.5810, 458.5293
867.7130, 481.4609
868.8460, 439.7441
869.9780, 362.3848
871.1100, 379.3516
872.2410, 514.6670
873.3730, 361.4189
874.5050, 348.5654
875.6360, 418.0889
876.7670, 304.0381
877.8980, 256.3643
879.0290, 133.0693
880.1590, 235.0879
881.2900, 179.4707
882.4200, 64.18750
883.5500, 11.82129
884.6800, 142.5996
885.8100, 98.19336
886.9400, 178.5957
888.0690, 214.8213
889.1990, 311.8770
890.3280, 339.7773
891.4570, 334.5225
892.5860, 471.1152
893.7140, 546.5664
894.8430, 707.8838
895.9710, 461.0791
897.1000, 755.1338
898.2280, 708.0723
899.3560, 764.8945
900.4830, 1011.596
901.6110, 1017.195
902.7380, 1034.692
903.8660, 1211.080
904.9930, 1280.363
906.1200, 1306.547
907.2460, 1261.635
908.3730, 1512.649
909.5000, 1463.576
910.6260, 1587.424
911.7520, 1702.201
912.8780, 1740.876
914.0040, 1931.509
915.1290, 1872.077
916.2550, 1911.600
917.3800, 2146.055
918.5050, 2062.466
919.6300, 2255.808
920.7550, 2216.073
921.8800, 2203.287
923.0040, 2168.459
924.1290, 2237.965
925.2530, 2313.653
926.3770, 2398.701
927.5010, 2578.695
928.6250, 2665.681
929.7480, 2680.610
930.8720, 2766.460
931.9950, 2751.271
933.1180, 2927.051
934.2410, 3059.804
935.3640, 3076.487
936.4860, 3130.117
937.6090, 3170.703
938.7310, 3368.236
939.8530, 3616.736
940.9750, 3645.170
942.0970, 3910.557
943.2180, 3825.889
944.3400, 4001.136
945.4610, 4205.299
946.5820, 4307.392
947.7030, 4575.391
948.8240, 4637.299
949.9450, 4834.115
951.0650, 4884.841
952.1860, 5194.475
953.3060, 5391.020
954.4260, 5598.473
955.5460, 5805.748
956.6650, 5931.114
957.7850, 6185.299
958.9040, 6382.397
960.0230, 6637.407
961.1420, 6940.328
962.2610, 7096.162
963.3800, 7338.910
964.4990, 7448.570
965.6170, 7927.145
966.7350, 7988.635
967.8530, 8368.037
968.9710, 8483.356
970.0890, 8810.589
971.2070, 9236.740
972.3240, 9479.806
973.4410, 9788.789
974.5580, 9978.691
975.6750, 10106.51
976.7920, 10508.25
977.9090, 10764.90
979.0250, 10943.47
980.1410, 11354.96
981.2580, 11473.38
982.3740, 11595.71
983.4890, 11454.96
984.6050, 11472.63
985.7200, 10973.40
986.8360, 10865.13
987.9510, 10612.76
989.0660, 10059.93
990.1810, 9896.015
991.2950, 9395.426
992.4100, 9095.302
993.5240, 8592.792
994.6390, 8400.133
995.7530, 8039.141
996.8660, 7729.182
997.9800, 7570.748
999.0940, 7228.973
1000.207, 7058.615
1001.320, 6797.390
1002.433, 6693.700
1003.546, 6648.605
1004.659, 6449.353
1005.772, 6490.031
1006.884, 6240.213
1007.996, 6408.026
1009.108, 6312.664
1010.220, 6571.965
1011.332, 6527.461
1012.444, 6873.995
1013.555, 6983.320
1014.666, 7253.303
1015.777, 7613.842
1016.888, 7887.690
1017.999, 8319.390
1019.110, 8604.104
1020.220, 8982.919
1021.331, 9337.292
1022.441, 10011.29
1023.551, 10414.60
1024.661, 10741.28
1025.770, 11207.90
1026.880, 11495.90
1027.989, 12026.08
1029.098, 12416.63
1030.207, 13130.55
1031.316, 13424.98
1032.425, 14104.71
1033.533, 14595.64
1034.642, 15404.86
1035.750, 15774.12
1036.858, 16465.17
1037.966, 17229.69
1039.073, 17647.14
1040.181, 18564.64
1041.288, 19048.01
1042.396, 19851.72
1043.503, 20306.44
1044.610, 20831.41
1045.716, 21301.99
1046.823, 21526.15
1047.929, 22154.27
1049.036, 22215.16
1050.142, 22564.03
1051.248, 22762.16
1052.353, 23000.48
1053.459, 23310.96
1054.564, 23552.34
1055.670, 23705.61
1056.775, 24157.16
1057.880, 24375.71
1058.985, 24758.95
1060.089, 25308.15
1061.194, 25973.79
1062.298, 26862.30
1063.402, 27325.47
1064.506, 27819.39
1065.610, 28273.62
1066.713, 28967.15
1067.817, 28915.32
1068.920, 29288.94
1070.023, 28920.62
1071.126, 28516.85
1072.229, 28188.86
1073.332, 27248.97
1074.435, 26391.67
1075.537, 25332.06
1076.639, 24425.91
1077.741, 23126.07
1078.843, 21916.37
1079.945, 20791.37
1081.046, 19662.00
1082.148, 18542.73
1083.249, 17546.34
1084.350, 16413.92
1085.451, 15292.49
1086.551, 14555.04
1087.652, 13538.58
1088.752, 12508.10
1089.853, 11885.60
1090.953, 11049.10
1092.053, 10412.57
1093.152, 9712.035
1094.252, 9015.488
1095.351, 8699.924
1096.451, 8226.347
1097.550, 7721.756
1098.649, 7374.153
1099.748, 6807.539
1100.846, 6538.913
1101.945, 6363.275
1103.043, 5961.625
1104.141, 5624.965
1105.239, 5520.296
1106.337, 5396.613
1107.434, 5188.922
1108.532, 4875.222
1109.629, 4754.512
1110.726, 4647.792
1111.823, 4680.064
1112.920, 4593.326
1114.017, 4662.582
1115.113, 4739.829
1116.210, 4820.067
1117.306, 4995.309
1118.402, 5164.021
1119.498, 5333.748
1120.593, 5571.112
1121.689, 5746.484
1122.784, 5892.951
1123.879, 6129.538
1124.974, 6046.263
1126.069, 6218.154
1127.164, 6229.220
1128.259, 5887.449
1129.353, 5789.857
1130.447, 5712.452
1131.541, 5465.219
1132.635, 5237.967
1133.729, 4979.343
1134.822, 4584.686
1135.916, 4205.209
1137.009, 3767.890
1138.102, 3179.733
1139.195, 2845.776
1140.288, 2452.978
1141.380, 2141.333
1142.473, 1777.860
1143.565, 1364.530
1144.657, 1194.330
1145.749, 926.2266
1146.841, 998.2461
1147.932, 748.3730
1149.024, 732.5771
1150.115, 311.8379
1151.206, 564.1318
1152.297, 308.4619
1153.388, 358.8213
1154.479, 363.2051
1155.569, 322.6084
1156.659, 235.0303
1157.750, 211.4697
1158.839, 237.9209
1159.929, 34.38086
1161.019, 160.8398
1162.108, 11.30957
1163.198, 16.63477
1164.287, 152.2285
1165.376, 23.31543
1166.465, 22.87988
1167.553, 132.5381
1168.642, 63.95117
1169.730, 18.64551
1170.818, 19.26270
1171.906, 118.9014
1172.994, 69.60938
1174.082, 87.36133
1175.170, 122.1670
1176.257, 41.97363
1177.344, 216.8848
1178.431, 134.8525
1179.518, 208.9004
1180.605, 111.0254
1181.691, 193.2031
1182.778, 114.4980
1183.864, 66.87012
1184.950, 167.2949
1186.036, 196.8135
1187.122, 95.43652
1188.207, 285.1309
1189.292, 198.9961
1190.378, 132.9912
1191.463, 314.0781
1192.548, 119.3535
1193.632, 31.70898
1194.717, 187.1016
1195.801, 206.6172
1196.886, 226.2695
1197.970, 60.05273
1199.054, 113.8965
1200.137, 161.8164
1201.221, 105.8506
1202.305, 196.9678
1203.388, 54.19922
1204.471, 126.4902
1205.554, 104.8721
1206.637, 24.65918
1207.719, 18.16699
1208.802, 21.35059
1209.884, 108.0850
1210.966, 292.5117
1212.048, 164.9307
1213.130, 304.3438
1214.212, 278.7480
1215.293, 331.1484
1216.374, 386.5557
1217.456, 464.4854
1218.536, 575.2588
1219.617, 698.7363
1220.698, 787.1182
1221.778, 887.2734
1222.859, 957.8613
1223.939, 1068.225
1225.019, 1131.001
1226.099, 1227.932
1227.178, 1274.277
1228.258, 1303.615
1229.337, 1432.948
1230.417, 1258.275
1231.496, 1369.596
1232.574, 1421.910
1233.653, 1512.220
1234.732, 1615.523
1235.810, 1736.822
1236.888, 1630.113
1237.966, 1554.399
1239.044, 1821.680
1240.122, 1536.955
1241.199, 1756.223
1242.277, 1769.486
1243.354, 1654.744
1244.431, 1695.996
1245.508, 1768.242
1246.585, 1949.482
1247.661, 1693.718
1248.738, 1900.946
1249.814, 1525.170
1250.890, 1759.387
1251.966, 1593.598
1253.042, 1700.801
1254.117, 1732.996
1255.193, 1731.183
1256.268, 1660.357
1257.343, 1767.523
1258.418, 1680.677
1259.493, 1663.818
1260.567, 1758.948
1261.642, 1737.062
1262.716, 1817.159
1263.790, 1704.242
1264.864, 1634.307
1265.938, 1853.354
1267.011, 1913.382
1268.085, 1777.391
1269.158, 1684.378
1270.231, 1835.346
1271.304, 1793.290
1272.377, 1689.211
1273.450, 1503.108
1274.522, 1583.982
1275.594, 1587.832
1276.666, 1613.656
1277.738, 1472.454
1278.810, 1525.225
1279.882, 1450.970
1280.953, 1476.689
1282.025, 1544.381
1283.096, 1578.045
1284.167, 1521.684
1285.238, 1578.293
1286.308, 1612.876
