##NAMES=Dravite
##RRUFFID=R060534
##IDEAL CHEMISTRY=NaMg_3_Al_6_(Si_6_O_18_)(BO_3_)_3_(OH)_3_OH
##LOCALITY=Sri Lanka
##OWNER=RRUFF
##SOURCE=Gemological Institute of America
##DESCRIPTION=Black trigonal prism
##STATUS=The identification of this mineral has been confirmed by X-ray diffraction and chemical analysis
##URL=rruff.info/R060534
##MEASURED CHEMISTRY=(Na_0.79_Ca_0.21_)(Mg_0.68_Fe^2+^_0.29_Ti_0.02_Al_0.01_)_3_Al_6.00_(BO_3_)_3_(Si_0.95_Al_005_)_6.00_O_18_(OH)_4_
##PIN_ID=L01264
##ORIENTATION=Laser parallel to a* (1 0 0). Fiducial mark perpendicular to laser is parallel to -c [0 0 -1]
168.4860, 0.0000000E+00
169.7110, 111.8789
170.9360, 630.6055
172.1610, 823.1953
173.3850, 151.1562
174.6100, 76.63281
175.8340, 340.8242
177.0580, 276.6133
178.2820, 604.1406
179.5050, 922.8438
180.7290, 928.8633
181.9520, 1021.184
183.1760, 1281.785
184.3990, 1320.691
185.6220, 1827.047
186.8450, 2209.859
188.0670, 2729.805
189.2900, 2851.250
190.5120, 2915.676
191.7340, 3135.406
192.9560, 3903.195
194.1780, 4338.688
195.4000, 4499.012
196.6220, 5177.688
197.8430, 5170.148
199.0640, 5807.164
200.2860, 6842.340
201.5070, 7984.625
202.7270, 8483.086
203.9480, 8049.656
205.1690, 6891.762
206.3890, 5539.289
207.6090, 5242.762
208.8290, 5520.945
210.0490, 6069.582
211.2690, 6609.570
212.4890, 7143.410
213.7080, 7634.793
214.9280, 7646.977
216.1470, 6952.492
217.3660, 6143.648
218.5850, 6060.473
219.8030, 5935.445
221.0220, 5225.180
222.2400, 5219.691
223.4590, 4882.070
224.6770, 4589.645
225.8950, 4547.605
227.1120, 4204.574
228.3300, 4041.621
229.5480, 4021.129
230.7650, 4029.801
231.9820, 4117.785
233.1990, 4357.176
234.4160, 4446.340
235.6330, 4684.176
236.8490, 4771.211
238.0660, 4988.875
239.2820, 4744.270
240.4980, 4725.615
241.7140, 4810.186
242.9300, 4450.906
244.1460, 4172.824
245.3610, 4111.314
246.5770, 3683.650
247.7920, 3467.137
249.0070, 3575.289
250.2220, 3588.453
251.4370, 3515.633
252.6510, 3116.832
253.8660, 3137.396
255.0800, 2990.791
256.2940, 2837.828
257.5080, 2918.949
258.7220, 2569.910
259.9360, 2647.998
261.1490, 2556.020
262.3630, 2542.111
263.5760, 2359.525
264.7890, 2229.164
266.0020, 2267.734
267.2150, 2212.754
268.4270, 2010.797
269.6400, 2001.926
270.8520, 1647.727
272.0640, 1596.328
273.2760, 1675.430
274.4880, 1481.047
275.7000, 1474.160
276.9120, 1395.311
278.1230, 990.9531
279.3340, 1151.551
280.5450, 1067.086
281.7560, 730.9961
282.9670, 870.6172
284.1780, 568.0703
285.3880, 422.7012
286.5980, 473.8477
287.8090, 529.4551
289.0190, 140.5430
290.2290, 217.0977
291.4380, 1.132813
292.6480, 133.6250
293.8570, 288.4492
295.0670, 427.0742
296.2760, 307.2891
297.4850, 691.1133
298.6930, 686.5898
299.9020, 789.9473
301.1110, 913.5039
302.3190, 786.5781
303.5270, 794.3555
304.7350, 384.3711
305.9430, 470.2285
307.1510, 271.8555
308.3580, 404.6406
309.5660, 101.9062
310.7730, 38.73438
311.9800, 88.54297
313.1870, 296.4023
314.3940, 118.0898
315.6010, 27.64062
316.8070, 216.0742
318.0130, 195.9453
319.2200, 428.5508
320.4260, 516.8984
321.6310, 555.7031
322.8370, 778.5234
324.0430, 1108.773
325.2480, 1195.215
326.4540, 1454.816
327.6590, 1673.562
328.8640, 1746.453
330.0680, 2205.484
331.2730, 2458.637
332.4780, 2610.270
333.6820, 2743.227
334.8860, 2945.629
336.0900, 3139.098
337.2940, 3319.637
338.4980, 3602.250
339.7010, 3696.949
340.9050, 3780.742
342.1080, 4118.633
343.3110, 4100.949
344.5140, 4610.711
345.7170, 4269.863
346.9200, 4692.023
348.1220, 4912.137
349.3240, 4836.188
350.5270, 4822.176
351.7290, 5356.074
352.9310, 5199.883
354.1320, 5415.629
355.3340, 5357.379
356.5350, 5686.145
357.7370, 5570.969
358.9380, 5714.883
360.1390, 5871.934
361.3400, 6096.816
362.5400, 6962.551
363.7410, 6860.141
364.9410, 7336.926
366.1410, 7967.914
367.3410, 7813.121
368.5410, 8432.520
369.7410, 8811.117
370.9400, 8749.840
372.1400, 9157.582
373.3390, 8872.406
374.5380, 8814.121
375.7370, 8786.695
376.9360, 8589.684
378.1350, 8370.020
379.3330, 8113.516
380.5310, 7781.141
381.7300, 7734.277
382.9280, 7539.250
384.1260, 7291.891
385.3230, 7311.570
386.5210, 6871.676
387.7180, 6879.715
388.9160, 6518.336
390.1130, 6502.570
391.3100, 6349.000
392.5060, 6303.547
393.7030, 5926.605
394.9000, 5889.809
396.0960, 5876.816
397.2920, 5611.270
398.4880, 5049.922
399.6840, 4880.066
400.8800, 4842.680
402.0750, 5097.730
403.2710, 4675.082
404.4660, 4767.203
405.6610, 4494.895
406.8560, 4538.688
408.0510, 4469.184
409.2450, 4150.809
410.4400, 4065.980
411.6340, 4035.918
412.8280, 3990.395
414.0220, 4076.016
415.2160, 3896.902
416.4100, 4005.477
417.6030, 3678.055
418.7970, 3613.859
419.9900, 4028.926
421.1830, 3500.344
422.3760, 3307.344
423.5690, 3557.418
424.7610, 3442.598
425.9540, 3346.879
427.1460, 3381.363
428.3380, 2920.945
429.5300, 3309.324
430.7220, 2475.133
431.9140, 2509.285
433.1050, 2457.164
434.2970, 2259.488
435.4880, 2078.227
436.6790, 1842.223
437.8700, 1647.465
439.0610, 1619.859
440.2510, 1362.625
441.4420, 1155.156
442.6320, 975.2578
443.8220, 1095.273
445.0120, 1122.637
446.2020, 1077.695
447.3910, 708.8359
448.5810, 785.4492
449.7700, 689.7852
450.9600, 600.7344
452.1490, 738.0039
453.3370, 464.7773
454.5260, 628.2852
455.7150, 614.6250
456.9030, 667.0000
458.0910, 575.8398
459.2800, 528.9062
460.4670, 663.3398
461.6550, 703.7891
462.8430, 603.0391
464.0300, 696.8242
465.2180, 445.9414
466.4050, 500.1836
467.5920, 687.9531
468.7790, 602.9805
469.9650, 706.9023
471.1520, 740.2344
472.3380, 448.7031
473.5250, 724.5938
474.7110, 756.9883
475.8970, 538.9648
477.0820, 797.7305
478.2680, 615.2852
479.4540, 590.4648
480.6390, 684.2305
481.8240, 654.3203
483.0090, 819.3945
484.1940, 796.6250
485.3780, 765.4258
486.5630, 645.9141
487.7470, 846.7070
488.9320, 563.3828
490.1160, 562.0898
491.3000, 709.8320
492.4830, 691.6133
493.6670, 1015.449
494.8500, 763.3320
496.0340, 843.2734
497.2170, 1133.281
498.4000, 918.3594
499.5820, 635.5391
500.7650, 814.2422
501.9480, 754.2734
503.1300, 720.8477
504.3120, 745.1836
505.4940, 813.2383
506.6760, 498.1484
507.8580, 535.5977
509.0390, 766.2031
510.2210, 593.7734
511.4020, 778.5469
512.5830, 384.1953
513.7640, 672.5781
514.9450, 530.0898
516.1250, 716.7422
517.3060, 371.5352
518.4860, 591.2539
519.6660, 688.5664
520.8460, 788.8242
522.0260, 555.2578
523.2060, 459.8711
524.3850, 512.6680
525.5650, 770.6602
526.7440, 870.8555
527.9230, 895.2539
529.1020, 1135.828
530.2810, 1204.348
531.4590, 1426.738
532.6380, 1501.016
533.8160, 1499.535
534.9940, 1720.289
536.1720, 1923.285
537.3500, 1882.520
538.5270, 2089.996
539.7050, 2081.723
540.8820, 2053.594
542.0590, 2254.809
543.2360, 2370.484
544.4130, 2405.246
545.5900, 2115.957
546.7660, 2245.676
547.9430, 2207.855
549.1190, 2163.398
550.2950, 2352.844
551.4710, 2112.031
552.6470, 2298.312
553.8220, 2314.465
554.9980, 2408.898
556.1730, 2334.715
557.3480, 2313.004
558.5230, 2460.480
559.6980, 2514.727
560.8730, 2422.320
562.0470, 2523.469
563.2220, 2279.734
564.3960, 2339.375
565.5700, 2427.781
566.7440, 2658.414
567.9170, 2385.578
569.0910, 2471.297
570.2640, 2533.586
571.4380, 2367.484
572.6110, 2707.004
573.7840, 3040.125
574.9570, 2351.902
576.1290, 2179.289
577.3020, 2395.344
578.4740, 2616.004
579.6460, 2079.457
580.8180, 2532.664
581.9900, 2339.707
583.1620, 2400.664
584.3330, 2589.309
585.5040, 2400.633
586.6760, 2331.805
587.8470, 2545.840
589.0180, 2453.672
590.1880, 2435.180
591.3590, 2225.242
592.5290, 2205.832
593.7000, 2307.961
594.8700, 2380.625
596.0400, 2283.719
597.2090, 2350.316
598.3790, 2151.480
599.5490, 1940.043
600.7180, 2114.023
601.8870, 1807.375
603.0560, 1906.121
604.2250, 1705.203
605.3940, 1670.660
606.5620, 1695.438
607.7300, 1696.508
608.8990, 1641.891
610.0670, 1813.781
611.2350, 1617.484
612.4020, 2083.695
613.5700, 1851.176
614.7370, 1823.906
615.9050, 1568.891
617.0720, 1448.121
618.2390, 1496.590
619.4060, 1629.297
620.5720, 1516.238
621.7390, 1496.422
622.9050, 1421.832
624.0710, 1585.477
625.2370, 1571.355
626.4030, 1452.465
627.5690, 1349.805
628.7340, 1203.379
629.9000, 1199.180
631.0650, 997.4023
632.2300, 1040.473
633.3950, 657.9609
634.5600, 491.6797
635.7240, 326.6250
636.8890, 225.7930
638.0530, 124.1719
639.2170, 116.1875
640.3810, 55.34766
641.5450, 240.2969
642.7080, 427.0508
643.8720, 98.64062
645.0350, 342.0195
646.1980, 267.2188
647.3610, 350.2344
648.5240, 399.0820
649.6870, 486.7617
650.8490, 160.2969
652.0120, 213.6328
653.1740, 78.21484
654.3360, 298.2773
655.4980, 373.5547
656.6600, 686.0430
657.8210, 1090.734
658.9830, 930.6406
660.1440, 1478.750
661.3050, 2022.066
662.4660, 2097.586
663.6270, 2111.309
664.7870, 2165.234
665.9480, 2196.387
667.1080, 2358.676
668.2680, 2255.195
669.4280, 2223.910
670.5880, 2255.816
671.7480, 2022.918
672.9070, 1690.207
674.0670, 1663.684
675.2260, 1589.348
676.3850, 1587.195
677.5440, 1384.230
678.7030, 1397.445
679.8610, 1141.840
681.0200, 1198.418
682.1780, 1480.168
683.3360, 1410.090
684.4940, 1687.188
685.6520, 1919.457
686.8090, 1944.891
687.9670, 2192.492
689.1240, 2440.266
690.2810, 2789.199
691.4380, 3106.293
692.5950, 3400.812
693.7520, 3787.961
694.9080, 3990.527
696.0650, 4491.250
697.2210, 4739.801
698.3770, 5190.215
699.5330, 5590.988
700.6880, 6166.898
701.8440, 6396.801
702.9990, 7036.898
704.1550, 7429.074
705.3100, 7694.734
706.4650, 8428.570
707.6190, 8358.895
708.7740, 8891.898
709.9290, 9049.094
711.0830, 9829.242
712.2370, 10202.93
713.3910, 10409.81
714.5450, 11033.78
715.6980, 11547.59
716.8520, 12414.72
718.0050, 13092.30
719.1580, 13737.09
720.3110, 14604.00
721.4640, 15310.97
722.6170, 15876.77
723.7700, 16573.43
724.9220, 17215.73
726.0740, 17799.66
727.2260, 18324.62
728.3780, 18730.11
729.5300, 19132.80
730.6810, 19284.85
731.8330, 19714.65
732.9840, 19926.62
734.1350, 20479.72
735.2860, 20793.87
736.4370, 21279.84
737.5880, 21511.19
738.7380, 21568.09
739.8880, 22298.82
741.0390, 22916.56
742.1890, 23213.38
743.3380, 24012.23
744.4880, 24168.81
745.6380, 24464.15
746.7870, 25031.10
747.9360, 25209.86
749.0850, 26060.20
750.2340, 26404.69
751.3830, 27142.00
752.5310, 27105.82
753.6800, 27228.56
754.8280, 27536.30
755.9760, 27852.61
757.1240, 27773.34
758.2720, 27856.41
759.4190, 27820.07
760.5670, 27915.54
761.7140, 28008.95
762.8610, 28185.28
764.0080, 28345.54
765.1550, 28355.36
766.3020, 28419.04
767.4480, 28362.91
768.5950, 28340.88
769.7410, 28313.23
770.8870, 28146.17
772.0330, 28010.30
773.1780, 27606.93
774.3240, 27306.49
775.4690, 26893.95
776.6140, 26510.30
777.7590, 25992.57
778.9040, 25659.28
780.0490, 25185.66
781.1940, 24648.48
782.3380, 24253.53
783.4820, 23795.86
784.6260, 23649.33
785.7700, 23403.26
786.9140, 22932.05
788.0580, 22359.87
789.2010, 22162.50
790.3450, 21518.27
791.4880, 20723.31
792.6310, 19919.25
793.7730, 19018.08
794.9160, 18036.78
796.0590, 17045.37
797.2010, 15866.84
798.3430, 14870.19
799.4850, 13846.41
800.6270, 12951.52
801.7690, 12051.50
802.9100, 11186.84
804.0520, 10641.07
805.1930, 9685.664
806.3340, 9289.133
807.4750, 8870.461
808.6160, 8582.664
809.7560, 8322.727
810.8970, 8111.652
812.0370, 8053.441
813.1770, 7704.094
814.3170, 7460.602
815.4570, 7288.969
816.5960, 6708.074
817.7360, 6238.270
818.8750, 5699.203
820.0140, 5236.863
821.1530, 4813.684
822.2920, 4404.098
823.4310, 3903.430
824.5690, 3626.605
825.7070, 2959.621
826.8460, 2588.484
827.9840, 2307.188
829.1220, 1831.730
830.2590, 1365.117
831.3970, 1178.336
832.5340, 944.3906
833.6710, 696.2852
834.8080, 521.0000
835.9450, 259.5352
837.0820, 300.8516
838.2190, 2.960938
839.3550, 7.269531
840.4910, 302.8438
841.6270, 78.93359
842.7630, 344.4180
843.8990, 551.4375
845.0350, 443.1133
846.1700, 534.3906
847.3060, 638.3125
848.4410, 544.6250
849.5760, 541.2461
850.7100, 425.2109
851.8450, 464.7773
852.9800, 352.9805
854.1140, 681.7617
855.2480, 390.2930
856.3820, 832.4258
857.5160, 762.3945
858.6500, 114.8359
859.7830, 246.7266
860.9170, 336.6836
862.0500, 461.6719
863.1830, 300.3125
864.3160, 226.5195
865.4480, 486.6523
866.5810, 223.7578
867.7130, 367.7227
868.8460, 16.07031
869.9780, 230.9531
871.1100, 45.66406
872.2410, 0.9765630
873.3730, 283.8750
874.5050, 357.4727
875.6360, 334.7969
876.7670, 226.8320
877.8980, 401.5508
879.0290, 157.0039
880.1590, 413.1094
881.2900, 617.9453
882.4200, 402.5586
883.5500, 668.9023
884.6800, 739.0273
885.8100, 609.9375
886.9400, 620.6133
888.0690, 838.0664
889.1990, 843.5000
890.3280, 1124.340
891.4570, 1111.168
892.5860, 1051.801
893.7140, 1195.227
894.8430, 1280.453
895.9710, 1516.488
897.1000, 1446.332
898.2280, 1750.980
899.3560, 1641.441
900.4830, 1777.711
901.6110, 1676.789
902.7380, 2027.672
903.8660, 2062.367
904.9930, 2130.871
906.1200, 2170.188
907.2460, 2247.711
908.3730, 2375.246
909.5000, 2473.996
910.6260, 2549.555
911.7520, 2807.934
912.8780, 2481.117
914.0040, 2887.117
915.1290, 2975.938
916.2550, 2758.586
917.3800, 2956.074
918.5050, 3200.383
919.6300, 3417.535
920.7550, 3481.512
921.8800, 3613.336
923.0040, 3476.008
924.1290, 3355.523
925.2530, 3692.871
926.3770, 3623.051
927.5010, 3805.078
928.6250, 3913.977
929.7480, 3869.977
930.8720, 4053.250
931.9950, 3954.703
933.1180, 3893.051
934.2410, 4180.227
935.3640, 4099.227
936.4860, 4181.129
937.6090, 4275.480
938.7310, 4327.508
939.8530, 4441.016
940.9750, 4422.391
942.0970, 4621.645
943.2180, 4638.773
944.3400, 5042.766
945.4610, 5156.629
946.5820, 5417.344
947.7030, 5336.906
948.8240, 5670.312
949.9450, 5783.555
951.0650, 5707.656
952.1860, 6108.609
953.3060, 6162.426
954.4260, 6081.074
955.5460, 6202.562
956.6650, 6432.883
957.7850, 6496.051
958.9040, 6582.055
960.0230, 6675.898
961.1420, 6771.617
962.2610, 6858.742
963.3800, 6924.566
964.4990, 7053.305
965.6170, 7150.887
966.7350, 7281.828
967.8530, 7286.621
968.9710, 7529.574
970.0890, 7403.562
971.2070, 7734.871
972.3240, 7508.961
973.4410, 7675.547
974.5580, 7579.926
975.6750, 7859.203
976.7920, 7798.965
977.9090, 7667.605
979.0250, 7799.703
980.1410, 7738.105
981.2580, 7816.309
982.3740, 7784.129
983.4890, 7774.430
984.6050, 7705.648
985.7200, 7819.992
986.8360, 7774.469
987.9510, 7928.602
989.0660, 7822.746
990.1810, 7829.859
991.2950, 7763.922
992.4100, 7424.086
993.5240, 7461.383
994.6390, 7398.379
995.7530, 7794.508
996.8660, 7458.559
997.9800, 7463.520
999.0940, 7936.914
1000.207, 7459.051
1001.320, 7756.789
1002.433, 7501.496
1003.546, 7116.395
1004.659, 6811.910
1005.772, 6792.297
1006.884, 6641.816
1007.996, 6355.898
1009.108, 6449.348
1010.220, 6459.906
1011.332, 6303.914
1012.444, 6320.379
1013.555, 6201.969
1014.666, 6132.406
1015.777, 6260.016
1016.888, 6104.938
1017.999, 6292.973
1019.110, 6268.371
1020.220, 6320.531
1021.331, 6061.797
1022.441, 6306.488
1023.551, 6251.172
1024.661, 6566.996
1025.770, 6282.734
1026.880, 6312.191
1027.989, 6365.227
1029.098, 6370.789
1030.207, 6652.062
1031.316, 6533.523
1032.425, 6545.965
1033.533, 6471.395
1034.642, 6354.812
1035.750, 6447.648
1036.858, 6714.609
1037.966, 6703.996
1039.073, 6701.375
1040.181, 7074.750
1041.288, 6838.113
1042.396, 7078.473
1043.503, 6943.832
1044.610, 7178.184
1045.716, 7190.535
1046.823, 7097.891
1047.929, 7231.246
1049.036, 7488.605
1050.142, 7542.961
1051.248, 7494.328
1052.353, 7419.691
1053.459, 7449.070
1054.564, 7548.516
1055.670, 7846.902
1056.775, 7476.297
1057.880, 8053.711
1058.985, 8016.125
1060.089, 7858.945
1061.194, 8121.273
1062.298, 7857.730
1063.402, 7440.180
1064.506, 7352.129
1065.610, 7293.738
1066.713, 7355.730
1067.817, 7289.324
1068.920, 7243.855
1070.023, 7308.086
1071.126, 7247.891
1072.229, 7268.781
1073.332, 7196.797
1074.435, 7101.680
1075.537, 6988.527
1076.639, 6811.195
1077.741, 6738.781
1078.843, 6626.133
1079.945, 6549.414
1081.046, 6450.566
1082.148, 6377.328
1083.249, 6290.609
1084.350, 5981.273
1085.451, 6025.191
1086.551, 5505.047
1087.652, 5873.926
1088.752, 5393.824
1089.853, 5490.352
1090.953, 5661.309
1092.053, 5371.293
1093.152, 5492.086
1094.252, 5463.133
1095.351, 5306.207
1096.451, 5306.309
1097.550, 5405.449
1098.649, 5110.387
1099.748, 5234.613
1100.846, 5184.871
1101.945, 5082.172
1103.043, 5521.512
1104.141, 5277.918
1105.239, 5439.379
1106.337, 4849.961
1107.434, 4891.672
1108.532, 4733.594
1109.629, 4479.664
1110.726, 4567.961
1111.823, 4626.539
1112.920, 4375.367
1114.017, 4385.684
1115.113, 4232.906
1116.210, 4221.609
1117.306, 4113.613
1118.402, 4196.266
1119.498, 4077.395
1120.593, 3990.168
1121.689, 3980.270
1122.784, 3767.629
1123.879, 3667.953
1124.974, 3466.094
1126.069, 3348.672
1127.164, 3019.000
1128.259, 2847.570
1129.353, 2641.430
1130.447, 2485.527
1131.541, 2293.848
1132.635, 2171.246
1133.729, 2105.754
1134.822, 1992.375
1135.916, 1767.168
1137.009, 1735.074
1138.102, 1675.164
1139.195, 1945.418
1140.288, 1738.801
1141.380, 1500.320
1142.473, 1389.961
1143.565, 1836.766
1144.657, 1183.672
1145.749, 1583.711
1146.841, 1086.840
1147.932, 1208.043
1149.024, 1043.344
1150.115, 1069.711
1151.206, 1139.152
1152.297, 1132.707
1153.388, 1056.336
1154.479, 699.0352
1155.569, 1239.875
1156.659, 1567.773
1157.750, 716.7891
1158.839, 1015.898
1159.929, 790.1172
1161.019, 731.4180
1162.108, 734.8398
1163.198, 761.2344
1164.287, 657.7461
1165.376, 638.8711
1166.465, 559.9922
1167.553, 532.7773
1168.642, 563.6328
1169.730, 569.5625
1170.818, 510.5430
1171.906, 691.6016
1172.994, 573.7227
1174.082, 220.9023
1175.170, 387.1406
1176.257, 157.4336
1177.344, 214.7852
1178.431, 136.4648
1179.518, 185.6680
1180.605, 59.19531
1181.691, 165.7852
1182.778, 341.4297
1183.864, 65.14453
1184.950, 57.07422
1186.036, 109.7500
1187.122, 61.62500
1188.207, 32.55859
1189.292, 158.5586
1190.378, 202.3867
1191.463, 250.3438
1192.548, 216.6641
1193.632, 126.2734
1194.717, 366.1914
1195.801, 376.2031
1196.886, 23.31250
1197.970, 68.62500
1199.054, 388.3750
1200.137, 110.4844
1201.221, 259.5781
1202.305, 299.7148
1203.388, 198.9180
1204.471, 255.1445
1205.554, 234.4180
1206.637, 186.7305
1207.719, 211.0586
1208.802, 111.4180
1209.884, 107.7656
1210.966, 70.10547
1212.048, 38.58984
1213.130, 133.6641
1214.212, 98.91406
1215.293, 143.1523
1216.374, 29.60938
1217.456, 43.42188
1218.536, 47.28906
1219.617, 42.78125
1220.698, 272.1797
1221.778, 95.19531
1222.859, 148.7344
1223.939, 168.3203
1225.019, 259.4336
1226.099, 68.59375
1227.178, 384.8125
1228.258, 82.91406
1229.337, 570.0547
1230.417, 415.3945
1231.496, 599.7891
1232.574, 199.2305
1233.653, 553.7227
1234.732, 677.2695
1235.810, 583.8633
1236.888, 620.5078
1237.966, 754.2031
1239.044, 903.9453
1240.122, 609.7344
1241.199, 784.5703
1242.277, 683.4492
1243.354, 570.3750
1244.431, 1021.336
1245.508, 801.3359
1246.585, 1100.379
1247.661, 932.4531
1248.738, 814.5664
1249.814, 797.7109
1250.890, 908.8828
1251.966, 1039.090
1253.042, 889.3242
1254.117, 594.5898
1255.193, 1087.879
1256.268, 1190.195
1257.343, 680.5312
1258.418, 1079.891
1259.493, 972.2773
1260.567, 1060.680
1261.642, 961.1055
1262.716, 747.5508
1263.790, 877.4414
1264.864, 870.9258
1265.938, 765.4219
1267.011, 1004.035
1268.085, 985.7734
1269.158, 1118.844
1270.231, 1083.922
1271.304, 1049.355
1272.377, 906.9102
1273.450, 996.9492
1274.522, 1241.555
1275.594, 968.1680
1276.666, 1062.789
1277.738, 1123.418
1278.810, 943.0586
1279.882, 989.7031
1280.953, 782.8320
1282.025, 1044.945
1283.096, 711.6133
1284.167, 1328.285
1285.238, 948.0156
1286.308, 1226.672
1287.379, 990.3320
1288.449, 1049.172
1289.519, 1164.711
1290.589, 1118.527
1291.659, 1036.219
1292.729, 1105.625
1293.798, 788.9766
1294.868, 1265.441
1295.937, 450.1055
1297.006, 695.7422
1298.075, 1075.973
1299.143, 870.6484
1300.212, 883.1992
1301.280, 740.8633
1302.348, 961.5273
1303.416, 791.9180
1304.484, 987.9805
1305.552, 1098.238
1306.620, 1127.340
1307.687, 832.1055
1308.754, 955.6445
1309.821, 911.3555
1310.888, 860.1641
1311.955, 1046.715
1313.021, 798.6211
1314.088, 976.2852
1315.154, 984.6289
1316.220, 1070.934
1317.286, 989.4023
1318.352, 959.0078
1319.417, 1090.109
1320.483, 1125.191
1321.548, 1023.160
1322.613, 1110.402
1323.678, 839.8516
1324.743, 871.6562
1325.807, 1050.812
1326.872, 957.2578
1327.936, 1033.488
1329.000, 1052.566
1330.064, 837.7500
1331.128, 904.7969
1332.191, 909.1523
1333.255, 759.4609
1334.318, 832.8281
1335.381, 785.6094
