##NAMES=Dravite
##RRUFFID=R050077
##IDEAL CHEMISTRY=NaMg_3_Al_6_(Si_6_O_18_)(BO_3_)_3_(OH)_3_OH
##LOCALITY=Yinnietharra Station, Western Australia, Australia
##OWNER=RRUFF
##SOURCE=Rock Currier
##DESCRIPTION=Dark brown euhedral prismatic single crystal
##STATUS=The identification of this mineral has been confirmed by X-ray diffraction and chemical analysis
##URL=rruff.info/R050077
##MEASURED CHEMISTRY=(Na_0.783_Ca_0.217_)(Mg_0.771_Fe^2+^_0.221_Ti^4+^_0.008_)_3_(Al_0.956_Mg_0.044_)_6_(BO_3_)_3_[Si_6_O_18_]((OH)_0.914_F_0.086_)_4_
##PIN_ID=L01436
##ORIENTATION=Laser parallel to c* (0 0 1). Fiducial mark perpendicular to laser is parallel to a [1 0 0]
118.1340, 0.0000000E+00
119.3650, 99.80859
120.5960, 818.6133
121.8270, 10.39062
123.0580, 737.7695
124.2880, 829.5703
125.5190, 77.45312
126.7490, 130.1992
127.9790, 407.3711
129.2090, 1717.500
130.4390, 2103.469
131.6680, 2697.699
132.8980, 3307.938
134.1270, 3830.629
135.3560, 4069.172
136.5850, 5112.285
137.8140, 5706.594
139.0430, 6578.961
140.2710, 6918.773
141.5000, 7825.031
142.7280, 7592.660
143.9560, 7785.531
145.1840, 8431.098
146.4120, 8625.117
147.6390, 9036.629
148.8670, 8765.930
150.0940, 9497.203
151.3210, 10234.52
152.5490, 10160.00
153.7750, 9331.766
155.0020, 9371.633
156.2290, 9051.648
157.4550, 8319.676
158.6810, 7885.445
159.9080, 7840.938
161.1340, 7809.547
162.3590, 8385.402
163.5850, 8675.680
164.8110, 9220.824
166.0360, 8893.320
167.2610, 8467.520
168.4860, 8321.391
169.7110, 8697.254
170.9360, 8675.812
172.1610, 8597.137
173.3850, 8092.602
174.6100, 7869.559
175.8340, 7748.320
177.0580, 7655.180
178.2820, 7576.383
179.5050, 7706.168
180.7290, 7724.473
181.9520, 7695.633
183.1760, 7249.977
184.3990, 7638.422
185.6220, 7562.219
186.8450, 7433.398
188.0670, 7661.977
189.2900, 7446.703
190.5120, 7231.977
191.7340, 7483.918
192.9560, 7649.578
194.1780, 7840.465
195.4000, 7706.766
196.6220, 8144.773
197.8430, 8449.418
199.0640, 8650.359
200.2860, 8400.910
201.5070, 8830.254
202.7270, 9019.402
203.9480, 9259.797
205.1690, 9861.043
206.3890, 9792.648
207.6090, 10402.93
208.8290, 10701.44
210.0490, 11099.29
211.2690, 11202.79
212.4890, 11364.71
213.7080, 11727.90
214.9280, 11902.38
216.1470, 10846.78
217.3660, 10382.66
218.5850, 9931.051
219.8030, 9167.215
221.0220, 8605.832
222.2400, 8136.117
223.4590, 7570.789
224.6770, 7393.641
225.8950, 6746.213
227.1120, 6642.484
228.3300, 6408.424
229.5480, 5897.000
230.7650, 5765.213
231.9820, 5700.027
233.1990, 5703.426
234.4160, 5780.371
235.6330, 5801.812
236.8490, 5543.705
238.0660, 5202.016
239.2820, 4893.717
240.4980, 4591.801
241.7140, 3934.270
242.9300, 3893.135
244.1460, 3527.404
245.3610, 2446.086
246.5770, 2071.189
247.7920, 1712.725
249.0070, 1362.703
250.2220, 1266.131
251.4370, 981.0215
252.6510, 838.3828
253.8660, 629.2012
255.0800, 507.4902
256.2940, 811.4805
257.5080, 981.1719
258.7220, 1023.691
259.9360, 560.4199
261.1490, 748.3359
262.3630, 674.1934
263.5760, 588.5859
264.7890, 925.9199
266.0020, 588.3789
267.2150, 735.5020
268.4270, 1334.857
269.6400, 918.3809
270.8520, 902.6973
272.0640, 1108.248
273.2760, 786.9258
274.4880, 855.7285
275.7000, 956.5410
276.9120, 612.8672
278.1230, 747.6426
279.3340, 225.8496
280.5450, 37.39844
281.7560, 30.23633
282.9670, 147.6680
284.1780, 79.36914
285.3880, 180.8711
286.5980, 298.2109
287.8090, 535.4434
289.0190, 589.6582
290.2290, 487.8809
291.4380, 691.0938
292.6480, 680.3789
293.8570, 587.6699
295.0670, 744.9941
296.2760, 746.3750
297.4850, 647.8164
298.6930, 472.3047
299.9020, 476.8887
301.1110, 501.3301
302.3190, 358.8789
303.5270, 374.4121
304.7350, 256.9355
305.9430, 310.4316
307.1510, 123.9473
308.3580, 158.5254
309.5660, 194.0234
310.7730, 350.6113
311.9800, 348.2891
313.1870, 743.6582
314.3940, 777.3770
315.6010, 1056.197
316.8070, 1151.188
318.0130, 1608.375
319.2200, 1771.801
320.4260, 1942.486
321.6310, 2284.281
322.8370, 2527.752
324.0430, 2798.379
325.2480, 3284.373
326.4540, 3507.725
327.6590, 3848.090
328.8640, 4104.064
330.0680, 4446.379
331.2730, 4620.582
332.4780, 4920.809
333.6820, 5368.227
334.8860, 5310.822
336.0900, 5292.623
337.2940, 5728.662
338.4980, 5644.934
339.7010, 5972.553
340.9050, 5889.518
342.1080, 5812.799
343.3110, 6065.816
344.5140, 6119.230
345.7170, 6337.029
346.9200, 6164.695
348.1220, 6163.426
349.3240, 6442.438
350.5270, 6473.594
351.7290, 6948.613
352.9310, 7217.111
354.1320, 7401.275
355.3340, 7626.232
356.5350, 8037.111
357.7370, 8282.004
358.9380, 8807.193
360.1390, 9251.863
361.3400, 9820.121
362.5400, 10319.05
363.7410, 11273.67
364.9410, 11585.04
366.1410, 12599.14
367.3410, 13026.17
368.5410, 13608.71
369.7410, 13837.22
370.9400, 14219.53
372.1400, 14265.66
373.3390, 14214.61
374.5380, 13660.38
375.7370, 13273.96
376.9360, 12832.37
378.1350, 11960.61
379.3330, 11401.68
380.5310, 10982.57
381.7300, 10433.30
382.9280, 10107.87
384.1260, 9511.281
385.3230, 9150.535
386.5210, 8939.227
387.7180, 8784.680
388.9160, 8404.539
390.1130, 7976.812
391.3100, 7628.457
392.5060, 7090.391
393.7030, 7092.432
394.9000, 6840.684
396.0960, 6289.477
397.2920, 6230.129
398.4880, 6058.781
399.6840, 5993.525
400.8800, 5797.320
402.0750, 5443.793
403.2710, 5218.953
404.4660, 5188.377
405.6610, 4855.992
406.8560, 4811.547
408.0510, 4767.604
409.2450, 4550.904
410.4400, 4499.418
411.6340, 4473.494
412.8280, 4021.986
414.0220, 4079.191
415.2160, 4117.953
416.4100, 3814.746
417.6030, 3600.672
418.7970, 3396.219
419.9900, 3526.781
421.1830, 3240.975
422.3760, 3362.467
423.5690, 2952.766
424.7610, 2749.578
425.9540, 2714.783
427.1460, 2598.666
428.3380, 2360.666
429.5300, 2180.131
430.7220, 1789.082
431.9140, 1696.006
433.1050, 1551.404
434.2970, 1821.086
435.4880, 1383.924
436.6790, 1411.367
437.8700, 1062.576
439.0610, 803.8789
440.2510, 814.0840
441.4420, 700.4785
442.6320, 559.9160
443.8220, 664.1074
445.0120, 484.8242
446.2020, 246.5586
447.3910, 322.4102
448.5810, 168.7461
449.7700, 121.8516
450.9600, 39.79688
452.1490, 66.32812
453.3370, 11.64453
454.5260, 1.994141
455.7150, 83.53320
456.9030, 23.35547
458.0910, 153.7539
459.2800, 131.5410
460.4670, 352.1797
461.6550, 339.6465
462.8430, 63.80273
464.0300, 222.6914
465.2180, 346.0273
466.4050, 363.4082
467.5920, 518.9492
468.7790, 700.5645
469.9650, 818.0020
471.1520, 1104.131
472.3380, 1208.094
473.5250, 1157.041
474.7110, 1452.982
475.8970, 1627.920
477.0820, 1367.859
478.2680, 1521.807
479.4540, 1662.766
480.6390, 1927.738
481.8240, 1757.730
483.0090, 1938.744
484.1940, 1941.785
485.3780, 2068.859
486.5630, 1969.969
487.7470, 1898.117
488.9320, 2114.307
490.1160, 2017.549
491.3000, 1785.846
492.4830, 2008.207
493.6670, 2112.643
494.8500, 1711.152
496.0340, 1919.943
497.2170, 1868.391
498.4000, 1966.592
499.5820, 1799.994
500.7650, 1907.754
501.9480, 1531.564
503.1300, 1396.926
504.3120, 1716.971
505.4940, 1239.949
506.6760, 1363.184
507.8580, 1147.934
509.0390, 826.7598
510.2210, 1005.711
511.4020, 894.7910
512.5830, 823.0000
513.7640, 861.3379
514.9450, 745.8086
516.1250, 975.4141
517.3060, 1042.156
518.4860, 1332.033
519.6660, 1250.051
520.8460, 1365.211
522.0260, 1619.510
523.2060, 1701.955
524.3850, 1964.543
525.5650, 2065.277
526.7440, 2491.162
527.9230, 2612.195
529.1020, 3044.383
530.2810, 2858.732
531.4590, 3260.246
532.6380, 3395.949
533.8160, 3238.842
534.9940, 3425.943
536.1720, 3391.264
537.3500, 3452.746
538.5270, 3768.588
539.7050, 3557.619
540.8820, 3641.918
542.0590, 3584.229
543.2360, 3784.332
544.4130, 3620.400
545.5900, 3974.707
546.7660, 4072.287
547.9430, 4122.121
549.1190, 3864.215
550.2950, 3624.576
551.4710, 3609.182
552.6470, 3563.057
553.8220, 3621.191
554.9980, 3376.559
556.1730, 3171.180
557.3480, 3068.059
558.5230, 2989.186
559.6980, 2659.582
560.8730, 2601.266
562.0470, 2564.219
563.2220, 2566.471
564.3960, 2461.850
565.5700, 2322.279
566.7440, 2265.945
567.9170, 2316.160
569.0910, 2201.979
570.2640, 2198.375
571.4380, 2259.408
572.6110, 1917.141
573.7840, 1961.621
574.9570, 1946.859
576.1290, 1956.795
577.3020, 1855.510
578.4740, 2165.994
579.6460, 2588.219
580.8180, 1554.258
581.9900, 1743.074
583.1620, 2558.623
584.3330, 1897.834
585.5040, 1320.750
586.6760, 1486.355
587.8470, 1893.604
589.0180, 2008.549
590.1880, 2116.102
591.3590, 1556.318
592.5290, 1510.102
593.7000, 1098.348
594.8700, 1160.967
596.0400, 927.9219
597.2090, 1091.631
598.3790, 922.4961
599.5490, 1051.775
600.7180, 835.4238
601.8870, 1150.424
603.0560, 809.7441
604.2250, 923.3691
605.3940, 713.2949
606.5620, 1036.486
607.7300, 796.9238
608.8990, 865.6055
610.0670, 1302.539
611.2350, 1065.711
612.4020, 923.1113
613.5700, 1068.746
614.7370, 1202.607
615.9050, 1296.703
617.0720, 1346.027
618.2390, 1366.695
619.4060, 1515.346
620.5720, 1293.340
621.7390, 1301.559
622.9050, 1188.994
624.0710, 1282.646
625.2370, 1176.379
626.4030, 1010.607
627.5690, 1034.910
628.7340, 813.4297
629.9000, 724.1641
631.0650, 683.1094
632.2300, 571.2715
633.3950, 138.6445
634.5600, 295.2285
635.7240, 43.97461
636.8890, 416.9766
638.0530, 324.8320
639.2170, 397.5293
640.3810, 486.0820
641.5450, 522.5059
642.7080, 538.8164
643.8720, 560.2930
645.0350, 193.1074
646.1980, 397.0215
647.3610, 18.19922
648.5240, 461.6230
649.6870, 513.2441
650.8490, 725.0645
652.0120, 1134.080
653.1740, 1680.293
654.3360, 1973.955
655.4980, 2410.357
656.6600, 2535.102
657.8210, 3157.090
658.9830, 2964.270
660.1440, 3283.637
661.3050, 3062.193
662.4660, 3511.936
663.6270, 3188.865
664.7870, 2863.979
665.9480, 2927.275
667.1080, 2697.756
668.2680, 2471.416
669.4280, 2314.258
670.5880, 2010.275
671.7480, 2053.471
672.9070, 1734.842
674.0670, 1885.387
675.2260, 1595.104
676.3850, 1509.992
677.5440, 1565.049
678.7030, 1601.275
679.8610, 1676.246
681.0200, 1830.379
682.1780, 1982.938
683.3360, 2113.812
684.4940, 2422.848
685.6520, 2424.043
686.8090, 2692.607
687.9670, 2878.891
689.1240, 3208.543
690.2810, 3452.344
691.4380, 3923.293
692.5950, 4108.389
693.7520, 4658.625
694.9080, 4703.008
696.0650, 5108.199
697.2210, 5246.154
698.3770, 6045.207
699.5330, 6271.934
700.6880, 7120.068
701.8440, 7561.896
702.9990, 8151.920
704.1550, 8646.504
705.3100, 9261.402
706.4650, 9837.736
707.6190, 10924.08
708.7740, 11305.40
709.9290, 12565.46
711.0830, 13722.90
712.2370, 14712.89
713.3910, 15676.76
714.5450, 17010.50
715.6980, 18361.01
716.8520, 19579.53
718.0050, 20814.30
719.1580, 21958.73
720.3110, 22879.93
721.4640, 23903.31
722.6170, 24221.52
723.7700, 24568.45
724.9220, 24575.30
726.0740, 24344.72
727.2260, 24195.30
728.3780, 23833.95
729.5300, 23705.34
730.6810, 23698.09
731.8330, 23172.86
732.9840, 23117.36
734.1350, 23452.54
735.2860, 23334.63
736.4370, 23522.39
737.5880, 23891.58
738.7380, 24018.34
739.8880, 24498.55
741.0390, 25105.81
742.1890, 25505.28
743.3380, 25897.36
744.4880, 26495.04
745.6380, 26662.72
746.7870, 26879.98
747.9360, 27174.38
749.0850, 27251.12
750.2340, 27466.12
751.3830, 27293.24
752.5310, 27246.93
753.6800, 27487.01
754.8280, 27294.69
755.9760, 27759.08
757.1240, 27487.27
758.2720, 28447.87
759.4190, 30627.56
760.5670, 28659.69
761.7140, 29479.38
762.8610, 28071.06
764.0080, 27304.61
765.1550, 26899.09
766.3020, 26996.48
767.4480, 27111.79
768.5950, 26432.02
769.7410, 26500.18
770.8870, 26132.24
772.0330, 25826.22
773.1780, 25347.10
774.3240, 24741.44
775.4690, 24434.21
776.6140, 24057.65
777.7590, 23749.85
778.9040, 23459.51
780.0490, 23088.12
781.1940, 22692.22
782.3380, 22393.64
783.4820, 22169.15
784.6260, 21699.41
785.7700, 21410.19
786.9140, 20809.74
788.0580, 20063.51
789.2010, 19432.00
790.3450, 18512.39
791.4880, 17563.67
792.6310, 16759.84
793.7730, 15467.89
794.9160, 14475.83
796.0590, 13531.64
797.2010, 12424.34
798.3430, 12047.92
799.4850, 11010.37
800.6270, 10620.70
801.7690, 9874.914
802.9100, 9659.996
804.0520, 9457.949
805.1930, 9435.773
806.3340, 9163.469
807.4750, 9153.027
808.6160, 9013.459
809.7560, 8752.756
810.8970, 8583.918
812.0370, 8329.939
813.1770, 7962.824
814.3170, 7652.570
815.4570, 7102.172
816.5960, 6641.631
817.7360, 6107.416
818.8750, 5523.770
820.0140, 4958.145
821.1530, 4390.020
822.2920, 3834.746
823.4310, 3398.318
824.5690, 2958.740
825.7070, 2605.170
826.8460, 2315.121
827.9840, 2042.074
829.1220, 1741.873
830.2590, 1559.510
831.3970, 1351.986
832.5340, 802.2988
833.6710, 670.4414
834.8080, 696.4082
835.9450, 270.1953
837.0820, 317.7715
838.2190, 351.1445
839.3550, 211.6816
840.4910, 264.9551
841.6270, 214.7051
842.7630, 309.9102
843.8990, 334.8672
845.0350, 295.8691
846.1700, 396.6211
847.3060, 523.9395
848.4410, 462.8945
849.5760, 439.4551
850.7100, 288.6172
851.8450, 407.2988
852.9800, 370.5723
854.1140, 338.4121
855.2480, 471.8105
856.3820, 304.8379
857.5160, 256.4082
858.6500, 138.5020
859.7830, 306.0527
860.9170, 222.1582
862.0500, 180.7715
863.1830, 355.8711
864.3160, 163.5527
865.4480, 300.7188
866.5810, 129.4395
867.7130, 0.6250000
868.8460, 37.78516
869.9780, 146.8164
871.1100, 106.5137
872.2410, 27.13867
873.3730, 30.78906
874.5050, 39.20703
875.6360, 108.9805
876.7670, 230.2832
877.8980, 283.7734
879.0290, 296.0938
880.1590, 646.7051
881.2900, 863.5703
882.4200, 953.8086
883.5500, 538.9238
884.6800, 775.7930
885.8100, 751.1582
886.9400, 715.5996
888.0690, 1043.555
889.1990, 701.0215
890.3280, 1022.781
891.4570, 1079.055
892.5860, 1113.586
893.7140, 1243.934
894.8430, 1205.084
895.9710, 1326.033
897.1000, 1519.791
898.2280, 1399.355
899.3560, 1481.729
900.4830, 1833.912
901.6110, 1846.906
902.7380, 1993.709
903.8660, 2105.326
904.9930, 2334.750
906.1200, 2315.988
907.2460, 2153.035
908.3730, 2537.895
909.5000, 2432.568
910.6260, 2526.055
911.7520, 2591.389
912.8780, 2686.559
914.0040, 2742.574
915.1290, 2743.443
916.2550, 2954.174
917.3800, 3066.768
918.5050, 2939.230
919.6300, 3161.539
920.7550, 3033.695
921.8800, 3051.668
923.0040, 3158.457
924.1290, 3255.066
925.2530, 3262.529
926.3770, 3360.271
927.5010, 3357.955
928.6250, 3504.965
929.7480, 3484.826
930.8720, 3596.527
931.9950, 3862.045
933.1180, 3677.457
934.2410, 3918.732
935.3640, 3825.881
936.4860, 4007.867
937.6090, 4079.709
938.7310, 4276.410
939.8530, 4333.010
940.9750, 4290.477
942.0970, 4522.846
943.2180, 4559.076
944.3400, 4655.170
945.4610, 5075.113
946.5820, 5036.918
947.7030, 5395.576
948.8240, 5209.115
949.9450, 5505.510
951.0650, 5688.734
952.1860, 5717.811
953.3060, 5862.721
954.4260, 5918.461
955.5460, 6031.854
956.6650, 6155.441
957.7850, 6200.684
958.9040, 6299.758
960.0230, 6251.670
961.1420, 6337.416
962.2610, 6473.574
963.3800, 6627.426
964.4990, 6807.689
965.6170, 6912.920
966.7350, 6978.730
967.8530, 7130.836
968.9710, 7145.166
970.0890, 7221.375
971.2070, 7152.887
972.3240, 7375.965
973.4410, 7410.062
974.5580, 7298.473
975.6750, 7508.199
976.7920, 7331.238
977.9090, 7724.984
979.0250, 7464.691
980.1410, 7450.389
981.2580, 7382.312
982.3740, 7351.818
983.4890, 7321.611
984.6050, 7222.844
985.7200, 7259.816
986.8360, 7115.080
987.9510, 7016.297
989.0660, 6954.238
990.1810, 6942.402
991.2950, 6760.783
992.4100, 6652.910
993.5240, 6572.160
994.6390, 6630.627
995.7530, 6668.107
996.8660, 6424.945
997.9800, 6476.564
999.0940, 6244.039
1000.207, 6092.703
1001.320, 6104.930
1002.433, 6095.062
1003.546, 5951.387
1004.659, 5860.961
1005.772, 5796.543
1006.884, 5796.381
1007.996, 5760.889
1009.108, 5735.553
1010.220, 5796.502
1011.332, 5719.500
1012.444, 5785.211
1013.555, 5811.211
1014.666, 5749.527
1015.777, 5877.756
1016.888, 6037.305
1017.999, 5926.838
1019.110, 6206.531
1020.220, 6152.531
1021.331, 6605.406
1022.441, 6353.070
1023.551, 6269.252
1024.661, 6757.734
1025.770, 6343.404
1026.880, 6787.184
1027.989, 6665.465
1029.098, 6601.543
1030.207, 6836.090
1031.316, 7072.971
1032.425, 7273.758
1033.533, 7220.578
1034.642, 7429.377
1035.750, 7476.148
1036.858, 7795.895
1037.966, 7781.621
1039.073, 8006.322
1040.181, 8005.004
1041.288, 8255.664
1042.396, 8290.309
1043.503, 8409.932
1044.610, 8599.543
1045.716, 8674.131
1046.823, 8788.707
1047.929, 8709.270
1049.036, 8665.098
1050.142, 8947.746
1051.248, 8718.297
1052.353, 8975.449
1053.459, 8925.949
1054.564, 8592.443
1055.670, 8920.059
1056.775, 8613.535
1057.880, 8701.998
1058.985, 8900.461
1060.089, 8608.455
1061.194, 8723.832
1062.298, 8867.039
1063.402, 8821.633
1064.506, 8853.070
1065.610, 9388.586
1066.713, 9117.090
1067.817, 8862.762
1068.920, 9300.211
1070.023, 8613.523
1071.126, 8513.328
1072.229, 8279.770
1073.332, 7916.273
1074.435, 8028.680
1075.537, 7703.949
1076.639, 7436.902
1077.741, 7082.688
1078.843, 6923.443
1079.945, 6411.521
1081.046, 6569.721
1082.148, 6509.871
1083.249, 6086.312
1084.350, 5851.936
1085.451, 5940.385
1086.551, 5732.844
1087.652, 5665.309
1088.752, 5600.777
1089.853, 5357.262
1090.953, 5319.748
1092.053, 5042.250
1093.152, 5191.762
1094.252, 5214.285
1095.351, 5166.820
1096.451, 5088.371
1097.550, 4815.938
1098.649, 4752.520
1099.748, 4932.115
1100.846, 4637.732
1101.945, 4890.377
1103.043, 4727.043
1104.141, 4521.754
1105.239, 4425.502
1106.337, 4188.289
1107.434, 3952.234
1108.532, 4302.357
1109.629, 3720.643
1110.726, 3937.121
1111.823, 3789.801
1112.920, 3751.674
1114.017, 3498.768
1115.113, 3794.123
1116.210, 3654.719
1117.306, 3768.553
1118.402, 3700.586
1119.498, 3687.854
1120.593, 3562.348
1121.689, 3449.059
1122.784, 3535.021
1123.879, 3085.201
1124.974, 3207.580
1126.069, 2957.129
1127.164, 2815.895
1128.259, 2426.855
1129.353, 1999.004
1130.447, 1952.383
1131.541, 1421.947
1132.635, 1490.730
1133.729, 1361.660
1134.822, 1339.791
1135.916, 1315.025
1137.009, 1300.371
1138.102, 1253.836
1139.195, 1112.453
1140.288, 1097.207
1141.380, 1052.098
1142.473, 823.1250
1143.565, 876.2695
1144.657, 779.6250
1145.749, 794.8418
1146.841, 726.2363
1147.932, 828.0098
1149.024, 856.1797
1150.115, 978.7676
1151.206, 755.4453
1152.297, 802.1777
1153.388, 668.9746
1154.479, 375.8203
1155.569, 515.7246
1156.659, 754.6777
1157.750, 598.6777
1158.839, 433.7441
1159.929, 476.8535
1161.019, 196.3828
1162.108, 788.3184
1163.198, 290.6289
1164.287, 444.9863
1165.376, 474.6367
1166.465, 332.2793
1167.553, 386.4707
1168.642, 412.0645
1169.730, 292.7051
1170.818, 531.3887
1171.906, 357.1191
1172.994, 285.8926
1174.082, 193.7109
1175.170, 47.57227
1176.257, 118.4824
1177.344, 31.51758
1178.431, 138.4355
1179.518, 15.49219
1180.605, 1.380859
1181.691, 49.57422
1182.778, 91.03516
1183.864, 19.17578
1184.950, 25.42969
1186.036, 2.273438
1187.122, 98.06641
1188.207, 187.5449
1189.292, 61.81836
1190.378, 212.7500
1191.463, 218.3613
1192.548, 177.0195
1193.632, 66.70312
1194.717, 75.63281
1195.801, 322.9883
1196.886, 213.7070
1197.970, 215.4707
1199.054, 78.28320
1200.137, 151.0820
1201.221, 158.9004
1202.305, 330.7422
1203.388, 187.6934
1204.471, 327.6816
1205.554, 162.7754
1206.637, 155.8945
1207.719, 96.04102
1208.802, 150.1855
1209.884, 118.3535
1210.966, 211.5273
1212.048, 117.7559
1213.130, 78.00977
1214.212, 87.18164
1215.293, 48.63281
1216.374, 99.49414
1217.456, 82.39844
1218.536, 225.3516
1219.617, 333.3477
1220.698, 166.3945
1221.778, 87.48633
1222.859, 254.6230
1223.939, 214.8066
1225.019, 433.0371
1226.099, 331.3125
1227.178, 434.6367
1228.258, 607.0059
1229.337, 421.4219
1230.417, 496.8828
1231.496, 626.3906
1232.574, 751.9434
1233.653, 1030.545
1234.732, 786.1914
1235.810, 678.8828
1236.888, 1025.619
1237.966, 1104.400
1239.044, 1034.225
1240.122, 1139.092
1241.199, 1018.000
1242.277, 922.9492
1243.354, 1224.939
1244.431, 1374.967
1245.508, 1358.031
1246.585, 1195.133
1247.661, 1353.268
1248.738, 1249.438
1249.814, 1250.643
1250.890, 1403.877
1251.966, 1176.145
1253.042, 1300.439
1254.117, 1145.764
1255.193, 1152.115
1256.268, 1336.496
1257.343, 1059.902
1258.418, 1604.332
1259.493, 1267.789
1260.567, 1598.268
1261.642, 1177.771
1262.716, 1418.295
1263.790, 1567.838
1264.864, 1544.404
1265.938, 1259.988
1267.011, 1516.592
1268.085, 1202.215
1269.158, 1315.852
1270.231, 1269.508
1271.304, 1523.490
1272.377, 1376.498
1273.450, 1213.203
1274.522, 1089.855
1275.594, 1058.836
1276.666, 1264.582
1277.738, 985.1953
1278.810, 930.4023
1279.882, 1232.674
1280.953, 1106.473
1282.025, 1136.057
1283.096, 1152.881
1284.167, 1062.834
1285.238, 1145.682
1286.308, 1363.539
1287.379, 1415.467
1288.449, 1447.348
