##NAMES=Dravite
##RRUFFID=R040088
##IDEAL CHEMISTRY=NaMg_3_Al_6_(Si_6_O_18_)(BO_3_)_3_(OH)_3_OH
##LOCALITY=Yinnietharra Station, Pilbara, Western Australia, Australia
##OWNER=RRUFF
##SOURCE=University of Arizona Mineral Museum
##DESCRIPTION=Brown short prismatic crystal
##STATUS=The identification of this mineral has been confirmed by X-ray diffraction and chemical analysis
##URL=rruff.info/R040088
##MEASURED CHEMISTRY=(Na_0.88_Ca_0.06_[box]_0.06_)(Mg_0.88_Al_0.10_Ti_0.04_Fe_0.02_)_3_Al_6.00_(B_1_O_3_)_3_Si_6.00_O_18_((OH)_0.98_F_0.02_)_4_
##PIN_ID=M00003
##ORIENTATION=Laser parallel to c* (0 0 1). Fiducial mark perpendicular to laser is parallel to a [1 0 0]
174.523, 0.000
175.904, 16.657
177.284, 76.801
178.664, 1.307
180.044, 6.458
181.424, 24.949
182.803, 8.658
184.183, 128.175
185.562, 244.310
186.940, 290.396
188.319, 443.650
189.698, 426.848
191.076, 508.012
192.454, 561.794
193.831, 499.797
195.209, 547.974
196.586, 543.740
197.963, 516.515
199.340, 625.688
200.717, 598.057
202.093, 741.676
203.470, 831.071
204.846, 1026.447
206.221, 1225.507
207.597, 1572.242
208.972, 1857.648
210.347, 2194.854
211.722, 2620.040
213.097, 2883.479
214.472, 3351.970
215.846, 3607.806
217.220, 3803.782
218.594, 3838.303
219.967, 3600.063
221.341, 3428.021
222.714, 3023.938
224.087, 2704.462
225.460, 2524.718
226.832, 2316.817
228.204, 2099.859
229.577, 2040.198
230.948, 1908.266
232.320, 1900.624
233.692, 2068.231
235.063, 1938.691
236.434, 2173.806
237.805, 2250.698
239.175, 2364.894
240.545, 2538.886
241.916, 2689.682
243.286, 2794.733
244.655, 2784.082
246.025, 2717.249
247.394, 2725.055
248.763, 2284.349
250.132, 1971.930
251.501, 1677.606
252.869, 1405.280
254.237, 1160.953
255.605, 991.632
256.973, 854.389
258.340, 692.413
259.708, 649.691
261.075, 631.215
262.442, 611.975
263.808, 618.325
265.175, 625.830
266.541, 656.532
267.907, 683.099
269.273, 710.836
270.639, 776.730
272.004, 782.770
273.369, 904.944
274.734, 900.241
276.099, 978.649
277.463, 931.156
278.828, 892.752
280.192, 647.428
281.556, 625.177
282.919, 469.996
284.283, 305.875
285.646, 291.812
287.009, 188.794
288.372, 147.813
289.734, 84.868
291.097, 71.941
292.459, 97.009
293.821, 87.059
295.183, 114.090
296.544, 189.109
297.905, 246.117
299.266, 267.110
300.627, 273.846
301.988, 243.059
303.348, 181.024
304.709, 113.995
306.069, 54.020
307.428, 186.026
308.788, 190.017
310.147, 300.981
311.507, 320.935
312.865, 355.917
314.224, 276.987
315.583, 227.178
316.941, 189.463
318.299, 107.624
319.657, 55.083
321.015, 33.619
322.372, 48.250
323.729, 108.577
325.086, 299.475
326.443, 356.910
327.800, 525.013
329.156, 586.928
330.512, 776.814
331.868, 775.763
333.224, 972.821
334.579, 1140.990
335.935, 1305.267
337.290, 1451.633
338.645, 1592.045
339.999, 1697.091
341.354, 1822.339
342.708, 1820.548
344.062, 1867.731
345.416, 1754.043
346.769, 1770.337
348.123, 1954.599
349.476, 1880.816
350.829, 1949.981
352.182, 2065.087
353.534, 2203.129
354.887, 2373.102
356.239, 2535.000
357.591, 2801.813
358.942, 2992.534
360.294, 3176.163
361.645, 3495.698
362.996, 3624.143
364.347, 3932.500
365.698, 4120.772
367.048, 4668.959
368.398, 4767.049
369.748, 5615.042
371.098, 6152.943
372.448, 6950.728
373.797, 7438.365
375.146, 7865.850
376.495, 8133.196
377.844, 7820.418
379.192, 7527.523
380.540, 6884.515
381.889, 6301.399
383.236, 5728.186
384.584, 5104.894
385.932, 4781.530
387.279, 4408.104
388.626, 3934.620
389.973, 3861.083
391.319, 3597.499
392.666, 3503.843
394.012, 3023.078
395.358, 2944.133
396.704, 2675.000
398.049, 2451.712
399.394, 2388.363
400.740, 2081.984
402.084, 2178.563
403.429, 1879.967
404.774, 1887.953
406.118, 1688.395
407.462, 1556.316
408.806, 1590.878
410.150, 1491.253
411.493, 1324.595
412.836, 1335.976
414.179, 1317.412
415.522, 1140.904
416.865, 1056.453
418.207, 1059.059
419.549, 805.723
420.891, 926.177
422.233, 967.556
423.575, 882.961
424.916, 815.386
426.257, 823.938
427.598, 795.621
428.939, 859.529
430.279, 804.632
431.619, 820.801
432.959, 778.009
434.299, 838.968
435.639, 828.280
436.978, 730.704
438.318, 832.119
439.657, 797.586
440.996, 806.802
442.334, 893.672
443.673, 734.192
445.011, 750.432
446.349, 732.209
447.687, 755.206
449.024, 754.237
450.361, 654.250
451.699, 603.116
453.036, 573.658
454.372, 541.552
455.709, 502.291
457.045, 431.364
458.381, 409.953
459.717, 404.785
461.053, 431.035
462.388, 321.468
463.724, 322.733
465.059, 274.184
466.394, 361.018
467.728, 423.312
469.063, 331.593
470.397, 392.896
471.731, 341.506
473.065, 363.134
474.398, 483.837
475.732, 431.766
477.065, 549.096
478.398, 627.067
479.731, 563.453
481.063, 643.411
482.396, 765.023
483.728, 805.747
485.060, 937.271
486.391, 970.048
487.723, 1207.137
489.054, 1058.254
490.385, 1300.785
491.716, 1374.019
493.047, 1437.401
494.377, 1480.519
495.708, 1574.937
497.038, 1473.964
498.368, 1487.063
499.697, 1536.202
501.027, 1501.382
502.356, 1532.601
503.685, 1453.460
505.014, 1355.466
506.342, 1260.501
507.671, 1123.882
508.999, 988.303
510.327, 946.766
511.655, 788.270
512.982, 738.815
514.310, 658.403
515.637, 696.035
516.964, 536.709
518.291, 477.427
519.617, 532.189
520.944, 427.997
522.270, 573.850
523.596, 624.749
524.921, 731.695
526.247, 867.688
527.572, 1043.729
528.897, 1203.818
530.222, 1317.957
531.547, 1529.145
532.871, 1589.382
534.196, 1796.671
535.520, 1927.012
536.844, 1863.405
538.167, 1757.853
539.491, 1964.354
540.814, 1715.909
542.137, 1826.521
543.460, 1614.187
544.783, 1670.910
546.105, 1588.697
547.427, 1631.551
548.749, 1580.479
550.071, 1753.525
551.393, 1667.669
552.714, 1665.918
554.035, 1818.279
555.356, 1788.771
556.677, 1636.406
557.998, 1808.179
559.318, 1582.101
560.638, 1592.188
561.958, 1395.434
563.278, 1374.847
564.597, 1310.396
565.917, 1135.108
567.236, 1051.966
568.555, 938.973
569.874, 952.136
571.192, 863.434
572.511, 690.872
573.829, 759.452
575.147, 529.161
576.464, 639.004
577.782, 486.995
579.099, 327.092
580.416, 407.312
581.733, 247.646
583.050, 205.079
584.366, 174.606
585.683, 118.226
586.999, 120.936
588.315, 120.737
589.630, 6.622
590.946, 103.589
592.261, 58.367
593.576, 132.745
594.891, 4.070
596.206, 54.185
597.520, 33.512
598.834, 58.092
600.148, 29.634
601.462, 70.111
602.776, 16.468
604.089, 60.884
605.402, 83.829
606.715, 112.615
608.028, 19.485
609.341, 49.440
610.653, 131.491
611.965, 123.639
613.277, 219.878
614.589, 173.208
615.901, 225.625
617.212, 265.117
618.523, 217.677
619.834, 315.305
621.145, 220.999
622.456, 199.760
623.766, 377.592
625.076, 297.501
626.386, 435.525
627.696, 383.696
629.006, 430.015
630.315, 542.509
631.624, 499.183
632.933, 529.044
634.242, 439.070
635.551, 376.248
636.859, 452.565
638.167, 323.999
639.475, 173.535
640.783, 10.851
642.090, 42.166
643.398, 89.424
644.705, 100.642
646.012, 44.820
647.318, 65.042
648.625, 178.036
649.931, 47.103
651.237, 22.123
652.543, 40.094
653.849, 76.980
655.155, 203.105
656.460, 403.280
657.765, 432.504
659.070, 673.779
660.375, 742.103
661.679, 1043.475
662.984, 1132.896
664.288, 1078.364
665.592, 1033.880
666.895, 1075.444
668.199, 1109.054
669.502, 956.712
670.805, 967.414
672.108, 830.163
673.411, 779.957
674.713, 740.795
676.016, 606.678
677.318, 644.605
678.620, 709.576
679.921, 848.590
681.223, 903.683
682.524, 862.507
683.825, 999.886
685.126, 754.068
686.427, 593.291
687.727, 600.555
689.028, 627.858
690.328, 683.201
691.628, 598.583
692.927, 912.004
694.227, 783.464
695.526, 958.960
696.825, 901.495
698.124, 1127.065
699.423, 1275.672
700.721, 1332.350
702.020, 1455.234
703.318, 1786.154
704.616, 1819.147
705.913, 2175.746
707.211, 2502.671
708.508, 2691.835
709.805, 3059.614
711.102, 3606.215
712.399, 3753.889
713.695, 4170.062
714.992, 4458.824
716.288, 5021.938
717.584, 5622.448
718.879, 5925.509
720.175, 6890.710
721.470, 7641.494
722.765, 8417.699
724.060, 9614.351
725.355, 10412.531
726.649, 10915.838
727.944, 11360.124
729.238, 10554.701
730.532, 10306.817
731.825, 9060.055
733.119, 8236.116
734.412, 7353.052
735.705, 6383.172
736.998, 6011.366
738.291, 5506.209
739.584, 5119.985
740.876, 5093.487
742.168, 4916.784
743.460, 4870.247
744.752, 4892.523
746.043, 5024.255
747.334, 5085.132
748.626, 5364.918
749.916, 5485.159
751.207, 5614.976
752.498, 5894.860
753.788, 6354.371
755.078, 6313.143
756.368, 6871.980
757.658, 6980.043
758.947, 7248.990
760.237, 7707.173
761.526, 7776.088
762.815, 8424.989
764.104, 8653.871
765.392, 9162.730
766.680, 9351.577
767.969, 9680.403
769.257, 9559.210
770.544, 9747.996
771.832, 9726.760
773.119, 10035.503
774.406, 9954.226
775.693, 10492.928
776.980, 10661.603
778.267, 11540.256
779.553, 12368.886
780.839, 13197.487
782.125, 14236.066
783.411, 15434.616
784.697, 16383.143
785.982, 17041.637
787.267, 18340.100
788.552, 18708.541
789.837, 19556.939
791.122, 18995.316
792.406, 19413.650
793.690, 18941.951
794.974, 17990.219
796.258, 17648.328
797.542, 16416.043
798.825, 15932.869
800.108, 14999.417
801.391, 14236.972
802.674, 13544.146
803.957, 12998.656
805.239, 12936.051
806.522, 12823.740
807.804, 13301.168
809.085, 13959.015
810.367, 14136.820
811.649, 14844.590
812.930, 15272.311
814.211, 15219.994
815.492, 15807.634
816.772, 15335.232
818.053, 15242.785
819.333, 14120.292
820.613, 13377.755
821.893, 12615.172
823.173, 11122.547
824.452, 10009.873
825.732, 8917.153
827.011, 7744.385
828.290, 6881.571
829.568, 6098.708
830.847, 5455.796
832.125, 5102.836
833.403, 4549.827
834.681, 4466.767
835.959, 4108.659
837.236, 3820.498
838.514, 3699.286
839.791, 3397.023
841.068, 3205.708
842.345, 2714.341
843.621, 2511.920
844.898, 2170.446
846.174, 1860.919
847.450, 1474.337
848.726, 1247.701
850.001, 930.010
851.277, 804.263
852.552, 558.460
853.827, 472.601
855.102, 202.685
856.376, 126.700
857.651, 93.635
858.925, 95.519
860.199, 2.855
861.473, 36.324
862.746, 59.947
864.020, 118.735
865.293, 165.722
866.566, 139.934
867.839, 179.357
869.112, 247.013
870.384, 203.940
871.656, 243.115
872.928, 116.560
874.200, 204.208
875.472, 130.108
876.744, 136.220
878.015, 159.549
879.286, 81.107
880.557, 95.854
881.828, 99.798
883.098, 59.940
884.369, 77.262
885.639, 121.773
886.909, 25.504
888.178, 26.354
889.448, 4.625
890.717, 71.458
891.987, 100.175
893.256, 108.786
894.524, 115.291
895.793, 110.692
897.061, 153.127
898.330, 177.632
899.598, 234.309
900.865, 278.345
902.133, 312.308
903.401, 398.196
904.668, 394.041
905.935, 480.818
907.202, 488.552
908.468, 565.238
909.735, 662.861
911.001, 655.458
912.267, 794.020
913.533, 680.549
914.799, 674.048
916.064, 887.495
917.330, 846.891
918.595, 920.250
919.860, 947.557
921.124, 984.838
922.389, 967.077
923.653, 1109.252
924.918, 1194.375
926.182, 1281.434
927.445, 1134.429
928.709, 1348.364
929.972, 1273.235
931.236, 1419.042
932.499, 1397.785
933.761, 1413.464
935.024, 1590.080
936.286, 1704.631
937.549, 1677.119
938.811, 1745.542
940.073, 1776.902
941.334, 1898.198
942.596, 1905.431
943.857, 1952.600
945.118, 2127.707
946.379, 2130.749
947.640, 2174.728
948.900, 2298.646
950.161, 2175.503
951.421, 2383.304
952.681, 2327.051
953.940, 2338.736
955.200, 2578.364
956.459, 2412.947
957.719, 2450.471
958.978, 2542.933
960.236, 2526.337
961.495, 2749.679
962.753, 2681.959
964.012, 2715.178
965.270, 2680.335
966.527, 2689.430
967.785, 2831.465
969.043, 2737.438
970.300, 2893.353
971.557, 2888.205
972.814, 2774.996
974.071, 2841.729
975.327, 2804.399
976.583, 2811.011
977.840, 2881.562
979.095, 2769.055
980.351, 2905.489
981.607, 2890.862
982.862, 2847.178
984.117, 3060.434
985.372, 2871.632
986.627, 2923.771
987.882, 3032.852
989.136, 2841.875
990.390, 2890.841
991.644, 2916.749
992.898, 2929.600
994.152, 2937.350
995.405, 2881.131
996.659, 2909.812
997.912, 2872.055
999.165, 2827.006
1000.417, 2854.519
1001.670, 2794.977
1002.922, 2819.378
1004.174, 2913.726
1005.426, 2749.984
1006.678, 2822.017
1007.930, 2714.995
1009.181, 2810.879
1010.432, 2819.139
1011.683, 2666.053
1012.934, 2822.708
1014.185, 2966.726
1015.435, 2857.904
1016.685, 3025.987
1017.935, 2967.550
1019.185, 3065.504
1020.435, 3139.084
1021.684, 3108.247
1022.934, 3317.837
1024.183, 3320.264
1025.432, 3483.088
1026.680, 3452.470
1027.929, 3527.379
1029.177, 3706.740
1030.425, 3668.946
1031.673, 3764.154
1032.921, 3928.046
1034.169, 3968.375
1035.416, 3994.558
1036.663, 4393.892
1037.911, 4110.324
1039.157, 4513.550
1040.404, 4588.730
1041.650, 4667.361
1042.897, 4987.859
1044.143, 4986.619
1045.389, 5386.535
1046.634, 5626.260
1047.880, 5647.269
1049.125, 6048.931
1050.371, 6001.263
1051.615, 5913.855
1052.860, 6266.663
1054.105, 6155.903
1055.349, 6299.938
1056.593, 6138.693
1057.837, 6155.924
1059.081, 6439.882
1060.325, 6291.360
1061.568, 6321.300
1062.812, 6501.460
1064.055, 6722.847
1065.298, 7039.509
1066.540, 6945.743
1067.783, 7125.919
1069.025, 7422.001
1070.267, 7144.390
1071.509, 7212.867
1072.751, 7086.843
1073.993, 6712.887
1075.234, 6556.703
1076.475, 6020.402
1077.716, 5764.874
1078.957, 5438.541
1080.198, 4882.194
1081.438, 4655.833
1082.679, 4419.457
1083.919, 3863.067
1085.159, 3756.665
1086.398, 3307.248
1087.638, 3104.818
1088.877, 3077.375
1090.116, 2754.920
1091.355, 2601.453
1092.594, 2501.974
1093.833, 2381.483
1095.071, 2330.980
1096.309, 2131.467
1097.547, 2072.942
1098.785, 2006.408
1100.023, 1877.863
1101.260, 1989.307
1102.498, 1840.742
1103.735, 1789.167
1104.972, 1844.582
1106.208, 1700.989
1107.445, 1648.387
1108.681, 1665.017
1109.918, 1602.681
1111.154, 1669.530
1112.389, 1609.896
1113.625, 1598.255
1114.860, 1649.606
1116.096, 1461.952
1117.331, 1484.291
1118.566, 1488.623
1119.800, 1357.951
1121.035, 1293.272
1122.269, 1482.590
1123.503, 1427.902
1124.737, 1284.210
1125.971, 959.515
1127.205, 796.815
1128.438, 696.115
1129.671, 646.412
1130.904, 747.707
1132.137, 817.000
1133.370, 583.291
1134.602, 566.582
1135.834, 453.874
1137.066, 465.164
1138.298, 409.458
1139.530, 352.751
1140.762, 293.043
1141.993, 287.346
1143.224, 217.648
1144.455, 183.955
1145.686, 150.269
1146.917, 258.584
1148.147, 153.904
1149.377, 245.228
1150.607, 179.556
1151.837, 138.919
1153.067, 204.287
1154.296, 257.660
1155.526, 231.069
1156.755, 212.493
1157.984, 263.953
1159.213, 238.494
1160.441, 283.079
1161.670, 217.745
1162.898, 349.472
1164.126, 306.283
1165.354, 171.214
1166.581, 301.227
1167.809, 209.334
1169.036, 295.553
1170.263, 202.875
1171.490, 178.307
1172.717, 317.831
1173.943, 244.756
1175.170, 142.473
1176.396, 241.276
1177.622, 218.170
1178.848, 104.153
1180.073, 193.242
1181.299, 97.379
1182.524, 119.588
1183.749, 134.868
1184.974, 146.232
1186.199, 174.646
1187.423, 37.117
1188.648, 35.641
1189.872, 16.202
1191.096, 107.792
1192.320, 76.415
1193.543, 66.065
1194.767, 21.746
1195.990, 0.551
1197.213, 28.170
1198.436, 55.908
1199.659, 53.660
1200.881, 122.575
1202.104, 23.853
1203.326, 109.130
1204.548, 82.447
1205.770, 9.210
1206.991, 144.127
1208.213, 119.526
1209.434, 122.970
1210.655, 142.465
1211.876, 63.022
1213.096, 54.599
1214.317, 123.194
1215.537, 51.843
1216.757, 158.507
1217.977, 96.244
1219.197, 4.979
1220.417, 51.795
1221.636, 34.411
1222.855, 59.620
1224.074, 17.168
1225.293, 205.039
1226.512, 87.250
1227.731, 117.464
1228.949, 147.681
1230.167, 156.900
1231.385, 175.268
1232.603, 191.344
1233.820, 180.569
1235.038, 190.867
1236.255, 166.021
1237.472, 198.248
1238.689, 220.476
1239.906, 220.704
1241.122, 289.932
1242.338, 358.159
1243.555, 312.386
1244.771, 345.611
1245.986, 344.834
1247.202, 342.057
1248.417, 386.551
1249.633, 414.507
1250.848, 444.750
1252.063, 447.004
1253.277, 434.271
1254.492, 489.549
1255.706, 429.839
1256.920, 489.142
1258.134, 551.457
1259.348, 505.783
1260.562, 573.122
1261.775, 529.473
1262.988, 469.836
1264.201, 584.212
1265.414, 593.600
1266.627, 462.000
1267.839, 635.412
1269.052, 462.836
1270.264, 537.415
1271.476, 623.863
1272.688, 547.324
1273.899, 614.397
1275.111, 540.881
1276.322, 501.478
1277.533, 555.286
1278.744, 521.802
1279.955, 415.973
1281.165, 592.772
1282.376, 810.547
1283.586, 523.102
1284.796, 475.663
1286.006, 363.398
1287.215, 535.935
1288.425, 440.521
1289.634, 326.301
1290.843, 553.107
1292.052, 349.957
1293.261, 458.374
1294.469, 402.742
1295.678, 299.883
1296.886, 402.307
1298.094, 315.364
1299.302, 238.828
1300.509, 317.722
1301.717, 225.750
1302.924, 264.062
1304.131, 349.649
1305.338, 204.765
1306.545, 250.709
1307.752, 286.968
1308.958, 249.224
1310.164, 374.507
1311.370, 226.700
1312.576, 219.001
1313.782, 287.302
1314.987, 158.609
1316.193, 172.898
1317.398, 278.773
1318.603, 76.619
1319.807, 263.050
1321.012, 174.125
1322.216, 215.248
1323.421, 164.574
1324.625, 151.191
1325.829, 242.319
1327.032, 262.599
1328.236, 205.752
1329.439, 296.142
1330.642, 285.136
1331.845, 291.235
1333.048, 315.959
1334.251, 274.653
1335.453, 320.453
1336.656, 347.979
1337.858, 259.013
1339.060, 264.152
1340.261, 338.039
1341.463, 226.600
1342.664, 273.313
1343.866, 328.290
1345.067, 262.985
1346.267, 340.582
1347.468, 236.356
1348.669, 258.533
1349.869, 481.126
1351.069, 217.242
1352.269, 408.848
1353.469, 588.854
1354.668, 245.680
1355.868, 391.315
1357.067, 288.802
1358.266, 266.250
1359.465, 333.688
1360.664, 264.418
1361.862, 302.472
1363.061, 247.388
1364.259, 222.684
1365.457, 318.824
1366.655, 281.184
1367.852, 291.502
1369.050, 351.958
1370.247, 328.724
1371.444, 287.828
1372.641, 297.869
1373.838, 256.872
1375.035, 327.733
1376.231, 322.647
1377.427, 289.363
1378.623, 337.008
1379.819, 274.810
1381.015, 266.314
1382.211, 326.714
1383.406, 326.259
1384.601, 320.502
1385.796, 492.674
1386.991, 344.748
1388.185, 371.717
1389.380, 383.602
1390.574, 263.958
1391.768, 397.154
1392.962, 465.201
1394.156, 374.252
1395.350, 419.311
1396.543, 416.373
1397.736, 390.440
1398.929, 458.513
1400.122, 380.588
1401.315, 413.668
1402.507, 429.752
1403.700, 366.239
1404.892, 354.922
1406.084, 286.006
1407.276, 290.088
1408.467, 275.165
1409.659, 269.233
1410.850, 239.296
1412.041, 220.338
1413.232, 144.359
1414.423, 220.366
1415.614, 220.358
1416.804, 45.262
1417.994, 233.116
1419.184, 161.909
1420.374, 115.629
1421.564, 265.255
1422.753, 47.796
1423.943, 129.274
1425.132, 138.723
1426.321, 20.126
1427.510, 213.075
1428.698, 158.380
1429.887, 1.437
1431.075, 200.743
1432.263, 16.880
1433.451, 16.970
1434.639, 147.013
1435.827, 44.015
1437.014, 51.978
1438.201, 85.905
1439.388, 91.198
1440.575, 111.705
1441.762, 48.675
1442.949, 65.284
1444.135, 127.887
1445.321, 22.770
1446.507, 26.316
1447.693, 118.273
1448.879, 77.943
1450.064, 92.923
1451.250, 1.160
1452.435, 80.197
1453.620, 121.802
1454.805, 100.850
1455.989, 104.848
1457.174, 107.450
1458.358, 116.338
1459.542, 3.359
1460.726, 60.031
1461.910, 32.519
1463.093, 185.110
1464.277, 177.735
1465.460, 20.637
1466.643, 96.993
1467.826, 189.625
1469.009, 53.259
1470.191, 191.895
1471.373, 139.533
1472.556, 78.174
1473.738, 216.485
1474.919, 101.130
1476.101, 106.305
1477.283, 262.924
1478.464, 138.909
1479.645, 246.248
1480.826, 221.211
1482.007, 246.016
1483.187, 287.231
1484.368, 294.593
1485.548, 250.510
1486.728, 292.827
1487.908, 274.846
1489.088, 237.562
1490.268, 262.034
1491.447, 372.646
1492.626, 576.531
1493.805, 312.039
1494.984, 45.985
1496.163, 264.525
1497.341, 161.347
1498.520, 109.763
1499.698, 234.932
1500.876, 178.288
1502.054, 100.620
1503.232, 208.898
1504.409, 150.202
1505.586, 224.993
1506.763, 171.988
1507.940, 123.560
1509.117, 157.324
1510.294, 253.279
1511.470, 13.028
1512.647, 199.432
1513.823, 152.401
1514.999, 90.062
1516.174, 205.254
1517.350, 65.534
1518.526, 182.963
1519.701, 249.468
1520.876, 25.459
1522.051, 148.157
1523.226, 174.569
1524.400, 15.407
1525.574, 164.390
1526.749, 122.227
1527.923, 60.570
1529.097, 120.347
1530.270, 98.671
1531.444, 0.801
1532.617, 0.000
##END=



