##NAMES=Dravite
##RRUFFID=R060286
##IDEAL CHEMISTRY=NaMg_3_Al_6_(Si_6_O_18_)(BO_3_)_3_(OH)_3_OH
##LOCALITY=Badakshan Province, Afghanistan
##OWNER=RRUFF
##SOURCE=Herb Obodda
##DESCRIPTION=Brown prismatic tourmaline crystal
##STATUS=The identification of this mineral has been confirmed by X-ray diffraction and chemical analysis
##URL=rruff.info/R060286
##MEASURED CHEMISTRY=(Na_0.48_Ca_0.38_[box]_0.14_)_Σ=1_(Mg_2.90_Ti_0.10_)_Σ=3_Al_6.00_(B_1.00_O_3_)_3_(Si_5.56_B_0.44_)_Σ=6_O_18_(OH)_4_; (OH) assumed from stoichiometry; B estimated by difference and charge balance
##PIN_ID=L00909
##ORIENTATION=Laser parallel to a* (1 0 0). Fiducial mark perpendicular to laser is parallel to -c [0 0 -1]
118.1340, 0.0000000E+00
119.3650, 276.9688
120.5960, 49.06055
121.8270, 11.91797
123.0580, 479.4062
124.2880, 76.85938
125.5190, 495.0254
126.7490, 191.2871
127.9790, 585.7246
129.2090, 1215.166
130.4390, 1483.469
131.6680, 2126.740
132.8980, 2393.496
134.1270, 2131.648
135.3560, 2431.656
136.5850, 2418.826
137.8140, 2793.371
139.0430, 3464.447
140.2710, 3827.779
141.5000, 3289.146
142.7280, 2764.188
143.9560, 2606.965
145.1840, 2496.742
146.4120, 2666.947
147.6390, 2830.854
148.8670, 2466.336
150.0940, 2443.475
151.3210, 2330.912
152.5490, 2640.789
153.7750, 2049.883
155.0020, 1740.230
156.2290, 1466.807
157.4550, 800.5898
158.6810, 453.5605
159.9080, 176.7168
161.1340, 41.19531
162.3590, 36.64453
163.5850, 215.5703
164.8110, 507.3672
166.0360, 331.6660
167.2610, 27.73242
168.4860, 44.35352
169.7110, 22.41992
170.9360, 493.4512
172.1610, 435.0039
173.3850, 288.2812
174.6100, 63.68555
175.8340, 1.138672
177.0580, 132.2188
178.2820, 18.73242
179.5050, 28.37891
180.7290, 151.8633
181.9520, 815.0059
183.1760, 1978.072
184.3990, 3839.080
185.6220, 6019.037
186.8450, 6983.965
188.0670, 6374.875
189.2900, 5987.773
190.5120, 6755.678
191.7340, 10002.63
192.9560, 16043.63
194.1780, 23186.53
195.4000, 25151.43
196.6220, 23178.35
197.8430, 20312.29
199.0640, 17238.28
200.2860, 14106.29
201.5070, 11835.36
202.7270, 10968.71
203.9480, 10505.02
205.1690, 10814.04
206.3890, 10973.34
207.6090, 11976.43
208.8290, 13734.11
210.0490, 15451.82
211.2690, 17378.95
212.4890, 18999.64
213.7080, 20419.75
214.9280, 21169.09
216.1470, 20695.06
217.3660, 19534.22
218.5850, 18145.56
219.8030, 16163.06
221.0220, 14093.66
222.2400, 11975.36
223.4590, 10522.23
224.6770, 9295.299
225.8950, 8122.543
227.1120, 7504.971
228.3300, 6953.582
229.5480, 6700.375
230.7650, 6623.346
231.9820, 6612.492
233.1990, 6827.869
234.4160, 6964.318
235.6330, 7505.990
236.8490, 8412.826
238.0660, 8814.820
239.2820, 9045.961
240.4980, 9523.242
241.7140, 9896.668
242.9300, 10479.24
244.1460, 10358.95
245.3610, 9808.816
246.5770, 9210.822
247.7920, 8226.979
249.0070, 7066.281
250.2220, 5766.732
251.4370, 4792.332
252.6510, 3614.084
253.8660, 2799.984
255.0800, 1884.039
256.2940, 1574.246
257.5080, 1924.604
258.7220, 1750.922
259.9360, 1460.494
261.1490, 2088.590
262.3630, 906.5605
263.5760, 432.6855
264.7890, 442.1719
266.0020, 730.8125
267.2150, 791.9609
268.4270, 996.7383
269.6400, 1161.467
270.8520, 1447.215
272.0640, 1459.285
273.2760, 1653.162
274.4880, 1736.514
275.7000, 1603.982
276.9120, 1860.564
278.1230, 1425.252
279.3340, 883.0312
280.5450, 602.8906
281.7560, 379.8379
282.9670, 159.8750
284.1780, 39.01172
285.3880, 14.24414
286.5980, 224.5723
287.8090, 56.28711
289.0190, 38.08984
290.2290, 81.43555
291.4380, 108.1836
292.6480, 10.90820
293.8570, 109.6406
295.0670, 156.4766
296.2760, 183.4082
297.4850, 297.1309
298.6930, 355.6699
299.9020, 336.0605
301.1110, 313.2402
302.3190, 192.2695
303.5270, 266.1777
304.7350, 300.9453
305.9430, 391.5410
307.1510, 350.4961
308.3580, 466.9824
309.5660, 191.2656
310.7730, 796.5391
311.9800, 477.5488
313.1870, 794.8691
314.3940, 565.7930
315.6010, 827.4199
316.8070, 1085.758
318.0130, 1258.180
319.2200, 1527.682
320.4260, 1844.332
321.6310, 2165.412
322.8370, 2540.520
324.0430, 2882.785
325.2480, 3372.666
326.4540, 3853.695
327.6590, 4648.820
328.8640, 5178.035
330.0680, 6231.348
331.2730, 6975.752
332.4780, 7889.254
333.6820, 8726.848
334.8860, 9543.543
336.0900, 10422.33
337.2940, 11448.22
338.4980, 11969.20
339.7010, 12585.29
340.9050, 13170.47
342.1080, 13053.76
343.3110, 13210.14
344.5140, 12921.62
345.7170, 12661.21
346.9200, 12680.90
348.1220, 12288.59
349.3240, 12188.35
350.5270, 12537.19
351.7290, 13271.11
352.9310, 14077.02
354.1320, 14975.79
355.3340, 16128.45
356.5350, 17527.06
357.7370, 19727.54
358.9380, 22320.88
360.1390, 25621.27
361.3400, 28580.79
362.5400, 31648.43
363.7410, 34322.18
364.9410, 36326.06
366.1410, 38461.07
367.3410, 40179.20
368.5410, 41374.45
369.7410, 42296.81
370.9400, 42062.29
372.1400, 41455.91
373.3390, 39696.65
374.5380, 36993.50
375.7370, 33814.48
376.9360, 30772.56
378.1350, 27348.78
379.3330, 24172.12
380.5310, 21619.56
381.7300, 18985.14
382.9280, 17230.83
384.1260, 15128.64
385.3230, 13657.56
386.5210, 12285.61
387.7180, 11215.78
388.9160, 12471.06
390.1130, 9598.465
391.3100, 9742.984
392.5060, 10213.62
393.7030, 7770.379
394.9000, 7348.254
396.0960, 6699.248
397.2920, 6428.355
398.4880, 6130.584
399.6840, 5669.926
400.8800, 5469.389
402.0750, 5264.969
403.2710, 5109.662
404.4660, 4980.473
405.6610, 4565.402
406.8560, 4239.443
408.0510, 3953.605
409.2450, 3725.863
410.4400, 3449.234
411.6340, 3325.736
412.8280, 2792.375
414.0220, 2257.133
415.2160, 2202.016
416.4100, 1659.018
417.6030, 1391.141
418.7970, 1483.381
419.9900, 1420.742
421.1830, 1274.221
422.3760, 1065.820
423.5690, 1095.539
424.7610, 1208.373
425.9540, 1130.332
427.1460, 1112.406
428.3380, 1483.602
429.5300, 1466.627
430.7220, 1636.945
431.9140, 1699.289
433.1050, 1873.334
434.2970, 1899.477
435.4880, 1797.205
436.6790, 1880.326
437.8700, 1776.846
439.0610, 1755.557
440.2510, 2081.701
441.4420, 2071.645
442.6320, 2139.572
443.8220, 2398.270
445.0120, 2603.959
446.2020, 2627.152
447.3910, 2964.383
448.5810, 3028.742
449.7700, 3217.645
450.9600, 3307.027
452.1490, 3235.738
453.3370, 3356.098
454.5260, 3304.857
455.7150, 3303.000
456.9030, 3245.027
458.0910, 3435.537
459.2800, 3446.807
460.4670, 3495.566
461.6550, 3527.709
462.8430, 3562.338
464.0300, 3805.107
465.2180, 3795.002
466.4050, 4157.051
467.5920, 4239.234
468.7790, 4740.549
469.9650, 4956.986
471.1520, 5318.547
472.3380, 5520.230
473.5250, 5936.039
474.7110, 6233.971
475.8970, 6348.023
477.0820, 6823.203
478.2680, 7008.504
479.4540, 7110.930
480.6390, 7356.477
481.8240, 7227.148
483.0090, 7323.943
484.1940, 7070.863
485.3780, 7345.906
486.5630, 7224.070
487.7470, 7479.359
488.9320, 7111.770
490.1160, 7379.307
491.3000, 7641.965
492.4830, 7651.742
493.6670, 7870.648
494.8500, 8002.676
496.0340, 7935.826
497.2170, 7922.102
498.4000, 7941.502
499.5820, 7894.811
500.7650, 8010.684
501.9480, 7815.465
503.1300, 7796.375
504.3120, 7676.410
505.4940, 7249.576
506.6760, 6608.867
507.8580, 6071.283
509.0390, 5734.828
510.2210, 5288.500
511.4020, 4916.295
512.5830, 4694.217
513.7640, 4273.264
514.9450, 4199.434
516.1250, 4210.730
517.3060, 4005.150
518.4860, 4041.695
519.6660, 4229.363
520.8460, 4683.154
522.0260, 4914.066
523.2060, 5442.105
524.3850, 5726.266
525.5650, 6488.549
526.7440, 6641.951
527.9230, 7378.475
529.1020, 7643.121
530.2810, 7683.889
531.4590, 8202.773
532.6380, 8058.781
533.8160, 8409.908
534.9940, 8294.152
536.1720, 8368.518
537.3500, 7797.000
538.5270, 7907.602
539.7050, 7408.322
540.8820, 6827.158
542.0590, 6411.113
543.2360, 6185.184
544.4130, 5651.369
545.5900, 5116.672
546.7660, 4839.090
547.9430, 4298.627
549.1190, 3738.273
550.2950, 3508.037
551.4710, 3185.912
552.6470, 2617.902
553.8220, 2586.008
554.9980, 2269.225
556.1730, 1900.551
557.3480, 1615.990
558.5230, 1386.543
559.6980, 1614.205
560.8730, 1104.980
562.0470, 918.8633
563.2220, 1010.855
564.3960, 540.9551
565.5700, 654.1641
566.7440, 571.4844
567.9170, 282.9121
569.0910, 291.4434
570.2640, 338.0840
571.4380, 162.1641
572.6110, 44.65820
573.7840, 140.4004
574.9570, 246.4121
576.1290, 423.4004
577.3020, 378.4355
578.4740, 543.4746
579.6460, 447.6328
580.8180, 587.7578
581.9900, 575.8477
583.1620, 501.9219
584.3330, 732.4082
585.5040, 467.6992
586.6760, 304.3145
587.8470, 236.8027
589.0180, 552.7617
590.1880, 373.0859
591.3590, 391.7461
592.5290, 418.3477
593.7000, 168.2344
594.8700, 427.3652
596.0400, 181.3945
597.2090, 74.66602
598.3790, 20.90625
599.5490, 54.45703
600.7180, 141.2539
601.8870, 95.28906
603.0560, 251.5586
604.2250, 488.0391
605.3940, 667.7109
606.5620, 532.5781
607.7300, 568.6152
608.8990, 681.8262
610.0670, 904.2031
611.2350, 1052.713
612.4020, 1184.328
613.5700, 1407.051
614.7370, 1509.879
615.9050, 1619.814
617.0720, 2005.854
618.2390, 2083.990
619.4060, 2547.225
620.5720, 2764.547
621.7390, 2850.959
622.9050, 3248.463
624.0710, 3577.047
625.2370, 3838.715
626.4030, 4105.461
627.5690, 4396.729
628.7340, 4738.172
629.9000, 4860.137
631.0650, 5053.170
632.2300, 5094.277
633.3950, 4991.451
634.5600, 4253.693
635.7240, 4215.004
636.8890, 3833.383
638.0530, 3500.826
639.2170, 3009.332
640.3810, 2573.902
641.5450, 2506.539
642.7080, 2269.234
643.8720, 2445.990
645.0350, 2630.807
646.1980, 2755.684
647.3610, 2804.619
648.5240, 2892.611
649.6870, 3293.658
650.8490, 3590.764
652.0120, 4063.924
653.1740, 4543.135
654.3360, 4684.398
655.4980, 5304.719
656.6600, 5575.084
657.8210, 6293.504
658.9830, 6828.973
660.1440, 7281.484
661.3050, 7972.047
662.4660, 8734.652
663.6270, 9391.309
664.7870, 10224.01
665.9480, 11194.74
667.1080, 12169.53
668.2680, 12999.35
669.4280, 13833.22
670.5880, 14798.68
671.7480, 15600.07
672.9070, 16613.04
674.0670, 17472.07
675.2260, 18250.12
676.3850, 17999.21
677.5440, 17797.33
678.7030, 16803.49
679.8610, 15549.68
681.0200, 14196.90
682.1780, 12999.15
683.3360, 11698.43
684.4940, 10839.74
685.6520, 10156.07
686.8090, 10175.43
687.9670, 9995.820
689.1240, 10182.23
690.2810, 10768.67
691.4380, 11329.13
692.5950, 12021.61
693.7520, 13147.11
694.9080, 13939.63
696.0650, 15112.17
697.2210, 16535.73
698.3770, 17840.31
699.5330, 19531.90
700.6880, 20980.50
701.8440, 22348.13
702.9990, 24496.76
704.1550, 25314.41
705.3100, 26194.06
706.4650, 27028.73
707.6190, 27003.41
708.7740, 26851.10
709.9290, 25997.79
711.0830, 24747.12
712.2370, 23564.55
713.3910, 21308.96
714.5450, 19610.15
715.6980, 17867.26
716.8520, 16147.60
718.0050, 14547.77
719.1580, 13405.80
720.3110, 12354.69
721.4640, 11791.23
722.6170, 11112.73
723.7700, 10515.99
724.9220, 10541.53
726.0740, 10480.68
727.2260, 10460.79
728.3780, 10839.34
729.5300, 11137.08
730.6810, 11266.89
731.8330, 11353.90
732.9840, 11831.30
734.1350, 12481.84
735.2860, 12762.24
736.4370, 13299.26
737.5880, 14049.63
738.7380, 14533.99
739.8880, 15316.73
741.0390, 16207.38
742.1890, 17112.14
743.3380, 18146.38
744.4880, 19382.76
745.6380, 20466.01
746.7870, 21932.75
747.9360, 23400.73
749.0850, 25158.69
750.2340, 26877.96
751.3830, 29138.42
752.5310, 31229.44
753.6800, 33533.22
754.8280, 35554.75
755.9760, 37948.04
757.1240, 39729.52
758.2720, 41318.97
759.4190, 42784.89
760.5670, 43453.20
761.7140, 43453.79
762.8610, 43255.51
764.0080, 42147.34
765.1550, 40669.37
766.3020, 39241.30
767.4480, 37631.16
768.5950, 36237.95
769.7410, 35043.65
770.8870, 33697.29
772.0330, 32843.82
773.1780, 31846.28
774.3240, 31092.66
775.4690, 30177.96
776.6140, 29366.17
777.7590, 28911.31
778.9040, 27858.36
780.0490, 27058.32
781.1940, 26669.20
782.3380, 25920.99
783.4820, 25499.70
784.6260, 25317.32
785.7700, 24987.85
786.9140, 24732.29
788.0580, 24639.65
789.2010, 24736.92
790.3450, 24862.10
791.4880, 25036.19
792.6310, 24891.18
793.7730, 24710.10
794.9160, 24893.91
796.0590, 24923.63
797.2010, 25030.28
798.3430, 24814.82
799.4850, 24717.28
800.6270, 24122.63
801.7690, 23616.90
802.9100, 22972.08
804.0520, 22734.15
805.1930, 22077.14
806.3340, 21458.03
807.4750, 21142.83
808.6160, 21060.53
809.7560, 20605.14
810.8970, 20138.65
812.0370, 20253.06
813.1770, 20048.37
814.3170, 20060.59
815.4570, 20379.71
816.5960, 20198.73
817.7360, 20157.30
818.8750, 19948.47
820.0140, 19591.19
821.1530, 19084.81
822.2920, 18288.32
823.4310, 17639.73
824.5690, 17137.04
825.7070, 15693.25
826.8460, 15022.35
827.9840, 13779.35
829.1220, 12512.24
830.2590, 11608.03
831.3970, 10477.71
832.5340, 9369.285
833.6710, 8568.754
834.8080, 7262.113
835.9450, 6531.363
837.0820, 5769.510
838.2190, 4886.545
839.3550, 4386.469
840.4910, 3685.283
841.6270, 3149.990
842.7630, 2539.582
843.8990, 2116.066
845.0350, 1782.438
846.1700, 1309.699
847.3060, 1108.846
848.4410, 667.9258
849.5760, 379.8809
850.7100, 378.7227
851.8450, 58.47461
852.9800, 5.894531
854.1140, 149.5742
855.2480, 155.0176
856.3820, 368.8359
857.5160, 192.9668
858.6500, 366.3125
859.7830, 481.9902
860.9170, 527.0020
862.0500, 588.7266
863.1830, 597.1543
864.3160, 631.8047
865.4480, 558.7012
866.5810, 624.0605
867.7130, 586.9121
868.8460, 452.2305
869.9780, 269.9961
871.1100, 464.0625
872.2410, 455.5820
873.3730, 611.5977
874.5050, 352.1836
875.6360, 296.2070
876.7670, 280.6445
877.8980, 203.4824
879.0290, 137.6836
880.1590, 137.9121
881.2900, 60.06445
882.4200, 86.20117
883.5500, 44.63477
884.6800, 67.65625
885.8100, 365.7363
886.9400, 288.6562
888.0690, 399.4082
889.1990, 247.0020
890.3280, 339.4238
891.4570, 455.6855
892.5860, 425.7949
893.7140, 697.7539
894.8430, 589.5801
895.9710, 530.2656
897.1000, 846.8086
898.2280, 799.2227
899.3560, 986.5117
900.4830, 1162.682
901.6110, 1193.738
902.7380, 1357.688
903.8660, 1301.555
904.9930, 1407.309
906.1200, 1437.953
907.2460, 1642.537
908.3730, 1678.051
909.5000, 1761.510
910.6260, 1853.914
911.7520, 1867.279
912.8780, 2018.580
914.0040, 2002.781
915.1290, 2169.873
916.2550, 2355.855
917.3800, 2144.729
918.5050, 2414.496
919.6300, 2683.180
920.7550, 2424.773
921.8800, 2737.338
923.0040, 2628.887
924.1290, 2734.447
925.2530, 2881.943
926.3770, 2789.451
927.5010, 2955.916
928.6250, 2975.297
929.7480, 3207.672
930.8720, 3248.010
931.9950, 3479.322
933.1180, 3478.562
934.2410, 3593.789
935.3640, 3527.916
936.4860, 3872.010
937.6090, 3779.039
938.7310, 3839.980
939.8530, 4222.855
940.9750, 4228.682
942.0970, 4569.441
943.2180, 4688.143
944.3400, 4768.789
945.4610, 4846.336
946.5820, 5032.023
947.7030, 4973.170
948.8240, 5387.439
949.9450, 5349.619
951.0650, 5476.697
952.1860, 6045.680
953.3060, 5691.561
954.4260, 5959.344
955.5460, 6395.027
956.6650, 6486.609
957.7850, 6608.100
958.9040, 7024.492
960.0230, 6968.785
961.1420, 7314.982
962.2610, 7481.084
963.3800, 7780.088
964.4990, 8048.000
965.6170, 7991.816
966.7350, 7960.537
967.8530, 8307.164
968.9710, 8754.695
970.0890, 8658.135
971.2070, 8861.482
972.3240, 9147.738
973.4410, 9241.902
974.5580, 9185.969
975.6750, 9435.953
976.7920, 9374.840
977.9090, 9354.637
979.0250, 9452.348
980.1410, 9472.969
981.2580, 9489.496
982.3740, 9259.938
983.4890, 9412.570
984.6050, 8932.773
985.7200, 8854.836
986.8360, 8741.727
987.9510, 8645.734
989.0660, 8492.846
990.1810, 8554.223
991.2950, 8199.051
992.4100, 8177.789
993.5240, 7952.520
994.6390, 7639.873
995.7530, 7447.287
996.8660, 7526.725
997.9800, 7591.543
999.0940, 7523.105
1000.207, 7371.189
1001.320, 7109.111
1002.433, 7032.320
1003.546, 7090.945
1004.659, 7015.986
1005.772, 7120.824
1006.884, 7145.186
1007.996, 7364.760
1009.108, 7506.070
1010.220, 7651.393
1011.332, 7945.473
1012.444, 8004.789
1013.555, 8270.289
1014.666, 8488.832
1015.777, 8899.332
1016.888, 9368.264
1017.999, 9471.877
1019.110, 10031.73
1020.220, 10167.58
1021.331, 10743.48
1022.441, 10826.71
1023.551, 11394.11
1024.661, 11611.68
1025.770, 11829.39
1026.880, 12557.86
1027.989, 12879.24
1029.098, 13416.09
1030.207, 14135.44
1031.316, 14559.43
1032.425, 15232.66
1033.533, 15800.41
1034.642, 16361.44
1035.750, 16903.61
1036.858, 17589.85
1037.966, 18028.13
1039.073, 18713.06
1040.181, 19386.89
1041.288, 20133.67
1042.396, 20862.48
1043.503, 21913.97
1044.610, 22358.63
1045.716, 23425.39
1046.823, 23733.45
1047.929, 24820.01
1049.036, 24805.40
1050.142, 25872.79
1051.248, 26257.27
1052.353, 26058.55
1053.459, 25975.09
1054.564, 25888.36
1055.670, 25277.63
1056.775, 24887.86
1057.880, 24803.19
1058.985, 24588.21
1060.089, 24664.50
1061.194, 24669.78
1062.298, 25057.12
1063.402, 25397.59
1064.506, 25819.59
1065.610, 26088.06
1066.713, 26428.82
1067.817, 26715.85
1068.920, 26911.27
1070.023, 26992.00
1071.126, 26996.76
1072.229, 26987.00
1073.332, 27029.50
1074.435, 25929.84
1075.537, 25671.16
1076.639, 25160.54
1077.741, 24115.68
1078.843, 24018.53
1079.945, 22209.71
1081.046, 21285.74
1082.148, 20346.21
1083.249, 19192.95
1084.350, 17974.68
1085.451, 17232.39
1086.551, 16114.10
1087.652, 15139.79
1088.752, 14363.46
1089.853, 13421.12
1090.953, 12611.77
1092.053, 11816.41
1093.152, 11149.03
1094.252, 10477.57
1095.351, 9884.242
1096.451, 9287.836
1097.550, 8713.416
1098.649, 8158.986
1099.748, 8046.547
1100.846, 7757.098
1101.945, 6898.637
1103.043, 6929.170
1104.141, 6542.693
1105.239, 6246.211
1106.337, 5956.721
1107.434, 5871.219
1108.532, 5723.715
1109.629, 5396.203
1110.726, 5115.684
1111.823, 5163.160
1112.920, 5078.631
1114.017, 5069.096
1115.113, 5089.555
1116.210, 5099.016
1117.306, 5220.494
1118.402, 5434.988
1119.498, 5477.531
1120.593, 5551.141
1121.689, 5657.625
1122.784, 5725.586
1123.879, 5767.447
1124.974, 5858.477
1126.069, 5855.674
1127.164, 5814.062
1128.259, 5587.656
1129.353, 5442.479
1130.447, 5345.523
1131.541, 5209.803
1132.635, 4988.299
1133.729, 4705.031
1134.822, 4450.441
1135.916, 4281.125
1137.009, 3858.410
1138.102, 3436.881
1139.195, 3192.545
1140.288, 2642.439
1141.380, 2239.496
1142.473, 1965.824
1143.565, 1821.039
1144.657, 1471.504
1145.749, 1124.072
1146.841, 1038.744
1147.932, 750.5000
1149.024, 726.3438
1150.115, 635.2656
1151.206, 674.2344
1152.297, 473.2246
1153.388, 357.2402
1154.479, 446.2773
1155.569, 564.3379
1156.659, 225.4199
1157.750, 385.3398
1158.839, 493.6367
1159.929, 472.7598
1161.019, 135.8945
1162.108, 313.0430
1163.198, 26.19531
1164.287, 22.34766
1165.376, 193.4980
1166.465, 21.35547
1167.553, 124.2266
1168.642, 145.8359
1169.730, 8.898438
1170.818, 191.0527
1171.906, 156.1074
1172.994, 218.2480
1174.082, 242.8496
1175.170, 195.9062
1176.257, 195.4141
1177.344, 23.03516
1178.431, 72.31836
1179.518, 113.6660
1180.605, 113.9180
1181.691, 90.39258
1182.778, 80.31836
1183.864, 26.02734
1184.950, 283.7695
1186.036, 329.6758
1187.122, 422.7402
1188.207, 120.0508
1189.292, 425.4180
1190.378, 203.0215
1191.463, 49.75391
1192.548, 337.5293
1193.632, 226.5059
1194.717, 249.6055
1195.801, 96.83203
1196.886, 298.1172
1197.970, 38.43164
1199.054, 220.0000
1200.137, 96.55664
1201.221, 31.15820
1202.305, 70.80664
1203.388, 153.5039
1204.471, 86.31055
1205.554, 101.1816
1206.637, 144.1387
1207.719, 251.7988
1208.802, 20.27148
1209.884, 99.61328
1210.966, 132.4980
1212.048, 19.37891
1213.130, 275.2344
1214.212, 329.0840
1215.293, 452.9316
1216.374, 596.7969
1217.456, 455.6602
1218.536, 551.5254
1219.617, 864.3887
1220.698, 783.2480
1221.778, 888.1055
1222.859, 954.9570
1223.939, 1026.809
1225.019, 1098.902
1226.099, 1160.545
1227.178, 1201.332
1228.258, 1270.168
1229.337, 1275.998
1230.417, 1294.709
1231.496, 1265.652
1232.574, 1361.475
1233.653, 1374.293
1234.732, 1464.107
1235.810, 1568.920
1236.888, 1565.729
1237.966, 1746.531
1239.044, 1528.332
1240.122, 1574.131
1241.199, 1656.928
1242.277, 1770.719
1243.354, 1824.508
1244.431, 1675.293
1245.508, 1574.074
1246.585, 1626.854
1247.661, 1772.629
1248.738, 1846.400
1249.814, 1748.170
1250.890, 1737.936
1251.966, 1792.693
1253.042, 1601.451
1254.117, 1604.201
1255.193, 1548.945
1256.268, 1534.744
1257.343, 1804.414
1258.418, 1508.133
1259.493, 1724.844
1260.567, 1555.543
1261.642, 1660.230
1262.716, 1648.900
1263.790, 1695.555
1264.864, 1838.195
1265.938, 1706.646
1267.011, 1747.568
1268.085, 1592.000
1269.158, 1626.561
1270.231, 1760.100
1271.304, 1632.617
1272.377, 1749.109
1273.450, 1840.578
1274.522, 1616.025
1275.594, 1720.443
1276.666, 1624.838
1277.738, 1615.205
1278.810, 1415.547
1279.882, 1541.859
1280.953, 1660.146
1282.025, 1506.404
1283.096, 1587.635
1284.167, 1473.840
1285.238, 1483.016
1286.308, 1375.164
