##NAMES=Dravite
##RRUFFID=R050077
##IDEAL CHEMISTRY=NaMg_3_Al_6_(Si_6_O_18_)(BO_3_)_3_(OH)_3_OH
##LOCALITY=Yinnietharra Station, Western Australia, Australia
##OWNER=RRUFF
##SOURCE=Rock Currier
##DESCRIPTION=Dark brown euhedral prismatic single crystal
##STATUS=The identification of this mineral has been confirmed by X-ray diffraction and chemical analysis
##URL=rruff.info/R050077
##MEASURED CHEMISTRY=(Na_0.783_Ca_0.217_)(Mg_0.771_Fe^2+^_0.221_Ti^4+^_0.008_)_3_(Al_0.956_Mg_0.044_)_6_(BO_3_)_3_[Si_6_O_18_]((OH)_0.914_F_0.086_)_4_
##PIN_ID=L01436
##ORIENTATION=Laser parallel to c* (0 0 1). Fiducial mark perpendicular to laser is parallel to a [1 0 0]
118.1340, 0.0000000E+00
119.3650, 188.5273
120.5960, 81.75781
121.8270, 13.34766
123.0580, 56.55078
124.2880, 839.7852
125.5190, 5.042969
126.7490, 147.0859
127.9790, 400.3672
129.2090, 1766.852
130.4390, 2576.738
131.6680, 3119.625
132.8980, 3098.383
134.1270, 3394.598
135.3560, 4069.434
136.5850, 4985.707
137.8140, 6200.926
139.0430, 6650.234
140.2710, 8047.496
141.5000, 7890.879
142.7280, 7968.016
143.9560, 8711.645
145.1840, 9160.191
146.4120, 8823.367
147.6390, 9394.203
148.8670, 9162.961
150.0940, 9809.586
151.3210, 9685.484
152.5490, 9783.992
153.7750, 9394.902
155.0020, 9247.461
156.2290, 9145.746
157.4550, 8647.469
158.6810, 8399.977
159.9080, 8049.004
161.1340, 8077.672
162.3590, 8539.324
163.5850, 8538.578
164.8110, 8595.438
166.0360, 9123.719
167.2610, 8457.348
168.4860, 8898.637
169.7110, 8678.863
170.9360, 8439.133
172.1610, 8912.445
173.3850, 8063.230
174.6100, 8050.496
175.8340, 7938.566
177.0580, 7965.719
178.2820, 7837.215
179.5050, 7775.285
180.7290, 7601.559
181.9520, 7580.867
183.1760, 7657.051
184.3990, 7655.191
185.6220, 7637.734
186.8450, 7647.438
188.0670, 7426.289
189.2900, 7404.387
190.5120, 7365.082
191.7340, 7632.715
192.9560, 7525.680
194.1780, 8001.191
195.4000, 8337.633
196.6220, 8548.762
197.8430, 8254.996
199.0640, 8641.176
200.2860, 8774.973
201.5070, 8963.672
202.7270, 9560.941
203.9480, 9519.230
205.1690, 10138.50
206.3890, 10508.16
207.6090, 11223.34
208.8290, 11521.63
210.0490, 11915.65
211.2690, 12079.98
212.4890, 12420.24
213.7080, 12293.77
214.9280, 11759.52
216.1470, 11576.66
217.3660, 10485.55
218.5850, 9877.859
219.8030, 9323.059
221.0220, 8510.688
222.2400, 8150.086
223.4590, 7681.945
224.6770, 7300.012
225.8950, 7129.805
227.1120, 6677.297
228.3300, 6437.586
229.5480, 6170.281
230.7650, 5924.734
231.9820, 6089.809
233.1990, 5982.477
234.4160, 5931.699
235.6330, 5632.434
236.8490, 5661.629
238.0660, 5505.250
239.2820, 5228.266
240.4980, 4747.668
241.7140, 4337.453
242.9300, 3878.293
244.1460, 3237.211
245.3610, 2913.203
246.5770, 2297.617
247.7920, 1872.461
249.0070, 1618.746
250.2220, 1114.477
251.4370, 1103.676
252.6510, 726.2344
253.8660, 1028.602
255.0800, 1196.848
256.2940, 1238.074
257.5080, 773.6758
258.7220, 960.4648
259.9360, 885.1875
261.1490, 798.4844
262.3630, 1074.770
263.5760, 680.0273
264.7890, 1004.016
266.0020, 853.2891
267.2150, 993.6113
268.4270, 866.0020
269.6400, 1111.078
270.8520, 972.5176
272.0640, 1109.990
273.2760, 958.7559
274.4880, 949.3340
275.7000, 924.1094
276.9120, 867.5781
278.1230, 510.5195
279.3340, 440.8750
280.5450, 354.6094
281.7560, 373.6953
282.9670, 79.88672
284.1780, 8.251953
285.3880, 167.3887
286.5980, 390.3613
287.8090, 179.2520
289.0190, 740.0195
290.2290, 425.8340
291.4380, 536.6211
292.6480, 661.6270
293.8570, 530.4727
295.0670, 804.0898
296.2760, 477.0000
297.4850, 623.9043
298.6930, 559.8438
299.9020, 556.8145
301.1110, 606.8203
302.3190, 655.8711
303.5270, 573.0527
304.7350, 327.1289
305.9430, 396.2539
307.1510, 118.4141
308.3580, 12.42578
309.5660, 65.26367
310.7730, 291.4980
311.9800, 437.7051
313.1870, 638.3809
314.3940, 870.6699
315.6010, 1044.787
316.8070, 1343.084
318.0130, 1459.576
319.2200, 1760.299
320.4260, 1902.289
321.6310, 2227.566
322.8370, 2711.158
324.0430, 2758.098
325.2480, 3176.400
326.4540, 3637.082
327.6590, 3834.096
328.8640, 4161.377
330.0680, 4546.840
331.2730, 4576.410
332.4780, 4995.178
333.6820, 5126.148
334.8860, 5277.342
336.0900, 5657.781
337.2940, 5704.477
338.4980, 5670.461
339.7010, 5595.766
340.9050, 6071.414
342.1080, 6051.402
343.3110, 6300.729
344.5140, 6092.270
345.7170, 6524.984
346.9200, 6399.586
348.1220, 6245.891
349.3240, 6831.764
350.5270, 6672.227
351.7290, 7159.213
352.9310, 7476.727
354.1320, 7658.859
355.3340, 7967.682
356.5350, 8156.186
357.7370, 8503.635
358.9380, 8911.295
360.1390, 9481.342
361.3400, 9916.945
362.5400, 10761.20
363.7410, 11233.13
364.9410, 11902.78
366.1410, 12793.18
367.3410, 13161.36
368.5410, 13690.35
369.7410, 14061.15
370.9400, 14318.77
372.1400, 14373.20
373.3390, 14261.14
374.5380, 13845.54
375.7370, 13576.43
376.9360, 12834.16
378.1350, 12149.71
379.3330, 11678.09
380.5310, 11168.31
381.7300, 10542.37
382.9280, 10073.26
384.1260, 9634.994
385.3230, 9030.574
386.5210, 8715.004
387.7180, 8354.242
388.9160, 8119.732
390.1130, 8014.805
391.3100, 7821.242
392.5060, 7385.109
393.7030, 7287.887
394.9000, 6969.475
396.0960, 6726.043
397.2920, 6346.129
398.4880, 6224.004
399.6840, 5806.121
400.8800, 5575.896
402.0750, 5346.971
403.2710, 5540.545
404.4660, 5125.082
405.6610, 5063.393
406.8560, 5121.902
408.0510, 4846.414
409.2450, 4815.715
410.4400, 4592.068
411.6340, 4533.879
412.8280, 4363.863
414.0220, 4157.502
415.2160, 4108.271
416.4100, 4087.508
417.6030, 3795.688
418.7970, 3624.201
419.9900, 3508.721
421.1830, 3242.984
422.3760, 3185.857
423.5690, 2939.779
424.7610, 2830.049
425.9540, 2626.059
427.1460, 2407.369
428.3380, 2482.984
429.5300, 2131.434
430.7220, 2149.721
431.9140, 2060.105
433.1050, 1688.154
434.2970, 1707.797
435.4880, 1396.385
436.6790, 1195.039
437.8700, 1224.855
439.0610, 978.4492
440.2510, 1175.543
441.4420, 908.4062
442.6320, 604.2969
443.8220, 672.4043
445.0120, 729.4180
446.2020, 643.4180
447.3910, 402.6953
448.5810, 231.5117
449.7700, 338.1055
450.9600, 315.2734
452.1490, 41.80469
453.3370, 39.35156
454.5260, 59.81641
455.7150, 128.2305
456.9030, 135.7578
458.0910, 79.12891
459.2800, 99.01953
460.4670, 207.3594
461.6550, 360.7734
462.8430, 200.4688
464.0300, 538.7695
465.2180, 434.4531
466.4050, 553.1875
467.5920, 491.1523
468.7790, 888.8984
469.9650, 1039.344
471.1520, 1142.773
472.3380, 1429.188
473.5250, 1386.598
474.7110, 1473.004
475.8970, 1546.410
477.0820, 1451.820
478.2680, 1819.246
479.4540, 2074.684
480.6390, 1814.137
481.8240, 1937.617
483.0090, 2167.121
484.1940, 2201.656
485.3780, 2122.227
486.5630, 2269.832
487.7470, 2099.484
488.9320, 2147.180
490.1160, 2365.926
491.3000, 2082.734
492.4830, 2283.609
493.6670, 2165.621
494.8500, 2189.293
496.0340, 2082.184
497.2170, 2033.676
498.4000, 1837.887
499.5820, 1878.957
500.7650, 1857.934
501.9480, 1714.418
503.1300, 1793.176
504.3120, 1711.500
505.4940, 1307.035
506.6760, 1206.434
507.8580, 991.6992
509.0390, 1369.094
510.2210, 925.6172
511.4020, 1147.277
512.5830, 1129.074
513.7640, 1000.004
514.9450, 906.0742
516.1250, 1008.609
517.3060, 1073.637
518.4860, 1242.133
519.6660, 1292.773
520.8460, 1442.559
522.0260, 1818.492
523.2060, 2056.578
524.3850, 2426.812
525.5650, 2530.645
526.7440, 2505.746
527.9230, 2759.445
529.1020, 2817.301
530.2810, 3034.320
531.4590, 3328.516
532.6380, 3586.891
533.8160, 3475.461
534.9940, 3566.234
536.1720, 3719.230
537.3500, 3703.461
538.5270, 3900.930
539.7050, 4091.668
540.8820, 4145.668
542.0590, 4178.867
543.2360, 4298.320
544.4130, 4189.031
545.5900, 4126.992
546.7660, 4092.207
547.9430, 4103.684
549.1190, 4150.398
550.2950, 3994.383
551.4710, 3878.613
552.6470, 3633.105
553.8220, 3728.848
554.9980, 3465.852
556.1730, 3167.105
557.3480, 3197.617
558.5230, 3213.387
559.6980, 3007.426
560.8730, 2775.742
562.0470, 2533.375
563.2220, 2699.348
564.3960, 2455.723
565.5700, 2599.492
566.7440, 2070.672
567.9170, 2125.305
569.0910, 2127.535
570.2640, 2298.367
571.4380, 2278.844
572.6110, 2329.977
573.7840, 2071.781
574.9570, 1807.398
576.1290, 1987.766
577.3020, 1918.938
578.4740, 1863.926
579.6460, 1689.652
580.8180, 1642.164
581.9900, 1395.438
583.1620, 1559.457
584.3330, 1538.258
585.5040, 1639.816
586.6760, 1439.125
587.8470, 1408.219
589.0180, 1357.062
590.1880, 1456.559
591.3590, 1149.770
592.5290, 1333.578
593.7000, 1114.941
594.8700, 1422.387
596.0400, 1067.129
597.2090, 1073.445
598.3790, 916.1172
599.5490, 1050.629
600.7180, 850.4727
601.8870, 950.6445
603.0560, 626.1602
604.2250, 855.0000
605.3940, 884.1445
606.5620, 937.5898
607.7300, 775.3086
608.8990, 734.2812
610.0670, 796.5195
611.2350, 1070.992
612.4020, 1005.703
613.5700, 1071.863
614.7370, 1102.355
615.9050, 1151.250
617.0720, 1210.074
618.2390, 1310.789
619.4060, 1274.906
620.5720, 1355.250
621.7390, 1282.820
622.9050, 1299.617
624.0710, 1231.641
625.2370, 1285.887
626.4030, 759.3555
627.5690, 1152.051
628.7340, 744.9648
629.9000, 778.1016
631.0650, 626.4570
632.2300, 597.0391
633.3950, 15.83594
634.5600, 68.14844
635.7240, 327.9258
636.8890, 526.5312
638.0530, 426.0078
639.2170, 617.3320
640.3810, 528.5508
641.5450, 422.6406
642.7080, 381.5859
643.8720, 256.3711
645.0350, 52.85547
646.1980, 21.39453
647.3610, 335.3984
648.5240, 313.4023
649.6870, 316.6094
650.8490, 848.0195
652.0120, 1082.637
653.1740, 1457.457
654.3360, 1952.477
655.4980, 2465.703
656.6600, 2313.125
657.8210, 2938.746
658.9830, 3156.562
660.1440, 3120.574
661.3050, 3376.785
662.4660, 3267.184
663.6270, 3052.777
664.7870, 3144.562
665.9480, 2874.539
667.1080, 2522.699
668.2680, 2595.051
669.4280, 2464.582
670.5880, 2229.305
671.7480, 2142.828
672.9070, 1712.293
674.0670, 1738.555
675.2260, 1698.000
676.3850, 1444.617
677.5440, 1520.414
678.7030, 1566.379
679.8610, 1689.520
681.0200, 1769.832
682.1780, 1931.309
683.3360, 2012.953
684.4940, 2194.762
685.6520, 2583.734
686.8090, 2637.867
687.9670, 2837.164
689.1240, 3146.613
690.2810, 3287.215
691.4380, 3750.977
692.5950, 4049.809
693.7520, 4354.949
694.9080, 4842.156
696.0650, 5228.844
697.2210, 5686.086
698.3770, 6218.027
699.5330, 6488.816
700.6880, 7088.051
701.8440, 7599.684
702.9990, 7911.074
704.1550, 8914.102
705.3100, 9239.227
706.4650, 9905.322
707.6190, 10877.21
708.7740, 12116.41
709.9290, 12948.57
711.0830, 13625.37
712.2370, 14994.74
713.3910, 15976.34
714.5450, 16946.05
715.6980, 18468.67
716.8520, 19701.19
718.0050, 20893.44
719.1580, 22076.24
720.3110, 23065.87
721.4640, 24025.17
722.6170, 24271.34
723.7700, 24621.00
724.9220, 25072.28
726.0740, 24364.96
727.2260, 24685.50
728.3780, 23850.61
729.5300, 23790.23
730.6810, 23363.38
731.8330, 23541.79
732.9840, 23322.84
734.1350, 23260.18
735.2860, 23707.14
736.4370, 23449.29
737.5880, 24053.65
738.7380, 24616.95
739.8880, 24879.88
741.0390, 25340.69
742.1890, 25834.91
743.3380, 25974.85
744.4880, 26368.70
745.6380, 26713.84
746.7870, 26905.02
747.9360, 27152.03
749.0850, 27326.66
750.2340, 27383.39
751.3830, 27384.65
752.5310, 27290.87
753.6800, 27239.95
754.8280, 27188.15
755.9760, 27377.26
757.1240, 27308.63
758.2720, 27501.46
759.4190, 27314.86
760.5670, 27226.06
761.7140, 27768.84
762.8610, 27209.54
764.0080, 27281.17
765.1550, 27022.73
766.3020, 27233.21
767.4480, 26734.61
768.5950, 26685.93
769.7410, 26628.16
770.8870, 26051.31
772.0330, 26095.31
773.1780, 25233.64
774.3240, 24874.64
775.4690, 24508.23
776.6140, 23983.07
777.7590, 23568.02
778.9040, 23538.09
780.0490, 23551.66
781.1940, 22995.98
782.3380, 22741.76
783.4820, 22473.35
784.6260, 22000.09
785.7700, 21628.01
786.9140, 20983.81
788.0580, 20326.51
789.2010, 19658.09
790.3450, 18609.57
791.4880, 17518.93
792.6310, 16773.18
793.7730, 15442.32
794.9160, 14663.33
796.0590, 13700.23
797.2010, 12827.01
798.3430, 11913.66
799.4850, 11019.20
800.6270, 10543.60
801.7690, 10100.88
802.9100, 9660.029
804.0520, 9846.059
805.1930, 9633.945
806.3340, 9416.709
807.4750, 9260.336
808.6160, 9082.828
809.7560, 8905.184
810.8970, 8765.402
812.0370, 8451.480
813.1770, 7730.418
814.3170, 7532.215
815.4570, 6675.869
816.5960, 6417.379
817.7360, 5843.738
818.8750, 5357.953
820.0140, 5082.016
821.1530, 4356.930
822.2920, 3832.691
823.4310, 3387.299
824.5690, 2956.752
825.7070, 2545.049
826.8460, 2466.189
827.9840, 2256.168
829.1220, 1938.988
830.2590, 1466.643
831.3970, 1475.137
832.5340, 873.4629
833.6710, 791.6211
834.8080, 676.6016
835.9450, 298.4023
837.0820, 124.9961
838.2190, 48.32422
839.3550, 68.65234
840.4910, 8.998047
841.6270, 15.31445
842.7630, 151.7070
843.8990, 306.1543
845.0350, 403.1152
846.1700, 385.6465
847.3060, 213.7383
848.4410, 439.3086
849.5760, 436.4766
850.7100, 496.2441
851.8450, 584.6484
852.9800, 513.7363
854.1140, 313.4746
855.2480, 237.7598
856.3820, 453.5586
857.5160, 236.9844
858.6500, 453.9219
859.7830, 362.4961
860.9170, 257.6523
862.0500, 356.3438
863.1830, 303.5195
864.3160, 182.4570
865.4480, 331.7930
866.5810, 178.7090
867.7130, 133.1250
868.8460, 33.98438
869.9780, 17.29883
871.1100, 161.0020
872.2410, 107.0312
873.3730, 204.4668
874.5050, 234.6406
875.6360, 338.5059
876.7670, 127.0859
877.8980, 241.3145
879.0290, 310.2266
880.1590, 382.8477
881.2900, 413.1934
882.4200, 766.2734
883.5500, 544.1328
884.6800, 901.7500
885.8100, 842.1523
886.9400, 777.3379
888.0690, 1190.303
889.1990, 1211.064
890.3280, 930.6191
891.4570, 938.9629
892.5860, 1346.090
893.7140, 1220.018
894.8430, 1309.746
895.9710, 1341.271
897.1000, 1519.600
898.2280, 1712.730
899.3560, 1736.668
900.4830, 1952.412
901.6110, 2030.961
902.7380, 1949.316
903.8660, 2195.475
904.9930, 1918.443
906.1200, 2055.219
907.2460, 2143.803
908.3730, 2422.193
909.5000, 2468.398
910.6260, 2728.436
911.7520, 2412.320
912.8780, 2761.051
914.0040, 2743.641
915.1290, 2932.084
916.2550, 2868.371
917.3800, 2820.500
918.5050, 2803.455
919.6300, 3197.242
920.7550, 3066.852
921.8800, 3536.268
923.0040, 3192.500
924.1290, 3349.572
925.2530, 3393.461
926.3770, 3547.193
927.5010, 3475.740
928.6250, 3622.111
929.7480, 3641.373
930.8720, 3774.449
931.9950, 3661.398
933.1180, 3872.219
934.2410, 3778.889
935.3640, 4159.383
936.4860, 4227.750
937.6090, 4283.938
938.7310, 4399.008
939.8530, 4436.988
940.9750, 4531.812
942.0970, 4927.508
943.2180, 4836.086
944.3400, 5167.535
945.4610, 5660.826
946.5820, 5354.955
947.7030, 5368.953
948.8240, 5447.781
949.9450, 5665.496
951.0650, 5595.053
952.1860, 5660.469
953.3060, 5841.717
954.4260, 5861.600
955.5460, 6097.695
956.6650, 6117.430
957.7850, 6227.994
958.9040, 6466.387
960.0230, 6681.615
961.1420, 6726.676
962.2610, 6765.570
963.3800, 6881.295
964.4990, 6922.340
965.6170, 6943.258
966.7350, 7087.492
967.8530, 7162.234
968.9710, 7308.398
970.0890, 7169.848
971.2070, 7481.430
972.3240, 7388.547
973.4410, 7553.242
974.5580, 7597.156
975.6750, 7657.416
976.7920, 7507.545
977.9090, 7553.674
979.0250, 7667.605
980.1410, 7824.963
981.2580, 7751.938
982.3740, 7504.242
983.4890, 7393.941
984.6050, 7623.381
985.7200, 7349.654
986.8360, 7311.979
987.9510, 7399.377
989.0660, 7206.980
990.1810, 7524.986
991.2950, 7019.113
992.4100, 7352.518
993.5240, 6949.996
994.6390, 6890.928
995.7530, 6697.166
996.8660, 6649.949
997.9800, 6555.805
999.0940, 6291.027
1000.207, 6132.658
1001.320, 6140.695
1002.433, 6149.402
1003.546, 6215.383
1004.659, 6218.004
1005.772, 6131.469
1006.884, 5907.604
1007.996, 5913.982
1009.108, 5774.344
1010.220, 5723.992
1011.332, 5809.682
1012.444, 5965.869
1013.555, 5854.266
1014.666, 5710.645
1015.777, 6141.660
1016.888, 6063.543
1017.999, 6348.146
1019.110, 6150.484
1020.220, 6437.520
1021.331, 6352.232
1022.441, 6637.623
1023.551, 6548.051
1024.661, 6534.262
1025.770, 6654.463
1026.880, 6784.324
1027.989, 6783.617
1029.098, 6926.246
1030.207, 7123.969
1031.316, 7056.020
1032.425, 7296.041
1033.533, 7558.035
1034.642, 7683.004
1035.750, 7418.947
1036.858, 7983.865
1037.966, 8100.762
1039.073, 8025.635
1040.181, 8386.645
1041.288, 8233.479
1042.396, 8647.295
1043.503, 8760.096
1044.610, 9014.879
1045.716, 8711.645
1046.823, 9225.395
1047.929, 9044.133
1049.036, 9004.859
1050.142, 9077.238
1051.248, 9270.941
1052.353, 9090.223
1053.459, 9130.750
1054.564, 9239.426
1055.670, 8971.094
1056.775, 8803.117
1057.880, 9062.529
1058.985, 8947.178
1060.089, 9104.824
1061.194, 9280.918
1062.298, 9257.221
1063.402, 9295.348
1064.506, 9350.793
1065.610, 9057.857
1066.713, 9109.117
1067.817, 9010.053
1068.920, 9160.107
1070.023, 8841.047
1071.126, 8573.086
1072.229, 8384.574
1073.332, 8293.531
1074.435, 8201.703
1075.537, 7840.807
1076.639, 7601.414
1077.741, 7213.074
1078.843, 7162.494
1079.945, 6856.395
1081.046, 6751.504
1082.148, 6565.574
1083.249, 6007.994
1084.350, 6188.547
1085.451, 6125.242
1086.551, 6205.945
1087.652, 5758.660
1088.752, 5479.383
1089.853, 5518.119
1090.953, 5207.867
1092.053, 5220.623
1093.152, 5158.398
1094.252, 5164.188
1095.351, 5151.990
1096.451, 4979.811
1097.550, 5020.650
1098.649, 4726.508
1099.748, 4761.387
1100.846, 4713.215
1101.945, 4664.211
1103.043, 4742.166
1104.141, 4438.160
1105.239, 4519.223
1106.337, 4182.381
1107.434, 4168.662
1108.532, 4251.051
1109.629, 4085.547
1110.726, 3863.193
1111.823, 3789.041
1112.920, 3604.109
1114.017, 3762.400
1115.113, 3862.871
1116.210, 4218.580
1117.306, 4212.533
1118.402, 4175.320
1119.498, 4389.234
1120.593, 3852.994
1121.689, 3866.971
1122.784, 3609.145
1123.879, 3186.574
1124.974, 3361.205
1126.069, 3072.094
1127.164, 2742.223
1128.259, 2380.557
1129.353, 2154.129
1130.447, 1675.924
1131.541, 1848.914
1132.635, 1299.137
1133.729, 1387.555
1134.822, 1563.154
1135.916, 1139.895
1137.009, 1284.789
1138.102, 1068.795
1139.195, 948.9844
1140.288, 1282.279
1141.380, 1141.674
1142.473, 971.1621
1143.565, 882.7715
1144.657, 784.4902
1145.749, 760.3125
1146.841, 672.2188
1147.932, 718.2305
1149.024, 761.3027
1150.115, 1019.445
1151.206, 773.6406
1152.297, 703.9141
1153.388, 385.2695
1154.479, 613.6777
1155.569, 635.1367
1156.659, 491.6504
1157.750, 604.2227
1158.839, 475.8652
1159.929, 515.6055
1161.019, 330.4082
1162.108, 392.2637
1163.198, 612.1855
1164.287, 532.1562
1165.376, 375.1777
1166.465, 519.2480
1167.553, 72.36523
1168.642, 102.5742
1169.730, 442.8320
1170.818, 6.861328
1171.906, 90.51172
1172.994, 122.9844
1174.082, 123.5039
1175.170, 235.0762
1176.257, 380.7324
1177.344, 97.43945
1178.431, 110.1973
1179.518, 160.0039
1180.605, 35.13867
1181.691, 126.7754
1182.778, 90.25977
1183.864, 40.27539
1184.950, 53.74805
1186.036, 36.82031
1187.122, 142.0566
1188.207, 33.92969
1189.292, 151.7539
1190.378, 255.4160
1191.463, 52.36523
1192.548, 353.1172
1193.632, 434.0332
1194.717, 252.7715
1195.801, 262.6289
1196.886, 154.5488
1197.970, 8.484375
1199.054, 258.3750
1200.137, 7.328125
1201.221, 292.2344
1202.305, 386.2246
1203.388, 101.3359
1204.471, 217.4414
1205.554, 288.5957
1206.637, 204.8242
1207.719, 91.09570
1208.802, 65.35938
1209.884, 188.5977
1210.966, 7.873047
1212.048, 263.1074
1213.130, 61.41016
1214.212, 159.6914
1215.293, 148.0039
1216.374, 103.7520
1217.456, 116.5488
1218.536, 133.3984
1219.617, 237.2988
1220.698, 166.2500
1221.778, 248.2539
1222.859, 315.3066
1223.939, 284.4121
1225.019, 359.6758
1226.099, 585.7754
1227.178, 391.0332
1228.258, 412.3418
1229.337, 343.7012
1230.417, 637.1113
1231.496, 581.5742
1232.574, 733.0879
1233.653, 982.6504
1234.732, 890.0469
1235.810, 997.9316
1236.888, 637.4551
1237.966, 951.6211
1239.044, 1132.273
1240.122, 1186.602
1241.199, 736.0488
1242.277, 937.5449
1243.354, 877.7832
1244.431, 807.3438
1245.508, 1100.719
1246.585, 723.8281
1247.661, 1011.508
1248.738, 1033.967
1249.814, 1177.854
1250.890, 1058.873
1251.966, 1021.141
1253.042, 1246.424
1254.117, 1326.111
1255.193, 1177.008
1256.268, 1328.799
1257.343, 943.0488
1258.418, 1029.059
1259.493, 1318.637
1260.567, 1182.871
1261.642, 1339.611
1262.716, 1384.992
1263.790, 924.1641
1264.864, 1343.729
1265.938, 1382.590
1267.011, 1030.529
1268.085, 1419.992
1269.158, 1121.879
1270.231, 1069.213
1271.304, 1201.947
1272.377, 1141.473
1273.450, 1384.979
1274.522, 1337.998
1275.594, 1262.561
1276.666, 1306.654
1277.738, 1022.150
1278.810, 1337.121
1279.882, 1242.633
1280.953, 1356.109
1282.025, 1516.477
1283.096, 1318.535
1284.167, 1494.492
1285.238, 1090.510
1286.308, 1171.811
1287.379, 1205.465
1288.449, 1555.545
