##NAMES=Dravite
##RRUFFID=R060280
##IDEAL CHEMISTRY=NaMg_3_Al_6_(Si_6_O_18_)(BO_3_)_3_(OH)_3_OH
##LOCALITY=near Merelani, Tanzania
##OWNER=RRUFF
##SOURCE=Herb Obodda
##DESCRIPTION=Green fragment
##STATUS=The identification of this mineral has been confirmed by X-ray diffraction and chemical analysis
##URL=rruff.info/R060280
##MEASURED CHEMISTRY=(Na_0.45_Ca_0.40_[box]_0.15_)(Mg_0.89_Al_0.07_Ti_0.04_)_3_Al_6_(BO_3_)_3_(Si_0.93_B_0.07_)_6_O_18_((OH)_0.95_O_0.05_)_4_
##PIN_ID=L01324
##ORIENTATION=Laser parallel to a* (1 0 0). Fiducial mark perpendicular to laser is parallel to c [0 0 1]
168.4860, 0.0000000E+00
169.7110, 133.7646
170.9360, 125.9482
172.1610, 145.3477
173.3850, 108.3672
174.6100, 164.1416
175.8340, 149.6006
177.0580, 35.47852
178.2820, 11.71484
179.5050, 7.886719
180.7290, 4.720703
181.9520, 3.851563
183.1760, 50.19141
184.3990, 155.1719
185.6220, 405.0654
186.8450, 494.3945
188.0670, 774.7529
189.2900, 908.8008
190.5120, 1293.258
191.7340, 1688.892
192.9560, 1911.513
194.1780, 2315.960
195.4000, 2929.099
196.6220, 3693.814
197.8430, 4364.006
199.0640, 5303.408
200.2860, 6215.625
201.5070, 7611.710
202.7270, 8989.620
203.9480, 10618.33
205.1690, 12549.85
206.3890, 14437.15
207.6090, 16917.16
208.8290, 19439.85
210.0490, 21887.19
211.2690, 24584.15
212.4890, 26743.72
213.7080, 28430.88
214.9280, 29827.62
216.1470, 30293.92
217.3660, 29463.79
218.5850, 28458.21
219.8030, 26581.16
221.0220, 24687.65
222.2400, 22562.67
223.4590, 20470.20
224.6770, 18733.24
225.8950, 17381.79
227.1120, 16305.20
228.3300, 15514.50
229.5480, 15205.16
230.7650, 15151.87
231.9820, 15374.07
233.1990, 15742.86
234.4160, 16355.29
235.6330, 17264.05
236.8490, 18083.43
238.0660, 18567.43
239.2820, 19532.05
240.4980, 20333.25
241.7140, 21269.91
242.9300, 21324.70
244.1460, 21382.60
245.3610, 20972.64
246.5770, 20345.78
247.7920, 19358.11
249.0070, 18084.66
250.2220, 16832.43
251.4370, 15551.46
252.6510, 13953.75
253.8660, 12397.30
255.0800, 11164.13
256.2940, 9773.239
257.5080, 9175.632
258.7220, 8758.309
259.9360, 7592.275
261.1490, 7063.529
262.3630, 6665.074
263.5760, 6204.910
264.7890, 5756.033
266.0020, 5386.445
267.2150, 5251.148
268.4270, 5192.139
269.6400, 4671.416
270.8520, 4563.982
272.0640, 4282.830
273.2760, 3671.954
274.4880, 3430.349
275.7000, 2927.012
276.9120, 2592.941
278.1230, 1885.139
279.3340, 1732.601
280.5450, 1163.327
281.7560, 964.3154
282.9670, 686.5645
284.1780, 322.0713
285.3880, 259.8379
286.5980, 97.86133
287.8090, 99.86133
289.0190, 170.3301
290.2290, 429.5469
291.4380, 304.5146
292.6480, 361.2188
293.8570, 435.5264
295.0670, 165.2344
296.2760, 182.3848
297.4850, 63.83984
298.6930, 53.56055
299.9020, 16.47949
301.1110, 117.2070
302.3190, 180.3359
303.5270, 252.8906
304.7350, 609.8477
305.9430, 951.1201
307.1510, 1196.678
308.3580, 1525.474
309.5660, 1969.516
310.7730, 2210.712
311.9800, 2630.060
313.1870, 2959.558
314.3940, 3041.246
315.6010, 2893.987
316.8070, 2680.738
318.0130, 2392.863
319.2200, 2009.143
320.4260, 1613.766
321.6310, 1305.938
322.8370, 1111.523
324.0430, 745.7129
325.2480, 641.9844
326.4540, 670.9746
327.6590, 648.4277
328.8640, 862.3281
330.0680, 985.6055
331.2730, 1281.244
332.4780, 1268.227
333.6820, 1518.539
334.8860, 1710.168
336.0900, 1832.105
337.2940, 2241.340
338.4980, 2453.859
339.7010, 2633.660
340.9050, 2834.730
342.1080, 3358.066
343.3110, 3787.660
344.5140, 4292.502
345.7170, 4935.574
346.9200, 5498.869
348.1220, 6135.379
349.3240, 7029.104
350.5270, 7967.041
351.7290, 9238.184
352.9310, 10765.54
354.1320, 12138.09
355.3340, 13958.83
356.5350, 15907.78
357.7370, 18567.92
358.9380, 21369.25
360.1390, 23959.77
361.3400, 27234.47
362.5400, 30466.36
363.7410, 33333.44
364.9410, 36594.70
366.1410, 39388.12
367.3410, 41389.73
368.5410, 42459.50
369.7410, 42590.46
370.9400, 42009.57
372.1400, 40554.86
373.3390, 38119.29
374.5380, 35647.74
375.7370, 32351.21
376.9360, 29136.71
378.1350, 25705.34
379.3330, 22786.11
380.5310, 20336.04
381.7300, 17769.14
382.9280, 15965.39
384.1260, 14468.79
385.3230, 12984.35
386.5210, 11574.05
387.7180, 10646.90
388.9160, 9810.900
390.1130, 9597.047
391.3100, 8942.340
392.5060, 8411.783
393.7030, 7985.367
394.9000, 7763.102
396.0960, 7400.979
397.2920, 7508.996
398.4880, 7212.160
399.6840, 7195.463
400.8800, 7115.904
402.0750, 6906.486
403.2710, 6802.209
404.4660, 6674.066
405.6610, 6428.059
406.8560, 6295.186
408.0510, 5820.443
409.2450, 5251.836
410.4400, 4991.359
411.6340, 4506.012
412.8280, 4088.793
414.0220, 3419.703
415.2160, 2950.297
416.4100, 2669.951
417.6030, 2359.852
418.7970, 2051.457
419.9900, 1997.260
421.1830, 1796.090
422.3760, 1636.996
423.5690, 1247.658
424.7610, 1281.930
425.9540, 1033.162
427.1460, 1068.758
428.3380, 1077.676
429.5300, 994.4121
430.7220, 1113.869
431.9140, 1177.350
433.1050, 1038.607
434.2970, 1123.443
435.4880, 1113.797
436.6790, 1133.104
437.8700, 1070.361
439.0610, 1080.273
440.2510, 1017.045
441.4420, 996.0254
442.6320, 1021.367
443.8220, 934.3633
445.0120, 896.3066
446.2020, 824.2148
447.3910, 902.9824
448.5810, 664.7480
449.7700, 736.5801
450.9600, 657.4746
452.1490, 729.4316
453.3370, 731.4492
454.5260, 595.5273
455.7150, 845.6680
456.9030, 521.8672
458.0910, 703.1816
459.2800, 606.6152
460.4670, 659.1641
461.6550, 479.8301
462.8430, 811.6172
464.0300, 523.5156
465.2180, 699.5273
466.4050, 600.6621
467.5920, 679.9102
468.7790, 637.2656
469.9650, 825.7246
471.1520, 910.2891
472.3380, 904.9551
473.5250, 816.7168
474.7110, 914.5781
475.8970, 1359.537
477.0820, 1323.590
478.2680, 1307.736
479.4540, 1607.973
480.6390, 1565.303
481.8240, 1712.723
483.0090, 1740.230
484.1940, 2099.824
485.3780, 2240.504
486.5630, 2334.270
487.7470, 2512.119
488.9320, 2501.051
490.1160, 3081.064
491.3000, 3133.158
492.4830, 3495.332
493.6670, 3611.584
494.8500, 3873.914
496.0340, 4145.324
497.2170, 4406.805
498.4000, 4644.365
499.5820, 4843.889
500.7650, 4911.703
501.9480, 5145.482
503.1300, 5291.334
504.3120, 5316.254
505.4940, 5253.246
506.6760, 5415.305
507.8580, 5181.434
509.0390, 5009.629
510.2210, 4963.891
511.4020, 4595.221
512.5830, 4262.613
513.7640, 3723.070
514.9450, 3455.590
516.1250, 3179.176
517.3060, 2755.822
518.4860, 2462.531
519.6660, 2140.301
520.8460, 1913.135
522.0260, 1800.029
523.2060, 1537.982
524.3850, 1325.996
525.5650, 1398.070
526.7440, 1364.201
527.9230, 1360.391
529.1020, 1390.637
530.2810, 1427.936
531.4590, 1706.293
532.6380, 1647.703
533.8160, 1851.168
534.9940, 1868.686
536.1720, 1822.256
537.3500, 1963.877
538.5270, 1972.549
539.7050, 1839.271
540.8820, 1775.045
542.0590, 1662.865
543.2360, 1593.734
544.4130, 1707.652
545.5900, 1319.615
546.7660, 1316.625
547.9430, 986.6797
549.1190, 1031.781
550.2950, 709.9238
551.4710, 594.1113
552.6470, 473.3418
553.8220, 343.6133
554.9980, 222.3555
556.1730, 41.27930
557.3480, 54.34961
558.5230, 128.0078
559.6980, 313.7285
560.8730, 209.6016
562.0470, 187.5820
563.2220, 254.6562
564.3960, 365.8594
565.5700, 372.2500
566.7440, 367.8320
567.9170, 438.6035
569.0910, 440.6016
570.2640, 365.8281
571.4380, 443.2480
572.6110, 240.8984
573.7840, 155.6758
574.9570, 206.5332
576.1290, 331.4629
577.3020, 237.5410
578.4740, 395.7109
579.6460, 24.03320
580.8180, 169.3496
581.9900, 32.25391
583.1620, 44.11719
584.3330, 25.50391
585.5040, 87.08789
586.6760, 16.70703
587.8470, 15.67969
589.0180, 316.9180
590.1880, 349.5586
591.3590, 372.2715
592.5290, 490.0176
593.7000, 574.8633
594.8700, 650.5430
596.0400, 689.8359
597.2090, 835.9395
598.3790, 899.1562
599.5490, 1001.885
600.7180, 977.9180
601.8870, 1087.445
603.0560, 1114.061
604.2250, 1042.746
605.3940, 1277.510
606.5620, 1529.348
607.7300, 1573.271
608.8990, 1613.287
610.0670, 1739.338
611.2350, 1912.467
612.4020, 2011.332
613.5700, 2146.885
614.7370, 2279.162
615.9050, 2446.510
617.0720, 2549.881
618.2390, 2830.279
619.4060, 3048.699
620.5720, 3067.133
621.7390, 3528.592
622.9050, 3785.062
624.0710, 4084.549
625.2370, 4643.049
626.4030, 4775.562
627.5690, 5304.094
628.7340, 5266.639
629.9000, 5444.197
631.0650, 5671.762
632.2300, 5391.336
633.3950, 5399.922
634.5600, 5320.520
635.7240, 5263.125
636.8890, 5239.740
638.0530, 5121.359
639.2170, 5180.986
640.3810, 5164.619
641.5450, 5205.260
642.7080, 5555.904
643.8720, 5768.555
645.0350, 5930.207
646.1980, 6283.865
647.3610, 6758.525
648.5240, 7117.188
649.6870, 7368.855
650.8490, 7647.523
652.0120, 7984.195
653.1740, 8262.871
654.3360, 8658.543
655.4980, 8847.215
656.6600, 9211.891
657.8210, 9578.564
658.9830, 9693.238
660.1440, 9838.910
661.3050, 10440.58
662.4660, 11131.25
663.6270, 11364.92
664.7870, 11927.58
665.9480, 12295.25
667.1080, 12773.90
668.2680, 13102.56
669.4280, 13440.21
670.5880, 13500.85
671.7480, 13670.50
672.9070, 13655.13
674.0670, 13429.77
675.2260, 13365.39
676.3850, 12886.01
677.5440, 12612.62
678.7030, 12176.22
679.8610, 12003.82
681.0200, 11758.41
682.1780, 11371.99
683.3360, 10811.57
684.4940, 10958.13
685.6520, 10999.69
686.8090, 10767.23
687.9670, 11057.77
689.1240, 11467.30
690.2810, 11725.82
691.4380, 12308.32
692.5950, 12719.82
693.7520, 13212.30
694.9080, 14140.77
696.0650, 14661.68
697.2210, 15833.63
698.3770, 16304.45
699.5330, 17509.68
700.6880, 18171.81
701.8440, 18463.03
702.9990, 18938.28
704.1550, 19338.88
705.3100, 19137.98
706.4650, 19019.22
707.6190, 18414.20
708.7740, 17399.97
709.9290, 16356.02
711.0830, 15035.45
712.2370, 13406.65
713.3910, 12187.77
714.5450, 10492.94
715.6980, 9281.479
716.8520, 7951.543
718.0050, 6993.971
719.1580, 5948.164
720.3110, 5222.406
721.4640, 4295.039
722.6170, 3713.533
723.7700, 3439.625
724.9220, 3127.543
726.0740, 2624.014
727.2260, 2430.449
728.3780, 2262.021
729.5300, 2114.633
730.6810, 1971.795
731.8330, 1854.352
732.9840, 1785.465
734.1350, 1649.461
735.2860, 1679.734
736.4370, 1623.324
737.5880, 1626.531
738.7380, 1428.139
739.8880, 1518.574
741.0390, 1587.504
742.1890, 1645.051
743.3380, 1467.686
744.4880, 1742.586
745.6380, 1615.658
746.7870, 1877.633
747.9360, 1820.221
749.0850, 1933.891
750.2340, 2084.502
751.3830, 2328.264
752.5310, 2402.984
753.6800, 2577.090
754.8280, 2637.152
755.9760, 2760.686
757.1240, 2902.010
758.2720, 2808.898
759.4190, 2809.953
760.5670, 2692.314
761.7140, 2540.590
762.8610, 2680.729
764.0080, 2481.475
765.1550, 2418.123
766.3020, 2158.734
767.4480, 2020.797
768.5950, 1946.836
769.7410, 1822.555
770.8870, 1794.533
772.0330, 1699.580
773.1780, 1800.730
774.3240, 1736.670
775.4690, 1704.586
776.6140, 1845.592
777.7590, 1859.467
778.9040, 1869.318
780.0490, 1951.152
781.1940, 2054.961
782.3380, 2056.746
783.4820, 2194.514
784.6260, 2148.256
785.7700, 2141.979
786.9140, 2216.676
788.0580, 2333.355
789.2010, 2328.010
790.3450, 2593.643
791.4880, 2372.254
792.6310, 2478.842
793.7730, 2486.406
794.9160, 2696.951
796.0590, 2701.471
797.2010, 2528.967
798.3430, 2511.441
799.4850, 2445.893
800.6270, 2473.631
801.7690, 2847.727
802.9100, 2651.107
804.0520, 2778.465
805.1930, 2963.799
806.3340, 2847.109
807.4750, 2933.398
808.6160, 3182.664
809.7560, 3403.904
810.8970, 3668.123
812.0370, 4195.316
813.1770, 4247.488
814.3170, 4491.633
815.4570, 4523.758
816.5960, 4859.855
817.7360, 4906.930
818.8750, 4946.980
820.0140, 4769.008
821.1530, 5028.010
822.2920, 4777.988
823.4310, 4454.941
824.5690, 4467.871
825.7070, 4218.777
826.8460, 3923.656
827.9840, 3581.512
829.1220, 3243.344
830.2590, 3107.148
831.3970, 2839.930
832.5340, 2470.686
833.6710, 2504.432
834.8080, 2038.182
835.9450, 1974.959
837.0820, 1714.807
838.2190, 1551.701
839.3550, 1454.637
840.4910, 1332.629
841.6270, 1240.709
842.7630, 1081.875
843.8990, 865.1250
845.0350, 815.4844
846.1700, 545.9453
847.3060, 454.4941
848.4410, 243.1504
849.5760, 278.8594
850.7100, 174.6094
851.8450, 88.40625
852.9800, 24.27344
854.1140, 3.173828
855.2480, 35.85742
856.3820, 14.06445
857.5160, 57.99609
858.6500, 41.13086
859.7830, 2.308594
860.9170, 12.51758
862.0500, 19.21484
863.1830, 14.08008
864.3160, 1.583984
865.4480, 93.81250
866.5810, 55.67383
867.7130, 209.8809
868.8460, 261.6133
869.9780, 39.55078
871.1100, 180.5723
872.2410, 264.7559
873.3730, 290.1445
874.5050, 168.7539
875.6360, 229.5176
876.7670, 173.4727
877.8980, 119.5840
879.0290, 136.8281
880.1590, 125.2090
881.2900, 191.7246
882.4200, 190.4102
883.5500, 6.736328
884.6800, 154.1797
885.8100, 5.755859
886.9400, 156.2988
888.0690, 28.50000
889.1990, 98.78711
890.3280, 65.80664
891.4570, 38.35547
892.5860, 116.8535
893.7140, 153.7207
894.8430, 61.73242
895.9710, 213.1484
897.1000, 221.5312
898.2280, 290.8828
899.3560, 161.2070
900.4830, 80.50977
901.6110, 172.7656
902.7380, 309.0098
903.8660, 408.2266
904.9930, 309.4160
906.1200, 156.5742
907.2460, 229.7051
908.3730, 214.8047
909.5000, 355.8789
910.6260, 311.9238
911.7520, 224.9590
912.8780, 355.9766
914.0040, 524.9688
915.1290, 423.9316
916.2550, 424.8672
917.3800, 509.7754
918.5050, 355.6777
919.6300, 488.5566
920.7550, 502.4102
921.8800, 379.2715
923.0040, 602.1074
924.1290, 536.9277
925.2530, 629.7559
926.3770, 741.5566
927.5010, 510.3438
928.6250, 591.1367
929.7480, 651.9004
930.8720, 669.6367
931.9950, 732.3379
933.1180, 872.0273
934.2410, 842.6836
935.3640, 930.3125
936.4860, 1052.912
937.6090, 969.5273
938.7310, 1164.119
939.8530, 1036.709
940.9750, 1218.283
942.0970, 1061.830
943.2180, 1220.410
944.3400, 1456.963
945.4610, 1533.492
946.5820, 1669.996
947.7030, 1496.473
948.8240, 1875.924
949.9450, 2001.348
951.0650, 1808.750
952.1860, 1927.131
953.3060, 1955.482
954.4260, 2245.809
955.5460, 2495.105
956.6650, 2401.381
957.7850, 2537.627
958.9040, 2683.852
960.0230, 2831.047
961.1420, 2688.221
962.2610, 3001.367
963.3800, 2931.488
964.4990, 3105.586
965.6170, 3164.658
966.7350, 3434.707
967.8530, 3218.727
968.9710, 3258.725
970.0890, 3380.699
971.2070, 3291.643
972.3240, 3338.564
973.4410, 3387.459
974.5580, 3401.328
975.6750, 3451.172
976.7920, 3268.986
977.9090, 3185.777
979.0250, 3222.539
980.1410, 3093.273
981.2580, 3133.980
982.3740, 3108.656
983.4890, 3101.303
984.6050, 3050.922
985.7200, 3188.426
986.8360, 2946.139
987.9510, 2933.740
989.0660, 3027.635
990.1810, 2868.008
991.2950, 2829.182
992.4100, 2911.006
993.5240, 2936.811
994.6390, 2960.971
995.7530, 3124.414
996.8660, 3216.383
997.9800, 3130.572
999.0940, 3483.668
1000.207, 3499.697
1001.320, 3521.152
1002.433, 3714.752
1003.546, 3735.125
1004.659, 3860.074
1005.772, 3942.441
1006.884, 4074.350
1007.996, 4183.611
1009.108, 4313.451
1010.220, 4343.436
1011.332, 4648.906
1012.444, 4759.727
1013.555, 5014.439
1014.666, 5353.861
1015.777, 5547.086
1016.888, 5817.377
1017.999, 5797.135
1019.110, 6064.684
1020.220, 6322.721
1021.331, 6642.125
1022.441, 6733.545
1023.551, 6709.551
1024.661, 6904.574
1025.770, 7079.100
1026.880, 7103.809
1027.989, 7350.107
1029.098, 7377.791
1030.207, 7719.381
1031.316, 7769.025
1032.425, 7806.785
1033.533, 7708.932
1034.642, 7795.123
1035.750, 8114.277
1036.858, 8368.424
1037.966, 8342.139
1039.073, 8493.848
1040.181, 8527.021
1041.288, 8663.645
1042.396, 8816.766
1043.503, 8937.441
1044.610, 8989.531
1045.716, 9172.867
1046.823, 9227.277
1047.929, 9233.926
1049.036, 9250.562
1050.142, 9089.191
1051.248, 9202.098
1052.353, 9083.289
1053.459, 9175.332
1054.564, 9283.467
1055.670, 9125.963
1056.775, 8906.617
1057.880, 9016.484
1058.985, 8805.055
1060.089, 8800.383
1061.194, 8663.289
1062.298, 8536.834
1063.402, 8515.369
1064.506, 8246.902
1065.610, 7974.426
1066.713, 8097.938
1067.817, 7703.443
1068.920, 7604.943
1070.023, 7234.078
1071.126, 7085.562
1072.229, 6900.307
1073.332, 6787.910
1074.435, 6571.539
1075.537, 6275.453
1076.639, 6153.900
1077.741, 5831.453
1078.843, 5561.898
1079.945, 5543.328
1081.046, 5322.750
1082.148, 4971.162
1083.249, 4939.609
1084.350, 4716.010
1085.451, 4482.402
1086.551, 4293.787
1087.652, 4097.885
1088.752, 3948.535
1089.853, 3737.896
1090.953, 3580.254
1092.053, 3392.605
1093.152, 3270.951
1094.252, 2908.289
1095.351, 2925.617
1096.451, 2975.945
1097.550, 2716.264
1098.649, 2818.580
1099.748, 2703.887
1100.846, 2652.193
1101.945, 2692.490
1103.043, 2445.781
1104.141, 2316.070
1105.239, 2362.352
1106.337, 2387.629
1107.434, 2609.902
1108.532, 2414.170
1109.629, 2501.434
1110.726, 2372.693
1111.823, 2232.949
1112.920, 2315.203
1114.017, 2286.449
1115.113, 2397.693
1116.210, 2465.934
1117.306, 2189.172
1118.402, 2328.406
1119.498, 2127.643
1120.593, 2186.885
1121.689, 2219.141
1122.784, 2249.420
1123.879, 1976.711
1124.974, 1852.029
1126.069, 1568.375
1127.164, 1466.734
1128.259, 1497.113
1129.353, 1237.502
1130.447, 1047.914
1131.541, 1058.338
1132.635, 919.8047
1133.729, 740.2812
1134.822, 581.8262
1135.916, 490.5312
1137.009, 463.1211
1138.102, 375.8496
1139.195, 282.6621
1140.288, 347.5723
1141.380, 264.5449
1142.473, 263.5957
1143.565, 132.7129
1144.657, 303.8867
1145.749, 251.1152
1146.841, 216.3945
1147.932, 294.7441
1149.024, 0.8359380
1150.115, 83.59961
1151.206, 286.9043
1152.297, 209.4570
1153.388, 150.8809
1154.479, 18.33203
1155.569, 197.8281
1156.659, 92.33398
1157.750, 74.85156
1158.839, 1.625000
1159.929, 145.1016
1161.019, 101.3555
1162.108, 80.81250
1163.198, 65.27344
1164.287, 52.26562
1165.376, 64.17188
1166.465, 66.38477
1167.553, 4.972656
1168.642, 65.43359
1169.730, 60.83984
1170.818, 19.75195
1171.906, 109.6465
1172.994, 7.947266
1174.082, 15.44922
1175.170, 71.15234
1176.257, 28.79102
1177.344, 9.447266
1178.431, 14.88867
1179.518, 31.23047
1180.605, 76.57227
1181.691, 83.08398
1182.778, 3.783203
1183.864, 0.4902340
1184.950, 118.2012
1186.036, 9.978516
1187.122, 30.76367
1188.207, 129.5664
1189.292, 166.5586
1190.378, 41.31445
1191.463, 114.2090
1192.548, 123.8301
1193.632, 29.87500
1194.717, 132.9199
1195.801, 20.96875
1196.886, 183.0215
1197.970, 80.07422
1199.054, 45.13086
1200.137, 149.8105
1201.221, 47.16992
1202.305, 95.84961
1203.388, 29.92188
1204.471, 79.99023
1205.554, 213.0977
1206.637, 21.70312
1207.719, 14.51758
1208.802, 20.32227
1209.884, 143.1250
1210.966, 276.9336
1212.048, 100.7461
1213.130, 7.435547
1214.212, 87.37305
1215.293, 131.1855
1216.374, 248.0020
1217.456, 197.8223
1218.536, 276.6875
1219.617, 357.4766
1220.698, 286.3086
1221.778, 302.1465
1222.859, 169.1816
1223.939, 455.0273
1225.019, 560.8867
1226.099, 457.7539
1227.178, 486.6250
1228.258, 208.5059
1229.337, 235.3887
1230.417, 372.2793
1231.496, 376.1758
1232.574, 554.0781
1233.653, 455.9844
1234.732, 474.9102
1235.810, 616.8418
1236.888, 437.7773
1237.966, 454.7207
1239.044, 442.6680
1240.122, 447.6191
1241.199, 433.1309
1242.277, 349.5410
1243.354, 400.5117
1244.431, 398.4844
1245.508, 391.4668
1246.585, 520.4531
1247.661, 373.4453
1248.738, 498.4434
1249.814, 349.4473
1250.890, 393.4570
1251.966, 359.4727
1253.042, 516.4941
1254.117, 382.5215
1255.193, 528.5547
1256.268, 415.6719
1257.343, 338.7188
1258.418, 341.7656
1259.493, 463.8223
1260.567, 326.8828
1261.642, 516.9512
1262.716, 467.0234
1263.790, 320.1016
1264.864, 529.1855
1265.938, 368.2734
1267.011, 549.3652
1268.085, 610.4629
1269.158, 466.5645
1270.231, 427.6699
1271.304, 203.7793
1272.377, 285.8906
1273.450, 518.2383
1274.522, 345.3574
1275.594, 433.4785
1276.666, 441.6016
1277.738, 431.7266
1278.810, 393.7559
1279.882, 349.8867
1280.953, 495.5605
1282.025, 333.6914
1283.096, 515.8281
1284.167, 213.9648
1285.238, 224.1016
1286.308, 266.2441
1287.379, 207.3887
1288.449, 213.3516
1289.519, 165.7441
1290.589, 225.8984
1291.659, 104.0547
1292.729, 262.2129
1293.798, 393.3477
1294.868, 226.5117
1295.937, 239.7227
1297.006, 209.4727
1298.075, 246.6484
1299.143, 59.82812
1300.212, 160.8594
1301.280, 147.0449
1302.348, 212.6094
1303.416, 255.8047
1304.484, 319.7676
1305.552, 201.1895
1306.620, 394.6348
1307.687, 201.3301
1308.754, 204.5488
1309.821, 336.7754
1310.888, 275.7266
1311.955, 368.3867
1313.021, 473.1934
1314.088, 343.9102
1315.154, 293.2676
1316.220, 343.4590
1317.286, 350.4453
1318.352, 329.7246
1319.417, 400.2422
1320.483, 192.1875
1321.548, 474.4902
1322.613, 260.8086
1323.678, 255.1309
1324.743, 436.4590
1325.807, 416.7930
1326.872, 257.1328
1327.936, 295.4766
1329.000, 355.1816
1330.064, 282.5312
1331.128, 87.62109
1332.191, 54.84961
1333.255, 248.2227
1334.318, 257.9688
1335.381, 63.64062
1336.444, 201.6387
