##NAMES=Dravite
##RRUFFID=R050077
##IDEAL CHEMISTRY=NaMg_3_Al_6_(Si_6_O_18_)(BO_3_)_3_(OH)_3_OH
##LOCALITY=Yinnietharra Station, Western Australia, Australia
##OWNER=RRUFF
##SOURCE=Rock Currier
##DESCRIPTION=Dark brown euhedral prismatic single crystal
##STATUS=The identification of this mineral has been confirmed by X-ray diffraction and chemical analysis
##URL=rruff.info/R050077
##MEASURED CHEMISTRY=(Na_0.783_Ca_0.217_)(Mg_0.771_Fe^2+^_0.221_Ti^4+^_0.008_)_3_(Al_0.956_Mg_0.044_)_6_(BO_3_)_3_[Si_6_O_18_]((OH)_0.914_F_0.086_)_4_
##PIN_ID=L00540
##ORIENTATION=Laser parallel to -a* (-1 0 0). Fiducial mark perpendicular to laser is parallel to c [0 0 1]
118.1340, 0.0000000E+00
119.3650, 30.99219
120.5960, 80.68750
121.8270, 419.5430
123.0580, 76.91016
124.2880, 1613.762
125.5190, 388.6094
126.7490, 276.4180
127.9790, 727.7969
129.2090, 1625.586
130.4390, 2155.898
131.6680, 3502.676
132.8980, 3166.297
134.1270, 3216.090
135.3560, 3875.867
136.5850, 4729.156
137.8140, 5753.949
139.0430, 6306.008
140.2710, 6852.328
141.5000, 7488.910
142.7280, 7547.402
143.9560, 7871.375
145.1840, 8113.727
146.4120, 8703.754
147.6390, 9345.168
148.8670, 9164.980
150.0940, 9425.469
151.3210, 10428.33
152.5490, 10118.82
153.7750, 9464.406
155.0020, 9343.930
156.2290, 10650.40
157.4550, 7910.070
158.6810, 9583.156
159.9080, 8610.207
161.1340, 7725.949
162.3590, 7951.504
163.5850, 8375.133
164.8110, 8671.902
166.0360, 8325.418
167.2610, 8201.398
168.4860, 8305.250
169.7110, 9011.320
170.9360, 9042.371
172.1610, 8658.688
173.3850, 8704.711
174.6100, 8393.809
175.8340, 8255.340
177.0580, 8345.617
178.2820, 8565.922
179.5050, 8597.496
180.7290, 8714.574
181.9520, 8481.496
183.1760, 8292.078
184.3990, 8975.562
185.6220, 8664.883
186.8450, 9234.008
188.0670, 9109.906
189.2900, 9112.723
190.5120, 9098.441
191.7340, 9382.660
192.9560, 9742.172
194.1780, 9904.367
195.4000, 10229.76
196.6220, 11031.27
197.8430, 11277.00
199.0640, 12067.45
200.2860, 12925.54
201.5070, 14236.25
202.7270, 14784.40
203.9480, 14673.92
205.1690, 14183.93
206.3890, 14294.98
207.6090, 14409.32
208.8290, 15153.97
210.0490, 15303.59
211.2690, 15426.32
212.4890, 15301.27
213.7080, 14855.50
214.9280, 14150.79
216.1470, 13206.70
217.3660, 12347.30
218.5850, 11840.49
219.8030, 11074.74
221.0220, 10784.60
222.2400, 9790.725
223.4590, 9336.455
224.6770, 8496.020
225.8950, 8524.398
227.1120, 8028.557
228.3300, 7755.473
229.5480, 7482.119
230.7650, 7233.477
231.9820, 6850.510
233.1990, 6785.184
234.4160, 6694.449
235.6330, 7044.250
236.8490, 6546.535
238.0660, 6583.246
239.2820, 6066.346
240.4980, 5725.828
241.7140, 5219.699
242.9300, 4721.961
244.1460, 3888.635
245.3610, 3392.717
246.5770, 2879.223
247.7920, 2276.168
249.0070, 1765.219
250.2220, 2035.225
251.4370, 2141.254
252.6510, 2092.199
253.8660, 1424.652
255.0800, 1554.561
256.2940, 1364.156
257.5080, 1160.033
258.7220, 1400.486
259.9360, 820.0254
261.1490, 1052.262
262.3630, 959.1211
263.5760, 1013.998
264.7890, 793.9980
266.0020, 665.2051
267.2150, 865.3848
268.4270, 888.6992
269.6400, 632.7207
270.8520, 745.5684
272.0640, 200.8926
273.2760, 233.5996
274.4880, 515.3477
275.7000, 276.4824
276.9120, 395.3105
278.1230, 377.6504
279.3340, 259.8418
280.5450, 179.4473
281.7560, 152.3398
282.9670, 353.6758
284.1780, 299.4668
285.3880, 328.0938
286.5980, 467.4727
287.8090, 501.2441
289.0190, 647.7734
290.2290, 633.8145
291.4380, 912.8242
292.6480, 1051.891
293.8570, 1020.059
295.0670, 878.3242
296.2760, 1232.654
297.4850, 980.1406
298.6930, 991.7246
299.9020, 800.4121
301.1110, 458.1621
302.3190, 763.8887
303.5270, 742.6855
304.7350, 661.5625
305.9430, 214.5234
307.1510, 282.4922
308.3580, 1.541016
309.5660, 2.652344
310.7730, 278.1367
311.9800, 544.8750
313.1870, 813.6113
314.3940, 1062.402
315.6010, 926.2910
316.8070, 1234.299
318.0130, 1545.467
319.2200, 1758.838
320.4260, 2140.438
321.6310, 2305.297
322.8370, 2540.447
324.0430, 3144.906
325.2480, 3381.711
326.4540, 3780.885
327.6590, 4034.430
328.8640, 4511.301
330.0680, 4893.465
331.2730, 5165.955
332.4780, 5445.734
333.6820, 5873.791
334.8860, 6063.113
336.0900, 6161.723
337.2940, 6677.619
338.4980, 6495.787
339.7010, 6810.227
340.9050, 6930.828
342.1080, 6722.574
343.3110, 7266.461
344.5140, 7102.268
345.7170, 7591.133
346.9200, 7600.633
348.1220, 7698.725
349.3240, 8087.279
350.5270, 8363.160
351.7290, 8911.166
352.9310, 8975.332
354.1320, 9513.777
355.3340, 9883.865
356.5350, 10380.52
357.7370, 10835.04
358.9380, 11883.72
360.1390, 12726.79
361.3400, 13485.48
362.5400, 14711.89
363.7410, 15592.04
364.9410, 16571.97
366.1410, 16752.69
367.3410, 16915.22
368.5410, 16845.58
369.7410, 16170.76
370.9400, 15735.78
372.1400, 15053.00
373.3390, 14794.30
374.5380, 13527.81
375.7370, 12855.16
376.9360, 12249.34
378.1350, 11820.36
379.3330, 11603.23
380.5310, 10899.94
381.7300, 10775.50
382.9280, 10205.91
384.1260, 9813.182
385.3230, 9568.457
386.5210, 9357.295
387.7180, 8946.152
388.9160, 8899.881
390.1130, 8502.539
391.3100, 8544.000
392.5060, 7976.896
393.7030, 7530.268
394.9000, 7192.078
396.0960, 7033.305
397.2920, 6743.301
398.4880, 6567.023
399.6840, 7043.898
400.8800, 7345.242
402.0750, 6122.957
403.2710, 6632.760
404.4660, 7020.379
405.6610, 5486.248
406.8560, 5232.115
408.0510, 5057.842
409.2450, 5078.463
410.4400, 4710.771
411.6340, 4636.230
412.8280, 4482.062
414.0220, 4275.004
415.2160, 4270.549
416.4100, 4023.475
417.6030, 4096.387
418.7970, 3744.201
419.9900, 3644.893
421.1830, 3544.889
422.3760, 3291.389
423.5690, 3185.785
424.7610, 2988.891
425.9540, 2614.311
427.1460, 2510.555
428.3380, 2572.801
429.5300, 2168.854
430.7220, 2122.635
431.9140, 1750.215
433.1050, 1663.104
434.2970, 1809.537
435.4880, 1386.148
436.6790, 1027.742
437.8700, 971.0703
439.0610, 990.0547
440.2510, 1219.584
441.4420, 715.7695
442.6320, 914.0664
443.8220, 1037.229
445.0120, 807.7520
446.2020, 952.9883
447.3910, 1072.480
448.5810, 930.0137
449.7700, 1362.570
450.9600, 1772.852
452.1490, 1891.777
453.3370, 2631.664
454.5260, 3113.211
455.7150, 4406.953
456.9030, 5843.229
458.0910, 7571.494
459.2800, 9310.307
460.4670, 10323.09
461.6550, 10266.47
462.8430, 9263.770
464.0300, 7968.689
465.2180, 6504.332
466.4050, 5328.996
467.5920, 4580.234
468.7790, 3833.357
469.9650, 3312.486
471.1520, 2775.629
472.3380, 2882.779
473.5250, 2578.953
474.7110, 2304.148
475.8970, 2501.369
477.0820, 2154.625
478.2680, 2192.912
479.4540, 2064.242
480.6390, 2028.615
481.8240, 1855.037
483.0090, 2204.512
484.1940, 1873.043
485.3780, 2341.637
486.5630, 2871.297
487.7470, 2387.031
488.9320, 2209.848
490.1160, 2137.746
491.3000, 2149.738
492.4830, 2033.834
493.6670, 1977.496
494.8500, 1946.496
496.0340, 1951.531
497.2170, 1752.891
498.4000, 1764.805
499.5820, 1697.645
500.7650, 1659.156
501.9480, 1589.391
503.1300, 1507.002
504.3120, 1368.875
505.4940, 1051.996
506.6760, 1041.061
507.8580, 729.5918
509.0390, 541.8125
510.2210, 679.1719
511.4020, 581.7031
512.5830, 431.4141
513.7640, 485.2969
514.9450, 421.3633
516.1250, 618.6094
517.3060, 651.2891
518.4860, 780.6523
519.6660, 825.4531
520.8460, 1144.441
522.0260, 1184.621
523.2060, 1597.990
524.3850, 1574.553
525.5650, 1921.311
526.7440, 1943.264
527.9230, 2171.416
529.1020, 2409.766
530.2810, 2371.318
531.4590, 2612.109
532.6380, 2707.031
533.8160, 2814.209
534.9940, 2806.619
536.1720, 2719.273
537.3500, 2770.160
538.5270, 2729.191
539.7050, 2815.641
540.8820, 2705.258
542.0590, 2781.127
543.2360, 2770.258
544.4130, 2681.656
545.5900, 2751.314
546.7660, 2746.260
547.9430, 2554.480
549.1190, 2319.982
550.2950, 2932.758
551.4710, 2761.826
552.6470, 3293.199
553.8220, 2702.859
554.9980, 2801.809
556.1730, 2785.074
557.3480, 2232.641
558.5230, 2103.582
559.6980, 2002.898
560.8730, 1806.559
562.0470, 1966.594
563.2220, 1558.031
564.3960, 1769.914
565.5700, 1425.383
566.7440, 1738.352
567.9170, 1544.918
569.0910, 1446.270
570.2640, 1397.344
571.4380, 1184.156
572.6110, 1301.738
573.7840, 1199.559
574.9570, 1335.496
576.1290, 1150.680
577.3020, 1293.816
578.4740, 1265.930
579.6460, 1343.016
580.8180, 1323.043
581.9900, 1276.137
583.1620, 1008.133
584.3330, 1093.984
585.5040, 1055.629
586.6760, 944.1328
587.8470, 1065.512
589.0180, 1053.797
590.1880, 1049.988
591.3590, 898.8828
592.5290, 952.4629
593.7000, 873.6719
594.8700, 756.4766
596.0400, 806.8105
597.2090, 1030.605
598.3790, 901.8848
599.5490, 956.6328
600.7180, 1012.373
601.8870, 920.7129
603.0560, 947.4355
604.2250, 836.7676
605.3940, 527.4434
606.5620, 492.4609
607.7300, 626.7930
608.8990, 656.4297
610.0670, 889.3594
611.2350, 1012.580
612.4020, 1054.090
613.5700, 1092.891
614.7370, 969.9727
615.9050, 1509.334
617.0720, 1478.967
618.2390, 1377.881
619.4060, 1871.064
620.5720, 1646.521
621.7390, 1734.246
622.9050, 2116.234
624.0710, 2085.490
625.2370, 1871.008
626.4030, 1925.787
627.5690, 1912.830
628.7340, 1450.133
629.9000, 1077.695
631.0650, 1047.520
632.2300, 644.5996
633.3950, 141.9395
634.5600, 30.17578
635.7240, 242.1719
636.8890, 608.5566
638.0530, 461.3516
639.2170, 648.9707
640.3810, 867.4629
641.5450, 724.8789
642.7080, 641.1895
643.8720, 619.3730
645.0350, 506.4238
646.1980, 375.0547
647.3610, 187.0410
648.5240, 30.45703
649.6870, 452.1934
650.8490, 867.1699
652.0120, 1137.383
653.1740, 1850.832
654.3360, 2316.518
655.4980, 2893.436
656.6600, 3128.586
657.8210, 3413.969
658.9830, 3791.580
660.1440, 3967.420
661.3050, 4157.482
662.4660, 4295.770
663.6270, 4254.285
664.7870, 4235.020
665.9480, 4131.064
667.1080, 3972.148
668.2680, 3671.537
669.4280, 3616.141
670.5880, 3111.961
671.7480, 3000.992
672.9070, 2924.234
674.0670, 2682.855
675.2260, 2658.012
676.3850, 2522.203
677.5440, 2547.268
678.7030, 2623.535
679.8610, 2633.422
681.0200, 3049.666
682.1780, 2897.525
683.3360, 3447.578
684.4940, 3444.824
685.6520, 3770.262
686.8090, 4596.885
687.9670, 4910.693
689.1240, 5108.688
690.2810, 5939.861
691.4380, 6565.219
692.5950, 7200.748
693.7520, 7965.453
694.9080, 8619.334
696.0650, 9745.387
697.2210, 10474.61
698.3770, 11280.55
699.5330, 11823.53
700.6880, 12173.55
701.8440, 12485.36
702.9990, 12574.23
704.1550, 12507.66
705.3100, 12555.26
706.4650, 12663.07
707.6190, 12857.82
708.7740, 12942.33
709.9290, 13452.66
711.0830, 13697.14
712.2370, 14224.05
713.3910, 14912.78
714.5450, 15526.90
715.6980, 16376.55
716.8520, 16732.44
718.0050, 17523.12
719.1580, 18217.14
720.3110, 18636.53
721.4640, 19516.36
722.6170, 20012.90
723.7700, 20553.88
724.9220, 20701.08
726.0740, 21160.47
727.2260, 21579.13
728.3780, 21992.89
729.5300, 22374.86
730.6810, 23365.64
731.8330, 23873.29
732.9840, 24882.23
734.1350, 25496.13
735.2860, 25945.26
736.4370, 26879.84
737.5880, 27745.80
738.7380, 28478.52
739.8880, 29470.45
741.0390, 30243.16
742.1890, 31041.47
743.3380, 31712.38
744.4880, 32531.12
745.6380, 33464.31
746.7870, 33889.66
747.9360, 34673.43
749.0850, 35184.90
750.2340, 35780.74
751.3830, 36009.83
752.5310, 36499.56
753.6800, 36337.04
754.8280, 36638.79
755.9760, 36567.80
757.1240, 36537.61
758.2720, 35796.82
759.4190, 35424.36
760.5670, 35423.02
761.7140, 35111.58
762.8610, 34863.07
764.0080, 34607.46
765.1550, 34596.77
766.3020, 34616.97
767.4480, 34118.09
768.5950, 34266.11
769.7410, 34013.02
770.8870, 33270.84
772.0330, 33382.54
773.1780, 32924.74
774.3240, 32358.91
775.4690, 32359.53
776.6140, 32115.67
777.7590, 31852.80
778.9040, 31909.36
780.0490, 31828.93
781.1940, 31461.79
782.3380, 31444.12
783.4820, 30704.25
784.6260, 30311.49
785.7700, 29631.30
786.9140, 28775.47
788.0580, 27660.55
789.2010, 26612.46
790.3450, 25355.32
791.4880, 24009.02
792.6310, 22773.57
793.7730, 21153.99
794.9160, 20040.28
796.0590, 18568.42
797.2010, 17562.42
798.3430, 16178.28
799.4850, 15575.99
800.6270, 15222.56
801.7690, 14458.98
802.9100, 14271.26
804.0520, 14289.38
805.1930, 14214.34
806.3340, 14088.15
807.4750, 13987.80
808.6160, 13853.30
809.7560, 13671.64
810.8970, 13152.81
812.0370, 12975.82
813.1770, 12149.69
814.3170, 11671.35
815.4570, 10417.86
816.5960, 9678.203
817.7360, 8757.379
818.8750, 7930.381
820.0140, 7169.207
821.1530, 6448.859
822.2920, 5679.332
823.4310, 5108.625
824.5690, 4502.738
825.7070, 4074.668
826.8460, 3609.412
827.9840, 3055.971
829.1220, 2669.340
830.2590, 2359.523
831.3970, 2094.516
832.5340, 1602.312
833.6710, 1309.916
834.8080, 1000.324
835.9450, 823.5293
837.0820, 663.5195
838.2190, 223.2910
839.3550, 29.76758
840.4910, 82.85938
841.6270, 3.587891
842.7630, 352.0918
843.8990, 538.3691
845.0350, 327.3496
846.1700, 373.9258
847.3060, 321.1250
848.4410, 623.9258
849.5760, 534.4883
850.7100, 470.7715
851.8450, 552.7422
852.9800, 455.4512
854.1140, 478.8477
855.2480, 510.9473
856.3820, 592.0469
857.5160, 228.3281
858.6500, 28.62891
859.7830, 15.95508
860.9170, 557.8105
862.0500, 334.4531
863.1830, 431.4902
864.3160, 542.3340
865.4480, 208.7617
866.5810, 60.35547
867.7130, 136.4062
868.8460, 3.998047
869.9780, 5.853516
871.1100, 110.3770
872.2410, 66.59375
873.3730, 72.07812
874.5050, 51.72266
875.6360, 239.4082
876.7670, 364.5176
877.8980, 345.2891
879.0290, 428.7129
880.1590, 400.8125
881.2900, 647.5742
882.4200, 584.0566
883.5500, 744.2461
884.6800, 769.1621
885.8100, 737.8125
886.9400, 716.1895
888.0690, 1035.293
889.1990, 1081.146
890.3280, 1244.750
891.4570, 1164.109
892.5860, 1437.223
893.7140, 1328.100
894.8430, 1467.734
895.9710, 1708.139
897.1000, 1760.312
898.2280, 1839.262
899.3560, 1898.982
900.4830, 2035.479
901.6110, 2085.748
902.7380, 2447.789
903.8660, 2728.607
904.9930, 2290.199
906.1200, 2632.566
907.2460, 2609.711
908.3730, 2877.629
909.5000, 2839.330
910.6260, 3195.822
911.7520, 2957.148
912.8780, 3274.293
914.0040, 3170.275
915.1290, 3345.123
916.2550, 3620.822
917.3800, 3470.361
918.5050, 3739.736
919.6300, 3620.941
920.7550, 3805.953
921.8800, 3774.760
923.0040, 3765.350
924.1290, 3834.725
925.2530, 3825.055
926.3770, 4038.922
927.5010, 3933.729
928.6250, 4138.336
929.7480, 4325.742
930.8720, 4239.957
931.9950, 4292.986
933.1180, 4438.820
934.2410, 4592.457
935.3640, 4899.904
936.4860, 4678.223
937.6090, 5058.395
938.7310, 4997.410
939.8530, 5304.248
940.9750, 5184.957
942.0970, 5352.527
943.2180, 5608.963
944.3400, 5848.242
945.4610, 5989.383
946.5820, 5941.336
947.7030, 6282.131
948.8240, 6346.770
949.9450, 6471.248
951.0650, 6778.574
952.1860, 6750.736
953.3060, 6725.725
954.4260, 6975.516
955.5460, 7138.107
956.6650, 7366.504
957.7850, 7321.699
958.9040, 7404.703
960.0230, 7431.510
961.1420, 7767.123
962.2610, 7868.543
963.3800, 8007.770
964.4990, 8331.805
965.6170, 8121.648
966.7350, 8601.303
967.8530, 8341.770
968.9710, 8525.047
970.0890, 8443.580
971.2070, 8683.105
972.3240, 8432.691
973.4410, 8583.059
974.5580, 8652.566
975.6750, 8875.492
976.7920, 8665.199
977.9090, 8976.021
979.0250, 8792.598
980.1410, 8792.887
981.2580, 8890.738
982.3740, 8719.400
983.4890, 8710.574
984.6050, 8381.896
985.7200, 8240.771
986.8360, 8283.078
987.9510, 8218.088
989.0660, 8287.238
990.1810, 8175.152
991.2950, 8075.328
992.4100, 7976.152
993.5240, 7712.197
994.6390, 7620.732
995.7530, 7515.961
996.8660, 7390.936
997.9800, 7021.557
999.0940, 7251.980
1000.207, 6941.123
1001.320, 6843.371
1002.433, 7192.652
1003.546, 6879.561
1004.659, 6600.412
1005.772, 6542.922
1006.884, 6630.908
1007.996, 6702.408
1009.108, 6446.049
1010.220, 6412.387
1011.332, 6705.830
1012.444, 6522.570
1013.555, 6584.617
1014.666, 6559.725
1015.777, 6608.275
1016.888, 6690.760
1017.999, 6875.305
1019.110, 6839.264
1020.220, 6801.734
1021.331, 6776.844
1022.441, 6993.191
1023.551, 7533.678
1024.661, 7129.791
1025.770, 7169.518
1026.880, 7555.336
1027.989, 7409.650
1029.098, 7662.502
1030.207, 7894.119
1031.316, 7857.703
1032.425, 7769.256
1033.533, 7940.775
1034.642, 8301.264
1035.750, 8265.723
1036.858, 8550.154
1037.966, 8595.559
1039.073, 8852.938
1040.181, 9090.293
1041.288, 9063.625
1042.396, 9702.938
1043.503, 9435.227
1044.610, 9660.496
1045.716, 9513.750
1046.823, 9678.984
1047.929, 9778.203
1049.036, 9706.410
1050.142, 9843.602
1051.248, 9930.779
1052.353, 10112.95
1053.459, 9635.098
1054.564, 9973.242
1055.670, 9774.395
1056.775, 9684.523
1057.880, 9961.605
1058.985, 9531.590
1060.089, 9805.520
1061.194, 9794.445
1062.298, 9759.508
1063.402, 10057.04
1064.506, 9704.488
1065.610, 9863.348
1066.713, 9807.766
1067.817, 9687.301
1068.920, 9365.992
1070.023, 9388.258
1071.126, 9253.316
1072.229, 9109.275
1073.332, 9000.617
1074.435, 8480.516
1075.537, 8196.258
1076.639, 7954.137
1077.741, 7455.867
1078.843, 7599.299
1079.945, 7166.277
1081.046, 6930.264
1082.148, 6713.885
1083.249, 6539.914
1084.350, 6504.047
1085.451, 6114.672
1086.551, 6116.943
1087.652, 5605.129
1088.752, 5760.322
1089.853, 5832.529
1090.953, 5487.746
1092.053, 5314.977
1093.152, 5034.227
1094.252, 5212.488
1095.351, 5356.766
1096.451, 5065.064
1097.550, 5098.381
1098.649, 5070.719
1099.748, 4981.076
1100.846, 4892.457
1101.945, 4840.861
1103.043, 4771.293
1104.141, 4702.754
1105.239, 4477.256
1106.337, 4459.828
1107.434, 4166.520
1108.532, 4223.318
1109.629, 4085.250
1110.726, 3696.408
1111.823, 3705.844
1112.920, 3622.508
1114.017, 3461.410
1115.113, 3430.539
1116.210, 3439.980
1117.306, 3375.711
1118.402, 3373.713
1119.498, 3005.016
1120.593, 2578.590
1121.689, 3328.447
1122.784, 2850.594
1123.879, 2646.057
1124.974, 2878.740
1126.069, 2364.592
1127.164, 2249.605
1128.259, 1980.928
1129.353, 1917.506
1130.447, 1726.953
1131.541, 1677.531
1132.635, 1480.924
1133.729, 1396.502
1134.822, 1420.285
1135.916, 1340.242
1137.009, 1279.340
1138.102, 1269.643
1139.195, 1119.105
1140.288, 1082.762
1141.380, 979.6094
1142.473, 1062.580
1143.565, 785.6582
1144.657, 1029.842
1145.749, 909.1270
1146.841, 1025.514
1147.932, 756.0332
1149.024, 937.6406
1150.115, 808.3184
1151.206, 845.0703
1152.297, 667.9141
1153.388, 771.8320
1154.479, 738.8398
1155.569, 695.9082
1156.659, 772.0391
1157.750, 895.2617
1158.839, 812.5449
1159.929, 813.8887
1161.019, 994.3242
1162.108, 517.8164
1163.198, 413.3672
1164.287, 580.9707
1165.376, 339.6289
1166.465, 486.3418
1167.553, 249.1094
1168.642, 363.9297
1169.730, 237.8047
1170.818, 336.7402
1171.906, 257.7695
1172.994, 313.8750
1174.082, 326.0762
1175.170, 171.3652
1176.257, 242.7812
1177.344, 183.2500
1178.431, 226.7715
1179.518, 83.35156
1180.605, 117.7344
1181.691, 81.69141
1182.778, 123.4512
1183.864, 133.2656
1184.950, 156.0312
1186.036, 15.06836
1187.122, 45.05469
1188.207, 126.9082
1189.292, 279.8535
1190.378, 37.82617
1191.463, 95.72852
1192.548, 72.60352
1193.632, 128.4492
1194.717, 165.2871
1195.801, 88.13477
1196.886, 75.95898
1197.970, 121.7539
1199.054, 383.5254
1200.137, 284.4141
1201.221, 260.3672
1202.305, 143.3730
1203.388, 370.3828
1204.471, 307.5020
1205.554, 339.7012
1206.637, 211.9961
1207.719, 281.3281
1208.802, 143.7285
1209.884, 180.1367
1210.966, 200.5703
1212.048, 200.0332
1213.130, 224.5371
1214.212, 151.0918
1215.293, 119.7832
1216.374, 10.79883
1217.456, 35.28906
1218.536, 113.8340
1219.617, 240.4355
1220.698, 180.0898
1221.778, 394.7969
1222.859, 348.5605
1223.939, 601.3789
1225.019, 367.2480
1226.099, 580.1738
1227.178, 435.1543
1228.258, 538.1875
1229.337, 567.5254
1230.417, 644.3008
1231.496, 631.6152
1232.574, 860.8633
1233.653, 945.1680
1234.732, 961.5254
1235.810, 1231.938
1236.888, 1135.400
1237.966, 1253.918
1239.044, 1280.486
1240.122, 1206.105
1241.199, 1268.773
1242.277, 1138.492
1243.354, 1179.256
1244.431, 1564.064
1245.508, 1428.922
1246.585, 1741.822
1247.661, 1561.764
1248.738, 1442.748
1249.814, 1557.768
1250.890, 1729.830
1251.966, 1821.922
1253.042, 1823.051
1254.117, 1827.633
1255.193, 1694.406
1256.268, 1745.631
1257.343, 1545.887
1258.418, 1604.170
1259.493, 1644.482
1260.567, 1486.816
1261.642, 1697.180
1262.716, 1377.564
1263.790, 1408.973
1264.864, 1610.402
1265.938, 1559.852
1267.011, 1501.320
1268.085, 1523.941
1269.158, 1547.316
1270.231, 1401.842
1271.304, 1480.383
1272.377, 1404.941
1273.450, 1303.514
1274.522, 1486.100
1275.594, 1509.703
1276.666, 1463.760
1277.738, 1472.195
1278.810, 1471.154
1279.882, 1259.807
1280.953, 1366.428
1282.025, 1155.100
1283.096, 1340.525
1284.167, 1259.219
1285.238, 1424.924
1286.308, 1482.268
1287.379, 1509.990
1288.449, 1501.719
