##NAMES=Dravite
##RRUFFID=R040088
##IDEAL CHEMISTRY=NaMg_3_Al_6_(Si_6_O_18_)(BO_3_)_3_(OH)_3_OH
##LOCALITY=Yinnietharra Station, Pilbara, Western Australia, Australia
##OWNER=RRUFF
##SOURCE=University of Arizona Mineral Museum
##DESCRIPTION=Brown short prismatic crystal
##STATUS=The identification of this mineral has been confirmed by X-ray diffraction and chemical analysis
##URL=rruff.info/R040088
##MEASURED CHEMISTRY=(Na_0.88_Ca_0.06_[box]_0.06_)(Mg_0.88_Al_0.10_Ti_0.04_Fe_0.02_)_3_Al_6.00_(B_1_O_3_)_3_Si_6.00_O_18_((OH)_0.98_F_0.02_)_4_
##PIN_ID=M00003
##ORIENTATION=Laser parallel to c* (0 0 1). Fiducial mark perpendicular to laser is parallel to a [1 0 0]
178.664, 0.000
180.044, 69.125
181.424, 7.258
182.803, 14.706
184.183, 149.615
185.562, 195.185
186.940, 302.575
188.319, 391.053
189.698, 429.136
191.076, 412.852
192.454, 421.203
193.831, 457.054
195.209, 409.256
196.586, 413.063
197.963, 345.250
199.340, 535.814
200.717, 491.188
202.093, 657.323
203.470, 861.605
204.846, 1001.939
206.221, 1214.377
207.597, 1595.841
208.972, 1789.500
210.347, 2230.144
211.722, 2644.729
213.097, 2912.206
214.472, 3482.785
215.846, 3661.599
217.220, 3786.866
218.594, 3910.428
219.967, 3725.174
221.341, 3397.115
222.714, 2955.368
224.087, 2749.358
225.460, 2469.125
226.832, 2208.235
228.204, 2047.845
229.577, 1996.091
230.948, 1940.966
232.320, 1808.588
233.692, 1892.506
235.063, 1947.817
236.434, 2095.038
237.805, 2183.410
239.175, 2352.118
240.545, 2478.384
241.916, 2605.291
243.286, 2627.427
244.655, 2604.598
246.025, 2535.835
247.394, 2574.781
248.763, 2211.312
250.132, 1958.939
251.501, 1837.473
252.869, 1486.652
254.237, 1201.222
255.605, 1135.800
256.973, 922.532
258.340, 768.966
259.708, 760.570
261.075, 595.268
262.442, 592.261
263.808, 696.539
265.175, 599.098
266.541, 695.926
267.907, 666.008
269.273, 713.330
270.639, 855.875
272.004, 808.628
273.369, 951.576
274.734, 973.060
276.099, 991.996
277.463, 945.443
278.828, 939.029
280.192, 702.739
281.556, 626.562
282.919, 475.483
284.283, 347.494
285.646, 327.588
287.009, 221.758
288.372, 180.997
289.734, 124.294
291.097, 143.638
292.459, 77.027
293.821, 20.445
295.183, 190.867
296.544, 262.272
297.905, 288.658
299.266, 335.026
300.627, 280.378
301.988, 287.707
303.348, 150.009
304.709, 116.293
306.069, 93.430
307.428, 181.146
308.788, 230.853
310.147, 298.552
311.507, 317.214
312.865, 321.860
314.224, 341.524
315.583, 233.242
316.941, 186.055
318.299, 145.002
319.657, 108.017
321.015, 8.029
322.372, 44.033
323.729, 85.938
325.086, 242.678
326.443, 300.015
327.800, 479.876
329.156, 605.291
330.512, 785.420
331.868, 867.386
333.224, 977.299
334.579, 1100.302
335.935, 1220.627
337.290, 1441.697
338.645, 1503.055
339.999, 1680.501
341.354, 1848.037
342.708, 1870.532
344.062, 1912.608
345.416, 1883.264
346.769, 1936.591
348.123, 1942.968
349.476, 1992.539
350.829, 2056.753
352.182, 2138.118
353.534, 2227.439
354.887, 2361.706
356.239, 2590.910
357.591, 2823.042
358.942, 3059.097
360.294, 3361.062
361.645, 3590.929
362.996, 3630.688
364.347, 3970.338
365.698, 4119.877
367.048, 4649.314
368.398, 4968.646
369.748, 5667.877
371.098, 6286.998
372.448, 7056.006
373.797, 7584.907
375.146, 8003.678
376.495, 8262.286
377.844, 8010.716
379.192, 7618.979
380.540, 6977.089
381.889, 6355.053
383.236, 5832.867
384.584, 5190.542
385.932, 4818.094
387.279, 4415.545
388.626, 4072.910
389.973, 3850.197
391.319, 3617.414
392.666, 3434.568
394.012, 2992.650
395.358, 3013.632
396.704, 2652.463
398.049, 2433.114
399.394, 2366.513
400.740, 2250.828
402.084, 2208.097
403.429, 1784.322
404.774, 1788.453
406.118, 1733.188
407.462, 1623.390
408.806, 1625.023
410.150, 1554.161
411.493, 1345.982
412.836, 1372.637
414.179, 1213.225
415.522, 1207.863
416.865, 1030.559
418.207, 1123.314
419.549, 881.129
420.891, 929.630
422.233, 968.209
423.575, 862.120
424.916, 802.166
426.257, 755.812
427.598, 754.159
428.939, 811.019
430.279, 749.958
431.619, 842.098
432.959, 734.495
434.299, 762.640
435.639, 815.145
436.978, 861.705
438.318, 839.317
439.657, 721.983
440.996, 737.948
442.334, 685.956
443.673, 650.219
445.011, 656.381
446.349, 692.607
447.687, 735.726
449.024, 701.224
450.361, 715.895
451.699, 613.968
453.036, 503.980
454.372, 549.669
455.709, 524.776
457.045, 393.868
458.381, 439.452
459.717, 370.515
461.053, 469.095
462.388, 337.347
463.724, 414.792
465.059, 412.222
466.394, 403.856
467.728, 481.397
469.063, 454.846
470.397, 428.187
471.731, 458.693
473.065, 500.308
474.398, 499.909
475.732, 508.554
477.065, 535.273
478.398, 612.234
479.731, 707.055
481.063, 806.479
482.396, 823.463
483.728, 836.468
485.060, 1110.667
486.391, 1058.750
487.723, 1257.488
489.054, 1232.056
490.385, 1341.771
491.716, 1473.283
493.047, 1515.095
494.377, 1472.173
495.708, 1498.745
497.038, 1689.975
498.368, 1513.279
499.697, 1557.657
501.027, 1360.110
502.356, 1465.637
503.685, 1334.201
505.014, 1338.804
506.342, 1239.448
507.671, 1060.131
508.999, 1032.851
510.327, 848.609
511.655, 699.405
512.982, 683.240
514.310, 506.114
515.637, 535.026
516.964, 497.979
518.291, 413.970
519.617, 507.004
520.944, 432.078
522.270, 474.193
523.596, 742.351
524.921, 627.552
526.247, 894.797
527.572, 1029.085
528.897, 1233.419
530.222, 1382.798
531.547, 1565.224
532.871, 1558.696
534.196, 1883.215
535.520, 1933.782
536.844, 1940.398
538.167, 1778.065
539.491, 1924.782
540.814, 1763.552
542.137, 1811.373
543.460, 1633.248
544.783, 1666.178
546.105, 1676.167
547.427, 1695.228
548.749, 1694.357
550.071, 1831.589
551.393, 1804.922
552.714, 1791.372
554.035, 1946.964
555.356, 1815.691
556.677, 1662.562
557.998, 1761.564
559.318, 1515.696
560.638, 1545.984
561.958, 1337.422
563.278, 1217.013
564.597, 1279.730
565.917, 965.612
567.236, 891.660
568.555, 749.857
569.874, 791.210
571.192, 703.703
572.511, 646.335
573.829, 580.123
575.147, 475.044
576.464, 486.102
577.782, 393.292
579.099, 204.617
580.416, 287.075
581.733, 217.656
583.050, 109.337
584.366, 161.460
585.683, 68.462
586.999, 197.961
588.315, 8.988
589.630, 59.146
590.946, 55.357
592.261, 58.354
593.576, 172.003
594.891, 34.434
596.206, 47.938
597.520, 26.513
598.834, 136.841
600.148, 31.146
601.462, 47.387
602.776, 0.565
604.089, 5.326
605.402, 53.290
606.715, 10.329
608.028, 13.449
609.341, 58.655
610.653, 63.954
611.965, 142.340
613.277, 234.825
614.589, 218.420
615.901, 223.093
617.212, 304.839
618.523, 186.654
619.834, 345.538
621.145, 286.489
622.456, 243.509
623.766, 378.606
625.076, 325.783
626.386, 415.089
627.696, 416.544
629.006, 463.160
630.315, 555.954
631.624, 449.930
632.933, 571.087
634.242, 525.430
635.551, 518.928
636.859, 497.569
638.167, 296.338
639.475, 291.227
640.783, 62.208
642.090, 25.287
643.398, 70.566
644.705, 131.372
646.012, 111.142
647.318, 154.874
648.625, 143.579
649.931, 61.255
651.237, 70.114
652.543, 36.464
653.849, 113.005
655.155, 350.525
656.460, 369.098
657.765, 594.720
659.070, 707.393
660.375, 828.115
661.679, 928.887
662.984, 1007.739
664.288, 1160.577
665.592, 1119.495
666.895, 1125.459
668.199, 1120.473
669.502, 942.532
670.805, 974.638
672.108, 770.791
673.411, 816.989
674.713, 744.233
676.016, 749.522
677.318, 650.855
678.620, 660.180
679.921, 591.655
681.223, 636.120
682.524, 655.628
683.825, 605.179
685.126, 627.771
686.427, 578.406
687.727, 617.082
689.028, 626.798
690.328, 791.556
691.628, 627.353
692.927, 882.189
694.227, 793.064
695.526, 1001.979
696.825, 1002.931
698.124, 1181.920
699.423, 1254.946
700.721, 1389.343
702.020, 1480.484
703.318, 1801.780
704.616, 1968.752
705.913, 2180.760
707.211, 2513.785
708.508, 2807.470
709.805, 3116.021
711.102, 3447.749
712.399, 3881.734
713.695, 4157.092
714.992, 4542.135
716.288, 5033.079
717.584, 5662.971
718.879, 6243.137
720.175, 7017.119
721.470, 7999.673
722.765, 8652.152
724.060, 9949.726
725.355, 10638.621
726.649, 11023.631
727.944, 11447.720
729.238, 10596.036
730.532, 10049.242
731.825, 8982.798
733.119, 8005.899
734.412, 7329.368
735.705, 6331.895
736.998, 5982.605
738.291, 5437.084
739.584, 5251.796
740.876, 5175.386
742.168, 5039.594
743.460, 4891.099
744.752, 5063.005
746.043, 5054.129
747.334, 5275.123
748.626, 5365.376
749.916, 5545.818
751.207, 5856.146
752.498, 6006.365
753.788, 6516.336
755.078, 6483.994
756.368, 6973.091
757.658, 7111.971
758.947, 7611.313
760.237, 7970.666
761.526, 8110.022
762.815, 8749.363
764.104, 8948.686
765.392, 9497.992
766.680, 9597.279
767.969, 9946.548
769.257, 9775.797
770.544, 10035.023
771.832, 10104.229
773.119, 10363.416
774.406, 10232.580
775.693, 10781.722
776.980, 11100.840
778.267, 11969.937
779.553, 12789.007
780.839, 13618.053
782.125, 14677.070
783.411, 15956.062
784.697, 16995.023
785.982, 17643.965
787.267, 18892.871
788.552, 19401.744
789.837, 20070.590
791.122, 19729.396
792.406, 19978.176
793.690, 19556.914
794.974, 18445.627
796.258, 19054.291
797.542, 17042.924
798.825, 16310.568
800.108, 15256.868
801.391, 14533.602
802.674, 13759.221
803.957, 13235.080
805.239, 13192.672
806.522, 13111.033
807.804, 13508.935
809.085, 14147.215
810.367, 14425.453
811.649, 15263.648
812.930, 15551.802
814.211, 15459.913
815.492, 16247.981
816.772, 15886.003
818.053, 15723.983
819.333, 14511.917
820.613, 13869.806
821.893, 12747.648
823.173, 11345.444
824.452, 10303.192
825.732, 9080.896
827.011, 8038.550
828.290, 7056.155
829.568, 6281.592
830.847, 5481.220
832.125, 5158.678
833.403, 4656.086
834.681, 4523.443
835.959, 4197.750
837.236, 3898.005
838.514, 3684.209
839.791, 3326.359
841.068, 3209.458
842.345, 2793.502
843.621, 2557.493
844.898, 2075.430
846.174, 1776.312
847.450, 1527.139
848.726, 1169.911
850.001, 973.826
851.277, 758.763
852.552, 564.889
853.827, 419.435
855.102, 255.920
856.376, 103.338
857.651, 118.667
858.925, 25.092
860.199, 22.999
861.473, 79.055
862.746, 170.292
864.020, 143.756
865.293, 168.438
866.566, 113.349
867.839, 106.463
869.112, 198.777
870.384, 180.340
871.656, 183.144
872.928, 83.192
874.200, 218.431
875.472, 215.932
876.744, 136.697
878.015, 156.683
879.286, 93.902
880.557, 78.322
881.828, 144.934
883.098, 62.774
884.369, 67.801
885.639, 60.015
886.909, 65.416
888.178, 50.003
889.448, 20.771
890.717, 104.295
891.987, 98.251
893.256, 133.095
894.524, 113.844
895.793, 233.487
897.061, 201.047
898.330, 270.520
899.598, 285.914
900.865, 291.229
902.133, 388.471
903.401, 413.639
904.668, 437.759
905.935, 494.812
907.202, 508.806
908.468, 635.756
909.735, 651.656
911.001, 715.256
912.267, 811.310
913.533, 834.068
914.799, 804.790
916.064, 888.472
917.330, 921.104
918.595, 1017.692
919.860, 974.233
921.124, 1041.726
922.389, 1016.172
923.653, 1042.557
924.918, 1215.892
926.182, 1264.164
927.445, 1187.384
928.709, 1412.539
929.972, 1324.629
931.236, 1425.654
932.499, 1430.614
933.761, 1430.511
935.024, 1576.342
936.286, 1674.108
937.549, 1643.810
938.811, 1811.446
940.073, 1850.019
941.334, 1917.527
942.596, 2004.970
943.857, 2015.349
945.118, 2118.717
946.379, 2140.916
947.640, 2266.104
948.900, 2283.227
950.161, 2309.286
951.421, 2472.287
952.681, 2322.235
953.940, 2541.130
955.200, 2705.974
956.459, 2517.767
957.719, 2545.502
958.978, 2522.173
960.236, 2681.785
961.495, 2737.334
962.753, 2665.820
964.012, 2753.245
965.270, 2733.607
966.527, 2747.907
967.785, 2953.146
969.043, 2766.323
970.300, 2933.438
971.557, 2946.493
972.814, 2868.486
974.071, 2927.419
975.327, 2864.290
976.583, 2992.102
977.840, 3034.852
979.095, 2953.543
980.351, 2902.173
981.607, 3001.744
982.862, 3026.255
984.117, 3097.708
985.372, 2992.100
986.627, 3020.434
987.882, 3032.710
989.136, 2962.926
990.390, 2992.085
991.644, 2995.186
992.898, 2954.229
994.152, 2934.214
995.405, 2920.022
996.659, 2901.149
997.912, 2892.828
999.165, 2881.586
1000.417, 2886.289
1001.670, 2876.935
1002.922, 2821.525
1004.174, 2921.061
1005.426, 2755.208
1006.678, 2926.594
1007.930, 2802.803
1009.181, 2839.318
1010.432, 2913.778
1011.683, 2805.204
1012.934, 2910.948
1014.185, 2910.807
1015.435, 2914.178
1016.685, 3097.853
1017.935, 2951.844
1019.185, 3148.132
1020.435, 3239.494
1021.684, 3196.890
1022.934, 3308.991
1024.183, 3453.254
1025.432, 3514.922
1026.680, 3560.648
1027.929, 3655.253
1029.177, 3729.474
1030.425, 3808.320
1031.673, 3910.665
1032.921, 3972.438
1034.169, 4053.302
1035.416, 4133.788
1036.663, 4384.705
1037.911, 4425.231
1039.157, 4656.675
1040.404, 4729.910
1041.650, 4929.352
1042.897, 5188.613
1044.143, 5190.525
1045.389, 5470.449
1046.634, 5832.768
1047.880, 5804.634
1049.125, 6157.273
1050.371, 6100.184
1051.615, 6092.987
1052.860, 6336.228
1054.105, 6215.021
1055.349, 6439.220
1056.593, 6244.998
1057.837, 6331.791
1059.081, 6568.636
1060.325, 6425.526
1061.568, 6713.002
1062.812, 6751.408
1064.055, 6841.962
1065.298, 7231.207
1066.540, 7198.577
1067.783, 7307.354
1069.025, 7575.172
1070.267, 7402.667
1071.509, 7240.552
1072.751, 7095.061
1073.993, 6822.743
1075.234, 6526.723
1076.475, 6133.342
1077.716, 5617.248
1078.957, 5441.129
1080.198, 4835.029
1081.438, 4668.884
1082.679, 4272.726
1083.919, 3876.554
1085.159, 3800.370
1086.398, 3365.175
1087.638, 3143.966
1088.877, 3011.747
1090.116, 2777.516
1091.355, 2671.274
1092.594, 2465.021
1093.833, 2423.757
1095.071, 2253.483
1096.309, 2175.200
1097.547, 2127.906
1098.785, 1919.604
1100.023, 1965.291
1101.260, 1881.970
1102.498, 1741.641
1103.735, 1758.302
1104.972, 1782.955
1106.208, 1596.600
1107.445, 1718.238
1108.681, 1722.868
1109.918, 1580.490
1111.154, 1689.107
1112.389, 1585.717
1113.625, 1567.320
1114.860, 1516.918
1116.096, 1455.511
1117.331, 1426.098
1118.566, 1392.680
1119.800, 1414.259
1121.035, 1300.832
1122.269, 1506.402
1123.503, 1559.969
1124.737, 1258.533
1125.971, 983.093
1127.205, 832.652
1128.438, 753.209
1129.671, 662.765
1130.904, 583.877
1132.137, 490.873
1133.370, 498.425
1134.602, 449.709
1135.834, 478.533
1137.066, 382.087
1138.298, 376.647
1139.530, 296.209
1140.762, 372.771
1141.993, 257.075
1143.224, 314.932
1144.455, 135.517
1145.686, 200.129
1146.917, 264.745
1148.147, 225.366
1149.377, 186.992
1150.607, 164.624
1151.837, 182.281
1153.067, 189.944
1154.296, 203.620
1155.526, 204.319
1156.755, 263.040
1157.984, 189.795
1159.213, 191.610
1160.441, 289.475
1161.670, 118.446
1162.898, 222.509
1164.126, 144.661
1165.354, 235.935
1166.581, 245.289
1167.809, 255.722
1169.036, 281.261
1170.263, 284.942
1171.490, 279.749
1172.717, 310.550
1173.943, 258.510
1175.170, 283.592
1176.396, 282.766
1177.622, 261.036
1178.848, 182.393
1180.073, 253.826
1181.299, 108.354
1182.524, 131.960
1183.749, 141.639
1184.974, 162.395
1186.199, 97.222
1187.423, 57.116
1188.648, 50.071
1189.872, 15.061
1191.096, 44.915
1192.320, 5.704
1193.543, 33.187
1194.767, 15.271
1195.990, 73.374
1197.213, 2.494
1198.436, 26.628
1199.659, 66.777
1200.881, 114.059
1202.104, 21.930
1203.326, 52.796
1204.548, 71.671
1205.770, 63.565
1206.991, 64.476
1208.213, 75.406
1209.434, 92.361
1210.655, 127.349
1211.876, 106.388
1213.096, 73.469
1214.317, 98.575
1215.537, 81.719
1216.757, 75.894
1217.977, 83.097
1219.197, 12.332
1220.417, 79.569
1221.636, 30.164
1222.855, 60.099
1224.074, 41.615
1225.293, 106.333
1226.512, 37.055
1227.731, 64.778
1228.949, 166.504
1230.167, 108.232
1231.385, 196.962
1232.603, 97.694
1233.820, 157.427
1235.038, 250.161
1236.255, 194.896
1237.472, 183.632
1238.689, 254.369
1239.906, 247.104
1241.122, 220.839
1242.338, 275.572
1243.555, 305.305
1244.771, 278.036
1245.986, 388.765
1247.202, 330.492
1248.417, 418.217
1249.633, 362.939
1250.848, 500.675
1252.063, 466.423
1253.277, 382.185
1254.492, 526.959
1255.706, 514.747
1256.920, 519.547
1258.134, 447.984
1259.348, 537.646
1260.562, 588.188
1261.775, 601.710
1262.988, 467.307
1264.201, 523.949
1265.414, 504.046
1266.627, 481.019
1267.839, 564.584
1269.052, 451.766
1270.264, 533.836
1271.476, 538.024
1272.688, 577.800
1273.899, 540.896
1275.111, 527.459
1276.322, 591.347
1277.533, 612.318
1278.744, 566.251
1279.955, 608.858
1281.165, 528.625
1282.376, 498.953
1283.586, 491.362
1284.796, 417.481
1286.006, 419.841
1287.215, 452.451
1288.425, 480.776
1289.634, 385.470
1290.843, 430.453
1292.052, 338.799
1293.261, 444.893
1294.469, 364.538
1295.678, 304.279
1296.886, 376.646
1298.094, 237.475
1299.302, 251.258
1300.509, 320.887
1301.717, 282.589
1302.924, 291.415
1304.131, 300.746
1305.338, 241.241
1306.545, 294.017
1307.752, 326.928
1308.958, 171.176
1310.164, 245.902
1311.370, 291.945
1312.576, 238.969
1313.782, 303.488
1314.987, 125.591
1316.193, 152.818
1317.398, 303.133
1318.603, 163.119
1319.807, 205.601
1321.012, 179.056
1322.216, 178.196
1323.421, 212.104
1324.625, 187.242
1325.829, 247.432
1327.032, 355.089
1328.236, 251.963
1329.439, 290.011
1330.642, 313.401
1331.845, 209.026
1333.048, 290.592
1334.251, 263.725
1335.453, 315.446
1336.656, 277.535
1337.858, 261.650
1339.060, 260.033
1340.261, 336.339
1341.463, 302.955
1342.664, 321.784
1343.866, 329.013
1345.067, 265.512
1346.267, 341.734
1347.468, 211.803
1348.669, 309.693
1349.869, 388.948
1351.069, 285.197
1352.269, 354.127
1353.469, 351.693
1354.668, 331.991
1355.868, 412.963
1357.067, 291.311
1358.266, 267.265
1359.465, 392.797
1360.664, 288.138
1361.862, 251.648
1363.061, 304.761
1364.259, 239.102
1365.457, 252.180
1366.655, 310.067
1367.852, 242.044
1369.050, 363.646
1370.247, 218.312
1371.444, 214.695
1372.641, 400.013
1373.838, 237.242
1375.035, 340.390
1376.231, 400.533
1377.427, 317.516
1378.623, 341.419
1379.819, 306.432
1381.015, 307.191
1382.211, 433.837
1383.406, 289.403
1384.601, 404.893
1385.796, 438.302
1386.991, 330.616
1388.185, 349.853
1389.380, 439.017
1390.574, 353.113
1391.768, 554.154
1392.962, 419.169
1394.156, 361.771
1395.350, 449.380
1396.543, 431.996
1397.736, 397.617
1398.929, 451.243
1400.122, 406.875
1401.315, 383.511
1402.507, 365.152
1403.700, 258.796
1404.892, 357.443
1406.084, 281.090
1407.276, 288.737
1408.467, 374.384
1409.659, 213.029
1410.850, 241.661
1412.041, 212.273
1413.232, 146.863
1414.423, 214.390
1415.614, 231.901
1416.804, 110.374
1417.994, 218.800
1419.184, 133.174
1420.374, 239.487
1421.564, 264.728
1422.753, 80.894
1423.943, 191.957
1425.132, 140.985
1426.321, 18.892
1427.510, 198.759
1428.698, 144.552
1429.887, 19.708
1431.075, 159.977
1432.263, 81.601
1433.451, 55.828
1434.639, 164.710
1435.827, 47.204
1437.014, 99.685
1438.201, 87.135
1439.388, 43.447
1440.575, 80.939
1441.762, 20.364
1442.949, 14.185
1444.135, 104.326
1445.321, 16.080
1446.507, 9.668
1447.693, 164.540
1448.879, 108.458
1450.064, 91.652
1451.250, 61.850
1452.435, 72.876
1453.620, 85.434
1454.805, 90.790
1455.989, 54.200
1457.174, 87.669
1458.358, 43.796
1459.542, 3.816
1460.726, 40.513
1461.910, 3.307
1463.093, 73.206
1464.277, 103.219
1465.460, 19.261
1466.643, 110.300
1467.826, 107.337
1469.009, 31.372
1470.191, 153.403
1471.373, 58.431
1472.556, 348.456
1473.738, 225.044
1474.919, 242.098
1476.101, 136.284
1477.283, 192.641
1478.464, 214.641
1479.645, 699.258
1480.826, 533.077
1482.007, 604.226
1483.187, 637.981
1484.368, 442.695
1485.548, 295.749
1486.728, 225.915
1487.908, 156.485
1489.088, 121.159
1490.268, 320.964
1491.447, 169.161
1492.626, 204.500
1493.805, 287.794
1494.984, 145.912
1496.163, 242.510
1497.341, 187.194
1498.520, 125.368
1499.698, 179.528
1500.876, 134.586
1502.054, 134.913
1503.232, 172.692
1504.409, 120.804
1505.586, 227.494
1506.763, 192.578
1507.940, 70.884
1509.117, 129.980
1510.294, 212.551
1511.470, 55.242
1512.647, 207.179
1513.823, 208.025
1514.999, 276.981
1516.174, 65.570
1517.350, 32.486
1518.526, 118.831
1519.701, 196.841
1520.876, 3.047
1522.051, 19.447
1523.226, 73.027
1524.400, 28.660
1525.574, 205.030
1526.749, 76.243
1527.923, 63.725
1529.097, 209.698
1530.270, 2.572
1531.444, 62.707
1532.617, 134.775
1533.790, 0.000
##END=



