##NAMES=Dravite
##RRUFFID=R040088
##IDEAL CHEMISTRY=NaMg_3_Al_6_(Si_6_O_18_)(BO_3_)_3_(OH)_3_OH
##LOCALITY=Yinnietharra Station, Pilbara, Western Australia, Australia
##OWNER=RRUFF
##SOURCE=University of Arizona Mineral Museum
##DESCRIPTION=Brown short prismatic crystal
##STATUS=The identification of this mineral has been confirmed by X-ray diffraction and chemical analysis
##URL=rruff.info/R040088
##MEASURED CHEMISTRY=(Na_0.88_Ca_0.06_[box]_0.06_)(Mg_0.88_Al_0.10_Ti_0.04_Fe_0.02_)_3_Al_6.00_(B_1_O_3_)_3_Si_6.00_O_18_((OH)_0.98_F_0.02_)_4_
##PIN_ID=L00133
##ORIENTATION=Laser parallel to a [1 0 0]. Fiducial mark perpendicular to laser is parallel to c* (0 0 1)
174.605, 0.000
175.989, 160.557
177.373, 39.233
178.757, 87.260
180.140, 7.424
181.524, 40.699
182.907, 56.948
184.289, 101.953
185.672, 339.249
187.054, 477.183
188.436, 785.452
189.818, 1021.169
191.200, 1322.771
192.581, 1599.468
193.963, 1820.596
195.343, 2115.622
196.724, 2364.095
198.105, 2985.640
199.485, 3439.944
200.865, 4396.750
202.245, 5725.834
203.624, 7227.505
205.004, 9602.505
206.383, 11709.936
207.762, 15108.829
209.140, 17639.020
210.519, 20630.490
211.897, 22893.203
213.275, 23737.061
214.653, 24881.961
216.030, 23017.818
217.408, 21804.566
218.785, 19542.168
220.162, 17350.578
221.538, 15539.763
222.915, 13699.690
224.291, 13090.335
225.667, 12181.671
227.042, 12033.678
228.418, 11816.334
229.793, 11909.616
231.168, 12383.841
232.543, 12416.247
233.917, 13672.870
235.292, 13954.801
236.666, 15297.746
238.040, 16545.973
239.413, 17662.535
240.787, 18659.271
242.160, 18456.629
243.533, 19174.662
244.906, 17773.434
246.278, 16732.904
247.651, 15653.026
249.023, 13323.558
250.395, 12324.066
251.766, 9944.595
253.138, 8575.181
254.509, 7285.916
255.880, 6096.832
257.250, 5407.958
258.621, 4659.312
259.991, 4380.911
261.361, 3753.484
262.731, 3287.573
264.101, 2967.271
265.470, 2369.934
266.839, 2242.872
268.208, 1826.090
269.577, 1749.585
270.945, 1133.359
272.313, 1157.410
273.681, 871.738
275.049, 496.342
276.417, 541.217
277.784, 366.361
279.151, 601.770
280.518, 527.438
281.885, 423.359
283.251, 459.532
284.617, 235.956
285.983, 202.626
287.349, 10.462
288.715, 83.309
290.080, 255.915
291.445, 178.288
292.810, 90.427
294.174, 212.336
295.539, 144.014
296.903, 145.416
298.267, 56.496
299.631, 37.112
300.994, 57.264
302.357, 16.891
303.720, 23.931
305.083, 295.217
306.446, 476.981
307.808, 759.143
309.170, 1361.702
310.532, 1674.675
311.894, 2263.918
313.256, 2098.483
314.617, 1814.646
315.978, 1530.993
317.339, 956.809
318.699, 723.930
320.060, 388.389
321.420, 522.961
322.780, 625.310
324.139, 596.979
325.499, 897.946
326.858, 1000.880
328.217, 1573.857
329.576, 1707.040
330.934, 2002.319
332.293, 2488.230
333.651, 2754.713
335.009, 3411.723
336.367, 3599.221
337.724, 4147.170
339.081, 4595.543
340.438, 5054.307
341.795, 5493.443
343.152, 5392.928
344.508, 6002.746
345.864, 5812.877
347.220, 6343.311
348.576, 6194.031
349.931, 6645.026
351.286, 7386.281
352.641, 7677.784
353.996, 8999.515
355.351, 9831.472
356.705, 11383.646
358.059, 13736.030
359.413, 15908.616
360.767, 19651.398
362.120, 22594.383
363.473, 27747.545
364.826, 31890.895
366.179, 34964.422
367.532, 39418.129
368.884, 37982.008
370.236, 37986.051
371.588, 34650.254
372.940, 30574.619
374.291, 27089.139
375.643, 22433.822
376.994, 19568.646
378.344, 16283.616
379.695, 14208.645
381.045, 12553.747
382.395, 10468.902
383.745, 9774.156
385.095, 8369.531
386.444, 7845.043
387.794, 7160.686
389.143, 6491.749
390.491, 6522.361
391.840, 5518.386
393.188, 5624.530
394.537, 5040.789
395.884, 4797.164
397.232, 4783.653
398.580, 4340.256
399.927, 4466.973
401.274, 4003.804
402.621, 4180.749
403.967, 3827.805
405.314, 3644.973
406.660, 3702.248
408.006, 3139.635
409.352, 3037.125
410.697, 2574.723
412.042, 2252.425
413.387, 2120.230
414.732, 1568.137
416.077, 1569.113
417.421, 1227.888
418.765, 1042.500
420.109, 912.214
421.453, 626.078
422.797, 703.157
424.140, 351.723
425.483, 404.771
426.826, 356.049
428.168, 141.098
429.511, 316.851
430.853, 50.129
432.195, 232.754
433.537, 79.714
434.878, 108.813
436.220, 175.356
437.561, 115.248
438.902, 78.298
440.242, 16.595
441.583, 129.271
442.923, 22.882
444.263, 74.968
445.603, 164.648
446.942, 140.311
448.282, 86.989
449.621, 16.771
450.960, 15.979
452.298, 24.760
453.637, 39.755
454.975, 1.771
456.313, 9.844
457.651, 27.076
458.989, 50.972
460.326, 2.143
461.663, 249.273
463.000, 23.432
464.337, 303.607
465.673, 333.820
467.010, 424.070
468.346, 604.422
469.682, 574.879
471.017, 705.443
472.353, 876.107
473.688, 1076.870
475.023, 1317.729
476.358, 1418.676
477.692, 1749.704
479.026, 1990.812
480.361, 2101.998
481.694, 2353.259
483.028, 2614.590
484.362, 2995.992
485.695, 3307.461
487.028, 3598.996
488.361, 3820.594
489.693, 3912.254
491.026, 4183.975
492.358, 4025.752
493.690, 4257.589
495.021, 4109.479
496.353, 3971.425
497.684, 3983.422
499.015, 3835.471
500.346, 3967.569
501.677, 3479.716
503.007, 3171.912
504.337, 3254.154
505.667, 2666.440
506.997, 2628.771
508.327, 2241.146
509.656, 2103.562
510.985, 1806.021
512.314, 1518.519
513.643, 1501.055
514.971, 1263.631
516.300, 1076.244
517.628, 1018.893
518.956, 861.577
520.283, 864.295
521.611, 731.047
522.938, 789.832
524.265, 832.649
525.591, 845.498
526.918, 1138.380
528.244, 1021.291
529.570, 1374.232
530.896, 1357.203
532.222, 1330.203
533.547, 1483.229
534.873, 1356.283
536.198, 1479.364
537.523, 1482.469
538.847, 1295.600
540.171, 1268.755
541.496, 1051.932
542.820, 1115.132
544.143, 854.354
545.467, 904.597
546.790, 735.859
548.113, 469.143
549.436, 583.444
550.759, 376.765
552.081, 419.102
553.404, 243.456
554.726, 106.826
556.047, 111.211
557.369, 123.607
558.690, 14.020
560.011, 74.406
561.332, 40.206
562.653, 53.125
563.974, 179.553
565.294, 72.375
566.614, 92.279
567.934, 158.277
569.254, 128.412
570.573, 183.667
571.892, 38.075
573.211, 151.551
574.530, 139.160
575.849, 51.894
577.167, 252.696
578.485, 129.684
579.803, 142.733
581.121, 155.883
582.438, 129.147
583.756, 165.476
585.073, 101.901
586.390, 201.367
587.706, 81.931
589.023, 90.515
590.339, 150.577
591.655, 7.229
592.971, 122.660
594.287, 51.807
595.602, 161.042
596.917, 20.801
598.232, 210.033
599.547, 213.600
600.861, 324.059
602.176, 496.686
603.490, 328.320
604.804, 753.420
606.118, 622.583
607.431, 871.834
608.744, 918.123
610.057, 967.476
611.370, 1169.861
612.683, 1175.267
613.995, 1274.689
615.307, 1427.123
616.619, 1436.564
617.931, 1592.133
619.243, 1519.471
620.554, 1843.930
621.865, 2016.385
623.176, 2168.837
624.487, 2651.285
625.797, 2843.723
627.108, 3516.153
628.418, 4138.572
629.728, 4820.979
631.037, 5783.371
632.347, 5895.751
633.656, 6438.116
634.965, 6150.465
636.274, 5842.802
637.582, 5405.121
638.891, 4727.423
640.199, 4539.709
641.507, 4451.979
642.815, 4494.229
644.122, 4786.461
645.430, 4608.675
646.737, 5300.870
648.044, 5723.043
649.350, 5875.196
650.657, 6757.330
651.963, 6849.442
653.269, 7471.534
654.575, 7383.601
655.881, 7415.647
657.186, 7857.669
658.491, 7719.669
659.796, 8131.645
661.101, 8463.596
662.406, 8665.522
663.710, 9717.426
665.014, 9839.299
666.318, 11031.148
667.622, 11772.973
668.926, 12704.771
670.229, 14146.542
671.532, 14338.282
672.835, 15489.996
674.138, 15821.683
675.440, 15193.338
676.743, 15534.968
678.045, 14206.563
679.347, 14238.136
680.648, 13279.673
681.950, 12391.181
683.251, 12212.660
684.552, 11114.104
685.853, 11415.520
687.153, 11016.900
688.454, 10688.250
689.754, 11299.566
691.054, 11220.851
692.354, 12282.102
693.653, 12483.320
694.953, 13444.505
696.252, 14645.653
697.551, 15066.767
698.849, 16617.844
700.148, 17155.918
701.446, 16986.262
702.744, 17490.820
704.042, 16040.344
705.340, 15495.774
706.637, 14078.042
707.935, 11978.886
709.232, 10675.302
710.529, 8983.537
711.825, 7958.056
713.122, 6892.076
714.418, 5999.041
715.714, 5517.655
717.010, 4822.178
718.305, 4444.057
719.601, 4237.902
720.896, 3878.215
722.191, 3698.250
723.486, 3333.929
724.780, 3286.649
726.075, 3047.810
727.369, 2765.222
728.663, 2941.501
729.956, 2594.763
731.250, 2704.075
732.543, 2650.494
733.836, 2564.597
735.129, 2752.678
736.422, 2754.227
737.714, 2874.281
739.007, 3148.636
740.299, 3222.008
741.591, 3434.688
742.882, 3524.603
744.174, 3774.191
745.465, 4091.533
746.756, 4369.380
748.047, 4786.671
749.337, 5259.531
750.628, 5576.109
751.918, 6330.201
753.208, 6844.221
754.498, 7407.133
755.787, 7649.438
757.077, 7836.097
758.366, 7877.031
759.655, 7766.276
760.944, 7486.518
762.232, 7117.269
763.520, 6547.477
764.809, 6356.999
766.096, 5756.990
767.384, 5736.099
768.672, 5575.151
769.959, 5354.148
771.246, 5533.089
772.533, 5501.972
773.820, 5670.800
775.106, 5789.572
776.392, 5798.288
777.679, 6526.946
778.964, 6635.549
780.250, 7214.095
781.536, 7562.581
782.821, 8241.013
784.106, 8939.388
785.391, 9017.705
786.675, 9615.964
787.960, 9774.166
789.244, 9852.310
790.528, 9790.396
791.812, 9488.424
793.095, 9316.396
794.379, 9104.310
795.662, 8652.165
796.945, 8439.967
798.228, 7977.709
799.510, 7695.393
800.793, 7723.022
802.075, 7440.596
803.357, 7818.110
804.639, 7835.568
805.920, 8382.971
807.201, 9190.315
808.483, 9457.604
809.764, 10114.835
811.044, 10732.011
812.325, 11339.129
813.605, 11936.189
814.885, 11693.196
816.165, 12080.141
817.445, 11507.031
818.724, 10983.865
820.004, 10490.641
821.283, 9527.357
822.562, 8634.019
823.840, 7940.623
825.119, 6897.169
826.397, 6243.657
827.675, 5530.088
828.953, 5087.691
830.231, 4802.776
831.508, 4489.033
832.785, 4165.233
834.062, 3901.376
835.339, 3677.460
836.616, 3633.488
837.892, 3188.458
839.169, 3112.388
840.445, 2735.267
841.720, 2489.122
842.996, 2202.928
844.272, 1808.755
845.547, 1558.570
846.822, 1256.378
848.097, 1025.200
849.371, 727.028
850.646, 497.879
851.920, 408.707
853.194, 235.542
854.468, 201.372
855.741, 148.167
857.015, 9.016
858.288, 56.737
859.561, 28.464
860.834, 37.841
862.106, 30.227
863.378, 92.680
864.651, 132.567
865.923, 148.957
867.194, 257.825
868.466, 110.928
869.737, 223.156
871.008, 154.624
872.279, 203.253
873.550, 221.125
874.821, 250.267
876.091, 262.607
877.361, 249.379
878.631, 240.370
879.901, 201.642
881.170, 115.170
882.440, 106.896
883.709, 175.813
884.978, 25.967
886.247, 107.253
887.515, 18.730
888.783, 24.662
890.052, 23.951
891.320, 78.135
892.587, 116.231
893.855, 81.245
895.122, 114.168
896.389, 128.015
897.656, 363.779
898.923, 241.479
900.189, 345.113
901.456, 479.685
902.722, 365.198
903.988, 556.654
905.253, 638.076
906.519, 552.444
907.784, 764.765
909.049, 724.045
910.314, 817.271
911.579, 815.444
912.843, 904.574
914.108, 954.651
915.372, 874.674
916.636, 1109.652
917.899, 1109.579
919.163, 982.461
920.426, 1248.302
921.689, 1045.096
922.952, 1208.843
924.215, 1267.545
925.477, 1182.206
926.740, 1344.837
928.002, 1382.441
929.264, 1309.034
930.525, 1521.625
931.787, 1486.206
933.048, 1627.791
934.309, 1640.379
935.570, 1667.943
936.831, 1942.516
938.091, 1799.069
939.352, 1972.580
940.612, 2171.072
941.872, 2116.546
943.131, 2383.976
944.391, 2706.391
945.650, 2654.807
946.909, 2698.096
948.168, 2782.383
949.427, 2949.624
950.685, 3144.816
951.944, 3006.961
953.202, 3490.058
954.460, 3456.105
955.717, 3710.106
956.975, 3659.059
958.232, 3867.964
959.489, 4166.822
960.746, 4115.634
962.003, 4334.397
963.259, 4523.115
964.516, 4481.785
965.772, 4550.409
967.028, 4798.989
968.283, 4817.521
969.539, 4896.008
970.794, 4864.449
972.049, 5052.846
973.304, 5051.197
974.559, 5069.502
975.813, 5227.764
977.068, 5075.981
978.322, 5314.153
979.576, 5262.281
980.830, 5090.365
982.083, 5248.403
983.336, 4916.397
984.589, 5094.347
985.842, 5052.252
987.095, 4679.956
988.348, 4927.193
989.600, 4553.439
990.852, 4599.312
992.104, 4654.615
993.356, 4455.828
994.607, 4429.594
995.859, 4442.654
997.110, 4361.691
998.361, 4461.204
999.612, 4566.301
1000.862, 4518.559
1002.112, 4729.621
1003.363, 4663.037
1004.613, 4856.658
1005.862, 4882.407
1007.112, 5262.901
1008.361, 5459.779
1009.610, 5597.535
1010.859, 5999.510
1012.108, 6062.382
1013.357, 6216.173
1014.605, 6780.598
1015.853, 6877.738
1017.101, 7331.041
1018.349, 7775.146
1019.597, 7954.199
1020.844, 8465.025
1022.091, 8968.894
1023.338, 9149.468
1024.585, 9741.973
1025.832, 10084.481
1027.078, 10598.669
1028.324, 11133.088
1029.570, 11016.701
1030.816, 11621.941
1032.062, 11736.438
1033.307, 11332.555
1034.552, 11858.836
1035.797, 11365.157
1037.042, 11422.071
1038.287, 11349.064
1039.531, 11220.093
1040.776, 11177.190
1042.020, 10935.274
1043.264, 10894.697
1044.507, 10981.840
1045.751, 10618.644
1046.994, 10547.595
1048.237, 10634.690
1049.480, 10191.418
1050.723, 10189.641
1051.965, 9766.588
1053.207, 9955.040
1054.449, 9643.824
1055.691, 9171.477
1056.933, 9308.994
1058.174, 9047.017
1059.416, 8745.482
1060.657, 9236.465
1061.898, 8997.841
1063.139, 8792.540
1064.379, 8719.435
1065.619, 8514.231
1066.860, 8702.224
1068.100, 8380.001
1069.339, 8191.419
1070.579, 8130.373
1071.818, 7742.910
1073.057, 7560.706
1074.296, 7183.466
1075.535, 6445.959
1076.774, 6483.428
1078.012, 5796.925
1079.250, 5473.816
1080.488, 5052.961
1081.726, 4589.742
1082.964, 4476.321
1084.201, 4102.863
1085.438, 3699.137
1086.675, 3685.393
1087.912, 3251.634
1089.149, 3107.862
1090.385, 2999.077
1091.621, 2663.278
1092.857, 2619.468
1094.093, 2467.643
1095.329, 2319.154
1096.564, 2249.956
1097.800, 2137.093
1099.035, 2115.218
1100.270, 2088.331
1101.504, 1954.432
1102.739, 1854.521
1103.973, 1661.598
1105.207, 1638.663
1106.441, 1648.718
1107.675, 1660.761
1108.908, 1577.793
1110.142, 1419.814
1111.375, 1355.825
1112.608, 1404.824
1113.841, 1172.813
1115.073, 1199.792
1116.305, 1198.760
1117.538, 1011.719
1118.770, 1047.667
1120.001, 938.606
1121.233, 891.536
1122.464, 878.458
1123.696, 775.380
1124.927, 731.584
1126.157, 661.226
1127.388, 510.177
1128.618, 707.139
1129.849, 443.115
1131.079, 484.128
1132.309, 472.175
1133.538, 384.275
1134.768, 405.445
1135.997, 310.687
1137.226, 163.038
1138.455, 282.449
1139.684, 113.958
1140.912, 138.543
1142.140, 115.219
1143.369, 170.992
1144.596, 232.872
1145.824, 195.993
1147.052, 146.957
1148.279, 149.156
1149.506, 76.445
1150.733, 33.795
1151.960, 93.201
1153.187, 27.312
1154.413, 130.191
1155.639, 3.752
1156.865, 132.336
1158.091, 108.936
1159.317, 3.451
1160.542, 38.163
1161.767, 156.779
1162.992, 18.597
1164.217, 62.018
1165.442, 63.635
1166.666, 11.755
1167.891, 4.842
1169.115, 7.428
1170.338, 13.714
1171.562, 71.827
1172.786, 30.128
1174.009, 18.294
1175.232, 43.326
1176.455, 17.246
1177.678, 90.167
1178.900, 32.976
1180.123, 25.592
1181.345, 102.944
1182.567, 17.476
1183.789, 53.840
1185.010, 20.855
1186.232, 26.163
1187.453, 3.922
1188.674, 0.646
1189.895, 10.284
1191.115, 18.075
1192.336, 56.875
1193.556, 61.779
1194.776, 108.602
1195.996, 139.385
1197.216, 108.668
1198.435, 153.842
1199.655, 150.201
1200.874, 58.539
1202.093, 166.061
1203.311, 73.704
1204.530, 1.387
1205.748, 76.129
1206.966, 71.945
1208.184, 5.173
1209.402, 85.728
1210.620, 28.290
1211.837, 22.703
1213.054, 46.273
1214.271, 87.235
1215.488, 92.198
1216.705, 147.151
1217.921, 215.096
1219.138, 198.033
1220.354, 245.961
1221.570, 358.882
1222.785, 509.793
1224.001, 440.698
1225.216, 533.595
1226.431, 512.482
1227.646, 592.361
1228.861, 649.232
1230.075, 665.096
1231.290, 707.341
1232.504, 718.873
1233.718, 732.634
1234.932, 716.461
1236.145, 705.279
1237.359, 667.087
1238.572, 702.884
1239.785, 682.671
1240.998, 692.447
1242.211, 637.227
1243.423, 595.994
1244.635, 641.750
1245.848, 658.492
1247.059, 567.223
1248.271, 677.940
1249.483, 612.646
1250.694, 657.337
1251.905, 713.016
1253.116, 663.679
1254.327, 682.326
1255.538, 697.958
1256.748, 687.573
1257.958, 676.856
1259.168, 555.753
1260.378, 625.317
1261.588, 587.862
1262.797, 556.396
1264.006, 614.919
1265.215, 695.432
1266.424, 629.933
1267.633, 526.421
1268.842, 673.896
1270.050, 653.357
1271.258, 569.805
1272.466, 641.237
1273.674, 545.655
1274.881, 573.056
1276.089, 495.439
1277.296, 573.806
1278.503, 495.154
1279.710, 521.484
1280.916, 385.685
1282.123, 493.660
1283.329, 402.885
1284.535, 464.804
1285.741, 447.017
1286.947, 346.718
1288.152, 328.887
1289.358, 425.033
1290.563, 348.520
1291.768, 432.294
1292.973, 383.373
1294.177, 435.267
1295.382, 337.073
1296.586, 202.861
1297.790, 319.890
1298.994, 267.343
1300.197, 115.802
1301.401, 105.631
1302.604, 76.225
1303.807, 154.753
1305.010, 65.240
1306.213, 140.364
1307.415, 62.736
1308.618, 74.425
1309.820, 128.116
1311.022, 198.460
1312.223, 121.526
1313.425, 180.689
1314.626, 224.368
1315.828, 81.254
1317.029, 191.781
1318.230, 157.432
1319.430, 134.176
1320.631, 260.795
1321.831, 151.966
1323.031, 195.174
1324.231, 133.188
1325.431, 150.313
1326.630, 131.539
1327.830, 130.161
1329.029, 136.389
1330.228, 94.518
1331.427, 148.774
1332.625, 110.829
1333.824, 99.332
1335.022, 109.367
1336.220, 119.125
1337.418, 102.576
1338.616, 136.768
1339.813, 166.183
1341.010, 119.040
1342.208, 91.325
1343.404, 154.413
1344.601, 126.526
1345.798, 129.193
1346.994, 148.897
1348.190, 128.859
1349.386, 148.538
1350.582, 172.179
1351.778, 142.868
1352.973, 224.798
1354.169, 154.496
1355.364, 179.019
1356.559, 207.477
1357.753, 148.290
1358.948, 450.957
1360.142, 666.658
1361.336, 493.205
1362.530, 297.442
1363.724, 269.730
1364.918, 147.188
1366.111, 158.292
1367.305, 329.459
1368.498, 199.392
1369.690, 200.590
1370.883, 289.431
1372.076, 228.216
1373.268, 178.949
1374.460, 199.619
1375.652, 311.212
1376.844, 284.740
1378.035, 341.193
1379.227, 331.580
1380.418, 210.892
1381.609, 341.941
1382.800, 252.896
1383.991, 323.749
1385.181, 348.483
1386.371, 312.100
1387.562, 408.401
1388.751, 509.533
1389.941, 512.080
1391.131, 426.508
1392.320, 400.611
1393.509, 374.678
1394.698, 370.737
1395.887, 443.697
1397.076, 406.648
1398.264, 403.561
1399.453, 416.434
1400.641, 379.270
1401.829, 493.078
1403.016, 435.857
1404.204, 476.601
1405.391, 404.316
1406.578, 321.001
1407.765, 480.659
1408.952, 378.297
1410.139, 314.182
1411.325, 331.162
1412.512, 280.999
1413.698, 222.416
1414.884, 272.752
1416.069, 224.012
1417.255, 260.021
1418.440, 274.497
1419.625, 223.823
1420.810, 239.251
1421.995, 242.767
1423.180, 165.254
1424.364, 259.121
1425.548, 228.322
1426.732, 210.632
1427.916, 197.112
1429.100, 131.676
1430.284, 170.288
1431.467, 100.891
1432.650, 114.464
1433.833, 225.021
1435.016, 223.562
1436.199, 221.084
1437.381, 73.593
1438.563, 175.087
1439.745, 31.563
1440.927, 117.034
1442.109, 58.498
1443.290, 202.961
1444.472, 157.401
1445.653, 114.828
1446.834, 131.267
1448.015, 33.726
1449.195, 21.789
1450.376, 139.732
1451.556, 74.303
1452.736, 24.067
1453.916, 142.628
1455.096, 3.647
1456.275, 135.091
1457.454, 152.846
1458.634, 35.378
1459.813, 134.426
1460.991, 120.261
1462.170, 0.132
1463.348, 101.044
1464.527, 8.027
1465.705, 21.084
1466.883, 132.251
1468.060, 17.484
1469.238, 38.794
1470.415, 14.182
1471.592, 19.369
1472.769, 97.122
1473.946, 105.644
1475.123, 62.104
1476.299, 114.689
1477.476, 123.746
1478.652, 113.886
1479.828, 71.906
1481.003, 114.601
1482.179, 154.300
1483.354, 152.451
1484.529, 81.065
1485.704, 90.697
1486.879, 78.230
1488.054, 80.116
1489.228, 167.038
1490.403, 124.198
1491.577, 73.913
1492.751, 178.088
1493.924, 112.556
1495.098, 163.966
1496.271, 61.878
1497.444, 19.222
1498.618, 253.357
1499.790, 187.110
1500.963, 123.717
1502.135, 160.279
1503.308, 159.348
1504.480, 127.085
1505.652, 278.672
1506.824, 218.551
1507.995, 305.276
1509.167, 184.889
1510.338, 86.447
1511.509, 142.629
1512.680, 119.589
1513.850, 62.336
1515.021, 0.406
1516.191, 0.000
##END=



