##NAMES=Dravite
##RRUFFID=R060280
##IDEAL CHEMISTRY=NaMg_3_Al_6_(Si_6_O_18_)(BO_3_)_3_(OH)_3_OH
##LOCALITY=near Merelani, Tanzania
##OWNER=RRUFF
##SOURCE=Herb Obodda
##DESCRIPTION=Green fragment
##STATUS=The identification of this mineral has been confirmed by X-ray diffraction and chemical analysis
##URL=rruff.info/R060280
##MEASURED CHEMISTRY=(Na_0.45_Ca_0.40_[box]_0.15_)(Mg_0.89_Al_0.07_Ti_0.04_)_3_Al_6_(BO_3_)_3_(Si_0.93_B_0.07_)_6_O_18_((OH)_0.95_O_0.05_)_4_
##PIN_ID=L00930
##ORIENTATION=Laser parallel to c* (0 0 1). Fiducial mark perpendicular to laser is parallel to -b [0 -1 0]
168.4860, 0.0000000E+00
169.7110, 216.7578
170.9360, 114.8027
172.1610, 149.6270
173.3850, 271.5117
174.6100, 151.2246
175.8340, 8.054688
177.0580, 10.08008
178.2820, 94.53516
179.5050, 69.55273
180.7290, 239.6289
181.9520, 121.0156
183.1760, 357.1270
184.3990, 709.4648
185.6220, 820.6172
186.8450, 1236.572
188.0670, 1432.311
189.2900, 1863.361
190.5120, 2153.332
191.7340, 2402.617
192.9560, 2683.830
194.1780, 2844.891
195.4000, 3000.922
196.6220, 3081.775
197.8430, 3120.334
199.0640, 3349.490
200.2860, 3553.156
201.5070, 4061.254
202.7270, 4267.748
203.9480, 4643.691
205.1690, 5014.764
206.3890, 5829.984
207.6090, 6630.846
208.8290, 7539.312
210.0490, 8666.373
211.2690, 9979.014
212.4890, 10995.24
213.7080, 11925.04
214.9280, 12668.41
216.1470, 12861.35
217.3660, 12748.86
218.5850, 12288.95
219.8030, 11140.59
221.0220, 10521.80
222.2400, 9476.584
223.4590, 8434.924
224.6770, 7636.824
225.8950, 7160.275
227.1120, 6582.279
228.3300, 6340.398
229.5480, 6201.926
230.7650, 6227.564
231.9820, 6575.738
233.1990, 6929.449
234.4160, 7218.689
235.6330, 7447.461
236.8490, 7962.674
238.0660, 8331.377
239.2820, 8328.480
240.4980, 9005.693
241.7140, 9030.658
242.9300, 8687.980
244.1460, 8366.488
245.3610, 7891.180
246.5770, 7316.041
247.7920, 6521.137
249.0070, 5649.520
250.2220, 4950.219
251.4370, 4168.242
252.6510, 3556.600
253.8660, 3059.307
255.0800, 2251.367
256.2940, 1969.787
257.5080, 1766.572
258.7220, 1948.725
259.9360, 1726.252
261.1490, 1447.146
262.3630, 1103.418
263.5760, 1338.059
264.7890, 1580.070
266.0020, 1706.455
267.2150, 1951.211
268.4270, 2205.334
269.6400, 2613.830
270.8520, 2814.695
272.0640, 3330.926
273.2760, 3617.521
274.4880, 3807.480
275.7000, 3697.799
276.9120, 3763.473
278.1230, 3391.494
279.3340, 3151.854
280.5450, 2800.555
281.7560, 2346.588
282.9670, 1817.965
284.1780, 1563.674
285.3880, 1127.717
286.5980, 903.0977
287.8090, 839.8066
289.0190, 630.8496
290.2290, 393.2227
291.4380, 430.8125
292.6480, 355.2637
293.8570, 406.3086
295.0670, 510.9863
296.2760, 412.9883
297.4850, 653.3125
298.6930, 524.9570
299.9020, 613.9160
301.1110, 424.1953
302.3190, 327.8867
303.5270, 24.68164
304.7350, 10.41406
305.9430, 362.2852
307.1510, 493.0547
308.3580, 480.7910
309.5660, 393.7305
310.7730, 567.0820
311.9800, 575.9727
313.1870, 487.5703
314.3940, 113.8418
315.6010, 23.80859
316.8070, 73.35938
318.0130, 369.6758
319.2200, 601.1680
320.4260, 983.3281
321.6310, 1513.939
322.8370, 1653.986
324.0430, 1784.412
325.2480, 2439.012
326.4540, 2750.131
327.6590, 3157.754
328.8640, 3763.855
330.0680, 4166.414
331.2730, 4685.416
332.4780, 5276.844
333.6820, 5823.676
334.8860, 6164.902
336.0900, 6685.508
337.2940, 7009.484
338.4980, 7180.816
339.7010, 7110.496
340.9050, 7097.516
342.1080, 6875.867
343.3110, 6483.543
344.5140, 6644.535
345.7170, 6380.840
346.9200, 6488.445
348.1220, 6532.359
349.3240, 6529.551
350.5270, 6867.008
351.7290, 7119.727
352.9310, 8013.699
354.1320, 8650.930
355.3340, 9431.414
356.5350, 10478.15
357.7370, 11519.14
358.9380, 12768.29
360.1390, 14267.85
361.3400, 15662.58
362.5400, 17046.54
363.7410, 18862.74
364.9410, 20614.18
366.1410, 22249.85
367.3410, 23824.76
368.5410, 25086.90
369.7410, 26359.27
370.9400, 27165.87
372.1400, 27433.69
373.3390, 27537.73
374.5380, 26893.00
375.7370, 25887.48
376.9360, 24446.19
378.1350, 23101.10
379.3330, 21362.23
380.5310, 19050.57
381.7300, 17173.12
382.9280, 15446.70
384.1260, 13831.50
385.3230, 12484.36
386.5210, 11232.55
387.7180, 10231.42
388.9160, 9315.512
390.1130, 8560.812
391.3100, 7928.324
392.5060, 7161.051
393.7030, 6893.988
394.9000, 6485.133
396.0960, 5913.484
397.2920, 5822.047
398.4880, 5830.812
399.6840, 4978.789
400.8800, 4743.965
402.0750, 5222.344
403.2710, 4854.926
404.4660, 4420.707
405.6610, 4634.688
406.8560, 4317.871
408.0510, 4196.246
409.2450, 3916.816
410.4400, 3525.582
411.6340, 3282.539
412.8280, 2931.691
414.0220, 2892.035
415.2160, 2563.566
416.4100, 2183.285
417.6030, 1760.191
418.7970, 1865.281
419.9900, 1656.559
421.1830, 1467.020
422.3760, 1440.664
423.5690, 1572.484
424.7610, 1462.488
425.9540, 1341.672
427.1460, 1686.031
428.3380, 1679.570
429.5300, 1738.281
430.7220, 1938.168
431.9140, 2279.230
433.1050, 2434.773
434.2970, 2532.648
435.4880, 2361.648
436.6790, 2327.652
437.8700, 2447.207
439.0610, 2460.344
440.2510, 2579.656
441.4420, 2704.832
442.6320, 2640.191
443.8220, 2345.832
445.0120, 2622.613
446.2020, 2493.918
447.3910, 2669.984
448.5810, 2294.422
449.7700, 2336.871
450.9600, 2426.102
452.1490, 2335.938
453.3370, 2115.094
454.5260, 1945.348
455.7150, 1944.629
456.9030, 1866.219
458.0910, 2038.184
459.2800, 1832.676
460.4670, 1906.348
461.6550, 1954.207
462.8430, 1701.254
464.0300, 1851.477
465.2180, 1529.895
466.4050, 2033.496
467.5920, 1672.289
468.7790, 2299.258
469.9650, 2325.402
471.1520, 2795.719
472.3380, 3113.207
473.5250, 3436.863
474.7110, 3767.688
475.8970, 4202.676
477.0820, 4543.828
478.2680, 4944.148
479.4540, 5241.625
480.6390, 5378.266
481.8240, 5753.066
483.0090, 6153.023
484.1940, 6447.137
485.3780, 6398.406
486.5630, 6606.832
487.7470, 6432.406
488.9320, 6888.137
490.1160, 6968.016
491.3000, 6981.047
492.4830, 6940.223
493.6670, 6857.547
494.8500, 7158.023
496.0340, 7566.637
497.2170, 7654.402
498.4000, 7604.309
499.5820, 7639.359
500.7650, 7968.551
501.9480, 8084.883
503.1300, 7915.355
504.3120, 7802.965
505.4940, 7863.715
506.6760, 7664.605
507.8580, 7579.629
509.0390, 7026.793
510.2210, 6587.086
511.4020, 6236.516
512.5830, 5955.082
513.7640, 5567.773
514.9450, 5238.602
516.1250, 4690.559
517.3060, 4392.648
518.4860, 4256.867
519.6660, 3925.211
520.8460, 4033.684
522.0260, 4277.281
523.2060, 4256.008
524.3850, 4752.859
525.5650, 5070.836
526.7440, 5792.934
527.9230, 6210.160
529.1020, 6875.512
530.2810, 7266.988
531.4590, 7679.586
532.6380, 8440.309
533.8160, 9010.152
534.9940, 9072.117
536.1720, 9419.199
537.3500, 9166.406
538.5270, 9402.730
539.7050, 9128.172
540.8820, 8678.730
542.0590, 8243.406
543.2360, 8353.203
544.4130, 7775.105
545.5900, 7588.121
546.7660, 7245.254
547.9430, 6945.500
549.1190, 6618.375
550.2950, 6310.320
551.4710, 5898.898
552.6470, 5592.586
553.8220, 5243.379
554.9980, 4781.281
556.1730, 4511.285
557.3480, 4071.398
558.5230, 3804.617
559.6980, 3418.941
560.8730, 3040.367
562.0470, 2546.898
563.2220, 2243.531
564.3960, 1992.891
565.5700, 1673.098
566.7440, 1583.031
567.9170, 1221.066
569.0910, 928.1953
570.2640, 880.4219
571.4380, 384.7461
572.6110, 272.0781
573.7840, 12.69531
574.9570, 111.7500
576.1290, 377.1797
577.3020, 518.7344
578.4740, 525.4805
579.6460, 251.4141
580.8180, 582.4180
581.9900, 556.6367
583.1620, 875.0664
584.3330, 684.8555
585.5040, 787.9102
586.6760, 560.2773
587.8470, 538.8555
589.0180, 282.6211
590.1880, 333.4297
591.3590, 639.2227
592.5290, 217.1523
593.7000, 281.0156
594.8700, 235.8477
596.0400, 66.61719
597.2090, 80.76562
598.3790, 151.4648
599.5490, 172.3516
600.7180, 243.0625
601.8870, 246.8242
603.0560, 273.3516
604.2250, 458.0703
605.3940, 436.9883
606.5620, 607.1484
607.7300, 640.3438
608.8990, 536.1328
610.0670, 685.9258
611.2350, 593.9023
612.4020, 522.0977
613.5700, 689.4062
614.7370, 626.8438
615.9050, 719.9023
617.0720, 767.0820
618.2390, 941.8359
619.4060, 1066.676
620.5720, 1321.609
621.7390, 1387.621
622.9050, 1699.699
624.0710, 1892.844
625.2370, 2252.059
626.4030, 2000.340
627.5690, 2135.691
628.7340, 2506.102
629.9000, 2330.574
631.0650, 2545.109
632.2300, 2324.699
633.3950, 2198.355
634.5600, 2094.062
635.7240, 1949.828
636.8890, 1587.652
638.0530, 1395.531
639.2170, 917.4688
640.3810, 516.4570
641.5450, 893.5000
642.7080, 586.5977
643.8720, 602.7461
645.0350, 573.9453
646.1980, 770.1953
647.3610, 497.5000
648.5240, 825.8477
649.6870, 1015.246
650.8490, 1427.691
652.0120, 1463.184
653.1740, 1554.723
654.3360, 1867.309
655.4980, 2253.941
656.6600, 2318.617
657.8210, 2449.332
658.9830, 3104.094
660.1440, 3110.895
661.3050, 3604.738
662.4660, 3584.625
663.6270, 3986.551
664.7870, 4150.512
665.9480, 4210.516
667.1080, 4633.555
668.2680, 4476.199
669.4280, 4603.746
670.5880, 4432.895
671.7480, 4619.078
672.9070, 4892.297
674.0670, 4529.547
675.2260, 4460.836
676.3850, 4569.152
677.5440, 4128.504
678.7030, 4289.883
679.8610, 4294.297
681.0200, 4221.734
682.1780, 4079.203
683.3360, 4056.699
684.4940, 3812.227
685.6520, 3656.777
686.8090, 4043.355
687.9670, 3944.961
689.1240, 3835.594
690.2810, 4279.242
691.4380, 4537.918
692.5950, 4733.617
693.7520, 5167.344
694.9080, 5256.082
696.0650, 5455.844
697.2210, 5901.633
698.3770, 6487.438
699.5330, 6603.258
700.6880, 7270.102
701.8440, 7851.961
702.9990, 8277.836
704.1550, 9030.730
705.3100, 9614.637
706.4650, 10512.56
707.6190, 11005.50
708.7740, 11800.45
709.9290, 12855.41
711.0830, 13705.40
712.2370, 14701.38
713.3910, 15731.08
714.5450, 16900.46
715.6980, 18099.21
716.8520, 19463.99
718.0050, 20749.29
719.1580, 22237.39
720.3110, 23613.68
721.4640, 25356.86
722.6170, 26507.77
723.7700, 27957.28
724.9220, 28546.06
726.0740, 28589.34
727.2260, 28805.24
728.3780, 27559.73
729.5300, 26682.59
730.6810, 25230.40
731.8330, 24625.89
732.9840, 22287.44
734.1350, 21839.28
735.2860, 19011.18
736.4370, 17021.39
737.5880, 14820.68
738.7380, 13053.67
739.8880, 12241.21
741.0390, 11624.70
742.1890, 11220.53
743.3380, 10891.57
744.4880, 10646.00
745.6380, 10755.77
746.7870, 10887.57
747.9360, 10890.61
749.0850, 11177.60
750.2340, 11584.81
751.3830, 11815.54
752.5310, 12313.74
753.6800, 12454.06
754.8280, 13085.66
755.9760, 13701.25
757.1240, 13869.64
758.2720, 14212.52
759.4190, 14445.82
760.5670, 14368.86
761.7140, 14500.29
762.8610, 14681.43
764.0080, 14519.24
765.1550, 13897.62
766.3020, 13823.91
767.4480, 13436.18
768.5950, 13345.43
769.7410, 12994.66
770.8870, 12776.87
772.0330, 12657.05
773.1780, 12577.23
774.3240, 12313.37
775.4690, 11987.50
776.6140, 11871.60
777.7590, 12148.68
778.9040, 11391.73
780.0490, 11744.77
781.1940, 11932.78
782.3380, 11738.77
783.4820, 11644.73
784.6260, 11707.67
785.7700, 11796.20
786.9140, 11894.66
788.0580, 12212.33
789.2010, 12301.16
790.3450, 12520.97
791.4880, 12648.10
792.6310, 12882.50
793.7730, 12771.23
794.9160, 12894.93
796.0590, 12775.60
797.2010, 12432.24
798.3430, 12363.86
799.4850, 12194.44
800.6270, 12170.99
801.7690, 12222.52
802.9100, 12423.02
804.0520, 12464.48
805.1930, 13036.91
806.3340, 13383.32
807.4750, 14047.69
808.6160, 14773.04
809.7560, 15465.34
810.8970, 16753.62
812.0370, 17711.88
813.1770, 18598.09
814.3170, 19207.27
815.4570, 19970.43
816.5960, 20519.54
817.7360, 21002.62
818.8750, 21229.67
820.0140, 21120.68
821.1530, 20526.67
822.2920, 20244.61
823.4310, 19522.52
824.5690, 18834.39
825.7070, 18044.23
826.8460, 16997.03
827.9840, 15817.79
829.1220, 14953.52
830.2590, 13387.21
831.3970, 12842.87
832.5340, 11489.48
833.6710, 10848.06
834.8080, 9794.602
835.9450, 9104.102
837.0820, 8364.559
838.2190, 7500.980
839.3550, 6976.359
840.4910, 6273.703
841.6270, 5516.008
842.7630, 4859.270
843.8990, 4307.488
845.0350, 3749.668
846.1700, 3048.805
847.3060, 2549.902
848.4410, 2214.957
849.5760, 1838.969
850.7100, 1529.965
851.8450, 1180.961
852.9800, 901.0234
854.1140, 674.1836
855.2480, 494.4062
856.3820, 359.7305
857.5160, 277.1367
858.6500, 209.9609
859.7830, 362.2969
860.9170, 160.0977
862.0500, 172.0312
863.1830, 147.0469
864.3160, 51.86328
865.4480, 227.8320
866.5810, 124.9453
867.7130, 167.0742
868.8460, 190.3398
869.9780, 138.7461
871.1100, 205.2695
872.2410, 610.9883
873.3730, 254.1445
874.5050, 422.5625
875.6360, 414.3320
876.7670, 205.4492
877.8980, 273.8047
879.0290, 292.4336
880.1590, 489.3477
881.2900, 398.6484
882.4200, 351.2930
883.5500, 307.2578
884.6800, 258.5117
885.8100, 374.0430
886.9400, 31.89844
888.0690, 39.89844
889.1990, 90.05469
890.3280, 127.6328
891.4570, 128.2383
892.5860, 88.75781
893.7140, 113.1719
894.8430, 271.5117
895.9710, 381.7812
897.1000, 488.0000
898.2280, 367.1680
899.3560, 307.3438
900.4830, 487.4492
901.6110, 682.5117
902.7380, 621.5430
903.8660, 830.5195
904.9930, 698.4648
906.1200, 744.3867
907.2460, 837.2930
908.3730, 792.1523
909.5000, 996.9844
910.6260, 831.7734
911.7520, 798.5273
912.8780, 1208.234
914.0040, 922.8906
915.1290, 960.5000
916.2550, 925.0898
917.3800, 1154.633
918.5050, 1178.156
919.6300, 1026.648
920.7550, 1014.129
921.8800, 1191.555
923.0040, 1025.961
924.1290, 1449.316
925.2530, 1459.637
926.3770, 1424.922
927.5010, 1168.160
928.6250, 1257.398
929.7480, 1192.605
930.8720, 1542.816
931.9950, 1495.020
933.1180, 1657.180
934.2410, 1639.289
935.3640, 1713.391
936.4860, 1711.445
937.6090, 1754.035
938.7310, 1728.531
939.8530, 1846.527
940.9750, 1903.539
942.0970, 1972.895
943.2180, 1965.523
944.3400, 2012.445
945.4610, 2247.324
946.5820, 2184.148
947.7030, 2553.934
948.8240, 2548.664
949.9450, 2834.348
951.0650, 2840.164
952.1860, 3100.574
953.3060, 2900.113
954.4260, 2958.605
955.5460, 3166.051
956.6650, 3161.445
957.7850, 3334.801
958.9040, 3568.102
960.0230, 3769.355
961.1420, 3804.566
962.2610, 3965.727
963.3800, 4229.836
964.4990, 4158.902
965.6170, 4488.922
966.7350, 4559.895
967.8530, 4529.820
968.9710, 4795.699
970.0890, 5103.531
971.2070, 5092.320
972.3240, 5149.059
973.4410, 5591.750
974.5580, 5728.398
975.6750, 5826.000
976.7920, 5925.559
977.9090, 5946.070
979.0250, 6064.195
980.1410, 6206.957
981.2580, 6202.328
982.3740, 6388.656
983.4890, 6367.941
984.6050, 6446.184
985.7200, 6127.375
986.8360, 6141.527
987.9510, 5926.629
989.0660, 6012.691
990.1810, 5605.699
991.2950, 5700.371
992.4100, 5430.426
993.5240, 5004.684
994.6390, 4888.188
995.7530, 4704.406
996.8660, 4704.715
997.9800, 4658.492
999.0940, 4596.535
1000.207, 4848.398
1001.320, 4451.590
1002.433, 4892.000
1003.546, 4748.828
1004.659, 4354.762
1005.772, 4285.398
1006.884, 4011.449
1007.996, 4201.789
1009.108, 4097.461
1010.220, 4297.559
1011.332, 4251.684
1012.444, 4598.590
1013.555, 4763.113
1014.666, 4672.219
1015.777, 5026.969
1016.888, 5138.656
1017.999, 5511.074
1019.110, 5761.531
1020.220, 5863.723
1021.331, 6018.480
1022.441, 6408.637
1023.551, 6458.379
1024.661, 6887.133
1025.770, 7053.863
1026.880, 7264.715
1027.989, 7399.086
1029.098, 7715.961
1030.207, 7973.211
1031.316, 8200.355
1032.425, 8618.824
1033.533, 8974.066
1034.642, 9310.227
1035.750, 9818.828
1036.858, 9737.680
1037.966, 10253.04
1039.073, 11260.29
1040.181, 11951.59
1041.288, 11612.18
1042.396, 11744.05
1043.503, 12126.99
1044.610, 12501.77
1045.716, 12740.52
1046.823, 13099.22
1047.929, 13212.06
1049.036, 13619.23
1050.142, 13563.35
1051.248, 13781.73
1052.353, 14107.29
1053.459, 14413.93
1054.564, 14501.40
1055.670, 14413.70
1056.775, 15029.13
1057.880, 15120.61
1058.985, 15519.49
1060.089, 15967.91
1061.194, 16532.17
1062.298, 16989.61
1063.402, 17528.59
1064.506, 17730.36
1065.610, 18535.20
1066.713, 19001.60
1067.817, 19388.75
1068.920, 19342.13
1070.023, 19686.83
1071.126, 19567.46
1072.229, 19733.69
1073.332, 19324.65
1074.435, 18900.70
1075.537, 18442.26
1076.639, 17724.41
1077.741, 17474.91
1078.843, 16446.03
1079.945, 15650.14
1081.046, 15098.23
1082.148, 14389.30
1083.249, 13831.37
1084.350, 13064.41
1085.451, 12098.43
1086.551, 11458.45
1087.652, 10629.45
1088.752, 10152.42
1089.853, 9357.242
1090.953, 8721.227
1092.053, 8080.273
1093.152, 7460.191
1094.252, 7195.102
1095.351, 6708.988
1096.451, 6268.066
1097.550, 6026.734
1098.649, 5549.586
1099.748, 4998.422
1100.846, 4917.250
1101.945, 4476.062
1103.043, 4158.859
1104.141, 3941.641
1105.239, 3999.418
1106.337, 3468.180
1107.434, 3402.926
1108.532, 3231.668
1109.629, 2887.395
1110.726, 2933.109
1111.823, 2953.809
1112.920, 2608.504
1114.017, 2258.188
1115.113, 2389.859
1116.210, 2348.527
1117.306, 1978.176
1118.402, 1930.820
1119.498, 1954.453
1120.593, 1633.078
1121.689, 1544.695
1122.784, 1593.301
1123.879, 1433.902
1124.974, 1489.496
1126.069, 1426.090
1127.164, 1275.680
1128.259, 1025.270
1129.353, 1280.871
1130.447, 1296.477
1131.541, 978.1250
1132.635, 985.8633
1133.729, 832.6680
1134.822, 739.5508
1135.916, 523.5195
1137.009, 618.5508
1138.102, 422.6719
1139.195, 798.9922
1140.288, 294.4102
1141.380, 356.9727
1142.473, 488.6875
1143.565, 30.51562
1144.657, 294.3828
1145.749, 329.3867
1146.841, 195.5625
1147.932, 183.8750
1149.024, 203.3164
1150.115, 98.87891
1151.206, 157.5430
1152.297, 25.65625
1153.388, 92.17578
1154.479, 91.94531
1155.569, 23.04688
1156.659, 35.84766
1157.750, 117.7578
1158.839, 42.31250
1159.929, 137.6094
1161.019, 31.46094
1162.108, 100.4492
1163.198, 240.6445
1164.287, 116.1328
1165.376, 27.08984
1166.465, 34.32812
1167.553, 18.40625
1168.642, 63.86719
1169.730, 109.1797
1170.818, 93.55859
1171.906, 32.00000
1172.994, 53.93750
1174.082, 37.96094
1175.170, 34.48828
1176.257, 18.96094
1177.344, 28.41406
1178.431, 8.917969
1179.518, 87.69531
1180.605, 1.687500
1181.691, 121.9453
1182.778, 27.65625
1183.864, 125.3906
1184.950, 273.8008
1186.036, 87.01562
1187.122, 135.1094
1188.207, 24.76562
1189.292, 47.67188
1190.378, 59.38281
1191.463, 164.5625
1192.548, 55.60938
1193.632, 175.7031
1194.717, 139.8984
1195.801, 8.816406
1196.886, 42.52344
1197.970, 129.7773
1199.054, 38.83984
1200.137, 122.5508
1201.221, 169.0156
1202.305, 78.41406
1203.388, 238.1602
1204.471, 143.8750
1205.554, 6.675781
1206.637, 81.50000
1207.719, 15.67578
1208.802, 183.8438
1209.884, 88.00781
1210.966, 190.1680
1212.048, 441.3281
1213.130, 386.5898
1214.212, 219.6406
1215.293, 502.7930
1216.374, 484.9453
1217.456, 587.0977
1218.536, 545.2461
1219.617, 303.3945
1220.698, 613.5352
1221.778, 469.6875
1222.859, 622.8359
1223.939, 581.9922
1225.019, 682.1484
1226.099, 584.3008
1227.178, 825.4570
1228.258, 574.6094
1229.337, 926.7617
1230.417, 919.9141
1231.496, 815.0664
1232.574, 1014.215
1233.653, 1072.363
1234.732, 1013.516
1235.810, 1311.672
1236.888, 1158.832
1237.966, 1350.984
1239.044, 1153.168
1240.122, 1213.352
1241.199, 1055.570
1242.277, 1354.809
1243.354, 1172.047
1244.431, 1269.285
1245.508, 1173.523
1246.585, 1106.762
1247.661, 1122.004
1248.738, 1143.180
1249.814, 1283.492
1250.890, 1204.734
1251.966, 1210.984
1253.042, 1058.230
1254.117, 1262.480
1255.193, 1216.559
1256.268, 1058.980
1257.343, 1244.230
1258.418, 1211.488
1259.493, 1077.738
1260.567, 1064.000
1261.642, 1216.254
1262.716, 1201.516
1263.790, 1239.777
1264.864, 1498.035
1265.938, 1082.297
1267.011, 1196.559
1268.085, 1058.820
1269.158, 1315.078
1270.231, 989.3359
1271.304, 1017.594
1272.377, 1319.844
1273.450, 960.9492
1274.522, 1327.195
1275.594, 908.4375
1276.666, 953.6758
1277.738, 1220.906
1278.810, 1196.133
1279.882, 1170.355
1280.953, 936.5664
1282.025, 1182.680
1283.096, 1265.879
1284.167, 1036.336
1285.238, 678.4531
1286.308, 722.5820
1287.379, 939.7461
1288.449, 1074.051
1289.519, 958.2031
1290.589, 748.7695
1291.659, 876.9102
1292.729, 938.5312
1293.798, 872.6562
1294.868, 949.2695
1295.937, 998.4922
1297.006, 660.4531
1298.075, 992.8711
1299.143, 793.3906
1300.212, 745.8320
1301.280, 795.9805
1302.348, 680.8086
1303.416, 723.5547
1304.484, 858.2031
1305.552, 748.4531
1306.620, 859.3828
1307.687, 761.1602
1308.754, 764.5781
1309.821, 943.0391
1310.888, 985.2188
1311.955, 948.0547
1313.021, 763.0898
1314.088, 809.1367
1315.154, 918.3398
1316.220, 815.3750
1317.286, 867.3594
1318.352, 803.9219
1319.417, 771.9336
1320.483, 878.0859
1321.548, 766.0430
1322.613, 668.4375
1323.678, 777.0430
1324.743, 588.5469
1325.807, 410.4805
1326.872, 684.6562
1327.936, 620.5781
1329.000, 430.1719
1330.064, 334.8281
1331.128, 499.8711
1332.191, 301.1641
1333.255, 198.3672
1334.318, 704.0391
1335.381, 531.1055
1336.444, 441.8242
