##NAMES=Dravite
##RRUFFID=R060280
##IDEAL CHEMISTRY=NaMg_3_Al_6_(Si_6_O_18_)(BO_3_)_3_(OH)_3_OH
##LOCALITY=near Merelani, Tanzania
##OWNER=RRUFF
##SOURCE=Herb Obodda
##DESCRIPTION=Green fragment
##STATUS=The identification of this mineral has been confirmed by X-ray diffraction and chemical analysis
##URL=rruff.info/R060280
##MEASURED CHEMISTRY=(Na_0.45_Ca_0.40_[box]_0.15_)(Mg_0.89_Al_0.07_Ti_0.04_)_3_Al_6_(BO_3_)_3_(Si_0.93_B_0.07_)_6_O_18_((OH)_0.95_O_0.05_)_4_
##PIN_ID=L01324
##ORIENTATION=Laser parallel to a* (1 0 0). Fiducial mark perpendicular to laser is parallel to c [0 0 1]
168.4860, 0.0000000E+00
169.7110, 64.01758
170.9360, 182.2812
172.1610, 271.7773
173.3850, 144.4062
174.6100, 270.7070
175.8340, 60.70117
177.0580, 17.42383
178.2820, 30.21289
179.5050, 40.40820
180.7290, 13.92773
181.9520, 16.81055
183.1760, 58.46094
184.3990, 145.7852
185.6220, 259.7188
186.8450, 480.0410
188.0670, 883.4805
189.2900, 1122.797
190.5120, 1506.758
191.7340, 2005.170
192.9560, 2193.857
194.1780, 2545.668
195.4000, 2807.469
196.6220, 3354.148
197.8430, 3644.600
199.0640, 4345.775
200.2860, 4865.080
201.5070, 5739.209
202.7270, 6662.721
203.9480, 7604.584
205.1690, 8639.779
206.3890, 10086.23
207.6090, 11439.85
208.8290, 13304.54
210.0490, 14936.25
211.2690, 17048.92
212.4890, 18500.50
213.7080, 20108.98
214.9280, 20921.30
216.1470, 21087.46
217.3660, 20926.43
218.5850, 20175.18
219.8030, 18949.69
221.0220, 17531.95
222.2400, 15818.94
223.4590, 14623.65
224.6770, 13423.05
225.8950, 12524.15
227.1120, 11849.20
228.3300, 11161.34
229.5480, 11046.78
230.7650, 10958.90
231.9820, 11012.14
233.1990, 11208.64
234.4160, 11488.40
235.6330, 11866.38
236.8490, 12353.09
238.0660, 12873.55
239.2820, 13094.77
240.4980, 13534.71
241.7140, 14183.25
242.9300, 14065.94
244.1460, 14251.77
245.3610, 13930.74
246.5770, 13267.83
247.7920, 12692.09
249.0070, 11676.55
250.2220, 10825.27
251.4370, 9781.270
252.6510, 8609.547
253.8660, 7736.133
255.0800, 6742.023
256.2940, 5977.236
257.5080, 5503.770
258.7220, 5251.633
259.9360, 4882.824
261.1490, 4298.355
262.3630, 3845.221
263.5760, 3605.428
264.7890, 3666.975
266.0020, 3625.865
267.2150, 3360.096
268.4270, 3439.666
269.6400, 3401.578
270.8520, 3278.832
272.0640, 3313.426
273.2760, 3254.355
274.4880, 2956.617
275.7000, 2704.209
276.9120, 2540.133
278.1230, 2179.387
279.3340, 1890.967
280.5450, 1786.871
281.7560, 1442.098
282.9670, 1046.643
284.1780, 821.5078
285.3880, 701.6875
286.5980, 457.1836
287.8090, 261.9902
289.0190, 13.10938
290.2290, 75.15430
291.4380, 165.0742
292.6480, 176.6992
293.8570, 205.3633
295.0670, 134.6953
296.2760, 111.5508
297.4850, 120.6836
298.6930, 72.06055
299.9020, 180.6719
301.1110, 164.2188
302.3190, 298.6562
303.5270, 212.0254
304.7350, 529.0000
305.9430, 651.5762
307.1510, 785.8359
308.3580, 1057.600
309.5660, 1143.639
310.7730, 1396.949
311.9800, 1772.443
313.1870, 2087.111
314.3940, 2085.861
315.6010, 2305.336
316.8070, 2180.559
318.0130, 2020.598
319.2200, 2052.180
320.4260, 2106.639
321.6310, 2169.287
322.8370, 2239.064
324.0430, 2290.541
325.2480, 2438.859
326.4540, 2654.457
327.6590, 2832.672
328.8640, 3636.412
330.0680, 4130.891
331.2730, 4696.805
332.4780, 5136.133
333.6820, 5843.863
334.8860, 6548.980
336.0900, 6944.473
337.2940, 7244.334
338.4980, 7756.549
339.7010, 7990.107
340.9050, 8236.004
342.1080, 8419.230
343.3110, 8428.771
344.5140, 8484.629
345.7170, 8411.787
346.9200, 8725.240
348.1220, 8792.980
349.3240, 9095.002
350.5270, 9615.301
351.7290, 10109.87
352.9310, 10756.71
354.1320, 12047.80
355.3340, 12951.16
356.5350, 14290.76
357.7370, 16213.62
358.9380, 18029.72
360.1390, 20377.06
361.3400, 22706.64
362.5400, 25082.45
363.7410, 27194.50
364.9410, 29970.77
366.1410, 31833.27
367.3410, 33519.99
368.5410, 34567.93
369.7410, 35016.08
370.9400, 34507.46
372.1400, 33409.03
373.3390, 31254.82
374.5380, 28973.80
375.7370, 26436.95
376.9360, 23728.26
378.1350, 21169.74
379.3330, 18832.42
380.5310, 16589.30
381.7300, 14892.37
382.9280, 13173.62
384.1260, 11489.05
385.3230, 10571.67
386.5210, 9339.463
387.7180, 8535.434
388.9160, 7943.582
390.1130, 7372.906
391.3100, 6885.236
392.5060, 6420.082
393.7030, 6128.936
394.9000, 5783.961
396.0960, 5486.160
397.2920, 5314.533
398.4880, 5316.072
399.6840, 5225.785
400.8800, 5088.523
402.0750, 5037.715
403.2710, 4835.930
404.4660, 4496.309
405.6610, 4372.852
406.8560, 3843.555
408.0510, 3690.420
409.2450, 3469.443
410.4400, 2950.625
411.6340, 2761.963
412.8280, 2349.455
414.0220, 1947.100
415.2160, 1675.900
416.4100, 1470.850
417.6030, 1157.949
418.7970, 1088.352
419.9900, 705.1445
421.1830, 756.6836
422.3760, 531.7188
423.5690, 402.1562
424.7610, 475.1875
425.9540, 463.1914
427.1460, 427.8047
428.3380, 452.1465
429.5300, 508.5586
430.7220, 430.0547
431.9140, 695.0273
433.1050, 803.5840
434.2970, 942.7930
435.4880, 839.9629
436.6790, 963.2227
437.8700, 921.3320
439.0610, 978.4453
440.2510, 1125.576
441.4420, 1056.670
442.6320, 1305.420
443.8220, 1236.639
445.0120, 1283.234
446.2020, 1388.961
447.3910, 1255.730
448.5810, 1379.957
449.7700, 1254.262
450.9600, 979.4590
452.1490, 890.8086
453.3370, 800.5703
454.5260, 959.0527
455.7150, 838.5996
456.9030, 615.2129
458.0910, 835.9570
459.2800, 666.8340
460.4670, 567.8457
461.6550, 868.9961
462.8430, 677.2832
464.0300, 407.7051
465.2180, 677.2715
466.4050, 484.9785
467.5920, 629.8184
468.7790, 472.7949
469.9650, 613.9004
471.1520, 797.1289
472.3380, 814.4844
473.5250, 979.9609
474.7110, 1273.555
475.8970, 1079.264
477.0820, 1292.090
478.2680, 1439.025
479.4540, 1761.072
480.6390, 1857.230
481.8240, 1964.494
483.0090, 2091.865
484.1940, 2249.342
485.3780, 2550.922
486.5630, 2739.605
487.7470, 2876.389
488.9320, 3152.270
490.1160, 3151.250
491.3000, 3224.324
492.4830, 3460.496
493.6670, 3339.762
494.8500, 3808.119
496.0340, 4251.566
497.2170, 4123.104
498.4000, 4374.732
499.5820, 4541.449
500.7650, 5005.250
501.9480, 5009.137
503.1300, 5193.109
504.3120, 5273.164
505.4940, 5342.305
506.6760, 5231.523
507.8580, 5262.822
509.0390, 4842.197
510.2210, 4607.652
511.4020, 4324.184
512.5830, 4034.791
513.7640, 3712.475
514.9450, 3343.232
516.1250, 3092.059
517.3060, 2894.961
518.4860, 2780.932
519.6660, 2525.172
520.8460, 2166.086
522.0260, 2136.266
523.2060, 2020.514
524.3850, 1919.828
525.5650, 2217.209
526.7440, 2236.654
527.9230, 2384.162
529.1020, 2602.734
530.2810, 2842.369
531.4590, 3020.062
532.6380, 3129.820
533.8160, 3527.633
534.9940, 3725.508
536.1720, 3613.438
537.3500, 3426.428
538.5270, 3562.473
539.7050, 3356.572
540.8820, 3306.729
542.0590, 2948.934
543.2360, 2665.193
544.4130, 2642.506
545.5900, 2376.867
546.7660, 2159.279
547.9430, 2038.742
549.1190, 1593.252
550.2950, 1351.809
551.4710, 1043.412
552.6470, 1007.062
553.8220, 839.7578
554.9980, 651.4961
556.1730, 595.2773
557.3480, 362.1035
558.5230, 399.9707
559.6980, 59.87891
560.8730, 88.80664
562.0470, 2.761719
563.2220, 333.2969
564.3960, 208.5195
565.5700, 474.8535
566.7440, 434.4277
567.9170, 439.2285
569.0910, 446.2578
570.2640, 500.5195
571.4380, 585.0469
572.6110, 441.8828
573.7840, 549.9551
574.9570, 480.3184
576.1290, 696.9453
577.3020, 440.9277
578.4740, 184.1484
579.6460, 353.4766
580.8180, 276.9941
581.9900, 223.6641
583.1620, 522.4648
584.3330, 150.5156
585.5040, 189.6621
586.6760, 182.8926
587.8470, 124.7539
589.0180, 176.4219
590.1880, 29.80273
591.3590, 134.9590
592.5290, 295.8438
593.7000, 163.8457
594.8700, 323.9824
596.0400, 555.2422
597.2090, 520.6660
598.3790, 637.2090
599.5490, 645.9453
600.7180, 863.7852
601.8870, 976.7754
603.0560, 932.9121
604.2250, 886.1992
605.3940, 1332.588
606.5620, 1199.078
607.7300, 1247.691
608.8990, 1303.373
610.0670, 1319.123
611.2350, 1461.811
612.4020, 1586.439
613.5700, 1756.771
614.7370, 1921.756
615.9050, 2097.789
617.0720, 2246.867
618.2390, 2445.975
619.4060, 2693.705
620.5720, 3034.299
621.7390, 3270.484
622.9050, 3504.684
624.0710, 3869.893
625.2370, 3908.111
626.4030, 4362.338
627.5690, 4552.570
628.7340, 4410.807
629.9000, 4600.053
631.0650, 4516.301
632.2300, 4592.555
633.3950, 4357.812
634.5600, 4271.070
635.7240, 3793.334
636.8890, 3903.600
638.0530, 3659.191
639.2170, 3676.141
640.3810, 3435.410
641.5450, 3696.678
642.7080, 3684.947
643.8720, 3841.219
645.0350, 3942.484
646.1980, 4350.750
647.3610, 4790.014
648.5240, 4860.271
649.6870, 5104.527
650.8490, 5258.777
652.0120, 5958.025
653.1740, 6341.271
654.3360, 6478.508
655.4980, 6704.738
656.6600, 6950.965
657.8210, 7337.182
658.9830, 7688.393
660.1440, 7990.635
661.3050, 8525.791
662.4660, 8701.977
663.6270, 9164.156
664.7870, 9661.318
665.9480, 10143.48
667.1080, 10200.62
668.2680, 10604.76
669.4280, 10987.88
670.5880, 10856.99
671.7480, 11103.09
672.9070, 10888.18
674.0670, 11124.25
675.2260, 10655.31
676.3850, 10519.36
677.5440, 10262.39
678.7030, 9929.406
679.8610, 9779.406
681.0200, 9768.395
682.1780, 9296.363
683.3360, 9287.318
684.4940, 9346.258
685.6520, 9439.176
686.8090, 9569.129
687.9670, 9617.965
689.1240, 9993.830
690.2810, 10216.68
691.4380, 10596.51
692.5950, 11118.32
693.7520, 11816.11
694.9080, 12521.88
696.0650, 13585.63
697.2210, 14176.36
698.3770, 15378.07
699.5330, 16145.60
700.6880, 16936.86
701.8440, 18090.51
702.9990, 18472.78
704.1550, 18945.76
705.3100, 19001.28
706.4650, 18921.93
707.6190, 18386.10
708.7740, 17908.66
709.9290, 17134.84
711.0830, 15821.88
712.2370, 14322.15
713.3910, 12921.92
714.5450, 11333.63
715.6980, 10056.50
716.8520, 9032.457
718.0050, 7891.445
719.1580, 7048.859
720.3110, 6527.250
721.4640, 5692.729
722.6170, 4986.676
723.7700, 4602.746
724.9220, 4092.791
726.0740, 3704.963
727.2260, 3839.004
728.3780, 3595.016
729.5300, 3480.094
730.6810, 3512.354
731.8330, 3415.320
732.9840, 3360.170
734.1350, 3343.994
735.2860, 3423.725
736.4370, 3483.148
737.5880, 3603.074
738.7380, 3775.951
739.8880, 3893.107
741.0390, 4076.561
742.1890, 4280.922
743.3380, 4449.164
744.4880, 4818.520
745.6380, 5107.193
746.7870, 5418.873
747.9360, 5949.744
749.0850, 6280.562
750.2340, 6958.588
751.3830, 7308.939
752.5310, 7815.723
753.6800, 8329.904
754.8280, 9103.746
755.9760, 9594.391
757.1240, 9878.559
758.2720, 10099.02
759.4190, 10077.56
760.5670, 9978.580
761.7140, 9694.676
762.8610, 9772.555
764.0080, 8849.496
765.1550, 8567.408
766.3020, 8171.289
767.4480, 7852.141
768.5950, 7362.961
769.7410, 7004.748
770.8870, 6817.504
772.0330, 6493.229
773.1780, 6294.922
774.3240, 6391.584
775.4690, 5779.215
776.6140, 6006.812
777.7590, 5951.377
778.9040, 5759.912
780.0490, 5758.414
781.1940, 5735.887
782.3380, 5755.324
783.4820, 5676.732
784.6260, 5862.109
785.7700, 6044.451
786.9140, 5835.766
788.0580, 5942.047
789.2010, 5911.297
790.3450, 6060.516
791.4880, 6122.703
792.6310, 6099.855
793.7730, 6320.980
794.9160, 6318.072
796.0590, 6136.129
797.2010, 6126.156
798.3430, 6282.152
799.4850, 6290.115
800.6270, 6069.049
801.7690, 6217.947
802.9100, 6541.814
804.0520, 6462.650
805.1930, 6809.457
806.3340, 6771.227
807.4750, 7182.965
808.6160, 7728.676
809.7560, 8245.350
810.8970, 8677.990
812.0370, 9297.602
813.1770, 9882.178
814.3170, 10113.72
815.4570, 10712.23
816.5960, 11015.71
817.7360, 11044.16
818.8750, 11489.57
820.0140, 11121.95
821.1530, 10993.30
822.2920, 10584.62
823.4310, 10557.90
824.5690, 10048.14
825.7070, 9447.357
826.8460, 9055.535
827.9840, 8202.684
829.1220, 7767.795
830.2590, 6958.875
831.3970, 6543.920
832.5340, 6186.930
833.6710, 5531.908
834.8080, 5388.854
835.9450, 4693.762
837.0820, 4245.650
838.2190, 3970.510
839.3550, 3532.359
840.4910, 3300.275
841.6270, 2772.234
842.7630, 2302.295
843.8990, 1961.453
845.0350, 1848.711
846.1700, 1524.066
847.3060, 1447.535
848.4410, 1166.141
849.5760, 864.8477
850.7100, 639.6777
851.8450, 561.6250
852.9800, 271.7344
854.1140, 255.9414
855.2480, 124.1836
856.3820, 89.48828
857.5160, 156.8340
858.6500, 51.78711
859.7830, 62.63281
860.9170, 61.94531
862.0500, 198.4277
863.1830, 88.82812
864.3160, 223.8242
865.4480, 48.68945
866.5810, 318.6348
867.7130, 234.8398
868.8460, 333.2656
869.9780, 262.9609
871.1100, 410.8965
872.2410, 249.1465
873.3730, 526.6289
874.5050, 190.4883
875.6360, 362.5488
876.7670, 370.9023
877.8980, 378.5508
879.0290, 173.5000
880.1590, 207.6406
881.2900, 276.9922
882.4200, 70.58984
883.5500, 90.32422
884.6800, 106.1875
885.8100, 30.62695
886.9400, 52.60938
888.0690, 12.60352
889.1990, 3.951172
890.3280, 15.39844
891.4570, 58.05273
892.5860, 6.550781
893.7140, 119.7676
894.8430, 306.0234
895.9710, 245.2363
897.1000, 518.4023
898.2280, 441.5488
899.3560, 472.6699
900.4830, 558.7578
901.6110, 521.8066
902.7380, 738.8594
903.8660, 584.8730
904.9930, 723.8809
906.1200, 897.8867
907.2460, 877.8613
908.3730, 848.7988
909.5000, 1203.709
910.6260, 907.5859
911.7520, 813.4375
912.8780, 1417.279
914.0040, 1090.125
915.1290, 899.9922
916.2550, 1289.836
917.3800, 1110.682
918.5050, 1395.543
919.6300, 1448.455
920.7550, 1165.332
921.8800, 1413.234
923.0040, 1369.121
924.1290, 1041.977
925.2530, 1263.844
926.3770, 1280.676
927.5010, 1382.471
928.6250, 1585.309
929.7480, 1483.113
930.8720, 1620.887
931.9950, 1567.656
933.1180, 1704.410
934.2410, 1585.174
935.3640, 1870.902
936.4860, 2206.621
937.6090, 2336.305
938.7310, 2269.994
939.8530, 2228.650
940.9750, 2313.273
942.0970, 2359.709
943.2180, 2372.930
944.3400, 2550.926
945.4610, 2523.430
946.5820, 2534.895
947.7030, 2793.326
948.8240, 2853.725
949.9450, 3105.090
951.0650, 2990.418
952.1860, 3485.715
953.3060, 3885.979
954.4260, 4110.207
955.5460, 3604.402
956.6650, 3591.562
957.7850, 3895.691
958.9040, 4225.789
960.0230, 4064.848
961.1420, 4235.877
962.2610, 4324.873
963.3800, 4557.834
964.4990, 4568.764
965.6170, 4895.660
966.7350, 4884.523
967.8530, 5138.352
968.9710, 5032.148
970.0890, 5173.914
971.2070, 5236.646
972.3240, 5336.344
973.4410, 5364.771
974.5580, 5236.648
975.6750, 5420.250
976.7920, 5407.818
977.9090, 5503.352
979.0250, 5549.852
980.1410, 5528.318
981.2580, 5324.748
982.3740, 5353.143
983.4890, 5030.500
984.6050, 5120.822
985.7200, 4947.105
986.8360, 4895.350
987.9510, 4649.350
989.0660, 4493.145
990.1810, 4489.500
991.2950, 4470.219
992.4100, 4412.836
993.5240, 4224.348
994.6390, 4216.326
995.7530, 4176.002
996.8660, 4110.836
997.9800, 4174.062
999.0940, 4447.270
1000.207, 4380.367
1001.320, 4630.426
1002.433, 4704.656
1003.546, 4729.623
1004.659, 4650.930
1005.772, 4607.875
1006.884, 4621.918
1007.996, 4723.490
1009.108, 4984.113
1010.220, 5089.904
1011.332, 5280.141
1012.444, 5467.879
1013.555, 5498.469
1014.666, 5902.914
1015.777, 5955.006
1016.888, 6093.055
1017.999, 6709.900
1019.110, 6828.734
1020.220, 7078.326
1021.331, 7472.555
1022.441, 7752.480
1023.551, 7884.801
1024.661, 7935.045
1025.770, 8096.762
1026.880, 8207.344
1027.989, 8578.227
1029.098, 8923.115
1030.207, 9043.367
1031.316, 9000.828
1032.425, 9166.457
1033.533, 9538.908
1034.642, 9494.182
1035.750, 9888.582
1036.858, 10279.30
1037.966, 10363.78
1039.073, 10636.57
1040.181, 10575.22
1041.288, 11076.36
1042.396, 11073.64
1043.503, 11266.44
1044.610, 11592.40
1045.716, 11577.23
1046.823, 11697.77
1047.929, 12042.75
1049.036, 11943.07
1050.142, 12253.40
1051.248, 12135.88
1052.353, 12191.02
1053.459, 12316.09
1054.564, 12372.98
1055.670, 12046.21
1056.775, 12046.84
1057.880, 12372.51
1058.985, 12076.48
1060.089, 12200.42
1061.194, 12088.19
1062.298, 12402.19
1063.402, 12102.01
1064.506, 12184.05
1065.610, 12290.37
1066.713, 12355.05
1067.817, 12343.88
1068.920, 12190.54
1070.023, 12254.34
1071.126, 11993.59
1072.229, 11805.36
1073.332, 11811.11
1074.435, 11701.84
1075.537, 11293.56
1076.639, 11533.27
1077.741, 10939.46
1078.843, 10650.14
1079.945, 9964.797
1081.046, 9985.438
1082.148, 9522.062
1083.249, 9153.670
1084.350, 8835.266
1085.451, 8501.844
1086.551, 7777.410
1087.652, 7372.957
1088.752, 7046.492
1089.853, 6880.012
1090.953, 6197.518
1092.053, 5850.008
1093.152, 5619.484
1094.252, 5236.947
1095.351, 5104.395
1096.451, 4758.828
1097.550, 4438.250
1098.649, 4343.656
1099.748, 3951.047
1100.846, 4070.428
1101.945, 3897.793
1103.043, 3737.146
1104.141, 3415.484
1105.239, 3537.812
1106.337, 3330.125
1107.434, 3416.428
1108.532, 3524.715
1109.629, 3257.992
1110.726, 2899.256
1111.823, 2859.508
1112.920, 2770.750
1114.017, 2815.977
1115.113, 2578.195
1116.210, 2783.404
1117.306, 2258.600
1118.402, 2580.785
1119.498, 2324.959
1120.593, 2177.125
1121.689, 2276.281
1122.784, 2282.438
1123.879, 2131.133
1124.974, 1883.752
1126.069, 1823.939
1127.164, 1537.133
1128.259, 1291.363
1129.353, 1294.590
1130.447, 1258.820
1131.541, 1042.131
1132.635, 831.4746
1133.729, 866.9258
1134.822, 784.4590
1135.916, 655.1035
1137.009, 670.8379
1138.102, 348.7031
1139.195, 547.6602
1140.288, 309.7773
1141.380, 129.9727
1142.473, 276.2812
1143.565, 272.7129
1144.657, 299.2676
1145.749, 174.8926
1146.841, 87.59766
1147.932, 104.3965
1149.024, 69.75977
1150.115, 136.0879
1151.206, 333.9883
1152.297, 183.9238
1153.388, 69.10742
1154.479, 124.8477
1155.569, 6.173828
1156.659, 63.17773
1157.750, 69.21094
1158.839, 193.7383
1159.929, 28.69141
1161.019, 73.63867
1162.108, 48.41602
1163.198, 34.50977
1164.287, 8.363281
1165.376, 41.22070
1166.465, 131.9297
1167.553, 36.83789
1168.642, 93.40625
1169.730, 113.7148
1170.818, 3.900391
1171.906, 81.49805
1172.994, 7.912109
1174.082, 1.658203
1175.170, 18.79297
1176.257, 80.26953
1177.344, 122.8066
1178.431, 209.4277
1179.518, 23.17578
1180.605, 102.9590
1181.691, 184.8125
1182.778, 306.7812
1183.864, 50.06445
1184.950, 207.0938
1186.036, 37.37891
1187.122, 11.70703
1188.207, 140.0586
1189.292, 52.49805
1190.378, 64.04688
1191.463, 269.4082
1192.548, 32.97461
1193.632, 1.351563
1194.717, 83.28906
1195.801, 55.99414
1196.886, 141.7461
1197.970, 112.4102
1199.054, 62.44141
1200.137, 201.6602
1201.221, 136.2461
1202.305, 72.75586
1203.388, 51.75586
1204.471, 213.7539
1205.554, 82.74609
1206.637, 192.7324
1207.719, 42.28320
1208.802, 141.6621
1209.884, 367.6035
1210.966, 329.5410
1212.048, 259.4766
1213.130, 336.4062
1214.212, 527.3359
1215.293, 496.2598
1216.374, 578.1816
1217.456, 599.0996
1218.536, 634.8867
1219.617, 676.2188
1220.698, 746.8418
1221.778, 745.7480
1222.859, 844.6562
1223.939, 909.5605
1225.019, 915.4629
1226.099, 890.3633
1227.178, 977.2617
1228.258, 1205.158
1229.337, 1133.053
1230.417, 1275.947
1231.496, 1188.842
1232.574, 1345.732
1233.653, 1387.623
1234.732, 1334.514
1235.810, 1384.402
1236.888, 1528.293
1237.966, 1616.180
1239.044, 1482.082
1240.122, 1410.996
1241.199, 1410.945
1242.277, 1437.895
1243.354, 1543.846
1244.431, 1431.797
1245.508, 1264.756
1246.585, 1407.725
1247.661, 1423.691
1248.738, 1123.660
1249.814, 1393.629
1250.890, 1291.602
1251.966, 1268.572
1253.042, 1433.547
1254.117, 1218.521
1255.193, 1031.498
1256.268, 928.4766
1257.343, 1054.457
1258.418, 1213.438
1259.493, 971.4199
1260.567, 1028.404
1261.642, 1023.389
1262.716, 1133.375
1263.790, 1495.361
1264.864, 1253.350
1265.938, 1361.334
1267.011, 1168.324
1268.085, 1172.312
1269.158, 1368.299
1270.231, 1057.285
1271.304, 1099.268
1272.377, 1138.250
1273.450, 1477.229
1274.522, 1246.205
1275.594, 1352.178
1276.666, 1169.148
1277.738, 1296.113
1278.810, 1012.045
1279.882, 1066.002
1280.953, 1132.955
1282.025, 1049.906
1283.096, 882.6777
1284.167, 1082.621
1285.238, 1024.934
1286.308, 1017.928
1287.379, 717.4922
1288.449, 1081.416
1289.519, 843.4023
1290.589, 1120.320
1291.659, 789.9941
1292.729, 831.4980
1293.798, 903.1602
1294.868, 850.9922
1295.937, 963.2441
1297.006, 931.0488
1298.075, 1047.637
1299.143, 876.9102
1300.212, 875.3145
1301.280, 982.2188
1302.348, 924.9746
1303.416, 895.2070
1304.484, 807.2676
1305.552, 837.4199
1306.620, 810.2500
1307.687, 886.9180
1308.754, 826.5898
1309.821, 864.2324
1310.888, 871.7246
1311.955, 730.5449
1313.021, 708.4395
1314.088, 725.5020
1315.154, 843.2109
1316.220, 834.5312
1317.286, 808.3145
1318.352, 724.7500
1319.417, 732.7324
1320.483, 699.8887
1321.548, 722.8008
1322.613, 675.8906
1323.678, 916.7500
1324.743, 869.3320
1325.807, 424.5430
1326.872, 581.5879
1327.936, 415.8008
1329.000, 507.8691
1330.064, 468.4844
1331.128, 368.5684
1332.191, 602.6641
1333.255, 427.7715
1334.318, 483.8887
1335.381, 280.0195
1336.444, 468.6523
