##NAMES=Dravite
##RRUFFID=R060534
##IDEAL CHEMISTRY=NaMg_3_Al_6_(Si_6_O_18_)(BO_3_)_3_(OH)_3_OH
##LOCALITY=Sri Lanka
##OWNER=RRUFF
##SOURCE=Gemological Institute of America
##DESCRIPTION=Black trigonal prism
##STATUS=The identification of this mineral has been confirmed by X-ray diffraction and chemical analysis
##URL=rruff.info/R060534
##MEASURED CHEMISTRY=(Na_0.79_Ca_0.21_)(Mg_0.68_Fe^2+^_0.29_Ti_0.02_Al_0.01_)_3_Al_6.00_(BO_3_)_3_(Si_0.95_Al_005_)_6.00_O_18_(OH)_4_
##PIN_ID=L01032
##ORIENTATION=Laser parallel to c* (0 0 1). Fiducial mark perpendicular to laser is parallel to a [1 0 0]
297.4850, 0.0000000E+00
298.6930, 15.29688
299.9020, 192.3926
301.1110, 259.1738
302.3190, 336.7266
303.5270, 37.56055
304.7350, 32.98828
305.9430, 90.41211
307.1510, 47.97461
308.3580, 167.1621
309.5660, 102.5234
310.7730, 44.64258
311.9800, 235.1602
313.1870, 114.7949
314.3940, 412.3027
315.6010, 265.5527
316.8070, 453.5742
318.0130, 470.2402
319.2200, 904.3398
320.4260, 902.6895
321.6310, 1027.141
322.8370, 1470.578
324.0430, 1498.904
325.2480, 1689.051
326.4540, 2027.953
327.6590, 2107.555
328.8640, 2535.812
330.0680, 2529.686
331.2730, 2622.146
332.4780, 3244.447
333.6820, 3147.379
334.8860, 3030.418
336.0900, 2939.611
337.2940, 3124.086
338.4980, 3165.783
339.7010, 3228.678
340.9050, 3116.729
342.1080, 3168.936
343.3110, 3225.305
344.5140, 3228.410
345.7170, 3292.850
346.9200, 3349.434
348.1220, 3382.500
349.3240, 3472.768
350.5270, 3511.238
351.7290, 3546.582
352.9310, 3691.814
354.1320, 3678.918
355.3340, 3733.225
356.5350, 3963.742
357.7370, 4265.467
358.9380, 4477.393
360.1390, 4705.521
361.3400, 5268.855
362.5400, 5687.393
363.7410, 6015.133
364.9410, 6497.074
366.1410, 6626.215
367.3410, 6855.363
368.5410, 7203.199
369.7410, 7152.137
370.9400, 6966.309
372.1400, 7243.518
373.3390, 6940.504
374.5380, 6437.062
375.7370, 6393.506
376.9360, 6127.059
378.1350, 5866.084
379.3330, 5593.711
380.5310, 5438.607
381.7300, 5248.645
382.9280, 5036.820
384.1260, 4445.148
385.3230, 4442.621
386.5210, 4833.248
387.7180, 3897.027
388.9160, 4094.959
390.1130, 3645.047
391.3100, 3422.289
392.5060, 3095.686
393.7030, 3183.232
394.9000, 2903.939
396.0960, 2949.840
397.2920, 2647.955
398.4880, 2595.260
399.6840, 2377.871
400.8800, 2094.732
402.0750, 2402.801
403.2710, 2085.059
404.4660, 2040.473
405.6610, 1990.031
406.8560, 1750.727
408.0510, 1579.553
409.2450, 1512.508
410.4400, 1581.592
411.6340, 1390.809
412.8280, 1524.156
414.0220, 1373.635
415.2160, 1357.242
416.4100, 1094.982
417.6030, 907.8535
418.7970, 682.8535
419.9900, 608.9863
421.1830, 676.2480
422.3760, 623.6406
423.5690, 437.1641
424.7610, 318.8145
425.9540, 406.5977
427.1460, 295.5078
428.3380, 474.5508
429.5300, 14.72070
430.7220, 103.0273
431.9140, 41.46680
433.1050, 86.03906
434.2970, 49.74609
435.4880, 231.4121
436.6790, 21.57031
437.8700, 127.3066
439.0610, 106.1074
440.2510, 44.81055
441.4420, 284.6973
442.6320, 14.94141
443.8220, 65.21484
445.0120, 180.2500
446.2020, 87.81055
447.3910, 145.3457
448.5810, 134.5391
449.7700, 74.20703
450.9600, 75.61523
452.1490, 22.22266
453.3370, 38.29492
454.5260, 166.5977
455.7150, 30.11523
456.9030, 22.83984
458.0910, 3.238281
459.2800, 60.87305
460.4670, 67.83594
461.6550, 22.62500
462.8430, 95.25195
464.0300, 20.03906
465.2180, 360.9883
466.4050, 311.0898
467.5920, 176.3418
468.7790, 384.7402
469.9650, 452.2832
471.1520, 734.9648
472.3380, 727.7852
473.5250, 794.7383
474.7110, 815.8242
475.8970, 1005.041
477.0820, 960.3770
478.2680, 1166.830
479.4540, 1306.396
480.6390, 1249.070
481.8240, 1490.855
483.0090, 1737.750
484.1940, 1388.752
485.3780, 1641.861
486.5630, 1529.082
487.7470, 1780.408
488.9320, 2061.838
490.1160, 1711.375
491.3000, 1895.020
492.4830, 1826.766
493.6670, 2141.994
494.8500, 1842.051
496.0340, 1997.105
497.2170, 1849.051
498.4000, 1976.488
499.5820, 2016.291
500.7650, 1851.734
501.9480, 1954.527
503.1300, 1969.172
504.3120, 1664.209
505.4940, 1767.150
506.6760, 1758.178
507.8580, 1790.199
509.0390, 1638.828
510.2210, 1565.867
511.4020, 1380.031
512.5830, 1393.191
513.7640, 1461.426
514.9450, 1449.686
516.1250, 1531.971
517.3060, 1656.316
518.4860, 1754.760
519.6660, 1805.885
520.8460, 1738.928
522.0260, 1876.639
523.2060, 1974.445
524.3850, 1967.344
525.5650, 2148.230
526.7440, 2263.426
527.9230, 2444.605
529.1020, 2418.877
530.2810, 2591.238
531.4590, 2744.693
532.6380, 2579.234
533.8160, 2937.869
534.9940, 3078.592
536.1720, 2962.400
537.3500, 2958.297
538.5270, 3052.281
539.7050, 2931.350
540.8820, 2944.506
542.0590, 2964.742
543.2360, 2988.275
544.4130, 3080.299
545.5900, 3209.953
546.7660, 3343.525
547.9430, 3329.701
549.1190, 3246.553
550.2950, 3218.744
551.4710, 2952.668
552.6470, 2715.680
553.8220, 2634.770
554.9980, 2784.965
556.1730, 2651.250
557.3480, 2686.629
558.5230, 2598.119
559.6980, 2382.756
560.8730, 2131.535
562.0470, 2184.414
563.2220, 2361.430
564.3960, 2126.543
565.5700, 2082.748
566.7440, 2187.092
567.9170, 1761.535
569.0910, 1797.113
570.2640, 1694.836
571.4380, 2013.738
572.6110, 1946.805
573.7840, 1986.027
574.9570, 1930.414
576.1290, 1663.955
577.3020, 1684.920
578.4740, 1709.781
579.6460, 1668.053
580.8180, 1336.182
581.9900, 1381.375
583.1620, 1372.936
584.3330, 1472.557
585.5040, 1368.623
586.6760, 1268.898
587.8470, 1268.633
589.0180, 1136.088
590.1880, 1258.033
591.3590, 1007.584
592.5290, 922.2012
593.7000, 1002.867
594.8700, 1054.652
596.0400, 1059.566
597.2090, 1022.605
598.3790, 1030.627
599.5490, 942.9141
600.7180, 953.2832
601.8870, 908.0430
603.0560, 799.5781
604.2250, 651.1973
605.3940, 890.8887
606.5620, 692.6699
607.7300, 788.5312
608.8990, 803.4570
610.0670, 789.4551
611.2350, 686.5312
612.4020, 737.6816
613.5700, 853.9004
614.7370, 905.1816
615.9050, 725.5293
617.0720, 832.3281
618.2390, 727.4043
619.4060, 837.9277
620.5720, 651.5078
621.7390, 621.1426
622.9050, 562.8301
624.0710, 691.5684
625.2370, 788.3613
626.4030, 523.1992
627.5690, 660.0879
628.7340, 306.0234
629.9000, 344.0078
631.0650, 217.0352
632.2300, 63.10938
633.3950, 191.7734
634.5600, 40.66992
635.7240, 99.46289
636.8890, 93.36914
638.0530, 3.169922
639.2170, 262.9434
640.3810, 152.7598
641.5450, 132.5859
642.7080, 98.41406
643.8720, 77.26172
645.0350, 39.38867
646.1980, 100.8203
647.3610, 19.40039
648.5240, 17.34570
649.6870, 32.06445
650.8490, 287.2402
652.0120, 342.5762
653.1740, 512.9434
654.3360, 1250.340
655.4980, 1530.768
656.6600, 1570.227
657.8210, 1235.715
658.9830, 1476.232
660.1440, 1395.775
661.3050, 1516.348
662.4660, 1482.945
663.6270, 1703.568
664.7870, 1592.217
665.9480, 1623.887
667.1080, 1430.580
668.2680, 1505.299
669.4280, 1305.039
670.5880, 963.7969
671.7480, 886.5762
672.9070, 783.3926
674.0670, 756.1875
675.2260, 643.0195
676.3850, 714.8691
677.5440, 447.7344
678.7030, 654.6133
679.8610, 583.5059
681.0200, 866.4121
682.1780, 802.3320
683.3360, 859.1113
684.4940, 965.6680
685.6520, 930.8301
686.8090, 998.3105
687.9670, 1111.924
689.1240, 1272.713
690.2810, 1517.400
691.4380, 1561.771
692.5950, 1662.084
693.7520, 2248.215
694.9080, 2231.508
696.0650, 2482.135
697.2210, 2804.182
698.3770, 2750.203
699.5330, 3016.434
700.6880, 3448.961
701.8440, 3539.672
702.9990, 3888.520
704.1550, 4443.082
705.3100, 4613.566
706.4650, 5179.633
707.6190, 5512.098
708.7740, 5837.012
709.9290, 6389.055
711.0830, 6588.996
712.2370, 7237.553
713.3910, 7339.684
714.5450, 7931.578
715.6980, 8531.004
716.8520, 8863.129
718.0050, 9180.539
719.1580, 9644.088
720.3110, 9814.543
721.4640, 10167.54
722.6170, 10186.35
723.7700, 10262.61
724.9220, 10106.98
726.0740, 10412.61
727.2260, 10326.52
728.3780, 10480.69
729.5300, 10671.92
730.6810, 10861.73
731.8330, 11375.00
732.9840, 11768.79
734.1350, 12138.25
735.2860, 12547.23
736.4370, 13449.12
737.5880, 13493.26
738.7380, 14272.66
739.8880, 14897.48
741.0390, 15180.82
742.1890, 15627.30
743.3380, 16150.52
744.4880, 16469.13
745.6380, 16740.80
746.7870, 17217.94
747.9360, 17137.88
749.0850, 17116.89
750.2340, 17310.97
751.3830, 17320.40
752.5310, 17378.68
753.6800, 17727.56
754.8280, 17653.60
755.9760, 18199.89
757.1240, 18231.71
758.2720, 18598.24
759.4190, 18640.54
760.5670, 19180.94
761.7140, 19539.83
762.8610, 19513.11
764.0080, 19621.39
765.1550, 19541.97
766.3020, 19431.46
767.4480, 19496.88
768.5950, 19341.01
769.7410, 19134.47
770.8870, 19235.66
772.0330, 19497.37
773.1780, 19707.28
774.3240, 19949.22
775.4690, 20542.28
776.6140, 20565.87
777.7590, 20544.11
778.9040, 20714.72
780.0490, 19955.99
781.1940, 19204.43
782.3380, 18723.49
783.4820, 17597.65
784.6260, 16718.74
785.7700, 15082.84
786.9140, 14118.34
788.0580, 12757.36
789.2010, 11674.21
790.3450, 10419.96
791.4880, 9204.629
792.6310, 8106.213
793.7730, 6979.705
794.9160, 6240.109
796.0590, 5432.422
797.2010, 4919.646
798.3430, 4442.779
799.4850, 4286.824
800.6270, 4045.775
801.7690, 3881.637
802.9100, 3798.406
804.0520, 3552.084
805.1930, 3412.668
806.3340, 3065.158
807.4750, 3103.555
808.6160, 2930.857
809.7560, 2703.068
810.8970, 2623.180
812.0370, 2380.199
813.1770, 2338.123
814.3170, 1766.691
815.4570, 1738.879
816.5960, 1625.387
817.7360, 1430.414
818.8750, 911.2676
820.0140, 810.7812
821.1530, 542.3672
822.2920, 370.0293
823.4310, 302.0625
824.5690, 515.9844
825.7070, 481.8008
826.8460, 56.51172
827.9840, 356.0703
829.1220, 376.5156
830.2590, 49.85156
831.3970, 230.0273
832.5340, 100.0820
833.6710, 12.99219
834.8080, 113.2734
835.9450, 115.9160
837.0820, 76.46094
838.2190, 90.44922
839.3550, 69.40820
840.4910, 116.1074
841.6270, 101.3379
842.7630, 65.97852
843.8990, 100.2480
845.0350, 123.0645
846.1700, 268.2949
847.3060, 202.9668
848.4410, 180.9355
849.5760, 206.1914
850.7100, 186.7422
851.8450, 211.5840
852.9800, 190.7266
854.1140, 148.1602
855.2480, 134.8652
856.3820, 133.8301
857.5160, 207.0566
858.6500, 140.5820
859.7830, 30.62500
860.9170, 215.3418
862.0500, 156.6113
863.1830, 64.84570
864.3160, 49.14062
865.4480, 58.26562
866.5810, 63.22852
867.7130, 20.07031
868.8460, 7.347656
869.9780, 51.41797
871.1100, 45.35352
872.2410, 45.70117
873.3730, 38.09375
874.5050, 27.72070
875.6360, 120.1738
876.7670, 299.4805
877.8980, 186.6621
879.0290, 299.7051
880.1590, 70.62305
881.2900, 234.3867
882.4200, 448.0195
883.5500, 298.5371
884.6800, 187.9297
885.8100, 176.1875
886.9400, 332.3105
888.0690, 341.3105
889.1990, 405.6543
890.3280, 588.9590
891.4570, 510.6152
892.5860, 607.1602
893.7140, 655.5938
894.8430, 691.9219
895.9710, 649.1465
897.1000, 751.2656
898.2280, 726.2812
899.3560, 900.1953
900.4830, 915.0078
901.6110, 899.7832
902.7380, 1010.545
903.8660, 861.8477
904.9930, 1086.264
906.1200, 1143.580
907.2460, 1091.824
908.3730, 1206.000
909.5000, 1035.082
910.6260, 1325.068
911.7520, 1181.994
912.8780, 1270.826
914.0040, 1157.615
915.1290, 1417.352
916.2550, 1591.014
917.3800, 1796.639
918.5050, 1618.182
919.6300, 1529.641
920.7550, 1666.021
921.8800, 1566.312
923.0040, 1500.529
924.1290, 1724.656
925.2530, 1720.689
926.3770, 1865.631
927.5010, 1746.480
928.6250, 1970.238
929.7480, 1902.906
930.8720, 2132.484
931.9950, 2114.994
933.1180, 2195.467
934.2410, 2167.859
935.3640, 2301.160
936.4860, 2485.412
937.6090, 2553.551
938.7310, 2547.611
939.8530, 2634.578
940.9750, 2526.492
942.0970, 2965.332
943.2180, 2790.090
944.3400, 2875.771
945.4610, 3156.389
946.5820, 3161.004
947.7030, 3329.553
948.8240, 3395.039
949.9450, 3132.441
951.0650, 3250.797
952.1860, 3376.100
953.3060, 3495.322
954.4260, 3569.465
955.5460, 3741.062
956.6650, 3387.035
957.7850, 3908.732
958.9040, 3755.064
960.0230, 3492.234
961.1420, 3690.176
962.2610, 3874.174
963.3800, 3878.414
964.4990, 3678.641
965.6170, 3735.975
966.7350, 3601.078
967.8530, 3563.768
968.9710, 3645.967
970.0890, 3627.119
971.2070, 3765.984
972.3240, 3863.477
973.4410, 3894.713
974.5580, 3868.738
975.6750, 3911.973
976.7920, 3719.203
977.9090, 3906.783
979.0250, 3905.887
980.1410, 3834.463
981.2580, 3947.838
982.3740, 4081.232
983.4890, 3961.938
984.6050, 3914.988
985.7200, 3852.201
986.8360, 3852.508
987.9510, 3674.699
989.0660, 3855.488
990.1810, 3951.289
991.2950, 3965.936
992.4100, 3651.682
993.5240, 3760.332
994.6390, 3711.641
995.7530, 3640.869
996.8660, 3807.416
997.9800, 3556.080
999.0940, 3731.066
1000.207, 3735.936
1001.320, 3818.936
1002.433, 3731.537
1003.546, 3699.793
1004.659, 3640.268
1005.772, 3815.781
1006.884, 3905.520
1007.996, 3918.762
1009.108, 3607.346
1010.220, 3717.203
1011.332, 3661.633
1012.444, 3597.961
1013.555, 3769.117
1014.666, 3506.234
1015.777, 3673.059
1016.888, 3670.939
1017.999, 3745.920
1019.110, 3650.873
1020.220, 3607.836
1021.331, 3735.279
1022.441, 3769.258
1023.551, 3654.328
1024.661, 3682.885
1025.770, 3796.945
1026.880, 4020.400
1027.989, 4246.051
1029.098, 3978.842
1030.207, 4111.451
1031.316, 3902.482
1032.425, 3827.402
1033.533, 4369.498
1034.642, 4350.584
1035.750, 4504.660
1036.858, 4730.727
1037.966, 4498.783
1039.073, 4924.834
1040.181, 5015.412
1041.288, 5160.449
1042.396, 5112.475
1043.503, 5228.498
1044.610, 5262.510
1045.716, 5266.633
1046.823, 5326.359
1047.929, 5418.062
1049.036, 5382.055
1050.142, 5683.623
1051.248, 5463.111
1052.353, 5719.559
1053.459, 5660.533
1054.564, 5961.330
1055.670, 5859.824
1056.775, 5666.789
1057.880, 5836.750
1058.985, 5746.711
1060.089, 5734.670
1061.194, 5571.627
1062.298, 5741.654
1063.402, 5723.611
1064.506, 5559.203
1065.610, 5678.398
1066.713, 5838.852
1067.817, 5660.107
1068.920, 5563.066
1070.023, 5145.023
1071.126, 5077.227
1072.229, 4530.189
1073.332, 4753.406
1074.435, 4453.305
1075.537, 4399.463
1076.639, 4224.393
1077.741, 4100.299
1078.843, 4044.648
1079.945, 3918.658
1081.046, 3804.574
1082.148, 3697.564
1083.249, 3615.162
1084.350, 3515.770
1085.451, 3325.768
1086.551, 3305.771
1087.652, 3100.779
1088.752, 2919.791
1089.853, 2827.814
1090.953, 2926.211
1092.053, 3008.098
1093.152, 2850.600
1094.252, 2967.973
1095.351, 2975.066
1096.451, 2888.391
1097.550, 3054.285
1098.649, 2725.438
1099.748, 2666.605
1100.846, 2491.803
1101.945, 2688.043
1103.043, 2586.365
1104.141, 2660.768
1105.239, 2749.205
1106.337, 2639.715
1107.434, 2733.262
1108.532, 2739.840
1109.629, 2552.498
1110.726, 2643.193
1111.823, 2543.969
1112.920, 2364.830
1114.017, 2067.816
1115.113, 2234.910
1116.210, 2115.107
1117.306, 2008.412
1118.402, 2092.822
1119.498, 2038.344
1120.593, 2069.973
1121.689, 2017.826
1122.784, 2028.514
1123.879, 1856.420
1124.974, 1796.439
1126.069, 1654.553
1127.164, 1680.715
1128.259, 1492.988
1129.353, 1436.361
1130.447, 1306.777
1131.541, 1422.240
1132.635, 1220.746
1133.729, 1314.295
1134.822, 1201.898
1135.916, 1238.559
1137.009, 941.2910
1138.102, 1083.088
1139.195, 817.9570
1140.288, 935.8711
1141.380, 797.8359
1142.473, 847.8379
1143.565, 560.8672
1144.657, 881.9277
1145.749, 884.0156
1146.841, 686.1465
1147.932, 810.3066
1149.024, 944.4902
1150.115, 736.9512
1151.206, 705.9434
1152.297, 498.2324
1153.388, 477.5449
1154.479, 449.9434
1155.569, 516.3906
1156.659, 256.8691
1157.750, 408.3906
1158.839, 213.9297
1159.929, 383.4902
1161.019, 466.0723
1162.108, 472.6699
1163.198, 527.3086
1164.287, 399.9648
1165.376, 278.6543
1166.465, 515.3594
1167.553, 215.0859
1168.642, 315.8301
1169.730, 245.5898
1170.818, 134.1758
1171.906, 55.18359
1172.994, 158.7852
1174.082, 181.2207
1175.170, 120.6270
1176.257, 3.730469
1177.344, 54.65234
1178.431, 112.4453
1179.518, 63.37305
1180.605, 191.3262
1181.691, 19.22461
1182.778, 17.48633
1183.864, 62.26953
1184.950, 26.78516
1186.036, 63.67383
1187.122, 68.34180
1188.207, 106.8438
1189.292, 84.40625
1190.378, 107.3359
1191.463, 151.2832
1192.548, 3.248047
1193.632, 91.22656
1194.717, 95.77539
1195.801, 218.8027
1196.886, 52.92188
1197.970, 48.05078
1199.054, 114.8184
1200.137, 64.70117
1201.221, 0.6054690
1202.305, 47.51758
1203.388, 132.5488
1204.471, 35.07617
1205.554, 18.78516
1206.637, 12.90039
1207.719, 99.01172
1208.802, 296.1562
1209.884, 89.43555
1210.966, 68.74805
1212.048, 267.9199
1213.130, 130.3926
1214.212, 129.7598
1215.293, 183.8242
1216.374, 139.4258
1217.456, 196.0449
1218.536, 54.67969
1219.617, 25.66602
1220.698, 70.01758
1221.778, 176.3906
1222.859, 51.84375
1223.939, 85.31250
1225.019, 184.1875
1226.099, 309.7051
1227.178, 424.6094
1228.258, 446.9219
1229.337, 475.1914
1230.417, 313.9453
1231.496, 438.5488
1232.574, 284.1699
1233.653, 263.8066
1234.732, 337.4590
1235.810, 153.1289
1236.888, 401.8145
1237.966, 336.5156
1239.044, 509.2305
1240.122, 457.9609
1241.199, 449.7070
1242.277, 818.4668
1243.354, 771.2402
1244.431, 514.0273
1245.508, 1335.824
1246.585, 881.6348
1247.661, 741.4570
1248.738, 712.2891
1249.814, 658.1328
1250.890, 636.9863
1251.966, 860.8496
1253.042, 855.7188
1254.117, 775.5996
1255.193, 688.4883
1256.268, 931.3828
1257.343, 1049.285
1258.418, 960.1719
1259.493, 981.7930
1260.567, 831.0215
1261.642, 804.9473
1262.716, 755.8770
1263.790, 759.8105
1264.864, 749.7500
1265.938, 851.6953
1267.011, 807.6406
1268.085, 961.5938
1269.158, 1091.551
1270.231, 937.5098
1271.304, 924.4727
1272.377, 852.4395
1273.450, 922.4062
1274.522, 953.3789
1275.594, 854.3535
1276.666, 669.3301
1277.738, 980.3105
1278.810, 764.2910
1279.882, 686.2773
1280.953, 1012.873
1282.025, 874.8613
1283.096, 997.2305
1284.167, 1121.617
1285.238, 995.0527
1286.308, 990.3730
1287.379, 924.3652
1288.449, 938.4199
1289.519, 1033.352
1290.589, 1064.344
1291.659, 1081.408
1292.729, 1258.400
1293.798, 1295.934
1294.868, 1435.926
1295.937, 1277.918
1297.006, 1243.910
1298.075, 1147.902
1299.143, 1181.980
1300.212, 1156.436
1301.280, 1148.426
1302.348, 1098.420
1303.416, 1179.410
1304.484, 1246.406
1305.552, 1184.279
1306.620, 1176.549
1307.687, 1209.840
1308.754, 1273.836
1309.821, 1277.365
1310.888, 1326.111
1311.955, 1196.842
1313.021, 1067.920
1314.088, 967.0957
1315.154, 957.5781
1316.220, 846.5879
1317.286, 1047.598
1318.352, 1048.613
1319.417, 1244.633
1320.483, 1257.658
1321.548, 882.6191
1322.613, 1309.658
1323.678, 966.0645
1324.743, 1220.871
1325.807, 833.4180
1326.872, 904.1641
1327.936, 798.2090
1329.000, 958.2539
1330.064, 870.0625
1331.128, 947.1113
1332.191, 967.9141
1333.255, 1121.041
1334.318, 910.9141
1335.381, 1021.025
1336.444, 1137.605
1337.507, 882.8691
1338.569, 987.9219
1339.632, 894.0801
1340.694, 772.1738
1341.756, 734.6680
1342.818, 691.1641
1343.880, 583.2773
1344.941, 707.3984
1346.003, 815.5273
1347.064, 968.6641
1348.125, 619.8027
1349.186, 613.5879
1350.247, 783.9004
1351.308, 611.6133
1352.368, 627.4746
1353.428, 336.6562
1354.489, 595.8477
1355.549, 302.0469
1356.608, 342.2539
1357.668, 351.4707
1358.727, 711.6953
1359.787, 599.9316
1360.846, 575.1758
1361.905, 746.4258
1362.964, 471.6895
1364.022, 618.9590
1365.081, 407.2422
1366.139, 522.5137
1367.197, 352.7070
1368.255, 415.8535
1369.313, 427.9785
1370.371, 410.1094
1371.428, 545.2227
1372.486, 433.3125
1373.543, 359.4102
1374.600, 511.5137
1375.657, 403.5820
1376.713, 318.6582
1377.770, 578.7383
1378.826, 407.8281
1379.882, 524.9238
1380.938, 340.9355
1381.994, 292.8438
1383.050, 211.7559
1384.106, 293.6719
1385.161, 316.8652
1386.216, 511.5215
1387.271, 457.4531
1388.326, 504.3848
1389.381, 505.3242
1390.435, 177.2637
1391.490, 357.2090
1392.544, 203.1582
1393.598, 352.1094
1394.652, 275.0664
1395.705, 253.2246
1396.759, 273.7188
1397.812, 196.9531
1398.866, 240.9238
1399.919, 209.8926
1400.972, 216.8672
1402.024, 183.8652
1403.077, 291.8223
1404.129, 89.80273
1405.181, 154.7812
1406.233, 104.7637
1407.285, 36.34375
1408.337, 54.71289
1409.389, 219.3145
1410.440, 89.39453
1411.491, 34.49414
1412.542, 70.59961
1413.593, 184.2793
1414.644, 166.1680
1415.695, 32.06445
1416.745, 138.9746
1417.795, 68.10156
1418.845, 125.8184
1419.895, 59.24609
1420.945, 301.6875
1421.995, 134.4395
1423.044, 69.25586
1424.093, 70.59180
1425.142, 108.4023
1426.191, 97.59570
1427.240, 224.6445
1428.289, 113.7148
1429.337, 78.81445
1430.385, 93.94336
1431.433, 138.6797
1432.481, 62.69531
1433.529, 229.6133
1434.577, 29.94336
1435.624, 177.6855
1436.672, 20.26758
1437.719, 147.7988
1438.766, 95.30664
1439.812, 55.22656
1440.859, 112.8320
1441.905, 220.5273
1442.952, 136.4492
1443.998, 398.3281
1445.044, 48.32031
1446.090, 174.6309
1447.135, 230.8809
1448.181, 103.6641
