##NAMES=Edenite
##RRUFFID=R060029
##IDEAL CHEMISTRY=NaCa_2_Mg_5_(Si_7_Al)O_22_(OH)_2_
##LOCALITY=Renfrew County, Ontario, Canada
##OWNER=RRUFF
##SOURCE=University of Arizona Mineral Museum
##DESCRIPTION=Black prismatic
##STATUS=The identification of this mineral has been confirmed by X-ray diffraction and chemical analysis
##URL=rruff.info/R060029
##MEASURED CHEMISTRY=(Na_0.62_K_0.34_[box]_0.04_)(Ca_0.86_Na_0.14_)_2_(Mg_0.57_Fe^2+^_0.30_Fe^3+^_0.07_Al_0.05_Ti_0.01_Mn_0.01_)_5_(Si_6.61_Al_1.39_)O_22_((OH)_0.69_F_0.31_)_2_
##PIN_ID=L01054
##ORIENTATION=Laser parallel to -a* (-1 0 0). Fiducial mark perpendicular to laser is parallel to b [0 1 0]
192.9560, 0.0000000E+00
194.1780, 150.1953
195.4000, 4.074219
196.6220, 89.78516
197.8430, 93.76758
199.0640, 146.5449
200.2860, 107.6133
201.5070, 99.66699
202.7270, 189.8203
203.9480, 230.9404
205.1690, 190.5078
206.3890, 258.1631
207.6090, 130.9365
208.8290, 290.2520
210.0490, 567.0967
211.2690, 696.6416
212.4890, 1102.479
213.7080, 1545.781
214.9280, 1870.195
216.1470, 1983.463
217.3660, 2217.238
218.5850, 2595.047
219.8030, 2923.324
221.0220, 3253.416
222.2400, 3399.477
223.4590, 3781.043
224.6770, 3867.562
225.8950, 4062.252
227.1120, 4275.164
228.3300, 4211.979
229.5480, 4176.439
230.7650, 4111.320
231.9820, 4023.734
233.1990, 3905.261
234.4160, 3626.744
235.6330, 3312.943
236.8490, 3039.517
238.0660, 2618.308
239.2820, 2279.318
240.4980, 2039.535
241.7140, 1746.947
242.9300, 1505.544
244.1460, 1286.987
245.3610, 1084.260
246.5770, 901.3584
247.7920, 690.5947
249.0070, 561.9395
250.2220, 637.3770
251.4370, 299.9043
252.6510, 359.5225
253.8660, 290.2314
255.0800, 99.99219
256.2940, 169.7832
257.5080, 191.5020
258.7220, 167.7285
259.9360, 35.73730
261.1490, 5.725586
262.3630, 70.33301
263.5760, 138.4561
264.7890, 110.4766
266.0020, 66.30371
267.2150, 177.1406
268.4270, 114.4727
269.6400, 95.89746
270.8520, 201.1289
272.0640, 59.17871
273.2760, 32.94238
274.4880, 197.2207
275.7000, 320.6426
276.9120, 327.1963
278.1230, 570.8691
279.3340, 636.6523
280.5450, 461.5342
281.7560, 609.5117
282.9670, 641.5742
284.1780, 833.7012
285.3880, 777.8721
286.5980, 896.0732
287.8090, 976.3037
289.0190, 879.5674
290.2290, 1169.861
291.4380, 1088.191
292.6480, 1119.555
293.8570, 1085.953
295.0670, 1087.385
296.2760, 1168.842
297.4850, 954.2979
298.6930, 1186.767
299.9020, 972.1523
301.1110, 713.3740
302.3190, 803.3955
303.5270, 877.1973
304.7350, 802.8037
305.9430, 764.2969
307.1510, 727.8389
308.3580, 681.4424
309.5660, 646.0684
310.7730, 604.5146
311.9800, 564.6240
313.1870, 506.4707
314.3940, 453.3770
315.6010, 365.3408
316.8070, 374.3613
318.0130, 304.4375
319.2200, 231.5674
320.4260, 294.7529
321.6310, 372.0088
322.8370, 261.4053
324.0430, 218.0850
325.2480, 2.141602
326.4540, 162.5703
327.6590, 147.3027
328.8640, 328.3828
330.0680, 218.7578
331.2730, 265.4043
332.4780, 260.3242
333.6820, 184.5225
334.8860, 158.8330
336.0900, 370.2129
337.2940, 173.6230
338.4980, 353.4180
339.7010, 264.9980
340.9050, 260.3613
342.1080, 388.0508
343.3110, 168.7432
344.5140, 290.4141
345.7170, 428.0498
346.9200, 433.6396
348.1220, 428.1699
349.3240, 558.6230
350.5270, 537.9941
351.7290, 651.2842
352.9310, 726.4971
354.1320, 578.6357
355.3340, 667.6914
356.5350, 705.6309
357.7370, 855.4219
358.9380, 794.0674
360.1390, 963.5869
361.3400, 1055.998
362.5400, 1104.318
363.7410, 1059.557
364.9410, 1184.727
366.1410, 1231.838
367.3410, 1404.885
368.5410, 1404.869
369.7410, 1498.749
370.9400, 1633.556
372.1400, 1695.115
373.3390, 1736.281
374.5380, 1752.126
375.7370, 1781.567
376.9360, 1995.642
378.1350, 1913.616
379.3330, 1993.625
380.5310, 1819.675
381.7300, 1657.764
382.9280, 1694.891
384.1260, 1594.057
385.3230, 1586.261
386.5210, 1467.500
387.7180, 1314.774
388.9160, 1358.081
390.1130, 1135.422
391.3100, 1106.795
392.5060, 1035.199
393.7030, 971.6357
394.9000, 1020.102
396.0960, 865.0088
397.2920, 986.2246
398.4880, 952.2051
399.6840, 905.5850
400.8800, 996.9180
402.0750, 942.5137
403.2710, 998.0986
404.4660, 974.6318
405.6610, 1077.392
406.8560, 1096.327
408.0510, 1135.211
409.2450, 1132.068
410.4400, 1190.229
411.6340, 1155.002
412.8280, 1285.229
414.0220, 1377.818
415.2160, 1427.996
416.4100, 1391.271
417.6030, 1443.219
418.7970, 1697.574
419.9900, 1854.482
421.1830, 2019.251
422.3760, 2234.745
423.5690, 2377.453
424.7610, 2566.478
425.9540, 2724.518
427.1460, 2770.572
428.3380, 2933.642
429.5300, 2897.725
430.7220, 2823.824
431.9140, 2876.937
433.1050, 2671.062
434.2970, 2685.203
435.4880, 2606.356
436.6790, 2423.523
437.8700, 2399.700
439.0610, 2434.891
440.2510, 2053.214
441.4420, 2073.408
442.6320, 2045.516
443.8220, 1972.055
445.0120, 1716.561
446.2020, 1696.327
447.3910, 1582.625
448.5810, 1466.168
449.7700, 1484.335
450.9600, 1259.029
452.1490, 1281.380
453.3370, 1217.355
454.5260, 1152.110
455.7150, 1135.259
456.9030, 999.3887
458.0910, 990.3164
459.2800, 879.5625
460.4670, 758.4072
461.6550, 767.8877
462.8430, 651.4785
464.0300, 733.0498
465.2180, 605.3682
466.4050, 582.4531
467.5920, 549.9199
468.7790, 478.7236
469.9650, 591.8105
471.1520, 598.7021
472.3380, 522.9512
473.5250, 539.4395
474.7110, 535.0625
475.8970, 470.0791
477.0820, 507.0762
478.2680, 631.2100
479.4540, 775.6191
480.6390, 814.7783
481.8240, 940.7891
483.0090, 898.1553
484.1940, 1035.333
485.3780, 1068.482
486.5630, 1131.950
487.7470, 1197.541
488.9320, 1258.603
490.1160, 1409.635
491.3000, 1425.637
492.4830, 1555.610
493.6670, 1800.556
494.8500, 1854.721
496.0340, 2180.357
497.2170, 2094.217
498.4000, 2291.047
499.5820, 2393.848
500.7650, 2497.622
501.9480, 2747.368
503.1300, 2834.087
504.3120, 3032.779
505.4940, 3100.447
506.6760, 3413.086
507.8580, 3481.699
509.0390, 3631.287
510.2210, 3674.849
511.4020, 3738.385
512.5830, 3824.893
513.7640, 3941.376
514.9450, 4161.836
516.1250, 4166.270
517.3060, 4280.684
518.4860, 4140.078
519.6660, 4373.451
520.8460, 4325.806
522.0260, 4469.143
523.2060, 4414.459
524.3850, 4511.756
525.5650, 4658.033
526.7440, 4437.289
527.9230, 4689.524
529.1020, 4718.736
530.2810, 4836.930
531.4590, 4697.102
532.6380, 4694.248
533.8160, 4749.373
534.9940, 4640.476
536.1720, 4718.557
537.3500, 4510.611
538.5270, 4611.645
539.7050, 4504.656
540.8820, 4353.644
542.0590, 4236.619
543.2360, 4398.572
544.4130, 4304.506
545.5900, 4254.424
546.7660, 4073.347
547.9430, 3970.275
549.1190, 4130.246
550.2950, 3888.286
551.4710, 3970.377
552.6470, 3671.496
553.8220, 3730.662
554.9980, 3539.860
556.1730, 3498.121
557.3480, 3361.490
558.5230, 3363.900
559.6980, 3202.324
560.8730, 3176.747
562.0470, 3195.155
563.2220, 3088.546
564.3960, 3001.921
565.5700, 2833.268
566.7440, 2831.587
567.9170, 2724.891
569.0910, 2583.198
570.2640, 2461.502
571.4380, 2383.780
572.6110, 2381.099
573.7840, 2350.270
574.9570, 2169.200
576.1290, 1887.668
577.3020, 1784.834
578.4740, 1592.974
579.6460, 1387.082
580.8180, 1200.154
581.9900, 1121.195
583.1620, 893.1982
584.3330, 746.1689
585.5040, 509.1025
586.6760, 487.0020
587.8470, 326.8633
589.0180, 133.6797
590.1880, 6.555664
591.3590, 28.11816
592.5290, 103.2773
593.7000, 248.8145
594.8700, 126.5703
596.0400, 278.4805
597.2090, 133.6260
598.3790, 224.9307
599.5490, 117.4453
600.7180, 110.1133
601.8870, 214.9307
603.0560, 199.9541
604.2250, 135.1758
605.3940, 114.5615
606.5620, 142.1016
607.7300, 115.8115
608.8990, 166.6758
610.0670, 127.7197
611.2350, 204.9248
612.4020, 63.33301
613.5700, 34.12891
614.7370, 10.51270
615.9050, 48.80469
617.0720, 93.17383
618.2390, 147.1777
619.4060, 264.2754
620.5720, 291.3213
621.7390, 384.2754
622.9050, 454.4531
624.0710, 534.1836
625.2370, 615.0537
626.4030, 678.8838
627.5690, 802.6748
628.7340, 932.4248
629.9000, 931.1357
631.0650, 991.8076
632.2300, 1037.439
633.3950, 1061.031
634.5600, 1261.583
635.7240, 1419.096
636.8890, 1455.568
638.0530, 1625.002
639.2170, 1922.396
640.3810, 1916.791
641.5450, 1849.065
642.7080, 2159.342
643.8720, 2250.578
645.0350, 2619.775
646.1980, 2575.934
647.3610, 2749.053
648.5240, 3015.133
649.6870, 3229.173
650.8490, 3510.176
652.0120, 3818.139
653.1740, 4150.062
654.3360, 4499.947
655.4980, 4860.795
656.6600, 5260.602
657.8210, 5747.371
658.9830, 6437.103
660.1440, 6777.795
661.3050, 7262.448
662.4660, 8003.063
663.6270, 8247.640
664.7870, 8770.177
665.9480, 8881.678
667.1080, 8994.142
668.2680, 8909.565
669.4280, 8959.950
670.5880, 8562.296
671.7480, 8091.605
672.9070, 7395.877
674.0670, 6969.110
675.2260, 6476.307
676.3850, 5910.463
677.5440, 5378.583
678.7030, 4891.664
679.8610, 4325.709
681.0200, 4087.718
682.1780, 3716.687
683.3360, 3304.619
684.4940, 2946.248
685.6520, 2724.046
686.8090, 2442.516
687.9670, 2413.805
689.1240, 2090.561
690.2810, 2068.213
691.4380, 1995.649
692.5950, 1915.708
693.7520, 1829.854
694.9080, 1866.565
696.0650, 1732.076
697.2210, 1761.465
698.3770, 1910.984
699.5330, 1706.844
700.6880, 1775.266
701.8440, 1839.242
702.9990, 1950.413
704.1550, 1847.621
705.3100, 2205.447
706.4650, 2138.850
707.6190, 2235.734
708.7740, 2558.200
709.9290, 2626.895
711.0830, 2546.955
712.2370, 2666.498
713.3910, 2613.014
714.5450, 2988.929
715.6980, 2957.427
716.8520, 3024.893
718.0050, 3229.628
719.1580, 3094.270
720.3110, 3290.869
721.4640, 3357.426
722.6170, 3381.938
723.7700, 3434.407
724.9220, 3481.781
726.0740, 3434.152
727.2260, 3295.527
728.3780, 3324.829
729.5300, 3301.749
730.6810, 3245.285
731.8330, 3260.897
732.9840, 3209.261
734.1350, 3157.247
735.2860, 3187.473
736.4370, 3034.751
737.5880, 2986.203
738.7380, 2927.312
739.8880, 2778.796
741.0390, 2649.619
742.1890, 2498.305
743.3380, 2428.985
744.4880, 2339.893
745.6380, 2169.007
746.7870, 2002.712
747.9360, 1961.169
749.0850, 1957.020
750.2340, 1792.979
751.3830, 1720.781
752.5310, 1547.312
753.6800, 1313.673
754.8280, 1530.606
755.9760, 1427.457
757.1240, 1415.026
758.2720, 1251.458
759.4190, 1194.990
760.5670, 1369.899
761.7140, 1247.090
762.8610, 1378.584
764.0080, 1195.063
765.1550, 1152.527
766.3020, 1199.976
767.4480, 1148.409
768.5950, 1351.828
769.7410, 1274.232
770.8870, 1277.624
772.0330, 1101.001
773.1780, 1194.364
774.3240, 1170.715
775.4690, 1306.054
776.6140, 1284.820
777.7590, 1209.514
778.9040, 1324.995
780.0490, 1057.287
781.1940, 1145.566
782.3380, 1217.837
783.4820, 1050.096
784.6260, 1017.345
785.7700, 1098.586
786.9140, 962.8174
788.0580, 1013.038
789.2010, 976.2520
790.3450, 949.4570
791.4880, 994.6533
792.6310, 1115.404
793.7730, 953.1572
794.9160, 911.9434
796.0590, 718.3730
797.2010, 706.5381
798.3430, 681.6953
799.4850, 753.8486
800.6270, 580.9951
801.7690, 440.1387
802.9100, 579.2773
804.0520, 446.4121
805.1930, 421.5430
806.3340, 554.6709
807.4750, 309.7949
808.6160, 353.9170
809.7560, 330.0361
810.8970, 368.1533
812.0370, 183.2695
813.1770, 224.3838
814.3170, 131.4961
815.4570, 212.6094
816.5960, 189.7217
817.7360, 64.83496
818.8750, 40.94727
820.0140, 99.06055
821.1530, 1.825195
822.2920, 96.28125
823.4310, 23.61328
824.5690, 109.5234
825.7070, 152.4922
826.8460, 120.5400
827.9840, 66.64844
829.1220, 41.79199
830.2590, 44.95605
831.3970, 192.1436
832.5340, 270.4268
833.6710, 158.8447
834.8080, 130.3408
835.9450, 103.8955
837.0820, 60.24023
838.2190, 53.12402
839.3550, 58.77148
840.4910, 51.55859
841.6270, 10.15430
842.7630, 68.76855
843.8990, 152.4580
845.0350, 113.2119
846.1700, 38.00684
847.3060, 47.81250
848.4410, 13.62988
849.5760, 61.44727
850.7100, 50.28125
851.8450, 42.85547
852.9800, 43.98145
854.1140, 4.158203
855.2480, 50.30566
856.3820, 139.4648
857.5160, 160.6367
858.6500, 148.8223
859.7830, 20.01953
860.9170, 128.2295
862.0500, 134.4229
863.1830, 188.3623
864.3160, 258.9521
865.4480, 351.2344
866.5810, 373.5576
867.7130, 419.9150
868.8460, 484.3379
869.9780, 441.8682
871.1100, 633.4746
872.2410, 530.1973
873.3730, 620.9961
874.5050, 513.8984
875.6360, 499.8770
876.7670, 667.9297
877.8980, 344.0830
879.0290, 546.3350
880.1590, 625.6689
881.2900, 749.0801
882.4200, 644.5762
883.5500, 609.1504
884.6800, 684.8154
885.8100, 720.5635
886.9400, 675.4160
888.0690, 788.3330
889.1990, 691.2910
890.3280, 818.2969
891.4570, 713.3408
892.5860, 681.4219
893.7140, 794.5322
894.8430, 836.6719
895.9710, 806.8379
897.1000, 870.0303
898.2280, 807.2471
899.3560, 794.4863
900.4830, 936.7490
901.6110, 834.0352
902.7380, 741.3457
903.8660, 979.6895
904.9930, 1002.081
906.1200, 974.6299
907.2460, 968.9609
908.3730, 943.4473
909.5000, 836.9629
910.6260, 879.5186
911.7520, 835.1006
912.8780, 873.7451
914.0040, 996.4277
915.1290, 956.1504
916.2550, 1025.902
917.3800, 1116.705
918.5050, 935.5479
919.6300, 1130.419
920.7550, 1306.342
921.8800, 1126.295
923.0040, 1137.277
924.1290, 1270.311
925.2530, 1215.386
926.3770, 1216.511
927.5010, 1191.688
928.6250, 1229.894
929.7480, 1257.131
930.8720, 1360.403
931.9950, 1282.740
933.1180, 1348.105
934.2410, 1181.503
935.3640, 1369.937
936.4860, 1232.405
937.6090, 1367.918
938.7310, 1329.483
939.8530, 1384.090
940.9750, 1445.727
942.0970, 1474.401
943.2180, 1606.105
944.3400, 1528.839
945.4610, 1643.604
946.5820, 1541.421
947.7030, 1776.277
948.8240, 1784.181
949.9450, 1767.144
951.0650, 1774.138
952.1860, 1850.161
953.3060, 1854.215
954.4260, 1955.300
955.5460, 1961.597
956.6650, 1841.853
957.7850, 1998.041
958.9040, 2018.569
960.0230, 2031.416
961.1420, 1897.703
962.2610, 2232.086
963.3800, 2068.611
964.4990, 2366.648
965.6170, 1923.525
966.7350, 2129.832
967.8530, 1935.330
968.9710, 2119.944
970.0890, 1996.442
971.2070, 1994.594
972.3240, 2097.175
973.4410, 2029.195
974.5580, 2034.017
975.6750, 2241.798
976.7920, 2081.960
977.9090, 2257.539
979.0250, 2299.630
980.1410, 2299.135
981.2580, 2386.406
982.3740, 2588.308
983.4890, 2416.732
984.6050, 2621.179
985.7200, 2552.222
986.8360, 2738.677
987.9510, 2666.161
989.0660, 3042.374
990.1810, 2890.676
991.2950, 3067.019
992.4100, 3090.404
993.5240, 3323.830
994.6390, 3317.294
995.7530, 3372.797
996.8660, 3476.910
997.9800, 3734.921
999.0940, 3596.543
1000.207, 3830.003
1001.320, 3898.902
1002.433, 3835.642
1003.546, 3959.419
1004.659, 3936.234
1005.772, 4015.088
1006.884, 4021.977
1007.996, 4237.903
1009.108, 4191.865
1010.220, 4125.863
1011.332, 4329.896
1012.444, 4133.965
1013.555, 4164.069
1014.666, 4265.209
1015.777, 4377.387
1016.888, 4315.602
1017.999, 4390.849
1019.110, 4202.129
1020.220, 4343.605
1021.331, 4537.949
1022.441, 4372.326
1023.551, 4376.734
1024.661, 4524.176
1025.770, 4380.973
1026.880, 4267.473
1027.989, 4418.004
1029.098, 4213.565
1030.207, 4359.156
1031.316, 4278.779
1032.425, 4170.432
1033.533, 4313.115
1034.642, 4234.829
1035.750, 4090.571
1036.858, 4112.248
1037.966, 4011.213
1039.073, 3894.512
1040.181, 3850.066
1041.288, 3864.953
1042.396, 3735.019
1043.503, 3745.968
1044.610, 3609.938
1045.716, 3512.260
1046.823, 3410.316
1047.929, 3348.024
1049.036, 3296.587
1050.142, 3275.107
1051.248, 3267.461
1052.353, 3273.609
1053.459, 3283.708
1054.564, 3185.300
1055.670, 3166.596
1056.775, 3111.359
1057.880, 3120.893
1058.985, 2961.190
1060.089, 3017.562
1061.194, 2868.897
1062.298, 2957.409
1063.402, 2793.889
1064.506, 2883.867
1065.610, 2592.283
1066.713, 2757.561
1067.817, 2656.248
1068.920, 2410.985
1070.023, 2380.898
1071.126, 2427.958
1072.229, 2490.995
1073.332, 2381.604
1074.435, 2402.586
1075.537, 2303.785
1076.639, 2316.396
1077.741, 2178.330
1078.843, 2130.974
1079.945, 2223.643
1081.046, 2061.503
1082.148, 2085.976
1083.249, 2045.793
1084.350, 2027.525
1085.451, 1886.363
1086.551, 1925.135
1087.652, 1797.607
1088.752, 1771.551
1089.853, 1911.368
1090.953, 1799.199
1092.053, 1811.763
1093.152, 1647.544
1094.252, 1610.663
1095.351, 1659.143
1096.451, 1625.168
1097.550, 1529.393
1098.649, 1535.464
1099.748, 1490.597
1100.846, 1361.905
1101.945, 1351.036
1103.043, 1456.391
1104.141, 1300.739
1105.239, 1103.112
1106.337, 1242.718
1107.434, 1240.176
1108.532, 1078.118
1109.629, 1097.089
1110.726, 859.5498
1111.823, 919.1865
1112.920, 965.7988
1114.017, 820.5137
1115.113, 901.5723
1116.210, 994.1738
1117.306, 739.0898
1118.402, 656.7256
1119.498, 856.7441
1120.593, 734.0059
1121.689, 833.6875
1122.784, 735.5518
1123.879, 764.2471
1124.974, 680.9551
1126.069, 699.6719
1127.164, 582.4707
1128.259, 535.1680
1129.353, 409.8691
1130.447, 409.5703
1131.541, 333.5410
1132.635, 429.5068
1133.729, 281.4404
1134.822, 271.1621
1135.916, 545.9512
1137.009, 407.6729
1138.102, 360.7998
1139.195, 155.1133
1140.288, 166.8301
1141.380, 84.54492
1142.473, 200.3262
1143.565, 46.04004
1144.657, 138.2314
1145.749, 47.21387
1146.841, 224.1084
1147.932, 135.1387
1149.024, 22.86523
1150.115, 12.63867
1151.206, 10.67871
1152.297, 183.2266
1153.388, 8.958984
1154.479, 165.7559
1155.569, 118.1504
1156.659, 16.58008
1157.750, 51.05762
1158.839, 91.68945
1159.929, 58.42871
1161.019, 11.04395
1162.108, 54.39648
1163.198, 22.77930
1164.287, 62.49023
1165.376, 96.28906
1166.465, 19.86133
1167.553, 43.45801
1168.642, 94.92285
1169.730, 14.44434
1170.818, 68.98340
1171.906, 18.63184
1172.994, 24.70410
1174.082, 54.14844
1175.170, 8.194336
1176.257, 136.3975
1177.344, 50.89062
1178.431, 43.68652
1179.518, 6.519531
1180.605, 85.36426
1181.691, 49.27734
1182.778, 17.00391
1183.864, 89.96680
1184.950, 6.3477002E-02
1186.036, 8.345703
1187.122, 81.63965
1188.207, 41.77734
1189.292, 69.96094
1190.378, 75.93750
1191.463, 65.98145
1192.548, 0.6601560
1193.632, 3.685547
1194.717, 121.8662
1195.801, 76.74707
1196.886, 3.416016
1197.970, 1.886719
1199.054, 1.422852
1200.137, 34.88477
1201.221, 67.79395
1202.305, 18.47559
1203.388, 54.98242
1204.471, 8.758789
1205.554, 70.55957
1206.637, 94.76270
1207.719, 32.05664
1208.802, 52.57812
1209.884, 4.051758
1210.966, 37.90820
1212.048, 78.02832
1213.130, 68.91992
1214.212, 94.89746
1215.293, 80.97559
1216.374, 139.8389
1217.456, 8.219727
1218.536, 71.71777
1219.617, 197.5283
1220.698, 201.8525
1221.778, 36.68164
1222.859, 7.602539
1223.939, 77.13477
1225.019, 50.76660
1226.099, 186.4531
1227.178, 28.09570
1228.258, 161.6963
1229.337, 132.3584
1230.417, 106.4863
1231.496, 33.67188
1232.574, 122.0430
1233.653, 206.3457
1234.732, 214.1855
1235.810, 88.75586
1236.888, 42.05957
1237.966, 48.32812
1239.044, 107.8711
1240.122, 173.2178
1241.199, 121.2588
1242.277, 139.0488
1243.354, 120.3789
1244.431, 14.49902
1245.508, 184.5459
1246.585, 96.56348
1247.661, 175.6895
1248.738, 92.64844
1249.814, 79.70215
1250.890, 228.5010
1251.966, 126.3652
1253.042, 62.21875
1254.117, 168.1074
1255.193, 167.9814
1256.268, 151.1377
1257.343, 259.0459
1258.418, 194.0283
1259.493, 209.8623
1260.567, 124.5166
1261.642, 127.2529
1262.716, 136.4980
1263.790, 224.0459
1264.864, 175.0479
1265.938, 192.5117
1267.011, 201.9463
1268.085, 204.3496
1269.158, 208.7227
1270.231, 202.0898
1271.304, 181.6035
1272.377, 197.8848
1273.450, 114.1357
1274.522, 136.3516
1275.594, 74.53320
1276.666, 131.7295
1277.738, 195.8369
1278.810, 185.3633
1279.882, 256.5732
1280.953, 152.4219
1282.025, 193.4023
1283.096, 177.3525
1284.167, 135.2695
1285.238, 297.1523
1286.308, 479.6777
1287.379, 396.6250
1288.449, 186.4150
1289.519, 298.1729
1290.589, 143.8994
1291.659, 167.5928
1292.729, 188.2529
1293.798, 166.0439
1294.868, 223.6396
1295.937, 191.2041
1297.006, 231.8301
1298.075, 226.1680
1299.143, 313.1670
1300.212, 163.9082
1301.280, 150.3154
1302.348, 169.5391
1303.416, 292.8770
1304.484, 191.1924
1305.552, 140.1494
1306.620, 268.3672
1307.687, 210.9326
1308.754, 196.6377
1309.821, 273.3818
1310.888, 134.2881
1311.955, 279.3955
1313.021, 170.5508
1314.088, 113.2070
1315.154, 166.1533
1316.220, 186.5371
1317.286, 214.3271
1318.352, 112.2559
1319.417, 117.7148
1320.483, 174.5957
1321.548, 278.6826
1322.613, 124.4072
1323.678, 144.6240
1324.743, 127.3984
1325.807, 114.3711
1326.872, 273.8594
1327.936, 136.2949
1329.000, 53.53613
1330.064, 177.6201
1331.128, 108.7168
1332.191, 164.2305
1333.255, 0.7558590
1334.318, 162.2363
1335.381, 25.70898
1336.444, 101.8477
1337.507, 63.26270
1338.569, 124.6475
1339.632, 0.1689450
1340.694, 129.3916
1341.756, 117.5947
1342.818, 24.13184
1343.880, 135.0273
1344.941, 111.2383
1346.003, 98.72656
1347.064, 123.8311
1348.125, 38.94434
1349.186, 109.0312
1350.247, 14.37598
1351.308, 109.5156
1352.368, 134.3477
1353.428, 108.8389
