##NAMES=Edenite
##RRUFFID=R050415
##IDEAL CHEMISTRY=NaCa_2_Mg_5_(Si_7_Al)O_22_(OH)_2_
##LOCALITY=Mogok, Burma
##OWNER=RRUFF
##SOURCE=Marcus Origlieri
##DESCRIPTION=Transparent pale green water worn fragment
##STATUS=The identification of this mineral has been confirmed by X-ray diffraction and chemical analysis
##URL=rruff.info/R050415
##MEASURED CHEMISTRY=(Na_0.83_K_0.17_)(Ca_1.76_Na_0.24_)_&#931;=2_(Mg_4.54_Al_0.40_Fe^3+^_0.06_)_&#931;=5_(Si_6.74_Al_1.26_)O_22_((OH)_0.52_F_0.48_)_2_
##PIN_ID=L01128
##ORIENTATION=Laser parallel to -c* (0 0 -1). Fiducial mark perpendicular to laser is parallel to -a [-1 0 0]
100.8830, 0.0000000E+00
102.1160, 155.3311
103.3490, 6.951172
104.5820, 366.2993
105.8150, 590.1738
107.0470, 1291.988
108.2800, 2001.882
109.5120, 1325.640
110.7440, 918.3936
111.9760, 989.2979
113.2080, 1346.693
114.4400, 2029.015
115.6710, 2346.118
116.9030, 2941.844
118.1340, 3635.029
119.3650, 4338.522
120.5960, 5099.171
121.8270, 5636.253
123.0580, 5860.587
124.2880, 5362.720
125.5190, 4411.103
126.7490, 3496.204
127.9790, 2586.894
129.2090, 2033.068
130.4390, 1306.634
131.6680, 927.5176
132.8980, 559.6533
134.1270, 313.9780
135.3560, 181.4331
136.5850, 228.9644
137.8140, 252.5176
139.0430, 192.0117
140.2710, 39.36719
141.5000, 62.48242
142.7280, 86.58984
143.9560, 73.99805
145.1840, 139.7471
146.4120, 30.86719
147.6390, 99.39062
148.8670, 34.65918
150.0940, 79.25391
151.3210, 339.3740
152.5490, 412.0010
153.7750, 336.1240
155.0020, 664.7412
156.2290, 837.8506
157.4550, 1057.454
158.6810, 1625.551
159.9080, 2274.148
161.1340, 2749.251
162.3590, 3930.847
163.5850, 5053.916
164.8110, 6622.443
166.0360, 7665.411
167.2610, 8361.805
168.4860, 8227.604
169.7110, 7614.803
170.9360, 6804.377
172.1610, 5843.318
173.3850, 5121.615
174.6100, 4672.156
175.8340, 4692.660
177.0580, 4306.426
178.2820, 4675.743
179.5050, 4114.397
180.7290, 4138.152
181.9520, 4129.027
183.1760, 4478.033
184.3990, 4525.183
185.6220, 4423.479
186.8450, 4384.924
188.0670, 3842.525
189.2900, 3676.289
190.5120, 3344.219
191.7340, 2925.318
192.9560, 2636.590
194.1780, 2359.035
195.4000, 2178.342
196.6220, 2029.361
197.8430, 2004.235
199.0640, 2028.279
200.2860, 2092.506
201.5070, 2176.912
202.7270, 2261.499
203.9480, 2299.264
205.1690, 2546.273
206.3890, 2707.602
207.6090, 3078.250
208.8290, 3329.202
210.0490, 3873.420
211.2690, 4306.010
212.4890, 4905.016
213.7080, 5616.324
214.9280, 6154.884
216.1470, 6876.863
217.3660, 7900.327
218.5850, 8760.229
219.8030, 9852.498
221.0220, 11043.99
222.2400, 12484.61
223.4590, 13811.34
224.6770, 15242.19
225.8950, 16514.15
227.1120, 16968.23
228.3300, 17327.40
229.5480, 17071.67
230.7650, 16419.02
231.9820, 15602.46
233.1990, 14650.00
234.4160, 14045.61
235.6330, 13605.31
236.8490, 13212.10
238.0660, 13005.97
239.2820, 12676.91
240.4980, 12286.94
241.7140, 11937.04
242.9300, 11302.21
244.1460, 10365.46
245.3610, 9768.781
246.5770, 8978.171
247.7920, 8463.570
249.0070, 7818.039
250.2220, 7510.496
251.4370, 7148.459
252.6510, 6243.000
253.8660, 6042.043
255.0800, 5623.535
256.2940, 5272.431
257.5080, 5012.697
258.7220, 4474.393
259.9360, 4139.188
261.1490, 3446.365
262.3630, 2821.814
263.5760, 2262.523
264.7890, 2127.480
266.0020, 1762.674
267.2150, 1344.095
268.4270, 1148.654
269.6400, 889.3115
270.8520, 892.1211
272.0640, 646.1367
273.2760, 651.3477
274.4880, 569.7490
275.7000, 394.3359
276.9120, 413.1045
278.1230, 388.0488
279.3340, 324.1631
280.5450, 310.4385
281.7560, 355.8701
282.9670, 349.0264
284.1780, 462.1934
285.3880, 406.0830
286.5980, 501.1143
287.8090, 516.3379
289.0190, 611.2314
290.2290, 598.5469
291.4380, 758.4678
292.6480, 787.8477
293.8570, 882.0859
295.0670, 1026.786
296.2760, 1174.138
297.4850, 1289.329
298.6930, 1381.627
299.9020, 1474.028
301.1110, 1350.529
302.3190, 1668.131
303.5270, 1608.826
304.7350, 1885.620
305.9430, 1610.511
307.1510, 1891.899
308.3580, 2056.803
309.5660, 2039.867
310.7730, 2263.457
311.9800, 2380.244
313.1870, 2673.799
314.3940, 2999.513
315.6010, 3420.247
316.8070, 3687.215
318.0130, 3930.937
319.2200, 4046.316
320.4260, 4330.344
321.6310, 4309.373
322.8370, 4177.682
324.0430, 3937.053
325.2480, 3904.920
326.4540, 3549.455
327.6590, 3297.317
328.8640, 3190.930
330.0680, 2868.273
331.2730, 2815.749
332.4780, 2750.445
333.6820, 2495.168
334.8860, 2595.835
336.0900, 2607.604
337.2940, 2429.047
338.4980, 2330.663
339.7010, 2474.465
340.9050, 2373.236
342.1080, 2418.270
343.3110, 2485.627
344.5140, 2565.389
345.7170, 2741.373
346.9200, 2716.451
348.1220, 2779.518
349.3240, 3013.278
350.5270, 3016.597
351.7290, 3170.779
352.9310, 3382.995
354.1320, 3444.246
355.3340, 3636.529
356.5350, 3649.843
357.7370, 3803.185
358.9380, 3799.554
360.1390, 3982.948
361.3400, 4228.367
362.5400, 4125.805
363.7410, 4168.266
364.9410, 4405.743
366.1410, 4508.235
367.3410, 4655.744
368.5410, 4687.266
369.7410, 4915.805
370.9400, 5107.355
372.1400, 5169.920
373.3390, 5241.497
374.5380, 5241.045
375.7370, 5163.685
376.9360, 5115.293
378.1350, 5079.915
379.3330, 4954.764
380.5310, 4843.184
381.7300, 4822.830
382.9280, 4776.484
384.1260, 4692.146
385.3230, 4616.816
386.5210, 4709.492
387.7180, 4799.174
388.9160, 4840.860
390.1130, 4988.555
391.3100, 5074.252
392.5060, 4941.004
393.7030, 5039.805
394.9000, 4947.658
396.0960, 4951.557
397.2920, 4502.497
398.4880, 4088.477
399.6840, 3990.492
400.8800, 3490.544
402.0750, 3104.629
403.2710, 2892.745
404.4660, 2565.891
405.6610, 2337.063
406.8560, 2170.266
408.0510, 2006.491
409.2450, 1912.743
410.4400, 1774.017
411.6340, 1703.312
412.8280, 1790.629
414.0220, 1527.965
415.2160, 1654.320
416.4100, 1820.694
417.6030, 1655.085
418.7970, 1573.838
419.9900, 1705.500
421.1830, 1852.397
422.3760, 1800.941
423.5690, 1821.865
424.7610, 1902.407
425.9540, 1900.870
427.1460, 1880.026
428.3380, 1871.437
429.5300, 1751.654
430.7220, 1653.973
431.9140, 1464.853
433.1050, 1420.788
434.2970, 1342.245
435.4880, 1236.910
436.6790, 1037.555
437.8700, 785.1387
439.0610, 972.8008
440.2510, 594.9658
441.4420, 614.5273
442.6320, 341.0850
443.8220, 369.6758
445.0120, 314.3242
446.2020, 200.9688
447.3910, 74.40137
448.5810, 41.21094
449.7700, 29.35742
450.9600, 72.76855
452.1490, 72.24414
453.3370, 113.4619
454.5260, 78.65332
455.7150, 71.28516
456.9030, 88.55371
458.0910, 50.14648
459.2800, 86.60449
460.4670, 52.31250
461.6550, 153.0830
462.8430, 223.9551
464.0300, 141.2412
465.2180, 142.6338
466.4050, 76.13574
467.5920, 30.71484
468.7790, 22.34766
469.9650, 92.03320
471.1520, 196.8066
472.3380, 205.7256
473.5250, 221.1641
474.7110, 254.0215
475.8970, 156.4258
477.0820, 216.9561
478.2680, 136.6484
479.4540, 97.45801
480.6390, 34.36621
481.8240, 14.66797
483.0090, 42.66113
484.1940, 74.62891
485.3780, 63.57422
486.5630, 51.49414
487.7470, 106.3887
488.9320, 46.26465
490.1160, 170.1064
491.3000, 12.92871
492.4830, 87.73438
493.6670, 307.5273
494.8500, 231.2959
496.0340, 289.0420
497.2170, 323.7627
498.4000, 323.4600
499.5820, 525.1289
500.7650, 1137.771
501.9480, 1034.896
503.1300, 1265.982
504.3120, 1213.553
505.4940, 1347.101
506.6760, 1489.651
507.8580, 1714.455
509.0390, 2144.693
510.2210, 2318.184
511.4020, 2688.646
512.5830, 2997.098
513.7640, 3085.523
514.9450, 3286.920
516.1250, 3295.286
517.3060, 3131.623
518.4860, 3168.928
519.6660, 3036.203
520.8460, 2936.449
522.0260, 2960.684
523.2060, 2838.887
524.3850, 2671.059
525.5650, 2561.222
526.7440, 2410.355
527.9230, 2362.479
529.1020, 2439.574
530.2810, 2149.686
531.4590, 2300.799
532.6380, 2261.883
533.8160, 2161.932
534.9940, 2226.949
536.1720, 1967.949
537.3500, 1912.938
538.5270, 1802.938
539.7050, 1709.900
540.8820, 1616.837
542.0590, 1468.752
543.2360, 1267.630
544.4130, 984.4941
545.5900, 1093.320
546.7660, 743.1064
547.9430, 849.8740
549.1190, 652.6113
550.2950, 620.3115
551.4710, 636.9727
552.6470, 456.5938
553.8220, 452.1729
554.9980, 375.7109
556.1730, 397.2324
557.3480, 371.7109
558.5230, 286.1758
559.6980, 207.6025
560.8730, 154.9824
562.0470, 146.3135
563.2220, 165.6094
564.3960, 207.8516
565.5700, 170.5703
566.7440, 177.8799
567.9170, 145.4082
569.0910, 100.4844
570.2640, 146.4873
571.4380, 28.43359
572.6110, 62.28027
573.7840, 166.0420
574.9570, 143.7422
576.1290, 137.3750
577.3020, 187.9531
578.4740, 106.4707
579.6460, 314.9111
580.8180, 226.2998
581.9900, 356.6592
583.1620, 348.9688
584.3330, 341.3857
585.5040, 329.3535
586.6760, 331.7480
587.8470, 213.9307
589.0180, 192.0518
590.1880, 141.1094
591.3590, 218.6973
592.5290, 158.8037
593.7000, 95.77051
594.8700, 239.2246
596.0400, 322.5039
597.2090, 227.0361
598.3790, 275.4268
599.5490, 228.8125
600.7180, 181.9795
601.8870, 207.4014
603.0560, 271.1748
604.2250, 385.3086
605.3940, 444.4482
606.5620, 489.7207
607.7300, 578.1367
608.8990, 556.4678
610.0670, 625.1357
611.2350, 641.4873
612.4020, 664.2305
613.5700, 769.4375
614.7370, 902.7900
615.9050, 942.0273
617.0720, 1016.150
618.2390, 1058.312
619.4060, 1068.142
620.5720, 1233.099
621.7390, 1303.283
622.9050, 1504.738
624.0710, 1682.530
625.2370, 1880.780
626.4030, 1939.085
627.5690, 2148.595
628.7340, 2360.463
629.9000, 2558.463
631.0650, 2977.015
632.2300, 3016.370
633.3950, 3157.867
634.5600, 3631.827
635.7240, 4003.047
636.8890, 4112.756
638.0530, 4614.400
639.2170, 4861.691
640.3810, 5432.195
641.5450, 5869.692
642.7080, 6219.236
643.8720, 6781.190
645.0350, 7346.833
646.1980, 7885.604
647.3610, 8509.322
648.5240, 9131.812
649.6870, 9818.867
650.8490, 10512.51
652.0120, 11311.28
653.1740, 12180.98
654.3360, 12959.13
655.4980, 14099.21
656.6600, 15004.12
657.8210, 15940.10
658.9830, 17200.99
660.1440, 18373.37
661.3050, 19857.92
662.4660, 21332.75
663.6270, 23270.74
664.7870, 25512.34
665.9480, 28015.34
667.1080, 30619.35
668.2680, 33473.24
669.4280, 36437.51
670.5880, 39213.68
671.7480, 41795.54
672.9070, 43740.82
674.0670, 45249.39
675.2260, 46208.58
676.3850, 45451.61
677.5440, 44502.69
678.7030, 42023.61
679.8610, 39336.71
681.0200, 36089.85
682.1780, 32350.81
683.3360, 29013.93
684.4940, 25512.60
685.6520, 22439.13
686.8090, 19531.53
687.9670, 17008.28
689.1240, 14653.71
690.2810, 13071.21
691.4380, 11552.60
692.5950, 10093.96
693.7520, 9007.122
694.9080, 7962.948
696.0650, 7009.936
697.2210, 6230.932
698.3770, 5575.443
699.5330, 4891.874
700.6880, 4371.773
701.8440, 4022.527
702.9990, 3533.264
704.1550, 3262.549
705.3100, 3070.636
706.4650, 2755.689
707.6190, 2380.501
708.7740, 2273.646
709.9290, 2177.460
711.0830, 1798.725
712.2370, 1861.685
713.3910, 1709.287
714.5450, 1592.187
715.6980, 1319.594
716.8520, 1450.119
718.0050, 1315.471
719.1580, 1280.153
720.3110, 1345.861
721.4640, 1201.753
722.6170, 1117.892
723.7700, 1283.984
724.9220, 1113.581
726.0740, 1036.497
727.2260, 1005.779
728.3780, 943.7949
729.5300, 882.6035
730.6810, 878.6104
731.8330, 788.3203
732.9840, 711.6221
734.1350, 712.8750
735.2860, 659.0615
736.4370, 712.5137
737.5880, 537.1963
738.7380, 642.2705
739.8880, 663.2266
741.0390, 592.5195
742.1890, 464.0674
743.3380, 480.8867
744.4880, 437.2012
745.6380, 446.4814
746.7870, 432.2412
747.9360, 391.9590
749.0850, 369.6338
750.2340, 326.2852
751.3830, 280.9375
752.5310, 215.5947
753.6800, 191.2578
754.8280, 212.9365
755.9760, 217.6045
757.1240, 273.2793
758.2720, 87.94238
759.4190, 13.57715
760.5670, 116.1523
761.7140, 18.67285
762.8610, 108.1191
764.0080, 57.50195
765.1550, 25.81738
766.3020, 43.06055
767.4480, 152.2324
768.5950, 56.34668
769.7410, 91.60840
770.8870, 7.684570
772.0330, 126.1494
773.1780, 66.91895
774.3240, 161.6221
775.4690, 165.3428
776.6140, 236.8389
777.7590, 173.3564
778.9040, 162.6318
780.0490, 22.20410
781.1940, 51.52344
782.3380, 14.77832
783.4820, 70.04297
784.6260, 104.0166
785.7700, 51.98633
786.9140, 118.9033
788.0580, 45.72949
789.2010, 28.50977
790.3450, 31.15723
791.4880, 102.7568
792.6310, 105.2959
793.7730, 132.2422
794.9160, 102.1914
796.0590, 111.5469
797.2010, 24.84473
798.3430, 35.92383
799.4850, 85.21387
800.6270, 41.29004
801.7690, 56.69531
802.9100, 26.21484
804.0520, 65.93750
805.1930, 22.80078
806.3340, 168.5234
807.4750, 105.0078
808.6160, 11.37988
809.7560, 88.70312
810.8970, 20.96777
812.0370, 47.82812
813.1770, 62.71973
814.3170, 160.7139
815.4570, 95.14062
816.5960, 21.06152
817.7360, 39.34277
818.8750, 42.29004
820.0140, 74.13477
821.1530, 77.33691
822.2920, 94.75293
823.4310, 67.88574
824.5690, 11.62305
825.7070, 8.430664
826.8460, 39.69727
827.9840, 50.76953
829.1220, 40.78809
830.2590, 70.75000
831.3970, 87.33984
832.5340, 47.46582
833.6710, 105.7822
834.8080, 8.143555
835.9450, 82.43457
837.0820, 23.03711
838.2190, 87.56934
839.3550, 19.80469
840.4910, 132.8691
841.6270, 61.66406
842.7630, 8.537109
843.8990, 37.53516
845.0350, 121.5664
846.1700, 26.43750
847.3060, 84.50391
848.4410, 8.421875
849.5760, 66.30859
850.7100, 95.15527
851.8450, 53.03711
852.9800, 110.7070
854.1140, 152.4111
855.2480, 38.08398
856.3820, 105.2891
857.5160, 1.758789
858.6500, 74.58789
859.7830, 203.8770
860.9170, 2.624023
862.0500, 43.41992
863.1830, 65.72168
864.3160, 21.82520
865.4480, 72.89062
866.5810, 28.07324
867.7130, 152.9131
868.8460, 109.8711
869.9780, 87.80469
871.1100, 183.7021
872.2410, 247.5664
873.3730, 243.3994
874.5050, 93.20117
875.6360, 278.9629
876.7670, 218.6992
877.8980, 417.4043
879.0290, 465.0801
880.1590, 551.7363
881.2900, 807.3691
882.4200, 702.9688
883.5500, 917.5703
884.6800, 1028.145
885.8100, 988.6875
886.9400, 1079.070
888.0690, 1214.236
889.1990, 1463.098
890.3280, 1577.871
891.4570, 1762.727
892.5860, 1842.574
893.7140, 1867.623
894.8430, 2046.848
895.9710, 2330.676
897.1000, 2916.020
898.2280, 2641.855
899.3560, 3709.334
900.4830, 2386.234
901.6110, 2532.492
902.7380, 2731.146
903.8660, 2864.543
904.9930, 3028.363
906.1200, 3090.664
907.2460, 3318.225
908.3730, 3492.422
909.5000, 3696.314
910.6260, 4066.646
911.7520, 4072.982
912.8780, 4359.613
914.0040, 4455.963
915.1290, 4631.268
916.2550, 4811.471
917.3800, 5076.213
918.5050, 5191.203
919.6300, 5250.020
920.7550, 5321.064
921.8800, 5373.084
923.0040, 5291.211
924.1290, 5327.924
925.2530, 5287.477
926.3770, 5182.020
927.5010, 5120.053
928.6250, 4966.107
929.7480, 4948.297
930.8720, 4728.346
931.9950, 4636.422
933.1180, 4438.934
934.2410, 4277.195
935.3640, 4221.277
936.4860, 4110.016
937.6090, 4124.797
938.7310, 4019.338
939.8530, 4019.807
940.9750, 4031.312
942.0970, 3731.410
943.2180, 3852.520
944.3400, 3701.863
945.4610, 3874.730
946.5820, 3724.250
947.7030, 3495.068
948.8240, 3768.994
949.9450, 3705.795
951.0650, 3603.676
952.1860, 3621.340
953.3060, 3701.891
954.4260, 3682.562
955.5460, 3615.998
956.6650, 3311.811
957.7850, 3361.691
958.9040, 3491.645
960.0230, 3027.170
961.1420, 3301.936
962.2610, 3173.566
963.3800, 3402.238
964.4990, 3057.867
965.6170, 3036.613
966.7350, 2955.629
967.8530, 3034.270
968.9710, 2809.211
970.0890, 3008.223
971.2070, 2880.996
972.3240, 3053.264
973.4410, 3056.525
974.5580, 2903.025
975.6750, 2981.535
976.7920, 2935.463
977.9090, 3049.641
979.0250, 3054.203
980.1410, 2998.115
981.2580, 3279.477
982.3740, 3031.223
983.4890, 3425.652
984.6050, 3181.322
985.7200, 3300.109
986.8360, 3150.119
987.9510, 3380.963
989.0660, 3673.977
990.1810, 3799.508
991.2950, 3642.434
992.4100, 3978.703
993.5240, 3996.656
994.6390, 4215.547
995.7530, 4685.797
996.8660, 4790.656
997.9800, 5029.689
999.0940, 5279.133
1000.207, 5575.971
1001.320, 6002.529
1002.433, 6067.363
1003.546, 6481.533
1004.659, 6554.043
1005.772, 6747.521
1006.884, 7185.002
1007.996, 7422.357
1009.108, 7559.074
1010.220, 7850.152
1011.332, 7950.119
1012.444, 7839.416
1013.555, 8090.697
1014.666, 7844.527
1015.777, 8310.219
1016.888, 8189.686
1017.999, 8372.285
1019.110, 8444.953
1020.220, 8553.184
1021.331, 8411.438
1022.441, 8714.652
1023.551, 8532.527
1024.661, 8666.334
1025.770, 8570.129
1026.880, 8738.432
1027.989, 8631.721
1029.098, 8765.371
1030.207, 8917.113
1031.316, 8957.477
1032.425, 9076.369
1033.533, 9124.213
1034.642, 9320.725
1035.750, 9639.762
1036.858, 9354.543
1037.966, 9740.492
1039.073, 9591.910
1040.181, 10000.34
1041.288, 10005.74
1042.396, 10209.95
1043.503, 10162.11
1044.610, 10259.60
1045.716, 10315.82
1046.823, 10354.09
1047.929, 10211.87
1049.036, 10299.03
1050.142, 10278.94
1051.248, 10394.15
1052.353, 10317.00
1053.459, 10356.41
1054.564, 10385.85
1055.670, 10785.83
1056.775, 10808.78
1057.880, 11109.97
1058.985, 11326.92
1060.089, 11415.96
1061.194, 11860.04
1062.298, 12117.73
1063.402, 11953.54
1064.506, 12295.32
1065.610, 12310.70
1066.713, 11900.36
1067.817, 11597.92
1068.920, 11668.54
1070.023, 11425.88
1071.126, 10805.47
1072.229, 10557.73
1073.332, 9790.691
1074.435, 9190.395
1075.537, 8454.461
1076.639, 7780.709
1077.741, 7224.631
1078.843, 6688.258
1079.945, 6189.715
1081.046, 5503.172
1082.148, 5159.969
1083.249, 4556.730
1084.350, 4006.428
1085.451, 3577.432
1086.551, 3196.604
1087.652, 2872.572
1088.752, 2576.508
1089.853, 2393.076
1090.953, 2311.625
1092.053, 2123.900
1093.152, 2166.828
1094.252, 1780.461
1095.351, 1841.490
1096.451, 1581.504
1097.550, 1358.240
1098.649, 1548.227
1099.748, 1245.576
1100.846, 1189.379
1101.945, 1230.027
1103.043, 1128.463
1104.141, 1224.840
1105.239, 902.1816
1106.337, 918.8066
1107.434, 875.4590
1108.532, 567.4219
1109.629, 860.9922
1110.726, 805.9590
1111.823, 536.4043
1112.920, 892.0820
1114.017, 743.4922
1115.113, 794.8281
1116.210, 740.4590
1117.306, 544.0781
1118.402, 597.6602
1119.498, 700.7617
1120.593, 800.8164
1121.689, 631.9434
1122.784, 663.6914
1123.879, 622.8477
1124.974, 718.7715
1126.069, 597.9082
1127.164, 494.9707
1128.259, 409.2559
1129.353, 257.4844
1130.447, 550.4922
1131.541, 78.49023
1132.635, 415.3477
1133.729, 164.7598
1134.822, 281.4824
1135.916, 180.3105
1137.009, 47.61719
1138.102, 354.0254
1139.195, 142.2031
1140.288, 439.8145
1141.380, 214.9043
1142.473, 217.9844
1143.565, 164.0332
1144.657, 59.26953
1145.749, 37.72070
1146.841, 71.22852
1147.932, 126.6426
1149.024, 93.76172
1150.115, 77.22266
1151.206, 7.046875
1152.297, 176.7422
1153.388, 185.9473
1154.479, 158.8926
1155.569, 77.02734
1156.659, 48.96875
1157.750, 166.6543
1158.839, 6.666016
1159.929, 119.3711
1161.019, 74.51367
1162.108, 153.4941
1163.198, 199.0859
1164.287, 41.02148
1165.376, 120.6426
1166.465, 20.34961
1167.553, 57.44727
1168.642, 17.78711
1169.730, 25.06445
1170.818, 153.6641
1171.906, 158.5898
1172.994, 99.37500
1174.082, 3.937500
1175.170, 21.92188
1176.257, 49.26172
1177.344, 16.68750
1178.431, 56.70117
1179.518, 61.93164
1180.605, 59.07422
1181.691, 27.77148
1182.778, 86.70312
1183.864, 3.417969
1184.950, 189.7695
1186.036, 23.85156
1187.122, 26.73438
1188.207, 88.24805
1189.292, 27.82422
1190.378, 4.718750
1191.463, 84.63672
1192.548, 125.7578
1193.632, 43.97461
1194.717, 47.91016
1195.801, 136.1484
1196.886, 67.97852
1197.970, 89.85547
1199.054, 71.68945
1200.137, 135.2422
1201.221, 25.14648
1202.305, 149.9023
1203.388, 1.972656
1204.471, 41.39844
1205.554, 198.4414
1206.637, 157.6035
1207.719, 229.7070
1208.802, 37.74609
1209.884, 90.60156
1210.966, 2.498047
1212.048, 246.0137
1213.130, 49.29492
1214.212, 68.52344
1215.293, 190.5781
1216.374, 147.8613
1217.456, 221.7109
1218.536, 6.675781
1219.617, 64.95703
1220.698, 276.6348
1221.778, 101.1914
1222.859, 179.2129
1223.939, 244.2559
1225.019, 143.1719
1226.099, 140.0996
1227.178, 199.9707
1228.258, 371.5059
1229.337, 284.1270
1230.417, 168.5176
1231.496, 204.4922
1232.574, 489.2109
1233.653, 255.3828
1234.732, 256.7285
1235.810, 425.0801
1236.888, 170.9102
1237.966, 336.0059
1239.044, 423.4727
1240.122, 320.8027
1241.199, 437.8086
1242.277, 373.2969
1243.354, 428.9199
1244.431, 198.1152
1245.508, 357.0859
1246.585, 350.4492
1247.661, 349.0098
1248.738, 455.8945
1249.814, 457.2109
1250.890, 428.1250
1251.966, 506.7578
1253.042, 406.4707
1254.117, 450.4082
1255.193, 392.3633
1256.268, 424.9648
1257.343, 362.2188
1258.418, 365.9570
1259.493, 404.7441
1260.567, 395.0664
1261.642, 413.9551
1262.716, 509.5254
1263.790, 659.0645
1264.864, 619.5195
1265.938, 494.6055
1267.011, 222.3730
1268.085, 503.3770
1269.158, 383.6895
1270.231, 495.2188
1271.304, 503.4980
1272.377, 516.6055
1273.450, 583.9375
1274.522, 488.4961
1275.594, 587.1230
