##NAMES=Edenite
##RRUFFID=R060029
##IDEAL CHEMISTRY=NaCa_2_Mg_5_(Si_7_Al)O_22_(OH)_2_
##LOCALITY=Renfrew County, Ontario, Canada
##OWNER=RRUFF
##SOURCE=University of Arizona Mineral Museum
##DESCRIPTION=Black prismatic
##STATUS=The identification of this mineral has been confirmed by X-ray diffraction and chemical analysis
##URL=rruff.info/R060029
##MEASURED CHEMISTRY=(Na_0.62_K_0.34_[box]_0.04_)(Ca_0.86_Na_0.14_)_2_(Mg_0.57_Fe^2+^_0.30_Fe^3+^_0.07_Al_0.05_Ti_0.01_Mn_0.01_)_5_(Si_6.61_Al_1.39_)O_22_((OH)_0.69_F_0.31_)_2_
##PIN_ID=M00136
##ORIENTATION=Laser parallel to b* (0 1 0). Fiducial mark perpendicular to laser is parallel to c [0 0 1]
261.1490, 0.0000000E+00
262.3630, 56.14160
263.5760, 47.90527
264.7890, 73.55371
266.0020, 36.39648
267.2150, 2.467773
268.4270, 40.30566
269.6400, 40.78320
270.8520, 18.44531
272.0640, 54.54883
273.2760, 23.42578
274.4880, 12.30664
275.7000, 141.8838
276.9120, 236.6113
278.1230, 298.2676
279.3340, 225.9082
280.5450, 327.6650
281.7560, 360.1807
282.9670, 390.1641
284.1780, 596.8926
285.3880, 517.7236
286.5980, 627.8096
287.8090, 647.2422
289.0190, 594.0742
290.2290, 695.2715
291.4380, 856.7686
292.6480, 766.5791
293.8570, 792.4424
295.0670, 745.4727
296.2760, 670.6309
297.4850, 711.8867
298.6930, 701.2393
299.9020, 536.6504
301.1110, 730.1074
302.3190, 692.6006
303.5270, 815.1221
304.7350, 496.6650
305.9430, 686.2207
307.1510, 583.7842
308.3580, 330.3633
309.5660, 397.1221
310.7730, 309.0781
311.9800, 422.6680
313.1870, 250.0449
314.3940, 228.3252
315.6010, 323.8467
316.8070, 260.5518
318.0130, 230.2236
319.2200, 265.7539
320.4260, 27.12988
321.6310, 361.3545
322.8370, 132.4355
324.0430, 35.62500
325.2480, 114.1758
326.4540, 226.8418
327.6590, 272.3760
328.8640, 264.7812
330.0680, 263.0596
331.2730, 180.2129
332.4780, 199.5645
333.6820, 137.1621
334.8860, 201.4824
336.0900, 208.2393
337.2940, 238.9189
338.4980, 348.5303
339.7010, 284.0781
340.9050, 539.5674
342.1080, 380.0049
343.3110, 665.3926
344.5140, 716.7344
345.7170, 794.0283
346.9200, 827.2793
348.1220, 1021.486
349.3240, 978.6523
350.5270, 1144.778
351.7290, 1447.861
352.9310, 1598.908
354.1320, 1572.938
355.3340, 1752.654
356.5350, 1779.175
357.7370, 1662.900
358.9380, 1757.081
360.1390, 1741.294
361.3400, 1807.191
362.5400, 1847.379
363.7410, 1962.130
364.9410, 1975.670
366.1410, 1973.253
367.3410, 1934.910
368.5410, 1934.384
369.7410, 1789.950
370.9400, 1903.010
372.1400, 1773.676
373.3390, 1785.100
374.5380, 1694.026
375.7370, 1635.187
376.9360, 1674.243
378.1350, 1548.720
379.3330, 1638.206
380.5310, 1419.111
381.7300, 1168.966
382.9280, 1182.767
384.1260, 970.5166
385.3230, 979.2070
386.5210, 869.8398
387.7180, 675.4082
388.9160, 905.9150
390.1130, 701.3594
391.3100, 621.7402
392.5060, 626.0596
393.7030, 585.3174
394.9000, 348.5146
396.0960, 365.6494
397.2920, 311.7236
398.4880, 482.7373
399.6840, 364.9111
400.8800, 363.2549
402.0750, 250.4199
403.2710, 266.1963
404.4660, 254.9141
405.6610, 240.7695
406.8560, 256.2568
408.0510, 122.5488
409.2450, 235.4336
410.4400, 317.2832
411.6340, 233.0225
412.8280, 399.9551
414.0220, 433.9219
415.2160, 356.3145
416.4100, 466.3281
417.6030, 413.3584
418.7970, 539.4014
419.9900, 645.4541
421.1830, 666.5137
422.3760, 648.5762
423.5690, 765.6396
424.7610, 728.7031
425.9540, 678.7627
427.1460, 717.8174
428.3380, 681.3457
429.5300, 747.9072
430.7220, 645.9404
431.9140, 608.9629
433.1050, 539.2422
434.2970, 447.9688
435.4880, 489.9482
436.6790, 487.9014
437.8700, 531.8369
439.0610, 376.7529
440.2510, 304.6484
441.4420, 254.5254
442.6320, 341.3809
443.8220, 231.4316
445.0120, 249.8945
446.2020, 237.5117
447.3910, 244.8037
448.5810, 131.3867
449.7700, 100.7988
450.9600, 71.36230
452.1490, 151.2158
453.3370, 43.25293
454.5260, 164.0938
455.7150, 210.3105
456.9030, 85.11426
458.0910, 56.32617
459.2800, 85.71777
460.4670, 39.65430
461.6550, 45.19043
462.8430, 49.04395
464.0300, 32.65820
465.2180, 23.71484
466.4050, 96.67773
467.5920, 191.9854
468.7790, 84.52930
469.9650, 153.7139
471.1520, 2.770508
472.3380, 85.34766
473.5250, 28.01367
474.7110, 52.10254
475.8970, 110.7471
477.0820, 46.38281
478.2680, 39.04883
479.4540, 43.65039
480.6390, 42.94434
481.8240, 103.1875
483.0090, 188.3867
484.1940, 186.5430
485.3780, 214.6582
486.5630, 221.7324
487.7470, 374.7656
488.9320, 481.7617
490.1160, 558.5801
491.3000, 704.6396
492.4830, 761.5215
493.6670, 847.3672
494.8500, 959.1738
496.0340, 910.9424
497.2170, 1013.675
498.4000, 943.3652
499.5820, 1140.007
500.7650, 1250.575
501.9480, 1387.100
503.1300, 1402.565
504.3120, 1619.926
505.4940, 1668.830
506.6760, 1800.340
507.8580, 1798.318
509.0390, 1938.168
510.2210, 1909.945
511.4020, 2055.655
512.5830, 2140.280
513.7640, 2346.839
514.9450, 2382.338
516.1250, 2361.791
517.3060, 2562.201
518.4860, 2731.573
519.6660, 2819.910
520.8460, 3280.211
522.0260, 3303.477
523.2060, 3392.705
524.3850, 3269.898
525.5650, 3557.057
526.7440, 3701.180
527.9230, 3699.267
529.1020, 3652.320
530.2810, 3642.338
531.4590, 3558.321
532.6380, 3733.270
533.8160, 3687.184
534.9940, 3776.064
536.1720, 3685.909
537.3500, 3474.720
538.5270, 3633.498
539.7050, 3393.245
540.8820, 3349.960
542.0590, 3462.641
543.2360, 3368.289
544.4130, 3376.904
545.5900, 3132.509
546.7660, 3193.080
547.9430, 3150.652
549.1190, 3145.221
550.2950, 2910.526
551.4710, 2911.057
552.6470, 2950.570
553.8220, 2825.101
554.9980, 2913.642
556.1730, 2786.198
557.3480, 2735.743
558.5230, 2566.277
559.6980, 2494.846
560.8730, 2520.410
562.0470, 2542.990
563.2220, 2274.539
564.3960, 2263.074
565.5700, 2105.583
566.7440, 2163.051
567.9170, 1934.481
569.0910, 1901.886
570.2640, 1678.269
571.4380, 1585.870
572.6110, 1484.538
573.7840, 1343.271
574.9570, 1272.539
576.1290, 1085.765
577.3020, 950.9492
578.4740, 830.0938
579.6460, 698.2080
580.8180, 594.2617
581.9900, 500.2842
583.1620, 389.2656
584.3330, 333.2051
585.5040, 229.1035
586.6760, 98.95410
587.8470, 122.7490
589.0180, 98.48926
590.1880, 45.27441
591.3590, 191.3066
592.5290, 52.84863
593.7000, 48.07031
594.8700, 206.3428
596.0400, 53.08203
597.2090, 55.37695
598.3790, 30.73047
599.5490, 11.54980
600.7180, 69.96191
601.8870, 83.37402
603.0560, 117.9199
604.2250, 66.14062
605.3940, 71.53125
606.5620, 35.07324
607.7300, 291.9424
608.8990, 164.2598
610.0670, 127.8740
611.2350, 136.8125
612.4020, 6.988281
613.5700, 97.95312
614.7370, 268.8750
615.9050, 160.2373
617.0720, 193.3682
618.2390, 274.1191
619.4060, 219.0801
620.5720, 297.0859
621.7390, 360.0322
622.9050, 505.8428
624.0710, 561.3848
625.2370, 463.8721
626.4030, 568.4824
627.5690, 597.2441
628.7340, 680.8213
629.9000, 781.5059
631.0650, 890.6904
632.2300, 1084.841
633.3950, 1130.959
634.5600, 1185.046
635.7240, 1193.101
636.8890, 1252.123
638.0530, 1523.115
639.2170, 1384.074
640.3810, 1752.003
641.5450, 1739.900
642.7080, 1927.768
643.8720, 2183.604
645.0350, 2268.410
646.1980, 2416.247
647.3610, 2615.936
648.5240, 2682.656
649.6870, 2878.349
650.8490, 3190.014
652.0120, 3584.650
653.1740, 3783.261
654.3360, 4175.846
655.4980, 4584.403
656.6600, 4932.938
657.8210, 5428.441
658.9830, 5845.924
660.1440, 6465.380
661.3050, 6919.810
662.4660, 7250.997
663.6270, 7585.668
664.7870, 7690.954
665.9480, 7887.287
667.1080, 7751.594
668.2680, 7580.878
669.4280, 7577.138
670.5880, 7092.374
671.7480, 6658.588
672.9070, 6446.777
674.0670, 5894.941
675.2260, 5585.086
676.3850, 5078.207
677.5440, 4750.304
678.7030, 4331.849
679.8610, 4034.333
681.0200, 3787.934
682.1780, 3532.943
683.3360, 3488.932
684.4940, 3334.337
685.6520, 3226.281
686.8090, 3073.668
687.9670, 2664.945
689.1240, 2791.590
690.2810, 2566.211
691.4380, 2624.436
692.5950, 2434.227
693.7520, 2329.088
694.9080, 2510.629
696.0650, 2596.707
697.2210, 2301.152
698.3770, 2304.048
699.5330, 2359.373
700.6880, 2656.398
701.8440, 2512.279
702.9990, 2727.801
704.1550, 2793.242
705.3100, 2929.300
706.4650, 2996.002
707.6190, 3006.257
708.7740, 3207.604
709.9290, 3197.947
711.0830, 3420.725
712.2370, 3432.407
713.3910, 3363.006
714.5450, 3527.355
715.6980, 3667.683
716.8520, 3785.986
718.0050, 3745.266
719.1580, 3907.521
720.3110, 3921.755
721.4640, 3868.966
722.6170, 4014.154
723.7700, 3887.104
724.9220, 3811.597
726.0740, 3801.891
727.2260, 3773.609
728.3780, 3955.711
729.5300, 3790.079
730.6810, 3726.252
731.8330, 3689.094
732.9840, 3547.212
734.1350, 3420.472
735.2860, 3352.814
736.4370, 3227.340
737.5880, 3108.463
738.7380, 3014.209
739.8880, 2824.183
741.0390, 2677.319
742.1890, 2477.411
743.3380, 2270.895
744.4880, 2255.970
745.6380, 2152.444
746.7870, 1956.124
747.9360, 2040.792
749.0850, 1584.969
750.2340, 1623.368
751.3830, 1471.630
752.5310, 1426.755
753.6800, 1372.830
754.8280, 1256.465
755.9760, 1115.248
757.1240, 1107.424
758.2720, 1037.288
759.4190, 1052.616
760.5670, 1009.851
761.7140, 931.0889
762.8610, 939.3262
764.0080, 1069.563
765.1550, 873.7998
766.3020, 954.6562
767.4480, 983.7607
768.5950, 929.5020
769.7410, 1050.732
770.8870, 1017.961
772.0330, 968.1865
773.1780, 885.4111
774.3240, 856.6357
775.4690, 951.8594
776.6140, 1068.084
777.7590, 1003.077
778.9040, 992.5332
780.0490, 930.7578
781.1940, 933.9844
782.3380, 901.2119
783.4820, 916.4414
784.6260, 658.6729
785.7700, 805.9062
786.9140, 721.1416
788.0580, 826.3799
789.2010, 753.6221
790.3450, 916.8672
791.4880, 738.1172
792.6310, 678.3701
793.7730, 518.6270
794.9160, 471.8896
796.0590, 600.1572
797.2010, 503.6406
798.3430, 613.7090
799.4850, 509.9941
800.6270, 425.2852
801.7690, 436.5830
802.9100, 310.8877
804.0520, 500.2012
805.1930, 342.5195
806.3340, 417.8486
807.4750, 365.1846
808.6160, 201.5283
809.7560, 444.8809
810.8970, 169.2432
812.0370, 97.61426
813.1770, 334.9961
814.3170, 149.3867
815.4570, 4.788086
816.5960, 272.1924
817.7360, 97.60742
818.8750, 164.0342
820.0140, 73.47266
821.1530, 78.07715
822.2920, 44.34277
823.4310, 152.2246
824.5690, 133.8555
825.7070, 86.54102
826.8460, 48.25781
827.9840, 80.99023
829.1220, 215.7500
830.2590, 201.6016
831.3970, 214.5391
832.5340, 101.5645
833.6710, 109.6250
834.8080, 304.7246
835.9450, 146.9580
837.0820, 230.2461
838.2190, 23.62598
839.3550, 118.0049
840.4910, 50.16992
841.6270, 45.15625
842.7630, 1.750000
843.8990, 60.64160
845.0350, 84.04199
846.1700, 85.46094
847.3060, 75.73828
848.4410, 31.35059
849.5760, 2.796875
850.7100, 79.77148
851.8450, 126.3613
852.9800, 173.9717
854.1140, 204.6221
855.2480, 224.3145
856.3820, 210.4697
857.5160, 317.4971
858.6500, 388.9561
859.7830, 426.7393
860.9170, 330.0557
862.0500, 407.0781
863.1830, 414.5137
864.3160, 419.1289
865.4480, 520.6680
866.5810, 443.7061
867.7130, 543.8506
868.8460, 573.4277
869.9780, 635.3662
871.1100, 627.3760
872.2410, 641.0244
873.3730, 724.8350
874.5050, 769.9023
875.6360, 754.0215
876.7670, 818.3779
877.8980, 739.5752
879.0290, 848.2012
880.1590, 884.9619
881.2900, 986.7617
882.4200, 1104.617
883.5500, 1139.500
884.6800, 1001.414
885.8100, 1100.361
886.9400, 1139.340
888.0690, 1218.362
889.1990, 1274.417
890.3280, 1084.500
891.4570, 1234.174
892.5860, 1345.352
893.7140, 1420.947
894.8430, 1462.935
895.9710, 1370.401
897.1000, 1451.639
898.2280, 1463.254
899.3560, 1472.055
900.4830, 1577.768
901.6110, 1504.962
902.7380, 1609.195
903.8660, 1642.827
904.9930, 1708.800
906.1200, 1704.804
907.2460, 1722.462
908.3730, 1810.250
909.5000, 1859.280
910.6260, 1847.346
911.7520, 1915.611
912.8780, 1840.690
914.0040, 2034.002
915.1290, 1975.854
916.2550, 1964.742
917.3800, 2153.662
918.5050, 2024.633
919.6300, 2123.656
920.7550, 2029.715
921.8800, 2085.805
923.0040, 2051.939
924.1290, 2147.106
925.2530, 1988.309
926.3770, 1966.545
927.5010, 2027.814
928.6250, 1940.162
929.7480, 1998.586
930.8720, 1983.044
931.9950, 1776.565
933.1180, 2086.127
934.2410, 1929.891
935.3640, 1812.352
936.4860, 1943.023
937.6090, 1676.730
938.7310, 1787.483
939.8530, 1904.286
940.9750, 1819.124
942.0970, 1776.997
943.2180, 1699.906
944.3400, 1680.961
945.4610, 1661.598
946.5820, 1704.896
947.7030, 1707.014
948.8240, 1834.166
949.9450, 1974.377
951.0650, 1926.641
952.1860, 1895.898
953.3060, 1911.906
954.4260, 1856.168
955.5460, 1762.778
956.6650, 1805.843
957.7850, 1749.387
958.9040, 1772.522
960.0230, 1810.784
961.1420, 1803.695
962.2610, 1788.659
963.3800, 1902.034
964.4990, 1825.860
965.6170, 1568.633
966.7350, 1752.761
967.8530, 1573.366
968.9710, 1720.623
970.0890, 1725.477
971.2070, 1601.920
972.3240, 1608.679
973.4410, 1827.622
974.5580, 1716.938
975.6750, 1723.474
976.7920, 1716.206
977.9090, 1697.415
979.0250, 1702.089
980.1410, 1611.041
981.2580, 1732.790
982.3740, 1819.506
983.4890, 1874.626
984.6050, 1796.373
985.7200, 1892.062
986.8360, 1918.238
987.9510, 1941.570
989.0660, 2061.848
990.1810, 2003.592
991.2950, 2122.390
992.4100, 2170.594
993.5240, 2251.171
994.6390, 2261.809
995.7530, 2294.080
996.8660, 2396.418
997.9800, 2460.049
999.0940, 2462.773
1000.207, 2534.901
1001.320, 2539.316
1002.433, 2591.775
1003.546, 2623.283
1004.659, 2652.872
1005.772, 2707.426
1006.884, 2734.062
1007.996, 2749.437
1009.108, 2812.474
1010.220, 2721.243
1011.332, 2713.055
1012.444, 2673.910
1013.555, 2741.805
1014.666, 2677.746
1015.777, 2717.729
1016.888, 2689.753
1017.999, 2699.815
1019.110, 2897.919
1020.220, 2760.283
1021.331, 2823.250
1022.441, 2665.478
1023.551, 2811.746
1024.661, 2897.053
1025.770, 2760.812
1026.880, 2842.205
1027.989, 2720.657
1029.098, 2648.249
1030.207, 2717.186
1031.316, 2750.554
1032.425, 2750.841
1033.533, 2616.791
1034.642, 2655.773
1035.750, 2625.195
1036.858, 2593.051
1037.966, 2656.613
1039.073, 2548.716
1040.181, 2617.850
1041.288, 2609.316
1042.396, 2633.188
1043.503, 2654.580
1044.610, 2615.621
1045.716, 2736.697
1046.823, 2595.811
1047.929, 2738.959
1049.036, 2464.260
1050.142, 2596.482
1051.248, 2794.787
1052.353, 2638.289
1053.459, 2628.610
1054.564, 2634.965
1055.670, 2539.668
1056.775, 2534.086
1057.880, 2570.538
1058.985, 2480.020
1060.089, 2527.535
1061.194, 2600.021
1062.298, 2358.269
1063.402, 2438.874
1064.506, 2301.276
1065.610, 2423.630
1066.713, 2511.322
1067.817, 2136.045
1068.920, 2221.229
1070.023, 2112.006
1071.126, 2053.899
1072.229, 2000.034
1073.332, 2038.893
1074.435, 1926.777
1075.537, 1837.689
1076.639, 1872.901
1077.741, 1945.918
1078.843, 1798.258
1079.945, 1946.142
1081.046, 1743.180
1082.148, 1743.190
1083.249, 1792.052
1084.350, 1675.162
1085.451, 1614.722
1086.551, 1658.393
1087.652, 1668.925
1088.752, 1645.210
1089.853, 1485.642
1090.953, 1503.438
1092.053, 1447.566
1093.152, 1389.321
1094.252, 1429.729
1095.351, 1289.548
1096.451, 1191.024
1097.550, 1374.599
1098.649, 1249.255
1099.748, 1220.951
1100.846, 1315.750
1101.945, 1163.050
1103.043, 1250.924
1104.141, 1002.848
1105.239, 1073.406
1106.337, 1193.415
1107.434, 845.5322
1108.532, 1116.819
1109.629, 545.3408
1110.726, 839.7461
1111.823, 997.1416
1112.920, 1024.970
1114.017, 535.4814
1115.113, 714.2305
1116.210, 624.9570
1117.306, 530.6562
1118.402, 803.5586
1119.498, 389.3867
1120.593, 656.4111
1121.689, 651.3359
1122.784, 770.8379
1123.879, 620.6719
1124.974, 558.3027
1126.069, 764.4199
1127.164, 817.9502
1128.259, 636.7666
1129.353, 764.2314
1130.447, 342.2256
1131.541, 404.5127
1132.635, 673.8701
1133.729, 506.3008
1134.822, 639.5674
1135.916, 657.7715
1137.009, 156.7988
1138.102, 558.8760
1139.195, 571.3877
1140.288, 179.2324
1141.380, 351.7734
1142.473, 261.4023
1143.565, 153.1738
1144.657, 202.6396
1145.749, 188.0488
1146.841, 111.8740
1147.932, 136.3184
1149.024, 112.5332
1150.115, 32.23828
1151.206, 106.6836
1152.297, 173.2080
1153.388, 163.8428
1154.479, 77.40332
1155.569, 100.8477
1156.659, 23.70996
1157.750, 26.35449
1158.839, 1.476563
1159.929, 88.31543
1161.019, 3.150391
1162.108, 4.200195
1163.198, 26.38184
1164.287, 29.97363
1165.376, 129.3066
1166.465, 83.43750
1167.553, 41.91797
1168.642, 121.5449
1169.730, 142.0938
1170.818, 139.8018
1171.906, 187.9746
1172.994, 1.792969
1174.082, 63.33203
1175.170, 195.0400
1176.257, 448.2080
1177.344, 90.48926
1178.431, 61.07910
1179.518, 3.262695
1180.605, 4.870117
1181.691, 78.00684
1182.778, 79.16504
1183.864, 48.86230
1184.950, 41.87988
1186.036, 44.87695
1187.122, 95.09766
1188.207, 151.0664
1189.292, 9.019531
1190.378, 26.06445
1191.463, 159.8691
1192.548, 154.2695
1193.632, 191.6963
1194.717, 105.5801
1195.801, 6.930664
1196.886, 208.6982
1197.970, 80.23633
1199.054, 15.92090
1200.137, 19.65234
1201.221, 24.02734
1202.305, 42.23242
1203.388, 34.24707
1204.471, 80.71289
1205.554, 140.1641
1206.637, 21.40039
1207.719, 0.8720700
1208.802, 4.501953
1209.884, 139.1602
1210.966, 144.0801
1212.048, 58.69629
1213.130, 150.5332
1214.212, 291.5205
1215.293, 11.44238
1216.374, 41.55566
1217.456, 14.46289
1218.536, 3.522461
1219.617, 23.38184
1220.698, 37.73535
1221.778, 93.09180
1222.859, 31.90039
1223.939, 3.314453
1225.019, 54.44336
1226.099, 120.1689
1227.178, 67.87500
1228.258, 30.43945
1229.337, 173.1904
1230.417, 64.79785
1231.496, 67.61621
1232.574, 219.8906
1233.653, 151.3779
1234.732, 34.15918
1235.810, 29.24219
1236.888, 79.60938
1237.966, 25.95410
1239.044, 153.3311
1240.122, 88.61719
1241.199, 188.8789
1242.277, 94.11523
1243.354, 52.32910
1244.431, 103.5117
1245.508, 117.6699
1246.585, 48.11816
1247.661, 125.9385
1248.738, 63.96973
1249.814, 201.9727
1250.890, 242.0088
1251.966, 115.9609
1253.042, 184.8867
1254.117, 21.21289
1255.193, 0.3779300
1256.268, 238.4014
1257.343, 167.1562
1258.418, 133.8848
1259.493, 26.58691
1260.567, 18.24609
1261.642, 69.85645
1262.716, 179.4346
1263.790, 62.98633
1264.864, 137.5049
1265.938, 129.9961
1267.011, 120.5098
1268.085, 57.94531
1269.158, 97.34570
1270.231, 124.7148
1271.304, 113.5361
1272.377, 100.8701
1273.450, 148.7432
1274.522, 65.99902
1275.594, 100.2188
1276.666, 168.4277
1277.738, 153.6387
1278.810, 180.7725
1279.882, 247.8799
1280.953, 65.95898
1282.025, 126.0010
1283.096, 139.0146
1284.167, 285.0000
1285.238, 235.9570
1286.308, 45.47363
1287.379, 187.3613
1288.449, 18.19824
1289.519, 148.0049
1290.589, 14.28223
1291.659, 232.4160
1292.729, 268.5283
1293.798, 43.47656
1294.868, 326.0840
1295.937, 180.6641
1297.006, 153.9697
1298.075, 223.4941
1299.143, 213.9023
1300.212, 88.33496
1301.280, 41.77637
1302.348, 82.15234
1303.416, 121.8730
1304.484, 172.2129
1305.552, 137.5264
1306.620, 97.81738
1307.687, 92.07520
1308.754, 187.1846
1309.821, 217.4434
1310.888, 72.56543
1311.955, 304.4980
1313.021, 199.1895
1314.088, 113.7148
1315.154, 198.6719
1316.220, 160.7168
1317.286, 241.7363
1318.352, 137.7334
1319.417, 130.7070
1320.483, 283.7139
1321.548, 206.9707
1322.613, 240.8721
1323.678, 192.9805
1324.743, 174.1396
1325.807, 100.8906
1326.872, 244.2188
1327.936, 323.8184
1329.000, 345.8975
1330.064, 130.4629
1331.128, 217.7588
1332.191, 186.5146
1333.255, 150.2578
1334.318, 283.5752
1335.381, 102.0664
1336.444, 231.5928
1337.507, 237.1094
1338.569, 290.6943
1339.632, 231.5576
1340.694, 205.3096
1341.756, 295.8115
1342.818, 329.1895
1343.880, 253.6787
1344.941, 320.5898
1346.003, 134.3799
1347.064, 168.7080
1348.125, 299.5859
1349.186, 228.1914
1350.247, 297.2539
1351.308, 313.9736
1352.368, 92.92285
1353.428, 284.3721
1354.489, 298.3467
1355.549, 130.0244
1356.608, 303.3701
1357.668, 160.1465
1358.727, 131.2744
1359.787, 182.0469
1360.846, 149.5381
1361.905, 258.5508
1362.964, 226.6230
1364.022, 186.0703
1365.081, 199.6045
1366.139, 61.31738
1367.197, 203.7031
1368.255, 155.1152
1369.313, 201.4570
1370.371, 269.2412
1371.428, 171.7783
1372.486, 249.2227
1373.543, 56.27148
1374.600, 83.62793
1375.657, 92.53711
1376.713, 245.5674
1377.770, 53.87695
1378.826, 80.81348
1379.882, 200.8066
1380.938, 190.5449
1381.994, 230.2295
1383.050, 109.9307
1384.106, 144.3262
1385.161, 136.9580
1386.216, 273.8477
1387.271, 294.9033
1388.326, 178.1670
1389.381, 63.70508
1390.435, 210.9248
1391.490, 109.8721
1392.544, 143.0947
1393.598, 38.40918
1394.652, 52.70703
1395.705, 64.15430
1396.759, 137.3320
1397.812, 25.69629
1398.866, 153.9707
1399.919, 143.3789
1400.972, 173.9434
1402.024, 199.0078
1403.077, 38.49902
1404.129, 30.96680
1405.181, 241.7568
1406.233, 119.5576
1407.285, 64.60156
1408.337, 56.29883
1409.389, 274.3799
1410.440, 282.9160
1411.491, 41.05371
1412.542, 249.3545
1413.593, 178.9434
