##NAMES=Edenite
##RRUFFID=R050415
##IDEAL CHEMISTRY=NaCa_2_Mg_5_(Si_7_Al)O_22_(OH)_2_
##LOCALITY=Mogok, Burma
##OWNER=RRUFF
##SOURCE=Marcus Origlieri
##DESCRIPTION=Transparent pale green water worn fragment
##STATUS=The identification of this mineral has been confirmed by X-ray diffraction and chemical analysis
##URL=rruff.info/R050415
##MEASURED CHEMISTRY=(Na_0.83_K_0.17_)(Ca_1.76_Na_0.24_)_&#931;=2_(Mg_4.54_Al_0.40_Fe^3+^_0.06_)_&#931;=5_(Si_6.74_Al_1.26_)O_22_((OH)_0.52_F_0.48_)_2_
##PIN_ID=L01094
##ORIENTATION=Laser parallel to b* (0 1 0). Fiducial mark perpendicular to laser is parallel to -c [0 0 -1]
93.48000, 0.0000000E+00
94.71400, 9.208008
95.94800, 110.7622
97.18200, 266.9644
98.41600, 422.4258
99.64900, 740.7979
100.8830, 1044.021
102.1160, 1391.708
103.3490, 1806.851
104.5820, 2443.827
105.8150, 3158.373
107.0470, 4325.953
108.2800, 4609.036
109.5120, 5887.544
110.7440, 5498.404
111.9760, 5689.272
113.2080, 6287.785
114.4400, 6852.403
115.6710, 7396.750
116.9030, 7490.224
118.1340, 7707.099
119.3650, 7720.878
120.5960, 7780.887
121.8270, 7514.756
123.0580, 7227.970
124.2880, 6770.509
125.5190, 5280.303
126.7490, 4307.291
127.9790, 3277.421
129.2090, 2386.638
130.4390, 1851.894
131.6680, 1272.116
132.8980, 813.2393
134.1270, 450.2061
135.3560, 309.9688
136.5850, 152.4844
137.8140, 31.71289
139.0430, 0.6162110
140.2710, 60.83789
141.5000, 116.6797
142.7280, 139.3779
143.9560, 196.8984
145.1840, 183.8887
146.4120, 228.6260
147.6390, 236.8926
148.8670, 130.6934
150.0940, 162.9736
151.3210, 548.1133
152.5490, 1103.729
153.7750, 1763.820
155.0020, 2651.387
156.2290, 3163.416
157.4550, 4007.905
158.6810, 4831.855
159.9080, 5642.262
161.1340, 6566.109
162.3590, 7267.381
163.5850, 8369.066
164.8110, 9925.143
166.0360, 11231.60
167.2610, 12052.34
168.4860, 11994.16
169.7110, 11122.11
170.9360, 9518.237
172.1610, 8104.556
173.3850, 6990.064
174.6100, 6056.771
175.8340, 5690.671
177.0580, 5164.763
178.2820, 5048.045
179.5050, 4841.515
180.7290, 4840.146
181.9520, 4853.926
183.1760, 4699.861
184.3990, 4724.952
185.6220, 4647.205
186.8450, 4436.722
188.0670, 4340.203
189.2900, 3952.948
190.5120, 3681.808
191.7340, 3335.682
192.9560, 3048.505
194.1780, 2758.246
195.4000, 2562.031
196.6220, 2435.931
197.8430, 2326.158
199.0640, 2366.500
200.2860, 2335.023
201.5070, 2460.735
202.7270, 2592.730
203.9480, 2761.084
205.1690, 2990.717
206.3890, 3407.787
207.6090, 3485.174
208.8290, 4083.919
210.0490, 4591.710
211.2690, 5286.363
212.4890, 5898.159
213.7080, 6882.328
214.9280, 7612.666
216.1470, 8539.119
217.3660, 9160.753
218.5850, 9829.758
219.8030, 10611.02
221.0220, 11046.59
222.2400, 11343.48
223.4590, 12125.70
224.6770, 12327.10
225.8950, 12738.63
227.1120, 12889.26
228.3300, 13080.97
229.5480, 12927.77
230.7650, 12482.64
231.9820, 11687.59
233.1990, 11192.62
234.4160, 10583.73
235.6330, 10293.90
236.8490, 9925.152
238.0660, 9812.471
239.2820, 9703.859
240.4980, 9616.669
241.7140, 9352.711
242.9300, 8914.990
244.1460, 8806.009
245.3610, 8404.588
246.5770, 8021.609
247.7920, 7718.979
249.0070, 7403.627
250.2220, 7181.521
251.4370, 6754.636
252.6510, 6298.919
253.8660, 5786.289
255.0800, 5520.732
256.2940, 4886.264
257.5080, 4741.896
258.7220, 4599.643
259.9360, 3914.507
261.1490, 3094.492
262.3630, 2578.583
263.5760, 2308.647
264.7890, 1953.502
266.0020, 1543.059
267.2150, 1347.279
268.4270, 1083.552
269.6400, 875.0059
270.8520, 837.6367
272.0640, 584.4385
273.2760, 417.4033
274.4880, 474.5283
275.7000, 483.8066
276.9120, 325.2334
278.1230, 436.8057
279.3340, 394.5186
280.5450, 472.3672
281.7560, 280.3486
282.9670, 319.4590
284.1780, 392.3408
285.3880, 504.4727
286.5980, 546.3086
287.8090, 615.9053
289.0190, 686.7803
290.2290, 826.9688
291.4380, 931.7236
292.6480, 1095.309
293.8570, 1150.811
295.0670, 1168.597
296.2760, 1348.955
297.4850, 1455.413
298.6930, 1535.969
299.9020, 1670.625
301.1110, 1790.375
302.3190, 1890.216
303.5270, 1891.149
304.7350, 1931.166
305.9430, 2000.271
307.1510, 2151.557
308.3580, 2324.017
309.5660, 2505.326
310.7730, 2800.984
311.9800, 3065.876
313.1870, 3334.369
314.3940, 3547.184
315.6010, 3799.900
316.8070, 4036.264
318.0130, 4197.298
319.2200, 4319.641
320.4260, 4359.659
321.6310, 4398.144
322.8370, 4431.578
324.0430, 4292.441
325.2480, 4086.673
326.4540, 3759.828
327.6590, 3466.349
328.8640, 3379.940
330.0680, 3083.246
331.2730, 2893.540
332.4780, 2750.474
333.6820, 2562.066
334.8860, 2412.709
336.0900, 2361.400
337.2940, 2392.141
338.4980, 2190.930
339.7010, 2238.519
340.9050, 2095.380
342.1080, 2207.949
343.3110, 2161.226
344.5140, 2112.848
345.7170, 2165.405
346.9200, 2111.431
348.1220, 2344.129
349.3240, 2321.484
350.5270, 2408.650
351.7290, 2518.664
352.9310, 2495.445
354.1320, 2694.898
355.3340, 2819.238
356.5350, 2826.372
357.7370, 2880.595
358.9380, 2935.087
360.1390, 2985.525
361.3400, 3236.984
362.5400, 3439.463
363.7410, 3543.961
364.9410, 3956.476
366.1410, 4058.004
367.3410, 4349.547
368.5410, 4678.102
369.7410, 4943.667
370.9400, 5232.243
372.1400, 5682.829
373.3390, 5888.424
374.5380, 6396.028
375.7370, 6499.640
376.9360, 6839.261
378.1350, 7206.889
379.3330, 7364.521
380.5310, 7313.162
381.7300, 7784.809
382.9280, 7926.462
384.1260, 7937.119
385.3230, 8240.823
386.5210, 8314.569
387.7180, 8462.349
388.9160, 8599.160
390.1130, 8361.998
391.3100, 8493.863
392.5060, 8362.752
393.7030, 8170.661
394.9000, 8041.593
396.0960, 7526.544
397.2920, 6955.516
398.4880, 6610.507
399.6840, 5926.516
400.8800, 5276.541
402.0750, 4954.584
403.2710, 4376.643
404.4660, 3809.718
405.6610, 3635.807
406.8560, 3182.913
408.0510, 2991.031
409.2450, 2926.168
410.4400, 2820.319
411.6340, 2696.489
412.8280, 2695.798
414.0220, 2659.881
415.2160, 2731.103
416.4100, 2830.338
417.6030, 2965.588
418.7970, 3013.851
419.9900, 3132.126
421.1830, 3116.412
422.3760, 3238.710
423.5690, 3262.018
424.7610, 3216.478
425.9540, 3049.801
427.1460, 3135.134
428.3380, 2930.416
429.5300, 2995.833
430.7220, 2621.263
431.9140, 2517.845
433.1050, 2376.404
434.2970, 2144.147
435.4880, 1787.680
436.6790, 1673.708
437.8700, 1447.338
439.0610, 1219.995
440.2510, 1010.652
441.4420, 839.6006
442.6320, 659.6914
443.8220, 546.3438
445.0120, 506.5898
446.2020, 268.7725
447.3910, 134.4121
448.5810, 227.6191
449.7700, 19.54395
450.9600, 23.16406
452.1490, 56.22656
453.3370, 105.6660
454.5260, 153.9678
455.7150, 13.58789
456.9030, 18.19336
458.0910, 141.8828
459.2800, 260.6729
460.4670, 12.62988
461.6550, 93.62500
462.8430, 120.7002
464.0300, 91.87402
465.2180, 152.1289
466.4050, 108.5020
467.5920, 63.96777
468.7790, 24.49219
469.9650, 175.0752
471.1520, 173.7754
472.3380, 230.6113
473.5250, 116.6113
474.7110, 92.71777
475.8970, 818.0811
477.0820, 768.8652
478.2680, 609.6338
479.4540, 311.3887
480.6390, 413.1318
481.8240, 133.1406
483.0090, 177.5332
484.1940, 102.0713
485.3780, 47.71191
486.5630, 35.43066
487.7470, 128.1865
488.9320, 102.0195
490.1160, 126.9414
491.3000, 87.98340
492.4830, 163.1250
493.6670, 111.3916
494.8500, 5.227539
496.0340, 116.7891
497.2170, 38.34180
498.4000, 46.85254
499.5820, 85.33789
500.7650, 130.8301
501.9480, 201.2969
503.1300, 226.7402
504.3120, 322.1650
505.4940, 368.5674
506.6760, 643.9443
507.8580, 556.2979
509.0390, 864.6582
510.2210, 1034.995
511.4020, 1094.310
512.5830, 1160.601
513.7640, 1144.863
514.9450, 1333.109
516.1250, 1307.355
517.3060, 1187.589
518.4860, 1414.797
519.6660, 1342.984
520.8460, 1363.148
522.0260, 1376.284
523.2060, 1228.391
524.3850, 1469.473
525.5650, 1353.535
526.7440, 1262.595
527.9230, 1376.625
529.1020, 1303.628
530.2810, 1196.602
531.4590, 1343.546
532.6380, 1291.459
533.8160, 1361.343
534.9940, 1232.220
536.1720, 1307.098
537.3500, 1307.954
538.5270, 1284.779
539.7050, 1287.043
540.8820, 1192.354
542.0590, 1205.109
543.2360, 982.8369
544.4130, 883.5635
545.5900, 964.2686
546.7660, 782.9805
547.9430, 825.6807
549.1190, 780.3779
550.2950, 646.0605
551.4710, 562.7080
552.6470, 521.3584
553.8220, 568.9824
554.9980, 538.5693
556.1730, 477.1211
557.3480, 530.6523
558.5230, 389.1670
559.6980, 394.6689
560.8730, 399.1318
562.0470, 320.5664
563.2220, 336.9609
564.3960, 370.3643
565.5700, 272.7695
566.7440, 340.1514
567.9170, 325.4951
569.0910, 344.8340
570.2640, 411.1318
571.4380, 308.3887
572.6110, 282.6045
573.7840, 298.7754
574.9570, 169.9062
576.1290, 352.9824
577.3020, 237.0137
578.4740, 407.0195
579.6460, 400.9785
580.8180, 419.8926
581.9900, 272.7803
583.1620, 167.6201
584.3330, 460.4014
585.5040, 231.1348
586.6760, 239.8154
587.8470, 469.4443
589.0180, 239.0264
590.1880, 287.5566
591.3590, 452.9355
592.5290, 438.2695
593.7000, 389.5830
594.8700, 303.6729
596.0400, 405.5537
597.2090, 335.9141
598.3790, 351.8574
599.5490, 470.9775
600.7180, 468.4736
601.8870, 591.3174
603.0560, 492.9717
604.2250, 645.7676
605.3940, 611.2139
606.5620, 675.7266
607.7300, 681.8252
608.8990, 805.5703
610.0670, 919.4023
611.2350, 938.8838
612.4020, 964.3057
613.5700, 1156.022
614.7370, 1136.760
615.9050, 1298.190
617.0720, 1461.266
618.2390, 1613.545
619.4060, 1625.844
620.5720, 1869.996
621.7390, 1695.063
622.9050, 2107.547
624.0710, 2112.803
625.2370, 2393.797
626.4030, 2582.515
627.5690, 2605.556
628.7340, 3055.817
629.9000, 3280.674
631.0650, 3509.408
632.2300, 3738.531
633.3950, 4213.568
634.5600, 4247.939
635.7240, 4654.232
636.8890, 5353.804
638.0530, 5539.455
639.2170, 5948.592
640.3810, 6466.564
641.5450, 7066.855
642.7080, 7458.500
643.8720, 8117.503
645.0350, 8559.818
646.1980, 9370.688
647.3610, 10024.03
648.5240, 10696.58
649.6870, 11721.72
650.8490, 12492.17
652.0120, 13532.45
653.1740, 14507.07
654.3360, 15622.47
655.4980, 16982.12
656.6600, 18295.68
657.8210, 19624.93
658.9830, 21356.44
660.1440, 23259.63
661.3050, 25544.17
662.4660, 27813.68
663.6270, 30093.41
664.7870, 33083.90
665.9480, 35956.68
667.1080, 38827.26
668.2680, 42175.70
669.4280, 44583.23
670.5880, 47335.69
671.7480, 49377.80
672.9070, 51000.24
674.0670, 51640.54
675.2260, 51462.51
676.3850, 50441.93
677.5440, 49219.16
678.7030, 46621.74
679.8610, 43774.85
681.0200, 40072.14
682.1780, 36183.36
683.3360, 32554.66
684.4940, 28668.13
685.6520, 25740.81
686.8090, 22463.61
687.9670, 19969.55
689.1240, 17766.87
690.2810, 15821.63
691.4380, 14040.32
692.5950, 12265.56
693.7520, 11251.04
694.9080, 10082.35
696.0650, 9301.129
697.2210, 8324.569
698.3770, 7674.990
699.5330, 6860.023
700.6880, 6309.832
701.8440, 5633.406
702.9990, 5043.722
704.1550, 4766.402
705.3100, 4318.785
706.4650, 3936.349
707.6190, 3796.271
708.7740, 3439.578
709.9290, 3280.332
711.0830, 3050.617
712.2370, 2835.860
713.3910, 2579.342
714.5450, 2564.426
715.6980, 2450.575
716.8520, 2315.585
718.0050, 2369.363
719.1580, 2377.084
720.3110, 2438.119
721.4640, 2497.783
722.6170, 2528.836
723.7700, 2507.088
724.9220, 2317.166
726.0740, 2393.090
727.2260, 2261.836
728.3780, 2129.438
729.5300, 2103.157
730.6810, 1863.161
731.8330, 1827.078
732.9840, 1880.966
734.1350, 1638.621
735.2860, 1453.489
736.4370, 1295.272
737.5880, 1124.064
738.7380, 1078.853
739.8880, 987.6689
741.0390, 873.4492
742.1890, 796.2129
743.3380, 678.9697
744.4880, 578.7139
745.6380, 509.4580
746.7870, 494.1943
747.9360, 471.9111
749.0850, 351.5859
750.2340, 448.2695
751.3830, 404.9639
752.5310, 310.6846
753.6800, 231.4033
754.8280, 160.1094
755.9760, 101.0830
757.1240, 88.43164
758.2720, 27.90332
759.4190, 119.3818
760.5670, 145.8057
761.7140, 221.2295
762.8610, 38.66602
764.0080, 90.08691
765.1550, 87.51660
766.3020, 122.2158
767.4480, 44.00195
768.5950, 42.15820
769.7410, 38.31250
770.8870, 34.54980
772.0330, 41.55664
773.1780, 69.65625
774.3240, 17.28125
775.4690, 76.70215
776.6140, 22.35645
777.7590, 101.4902
778.9040, 113.2568
780.0490, 52.95410
781.1940, 29.59668
782.3380, 69.18262
783.4820, 190.7188
784.6260, 67.20898
785.7700, 89.35352
786.9140, 94.96973
788.0580, 36.24219
789.2010, 49.46289
790.3450, 186.6328
791.4880, 2.755859
792.6310, 66.18457
793.7730, 18.22461
794.9160, 25.66016
796.0590, 12.49219
797.2010, 21.26855
798.3430, 127.9912
799.4850, 122.6680
800.6270, 58.30176
801.7690, 10.11426
802.9100, 63.59473
804.0520, 58.83105
805.1930, 83.20996
806.3340, 47.54297
807.4750, 58.83105
808.6160, 123.0713
809.7560, 34.27051
810.8970, 65.57812
812.0370, 93.51758
813.1770, 22.56152
814.3170, 36.32617
815.4570, 11.82910
816.5960, 41.95410
817.7360, 42.30664
818.8750, 10.64160
820.0140, 93.03516
821.1530, 33.52832
822.2920, 134.0908
823.4310, 73.77539
824.5690, 109.5479
825.7070, 53.42676
826.8460, 9.618164
827.9840, 126.3809
829.1220, 25.49316
830.2590, 36.33496
831.3970, 65.12207
832.5340, 55.12891
833.6710, 67.45312
834.8080, 84.85645
835.9450, 75.65430
837.0820, 30.87207
838.2190, 157.5420
839.3550, 170.0762
840.4910, 161.8223
841.6270, 65.69434
842.7630, 103.3643
843.8990, 139.6123
845.0350, 136.3018
846.1700, 14.18359
847.3060, 99.02832
848.4410, 66.83984
849.5760, 8.618164
850.7100, 56.36133
851.8450, 86.07617
852.9800, 84.24219
854.1140, 176.3691
855.2480, 113.9521
856.3820, 83.49512
857.5160, 58.98730
858.6500, 156.4375
859.7830, 211.8682
860.9170, 87.27344
862.0500, 119.6504
863.1830, 37.00195
864.3160, 159.3242
865.4480, 216.6221
866.5810, 171.8975
867.7130, 194.1465
868.8460, 208.3730
869.9780, 387.5742
871.1100, 399.7529
872.2410, 483.9082
873.3730, 447.0400
874.5050, 661.1475
875.6360, 649.2354
876.7670, 788.2988
877.8980, 814.3447
879.0290, 805.3682
880.1590, 1135.371
881.2900, 1258.352
882.4200, 1265.312
883.5500, 1444.254
884.6800, 1815.188
885.8100, 2022.103
886.9400, 2203.001
888.0690, 2167.900
889.1990, 2464.781
890.3280, 2558.353
891.4570, 2603.609
892.5860, 2844.604
893.7140, 3019.516
894.8430, 3042.531
895.9710, 2936.570
897.1000, 3175.709
898.2280, 3171.172
899.3560, 3354.501
900.4830, 3350.388
901.6110, 3276.609
902.7380, 3645.662
903.8660, 3932.635
904.9930, 3988.043
906.1200, 4255.406
907.2460, 4508.050
908.3730, 4642.495
909.5000, 4923.238
910.6260, 5261.043
911.7520, 5412.857
912.8780, 5683.367
914.0040, 5951.803
915.1290, 6187.895
916.2550, 6498.592
917.3800, 6701.006
918.5050, 6962.861
919.6300, 6944.192
920.7550, 7125.053
921.8800, 7051.651
923.0040, 6813.613
924.1290, 6609.213
925.2530, 6660.934
926.3770, 6638.280
927.5010, 6419.814
928.6250, 6001.070
929.7480, 6187.362
930.8720, 5658.923
931.9950, 5426.236
933.1180, 5395.901
934.2410, 4998.164
935.3640, 4706.409
936.4860, 4620.387
937.6090, 4389.041
938.7310, 4268.699
939.8530, 4162.391
940.9750, 4013.471
942.0970, 3896.404
943.2180, 3663.385
944.3400, 3737.662
945.4610, 3593.570
946.5820, 3688.590
947.7030, 3494.916
948.8240, 3367.734
949.9450, 3379.705
951.0650, 3481.295
952.1860, 3318.293
953.3060, 3251.055
954.4260, 3116.846
955.5460, 3145.512
956.6650, 3053.961
957.7850, 3016.146
958.9040, 3116.164
960.0230, 2896.018
961.1420, 2731.445
962.2610, 2735.383
963.3800, 2761.357
964.4990, 2670.721
965.6170, 2686.266
966.7350, 2708.018
967.8530, 2628.715
968.9710, 2602.705
970.0890, 2549.666
971.2070, 2583.760
972.3240, 2511.453
973.4410, 2643.119
974.5580, 2621.000
975.6750, 2554.484
976.7920, 2395.072
977.9090, 2479.578
979.0250, 2529.676
980.1410, 2293.342
981.2580, 2408.510
982.3740, 2484.043
983.4890, 2608.453
984.6050, 2399.633
985.7200, 2748.023
986.8360, 2571.547
987.9510, 2624.715
989.0660, 2844.643
990.1810, 2725.318
991.2950, 2877.760
992.4100, 3061.227
993.5240, 2917.117
994.6390, 3244.176
995.7530, 3475.807
996.8660, 3503.586
997.9800, 3656.035
999.0940, 3769.010
1000.207, 4006.098
1001.320, 4228.146
1002.433, 4384.234
1003.546, 4611.326
1004.659, 4825.418
1005.772, 4982.512
1006.884, 5199.605
1007.996, 5417.703
1009.108, 5512.414
1010.220, 5849.516
1011.332, 6133.744
1012.444, 6166.311
1013.555, 6515.828
1014.666, 6425.219
1015.777, 6551.143
1016.888, 6776.371
1017.999, 6857.430
1019.110, 6967.693
1020.220, 7161.891
1021.331, 7055.414
1022.441, 6972.465
1023.551, 7238.387
1024.661, 7105.139
1025.770, 7257.553
1026.880, 7344.746
1027.989, 7665.711
1029.098, 7076.115
1030.207, 7601.699
1031.316, 7481.344
1032.425, 7407.771
1033.533, 7728.799
1034.642, 7683.012
1035.750, 7853.609
1036.858, 7822.438
1037.966, 7855.545
1039.073, 8091.879
1040.181, 8110.867
1041.288, 8270.783
1042.396, 8338.354
1043.503, 8368.646
1044.610, 8574.965
1045.716, 8474.508
1046.823, 8580.223
1047.929, 8785.984
1049.036, 8812.773
1050.142, 9228.156
1051.248, 9243.637
1052.353, 9538.742
1053.459, 9631.105
1054.564, 9896.023
1055.670, 10112.86
1056.775, 10324.47
1057.880, 10550.15
1058.985, 10807.51
1060.089, 10977.68
1061.194, 11205.26
1062.298, 11412.43
1063.402, 11692.54
1064.506, 11547.08
1065.610, 11548.51
1066.713, 11593.33
1067.817, 11199.52
1068.920, 11080.62
1070.023, 10476.63
1071.126, 9949.564
1072.229, 9300.344
1073.332, 8813.896
1074.435, 8367.631
1075.537, 7693.164
1076.639, 7228.857
1077.741, 6367.930
1078.843, 6109.451
1079.945, 5361.801
1081.046, 4711.090
1082.148, 4344.352
1083.249, 3968.113
1084.350, 3572.174
1085.451, 3306.344
1086.551, 2990.688
1087.652, 2728.395
1088.752, 2487.967
1089.853, 2278.932
1090.953, 1951.326
1092.053, 1780.834
1093.152, 1849.154
1094.252, 1617.002
1095.351, 1542.225
1096.451, 1447.154
1097.550, 1306.041
1098.649, 1180.162
1099.748, 1089.686
1100.846, 1066.371
1101.945, 1001.207
1103.043, 1040.164
1104.141, 902.0078
1105.239, 1029.984
1106.337, 909.3066
1107.434, 845.9492
1108.532, 683.7891
1109.629, 666.9453
1110.726, 903.7109
1111.823, 681.7031
1112.920, 498.0859
1114.017, 824.7539
1115.113, 809.1211
1116.210, 845.3750
1117.306, 858.2578
1118.402, 877.3457
1119.498, 1018.893
1120.593, 937.7168
1121.689, 1081.006
1122.784, 1138.660
1123.879, 952.6758
1124.974, 848.2676
1126.069, 830.8281
1127.164, 641.6914
1128.259, 589.2324
1129.353, 477.2539
1130.447, 359.6523
1131.541, 368.6152
1132.635, 284.2871
1133.729, 354.9277
1134.822, 451.4043
1135.916, 286.2852
1137.009, 317.3887
1138.102, 428.3086
1139.195, 271.7285
1140.288, 127.9141
1141.380, 280.6445
1142.473, 12.24609
1143.565, 174.9668
1144.657, 190.1504
1145.749, 223.2402
1146.841, 100.1680
1147.932, 29.59375
1149.024, 50.11133
1150.115, 28.28711
1151.206, 47.33594
1152.297, 89.57812
1153.388, 88.65820
1154.479, 125.0371
1155.569, 166.0391
1156.659, 11.51172
1157.750, 67.88281
1158.839, 56.29297
1159.929, 26.74023
1161.019, 0.5742190
1162.108, 94.99023
1163.198, 29.21875
1164.287, 130.4492
1165.376, 68.03125
1166.465, 9.166016
1167.553, 207.9785
1168.642, 149.5273
1169.730, 62.83594
1170.818, 87.78125
1171.906, 0.4589840
1172.994, 12.93164
1174.082, 136.2051
1175.170, 128.9434
1176.257, 76.80469
1177.344, 42.82812
1178.431, 105.9453
1179.518, 200.7832
1180.605, 49.98828
1181.691, 112.8086
1182.778, 43.37109
1183.864, 94.30469
1184.950, 21.88281
1186.036, 95.95312
1187.122, 37.74805
1188.207, 82.16602
1189.292, 40.68750
1190.378, 36.60547
1191.463, 57.94531
1192.548, 211.7793
1193.632, 20.82422
1194.717, 261.0605
1195.801, 226.7617
1196.886, 60.85352
1197.970, 1.712891
1199.054, 25.58594
1200.137, 38.35742
1201.221, 48.85742
1202.305, 70.03516
1203.388, 121.5176
1204.471, 75.90820
1205.554, 121.2773
1206.637, 66.52344
1207.719, 51.38086
1208.802, 12.59570
1209.884, 40.78516
1210.966, 181.7539
1212.048, 5.658203
1213.130, 78.45703
1214.212, 231.5059
1215.293, 203.2500
1216.374, 162.7812
1217.456, 57.37891
1218.536, 170.0918
1219.617, 255.4922
1220.698, 158.9922
1221.778, 34.93945
1222.859, 182.4102
1223.939, 29.96484
1225.019, 50.84180
1226.099, 275.6074
1227.178, 283.5781
1228.258, 9.000000
1229.337, 362.2383
1230.417, 103.2207
1231.496, 86.81836
1232.574, 260.4160
1233.653, 282.3613
1234.732, 72.82617
1235.810, 158.6055
1236.888, 2.794922
1237.966, 283.2734
1239.044, 205.7949
1240.122, 292.0703
1241.199, 241.2598
1242.277, 380.7246
1243.354, 304.9727
1244.431, 371.2852
1245.508, 389.6816
1246.585, 232.7305
1247.661, 479.7422
1248.738, 477.2090
1249.814, 233.6406
1250.890, 353.6426
1251.966, 497.2598
1253.042, 407.5117
1254.117, 261.8730
1255.193, 260.6016
1256.268, 179.6172
1257.343, 248.7910
1258.418, 145.7109
1259.493, 268.4863
1260.567, 362.9492
1261.642, 424.2441
1262.716, 421.9258
1263.790, 451.0723
1264.864, 344.8320
1265.938, 455.0547
1267.011, 387.1836
1268.085, 429.2324
1269.158, 475.2656
