##NAMES=Edenite
##RRUFFID=R060029
##IDEAL CHEMISTRY=NaCa_2_Mg_5_(Si_7_Al)O_22_(OH)_2_
##LOCALITY=Renfrew County, Ontario, Canada
##OWNER=RRUFF
##SOURCE=University of Arizona Mineral Museum
##DESCRIPTION=Black prismatic
##STATUS=The identification of this mineral has been confirmed by X-ray diffraction and chemical analysis
##URL=rruff.info/R060029
##MEASURED CHEMISTRY=(Na_0.62_K_0.34_[box]_0.04_)(Ca_0.86_Na_0.14_)_2_(Mg_0.57_Fe^2+^_0.30_Fe^3+^_0.07_Al_0.05_Ti_0.01_Mn_0.01_)_5_(Si_6.61_Al_1.39_)O_22_((OH)_0.69_F_0.31_)_2_
##PIN_ID=M00136
##ORIENTATION=Laser parallel to b* (0 1 0). Fiducial mark perpendicular to laser is parallel to c [0 0 1]
261.1490, 0.0000000E+00
262.3630, 0.4169920
263.5760, 112.5010
264.7890, 131.7129
266.0020, 217.9893
267.2150, 181.7490
268.4270, 109.3809
269.6400, 129.1475
270.8520, 18.62695
272.0640, 28.83789
273.2760, 238.5596
274.4880, 605.3340
275.7000, 818.3223
276.9120, 816.3896
278.1230, 811.4033
279.3340, 929.2998
280.5450, 866.1797
281.7560, 1030.893
282.9670, 1031.272
284.1780, 1246.194
285.3880, 1404.565
286.5980, 1683.339
287.8090, 1662.552
289.0190, 1727.244
290.2290, 1798.360
291.4380, 2011.828
292.6480, 1968.582
293.8570, 1919.570
295.0670, 2107.757
296.2760, 1976.359
297.4850, 1833.183
298.6930, 1834.257
299.9020, 1930.268
301.1110, 1871.117
302.3190, 1761.818
303.5270, 1642.381
304.7350, 1570.813
305.9430, 1648.129
307.1510, 1576.334
308.3580, 1582.903
309.5660, 1494.230
310.7730, 1576.810
311.9800, 1296.445
313.1870, 1291.628
314.3940, 1255.504
315.6010, 1081.869
316.8070, 1041.255
318.0130, 1008.552
319.2200, 956.6875
320.4260, 861.6572
321.6310, 911.4658
322.8370, 776.1191
324.0430, 893.6230
325.2480, 757.9775
326.4540, 858.1885
327.6590, 742.2578
328.8640, 670.7646
330.0680, 800.6562
331.2730, 951.3643
332.4780, 1073.920
333.6820, 1138.449
334.8860, 1052.812
336.0900, 1160.084
337.2940, 1176.349
338.4980, 1187.507
339.7010, 1322.715
340.9050, 1303.457
342.1080, 1553.209
343.3110, 1426.942
344.5140, 1634.656
345.7170, 1838.356
346.9200, 1938.041
348.1220, 1937.712
349.3240, 1984.367
350.5270, 2087.010
351.7290, 2176.639
352.9310, 2197.391
354.1320, 2241.766
355.3340, 2170.644
356.5350, 2217.559
357.7370, 2231.730
358.9380, 2173.359
360.1390, 2192.495
361.3400, 2246.074
362.5400, 2062.665
363.7410, 2002.419
364.9410, 2099.143
366.1410, 2049.764
367.3410, 2052.314
368.5410, 2040.558
369.7410, 2120.463
370.9400, 2331.996
372.1400, 2175.816
373.3390, 2225.761
374.5380, 1959.679
375.7370, 2016.180
376.9360, 1905.622
378.1350, 1618.006
379.3330, 1840.332
380.5310, 1340.599
381.7300, 1256.809
382.9280, 1081.959
384.1260, 940.0488
385.3230, 919.0771
386.5210, 695.9287
387.7180, 725.4648
388.9160, 709.2598
390.1130, 649.9287
391.3100, 418.1670
392.5060, 408.9678
393.7030, 310.4316
394.9000, 208.1758
396.0960, 230.1045
397.2920, 23.14062
398.4880, 42.95898
399.6840, 27.83789
400.8800, 0.7060550
402.0750, 155.6270
403.2710, 43.63477
404.4660, 62.80176
405.6610, 2.997070
406.8560, 120.4326
408.0510, 152.8682
409.2450, 18.84961
410.4400, 144.6816
411.6340, 227.0996
412.8280, 137.0381
414.0220, 269.7598
415.2160, 311.0605
416.4100, 348.6201
417.6030, 512.8555
418.7970, 448.3564
419.9900, 610.6982
421.1830, 785.2363
422.3760, 914.6738
423.5690, 1107.128
424.7610, 1091.592
425.9540, 1151.062
427.1460, 1071.535
428.3380, 1039.009
429.5300, 966.4814
430.7220, 944.9482
431.9140, 857.4092
433.1050, 700.8594
434.2970, 750.2969
435.4880, 606.7227
436.6790, 762.1318
437.8700, 582.5244
439.0610, 587.8994
440.2510, 427.2539
441.4420, 533.9102
442.6320, 392.7588
443.8220, 295.2480
445.0120, 329.8457
446.2020, 216.8096
447.3910, 357.6025
448.5810, 410.9160
449.7700, 303.3115
450.9600, 218.7305
452.1490, 115.7100
453.3370, 49.00586
454.5260, 310.7588
455.7150, 156.0850
456.9030, 136.6924
458.0910, 164.4736
459.2800, 48.19629
460.4670, 75.36133
461.6550, 11.18848
462.8430, 11.60254
464.0300, 57.40430
465.2180, 47.28516
466.4050, 48.90234
467.5920, 16.35742
468.7790, 7.996094
469.9650, 56.33398
471.1520, 42.49805
472.3380, 142.8545
473.5250, 60.80957
474.7110, 43.00781
475.8970, 74.66406
477.0820, 158.2227
478.2680, 65.59277
479.4540, 204.9004
480.6390, 183.1592
481.8240, 295.3740
483.0090, 261.5469
484.1940, 349.6768
485.3780, 330.7656
486.5630, 495.8145
487.7470, 548.8232
488.9320, 512.7939
490.1160, 583.7256
491.3000, 740.6182
492.4830, 818.4707
493.6670, 922.2852
494.8500, 905.0586
496.0340, 990.7910
497.2170, 1010.482
498.4000, 1154.131
499.5820, 1303.734
500.7650, 1354.277
501.9480, 1364.767
503.1300, 1376.195
504.3120, 1591.523
505.4940, 1706.766
506.6760, 1721.903
507.8580, 1780.931
509.0390, 1866.845
510.2210, 1923.619
511.4020, 2056.288
512.5830, 2179.890
513.7640, 2353.429
514.9450, 2449.910
516.1250, 2479.344
517.3060, 2787.726
518.4860, 2851.064
519.6660, 2969.362
520.8460, 3226.615
522.0260, 3363.826
523.2060, 3730.993
524.3850, 3919.117
525.5650, 4203.197
526.7440, 4480.236
527.9230, 4517.015
529.1020, 4722.189
530.2810, 4512.104
531.4590, 4654.980
532.6380, 4501.818
533.8160, 4382.632
534.9940, 4531.423
536.1720, 4475.211
537.3500, 4311.836
538.5270, 4234.547
539.7050, 4179.363
540.8820, 4020.520
542.0590, 4408.127
543.2360, 3737.644
544.4130, 3792.960
545.5900, 3629.133
546.7660, 3974.231
547.9430, 3383.632
549.1190, 3147.088
550.2950, 3121.512
551.4710, 3068.145
552.6470, 2809.358
553.8220, 2659.920
554.9980, 2587.102
556.1730, 2482.840
557.3480, 2402.586
558.5230, 2261.338
559.6980, 2203.074
560.8730, 2075.805
562.0470, 1914.508
563.2220, 1916.174
564.3960, 1788.822
565.5700, 1652.428
566.7440, 1706.992
567.9170, 1493.505
569.0910, 1443.969
570.2640, 1516.381
571.4380, 1343.741
572.6110, 1201.050
573.7840, 1190.306
574.9570, 1031.510
576.1290, 854.6621
577.3020, 800.7617
578.4740, 667.8076
579.6460, 590.8018
580.8180, 616.7422
581.9900, 461.6299
583.1620, 408.4609
584.3330, 121.2334
585.5040, 110.8613
586.6760, 3.511719
587.8470, 80.42578
589.0180, 127.9463
590.1880, 235.2461
591.3590, 42.65137
592.5290, 195.0635
593.7000, 216.1875
594.8700, 160.0938
596.0400, 82.95020
597.2090, 97.17725
598.3790, 150.6299
599.5490, 75.74219
600.7180, 98.03906
601.8870, 87.25879
603.0560, 80.28223
604.2250, 9.275391
605.3940, 37.77930
606.5620, 67.24023
607.7300, 294.4834
608.8990, 426.5342
610.0670, 401.1865
611.2350, 337.6748
612.4020, 366.0068
613.5700, 469.9092
614.7370, 514.8818
615.9050, 630.0098
617.0720, 778.5059
618.2390, 753.7041
619.4060, 804.9648
620.5720, 1065.356
621.7390, 1123.593
622.9050, 1219.257
624.0710, 1458.726
625.2370, 1421.510
626.4030, 1631.162
627.5690, 1663.453
628.7340, 1900.710
629.9000, 2052.921
631.0650, 2134.274
632.2300, 2293.200
633.3950, 2355.268
634.5600, 2631.288
635.7240, 2808.261
636.8890, 3110.188
638.0530, 3009.064
639.2170, 3297.896
640.3810, 3601.681
641.5450, 3794.417
642.7080, 4088.107
643.8720, 4247.752
645.0350, 4539.349
646.1980, 4882.900
647.3610, 5201.407
648.5240, 5603.868
649.6870, 5948.285
650.8490, 6390.654
652.0120, 7190.982
653.1740, 8031.266
654.3360, 8772.506
655.4980, 9065.705
656.6600, 9498.857
657.8210, 10447.97
658.9830, 11195.04
660.1440, 11714.06
661.3050, 12445.05
662.4660, 13017.99
663.6270, 13444.89
664.7870, 13542.07
665.9480, 13468.59
667.1080, 13266.69
668.2680, 12691.69
669.4280, 12219.65
670.5880, 11471.96
671.7480, 10672.86
672.9070, 9824.469
674.0670, 9159.455
675.2260, 8383.345
676.3850, 7758.074
677.5440, 7050.614
678.7030, 6390.727
679.8610, 5813.604
681.0200, 5311.147
682.1780, 4849.424
683.3360, 4476.680
684.4940, 4139.414
685.6520, 3831.856
686.8090, 3538.823
687.9670, 3315.162
689.1240, 3030.104
690.2810, 2855.999
691.4380, 2629.142
692.5950, 2433.699
693.7520, 2378.743
694.9080, 2222.336
696.0650, 2031.590
697.2210, 1911.219
698.3770, 1922.715
699.5330, 1932.337
700.6880, 1887.683
701.8440, 1966.890
702.9990, 1998.069
704.1550, 1874.731
705.3100, 2052.761
706.4650, 2151.147
707.6190, 2087.482
708.7740, 2147.768
709.9290, 2211.002
711.0830, 2314.188
712.2370, 2373.322
713.3910, 2409.257
714.5450, 2316.443
715.6980, 2486.430
716.8520, 2448.369
718.0050, 2542.259
719.1580, 2461.100
720.3110, 2334.893
721.4640, 2428.311
722.6170, 2551.457
723.7700, 2461.881
724.9220, 2536.120
726.0740, 2372.913
727.2260, 2419.803
728.3780, 2378.092
729.5300, 2363.227
730.6810, 2318.261
731.8330, 2208.658
732.9840, 2125.668
734.1350, 2028.144
735.2860, 1957.406
736.4370, 1864.727
737.5880, 1789.648
738.7380, 1540.379
739.8880, 1573.181
741.0390, 1560.991
742.1890, 1514.041
743.3380, 1291.322
744.4880, 1293.523
745.6380, 1207.379
746.7870, 1119.676
747.9360, 1156.692
749.0850, 964.7764
750.2340, 999.4766
751.3830, 943.7300
752.5310, 929.9854
753.6800, 826.5737
754.8280, 750.9131
755.9760, 765.0049
757.1240, 599.6924
758.2720, 710.7563
759.4190, 776.1997
760.5670, 798.4863
761.7140, 648.3882
762.8610, 720.8281
764.0080, 704.0527
765.1550, 683.5972
766.3020, 787.2886
767.4480, 662.1328
768.5950, 763.8047
769.7410, 774.8940
770.8870, 827.4014
772.0330, 790.1426
773.1780, 780.5718
774.3240, 774.3174
775.4690, 811.9150
776.6140, 761.4912
777.7590, 829.0464
778.9040, 798.2383
780.0490, 957.0908
781.1940, 722.5830
782.3380, 807.0542
783.4820, 675.5063
784.6260, 792.9390
785.7700, 657.3530
786.9140, 499.7480
788.0580, 580.1265
789.2010, 536.4878
790.3450, 514.8311
791.4880, 409.1597
792.6310, 453.4712
793.7730, 416.7676
794.9160, 651.7075
796.0590, 457.4907
797.2010, 410.5703
798.3430, 229.8057
799.4850, 164.0298
800.6270, 171.2417
801.7690, 179.4404
802.9100, 58.62646
804.0520, 116.7988
805.1930, 61.95752
806.3340, 55.10352
807.4750, 21.23535
808.6160, 42.34570
809.7560, 39.55615
810.8970, 31.50928
812.0370, 111.5068
813.1770, 190.5928
814.3170, 125.8042
815.4570, 105.1079
816.5960, 71.49219
817.7360, 154.9370
818.8750, 20.48535
820.0140, 105.0659
821.1530, 140.7212
822.2920, 58.47070
823.4310, 103.2681
824.5690, 154.1372
825.7070, 184.1030
826.8460, 185.1802
827.9840, 175.5981
829.1220, 184.7388
830.2590, 163.2207
831.3970, 190.5566
832.5340, 124.1602
833.6710, 148.8359
834.8080, 133.5952
835.9450, 154.4287
837.0820, 71.34570
838.2190, 53.30078
839.3550, 124.2832
840.4910, 28.17725
841.6270, 38.74072
842.7630, 44.53027
843.8990, 59.45312
845.0350, 28.37891
846.1700, 157.3066
847.3060, 121.2393
848.4410, 200.1748
849.5760, 238.1768
850.7100, 305.0596
851.8450, 251.0107
852.9800, 471.9668
854.1140, 371.9287
855.2480, 455.8984
856.3820, 407.8750
857.5160, 466.8584
858.6500, 569.8516
859.7830, 588.6270
860.9170, 710.8789
862.0500, 733.9209
863.1830, 758.0010
864.3160, 857.1377
865.4480, 951.2949
866.5810, 979.4688
867.7130, 974.6914
868.8460, 1141.005
869.9780, 1136.414
871.1100, 1271.904
872.2410, 1276.457
873.3730, 1358.075
874.5050, 1521.774
875.6360, 1456.535
876.7670, 1538.364
877.8980, 1557.256
879.0290, 1625.874
880.1590, 1763.143
881.2900, 1829.142
882.4200, 1851.171
883.5500, 1985.221
884.6800, 2033.270
885.8100, 2117.377
886.9400, 2206.486
888.0690, 2323.616
889.1990, 2449.764
890.3280, 2512.931
891.4570, 2516.115
892.5860, 2722.318
893.7140, 2633.542
894.8430, 2753.785
895.9710, 2850.047
897.1000, 3018.330
898.2280, 3081.682
899.3560, 3133.975
900.4830, 3259.328
901.6110, 3341.021
902.7380, 3477.132
903.8660, 3648.576
904.9930, 3650.055
906.1200, 3848.555
907.2460, 3958.101
908.3730, 4104.790
909.5000, 4249.426
910.6260, 4417.594
911.7520, 4493.615
912.8780, 4571.279
914.0040, 4641.117
915.1290, 4800.913
916.2550, 4967.766
917.3800, 5118.684
918.5050, 5548.650
919.6300, 5168.676
920.7550, 5253.758
921.8800, 5658.918
923.0040, 5203.144
924.1290, 5085.412
925.2530, 4991.738
926.3770, 5078.098
927.5010, 5030.497
928.6250, 4976.973
929.7480, 5049.487
930.8720, 4843.059
931.9950, 4874.658
933.1180, 4894.305
934.2410, 4920.992
935.3640, 4870.148
936.4860, 4802.529
937.6090, 4732.362
938.7310, 4636.927
939.8530, 4531.781
940.9750, 4584.452
942.0970, 4669.169
943.2180, 4636.914
944.3400, 4595.371
945.4610, 4570.205
946.5820, 4650.021
947.7030, 4679.351
948.8240, 4660.695
949.9450, 4473.886
951.0650, 4511.094
952.1860, 4461.315
953.3060, 4402.819
954.4260, 4476.986
955.5460, 4317.232
956.6650, 4382.245
957.7850, 4361.986
958.9040, 4380.504
960.0230, 4306.241
961.1420, 4257.961
962.2610, 4299.523
963.3800, 4292.138
964.4990, 4206.232
965.6170, 4224.559
966.7350, 4057.822
967.8530, 4056.464
968.9710, 4123.195
970.0890, 4045.857
971.2070, 4067.246
972.3240, 3874.001
973.4410, 3719.631
974.5580, 3760.291
975.6750, 3764.465
976.7920, 3676.271
977.9090, 3603.721
979.0250, 3578.222
980.1410, 3612.773
981.2580, 3679.375
982.3740, 3629.026
983.4890, 3628.609
984.6050, 3655.655
985.7200, 3617.296
986.8360, 3696.156
987.9510, 3854.068
989.0660, 3903.032
990.1810, 3904.925
991.2950, 3960.109
992.4100, 4021.416
993.5240, 4061.394
994.6390, 4160.617
995.7530, 4212.484
996.8660, 4266.342
997.9800, 4428.629
999.0940, 4314.081
1000.207, 4475.584
1001.320, 4595.143
1002.433, 4859.752
1003.546, 4399.410
1004.659, 4641.123
1005.772, 4575.883
1006.884, 4670.710
1007.996, 4743.585
1009.108, 4718.513
1010.220, 4666.492
1011.332, 4851.521
1012.444, 4768.596
1013.555, 4801.719
1014.666, 4867.893
1015.777, 4799.113
1016.888, 4832.379
1017.999, 4848.684
1019.110, 4909.055
1020.220, 4873.463
1021.331, 4775.918
1022.441, 4746.423
1023.551, 4898.975
1024.661, 4843.370
1025.770, 4909.214
1026.880, 4820.901
1027.989, 4917.636
1029.098, 4730.414
1030.207, 4867.240
1031.316, 4738.896
1032.425, 4733.811
1033.533, 4716.771
1034.642, 4791.944
1035.750, 4748.353
1036.858, 4733.516
1037.966, 4718.734
1039.073, 4659.268
1040.181, 4607.092
1041.288, 4601.363
1042.396, 4474.015
1043.503, 4662.895
1044.610, 4516.599
1045.716, 4611.277
1046.823, 4630.338
1047.929, 4501.466
1049.036, 4415.816
1050.142, 4589.264
1051.248, 4435.473
1052.353, 4534.915
1053.459, 4575.387
1054.564, 4391.339
1055.670, 4399.088
1056.775, 4171.844
1057.880, 4089.459
1058.985, 4211.129
1060.089, 4154.500
1061.194, 4050.967
1062.298, 3899.726
1063.402, 3811.125
1064.506, 3584.205
1065.610, 3528.495
1066.713, 3517.705
1067.817, 3227.779
1068.920, 3108.925
1070.023, 3165.312
1071.126, 3126.286
1072.229, 2932.609
1073.332, 2848.941
1074.435, 2708.042
1075.537, 2826.173
1076.639, 2695.605
1077.741, 2664.062
1078.843, 2487.566
1079.945, 2554.612
1081.046, 2293.428
1082.148, 2359.549
1083.249, 2152.234
1084.350, 2236.111
1085.451, 2106.679
1086.551, 1996.912
1087.652, 1946.071
1088.752, 2041.132
1089.853, 1934.704
1090.953, 1899.229
1092.053, 1883.062
1093.152, 1756.365
1094.252, 1782.743
1095.351, 1749.196
1096.451, 1643.915
1097.550, 1607.845
1098.649, 1647.514
1099.748, 1542.276
1100.846, 1617.074
1101.945, 1531.931
1103.043, 1465.448
1104.141, 1340.425
1105.239, 1308.446
1106.337, 1262.953
1107.434, 1198.109
1108.532, 1234.410
1109.629, 1044.625
1110.726, 1123.450
1111.823, 1156.792
1112.920, 1146.845
1114.017, 964.5615
1115.113, 1004.899
1116.210, 956.8672
1117.306, 904.9033
1118.402, 976.8257
1119.498, 819.9019
1120.593, 889.8237
1121.689, 869.0308
1122.784, 889.8301
1123.879, 820.9360
1124.974, 779.8232
1126.069, 829.4033
1127.164, 828.7661
1128.259, 752.3262
1129.353, 777.1797
1130.447, 618.3384
1131.541, 619.5703
1132.635, 691.1572
1133.729, 616.4160
1134.822, 641.7505
1135.916, 629.9053
1137.009, 444.2290
1138.102, 562.7900
1139.195, 547.8467
1140.288, 400.5142
1141.380, 505.6348
1142.473, 375.9126
1143.565, 329.5859
1144.657, 346.6089
1145.749, 298.4502
1146.841, 353.0820
1147.932, 307.9106
1149.024, 253.9448
1150.115, 238.8232
1151.206, 113.6123
1152.297, 193.2837
1153.388, 133.2412
1154.479, 142.1177
1155.569, 166.7852
1156.659, 70.85986
1157.750, 102.5723
1158.839, 56.91113
1159.929, 152.4385
1161.019, 40.03418
1162.108, 60.43848
1163.198, 20.06689
1164.287, 46.56934
1165.376, 41.93262
1166.465, 45.41113
1167.553, 102.6128
1168.642, 0.2001950
1169.730, 34.20508
1170.818, 99.39648
1171.906, 167.1685
1172.994, 11.49072
1174.082, 124.1216
1175.170, 118.7036
1176.257, 31.50977
1177.344, 36.99561
1178.431, 14.85156
1179.518, 118.7241
1180.605, 149.6689
1181.691, 79.70312
1182.778, 128.7896
1183.864, 110.9565
1184.950, 177.1958
1186.036, 145.5435
1187.122, 44.98389
1188.207, 104.3101
1189.292, 5.814941
1190.378, 32.39404
1191.463, 162.0103
1192.548, 31.73486
1193.632, 74.49854
1194.717, 33.98340
1195.801, 52.85889
1196.886, 17.75488
1197.970, 45.50439
1199.054, 108.4883
1200.137, 21.52930
1201.221, 22.38086
1202.305, 44.49512
1203.388, 90.45703
1204.471, 66.70947
1205.554, 97.27832
1206.637, 11.66992
1207.719, 74.99756
1208.802, 95.74072
1209.884, 56.46387
1210.966, 13.92529
1212.048, 5.013184
1213.130, 27.65137
1214.212, 73.88916
1215.293, 53.47070
1216.374, 46.75391
1217.456, 56.00879
1218.536, 106.6206
1219.617, 67.11084
1220.698, 56.10693
1221.778, 134.5181
1222.859, 162.7163
1223.939, 112.7949
1225.019, 165.5381
1226.099, 34.99707
1227.178, 65.34717
1228.258, 165.1714
1229.337, 119.5991
1230.417, 173.8364
1231.496, 190.0669
1232.574, 34.07275
1233.653, 177.9043
1234.732, 192.0117
1235.810, 72.53760
1236.888, 207.4233
1237.966, 107.0488
1239.044, 90.21875
1240.122, 135.8672
1241.199, 115.5688
1242.277, 198.8647
1243.354, 182.2979
1244.431, 156.7827
1245.508, 74.99561
1246.585, 90.48877
1247.661, 114.3135
1248.738, 124.7407
1249.814, 138.2500
1250.890, 177.6636
1251.966, 151.0498
1253.042, 145.2168
1254.117, 135.4019
1255.193, 79.04980
1256.268, 103.8237
1257.343, 33.95654
1258.418, 72.03076
1259.493, 80.05762
1260.567, 134.2046
1261.642, 86.14990
1262.716, 344.0508
1263.790, 152.1440
1264.864, 92.99414
1265.938, 321.1523
1267.011, 25.53857
1268.085, 169.4717
1269.158, 92.11816
1270.231, 127.2124
1271.304, 136.7734
1272.377, 236.2954
1273.450, 150.8013
1274.522, 114.2490
1275.594, 251.2271
1276.666, 254.6157
1277.738, 186.9492
1278.810, 217.4287
1279.882, 167.8447
1280.953, 143.3154
1282.025, 139.4951
1283.096, 266.0557
1284.167, 242.0542
1285.238, 244.0181
1286.308, 287.1436
1287.379, 263.1372
1288.449, 269.0947
1289.519, 224.0190
1290.589, 248.3794
1291.659, 248.6997
1292.729, 251.8086
1293.798, 259.9741
1294.868, 235.2710
1295.937, 172.4839
1297.006, 273.4370
1298.075, 332.8223
1299.143, 349.0972
1300.212, 188.3833
1301.280, 254.8550
1302.348, 231.6958
1303.416, 198.6572
1304.484, 289.9731
1305.552, 157.6460
1306.620, 251.6484
1307.687, 256.0557
1308.754, 295.6699
1309.821, 243.6060
1310.888, 223.4282
1311.955, 289.8232
1313.021, 307.3760
1314.088, 242.5527
1315.154, 282.2490
1316.220, 144.7485
1317.286, 164.2881
1318.352, 259.2783
1319.417, 207.3516
1320.483, 246.9980
1321.548, 256.6729
1322.613, 90.73828
1323.678, 230.6450
1324.743, 236.4180
1325.807, 110.7900
1326.872, 236.6655
1327.936, 123.5049
1329.000, 102.0981
1330.064, 140.9390
1331.128, 116.7085
1332.191, 196.0996
1333.255, 169.8940
1334.318, 132.7383
1335.381, 141.3354
1336.444, 40.48340
1337.507, 144.2295
1338.569, 102.7788
1339.632, 134.9746
1340.694, 181.6733
1341.756, 106.2583
1342.818, 162.3496
1343.880, 14.79395
1344.941, 38.26465
1346.003, 44.00098
1347.064, 155.7329
1348.125, 14.57129
1349.186, 33.34229
1350.247, 120.5034
1351.308, 112.2666
1352.368, 143.8789
1353.428, 57.47070
1354.489, 80.68604
1355.549, 74.17041
1356.608, 173.5879
1357.668, 189.5684
1358.727, 105.0054
1359.787, 20.87109
1360.846, 126.1797
1361.905, 51.90479
1362.964, 75.33545
1364.022, 2.710449
1365.081, 6.872070
1366.139, 14.87695
1367.197, 67.36279
1368.255, 201.3027
1369.313, 159.9644
1370.371, 152.2188
1371.428, 137.7144
1372.486, 98.16602
1373.543, 108.7612
1374.600, 36.18555
1375.657, 107.4087
1376.713, 64.59326
1377.770, 123.8008
1378.826, 92.13379
1379.882, 91.33203
1380.938, 64.47266
1381.994, 164.5415
1383.050, 15.67676
1384.106, 184.3125
1385.161, 240.6211
1386.216, 170.3652
1387.271, 60.28613
1388.326, 148.1499
1389.381, 99.18408
1390.435, 43.27441
1391.490, 92.14258
1392.544, 24.12500
1393.598, 6.152832
1394.652, 34.44385
1395.705, 149.2671
1396.759, 10.01807
1397.812, 127.4380
1398.866, 163.9458
1399.919, 82.85303
1400.972, 150.4419
1402.024, 2.505371
1403.077, 80.35547
1404.129, 141.1890
1405.181, 10.14697
1406.233, 45.61230
1407.285, 26.14062
1408.337, 84.40234
1409.389, 7.584961
1410.440, 37.04980
1411.491, 82.64746
1412.542, 56.32178
1413.593, 154.9800
