##NAMES=Edenite
##RRUFFID=R050415
##IDEAL CHEMISTRY=NaCa_2_Mg_5_(Si_7_Al)O_22_(OH)_2_
##LOCALITY=Mogok, Burma
##OWNER=RRUFF
##SOURCE=Marcus Origlieri
##DESCRIPTION=Transparent pale green water worn fragment
##STATUS=The identification of this mineral has been confirmed by X-ray diffraction and chemical analysis
##URL=rruff.info/R050415
##MEASURED CHEMISTRY=(Na_0.83_K_0.17_)(Ca_1.76_Na_0.24_)_&#931;=2_(Mg_4.54_Al_0.40_Fe^3+^_0.06_)_&#931;=5_(Si_6.74_Al_1.26_)O_22_((OH)_0.52_F_0.48_)_2_
##PIN_ID=L01355
##ORIENTATION=Laser parallel to -a* (-1 0 0). Fiducial mark perpendicular to laser is parallel to -b [0 -1 0]
93.48000, 0.0000000E+00
94.71400, 50.83496
95.94800, 256.8047
97.18200, 438.2031
98.41600, 626.2783
99.64900, 871.4766
100.8830, 1007.309
102.1160, 1141.851
103.3490, 1394.884
104.5820, 2044.977
105.8150, 2679.133
107.0470, 4027.840
108.2800, 3836.947
109.5120, 5021.406
110.7440, 3820.223
111.9760, 3839.455
113.2080, 4103.259
114.4400, 4341.284
115.6710, 4423.043
116.9030, 4205.009
118.1340, 4223.797
119.3650, 4113.787
120.5960, 4074.666
121.8270, 3477.641
123.0580, 3321.249
124.2880, 2727.732
125.5190, 2155.044
126.7490, 1788.149
127.9790, 1409.011
129.2090, 1035.596
130.4390, 656.8750
131.6680, 458.8809
132.8980, 277.7578
134.1270, 182.6172
135.3560, 111.4238
136.5850, 143.7988
137.8140, 104.7148
139.0430, 63.13965
140.2710, 3.046875
141.5000, 210.5918
142.7280, 250.8027
143.9560, 248.6455
145.1840, 303.1582
146.4120, 175.3486
147.6390, 344.2217
148.8670, 65.78027
150.0940, 251.9785
151.3210, 653.0537
152.5490, 1128.442
153.7750, 1448.143
155.0020, 1947.156
156.2290, 2683.484
157.4550, 3153.121
158.6810, 3862.066
159.9080, 4165.310
161.1340, 4833.850
162.3590, 5456.682
163.5850, 6012.795
164.8110, 6175.188
166.0360, 6200.853
167.2610, 6180.775
168.4860, 5677.967
169.7110, 5374.459
170.9360, 4762.244
172.1610, 3982.312
173.3850, 3462.643
174.6100, 3297.214
175.8340, 3039.004
177.0580, 2704.991
178.2820, 2853.164
179.5050, 2673.500
180.7290, 2338.943
181.9520, 2393.473
183.1760, 2291.093
184.3990, 2182.810
185.6220, 2084.631
186.8450, 1997.556
188.0670, 1781.570
189.2900, 1414.669
190.5120, 1342.817
191.7340, 1085.711
192.9560, 934.2383
194.1780, 863.4629
195.4000, 955.6309
196.6220, 772.9727
197.8430, 793.4863
199.0640, 1036.171
200.2860, 1291.025
201.5070, 1558.048
202.7270, 1692.259
203.9480, 1978.715
205.1690, 2132.419
206.3890, 2484.293
207.6090, 2912.354
208.8290, 3491.596
210.0490, 3910.008
211.2690, 4477.588
212.4890, 5004.369
213.7080, 5703.346
214.9280, 6077.563
216.1470, 6582.086
217.3660, 6972.785
218.5850, 7606.637
219.8030, 8119.657
221.0220, 8362.782
222.2400, 9361.057
223.4590, 10022.48
224.6770, 10822.06
225.8950, 12198.79
227.1120, 13822.65
228.3300, 15132.62
229.5480, 16536.71
230.7650, 17856.92
231.9820, 19370.24
233.1990, 20298.68
234.4160, 21373.23
235.6330, 22819.88
236.8490, 23264.65
238.0660, 23678.52
239.2820, 23433.50
240.4980, 23246.50
241.7140, 22209.77
242.9300, 21108.67
244.1460, 20050.90
245.3610, 18830.77
246.5770, 17640.17
247.7920, 16333.23
249.0070, 15219.61
250.2220, 13947.91
251.4370, 12920.13
252.6510, 11899.19
253.8660, 10645.99
255.0800, 9435.514
256.2940, 8204.850
257.5080, 7590.034
258.7220, 6538.930
259.9360, 6223.096
261.1490, 4962.943
262.3630, 4281.697
263.5760, 3586.240
264.7890, 3153.860
266.0020, 2729.559
267.2150, 2188.521
268.4270, 2078.532
269.6400, 1667.750
270.8520, 1535.139
272.0640, 1131.682
273.2760, 1346.391
274.4880, 875.2412
275.7000, 1068.242
276.9120, 906.3887
278.1230, 718.6836
279.3340, 595.9326
280.5450, 515.8516
281.7560, 454.0576
282.9670, 436.2393
284.1780, 431.1084
285.3880, 473.3838
286.5980, 480.2529
287.8090, 516.3447
289.0190, 515.5029
290.2290, 617.4023
291.4380, 551.5000
292.6480, 752.1768
293.8570, 765.8086
295.0670, 681.4492
296.2760, 710.9014
297.4850, 892.4521
298.6930, 824.0977
299.9020, 1118.837
301.1110, 1064.668
302.3190, 1199.594
303.5270, 1249.608
304.7350, 1285.706
305.9430, 1523.890
307.1510, 1775.159
308.3580, 1833.511
309.5660, 1968.558
310.7730, 2098.896
311.9800, 2301.035
313.1870, 2654.730
314.3940, 2820.746
315.6010, 3006.535
316.8070, 3119.691
318.0130, 3212.567
319.2200, 3178.425
320.4260, 3289.486
321.6310, 3222.154
322.8370, 3137.722
324.0430, 3135.158
325.2480, 2766.830
326.4540, 2828.421
327.6590, 2502.136
328.8640, 2100.423
330.0680, 2230.682
331.2730, 2274.515
332.4780, 1997.712
333.6820, 1857.079
334.8860, 1840.625
336.0900, 1921.693
337.2940, 1725.099
338.4980, 1818.644
339.7010, 1668.810
340.9050, 1714.459
342.1080, 1849.045
343.3110, 1844.960
344.5140, 1915.173
345.7170, 1883.233
346.9200, 2036.765
348.1220, 2190.470
349.3240, 2185.410
350.5270, 2102.362
351.7290, 2266.118
352.9310, 2294.679
354.1320, 2535.140
355.3340, 2606.188
356.5350, 2690.173
357.7370, 2968.452
358.9380, 3190.404
360.1390, 3281.395
361.3400, 3579.421
362.5400, 3718.483
363.7410, 4106.580
364.9410, 4346.711
366.1410, 4749.877
367.3410, 5018.073
368.5410, 5102.303
369.7410, 5455.062
370.9400, 5508.853
372.1400, 5904.172
373.3390, 6018.520
374.5380, 6120.895
375.7370, 6355.297
376.9360, 6638.729
378.1350, 6975.121
379.3330, 7394.660
380.5310, 7883.163
381.7300, 8309.689
382.9280, 8947.237
384.1260, 9314.808
385.3230, 9446.403
386.5210, 9937.016
387.7180, 10143.64
388.9160, 10422.29
390.1130, 10791.94
391.3100, 10707.60
392.5060, 10779.28
393.7030, 10445.96
394.9000, 9966.656
396.0960, 9486.364
397.2920, 8989.081
398.4880, 8519.810
399.6840, 7719.551
400.8800, 7062.307
402.0750, 6396.074
403.2710, 5844.855
404.4660, 5475.684
405.6610, 5121.156
406.8560, 4865.495
408.0510, 4715.881
409.2450, 4633.271
410.4400, 4668.225
411.6340, 4829.545
412.8280, 4721.004
414.0220, 4978.564
415.2160, 5022.861
416.4100, 5522.512
417.6030, 5588.451
418.7970, 5733.021
419.9900, 5962.713
421.1830, 6133.787
422.3760, 6034.100
423.5690, 6335.545
424.7610, 6106.062
425.9540, 6290.033
427.1460, 6114.420
428.3380, 5920.959
429.5300, 5737.731
430.7220, 5266.747
431.9140, 4907.349
433.1050, 4446.607
434.2970, 4142.401
435.4880, 3667.851
436.6790, 3024.822
437.8700, 2617.015
439.0610, 2179.847
440.2510, 1908.338
441.4420, 1500.423
442.6320, 1145.820
443.8220, 1055.062
445.0120, 791.7393
446.2020, 601.1270
447.3910, 347.6045
448.5810, 180.6035
449.7700, 149.8701
450.9600, 158.1094
452.1490, 36.12500
453.3370, 77.72168
454.5260, 130.1709
455.7150, 98.74707
456.9030, 158.3965
458.0910, 40.87500
459.2800, 77.62207
460.4670, 1.935547
461.6550, 23.56250
462.8430, 95.40332
464.0300, 8.609375
465.2180, 9.800781
466.4050, 172.2432
467.5920, 69.00293
468.7790, 114.6152
469.9650, 85.85742
471.1520, 74.59863
472.3380, 95.64453
473.5250, 155.0566
474.7110, 110.8682
475.8970, 28.78125
477.0820, 249.6104
478.2680, 140.1445
479.4540, 124.7666
480.6390, 59.52734
481.8240, 12.21582
483.0090, 72.00098
484.1940, 21.81934
485.3780, 45.34180
486.5630, 2.471680
487.7470, 46.57812
488.9320, 190.6748
490.1160, 166.7490
491.3000, 127.8291
492.4830, 141.7939
493.6670, 59.05664
494.8500, 29.95508
496.0340, 69.92871
497.2170, 35.12598
498.4000, 215.7539
499.5820, 160.5889
500.7650, 286.4316
501.9480, 524.2695
503.1300, 739.0996
504.3120, 1049.954
505.4940, 1110.783
506.6760, 1470.592
507.8580, 2158.381
509.0390, 2093.122
510.2210, 2605.841
511.4020, 2705.533
512.5830, 3208.188
513.7640, 3366.789
514.9450, 3763.369
516.1250, 3958.925
517.3060, 3878.432
518.4860, 4156.880
519.6660, 4153.271
520.8460, 4023.606
522.0260, 4049.877
523.2060, 3891.090
524.3850, 3781.243
525.5650, 3633.337
526.7440, 3471.369
527.9230, 3194.340
529.1020, 2885.244
530.2810, 2645.088
531.4590, 2304.873
532.6380, 2114.593
533.8160, 2027.251
534.9940, 1656.843
536.1720, 1706.374
537.3500, 1440.878
538.5270, 1133.312
539.7050, 1003.722
540.8820, 797.0977
542.0590, 606.3682
543.2360, 548.5859
544.4130, 515.7334
545.5900, 476.8125
546.7660, 331.8193
547.9430, 336.7451
549.1190, 167.5957
550.2950, 141.3604
551.4710, 45.03418
552.6470, 77.39453
553.8220, 124.9902
554.9980, 12.77637
556.1730, 50.30371
557.3480, 9.723633
558.5230, 67.10645
559.6980, 30.83105
560.8730, 31.00781
562.0470, 8.086914
563.2220, 6.263672
564.3960, 73.53027
565.5700, 120.5137
566.7440, 141.7090
567.9170, 3.131836
569.0910, 19.71094
570.2640, 10.54688
571.4380, 71.34570
572.6110, 18.56543
573.7840, 69.67188
574.9570, 171.1084
576.1290, 31.20312
577.3020, 6.368164
578.4740, 65.37012
579.6460, 77.23535
580.8180, 196.9648
581.9900, 291.5811
583.1620, 218.0850
584.3330, 255.4775
585.5040, 181.7559
586.6760, 221.9189
587.8470, 438.9639
589.0180, 313.9033
590.1880, 249.7285
591.3590, 255.4395
592.5290, 129.0332
593.7000, 144.8926
594.8700, 73.41504
596.0400, 101.7656
597.2090, 209.1504
598.3790, 126.8525
599.5490, 182.7285
600.7180, 187.4043
601.8870, 192.7402
603.0560, 75.55273
604.2250, 82.95117
605.3940, 94.67383
606.5620, 9.564453
607.7300, 268.2422
608.8990, 19.75781
610.0670, 373.2715
611.2350, 295.9375
612.4020, 422.9688
613.5700, 467.1172
614.7370, 611.1348
615.9050, 763.2402
617.0720, 859.4668
618.2390, 1208.141
619.4060, 1494.652
620.5720, 1651.268
621.7390, 1913.107
622.9050, 2041.979
624.0710, 2423.793
625.2370, 2560.406
626.4030, 2726.605
627.5690, 2775.057
628.7340, 2740.102
629.9000, 2836.289
631.0650, 2719.023
632.2300, 3033.674
633.3950, 3040.594
634.5600, 3452.715
635.7240, 3341.902
636.8890, 3915.297
638.0530, 3983.852
639.2170, 4519.562
640.3810, 5202.992
641.5450, 5602.051
642.7080, 5878.750
643.8720, 6430.266
645.0350, 6866.086
646.1980, 7688.336
647.3610, 8248.574
648.5240, 8819.195
649.6870, 9321.191
650.8490, 10210.07
652.0120, 11067.88
653.1740, 11776.15
654.3360, 12556.10
655.4980, 13434.70
656.6600, 14497.89
657.8210, 15705.46
658.9830, 17048.74
660.1440, 18706.64
661.3050, 20528.89
662.4660, 22697.83
663.6270, 25104.85
664.7870, 27631.66
665.9480, 29803.04
667.1080, 32427.67
668.2680, 34852.46
669.4280, 37140.64
670.5880, 38771.60
671.7480, 40396.67
672.9070, 40763.73
674.0670, 40808.55
675.2260, 40643.93
676.3850, 39201.19
677.5440, 37259.46
678.7030, 34763.72
679.8610, 32295.22
681.0200, 29401.41
682.1780, 26364.22
683.3360, 23807.65
684.4940, 20722.72
685.6520, 18641.84
686.8090, 16265.15
687.9670, 14030.38
689.1240, 12487.61
690.2810, 11132.59
691.4380, 9747.420
692.5950, 8668.922
693.7520, 7594.949
694.9080, 6969.029
696.0650, 6081.752
697.2210, 5480.936
698.3770, 5000.826
699.5330, 4541.641
700.6880, 4158.482
701.8440, 3702.410
702.9990, 3465.732
704.1550, 3175.463
705.3100, 2731.979
706.4650, 2694.941
707.6190, 2435.387
708.7740, 2329.576
709.9290, 2305.438
711.0830, 2183.965
712.2370, 1932.871
713.3910, 1878.094
714.5450, 1773.752
715.6980, 1769.213
716.8520, 1862.156
718.0050, 1853.336
719.1580, 1962.789
720.3110, 1969.469
721.4640, 1964.441
722.6170, 2100.984
723.7700, 1966.568
724.9220, 1893.602
726.0740, 1980.807
727.2260, 1820.805
728.3780, 1725.160
729.5300, 1945.131
730.6810, 1796.010
731.8330, 1620.242
732.9840, 1758.715
734.1350, 1430.906
735.2860, 1368.090
736.4370, 1287.211
737.5880, 1283.016
738.7380, 1258.715
739.8880, 1164.348
741.0390, 1171.930
742.1890, 1082.594
743.3380, 1116.488
744.4880, 912.6387
745.6380, 712.6367
746.7870, 645.1953
747.9360, 623.7578
749.0850, 534.5703
750.2340, 532.9570
751.3830, 495.7969
752.5310, 373.7422
753.6800, 250.1895
754.8280, 403.9102
755.9760, 238.5391
757.1240, 137.1270
758.2720, 254.6406
759.4190, 152.0781
760.5670, 63.41992
761.7140, 102.6602
762.8610, 57.19922
764.0080, 23.78711
765.1550, 21.34570
766.3020, 62.61133
767.4480, 11.03516
768.5950, 120.5938
769.7410, 93.57617
770.8870, 31.74414
772.0330, 119.2793
773.1780, 7.529297
774.3240, 28.77539
775.4690, 93.78711
776.6140, 51.26758
777.7590, 162.3438
778.9040, 122.1562
780.0490, 104.1445
781.1940, 232.3008
782.3380, 49.68750
783.4820, 76.21094
784.6260, 79.87891
785.7700, 86.30469
786.9140, 83.59961
788.0580, 69.64844
789.2010, 24.83594
790.3450, 38.86523
791.4880, 98.51953
792.6310, 97.05273
793.7730, 3.273438
794.9160, 141.5078
796.0590, 56.66211
797.2010, 166.7363
798.3430, 288.7344
799.4850, 91.66016
800.6270, 37.50977
801.7690, 54.28125
802.9100, 121.9766
804.0520, 32.60156
805.1930, 197.1445
806.3340, 72.62305
807.4750, 17.97266
808.6160, 31.34961
809.7560, 3.601563
810.8970, 20.77539
812.0370, 20.12109
813.1770, 165.0938
814.3170, 50.78125
815.4570, 173.4082
816.5960, 82.75000
817.7360, 4.189453
818.8750, 25.29883
820.0140, 78.89648
821.1530, 18.91211
822.2920, 80.37891
823.4310, 88.61133
824.5690, 30.21680
825.7070, 103.8926
826.8460, 96.94727
827.9840, 6.048828
829.1220, 15.08984
830.2590, 1.560547
831.3970, 54.21094
832.5340, 38.68750
833.6710, 53.54492
834.8080, 25.37891
835.9450, 29.82422
837.0820, 47.92773
838.2190, 26.34766
839.3550, 194.3457
840.4910, 274.0215
841.6270, 375.7051
842.7630, 366.4121
843.8990, 494.1465
845.0350, 545.6953
846.1700, 480.6016
847.3060, 614.3184
848.4410, 567.0527
849.5760, 425.7754
850.7100, 562.5176
851.8450, 650.2988
852.9800, 794.0742
854.1140, 887.9258
855.2480, 923.6055
856.3820, 1085.350
857.5160, 1199.066
858.6500, 1297.760
859.7830, 1247.426
860.9170, 1149.066
862.0500, 1028.686
863.1830, 994.2812
864.3160, 1093.850
865.4480, 806.4004
866.5810, 856.9277
867.7130, 806.4414
868.8460, 655.9512
869.9780, 812.4551
871.1100, 922.9648
872.2410, 674.4707
873.3730, 667.9668
874.5050, 643.4883
875.6360, 643.0039
876.7670, 841.5430
877.8980, 808.0742
879.0290, 883.6426
880.1590, 1060.270
881.2900, 1054.953
882.4200, 1187.156
883.5500, 1340.562
884.6800, 1391.410
885.8100, 1320.957
886.9400, 1448.500
888.0690, 1705.926
889.1990, 1619.883
890.3280, 1809.350
891.4570, 1957.463
892.5860, 1946.891
893.7140, 2130.898
894.8430, 2201.549
895.9710, 2235.500
897.1000, 2312.893
898.2280, 2394.801
899.3560, 2253.939
900.4830, 2539.098
901.6110, 2316.645
902.7380, 2468.684
903.8660, 2732.047
904.9930, 2639.645
906.1200, 2807.033
907.2460, 3016.068
908.3730, 3029.029
909.5000, 3413.049
910.6260, 3548.891
911.7520, 3552.912
912.8780, 3770.771
914.0040, 3949.549
915.1290, 4126.965
916.2550, 4089.629
917.3800, 4043.387
918.5050, 4194.734
919.6300, 4123.541
920.7550, 4236.244
921.8800, 4126.463
923.0040, 4216.250
924.1290, 4139.201
925.2530, 3954.852
926.3770, 3971.080
927.5010, 3984.543
928.6250, 3834.283
929.7480, 3646.258
930.8720, 3578.410
931.9950, 3492.693
933.1180, 3330.787
934.2410, 3253.453
935.3640, 3157.334
936.4860, 3215.023
937.6090, 3219.844
938.7310, 2984.979
939.8530, 2816.773
940.9750, 2794.291
942.0970, 2819.328
943.2180, 2593.463
944.3400, 2663.406
945.4610, 2625.232
946.5820, 2606.223
947.7030, 3219.562
948.8240, 2865.340
949.9450, 3063.158
951.0650, 2625.305
952.1860, 2940.102
953.3060, 2994.760
954.4260, 2830.764
955.5460, 2812.223
956.6650, 2738.736
957.7850, 2489.352
958.9040, 2547.043
960.0230, 2558.701
961.1420, 2443.531
962.2610, 2675.365
963.3800, 2173.705
964.4990, 2275.924
965.6170, 2370.404
966.7350, 2356.643
967.8530, 2402.422
968.9710, 2132.297
970.0890, 2327.086
971.2070, 2310.232
972.3240, 2399.180
973.4410, 2573.482
974.5580, 2381.105
975.6750, 2343.086
976.7920, 2432.119
977.9090, 2589.164
979.0250, 2473.215
980.1410, 2897.271
981.2580, 2889.338
982.3740, 3175.412
983.4890, 3241.486
984.6050, 3523.570
985.7200, 3904.658
986.8360, 4033.750
987.9510, 4240.844
989.0660, 4432.938
990.1810, 4629.035
991.2950, 4704.129
992.4100, 5113.230
993.5240, 5188.328
994.6390, 5755.434
995.7530, 6403.543
996.8660, 6497.652
997.9800, 6881.764
999.0940, 7570.641
1000.207, 8254.062
1001.320, 8746.172
1002.433, 8950.100
1003.546, 9242.930
1004.659, 9145.570
1005.772, 9061.801
1006.884, 9086.617
1007.996, 9180.328
1009.108, 9167.160
1010.220, 9257.738
1011.332, 9303.848
1012.444, 9357.805
1013.555, 9356.273
1014.666, 9556.602
1015.777, 9502.535
1016.888, 9624.082
1017.999, 9625.777
1019.110, 9677.141
1020.220, 9683.738
1021.331, 9754.816
1022.441, 9851.836
1023.551, 9915.375
1024.661, 9974.234
1025.770, 10066.16
1026.880, 10055.78
1027.989, 10009.05
1029.098, 9935.654
1030.207, 10152.91
1031.316, 9963.746
1032.425, 10387.48
1033.533, 10573.17
1034.642, 10380.62
1035.750, 10706.85
1036.858, 10672.11
1037.966, 10700.65
1039.073, 10730.50
1040.181, 10987.41
1041.288, 11021.17
1042.396, 10482.35
1043.503, 10715.38
1044.610, 10360.63
1045.716, 10147.96
1046.823, 9942.232
1047.929, 9511.707
1049.036, 9071.789
1050.142, 9052.637
1051.248, 8601.117
1052.353, 8217.797
1053.459, 8044.406
1054.564, 7419.852
1055.670, 7297.031
1056.775, 7047.561
1057.880, 6742.502
1058.985, 6608.865
1060.089, 6418.074
1061.194, 6102.678
1062.298, 6036.449
1063.402, 5850.932
1064.506, 5605.715
1065.610, 5536.152
1066.713, 5359.367
1067.817, 5161.107
1068.920, 5269.176
1070.023, 4866.299
1071.126, 4506.613
1072.229, 4535.594
1073.332, 4216.133
1074.435, 4068.645
1075.537, 4042.711
1076.639, 3787.016
1077.741, 3759.984
1078.843, 3716.717
1079.945, 3540.326
1081.046, 3346.979
1082.148, 3290.930
1083.249, 3050.770
1084.350, 2916.035
1085.451, 2376.764
1086.551, 2608.508
1087.652, 2318.758
1088.752, 1954.490
1089.853, 2064.420
1090.953, 1762.777
1092.053, 1779.385
1093.152, 1648.121
1094.252, 1541.924
1095.351, 1476.254
1096.451, 1423.883
1097.550, 1248.316
1098.649, 1353.643
1099.748, 1320.336
1100.846, 1226.320
1101.945, 1121.016
1103.043, 1184.250
1104.141, 1110.711
1105.239, 1127.439
1106.337, 954.4297
1107.434, 1249.416
1108.532, 1146.090
1109.629, 1019.584
1110.726, 882.0977
1111.823, 919.8672
1112.920, 854.6172
1114.017, 1018.656
1115.113, 1037.348
1116.210, 1045.973
1117.306, 1393.871
1118.402, 1654.549
1119.498, 1831.375
1120.593, 2126.012
1121.689, 2000.318
1122.784, 2175.574
1123.879, 1704.406
1124.974, 1614.887
1126.069, 1345.410
1127.164, 1035.029
1128.259, 867.2148
1129.353, 796.0195
1130.447, 353.8164
1131.541, 467.3164
1132.635, 68.72656
1133.729, 117.0312
1134.822, 16.76953
1135.916, 195.3242
1137.009, 58.32617
1138.102, 162.2227
1139.195, 115.9707
1140.288, 11.31836
1141.380, 125.7676
1142.473, 107.6621
1143.565, 128.0059
1144.657, 213.8379
1145.749, 193.8418
1146.841, 361.0547
1147.932, 47.50195
1149.024, 77.06641
1150.115, 129.7812
1151.206, 12.32031
1152.297, 110.6836
1153.388, 150.8457
1154.479, 88.42578
1155.569, 34.45508
1156.659, 11.10352
1157.750, 20.19336
1158.839, 103.3477
1159.929, 97.61719
1161.019, 110.3516
1162.108, 16.86914
1163.198, 63.20117
1164.287, 260.3086
1165.376, 82.71094
1166.465, 142.9883
1167.553, 142.1367
1168.642, 66.84375
1169.730, 26.04297
1170.818, 253.8008
1171.906, 292.7402
1172.994, 204.2363
1174.082, 243.8672
1175.170, 193.0957
1176.257, 174.1836
1177.344, 17.12695
1178.431, 2.087891
1179.518, 42.52539
1180.605, 36.01758
1181.691, 23.24609
1182.778, 142.3457
1183.864, 165.2891
1184.950, 32.07617
1186.036, 144.3008
1187.122, 4.937500
1188.207, 73.76367
1189.292, 49.18555
1190.378, 12.02734
1191.463, 112.4395
1192.548, 142.8984
1193.632, 3.382813
1194.717, 159.9473
1195.801, 10.24023
1196.886, 53.73633
1197.970, 19.53711
1199.054, 86.87695
1200.137, 34.45312
1201.221, 209.7227
1202.305, 92.90234
1203.388, 144.5898
1204.471, 56.48438
1205.554, 80.47656
1206.637, 35.67969
1207.719, 259.4492
1208.802, 23.10156
1209.884, 153.9609
1210.966, 7.843750
1212.048, 247.4219
1213.130, 266.8906
1214.212, 171.4844
1215.293, 291.6875
1216.374, 281.0039
1217.456, 168.2773
1218.536, 267.0078
1219.617, 451.3750
1220.698, 74.19531
1221.778, 271.5586
1222.859, 471.2930
1223.939, 206.9648
1225.019, 137.0273
1226.099, 409.3008
1227.178, 148.9883
1228.258, 283.1484
1229.337, 425.8477
1230.417, 346.4727
1231.496, 643.4570
1232.574, 502.8867
1233.653, 445.4375
1234.732, 608.2461
1235.810, 534.1250
1236.888, 761.5898
1237.966, 584.5859
1239.044, 615.2344
1240.122, 598.4180
1241.199, 765.5547
1242.277, 758.8789
1243.354, 675.3398
1244.431, 1006.941
1245.508, 749.2148
1246.585, 668.0391
1247.661, 946.2656
1248.738, 895.8750
1249.814, 924.9102
1250.890, 988.0898
1251.966, 982.2109
1253.042, 827.9141
1254.117, 894.9922
1255.193, 628.3945
1256.268, 827.5742
1257.343, 912.6797
1258.418, 746.1289
1259.493, 969.5312
1260.567, 1039.156
1261.642, 1044.910
1262.716, 1287.773
1263.790, 1415.547
1264.864, 1397.863
1265.938, 1299.387
1267.011, 1133.152
1268.085, 1335.461
1269.158, 1593.289
