##NAMES=Edenite
##RRUFFID=R060029
##IDEAL CHEMISTRY=NaCa_2_Mg_5_(Si_7_Al)O_22_(OH)_2_
##LOCALITY=Renfrew County, Ontario, Canada
##OWNER=RRUFF
##SOURCE=University of Arizona Mineral Museum
##DESCRIPTION=Black prismatic
##STATUS=The identification of this mineral has been confirmed by X-ray diffraction and chemical analysis
##URL=rruff.info/R060029
##MEASURED CHEMISTRY=(Na_0.62_K_0.34_[box]_0.04_)(Ca_0.86_Na_0.14_)_2_(Mg_0.57_Fe^2+^_0.30_Fe^3+^_0.07_Al_0.05_Ti_0.01_Mn_0.01_)_5_(Si_6.61_Al_1.39_)O_22_((OH)_0.69_F_0.31_)_2_
##PIN_ID=L01054
##ORIENTATION=Laser parallel to -a* (-1 0 0). Fiducial mark perpendicular to laser is parallel to b [0 1 0]
192.9560, 0.0000000E+00
194.1780, 74.65625
195.4000, 140.2266
196.6220, 190.6299
197.8430, 213.6357
199.0640, 153.5420
200.2860, 242.9492
201.5070, 206.7236
202.7270, 142.4756
203.9480, 142.0225
205.1690, 25.63965
206.3890, 22.69629
207.6090, 24.84863
208.8290, 71.96973
210.0490, 171.1543
211.2690, 403.7871
212.4890, 510.6670
213.7080, 891.6191
214.9280, 931.3955
216.1470, 1158.190
217.3660, 1290.294
218.5850, 1441.636
219.8030, 1635.981
221.0220, 1814.633
222.2400, 2085.733
223.4590, 2302.996
224.6770, 2379.664
225.8950, 2508.884
227.1120, 2530.360
228.3300, 2553.624
229.5480, 2471.950
230.7650, 2539.713
231.9820, 2373.182
233.1990, 2353.055
234.4160, 2064.052
235.6330, 1981.810
236.8490, 1591.671
238.0660, 1375.418
239.2820, 1337.747
240.4980, 1123.889
241.7140, 886.0400
242.9300, 833.2139
244.1460, 640.3984
245.3610, 475.5830
246.5770, 333.7539
247.7920, 265.9600
249.0070, 139.0693
250.2220, 121.2266
251.4370, 56.22754
252.6510, 32.71191
253.8660, 75.63086
255.0800, 96.55762
256.2940, 95.15430
257.5080, 6.922852
258.7220, 32.54199
259.9360, 13.07422
261.1490, 8.317383
262.3630, 32.03418
263.5760, 44.63770
264.7890, 7.472656
266.0020, 15.35742
267.2150, 2.715820
268.4270, 35.13574
269.6400, 51.33105
270.8520, 80.19043
272.0640, 31.96973
273.2760, 131.7236
274.4880, 133.5459
275.7000, 306.8672
276.9120, 235.2295
278.1230, 376.6211
279.3340, 397.0312
280.5450, 393.4482
281.7560, 375.8604
282.9670, 477.2559
284.1780, 389.6191
285.3880, 565.9424
286.5980, 697.2109
287.8090, 552.4229
289.0190, 685.5801
290.2290, 824.6797
291.4380, 752.7246
292.6480, 675.7041
293.8570, 800.5898
295.0670, 948.3555
296.2760, 892.9873
297.4850, 891.5029
298.6930, 727.8838
299.9020, 806.1230
301.1110, 738.2070
302.3190, 532.1240
303.5270, 566.8877
304.7350, 701.4512
305.9430, 522.7998
307.1510, 578.0293
308.3580, 550.2129
309.5660, 575.3584
310.7730, 520.4678
311.9800, 427.5449
313.1870, 420.6006
314.3940, 451.6309
315.6010, 314.6387
316.8070, 435.6201
318.0130, 349.7383
319.2200, 437.1357
320.4260, 404.1699
321.6310, 346.7832
322.8370, 184.9023
324.0430, 379.3535
325.2480, 149.5996
326.4540, 404.6240
327.6590, 291.5078
328.8640, 270.6934
330.0680, 302.0020
331.2730, 378.7783
332.4780, 419.0918
333.6820, 480.2891
334.8860, 496.1641
336.0900, 556.3857
337.2940, 593.2168
338.4980, 442.7031
339.7010, 701.6201
340.9050, 663.3809
342.1080, 728.2617
343.3110, 890.9648
344.5140, 725.6504
345.7170, 922.4883
346.9200, 1009.624
348.1220, 1005.145
349.3240, 1271.430
350.5270, 1304.672
351.7290, 1364.624
352.9310, 1595.285
354.1320, 1619.216
355.3340, 1946.445
356.5350, 2027.979
357.7370, 2044.308
358.9380, 2240.424
360.1390, 2285.307
361.3400, 2434.092
362.5400, 2474.094
363.7410, 2594.109
364.9410, 2695.366
366.1410, 2738.413
367.3410, 2673.218
368.5410, 2703.779
369.7410, 2675.791
370.9400, 2632.268
372.1400, 2578.150
373.3390, 2516.778
374.5380, 2358.175
375.7370, 2328.342
376.9360, 2100.206
378.1350, 2109.756
379.3330, 2147.237
380.5310, 1826.665
381.7300, 1885.051
382.9280, 1757.401
384.1260, 1820.722
385.3230, 1920.729
386.5210, 1936.297
387.7180, 2026.551
388.9160, 1802.783
390.1130, 1462.369
391.3100, 1070.352
392.5060, 1038.030
393.7030, 1072.646
394.9000, 947.0498
396.0960, 860.5469
397.2920, 816.5664
398.4880, 765.4238
399.6840, 683.5469
400.8800, 682.1670
402.0750, 630.9648
403.2710, 627.1055
404.4660, 611.7617
405.6610, 622.6953
406.8560, 557.4648
408.0510, 667.8154
409.2450, 628.5449
410.4400, 638.8223
411.6340, 945.9336
412.8280, 786.0498
414.0220, 745.1855
415.2160, 925.5459
416.4100, 831.9639
417.6030, 769.1523
418.7970, 791.5225
419.9900, 839.3975
421.1830, 1067.011
422.3760, 1067.662
423.5690, 1156.378
424.7610, 1328.053
425.9540, 1182.631
427.1460, 1200.609
428.3380, 1235.197
429.5300, 1243.459
430.7220, 1293.691
431.9140, 938.8906
433.1050, 948.0654
434.2970, 962.2139
435.4880, 753.3330
436.6790, 727.4238
437.8700, 555.4873
439.0610, 549.5234
440.2510, 621.5332
441.4420, 388.5146
442.6320, 323.4697
443.8220, 427.3975
445.0120, 391.3203
446.2020, 420.1738
447.3910, 311.6191
448.5810, 367.1699
449.7700, 370.0732
450.9600, 408.4277
452.1490, 272.0938
453.3370, 224.6211
454.5260, 127.3936
455.7150, 211.1602
456.9030, 178.2373
458.0910, 247.4580
459.2800, 28.86230
460.4670, 77.46680
461.6550, 59.50684
462.8430, 14.91992
464.0300, 1.829102
465.2180, 12.88965
466.4050, 73.87305
467.5920, 39.15332
468.7790, 19.01367
469.9650, 58.40918
471.1520, 83.54980
472.3380, 22.35059
473.5250, 0.3671880
474.7110, 111.9863
475.8970, 4.579102
477.0820, 19.46777
478.2680, 161.4072
479.4540, 109.9609
480.6390, 150.5078
481.8240, 234.8379
483.0090, 167.1758
484.1940, 263.4355
485.3780, 436.6211
486.5630, 327.7412
487.7470, 378.7949
488.9320, 475.7842
490.1160, 590.7158
491.3000, 686.5918
492.4830, 742.4121
493.6670, 880.1836
494.8500, 797.9043
496.0340, 1013.586
497.2170, 970.2188
498.4000, 1065.801
499.5820, 1090.330
500.7650, 1255.808
501.9480, 1358.235
503.1300, 1484.613
504.3120, 1634.942
505.4940, 1707.222
506.6760, 1736.454
507.8580, 1907.639
509.0390, 1934.776
510.2210, 2046.868
511.4020, 2257.916
512.5830, 2151.920
513.7640, 2278.880
514.9450, 2475.798
516.1250, 2569.674
517.3060, 2619.510
518.4860, 2682.308
519.6660, 2805.066
520.8460, 3130.788
522.0260, 3147.473
523.2060, 3346.121
524.3850, 3410.733
525.5650, 3717.309
526.7440, 3712.849
527.9230, 4017.351
529.1020, 4072.816
530.2810, 4177.246
531.4590, 4191.640
532.6380, 4206.999
533.8160, 4273.328
534.9940, 4311.625
536.1720, 4196.896
537.3500, 4409.145
538.5270, 4154.369
539.7050, 4243.578
540.8820, 4188.761
542.0590, 4008.921
543.2360, 4001.058
544.4130, 3824.181
545.5900, 3848.284
546.7660, 3808.374
547.9430, 3782.460
549.1190, 3648.559
550.2950, 3578.674
551.4710, 3490.773
552.6470, 3403.889
553.8220, 3510.014
554.9980, 3313.179
556.1730, 3356.357
557.3480, 3236.560
558.5230, 3097.778
559.6980, 2943.047
560.8730, 2923.305
562.0470, 2862.544
563.2220, 2714.769
564.3960, 2687.972
565.5700, 2654.158
566.7440, 2604.329
567.9170, 2511.492
569.0910, 2379.062
570.2640, 2009.779
571.4380, 2040.886
572.6110, 1809.977
573.7840, 1614.035
574.9570, 1533.058
576.1290, 1419.056
577.3020, 1217.019
578.4740, 1238.946
579.6460, 963.8398
580.8180, 751.6992
581.9900, 675.5225
583.1620, 625.1729
584.3330, 546.5205
585.5040, 394.2412
586.6760, 431.8105
587.8470, 255.4609
589.0180, 222.6299
590.1880, 121.9951
591.3590, 70.33008
592.5290, 46.78125
593.7000, 33.38867
594.8700, 38.14258
596.0400, 75.78613
597.2090, 33.49512
598.3790, 129.4424
599.5490, 1.726563
600.7180, 73.31738
601.8870, 70.10645
603.0560, 27.24219
604.2250, 96.35254
605.3940, 201.2686
606.5620, 211.3506
607.7300, 182.9590
608.8990, 187.0762
610.0670, 64.60938
611.2350, 51.21973
612.4020, 27.87305
613.5700, 137.6729
614.7370, 100.7783
615.9050, 78.35156
617.0720, 238.5791
618.2390, 249.4092
619.4060, 334.3057
620.5720, 311.7568
621.7390, 263.5234
622.9050, 449.6562
624.0710, 477.4814
625.2370, 396.6865
626.4030, 502.5947
627.5690, 543.0254
628.7340, 698.6484
629.9000, 639.6562
631.0650, 799.7646
632.2300, 875.8477
633.3950, 788.9062
634.5600, 1019.938
635.7240, 908.9473
636.8890, 1106.932
638.0530, 1298.893
639.2170, 1329.828
640.3810, 1503.740
641.5450, 1683.629
642.7080, 1694.494
643.8720, 1966.336
645.0350, 1961.155
646.1980, 2164.952
647.3610, 2307.727
648.5240, 2461.479
649.6870, 2886.208
650.8490, 3119.916
652.0120, 3303.604
653.1740, 3593.270
654.3360, 3841.915
655.4980, 4189.539
656.6600, 4587.143
657.8210, 4928.727
658.9830, 5391.287
660.1440, 5750.830
661.3050, 6385.352
662.4660, 6798.855
663.6270, 7379.340
664.7870, 7608.805
665.9480, 7998.249
667.1080, 8075.678
668.2680, 8002.086
669.4280, 7906.478
670.5880, 7824.849
671.7480, 7409.204
672.9070, 7032.539
674.0670, 6698.859
675.2260, 6330.160
676.3850, 5997.444
677.5440, 5702.711
678.7030, 5263.960
679.8610, 4906.193
681.0200, 4710.410
682.1780, 4526.609
683.3360, 4337.444
684.4940, 4121.612
685.6520, 3874.991
686.8090, 3674.223
687.9670, 3817.650
689.1240, 3594.901
690.2810, 3365.987
691.4380, 3800.881
692.5950, 4005.678
693.7520, 3424.096
694.9080, 3299.721
696.0650, 3369.416
697.2210, 3435.530
698.3770, 3512.766
699.5330, 3464.804
700.6880, 3485.507
701.8440, 3805.986
702.9990, 3792.177
704.1550, 3944.270
705.3100, 3941.844
706.4650, 4245.586
707.6190, 4308.996
708.7740, 4437.970
709.9290, 4655.117
711.0830, 4779.124
712.2370, 4949.043
713.3910, 5021.768
714.5450, 5237.322
715.6980, 5295.311
716.8520, 5364.678
718.0050, 5426.329
719.1580, 5417.963
720.3110, 5431.578
721.4640, 5589.178
722.6170, 5556.763
723.7700, 5467.332
724.9220, 5525.863
726.0740, 5309.400
727.2260, 5501.330
728.3780, 5389.115
729.5300, 5203.467
730.6810, 5133.373
731.8330, 5083.928
732.9840, 5024.585
734.1350, 4901.941
735.2860, 4687.891
736.4370, 4598.467
737.5880, 4492.004
738.7380, 4203.758
739.8880, 4113.787
741.0390, 3810.010
742.1890, 3880.008
743.3380, 3663.679
744.4880, 3584.769
745.6380, 3299.232
746.7870, 3030.487
747.9360, 2861.577
749.0850, 2671.420
750.2340, 2483.125
751.3830, 2397.505
752.5310, 2239.179
753.6800, 2175.729
754.8280, 2012.137
755.9760, 1987.311
757.1240, 1870.570
758.2720, 1916.166
759.4190, 1822.724
760.5670, 1682.099
761.7140, 1544.716
762.8610, 1661.343
764.0080, 1458.975
765.1550, 1510.611
766.3020, 1712.251
767.4480, 1508.067
768.5950, 1500.546
769.7410, 1358.199
770.8870, 1365.854
772.0330, 1391.514
773.1780, 1450.177
774.3240, 1372.844
775.4690, 1377.517
776.6140, 1232.192
777.7590, 1448.873
778.9040, 1456.560
780.0490, 1372.252
781.1940, 1693.949
782.3380, 1507.452
783.4820, 1510.361
784.6260, 1368.076
785.7700, 1369.799
786.9140, 1350.527
788.0580, 1067.264
789.2010, 1220.007
790.3450, 1112.760
791.4880, 1074.520
792.6310, 1135.288
793.7730, 987.0664
794.9160, 893.8525
796.0590, 1033.649
797.2010, 778.4561
798.3430, 791.2715
799.4850, 689.0977
800.6270, 735.9346
801.7690, 651.7803
802.9100, 611.1094
804.0520, 602.5098
805.1930, 511.3896
806.3340, 428.2812
807.4750, 378.6055
808.6160, 359.5020
809.7560, 340.0283
810.8970, 377.9688
812.0370, 375.9209
813.1770, 406.8857
814.3170, 254.8633
815.4570, 223.8545
816.5960, 175.8594
817.7360, 277.8760
818.8750, 66.90723
820.0140, 6.047852
821.1530, 114.0039
822.2920, 4.067383
823.4310, 38.85840
824.5690, 139.7910
825.7070, 80.77441
826.8460, 52.21777
827.9840, 113.7754
829.1220, 112.8057
830.2590, 197.8721
831.3970, 72.01562
832.5340, 94.17773
833.6710, 103.3682
834.8080, 143.5879
835.9450, 63.85742
837.0820, 58.13965
838.2190, 54.43164
839.3550, 49.07227
840.4910, 68.78906
841.6270, 79.35840
842.7630, 103.6953
843.8990, 98.05957
845.0350, 90.44727
846.1700, 6.855469
847.3060, 93.25195
848.4410, 1.667969
849.5760, 39.93164
850.7100, 45.45020
851.8450, 33.16992
852.9800, 39.80762
854.1140, 193.4678
855.2480, 122.1465
856.3820, 109.8477
857.5160, 243.5693
858.6500, 146.3105
859.7830, 67.07324
860.9170, 318.8594
862.0500, 166.6650
863.1830, 303.4932
864.3160, 190.3477
865.4480, 157.2266
866.5810, 361.1338
867.7130, 340.0703
868.8460, 436.0391
869.9780, 397.0566
871.1100, 558.1074
872.2410, 440.2207
873.3730, 538.3828
874.5050, 633.6221
875.6360, 602.9023
876.7670, 639.2432
877.8980, 711.6455
879.0290, 624.0977
880.1590, 847.6162
881.2900, 839.2314
882.4200, 771.9434
883.5500, 747.7480
884.6800, 813.6436
885.8100, 766.5977
886.9400, 885.6074
888.0690, 900.6670
889.1990, 957.7559
890.3280, 1003.879
891.4570, 1043.032
892.5860, 1069.230
893.7140, 984.4707
894.8430, 1107.737
895.9710, 1096.045
897.1000, 1028.383
898.2280, 867.7461
899.3560, 937.1357
900.4830, 787.5674
901.6110, 742.0479
902.7380, 781.5527
903.8660, 766.0859
904.9930, 751.6846
906.1200, 630.3115
907.2460, 771.9648
908.3730, 946.6436
909.5000, 785.3486
910.6260, 786.1055
911.7520, 944.8906
912.8780, 808.7090
914.0040, 973.5547
915.1290, 746.4297
916.2550, 753.3320
917.3800, 826.2695
918.5050, 908.2402
919.6300, 874.2529
920.7550, 771.2949
921.8800, 860.4023
923.0040, 770.5518
924.1290, 781.7764
925.2530, 701.0430
926.3770, 733.3838
927.5010, 891.7852
928.6250, 729.2178
929.7480, 809.6885
930.8720, 755.1973
931.9950, 651.7441
933.1180, 815.3350
934.2410, 678.9619
935.3640, 767.6162
936.4860, 772.3018
937.6090, 746.0156
938.7310, 704.7559
939.8530, 786.5283
940.9750, 791.3291
942.0970, 769.1572
943.2180, 814.0117
944.3400, 735.8945
945.4610, 830.8037
946.5820, 744.7422
947.7030, 662.7061
948.8240, 830.6992
949.9450, 748.7188
951.0650, 869.7695
952.1860, 770.8486
953.3060, 906.9600
954.4260, 818.1016
955.5460, 966.6191
956.6650, 893.8154
957.7850, 1164.813
958.9040, 945.9678
960.0230, 1072.938
961.1420, 1060.095
962.2610, 1193.429
963.3800, 1203.969
964.4990, 1270.616
965.6170, 1178.655
966.7350, 1189.501
967.8530, 1463.289
968.9710, 1488.670
970.0890, 1301.943
971.2070, 1417.423
972.3240, 1295.249
973.4410, 1341.312
974.5580, 1283.678
975.6750, 1229.153
976.7920, 1004.161
977.9090, 1130.011
979.0250, 1293.209
980.1410, 1075.855
981.2580, 1158.341
982.3740, 1145.982
983.4890, 1217.722
984.6050, 1155.453
985.7200, 1213.364
986.8360, 1060.820
987.9510, 1048.388
989.0660, 1284.711
990.1810, 1432.474
991.2950, 1496.408
992.4100, 1225.532
993.5240, 1387.108
994.6390, 1375.438
995.7530, 1356.659
996.8660, 1579.164
997.9800, 1357.131
999.0940, 1575.900
1000.207, 1618.721
1001.320, 1742.104
1002.433, 1691.147
1003.546, 1694.071
1004.659, 1871.466
1005.772, 1952.300
1006.884, 1881.354
1007.996, 1723.482
1009.108, 1720.147
1010.220, 1665.842
1011.332, 1730.565
1012.444, 1675.319
1013.555, 1703.110
1014.666, 1727.935
1015.777, 1586.787
1016.888, 1610.666
1017.999, 1749.577
1019.110, 1475.550
1020.220, 1818.515
1021.331, 1782.561
1022.441, 1685.576
1023.551, 1635.599
1024.661, 1713.668
1025.770, 1620.624
1026.880, 1764.067
1027.989, 1563.211
1029.098, 1717.816
1030.207, 1677.650
1031.316, 1695.876
1032.425, 1725.126
1033.533, 1714.103
1034.642, 1828.320
1035.750, 1785.642
1036.858, 1790.994
1037.966, 1780.860
1039.073, 1734.406
1040.181, 1714.812
1041.288, 1637.241
1042.396, 1673.691
1043.503, 1944.433
1044.610, 1740.225
1045.716, 1648.217
1046.823, 1823.751
1047.929, 1569.764
1049.036, 1551.349
1050.142, 1734.736
1051.248, 1706.416
1052.353, 1586.077
1053.459, 1754.154
1054.564, 1702.889
1055.670, 1604.983
1056.775, 1634.304
1057.880, 1581.715
1058.985, 1715.062
1060.089, 1561.664
1061.194, 1737.385
1062.298, 1585.133
1063.402, 1834.027
1064.506, 1758.570
1065.610, 2027.963
1066.713, 1715.535
1067.817, 1616.383
1068.920, 1608.917
1070.023, 1507.834
1071.126, 1474.719
1072.229, 1530.393
1073.332, 1406.371
1074.435, 1287.345
1075.537, 1336.273
1076.639, 1356.214
1077.741, 1362.164
1078.843, 1394.124
1079.945, 1365.094
1081.046, 1499.158
1082.148, 1347.199
1083.249, 1165.570
1084.350, 1158.100
1085.451, 1212.330
1086.551, 1109.790
1087.652, 1098.843
1088.752, 1106.975
1089.853, 1096.031
1090.953, 1124.099
1092.053, 1103.925
1093.152, 1075.312
1094.252, 1099.463
1095.351, 961.6846
1096.451, 995.8789
1097.550, 915.1045
1098.649, 779.9756
1099.748, 934.3896
1100.846, 726.7188
1101.945, 744.0801
1103.043, 828.5312
1104.141, 813.9531
1105.239, 827.3955
1106.337, 797.6660
1107.434, 799.3330
1108.532, 685.0498
1109.629, 668.5840
1110.726, 440.1289
1111.823, 626.8691
1112.920, 725.0430
1114.017, 739.4062
1115.113, 418.9219
1116.210, 530.9170
1117.306, 469.5693
1118.402, 401.1338
1119.498, 574.4482
1120.593, 302.7178
1121.689, 471.7490
1122.784, 464.8457
1123.879, 542.4248
1124.974, 441.6826
1126.069, 395.3096
1127.164, 522.8467
1128.259, 554.2324
1129.353, 433.6992
1130.447, 512.6494
1131.541, 235.1943
1132.635, 270.2783
1133.729, 440.3506
1134.822, 328.3223
1135.916, 410.3271
1137.009, 263.0234
1138.102, 164.8008
1139.195, 244.5947
1140.288, 25.24316
1141.380, 85.88867
1142.473, 240.5312
1143.565, 33.94238
1144.657, 56.17480
1145.749, 167.2861
1146.841, 17.91309
1147.932, 218.5342
1149.024, 119.4990
1150.115, 0.1103520
1151.206, 33.71582
1152.297, 1.349609
1153.388, 16.56152
1154.479, 24.49902
1155.569, 95.10254
1156.659, 71.29199
1157.750, 61.74023
1158.839, 60.77441
1159.929, 61.54199
1161.019, 13.66602
1162.108, 5.448242
1163.198, 30.74902
1164.287, 61.69336
1165.376, 80.16406
1166.465, 108.1758
1167.553, 26.29688
1168.642, 153.0967
1169.730, 6.132813
1170.818, 103.4141
1171.906, 8.642578
1172.994, 30.21289
1174.082, 78.58105
1175.170, 2.004883
1176.257, 16.44141
1177.344, 56.43164
1178.431, 1.543945
1179.518, 17.74707
1180.605, 18.12695
1181.691, 5.701172
1182.778, 36.12988
1183.864, 6.320313
1184.950, 130.7080
1186.036, 39.82617
1187.122, 153.9277
1188.207, 42.87109
1189.292, 152.3320
1190.378, 107.7480
1191.463, 2.753906
1192.548, 12.76758
1193.632, 14.32031
1194.717, 18.90723
1195.801, 41.52930
1196.886, 6.822266
1197.970, 73.47656
1199.054, 12.94434
1200.137, 51.20508
1201.221, 114.4521
1202.305, 12.68359
1203.388, 50.89258
1204.471, 56.08691
1205.554, 130.2656
1206.637, 135.1377
1207.719, 120.5762
1208.802, 131.7100
1209.884, 107.6270
1210.966, 59.92871
1212.048, 69.82812
1213.130, 36.16797
1214.212, 30.27734
1215.293, 11.30566
1216.374, 36.30664
1217.456, 86.39746
1218.536, 72.04199
1219.617, 140.6074
1220.698, 117.5361
1221.778, 135.4502
1222.859, 236.3477
1223.939, 236.2256
1225.019, 87.08789
1226.099, 138.9316
1227.178, 213.7578
1228.258, 39.56738
1229.337, 81.35254
1230.417, 169.1191
1231.496, 126.0508
1232.574, 100.0195
1233.653, 188.9922
1234.732, 170.4902
1235.810, 121.2217
1236.888, 202.8730
1237.966, 73.50586
1239.044, 118.1191
1240.122, 127.7090
1241.199, 235.5977
1242.277, 254.1641
1243.354, 126.7100
1244.431, 228.5908
1245.508, 117.2031
1246.585, 182.7021
1247.661, 397.3887
1248.738, 62.94043
1249.814, 258.8164
1250.890, 184.6689
1251.966, 180.3721
1253.042, 18.09668
1254.117, 193.2266
1255.193, 67.50293
1256.268, 179.7490
1257.343, 75.97168
1258.418, 91.17090
1259.493, 102.3438
1260.567, 85.49316
1261.642, 257.6172
1262.716, 189.7197
1263.790, 400.7998
1264.864, 137.8574
1265.938, 153.1035
1267.011, 127.1152
1268.085, 123.1045
1269.158, 300.0684
1270.231, 173.2715
1271.304, 433.0811
1272.377, 63.11230
1273.450, 30.97949
1274.522, 34.81055
1275.594, 198.6172
1276.666, 200.3906
1277.738, 40.14062
1278.810, 171.8135
1279.882, 285.7217
1280.953, 157.3926
1282.025, 237.9834
1283.096, 57.65137
1284.167, 297.1982
1285.238, 174.7676
1286.308, 184.4541
1287.379, 177.6533
1288.449, 130.1562
1289.519, 37.19727
1290.589, 72.42285
1291.659, 61.11816
1292.729, 141.8027
1293.798, 135.4639
1294.868, 242.8818
1295.937, 323.6846
1297.006, 147.9805
1298.075, 216.5820
1299.143, 142.8340
1300.212, 176.4746
1301.280, 90.68359
1302.348, 193.8682
1303.416, 81.31738
1304.484, 125.1592
1305.552, 201.7979
1306.620, 238.9873
1307.687, 135.6094
1308.754, 151.6562
1309.821, 85.89844
1310.888, 235.8477
1311.955, 259.8135
1313.021, 188.3594
1314.088, 330.2490
1315.154, 167.8740
1316.220, 62.17969
1317.286, 24.38867
1318.352, 281.6562
1319.417, 250.6660
1320.483, 314.5537
1321.548, 182.4111
1322.613, 190.1143
1323.678, 137.4766
1324.743, 35.36621
1325.807, 231.3828
1326.872, 65.12012
1327.936, 226.1709
1329.000, 155.8340
1330.064, 146.5293
1331.128, 246.4297
1332.191, 142.0244
1333.255, 171.5088
1334.318, 161.1445
1335.381, 184.8740
1336.444, 111.4805
1337.507, 222.0713
1338.569, 175.6494
1339.632, 76.12695
1340.694, 153.6250
1341.756, 140.7871
1342.818, 121.7803
1343.880, 248.0664
1344.941, 83.11816
1346.003, 180.5703
1347.064, 43.94238
1348.125, 127.3799
1349.186, 247.8018
1350.247, 179.1953
1351.308, 253.5723
1352.368, 259.9336
1353.428, 169.2188
1354.489, 203.8350
