##NAMES=Edenite
##RRUFFID=R060029
##IDEAL CHEMISTRY=NaCa_2_Mg_5_(Si_7_Al)O_22_(OH)_2_
##LOCALITY=Renfrew County, Ontario, Canada
##OWNER=RRUFF
##SOURCE=University of Arizona Mineral Museum
##DESCRIPTION=Black prismatic
##STATUS=The identification of this mineral has been confirmed by X-ray diffraction and chemical analysis
##URL=rruff.info/R060029
##MEASURED CHEMISTRY=(Na_0.62_K_0.34_[box]_0.04_)(Ca_0.86_Na_0.14_)_2_(Mg_0.57_Fe^2+^_0.30_Fe^3+^_0.07_Al_0.05_Ti_0.01_Mn_0.01_)_5_(Si_6.61_Al_1.39_)O_22_((OH)_0.69_F_0.31_)_2_
##PIN_ID=M00136
##ORIENTATION=Laser parallel to b* (0 1 0). Fiducial mark perpendicular to laser is parallel to c [0 0 1]
257.5080, 0.0000000E+00
258.7220, 65.71777
259.9360, 51.27344
261.1490, 66.57520
262.3630, 142.5859
263.5760, 24.69141
264.7890, 213.1523
266.0020, 202.8555
267.2150, 157.8604
268.4270, 37.79980
269.6400, 114.3721
270.8520, 244.3291
272.0640, 216.5146
273.2760, 272.8174
274.4880, 393.1133
275.7000, 780.2812
276.9120, 856.2314
278.1230, 814.8945
279.3340, 904.1689
280.5450, 812.9648
281.7560, 905.2148
282.9670, 1062.877
284.1780, 915.9775
285.3880, 1205.622
286.5980, 1172.803
287.8090, 1225.433
289.0190, 1164.438
290.2290, 1401.753
291.4380, 1295.322
292.6480, 1312.101
293.8570, 1317.103
295.0670, 1117.375
296.2760, 1172.947
297.4850, 920.7656
298.6930, 1040.612
299.9020, 1064.479
301.1110, 925.0283
302.3190, 913.3848
303.5270, 822.1465
304.7350, 725.0635
305.9430, 811.0596
307.1510, 795.2051
308.3580, 619.5869
309.5660, 627.4014
310.7730, 678.3145
311.9800, 580.1719
313.1870, 473.7119
314.3940, 458.1904
315.6010, 436.5254
316.8070, 405.8154
318.0130, 450.6768
319.2200, 381.5010
320.4260, 331.1543
321.6310, 282.9375
322.8370, 179.0146
324.0430, 233.2070
325.2480, 313.2490
326.4540, 267.1396
327.6590, 230.8838
328.8640, 98.51270
330.0680, 65.15723
331.2730, 200.7900
332.4780, 283.7354
333.6820, 210.4668
334.8860, 181.8359
336.0900, 317.2061
337.2940, 348.8594
338.4980, 470.4570
339.7010, 548.0020
340.9050, 554.4961
342.1080, 636.9434
343.3110, 949.3438
344.5140, 842.3984
345.7170, 1331.010
346.9200, 1268.279
348.1220, 1431.777
349.3240, 1679.664
350.5270, 1801.298
351.7290, 2051.588
352.9310, 2179.700
354.1320, 2355.152
355.3340, 2438.761
356.5350, 2518.854
357.7370, 2537.639
358.9380, 2501.045
360.1390, 2525.175
361.3400, 2623.141
362.5400, 2572.414
363.7410, 2652.885
364.9410, 2600.250
366.1410, 2449.183
367.3410, 2530.874
368.5410, 2413.357
369.7410, 2390.219
370.9400, 2307.670
372.1400, 2278.670
373.3390, 2255.258
374.5380, 2060.483
375.7370, 1953.642
376.9360, 1689.451
378.1350, 1691.161
379.3330, 1643.562
380.5310, 1549.202
381.7300, 1268.121
382.9280, 1227.955
384.1260, 1091.167
385.3230, 950.4395
386.5210, 943.9180
387.7180, 952.2422
388.9160, 759.5645
390.1130, 656.8027
391.3100, 614.9619
392.5060, 492.1572
393.7030, 524.0322
394.9000, 405.9443
396.0960, 351.7793
397.2920, 437.5342
398.4880, 224.2080
399.6840, 63.80273
400.8800, 132.3154
402.0750, 101.0840
403.2710, 70.87109
404.4660, 30.59961
405.6610, 24.17676
406.8560, 25.82520
408.0510, 27.19629
409.2450, 94.59277
410.4400, 2.441406
411.6340, 109.3408
412.8280, 40.71973
414.0220, 99.24316
415.2160, 372.2344
416.4100, 516.2480
417.6030, 251.2793
418.7970, 216.3223
419.9900, 343.3730
421.1830, 312.4268
422.3760, 431.4834
423.5690, 465.5371
424.7610, 485.5859
425.9540, 569.6279
427.1460, 483.6611
428.3380, 515.6836
429.5300, 567.6914
430.7220, 468.6826
431.9140, 441.6543
433.1050, 509.6064
434.2970, 311.5342
435.4880, 389.4365
436.6790, 211.3154
437.8700, 284.1660
439.0610, 411.9883
440.2510, 229.8672
441.4420, 283.0215
442.6320, 345.7500
443.8220, 99.45312
445.0120, 254.2930
446.2020, 137.9795
447.3910, 124.7686
448.5810, 227.2344
449.7700, 204.1797
450.9600, 73.52637
452.1490, 74.34570
453.3370, 150.6406
454.5260, 74.32715
455.7150, 108.8340
456.9030, 87.19629
458.0910, 5.250977
459.2800, 111.4170
460.4670, 2.784180
461.6550, 23.39746
462.8430, 7.921875
464.0300, 25.05371
465.2180, 113.3281
466.4050, 109.6924
467.5920, 148.8262
468.7790, 9.867188
469.9650, 17.20312
471.1520, 72.93750
472.3380, 39.39453
473.5250, 133.1162
474.7110, 71.45898
475.8970, 54.64453
477.0820, 111.1543
478.2680, 227.4111
479.4540, 296.5664
480.6390, 179.0889
481.8240, 302.4326
483.0090, 329.1895
484.1940, 351.9336
485.3780, 508.9805
486.5630, 418.3662
487.7470, 573.1797
488.9320, 629.9756
490.1160, 731.5371
491.3000, 735.9170
492.4830, 770.2031
493.6670, 901.6406
494.8500, 979.1914
496.0340, 972.1621
497.2170, 1114.955
498.4000, 1224.711
499.5820, 1300.398
500.7650, 1401.015
501.9480, 1607.546
503.1300, 1701.979
504.3120, 1843.316
505.4940, 1720.467
506.6760, 1858.452
507.8580, 1994.300
509.0390, 2139.952
510.2210, 2244.517
511.4020, 2362.644
512.5830, 2584.387
513.7640, 2571.732
514.9450, 2582.025
516.1250, 2686.265
517.3060, 2864.453
518.4860, 2983.592
519.6660, 3221.682
520.8460, 3233.719
522.0260, 3484.707
523.2060, 3456.646
524.3850, 3531.534
525.5650, 3650.373
526.7440, 3739.163
527.9230, 3752.904
529.1020, 3777.596
530.2810, 3718.238
531.4590, 3775.833
532.6380, 3664.380
533.8160, 3769.879
534.9940, 3690.549
536.1720, 3443.731
537.3500, 3553.088
538.5270, 3437.396
539.7050, 3288.658
540.8820, 3301.873
542.0590, 3144.497
543.2360, 3205.545
544.4130, 3217.063
545.5900, 3181.711
546.7660, 2959.641
547.9430, 2978.309
549.1190, 2900.457
550.2950, 2817.788
551.4710, 2895.025
552.6470, 2959.863
553.8220, 2760.242
554.9980, 2795.951
556.1730, 2701.293
557.3480, 2533.068
558.5230, 2506.805
559.6980, 2438.528
560.8730, 2333.237
562.0470, 2199.963
563.2220, 2198.712
564.3960, 2034.467
565.5700, 2043.202
566.7440, 1797.928
567.9170, 1857.598
569.0910, 1576.216
570.2640, 1622.779
571.4380, 1777.299
572.6110, 1465.761
573.7840, 1159.167
574.9570, 1004.520
576.1290, 964.8145
577.3020, 723.0547
578.4740, 812.0664
579.6460, 580.1953
580.8180, 473.2676
581.9900, 399.1572
583.1620, 502.1143
584.3330, 252.0137
585.5040, 229.1484
586.6760, 18.14746
587.8470, 36.07910
589.0180, 47.23047
590.1880, 87.12598
591.3590, 14.32129
592.5290, 38.33203
593.7000, 78.46094
594.8700, 69.45801
596.0400, 163.1133
597.2090, 161.7979
598.3790, 157.9795
599.5490, 177.0342
600.7180, 38.08984
601.8870, 49.48926
603.0560, 90.83691
604.2250, 54.85254
605.3940, 40.48438
606.5620, 31.09668
607.7300, 17.82520
608.8990, 136.3555
610.0670, 77.47656
611.2350, 93.28027
612.4020, 139.4756
613.5700, 154.6787
614.7370, 228.9033
615.9050, 240.9092
617.0720, 254.8838
618.2390, 291.6396
619.4060, 423.3320
620.5720, 578.2607
621.7390, 546.4697
622.9050, 650.3184
624.0710, 614.1016
625.2370, 820.5557
626.4030, 978.1260
627.5690, 1088.715
628.7340, 1012.872
629.9000, 1177.955
631.0650, 1246.373
632.2300, 1310.788
633.3950, 1455.858
634.5600, 1565.955
635.7240, 1709.010
636.8890, 1774.020
638.0530, 1994.989
639.2170, 2273.914
640.3810, 2396.797
641.5450, 2579.640
642.7080, 2766.440
643.8720, 2909.200
645.0350, 3278.919
646.1980, 3366.598
647.3610, 3668.238
648.5240, 3843.840
649.6870, 4313.406
650.8490, 4677.934
652.0120, 4841.424
653.1740, 5427.879
654.3360, 5820.297
655.4980, 6466.680
656.6600, 7050.028
657.8210, 7706.341
658.9830, 8244.350
660.1440, 8811.860
661.3050, 9252.068
662.4660, 9987.243
663.6270, 10360.38
664.7870, 10414.49
665.9480, 10389.56
667.1080, 10298.60
668.2680, 9988.494
669.4280, 9526.587
670.5880, 9099.532
671.7480, 8558.442
672.9070, 7898.321
674.0670, 7467.848
675.2260, 6873.234
676.3850, 6448.771
677.5440, 5884.525
678.7030, 5322.250
679.8610, 5025.945
681.0200, 4585.640
682.1780, 4504.248
683.3360, 4016.857
684.4940, 3772.682
685.6520, 3672.236
686.8090, 3360.767
687.9670, 3048.037
689.1240, 2934.518
690.2810, 2962.854
691.4380, 2746.703
692.5950, 2601.123
693.7520, 2461.033
694.9080, 2441.539
696.0650, 2416.424
697.2210, 2358.889
698.3770, 2366.973
699.5330, 2457.100
700.6880, 2381.225
701.8440, 2557.830
702.9990, 2541.707
704.1550, 2597.562
705.3100, 2609.762
706.4650, 2745.826
707.6190, 2835.418
708.7740, 2999.420
709.9290, 3121.151
711.0830, 3244.090
712.2370, 3290.002
713.3910, 3265.881
714.5450, 3390.731
715.6980, 3464.554
716.8520, 3344.346
718.0050, 3486.109
719.1580, 3536.846
720.3110, 3565.469
721.4640, 3582.756
722.6170, 3572.981
723.7700, 3569.591
724.9220, 3528.457
726.0740, 3515.978
727.2260, 3509.336
728.3780, 3462.539
729.5300, 3232.046
730.6810, 3319.672
731.8330, 3308.767
732.9840, 3171.322
734.1350, 2884.422
735.2860, 2908.632
736.4370, 2719.913
737.5880, 2529.431
738.7380, 2531.768
739.8880, 2413.833
741.0390, 2417.584
742.1890, 2100.357
743.3380, 1976.458
744.4880, 1747.006
745.6380, 1766.471
746.7870, 1492.644
747.9360, 1458.660
749.0850, 1398.910
750.2340, 1131.497
751.3830, 1134.741
752.5310, 1156.186
753.6800, 1003.184
754.8280, 928.3008
755.9760, 909.5400
757.1240, 862.9482
758.2720, 805.6885
759.4190, 805.4297
760.5670, 777.2715
761.7140, 747.9150
762.8610, 758.6582
764.0080, 748.3994
765.1550, 729.1396
766.3020, 781.2988
767.4480, 672.6172
768.5950, 844.3555
769.7410, 951.0928
770.8870, 909.5098
772.0330, 716.5674
773.1780, 878.3057
774.3240, 803.0439
775.4690, 955.7852
776.6140, 828.5283
777.7590, 736.2725
778.9040, 754.0205
780.0490, 752.7715
781.1940, 847.5264
782.3380, 877.3154
783.4820, 919.1680
784.6260, 922.8164
785.7700, 967.5898
786.9140, 816.8271
788.0580, 743.6221
789.2010, 663.9424
790.3450, 615.7402
791.4880, 538.4736
792.6310, 460.9668
793.7730, 552.6660
794.9160, 595.0225
796.0590, 590.6875
797.2010, 399.8438
798.3430, 449.8779
799.4850, 403.3926
800.6270, 352.9570
801.7690, 436.9316
802.9100, 273.2793
804.0520, 355.1465
805.1930, 339.0273
806.3340, 367.7803
807.4750, 299.4150
808.6160, 261.0635
809.7560, 319.9062
810.8970, 324.9414
812.0370, 245.4639
813.1770, 277.1680
814.3170, 110.2686
815.4570, 117.6729
816.5960, 200.3037
817.7360, 125.7861
818.8750, 159.3574
820.0140, 151.7910
821.1530, 42.78125
822.2920, 87.89160
823.4310, 77.92090
824.5690, 76.44336
825.7070, 43.11719
826.8460, 37.04102
827.9840, 110.8867
829.1220, 160.7637
830.2590, 242.6934
831.3970, 301.7158
832.5340, 172.8613
833.6710, 68.06348
834.8080, 179.2959
835.9450, 181.5488
837.0820, 303.8809
838.2190, 329.3311
839.3550, 276.9131
840.4910, 161.5977
841.6270, 206.3301
842.7630, 78.87207
843.8990, 12.11719
845.0350, 19.33887
846.1700, 45.39746
847.3060, 34.87305
848.4410, 76.16797
849.5760, 95.48828
850.7100, 122.8340
851.8450, 125.2070
852.9800, 205.6064
854.1140, 213.0312
855.2480, 251.4844
856.3820, 195.9648
857.5160, 293.4727
858.6500, 336.7715
859.7830, 366.5977
860.9170, 443.1787
862.0500, 500.8145
863.1830, 536.6211
864.3160, 553.2734
865.4480, 618.1055
866.5810, 667.0186
867.7130, 714.9932
868.8460, 797.0352
869.9780, 814.1562
871.1100, 830.3555
872.2410, 825.6562
873.3730, 892.0586
874.5050, 983.5635
875.6360, 989.1729
876.7670, 952.8535
877.8980, 1059.584
879.0290, 890.3574
880.1590, 1125.207
881.2900, 1020.107
882.4200, 1143.066
883.5500, 1377.079
884.6800, 1365.133
885.8100, 1593.229
886.9400, 1499.370
888.0690, 1396.549
889.1990, 1348.779
890.3280, 1585.044
891.4570, 1597.346
892.5860, 1612.685
893.7140, 1668.066
894.8430, 1625.484
895.9710, 1717.944
897.1000, 1854.444
898.2280, 1865.979
899.3560, 1741.548
900.4830, 1879.152
901.6110, 1909.792
902.7380, 1980.484
903.8660, 2020.212
904.9930, 2005.997
906.1200, 2141.818
907.2460, 2104.676
908.3730, 2205.573
909.5000, 2105.533
910.6260, 2288.529
911.7520, 2115.583
912.8780, 2362.677
914.0040, 2453.838
915.1290, 2397.037
916.2550, 2534.273
917.3800, 2437.547
918.5050, 2492.872
919.6300, 2521.270
920.7550, 2569.704
921.8800, 2597.209
923.0040, 2627.508
924.1290, 2596.045
925.2530, 2592.969
926.3770, 2551.633
927.5010, 2339.333
928.6250, 2400.080
929.7480, 2500.875
930.8720, 2309.738
931.9950, 2416.667
933.1180, 2317.662
934.2410, 2149.731
935.3640, 2106.866
936.4860, 2232.078
937.6090, 2135.342
938.7310, 2160.657
939.8530, 2206.021
940.9750, 2098.440
942.0970, 2114.914
943.2180, 2126.447
944.3400, 2084.026
945.4610, 2067.664
946.5820, 1985.369
947.7030, 1931.123
948.8240, 2031.929
949.9450, 1898.779
951.0650, 1988.673
952.1860, 1986.607
953.3060, 2005.582
954.4260, 1950.036
955.5460, 1940.649
956.6650, 1825.502
957.7850, 1875.635
958.9040, 1928.807
960.0230, 1821.291
961.1420, 1941.583
962.2610, 1829.044
963.3800, 1806.987
964.4990, 1798.421
965.6170, 1732.359
966.7350, 1668.727
967.8530, 1708.730
968.9710, 1681.158
970.0890, 1721.162
971.2070, 1681.805
972.3240, 1790.627
973.4410, 1761.980
974.5580, 1760.749
975.6750, 1791.047
976.7920, 1682.028
977.9090, 1763.997
979.0250, 1847.745
980.1410, 2055.524
981.2580, 2032.880
982.3740, 1978.044
983.4890, 1904.256
984.6050, 2020.383
985.7200, 2013.316
986.8360, 2280.229
987.9510, 2087.650
989.0660, 2236.117
990.1810, 2159.632
991.2950, 2183.255
992.4100, 2324.805
993.5240, 2287.463
994.6390, 2567.168
995.7530, 2698.922
996.8660, 2692.732
997.9800, 2639.587
999.0940, 2663.490
1000.207, 2895.440
1001.320, 2985.438
1002.433, 2803.482
1003.546, 2987.574
1004.659, 2963.711
1005.772, 3098.892
1006.884, 3118.114
1007.996, 3308.380
1009.108, 3264.733
1010.220, 3379.046
1011.332, 3240.443
1012.444, 3215.881
1013.555, 3267.364
1014.666, 3316.887
1015.777, 3309.746
1016.888, 3328.399
1017.999, 3401.045
1019.110, 3186.731
1020.220, 3309.457
1021.331, 3239.224
1022.441, 3328.834
1023.551, 3164.686
1024.661, 3250.576
1025.770, 3226.885
1026.880, 3224.064
1027.989, 3228.380
1029.098, 3260.768
1030.207, 3251.701
1031.316, 3188.247
1032.425, 3282.261
1033.533, 3326.968
1034.642, 3325.019
1035.750, 3140.103
1036.858, 3192.574
1037.966, 3153.141
1039.073, 3105.229
1040.181, 3191.708
1041.288, 3031.153
1042.396, 3183.408
1043.503, 2981.924
1044.610, 3122.932
1045.716, 3062.898
1046.823, 3159.605
1047.929, 2978.249
1049.036, 2973.925
1050.142, 2956.632
1051.248, 3172.934
1052.353, 3034.117
1053.459, 3067.916
1054.564, 3028.450
1055.670, 3266.591
1056.775, 3172.482
1057.880, 2842.401
1058.985, 3105.979
1060.089, 2905.233
1061.194, 3251.404
1062.298, 2832.755
1063.402, 2699.077
1064.506, 2682.168
1065.610, 2675.904
1066.713, 2486.985
1067.817, 2388.034
1068.920, 2423.173
1070.023, 2400.817
1071.126, 2342.805
1072.229, 2341.948
1073.332, 2249.564
1074.435, 2164.454
1075.537, 2258.067
1076.639, 2109.932
1077.741, 1926.128
1078.843, 2027.247
1079.945, 1905.485
1081.046, 1905.607
1082.148, 1881.855
1083.249, 1826.483
1084.350, 1877.953
1085.451, 1770.696
1086.551, 1739.197
1087.652, 1809.713
1088.752, 1705.243
1089.853, 1671.801
1090.953, 1502.406
1092.053, 1667.961
1093.152, 1527.662
1094.252, 1459.050
1095.351, 1468.703
1096.451, 1392.508
1097.550, 1351.071
1098.649, 1439.334
1099.748, 1240.226
1100.846, 1255.766
1101.945, 1198.532
1103.043, 1050.549
1104.141, 1212.710
1105.239, 1079.856
1106.337, 1059.193
1107.434, 964.6240
1108.532, 910.5205
1109.629, 832.5771
1110.726, 844.9834
1111.823, 801.4932
1112.920, 840.9219
1114.017, 789.4238
1115.113, 851.8877
1116.210, 868.3223
1117.306, 885.7832
1118.402, 923.7979
1119.498, 924.4102
1120.593, 939.6738
1121.689, 923.4336
1122.784, 952.0010
1123.879, 918.6113
1124.974, 925.7520
1126.069, 828.2432
1127.164, 616.5137
1128.259, 531.0303
1129.353, 640.5234
1130.447, 514.5020
1131.541, 550.4990
1132.635, 275.1152
1133.729, 294.8906
1134.822, 300.7578
1135.916, 196.6279
1137.009, 152.1133
1138.102, 301.7012
1139.195, 113.2266
1140.288, 305.6182
1141.380, 237.0967
1142.473, 168.9199
1143.565, 180.5879
1144.657, 116.8984
1145.749, 141.3662
1146.841, 49.17969
1147.932, 1.746094
1149.024, 38.40918
1150.115, 151.9902
1151.206, 73.71582
1152.297, 60.79199
1153.388, 54.80176
1154.479, 108.1602
1155.569, 160.7354
1156.659, 77.30078
1157.750, 49.33203
1158.839, 7.766602
1159.929, 39.26953
1161.019, 27.77930
1162.108, 34.48242
1163.198, 3.757813
1164.287, 74.09863
1165.376, 22.57910
1166.465, 71.05176
1167.553, 29.40137
1168.642, 84.77051
1169.730, 3.333984
1170.818, 47.50977
1171.906, 12.41309
1172.994, 96.49805
1174.082, 20.06055
1175.170, 73.95996
1176.257, 5.041992
1177.344, 113.1318
1178.431, 53.68750
1179.518, 22.81152
1180.605, 58.68457
1181.691, 35.46582
1182.778, 127.3662
1183.864, 35.54492
1184.950, 97.46582
1186.036, 9.659180
1187.122, 60.85254
1188.207, 79.34570
1189.292, 78.82227
1190.378, 58.32422
1191.463, 0.2392580
1192.548, 18.83301
1193.632, 80.46973
1194.717, 75.18066
1195.801, 83.88281
1196.886, 103.8154
1197.970, 69.93457
1199.054, 117.6250
1200.137, 12.75098
1201.221, 16.83008
1202.305, 2.049805
1203.388, 24.16699
1204.471, 27.23340
1205.554, 37.45312
1206.637, 7.861328
1207.719, 27.77637
1208.802, 73.15918
1209.884, 5.860352
1210.966, 7.155273
1212.048, 30.82520
1213.130, 22.30469
1214.212, 125.5195
1215.293, 60.84961
1216.374, 124.0312
1217.456, 190.1885
1218.536, 174.3193
1219.617, 228.5225
1220.698, 109.6045
1221.778, 98.05176
1222.859, 103.0488
1223.939, 20.97266
1225.019, 157.8545
1226.099, 39.75488
1227.178, 85.76660
1228.258, 118.7002
1229.337, 176.6680
1230.417, 171.0713
1231.496, 78.10254
1232.574, 174.7744
1233.653, 122.4297
1234.732, 152.0420
1235.810, 124.7646
1236.888, 121.3164
1237.966, 41.87695
1239.044, 69.35156
1240.122, 162.7881
1241.199, 57.19238
1242.277, 208.5850
1243.354, 150.9434
1244.431, 163.4277
1245.508, 3.305664
1246.585, 212.0615
1247.661, 91.36816
1248.738, 166.9844
1249.814, 133.2686
1250.890, 226.3311
1251.966, 159.3613
1253.042, 151.3594
1254.117, 92.45410
1255.193, 208.3867
1256.268, 87.27637
1257.343, 42.44922
1258.418, 261.2490
1259.493, 110.0137
1260.567, 109.7422
1261.642, 164.4326
1262.716, 70.08789
1263.790, 123.6982
1264.864, 124.2715
1265.938, 202.8076
1267.011, 176.3096
1268.085, 191.7754
1269.158, 92.50586
1270.231, 220.8955
1271.304, 136.2520
1272.377, 161.3633
1273.450, 99.71973
1274.522, 209.2744
1275.594, 269.6016
1276.666, 281.7559
1277.738, 108.5811
1278.810, 176.2930
1279.882, 147.4365
1280.953, 114.6211
1282.025, 216.2090
1283.096, 68.41602
1284.167, 167.8662
1285.238, 169.2539
1286.308, 215.3740
1287.379, 162.5352
1288.449, 141.2490
1289.519, 215.9004
1290.589, 288.8330
1291.659, 214.4873
1292.729, 197.6338
1293.798, 83.21875
1294.868, 186.7588
1295.937, 153.7275
1297.006, 115.1963
1298.075, 356.2598
1299.143, 197.8252
1300.212, 266.1875
1301.280, 98.95508
1302.348, 115.5498
1303.416, 213.8008
1304.484, 293.5586
1305.552, 208.3584
1306.620, 223.4170
1307.687, 133.5391
1308.754, 185.6270
1309.821, 187.6836
1310.888, 126.1436
1311.955, 131.7178
1313.021, 119.6738
1314.088, 50.89355
1315.154, 272.4990
1316.220, 224.3535
1317.286, 334.1768
1318.352, 180.9736
1319.417, 213.8682
1320.483, 246.5264
1321.548, 349.9150
1322.613, 262.3203
1323.678, 158.9531
1324.743, 193.9375
1325.807, 237.5645
1326.872, 30.22168
1327.936, 172.8740
1329.000, 128.9189
1330.064, 168.6064
1331.128, 113.1328
1332.191, 85.18066
1333.255, 56.81152
1334.318, 48.96680
1335.381, 4.262695
1336.444, 98.16992
1337.507, 139.6699
1338.569, 207.0420
1339.632, 146.5234
1340.694, 85.87207
1341.756, 13.17090
1342.818, 91.93945
1343.880, 141.7666
1344.941, 160.8271
1346.003, 168.8623
1347.064, 96.86914
1348.125, 234.8506
1349.186, 52.77246
1350.247, 75.73242
1351.308, 254.5537
1352.368, 233.6768
1353.428, 98.53418
1354.489, 62.25293
1355.549, 73.51855
1356.608, 58.66992
1357.668, 116.3359
1358.727, 120.0771
1359.787, 109.3896
1360.846, 103.0801
1361.905, 151.6523
1362.964, 72.29785
1364.022, 129.1455
1365.081, 95.29395
1366.139, 187.4141
1367.197, 114.2236
1368.255, 139.7598
1369.313, 7.816406
1370.371, 94.67383
1371.428, 56.08301
1372.486, 122.5166
1373.543, 55.96484
1374.600, 62.36816
1375.657, 7.204102
1376.713, 49.53809
1377.770, 193.7021
1378.826, 105.7695
1379.882, 129.2490
1380.938, 60.41309
1381.994, 89.02734
1383.050, 122.2793
1384.106, 19.73438
1385.161, 163.9238
1386.216, 153.0342
1387.271, 240.8154
1388.326, 178.4746
1389.381, 145.4961
1390.435, 163.8320
1391.490, 324.0762
1392.544, 160.4385
1393.598, 125.8740
1394.652, 156.8369
1395.705, 21.15723
1396.759, 91.96289
1397.812, 222.9795
1398.866, 118.0859
1399.919, 145.5342
1400.972, 89.55176
1402.024, 38.50391
1403.077, 86.45117
1404.129, 102.3926
1405.181, 119.5938
1406.233, 84.35059
1407.285, 62.94238
1408.337, 49.16504
1409.389, 24.03906
1410.440, 29.63672
