##NAMES=Edenite
##RRUFFID=R060029
##IDEAL CHEMISTRY=NaCa_2_Mg_5_(Si_7_Al)O_22_(OH)_2_
##LOCALITY=Renfrew County, Ontario, Canada
##OWNER=RRUFF
##SOURCE=University of Arizona Mineral Museum
##DESCRIPTION=Black prismatic
##STATUS=The identification of this mineral has been confirmed by X-ray diffraction and chemical analysis
##URL=rruff.info/R060029
##MEASURED CHEMISTRY=(Na_0.62_K_0.34_[box]_0.04_)(Ca_0.86_Na_0.14_)_2_(Mg_0.57_Fe^2+^_0.30_Fe^3+^_0.07_Al_0.05_Ti_0.01_Mn_0.01_)_5_(Si_6.61_Al_1.39_)O_22_((OH)_0.69_F_0.31_)_2_
##PIN_ID=M00412
##ORIENTATION=Laser parallel to c* (0 0 1). Fiducial mark perpendicular to laser is parallel to a [1 0 0]
132.8980, 0.0000000E+00
134.1270, 175.2305
135.3560, 104.7266
136.5850, 91.38672
137.8140, 498.9062
139.0430, 188.4414
140.2710, 1568.783
141.5000, 460.5684
142.7280, 203.9199
143.9560, 615.5234
145.1840, 1461.771
146.4120, 3477.564
147.6390, 5506.182
148.8670, 6824.219
150.0940, 9769.506
151.3210, 14728.11
152.5490, 18368.29
153.7750, 20852.35
155.0020, 22240.63
156.2290, 20022.59
157.4550, 16842.70
158.6810, 12700.53
159.9080, 9332.705
161.1340, 6848.887
162.3590, 5350.777
163.5850, 4608.113
164.8110, 4103.662
166.0360, 2733.209
167.2610, 3121.619
168.4860, 1671.973
169.7110, 2128.279
170.9360, 2465.262
172.1610, 2166.631
173.3850, 1849.162
174.6100, 2349.678
175.8340, 2497.025
177.0580, 3246.072
178.2820, 4030.719
179.5050, 3953.873
180.7290, 4175.453
181.9520, 3657.393
183.1760, 3414.633
184.3990, 3168.119
185.6220, 3012.795
186.8450, 2724.617
188.0670, 2048.541
189.2900, 1637.523
190.5120, 1519.078
191.7340, 1805.502
192.9560, 1995.486
194.1780, 2094.234
195.4000, 1825.664
196.6220, 2033.389
197.8430, 2051.355
199.0640, 2062.338
200.2860, 2339.773
201.5070, 2130.387
202.7270, 2408.730
203.9480, 2496.535
205.1690, 2674.410
206.3890, 2660.684
207.6090, 3055.930
208.8290, 4444.172
210.0490, 5886.211
211.2690, 7461.145
212.4890, 9347.043
213.7080, 11995.97
214.9280, 13992.96
216.1470, 16657.08
217.3660, 19131.34
218.5850, 21613.76
219.8030, 23850.39
221.0220, 25350.23
222.2400, 26608.32
223.4590, 27375.67
224.6770, 27309.33
225.8950, 26202.29
227.1120, 25570.56
228.3300, 24116.03
229.5480, 22493.13
230.7650, 21038.45
231.9820, 19406.09
233.1990, 18430.08
234.4160, 17161.40
235.6330, 15744.05
236.8490, 14591.04
238.0660, 13781.34
239.2820, 12593.96
240.4980, 11607.24
241.7140, 10652.16
242.9300, 9695.715
244.1460, 9110.570
245.3610, 8529.711
246.5770, 8027.141
247.7920, 7297.850
249.0070, 7306.834
250.2220, 6587.086
251.4370, 6364.605
252.6510, 5672.381
253.8660, 5325.412
255.0800, 5245.691
256.2940, 5743.215
257.5080, 6294.977
258.7220, 5803.029
259.9360, 5234.082
261.1490, 4995.637
262.3630, 3303.301
263.5760, 2795.180
264.7890, 2366.807
266.0020, 2302.586
267.2150, 2283.875
268.4270, 2225.217
269.6400, 2282.559
270.8520, 2416.135
272.0640, 2582.547
273.2760, 2826.510
274.4880, 3314.842
275.7000, 3547.012
276.9120, 3835.141
278.1230, 4152.025
279.3340, 4413.020
280.5450, 4613.689
281.7560, 5009.588
282.9670, 5256.355
284.1780, 5606.688
285.3880, 6222.424
286.5980, 6437.418
287.8090, 6952.541
289.0190, 7212.691
290.2290, 7498.785
291.4380, 7829.744
292.6480, 8195.498
293.8570, 8143.000
295.0670, 8440.191
296.2760, 8340.035
297.4850, 8131.484
298.6930, 8086.512
299.9020, 7998.074
301.1110, 7824.160
302.3190, 7393.738
303.5270, 7453.812
304.7350, 6824.375
305.9430, 6691.463
307.1510, 6270.830
308.3580, 6326.260
309.5660, 5532.982
310.7730, 5356.311
311.9800, 5315.176
313.1870, 4798.254
314.3940, 4553.590
315.6010, 4157.109
316.8070, 3793.148
318.0130, 3397.705
319.2200, 3125.287
320.4260, 2827.164
321.6310, 2664.973
322.8370, 2386.100
324.0430, 2289.518
325.2480, 2368.197
326.4540, 2156.521
327.6590, 2040.934
328.8640, 1827.287
330.0680, 2208.834
331.2730, 1930.562
332.4780, 2337.461
333.6820, 2818.527
334.8860, 2347.756
336.0900, 2518.139
337.2940, 2692.672
338.4980, 2934.352
339.7010, 3005.172
340.9050, 3495.127
342.1080, 3629.217
343.3110, 4020.434
344.5140, 4124.773
345.7170, 4692.230
346.9200, 5250.797
348.1220, 5511.453
349.3240, 5959.188
350.5270, 6536.990
351.7290, 6565.867
352.9310, 7036.812
354.1320, 7683.834
355.3340, 8038.926
356.5350, 8223.094
357.7370, 8293.330
358.9380, 8311.250
360.1390, 8172.795
361.3400, 8097.477
362.5400, 7632.000
363.7410, 7474.588
364.9410, 7003.244
366.1410, 6687.963
367.3410, 6165.746
368.5410, 6022.592
369.7410, 5584.492
370.9400, 5355.451
372.1400, 5070.467
373.3390, 4720.383
374.5380, 4433.650
375.7370, 4138.816
376.9360, 4039.029
378.1350, 3876.285
379.3330, 3559.582
380.5310, 3316.922
381.7300, 3097.295
382.9280, 2731.707
384.1260, 2544.150
385.3230, 2187.584
386.5210, 1750.127
387.7180, 1564.658
388.9160, 1162.215
390.1130, 959.7930
391.3100, 471.3926
392.5060, 413.0098
393.7030, 310.6465
394.9000, 79.70312
396.0960, 17.94727
397.2920, 228.3965
398.4880, 59.76758
399.6840, 232.3848
400.8800, 208.5566
402.0750, 440.0059
403.2710, 693.5312
404.4660, 720.1992
405.6610, 660.0137
406.8560, 681.9688
408.0510, 704.0664
409.2450, 828.3359
410.4400, 667.8379
411.6340, 653.5488
412.8280, 628.5371
414.0220, 440.9746
415.2160, 593.8008
416.4100, 213.1055
417.6030, 649.2461
418.7970, 943.3613
419.9900, 648.2988
421.1830, 76.23828
422.3760, 499.1719
423.5690, 866.1738
424.7610, 1226.275
425.9540, 1611.480
427.1460, 2011.793
428.3380, 2327.176
429.5300, 2463.625
430.7220, 2647.488
431.9140, 2723.734
433.1050, 2702.246
434.2970, 2612.928
435.4880, 2432.609
436.6790, 2417.320
437.8700, 2304.059
439.0610, 2178.230
440.2510, 2173.604
441.4420, 1971.400
442.6320, 1858.750
443.8220, 1833.064
445.0120, 1745.773
446.2020, 1867.916
447.3910, 1768.398
448.5810, 1745.391
449.7700, 1677.449
450.9600, 1715.359
452.1490, 1907.246
453.3370, 2105.561
454.5260, 2200.512
455.7150, 2287.955
456.9030, 2094.037
458.0910, 1895.549
459.2800, 1187.986
460.4670, 1328.568
461.6550, 946.1738
462.8430, 897.3379
464.0300, 815.0078
465.2180, 1008.355
466.4050, 773.5957
467.5920, 932.8613
468.7790, 549.0488
469.9650, 601.6348
471.1520, 713.2402
472.3380, 778.2109
473.5250, 737.9404
474.7110, 776.5420
475.8970, 908.0547
477.0820, 928.4844
478.2680, 1091.826
479.4540, 1261.084
480.6390, 1114.254
481.8240, 941.3564
483.0090, 1225.368
484.1940, 1381.293
485.3780, 1023.119
486.5630, 904.8457
487.7470, 1063.471
488.9320, 1027.793
490.1160, 1209.853
491.3000, 1393.726
492.4830, 1560.933
493.6670, 1855.029
494.8500, 1910.015
496.0340, 1973.892
497.2170, 2197.653
498.4000, 2539.302
499.5820, 2825.835
500.7650, 3048.256
501.9480, 3202.556
503.1300, 3551.741
504.3120, 3730.807
505.4940, 4138.753
506.6760, 4073.578
507.8580, 4332.281
509.0390, 4646.863
510.2210, 4653.319
511.4020, 5021.653
512.5830, 5069.859
513.7640, 5282.939
514.9450, 5321.894
516.1250, 5605.719
517.3060, 6056.412
518.4860, 5956.979
519.6660, 6269.412
520.8460, 6767.715
522.0260, 7067.886
523.2060, 7544.920
524.3850, 7948.824
525.5650, 8543.590
526.7440, 8793.219
527.9230, 9235.714
529.1020, 9460.070
530.2810, 9703.287
531.4590, 10052.37
532.6380, 10074.30
533.8160, 10421.10
534.9940, 10163.76
536.1720, 10096.27
537.3500, 10105.34
538.5270, 9896.424
539.7050, 9757.370
540.8820, 9447.845
542.0590, 9334.503
543.2360, 8973.833
544.4130, 8729.596
545.5900, 8272.896
546.7660, 7950.274
547.9430, 7897.461
549.1190, 7783.039
550.2950, 7228.986
551.4710, 7000.156
552.6470, 6530.342
553.8220, 6421.062
554.9980, 5859.837
556.1730, 5654.293
557.3480, 5180.301
558.5230, 4869.353
559.6980, 4614.982
560.8730, 4321.582
562.0470, 4033.161
563.2220, 3962.655
564.3960, 3857.131
565.5700, 3706.523
566.7440, 3304.824
567.9170, 3396.006
569.0910, 3494.079
570.2640, 2989.046
571.4380, 2936.874
572.6110, 2905.897
573.7840, 2829.130
574.9570, 2624.534
576.1290, 2435.465
577.3020, 2195.981
578.4740, 1970.994
579.6460, 1717.864
580.8180, 1630.591
581.9900, 1460.171
583.1620, 1274.610
584.3330, 1053.879
585.5040, 860.0264
586.6760, 506.9795
587.8470, 374.7119
589.0180, 56.18848
590.1880, 72.70020
591.3590, 180.0254
592.5290, 241.8438
593.7000, 507.1885
594.8700, 315.2031
596.0400, 422.7832
597.2090, 559.9902
598.3790, 411.8965
599.5490, 449.4238
600.7180, 488.5918
601.8870, 314.4238
603.0560, 180.8281
604.2250, 30.73340
605.3940, 135.5107
606.5620, 245.8818
607.7300, 452.3018
608.8990, 512.0830
610.0670, 641.2275
611.2350, 844.2998
612.4020, 1218.447
613.5700, 1255.429
614.7370, 1661.453
615.9050, 1943.849
617.0720, 1989.429
618.2390, 2369.095
619.4060, 2744.391
620.5720, 2938.681
621.7390, 3587.764
622.9050, 3766.662
624.0710, 4440.834
625.2370, 4706.689
626.4030, 5061.042
627.5690, 5384.547
628.7340, 5748.982
629.9000, 6239.237
631.0650, 6664.178
632.2300, 6980.996
633.3950, 7519.365
634.5600, 8070.583
635.7240, 8538.647
636.8890, 9175.782
638.0530, 9676.376
639.2170, 10255.20
640.3810, 10799.40
641.5450, 11441.71
642.7080, 12105.87
643.8720, 12774.88
645.0350, 13640.74
646.1980, 14583.46
647.3610, 15501.02
648.5240, 16412.44
649.6870, 17159.71
650.8490, 18563.83
652.0120, 19430.80
653.1740, 20737.63
654.3360, 22022.31
655.4980, 23932.85
656.6600, 25807.25
657.8210, 27862.49
658.9830, 30426.59
660.1440, 32961.55
661.3050, 36115.37
662.4660, 38608.04
663.6270, 41287.57
664.7870, 43229.96
665.9480, 45469.21
667.1080, 46934.31
668.2680, 48303.28
669.4280, 47544.11
670.5880, 46630.80
671.7480, 45724.35
672.9070, 43036.76
674.0670, 40424.03
675.2260, 36772.19
676.3850, 34052.18
677.5440, 30929.06
678.7030, 27418.81
679.8610, 24938.46
681.0200, 22255.00
682.1780, 19941.45
683.3360, 17990.80
684.4940, 16223.82
685.6520, 14789.13
686.8090, 13281.45
687.9670, 11902.96
689.1240, 10882.35
690.2810, 9890.767
691.4380, 8923.307
692.5950, 7991.521
693.7520, 6949.761
694.9080, 6419.135
696.0650, 5830.391
697.2210, 5373.678
698.3770, 5102.082
699.5330, 4259.518
700.6880, 4611.480
701.8440, 4014.664
702.9990, 4152.139
704.1550, 3449.057
705.3100, 3472.657
706.4650, 3299.646
707.6190, 3298.052
708.7740, 3262.547
709.9290, 3114.498
711.0830, 3215.941
712.2370, 3146.899
713.3910, 3356.562
714.5450, 3135.312
715.6980, 3189.475
716.8520, 3165.581
718.0050, 3144.557
719.1580, 3180.396
720.3110, 3187.107
721.4640, 3362.379
722.6170, 3613.039
723.7700, 3728.862
724.9220, 3166.171
726.0740, 3207.920
727.2260, 3466.203
728.3780, 3069.879
729.5300, 3193.294
730.6810, 2764.761
731.8330, 2678.115
732.9840, 2612.596
734.1350, 2535.924
735.2860, 2430.653
736.4370, 2152.922
737.5880, 2182.674
738.7380, 1977.936
739.8880, 1789.621
741.0390, 1713.137
742.1890, 1612.952
743.3380, 1450.114
744.4880, 1266.023
745.6380, 1195.151
746.7870, 953.8750
747.9360, 779.9287
749.0850, 938.4316
750.2340, 709.4326
751.3830, 636.2178
752.5310, 530.4824
753.6800, 396.3604
754.8280, 306.1699
755.9760, 263.9062
757.1240, 197.5684
758.2720, 255.1484
759.4190, 56.65723
760.5670, 248.0430
761.7140, 164.3594
762.8610, 311.5977
764.0080, 321.1836
765.1550, 290.8896
766.3020, 356.9463
767.4480, 353.9473
768.5950, 381.8945
769.7410, 365.7891
770.8870, 484.6348
772.0330, 501.1230
773.1780, 557.1865
774.3240, 627.8975
775.4690, 676.7949
776.6140, 799.0107
777.7590, 876.2266
778.9040, 910.8828
780.0490, 775.5625
781.1940, 859.6357
782.3380, 855.7129
783.4820, 848.1553
784.6260, 962.9971
785.7700, 852.2051
786.9140, 965.0322
788.0580, 988.5625
789.2010, 1052.902
790.3450, 1005.107
791.4880, 1046.114
792.6310, 958.2891
793.7730, 888.0000
794.9160, 1185.570
796.0590, 798.6797
797.2010, 746.7695
798.3430, 1013.840
799.4850, 630.8945
800.6270, 346.9336
801.7690, 408.9580
802.9100, 323.4170
804.0520, 455.9648
805.1930, 443.9502
806.3340, 406.9268
807.4750, 282.8340
808.6160, 239.8516
809.7560, 213.9521
810.8970, 380.7480
812.0370, 197.6885
813.1770, 250.6270
814.3170, 266.5625
815.4570, 87.49512
816.5960, 127.4277
817.7360, 69.36035
818.8750, 271.2949
820.0140, 101.2314
821.1530, 54.82910
822.2920, 106.0791
823.4310, 52.99121
824.5690, 182.0928
825.7070, 111.2637
826.8460, 283.4863
827.9840, 335.8447
829.1220, 732.3252
830.2590, 481.2939
831.3970, 327.8672
832.5340, 266.7803
833.6710, 574.0000
834.8080, 406.0547
835.9450, 428.8232
837.0820, 459.6064
838.2190, 225.3242
839.3550, 479.9629
840.4910, 250.2100
841.6270, 213.9863
842.7630, 89.28711
843.8990, 156.3232
845.0350, 164.1875
846.1700, 19.66992
847.3060, 97.37695
848.4410, 8.202148
849.5760, 138.4668
850.7100, 123.2959
851.8450, 41.05273
852.9800, 189.6328
854.1140, 110.1338
855.2480, 243.9434
856.3820, 296.5615
857.5160, 19.94043
858.6500, 197.3916
859.7830, 594.7373
860.9170, 575.2441
862.0500, 314.7969
863.1830, 393.7236
864.3160, 601.1387
865.4480, 702.0000
866.5810, 789.0430
867.7130, 797.2969
868.8460, 1060.780
869.9780, 1163.563
871.1100, 1519.597
872.2410, 1658.312
873.3730, 1894.543
874.5050, 2088.456
875.6360, 2261.998
876.7670, 2353.163
877.8980, 2667.924
879.0290, 2773.908
880.1590, 3058.078
881.2900, 3277.391
882.4200, 3564.828
883.5500, 3835.365
884.6800, 4255.997
885.8100, 4452.709
886.9400, 4931.494
888.0690, 5287.340
889.1990, 5693.040
890.3280, 6048.272
891.4570, 6371.734
892.5860, 6669.993
893.7140, 6991.042
894.8430, 7368.005
895.9710, 7674.091
897.1000, 8103.277
898.2280, 8493.523
899.3560, 8498.314
900.4830, 9044.285
901.6110, 9204.278
902.7380, 9880.709
903.8660, 10044.44
904.9930, 9879.110
906.1200, 10493.04
907.2460, 10518.40
908.3730, 10715.87
909.5000, 11324.46
910.6260, 11339.15
911.7520, 11584.94
912.8780, 12068.83
914.0040, 12280.83
915.1290, 12298.93
916.2550, 12788.14
917.3800, 12966.46
918.5050, 13231.93
919.6300, 13417.53
920.7550, 13512.71
921.8800, 13598.03
923.0040, 13545.97
924.1290, 13518.04
925.2530, 13284.24
926.3770, 13351.57
927.5010, 14882.01
928.6250, 13914.60
929.7480, 14446.30
930.8720, 13341.12
931.9950, 12966.05
933.1180, 13806.08
934.2410, 13326.23
935.3640, 13210.48
936.4860, 12886.82
937.6090, 13026.26
938.7310, 12839.80
939.8530, 12798.43
940.9750, 12981.17
942.0970, 12787.01
943.2180, 13067.96
944.3400, 13033.77
945.4610, 13280.22
946.5820, 13099.52
947.7030, 13183.93
948.8240, 13206.44
949.9450, 13375.04
951.0650, 13111.71
952.1860, 13159.47
953.3060, 13235.33
954.4260, 13104.28
955.5460, 13193.31
956.6650, 13272.72
957.7850, 13179.94
958.9040, 13297.24
960.0230, 13329.48
961.1420, 13432.94
962.2610, 13235.48
963.3800, 13289.03
964.4990, 13117.01
965.6170, 13408.07
966.7350, 13672.09
967.8530, 13202.29
968.9710, 13409.54
970.0890, 13102.69
971.2070, 12939.77
972.3240, 12248.28
973.4410, 11968.47
974.5580, 11870.46
975.6750, 11495.92
976.7920, 11499.71
977.9090, 11319.97
979.0250, 11464.83
980.1410, 11361.57
981.2580, 11365.82
982.3740, 11247.20
983.4890, 11172.56
984.6050, 11068.15
985.7200, 11163.47
986.8360, 11168.35
987.9510, 10954.25
989.0660, 11094.25
990.1810, 11691.36
991.2950, 11609.57
992.4100, 11655.44
993.5240, 11615.86
994.6390, 11747.38
995.7530, 12094.01
996.8660, 12352.74
997.9800, 12712.58
999.0940, 12866.14
1000.207, 13318.56
1001.320, 13189.71
1002.433, 13599.95
1003.546, 13841.29
1004.659, 14254.73
1005.772, 14298.26
1006.884, 14526.90
1007.996, 14412.63
1009.108, 14747.45
1010.220, 15274.36
1011.332, 15329.36
1012.444, 15710.45
1013.555, 15487.62
1014.666, 15906.88
1015.777, 16130.22
1016.888, 16250.66
1017.999, 16493.17
1019.110, 16500.62
1020.220, 16614.46
1021.331, 16468.22
1022.441, 16542.08
1023.551, 16445.02
1024.661, 16643.05
1025.770, 16535.17
1026.880, 16612.84
1027.989, 16593.13
1029.098, 16706.41
1030.207, 16605.47
1031.316, 16749.62
1032.425, 16632.94
1033.533, 16509.36
1034.642, 16491.68
1035.750, 16442.49
1036.858, 16497.65
1037.966, 16525.38
1039.073, 16417.65
1040.181, 16409.46
1041.288, 16236.18
1042.396, 16087.00
1043.503, 16030.06
1044.610, 16015.25
1045.716, 15989.86
1046.823, 16030.94
1047.929, 15865.41
1049.036, 15963.84
1050.142, 15844.60
1051.248, 15588.18
1052.353, 16225.07
1053.459, 15405.07
1054.564, 15499.86
1055.670, 15837.69
1056.775, 15191.89
1057.880, 15100.11
1058.985, 14520.89
1060.089, 14174.30
1061.194, 13888.65
1062.298, 13303.90
1063.402, 13243.30
1064.506, 12961.40
1065.610, 12626.64
1066.713, 12596.42
1067.817, 11502.92
1068.920, 11974.98
1070.023, 10358.78
1071.126, 10127.87
1072.229, 9667.695
1073.332, 9239.341
1074.435, 8810.980
1075.537, 8624.208
1076.639, 8151.357
1077.741, 7889.238
1078.843, 7659.123
1079.945, 7347.244
1081.046, 7057.959
1082.148, 6818.898
1083.249, 6543.949
1084.350, 6355.503
1085.451, 6189.178
1086.551, 6027.889
1087.652, 5909.221
1088.752, 5587.760
1089.853, 5580.420
1090.953, 5355.481
1092.053, 5260.518
1093.152, 5140.909
1094.252, 5086.135
1095.351, 4953.793
1096.451, 4578.840
1097.550, 4614.051
1098.649, 4399.139
1099.748, 4184.762
1100.846, 4184.193
1101.945, 3854.686
1103.043, 3850.115
1104.141, 3689.141
1105.239, 3393.352
1106.337, 3416.811
1107.434, 3262.736
1108.532, 3289.272
1109.629, 3019.655
1110.726, 2900.860
1111.823, 2641.881
1112.920, 2523.082
1114.017, 2233.324
1115.113, 2075.237
1116.210, 2166.116
1117.306, 2221.299
1118.402, 2146.197
1119.498, 1949.250
1120.593, 1947.153
1121.689, 1942.238
1122.784, 1629.286
1123.879, 1742.792
1124.974, 1581.073
1126.069, 1497.644
1127.164, 1158.517
1128.259, 1070.924
1129.353, 906.5195
1130.447, 795.6748
1131.541, 819.1309
1132.635, 713.2939
1133.729, 608.2646
1134.822, 422.4131
1135.916, 617.3105
1137.009, 433.5996
1138.102, 745.0869
1139.195, 350.8730
1140.288, 260.1504
1141.380, 337.9004
1142.473, 272.6846
1143.565, 244.5859
1144.657, 191.2998
1145.749, 112.1953
1146.841, 106.8896
1147.932, 52.72852
1149.024, 48.71191
1150.115, 71.68457
1151.206, 140.7549
1152.297, 104.3877
1153.388, 153.7002
1154.479, 48.02441
1155.569, 92.23828
1156.659, 24.15625
1157.750, 18.18164
1158.839, 81.25195
1159.929, 52.46582
1161.019, 14.68262
1162.108, 225.0742
1163.198, 142.9014
1164.287, 139.5459
1165.376, 164.7168
1166.465, 213.0381
1167.553, 139.2969
1168.642, 156.8848
1169.730, 179.5811
1170.818, 226.0557
1171.906, 175.0684
1172.994, 156.2646
1174.082, 60.33008
1175.170, 74.16211
1176.257, 124.2959
1177.344, 63.95312
1178.431, 107.7207
1179.518, 83.51953
1180.605, 94.52441
1181.691, 247.1973
1182.778, 136.5586
1183.864, 71.12695
1184.950, 47.91113
1186.036, 195.1748
1187.122, 123.1982
1188.207, 139.1162
1189.292, 158.9834
1190.378, 56.48242
1191.463, 179.5303
1192.548, 79.39258
1193.632, 68.59473
1194.717, 17.07520
1195.801, 53.99609
1196.886, 63.74805
1197.970, 14.68066
1199.054, 43.99219
1200.137, 3.688477
1201.221, 49.67969
1202.305, 36.96387
1203.388, 24.85645
1204.471, 48.19629
1205.554, 44.84082
1206.637, 41.01758
1207.719, 2.331055
1208.802, 47.76562
1209.884, 1.344727
1210.966, 67.95312
1212.048, 121.1602
1213.130, 177.2891
1214.212, 223.3467
1215.293, 57.42871
1216.374, 206.3574
1217.456, 101.1719
1218.536, 136.9629
1219.617, 136.6094
1220.698, 123.1748
1221.778, 25.86035
1222.859, 167.6768
1223.939, 189.1074
1225.019, 166.6602
1226.099, 266.8516
1227.178, 279.9971
1228.258, 129.6123
1229.337, 243.7412
1230.417, 315.2451
1231.496, 341.7275
1232.574, 198.9600
1233.653, 274.7773
1234.732, 262.7070
1235.810, 247.7324
1236.888, 354.3223
1237.966, 235.3740
1239.044, 339.7188
1240.122, 354.7520
1241.199, 410.6084
1242.277, 378.1719
1243.354, 373.2217
1244.431, 456.7012
1245.508, 490.7393
1246.585, 399.7012
1247.661, 480.6836
1248.738, 443.0586
1249.814, 506.1074
1250.890, 440.1777
1251.966, 451.5010
1253.042, 343.6475
1254.117, 399.6064
1255.193, 331.8086
1256.268, 509.1846
1257.343, 374.0664
1258.418, 334.2559
1259.493, 444.9346
1260.567, 378.7100
1261.642, 448.6357
1262.716, 494.1875
1263.790, 450.3418
1264.864, 510.1016
1265.938, 405.0791
1267.011, 374.9697
1268.085, 572.8135
1269.158, 419.1016
1270.231, 638.4580
1271.304, 532.3193
1272.377, 500.7646
1273.450, 542.1230
1274.522, 495.6631
1275.594, 540.6289
1276.666, 501.9404
1277.738, 463.3506
1278.810, 461.3594
1279.882, 433.1865
1280.953, 365.1592
1282.025, 325.0117
1283.096, 357.5068
1284.167, 377.7969
1285.238, 442.4746
1286.308, 497.0879
1287.379, 542.8701
1288.449, 584.1875
1289.519, 438.2979
1290.589, 469.6553
1291.659, 526.9697
1292.729, 451.0557
1293.798, 544.1387
1294.868, 649.6250
1295.937, 481.9160
1297.006, 525.0557
1298.075, 511.7041
1299.143, 414.6299
1300.212, 489.3594
1301.280, 512.2422
1302.348, 414.8730
