##NAMES=Edingtonite
##RRUFFID=R040110
##IDEAL CHEMISTRY=Ba(Si_3_Al_2_)O_10_&#183;4H_2_O
##LOCALITY=2350 level, Brunswick 12 mine, Bathhurst, New Brunswick, Canada
##OWNER=RRUFF
##SOURCE=National Museums of Canada
##DESCRIPTION=Colorless rectangular prism
##STATUS=The identification of this mineral has been confirmed by X-ray diffraction and chemical analysis
##URL=rruff.info/R040110
##MEASURED CHEMISTRY=Ba_1.00_(Si_3.00_Al_2.00_)O_10_Â·4H_2_O
##PIN_ID=M00390
##ORIENTATION=Laser parallel to -c* (0 0 -1). Fiducial mark perpendicular to laser is parallel to a [1 0 0]
53.91000, 0.0000000E+00
55.14900, 61.20544
56.38700, 151.6725
57.62600, 197.3771
58.86400, 261.4770
60.10300, 242.9091
61.34100, 181.9845
62.57900, 46.16901
63.81700, 9.743103
65.05400, 50.33203
66.29200, 49.15820
67.52900, 53.96033
68.76700, 65.88428
70.00400, 130.8571
71.24100, 266.5533
72.47700, 375.6252
73.71400, 580.7612
74.95100, 822.6562
76.18700, 1200.021
77.42300, 1552.599
78.65900, 1816.160
79.89500, 2159.505
81.13100, 2600.460
82.36700, 2985.869
83.60200, 3532.600
84.83700, 3911.535
86.07200, 4178.578
87.30800, 4788.630
88.54200, 5198.610
89.77700, 5749.467
91.01200, 6187.187
92.24600, 6467.481
93.48000, 6998.378
94.71400, 7399.696
95.94800, 7713.343
97.18200, 8136.246
98.41600, 8605.342
99.64900, 9038.585
100.8830, 9269.933
102.1160, 9797.343
103.3490, 9989.789
104.5820, 10524.24
105.8150, 10560.66
107.0470, 11380.04
108.2800, 11956.36
109.5120, 11686.59
110.7440, 11282.71
111.9760, 11487.72
113.2080, 11521.59
114.4400, 12036.36
115.6710, 12310.07
116.9030, 12729.59
118.1340, 13291.92
119.3650, 13627.04
120.5960, 14157.95
121.8270, 14814.71
123.0580, 15486.46
124.2880, 16205.14
125.5190, 16747.61
126.7490, 17839.83
127.9790, 18879.65
129.2090, 19384.61
130.4390, 20508.70
131.6680, 20910.87
132.8980, 21463.13
134.1270, 21514.51
135.3560, 21082.08
136.5850, 20681.94
137.8140, 19982.11
139.0430, 19184.59
140.2710, 19082.43
141.5000, 18583.62
142.7280, 18108.19
143.9560, 18405.14
145.1840, 18610.47
146.4120, 18954.22
147.6390, 19428.37
148.8670, 20033.93
150.0940, 20388.90
151.3210, 21017.30
152.5490, 21047.12
153.7750, 20814.36
155.0020, 20151.03
156.2290, 19088.12
157.4550, 17776.64
158.6810, 16411.60
159.9080, 15159.98
161.1340, 13730.79
162.3590, 12587.04
163.5850, 11506.70
164.8110, 10572.79
166.0360, 9767.312
167.2610, 9191.253
168.4860, 8517.617
169.7110, 8115.403
170.9360, 7849.607
172.1610, 7468.354
173.3850, 7057.453
174.6100, 6916.072
175.8340, 6754.584
177.0580, 6567.930
178.2820, 6272.564
179.5050, 6175.615
180.7290, 6095.072
181.9520, 5790.983
183.1760, 5535.354
184.3990, 5560.307
185.6220, 5381.836
186.8450, 5404.991
188.0670, 5159.936
189.2900, 5185.653
190.5120, 5132.813
191.7340, 4922.514
192.9560, 4950.164
194.1780, 4820.186
195.4000, 4579.691
196.6220, 4475.557
197.8430, 4438.779
199.0640, 4382.355
200.2860, 4246.290
201.5070, 4141.158
202.7270, 4060.570
203.9480, 3793.747
205.1690, 3736.652
206.3890, 3452.146
207.6090, 3424.219
208.8290, 3482.145
210.0490, 3505.002
211.2690, 3300.152
212.4890, 3416.680
213.7080, 3343.348
214.9280, 3133.245
216.1470, 3146.067
217.3660, 3173.489
218.5850, 3100.489
219.8030, 3015.048
221.0220, 3336.146
222.2400, 3593.765
223.4590, 3866.891
224.6770, 4315.508
225.8950, 4738.354
227.1120, 5328.318
228.3300, 5848.334
229.5480, 6498.795
230.7650, 7249.685
231.9820, 7840.000
233.1990, 8617.729
234.4160, 8624.866
235.6330, 8410.395
236.8490, 7576.316
238.0660, 6433.619
239.2820, 5065.296
240.4980, 4143.341
241.7140, 3051.746
242.9300, 2462.508
244.1460, 2152.620
245.3610, 1861.080
246.5770, 1628.880
247.7920, 1396.019
249.0070, 1257.771
250.2220, 1125.292
251.4370, 1100.418
252.6510, 909.8672
253.8660, 944.6328
255.0800, 916.7139
256.2940, 842.1055
257.5080, 1026.805
258.7220, 1193.809
259.9360, 861.1123
261.1490, 729.7148
262.3630, 860.6113
263.5760, 793.7979
264.7890, 804.2725
266.0020, 859.0322
267.2150, 794.0742
268.4270, 829.3955
269.6400, 911.9902
270.8520, 980.8564
272.0640, 933.9912
273.2760, 1049.391
274.4880, 863.0547
275.7000, 943.9805
276.9120, 734.1709
278.1230, 870.6250
279.3340, 749.3447
280.5450, 502.3281
281.7560, 503.5762
282.9670, 214.0889
284.1780, 217.8643
285.3880, 279.9023
286.5980, 172.2021
287.8090, 121.7627
289.0190, 6.416016
290.2290, 87.66406
291.4380, 91.99805
292.6480, 116.4092
293.8570, 71.56543
295.0670, 152.4707
296.2760, 55.13281
297.4850, 70.45410
298.6930, 6.709961
299.9020, 146.3730
301.1110, 181.7031
302.3190, 332.2783
303.5270, 389.0986
304.7350, 440.1611
305.9430, 514.5635
307.1510, 571.5742
308.3580, 517.3555
309.5660, 565.9727
310.7730, 566.5117
311.9800, 587.5225
313.1870, 667.6904
314.3940, 321.5234
315.6010, 377.2900
316.8070, 412.5547
318.0130, 228.3379
319.2200, 315.2051
320.4260, 0.4804690
321.6310, 112.3926
322.8370, 39.26953
324.0430, 51.86914
325.2480, 177.4990
326.4540, 123.5127
327.6590, 235.8213
328.8640, 23.34668
330.0680, 140.6641
331.2730, 35.22070
332.4780, 59.67773
333.6820, 99.63574
334.8860, 39.14355
336.0900, 123.8926
337.2940, 248.8330
338.4980, 415.0283
339.7010, 457.4551
340.9050, 530.0938
342.1080, 516.9609
343.3110, 672.0469
344.5140, 747.3867
345.7170, 881.0020
346.9200, 932.9707
348.1220, 904.2461
349.3240, 947.8672
350.5270, 918.7832
351.7290, 928.0342
352.9310, 851.5781
354.1320, 891.4600
355.3340, 992.6475
356.5350, 895.1367
357.7370, 893.9082
358.9380, 952.9717
360.1390, 711.2930
361.3400, 847.8604
362.5400, 562.6729
363.7410, 275.7285
364.9410, 402.0186
366.1410, 329.5430
367.3410, 237.2988
368.5410, 106.2822
369.7410, 65.49512
370.9400, 1.067383
372.1400, 154.5898
373.3390, 108.4688
374.5380, 210.5684
375.7370, 107.8857
376.9360, 318.4209
378.1350, 304.1699
379.3330, 483.1348
380.5310, 546.3105
381.7300, 752.6953
382.9280, 581.2891
384.1260, 497.0928
385.3230, 601.1006
386.5210, 577.3154
387.7180, 483.7305
388.9160, 315.3574
390.1130, 264.1943
391.3100, 356.2354
392.5060, 296.4912
393.7030, 446.9521
394.9000, 425.6182
396.0960, 388.4834
397.2920, 508.5469
398.4880, 749.8164
399.6840, 811.2832
400.8800, 855.9531
402.0750, 946.8184
403.2710, 958.8740
404.4660, 910.1172
405.6610, 928.5439
406.8560, 876.1533
408.0510, 796.9453
409.2450, 787.9160
410.4400, 755.0664
411.6340, 712.3936
412.8280, 713.8984
414.0220, 815.5771
415.2160, 705.4307
416.4100, 914.4590
417.6030, 1140.658
418.7970, 1080.029
419.9900, 1363.569
421.1830, 1592.277
422.3760, 1756.155
423.5690, 1908.197
424.7610, 2221.404
425.9540, 2279.776
427.1460, 2535.311
428.3380, 2610.008
429.5300, 2979.865
430.7220, 2774.928
431.9140, 2898.487
433.1050, 2972.721
434.2970, 2483.208
435.4880, 2738.984
436.6790, 2241.953
437.8700, 2147.414
439.0610, 1736.741
440.2510, 1549.538
441.4420, 1227.937
442.6320, 1121.385
443.8220, 921.0771
445.0120, 578.9160
446.2020, 414.8975
447.3910, 420.0234
448.5810, 76.29199
449.7700, 37.30273
450.9600, 136.2090
452.1490, 16.85840
453.3370, 126.3730
454.5260, 177.5342
455.7150, 149.6465
456.9030, 181.6992
458.0910, 124.7090
459.2800, 200.6543
460.4670, 356.5635
461.6550, 329.5029
462.8430, 332.3115
464.0300, 255.5029
465.2180, 229.0420
466.4050, 163.4365
467.5920, 132.9580
468.7790, 48.00000
469.9650, 13.24414
471.1520, 187.9062
472.3380, 165.7363
473.5250, 214.6465
474.7110, 279.0820
475.8970, 644.6230
477.0820, 719.6230
478.2680, 809.8594
479.4540, 711.6748
480.6390, 906.3447
481.8240, 1201.949
483.0090, 1314.414
484.1940, 1712.539
485.3780, 1633.084
486.5630, 1858.700
487.7470, 2184.118
488.9320, 2315.058
490.1160, 2527.047
491.3000, 2606.366
492.4830, 2770.870
493.6670, 2772.745
494.8500, 2970.694
496.0340, 3013.240
497.2170, 3000.549
498.4000, 3084.282
499.5820, 2911.582
500.7650, 3006.124
501.9480, 2919.695
503.1300, 3138.977
504.3120, 3223.375
505.4940, 3310.532
506.6760, 3342.920
507.8580, 3869.392
509.0390, 4066.938
510.2210, 4586.559
511.4020, 5380.283
512.5830, 6337.076
513.7640, 7592.803
514.9450, 9008.769
516.1250, 11293.86
517.3060, 13721.03
518.4860, 17053.27
519.6660, 20784.58
520.8460, 24851.96
522.0260, 29635.42
523.2060, 34546.94
524.3850, 38822.53
525.5650, 42944.19
526.7440, 45878.90
527.9230, 46826.70
529.1020, 45752.53
530.2810, 42541.02
531.4590, 37651.18
532.6380, 31974.39
533.8160, 26574.87
534.9940, 21756.11
536.1720, 17713.06
537.3500, 14339.71
538.5270, 11567.29
539.7050, 9739.483
540.8820, 7863.844
542.0590, 6633.317
543.2360, 5614.294
544.4130, 4746.694
545.5900, 4250.666
546.7660, 3525.244
547.9430, 3102.858
549.1190, 2767.504
550.2950, 2277.184
551.4710, 2134.904
552.6470, 2031.662
553.8220, 1626.445
554.9980, 1381.264
556.1730, 1355.110
557.3480, 1148.983
558.5230, 1203.883
559.6980, 952.8076
560.8730, 806.7559
562.0470, 809.7227
563.2220, 821.7090
564.3960, 563.7129
565.5700, 622.7354
566.7440, 713.7734
567.9170, 496.8281
569.0910, 500.9014
570.2640, 560.9863
571.4380, 405.0820
572.6110, 368.1865
573.7840, 456.2920
574.9570, 471.4072
576.1290, 478.5273
577.3020, 321.6582
578.4740, 411.7900
579.6460, 451.9258
580.8180, 476.0762
581.9900, 542.8828
583.1620, 596.3867
584.3330, 624.5430
585.5040, 697.4961
586.6760, 711.4580
587.8470, 793.9941
589.0180, 820.1367
590.1880, 872.1748
591.3590, 945.8398
592.5290, 1040.966
593.7000, 1206.487
594.8700, 1266.312
596.0400, 1233.891
597.2090, 1259.952
598.3790, 1232.151
599.5490, 1346.635
600.7180, 1202.824
601.8870, 1217.723
603.0560, 1093.880
604.2250, 812.5918
605.3940, 721.3457
606.5620, 576.1240
607.7300, 570.3496
608.8990, 466.1504
610.0670, 406.5195
611.2350, 339.6533
612.4020, 289.4609
613.5700, 231.2275
614.7370, 154.2725
615.9050, 162.4521
617.0720, 223.8555
618.2390, 88.96387
619.4060, 48.48926
620.5720, 123.2705
621.7390, 0.6865230
622.9050, 125.7109
624.0710, 35.28320
625.2370, 74.64648
626.4030, 89.36035
627.5690, 168.4326
628.7340, 191.5889
629.9000, 2.049805
631.0650, 141.6602
632.2300, 74.53613
633.3950, 46.64258
634.5600, 162.3545
635.7240, 18.25000
636.8890, 68.20898
638.0530, 61.00488
639.2170, 194.0586
640.3810, 71.30469
641.5450, 287.0723
642.7080, 391.5723
643.8720, 310.7822
645.0350, 333.0820
646.1980, 455.2285
647.3610, 728.8213
648.5240, 718.9541
649.6870, 852.1865
650.8490, 1002.508
652.0120, 846.9473
653.1740, 1153.171
654.3360, 1342.335
655.4980, 1166.807
656.6600, 1169.224
657.8210, 1186.151
658.9830, 1192.477
660.1440, 994.8262
661.3050, 774.0664
662.4660, 652.0352
663.6270, 554.0264
664.7870, 520.8838
665.9480, 480.7490
667.1080, 456.7305
668.2680, 491.7988
669.4280, 318.9551
670.5880, 289.4922
671.7480, 344.7393
672.9070, 236.1299
674.0670, 295.9980
675.2260, 316.2939
676.3850, 338.6855
677.5440, 348.8564
678.7030, 270.8750
679.8610, 313.8242
681.0200, 262.9131
682.1780, 344.3398
683.3360, 381.9590
684.4940, 422.0400
685.6520, 542.9229
686.8090, 502.2168
687.9670, 539.0195
689.1240, 569.0225
690.2810, 689.2852
691.4380, 897.3740
692.5950, 916.7090
693.7520, 1135.625
694.9080, 1178.947
696.0650, 1329.401
697.2210, 1534.448
698.3770, 1657.134
699.5330, 1994.633
700.6880, 2112.482
701.8440, 2432.406
702.9990, 2462.136
704.1550, 2729.044
705.3100, 2882.852
706.4650, 2839.002
707.6190, 2812.643
708.7740, 2809.506
709.9290, 2763.120
711.0830, 2690.098
712.2370, 2504.672
713.3910, 2426.773
714.5450, 2367.663
715.6980, 2240.580
716.8520, 2147.624
718.0050, 2008.979
719.1580, 1805.723
720.3110, 1665.240
721.4640, 1513.694
722.6170, 1244.084
723.7700, 1270.408
724.9220, 1146.670
726.0740, 768.8662
727.2260, 912.9980
728.3780, 715.0654
729.5300, 639.8604
730.6810, 811.6211
731.8330, 560.5127
732.9840, 564.3486
734.1350, 596.1514
735.2860, 456.9336
736.4370, 527.6846
737.5880, 573.4141
738.7380, 389.1602
739.8880, 576.8340
741.0390, 498.5215
742.1890, 311.2725
743.3380, 341.0430
744.4880, 352.0381
745.6380, 311.4189
746.7870, 363.0303
747.9360, 335.2471
749.0850, 227.9404
750.2340, 413.2793
751.3830, 414.9883
752.5310, 377.7646
753.6800, 477.2559
754.8280, 330.8643
755.9760, 457.9961
757.1240, 392.8311
758.2720, 228.1318
759.4190, 397.6143
760.5670, 366.2090
761.7140, 408.9844
762.8610, 427.1455
764.0080, 319.9297
765.1550, 570.6816
766.3020, 403.6748
767.4480, 404.1885
768.5950, 716.6895
769.7410, 492.0146
770.8870, 410.4170
772.0330, 403.1475
773.1780, 214.8408
774.3240, 271.9668
775.4690, 280.3604
776.6140, 217.3594
777.7590, 183.0986
778.9040, 120.3428
780.0490, 2.422852
781.1940, 154.3770
782.3380, 281.8125
783.4820, 353.5127
784.6260, 54.00586
785.7700, 139.4238
786.9140, 126.8076
788.0580, 57.89355
789.2010, 202.2881
790.3450, 11.58301
791.4880, 27.24707
792.6310, 145.3047
793.7730, 34.52344
794.9160, 119.1602
796.0590, 91.78125
797.2010, 22.66016
798.3430, 34.80664
799.4850, 44.20215
800.6270, 48.52637
801.7690, 88.78418
802.9100, 37.97754
804.0520, 84.42285
805.1930, 149.1357
806.3340, 134.1445
807.4750, 96.49805
808.6160, 111.1611
809.7560, 92.77832
810.8970, 124.1191
812.0370, 49.30957
813.1770, 150.5205
814.3170, 36.34473
815.4570, 68.16992
816.5960, 175.3623
817.7360, 4.719727
818.8750, 98.94434
820.0140, 201.6572
821.1530, 10.06348
822.2920, 7.376953
823.4310, 81.68164
824.5690, 114.6885
825.7070, 92.64844
826.8460, 28.44043
827.9840, 5.430664
829.1220, 139.1826
830.2590, 4.921875
831.3970, 35.60254
832.5340, 98.23145
833.6710, 66.81445
834.8080, 44.34863
835.9450, 74.83301
837.0820, 139.2705
838.2190, 115.9971
839.3550, 134.1729
840.4910, 100.3379
841.6270, 103.6104
842.7630, 61.84082
843.8990, 16.02734
845.0350, 128.1641
846.1700, 199.2627
847.3060, 216.3252
848.4410, 230.9336
849.5760, 127.3496
850.7100, 160.3096
851.8450, 136.2334
852.9800, 62.12207
854.1140, 196.9775
855.2480, 28.80078
856.3820, 167.5801
857.5160, 220.3281
858.6500, 229.0439
859.7830, 216.7266
860.9170, 212.3779
862.0500, 292.9980
863.1830, 384.5869
864.3160, 158.1445
865.4480, 263.6719
866.5810, 50.16992
867.7130, 158.6309
868.8460, 156.0625
869.9780, 224.4658
871.1100, 157.8408
872.2410, 230.7686
873.3730, 365.0859
874.5050, 103.3750
875.6360, 191.6465
876.7670, 209.8848
877.8980, 92.95605
879.0290, 86.19629
880.1590, 53.78906
881.2900, 43.49023
882.4200, 120.6816
883.5500, 5.483398
884.6800, 57.91504
885.8100, 79.76758
886.9400, 92.97266
888.0690, 44.18066
889.1990, 112.0742
890.3280, 137.7744
891.4570, 66.80273
892.5860, 112.7842
893.7140, 86.98926
894.8430, 54.33301
895.9710, 225.8672
897.1000, 177.2695
898.2280, 114.0566
899.3560, 173.9863
900.4830, 171.2129
901.6110, 141.4277
902.7380, 42.52148
903.8660, 96.81836
904.9930, 18.17188
906.1200, 5.412109
907.2460, 105.0117
908.3730, 88.45508
909.5000, 83.16211
910.6260, 98.43555
911.7520, 83.03320
912.8780, 7.193359
914.0040, 61.56445
915.1290, 26.71875
916.2550, 10.91992
917.3800, 126.6816
918.5050, 132.1445
919.6300, 117.7051
920.7550, 137.4980
921.8800, 3.236328
923.0040, 116.5566
924.1290, 7.738281
925.2530, 68.74805
926.3770, 65.07812
927.5010, 58.11133
928.6250, 161.9395
929.7480, 12.80469
930.8720, 122.1055
931.9950, 154.9551
933.1180, 233.7266
934.2410, 174.5547
935.3640, 257.6016
936.4860, 228.7598
937.6090, 70.61914
938.7310, 288.6055
939.8530, 343.4180
940.9750, 218.0957
942.0970, 382.6230
943.2180, 494.7109
944.3400, 717.0391
945.4610, 829.1641
946.5820, 965.7422
947.7030, 1279.838
948.8240, 1118.777
949.9450, 1642.871
951.0650, 1675.057
952.1860, 1950.201
953.3060, 2111.242
954.4260, 2262.836
955.5460, 2061.174
956.6650, 1953.990
957.7850, 2010.943
958.9040, 1655.430
960.0230, 1600.348
961.1420, 1435.012
962.2610, 1278.355
963.3800, 1255.816
964.4990, 1044.996
965.6170, 1270.539
966.7350, 1108.615
967.8530, 1222.504
968.9710, 1107.023
970.0890, 1315.285
971.2070, 1375.959
972.3240, 1365.221
973.4410, 1416.354
974.5580, 1526.621
975.6750, 1680.654
976.7920, 1821.729
977.9090, 1973.402
979.0250, 2368.529
980.1410, 2415.846
981.2580, 2706.416
982.3740, 2818.992
983.4890, 2907.572
984.6050, 3209.955
985.7200, 3565.488
986.8360, 3488.939
987.9510, 3700.855
989.0660, 3783.461
990.1810, 3996.072
991.2950, 4272.703
992.4100, 4491.342
993.5240, 4728.986
994.6390, 4542.637
995.7530, 4635.293
996.8660, 4439.957
997.9800, 3996.633
999.0940, 3612.314
1000.207, 3190.006
1001.320, 2848.107
1002.433, 2499.811
1003.546, 2026.559
1004.659, 1652.314
1005.772, 1497.078
1006.884, 1203.855
1007.996, 1114.641
1009.108, 885.3867
1010.220, 697.3711
1011.332, 675.1875
1012.444, 552.9570
1013.555, 630.7188
1014.666, 461.1367
1015.777, 452.4688
1016.888, 518.3613
1017.999, 437.5059
1019.110, 487.2520
1020.220, 449.1992
1021.331, 487.9883
1022.441, 382.7578
1023.551, 442.5254
1024.661, 539.7676
1025.770, 517.6855
1026.880, 644.0684
1027.989, 706.1211
1029.098, 710.4688
1030.207, 974.2266
1031.316, 787.3457
1032.425, 901.9492
1033.533, 1037.086
1034.642, 1049.240
1035.750, 1259.680
1036.858, 1504.848
1037.966, 1626.027
1039.073, 1859.102
1040.181, 1983.957
1041.288, 2344.160
1042.396, 2613.369
1043.503, 3133.154
1044.610, 3700.381
1045.716, 4183.613
1046.823, 4723.982
1047.929, 5356.260
1049.036, 5932.525
1050.142, 6580.551
1051.248, 7286.920
1052.353, 7751.230
1053.459, 7879.543
1054.564, 7846.877
1055.670, 7555.197
1056.775, 6988.553
1057.880, 6473.949
1058.985, 5924.352
1060.089, 5232.332
1061.194, 4915.791
1062.298, 4288.016
1063.402, 3808.566
1064.506, 3453.131
1065.610, 3169.713
1066.713, 2786.426
1067.817, 2537.740
1068.920, 2175.693
1070.023, 2071.350
1071.126, 1811.023
1072.229, 1680.713
1073.332, 1535.488
1074.435, 1439.201
1075.537, 1207.926
1076.639, 1436.797
1077.741, 1084.543
1078.843, 994.1992
1079.945, 986.7344
1081.046, 1286.527
1082.148, 1127.951
1083.249, 1166.164
1084.350, 1028.936
1085.451, 1107.812
1086.551, 1008.871
1087.652, 1147.773
1088.752, 1051.680
1089.853, 1195.604
1090.953, 1259.602
1092.053, 1402.555
1093.152, 1459.861
1094.252, 1579.479
1095.351, 1575.477
1096.451, 1717.418
1097.550, 1776.436
1098.649, 2112.469
1099.748, 2130.510
1100.846, 2047.064
1101.945, 2256.121
1103.043, 2180.203
1104.141, 1949.277
1105.239, 1947.369
1106.337, 1676.469
1107.434, 1434.574
1108.532, 1446.684
1109.629, 1202.834
1110.726, 1028.059
1111.823, 908.1934
1112.920, 832.6230
1114.017, 661.7637
1115.113, 494.9102
1116.210, 459.0625
1117.306, 395.9160
1118.402, 352.3770
1119.498, 405.6309
1120.593, 463.8008
1121.689, 494.9727
1122.784, 446.8320
1123.879, 223.4082
1124.974, 247.6797
1126.069, 330.8691
1127.164, 132.0586
1128.259, 230.2539
1129.353, 290.4395
1130.447, 213.6387
1131.541, 135.8789
1132.635, 114.0820
1133.729, 134.2930
1134.822, 239.7070
1135.916, 249.9219
1137.009, 341.1348
1138.102, 226.0195
1139.195, 83.23633
1140.288, 129.4551
1141.380, 37.32617
1142.473, 159.8848
1143.565, 137.0938
1144.657, 43.30469
1145.749, 70.33594
1146.841, 35.05469
1147.932, 157.1309
1149.024, 26.62305
1150.115, 137.5723
1151.206, 29.76953
1152.297, 23.84570
1153.388, 47.89648
1154.479, 156.6621
1155.569, 71.95703
1156.659, 128.4121
1157.750, 8.390625
1158.839, 8.822266
1159.929, 113.1895
1161.019, 102.8535
1162.108, 109.1016
1163.198, 66.79688
1164.287, 70.41992
1165.376, 144.7090
1166.465, 26.11914
1167.553, 138.9297
1168.642, 12.98047
1169.730, 120.0273
1170.818, 33.07422
1171.906, 54.12109
1172.994, 90.16406
1174.082, 61.79883
1175.170, 48.20898
1176.257, 105.2129
1177.344, 1.787109
1178.431, 14.20898
1179.518, 121.2012
1180.605, 148.1895
1181.691, 14.82227
1182.778, 118.1523
1183.864, 61.12305
1184.950, 38.08984
1186.036, 167.0547
1187.122, 56.09570
1188.207, 180.9727
1189.292, 83.92773
1190.378, 41.12305
1191.463, 259.8027
1192.548, 117.2754
1193.632, 186.5762
1194.717, 119.4258
1195.801, 62.26562
1196.886, 16.10352
1197.970, 86.93555
1199.054, 105.7637
1200.137, 130.5840
1201.221, 81.40039
1202.305, 90.35742
1203.388, 26.16406
1204.471, 99.96289
1205.554, 124.7539
1206.637, 53.45898
1207.719, 47.28711
1208.802, 0.4062500
1209.884, 14.25195
1210.966, 0.5507810
1212.048, 87.13477
1213.130, 68.81055
1214.212, 14.51562
1215.293, 120.7363
1216.374, 33.62305
1217.456, 163.9824
1218.536, 67.58203
1219.617, 126.1719
1220.698, 43.75586
1221.778, 311.3301
1222.859, 108.9004
1223.939, 263.4609
1225.019, 99.71094
1226.099, 56.74219
1227.178, 64.75000
1228.258, 185.2695
1229.337, 79.75977
1230.417, 19.24023
1231.496, 238.7090
1232.574, 65.16797
1233.653, 108.6191
1234.732, 401.2715
1235.810, 172.7051
1236.888, 291.2168
1237.966, 198.6348
