##NAMES=Edingtonite
##RRUFFID=R040110
##IDEAL CHEMISTRY=Ba(Si_3_Al_2_)O_10_&#183;4H_2_O
##LOCALITY=2350 level, Brunswick 12 mine, Bathhurst, New Brunswick, Canada
##OWNER=RRUFF
##SOURCE=National Museums of Canada
##DESCRIPTION=Colorless rectangular prism
##STATUS=The identification of this mineral has been confirmed by X-ray diffraction and chemical analysis
##URL=rruff.info/R040110
##MEASURED CHEMISTRY=Ba_1.00_(Si_3.00_Al_2.00_)O_10_Â·4H_2_O
##PIN_ID=M00390
##ORIENTATION=Laser parallel to -c* (0 0 -1). Fiducial mark perpendicular to laser is parallel to a [1 0 0]
53.91000, 0.0000000E+00
55.14900, 71.71884
56.38700, 112.1292
57.62600, 190.0795
58.86400, 208.2508
60.10300, 228.8895
61.34100, 168.8613
62.57900, 77.50940
63.81700, 5.185486
65.05400, 46.69489
66.29200, 52.03522
67.52900, 49.16553
68.76700, 24.94739
70.00400, 100.4240
71.24100, 214.9233
72.47700, 262.1464
73.71400, 498.8232
74.95100, 692.6923
76.18700, 997.5076
77.42300, 1160.050
78.65900, 1600.132
79.89500, 1832.590
81.13100, 2227.279
82.36700, 2680.071
83.60200, 3016.853
84.83700, 3342.528
86.07200, 3692.000
87.30800, 4037.187
88.54200, 4369.053
89.77700, 4712.390
91.01200, 5045.312
92.24600, 5392.633
93.48000, 5741.258
94.71400, 6097.080
95.94800, 6382.021
97.18200, 6656.020
98.41600, 7013.032
99.64900, 7428.012
100.8830, 8120.937
102.1160, 8470.796
103.3490, 9086.565
104.5820, 9563.217
105.8150, 10371.72
107.0470, 10987.06
108.2800, 11690.21
109.5120, 11922.15
110.7440, 12080.85
111.9760, 12458.32
113.2080, 13052.56
114.4400, 13601.56
115.6710, 14315.25
116.9030, 14967.64
118.1340, 15504.70
119.3650, 16269.42
120.5960, 17147.80
121.8270, 18135.83
123.0580, 19284.31
124.2880, 20625.81
125.5190, 21958.79
126.7490, 23423.43
127.9790, 25103.60
129.2090, 26583.92
130.4390, 27872.34
131.6680, 28780.87
132.8980, 29035.50
134.1270, 28398.21
135.3560, 27200.10
136.5850, 25424.22
137.8140, 23389.62
139.0430, 21217.29
140.2710, 19168.25
141.5000, 17257.52
142.7280, 15888.11
143.9560, 14440.03
145.1840, 13494.37
146.4120, 12441.18
147.6390, 11898.48
148.8670, 11397.32
150.0940, 11097.61
151.3210, 10556.29
152.5490, 10088.30
153.7750, 9868.646
155.0020, 9201.325
156.2290, 8790.343
157.4550, 8206.695
158.6810, 7628.384
159.9080, 7009.412
161.1340, 6604.774
162.3590, 6222.470
163.5850, 5897.501
164.8110, 5559.866
166.0360, 5369.557
167.2610, 5051.581
168.4860, 4921.933
169.7110, 4810.747
170.9360, 4540.969
172.1610, 4352.833
173.3850, 4385.985
174.6100, 4308.933
175.8340, 4160.200
177.0580, 4110.785
178.2820, 3882.687
179.5050, 3761.902
180.7290, 3799.432
181.9520, 3634.271
183.1760, 3665.420
184.3990, 3410.875
185.6220, 3411.636
186.8450, 3297.697
188.0670, 3203.071
189.2900, 3168.854
190.5120, 3053.053
191.7340, 3017.770
192.9560, 2882.035
194.1780, 2809.904
195.4000, 2760.358
196.6220, 2687.379
197.8430, 2697.903
199.0640, 2674.854
200.2860, 2685.153
201.5070, 2536.476
202.7270, 2440.518
203.9480, 2444.263
205.1690, 2147.867
206.3890, 2224.082
207.6090, 2080.919
208.8290, 2080.270
210.0490, 2191.701
211.2690, 2038.122
212.4890, 2252.596
213.7080, 2217.802
214.9280, 2362.482
216.1470, 2554.932
217.3660, 2563.875
218.5850, 2895.289
219.8030, 3339.159
221.0220, 3752.470
222.2400, 4629.203
223.4590, 5609.348
224.6770, 6845.893
225.8950, 8421.821
227.1120, 9865.130
228.3300, 11513.80
229.5480, 13401.83
230.7650, 16195.20
231.9820, 18933.91
233.1990, 21210.18
234.4160, 22087.78
235.6330, 21382.18
236.8490, 18700.32
238.0660, 15249.60
239.2820, 11801.40
240.4980, 8922.463
241.7140, 6874.414
242.9300, 5085.773
244.1460, 3800.895
245.3610, 3175.422
246.5770, 2709.349
247.7920, 2259.855
249.0070, 2019.617
250.2220, 1626.633
251.4370, 1315.899
252.6510, 1370.410
253.8660, 1123.164
255.0800, 1197.156
256.2940, 1130.386
257.5080, 1123.847
258.7220, 1083.539
259.9360, 964.4570
261.1490, 773.5986
262.3630, 563.9609
263.5760, 644.5400
264.7890, 435.3350
266.0020, 465.3418
267.2150, 525.5586
268.4270, 545.9834
269.6400, 514.6113
270.8520, 509.4424
272.0640, 434.4727
273.2760, 405.7002
274.4880, 401.1221
275.7000, 342.9346
276.9120, 356.5508
278.1230, 275.5566
279.3340, 125.7568
280.5450, 99.15234
281.7560, 68.74121
282.9670, 135.5254
284.1780, 7.499023
285.3880, 127.6680
286.5980, 106.9736
287.8090, 28.42969
289.0190, 32.69922
290.2290, 23.78223
291.4380, 33.68164
292.6480, 142.6025
293.8570, 171.0684
295.0670, 248.7158
296.2760, 373.5410
297.4850, 352.5430
298.6930, 465.7207
299.9020, 646.0742
301.1110, 714.6006
302.3190, 923.2998
303.5270, 1087.170
304.7350, 1169.210
305.9430, 1260.419
307.1510, 1442.795
308.3580, 1523.338
309.5660, 1771.045
310.7730, 1775.917
311.9800, 1877.951
313.1870, 2047.147
314.3940, 1888.503
315.6010, 1705.018
316.8070, 1743.685
318.0130, 1562.502
319.2200, 1539.088
320.4260, 1317.213
321.6310, 1272.358
322.8370, 1137.088
324.0430, 812.4404
325.2480, 816.0439
326.4540, 633.8867
327.6590, 573.9492
328.8640, 430.0820
330.0680, 514.9805
331.2730, 439.6299
332.4780, 393.0879
333.6820, 306.5967
334.8860, 306.1113
336.0900, 426.0879
337.2940, 332.2617
338.4980, 362.8965
339.7010, 440.4043
340.9050, 643.4414
342.1080, 790.0078
343.3110, 928.0273
344.5140, 1031.007
345.7170, 1072.621
346.9200, 1287.926
348.1220, 1345.340
349.3240, 1875.945
350.5270, 2112.734
351.7290, 2388.715
352.9310, 2489.880
354.1320, 2877.229
355.3340, 3139.758
356.5350, 3306.476
357.7370, 3446.381
358.9380, 3453.516
360.1390, 3398.724
361.3400, 3248.147
362.5400, 3026.733
363.7410, 2705.480
364.9410, 2241.387
366.1410, 1744.450
367.3410, 1498.670
368.5410, 1223.043
369.7410, 862.5674
370.9400, 605.2422
372.1400, 333.0664
373.3390, 155.0381
374.5380, 207.1553
375.7370, 36.41699
376.9360, 8.178711
378.1350, 153.6367
379.3330, 106.9961
380.5310, 174.2461
381.7300, 141.4072
382.9280, 198.4717
384.1260, 169.4600
385.3230, 208.3652
386.5210, 233.2012
387.7180, 142.9795
388.9160, 18.67090
390.1130, 91.23926
391.3100, 210.2910
392.5060, 356.9492
393.7030, 477.7344
394.9000, 545.6445
396.0960, 791.6787
397.2920, 1055.836
398.4880, 1187.116
399.6840, 1508.518
400.8800, 1666.046
402.0750, 1912.693
403.2710, 2059.460
404.4660, 1921.345
405.6610, 1942.346
406.8560, 2038.463
408.0510, 2021.696
409.2450, 1980.043
410.4400, 2018.503
411.6340, 1989.075
412.8280, 2031.759
414.0220, 2006.553
415.2160, 2358.456
416.4100, 2554.468
417.6030, 2607.588
418.7970, 3035.814
419.9900, 3395.148
421.1830, 3778.587
422.3760, 4219.480
423.5690, 4555.779
424.7610, 5026.529
425.9540, 5340.381
427.1460, 5589.334
428.3380, 5968.281
429.5300, 6423.436
430.7220, 6571.715
431.9140, 6597.863
433.1050, 6832.070
434.2970, 6609.441
435.4880, 6242.830
436.6790, 6011.565
437.8700, 5514.398
439.0610, 4973.318
440.2510, 4535.334
441.4420, 4066.441
442.6320, 3642.640
443.8220, 3232.928
445.0120, 2907.307
446.2020, 2458.771
447.3910, 2229.327
448.5810, 1899.969
449.7700, 1681.696
450.9600, 1396.510
452.1490, 1188.409
453.3370, 1040.392
454.5260, 912.4570
455.7150, 649.6055
456.9030, 599.8369
458.0910, 474.1494
459.2800, 267.5410
460.4670, 245.0137
461.6550, 87.92480
462.8430, 218.1855
464.0300, 99.11426
465.2180, 5.414063
466.4050, 12.67871
467.5920, 111.9023
468.7790, 171.1348
469.9650, 150.4033
471.1520, 146.7002
472.3380, 308.0010
473.5250, 206.4062
474.7110, 289.8467
475.8970, 212.3701
477.0820, 241.9473
478.2680, 232.5684
479.4540, 191.7539
480.6390, 118.5840
481.8240, 224.9326
483.0090, 18.12109
484.1940, 64.56738
485.3780, 83.24023
486.5630, 44.92383
487.7470, 155.5371
488.9320, 192.1260
490.1160, 316.5088
491.3000, 338.0361
492.4830, 543.5400
493.6670, 614.2041
494.8500, 731.3301
496.0340, 850.5469
497.2170, 946.4844
498.4000, 1102.480
499.5820, 1170.567
500.7650, 1304.724
501.9480, 1541.988
503.1300, 1819.314
504.3120, 2029.699
505.4940, 2275.172
506.6760, 2692.703
507.8580, 3088.289
509.0390, 3585.935
510.2210, 4382.630
511.4020, 5161.383
512.5830, 6287.184
513.7640, 7291.037
514.9450, 9262.938
516.1250, 11353.90
517.3060, 13936.91
518.4860, 17750.97
519.6660, 21211.84
520.8460, 25792.77
522.0260, 30561.23
523.2060, 35967.33
524.3850, 41063.62
525.5650, 46295.74
526.7440, 49309.92
527.9230, 50762.55
529.1020, 49462.08
530.2810, 45411.18
531.4590, 40035.17
532.6380, 33888.08
533.8160, 27962.71
534.9940, 23159.38
536.1720, 18509.10
537.3500, 15076.85
538.5270, 12435.63
539.7050, 10284.45
540.8820, 8523.307
542.0590, 6963.468
543.2360, 5978.457
544.4130, 5193.432
545.5900, 4498.422
546.7660, 3888.441
547.9430, 3140.787
549.1190, 2927.866
550.2950, 2617.974
551.4710, 2126.112
552.6470, 2013.278
553.8220, 1642.473
554.9980, 1551.690
556.1730, 1570.936
557.3480, 1281.205
558.5230, 1050.498
559.6980, 970.8164
560.8730, 962.1592
562.0470, 904.5234
563.2220, 880.9111
564.3960, 798.3203
565.5700, 765.0518
566.7440, 717.2031
567.9170, 667.6748
569.0910, 600.1650
570.2640, 533.6748
571.4380, 496.2061
572.6110, 392.7588
573.7840, 355.3301
574.9570, 633.9180
576.1290, 468.5254
577.3020, 642.1484
578.4740, 531.7852
579.6460, 541.4365
580.8180, 643.1006
581.9900, 511.7783
583.1620, 726.4697
584.3330, 748.1738
585.5040, 828.8867
586.6760, 838.6113
587.8470, 998.3457
589.0180, 1283.090
590.1880, 1363.842
591.3590, 1432.603
592.5290, 1593.371
593.7000, 1674.146
594.8700, 1758.930
596.0400, 1953.719
597.2090, 2191.514
598.3790, 2317.314
599.5490, 2296.119
600.7180, 2177.930
601.8870, 2301.742
603.0560, 2252.973
604.2250, 1886.194
605.3940, 1840.951
606.5620, 1445.111
607.7300, 1398.885
608.8990, 1301.371
610.0670, 1164.348
611.2350, 920.4062
612.4020, 693.0703
613.5700, 683.5547
614.7370, 393.5654
615.9050, 267.0615
617.0720, 294.4639
618.2390, 229.4180
619.4060, 71.63477
620.5720, 52.07422
621.7390, 96.19629
622.9050, 41.50781
624.0710, 133.7422
625.2370, 70.53027
626.4030, 116.8467
627.5690, 18.52051
628.7340, 141.7773
629.9000, 96.50586
631.0650, 57.37695
632.2300, 102.5479
633.3950, 71.21875
634.5600, 247.5322
635.7240, 350.8184
636.8890, 255.4941
638.0530, 396.7207
639.2170, 604.1504
640.3810, 615.4385
641.5450, 873.4893
642.7080, 879.4082
643.8720, 1196.432
645.0350, 1277.552
646.1980, 1604.986
647.3610, 1885.110
648.5240, 2255.771
649.6870, 2435.060
650.8490, 2640.459
652.0120, 3024.121
653.1740, 3353.820
654.3360, 3246.870
655.4980, 3359.167
656.6600, 3364.364
657.8210, 3249.469
658.9830, 2928.870
660.1440, 2786.482
661.3050, 2416.178
662.4660, 2078.739
663.6270, 1866.198
664.7870, 1498.572
665.9480, 1321.257
667.1080, 1126.629
668.2680, 863.5566
669.4280, 802.0156
670.5880, 580.0332
671.7480, 626.9551
672.9070, 419.1592
674.0670, 277.3975
675.2260, 492.0762
676.3850, 364.1719
677.5440, 323.7695
678.7030, 223.5938
679.8610, 223.5107
681.0200, 107.0547
682.1780, 206.0996
683.3360, 217.8496
684.4940, 289.8232
685.6520, 238.4307
686.8090, 177.0449
687.9670, 253.5459
689.1240, 243.1191
690.2810, 440.6777
691.4380, 434.3926
692.5950, 362.9863
693.7520, 516.2891
694.9080, 724.6113
696.0650, 751.9473
697.2210, 825.1846
698.3770, 1085.835
699.5330, 1214.027
700.6880, 1515.247
701.8440, 1512.864
702.9990, 1763.201
704.1550, 2080.356
705.3100, 2293.601
706.4650, 2609.850
707.6190, 2751.875
708.7740, 2984.944
709.9290, 3138.881
711.0830, 3249.831
712.2370, 3336.757
713.3910, 3374.658
714.5450, 3298.658
715.6980, 3087.507
716.8520, 2976.330
718.0050, 2859.382
719.1580, 2466.152
720.3110, 2288.025
721.4640, 2027.114
722.6170, 1728.805
723.7700, 1599.466
724.9220, 1381.101
726.0740, 1142.740
727.2260, 931.3193
728.3780, 807.8721
729.5300, 674.6172
730.6810, 640.0137
731.8330, 545.4814
732.9840, 457.9209
734.1350, 467.3799
735.2860, 405.7617
736.4370, 376.3750
737.5880, 362.4404
738.7380, 278.7656
739.8880, 252.8223
741.0390, 225.1406
742.1890, 179.4824
743.3380, 141.2764
744.4880, 154.4580
745.6380, 30.62793
746.7870, 87.76562
747.9360, 115.9053
749.0850, 103.7402
750.2340, 50.08887
751.3830, 106.3613
752.5310, 43.45703
753.6800, 12.29395
754.8280, 8.041016
755.9760, 95.77148
757.1240, 29.62109
758.2720, 48.97070
759.4190, 24.26758
760.5670, 76.02051
761.7140, 6.457031
762.8610, 86.68750
764.0080, 16.78125
765.1550, 39.67285
766.3020, 44.87793
767.4480, 40.79199
768.5950, 61.31055
769.7410, 21.07910
770.8870, 59.12500
772.0330, 60.81836
773.1780, 13.59668
774.3240, 75.91602
775.4690, 152.4707
776.6140, 71.32422
777.7590, 5.132813
778.9040, 144.9336
780.0490, 26.82129
781.1940, 77.81934
782.3380, 82.35547
783.4820, 49.49219
784.6260, 68.25195
785.7700, 37.00977
786.9140, 142.1162
788.0580, 51.94922
789.2010, 103.5732
790.3450, 99.17480
791.4880, 69.78516
792.6310, 12.28320
793.7730, 59.02539
794.9160, 157.1221
796.0590, 119.8320
797.2010, 97.15527
798.3430, 90.43652
799.4850, 102.2588
800.6270, 114.4580
801.7690, 124.6201
802.9100, 36.74219
804.0520, 126.8145
805.1930, 187.8486
806.3340, 119.8486
807.4750, 75.80957
808.6160, 80.72559
809.7560, 63.59863
810.8970, 140.4258
812.0370, 93.21387
813.1770, 151.9619
814.3170, 274.6729
815.4570, 192.3525
816.5960, 164.9971
817.7360, 251.6084
818.8750, 140.9150
820.0140, 185.3916
821.1530, 142.8799
822.2920, 209.3516
823.4310, 202.2617
824.5690, 222.9033
825.7070, 200.2773
826.8460, 197.6201
827.9840, 154.9277
829.1220, 178.3135
830.2590, 252.4443
831.3970, 231.6562
832.5340, 221.8359
833.6710, 280.9854
834.8080, 139.1025
835.9450, 266.1875
837.0820, 225.2402
838.2190, 135.2627
839.3550, 184.2500
840.4910, 221.2061
841.6270, 193.1318
842.7630, 186.0264
843.8990, 274.8906
845.0350, 214.7246
846.1700, 93.52930
847.3060, 316.2969
848.4410, 330.0352
849.5760, 233.7441
850.7100, 196.4248
851.8450, 263.0762
852.9800, 247.6982
854.1140, 162.2930
855.2480, 297.8574
856.3820, 190.3936
857.5160, 143.9004
858.6500, 321.3760
859.7830, 236.8242
860.9170, 326.2451
862.0500, 208.6377
863.1830, 289.0039
864.3160, 321.3418
865.4480, 183.6543
866.5810, 303.9385
867.7130, 239.1953
868.8460, 333.4268
869.9780, 196.6318
871.1100, 258.8096
872.2410, 273.9619
873.3730, 214.0879
874.5050, 196.2021
875.6360, 323.2910
876.7670, 260.3555
877.8980, 253.3633
879.0290, 105.9736
880.1590, 246.1572
881.2900, 231.4873
882.4200, 224.7051
883.5500, 324.0889
884.6800, 89.86621
885.8100, 297.4639
886.9400, 27.50586
888.0690, 237.0771
889.1990, 224.4932
890.3280, 130.7314
891.4570, 253.1309
892.5860, 219.2256
893.7140, 225.4307
894.8430, 152.4658
895.9710, 131.4678
897.1000, 140.5127
898.2280, 142.2080
899.3560, 186.9209
900.4830, 96.75391
901.6110, 167.4229
902.7380, 134.8877
903.8660, 234.3896
904.9930, 4.797852
906.1200, 122.8750
907.2460, 80.42871
908.3730, 40.31055
909.5000, 131.2012
910.6260, 118.6807
911.7520, 46.41016
912.8780, 23.73242
914.0040, 59.06055
915.1290, 20.92969
916.2550, 89.18652
917.3800, 28.82227
918.5050, 60.04785
919.6300, 35.41602
920.7550, 98.42969
921.8800, 15.27930
923.0040, 91.64062
924.1290, 30.84961
925.2530, 21.05762
926.3770, 7.204102
927.5010, 61.97656
928.6250, 77.47754
929.7480, 124.0557
930.8720, 19.27637
931.9950, 239.0840
933.1180, 97.21289
934.2410, 61.74512
935.3640, 126.4150
936.4860, 117.6787
937.6090, 135.0225
938.7310, 250.0605
939.8530, 152.4111
940.9750, 313.2139
942.0970, 261.4980
943.2180, 574.2207
944.3400, 379.0186
945.4610, 644.5225
946.5820, 630.9668
947.7030, 792.9453
948.8240, 920.4805
949.9450, 1282.488
951.0650, 1394.245
952.1860, 1379.882
953.3060, 1463.867
954.4260, 1430.320
955.5460, 1374.829
956.6650, 1462.510
957.7850, 1218.328
958.9040, 1100.115
960.0230, 1042.985
961.1420, 892.7666
962.2610, 808.5342
963.3800, 614.1191
964.4990, 561.8008
965.6170, 406.7441
966.7350, 420.6445
967.8530, 240.5020
968.9710, 269.4307
970.0890, 235.9209
971.2070, 179.8418
972.3240, 174.7090
973.4410, 144.1514
974.5580, 115.8477
975.6750, 187.7256
976.7920, 334.4863
977.9090, 327.2188
979.0250, 78.17969
980.1410, 431.0674
981.2580, 314.0645
982.3740, 215.0166
983.4890, 392.9688
984.6050, 332.9180
985.7200, 121.7402
986.8360, 363.6855
987.9510, 294.6309
989.0660, 157.3193
990.1810, 325.2627
991.2950, 265.0742
992.4100, 228.6445
993.5240, 139.5859
994.6390, 211.5273
995.7530, 159.4736
996.8660, 269.3877
997.9800, 212.3350
999.0940, 276.2812
1000.207, 324.1172
1001.320, 186.0752
1002.433, 145.0332
1003.546, 310.9932
1004.659, 261.9072
1005.772, 283.8691
1006.884, 226.8330
1007.996, 203.7695
1009.108, 190.6582
1010.220, 196.0176
1011.332, 171.8184
1012.444, 221.7930
1013.555, 274.1572
1014.666, 240.6318
1015.777, 300.9121
1016.888, 138.6279
1017.999, 284.6436
1019.110, 308.9941
1020.220, 137.0322
1021.331, 293.7861
1022.441, 463.8672
1023.551, 390.9805
1024.661, 453.9629
1025.770, 303.1191
1026.880, 298.3213
1027.989, 468.5527
1029.098, 493.8262
1030.207, 593.0918
1031.316, 652.3936
1032.425, 712.7178
1033.533, 855.0869
1034.642, 979.4531
1035.750, 1005.870
1036.858, 975.3184
1037.966, 1301.783
1039.073, 1364.646
1040.181, 1422.163
1041.288, 1694.686
1042.396, 2051.454
1043.503, 2395.037
1044.610, 2660.660
1045.716, 3251.437
1046.823, 3560.169
1047.929, 4177.852
1049.036, 4665.898
1050.142, 5355.668
1051.248, 5903.581
1052.353, 6264.791
1053.459, 6466.874
1054.564, 6530.781
1055.670, 6404.252
1056.775, 6066.970
1057.880, 5538.863
1058.985, 5216.750
1060.089, 4696.600
1061.194, 4219.530
1062.298, 3641.479
1063.402, 3510.876
1064.506, 3075.213
1065.610, 2776.196
1066.713, 2634.191
1067.817, 2270.616
1068.920, 2121.634
1070.023, 1940.664
1071.126, 1800.703
1072.229, 1608.759
1073.332, 1397.827
1074.435, 1260.902
1075.537, 1167.949
1076.639, 1100.090
1077.741, 1050.203
1078.843, 1043.331
1079.945, 980.4697
1081.046, 740.6201
1082.148, 822.7930
1083.249, 887.9717
1084.350, 665.1602
1085.451, 752.3574
1086.551, 572.5635
1087.652, 684.7803
1088.752, 540.0049
1089.853, 603.1123
1090.953, 594.3564
1092.053, 583.6094
1093.152, 755.7061
1094.252, 773.9766
1095.351, 621.2559
1096.451, 842.5449
1097.550, 703.8428
1098.649, 684.1504
1099.748, 823.4668
1100.846, 696.8105
1101.945, 605.1426
1103.043, 692.4863
1104.141, 592.8369
1105.239, 591.1963
1106.337, 583.5654
1107.434, 395.6016
1108.532, 473.9893
1109.629, 482.3857
1110.726, 318.7939
1111.823, 398.2246
1112.920, 278.6641
1114.017, 335.1162
1115.113, 353.5752
1116.210, 212.0420
1117.306, 172.5166
1118.402, 280.0000
1119.498, 400.4912
1120.593, 228.9883
1121.689, 423.4961
1122.784, 266.0117
1123.879, 219.5352
1124.974, 185.0674
1126.069, 175.8193
1127.164, 311.1152
1128.259, 256.6709
1129.353, 109.2344
1130.447, 246.8076
1131.541, 148.5986
1132.635, 176.1865
1133.729, 163.7812
1134.822, 76.38477
1135.916, 240.9951
1137.009, 381.6133
1138.102, 113.2539
1139.195, 79.09473
1140.288, 7.464844
1141.380, 40.17090
1142.473, 12.81543
1143.565, 123.4678
1144.657, 104.1260
1145.749, 18.19336
1146.841, 174.4902
1147.932, 96.18164
1149.024, 105.1172
1150.115, 11.53613
1151.206, 33.43164
1152.297, 16.69531
1153.388, 21.52051
1154.479, 23.63379
1155.569, 56.38379
1156.659, 70.14160
1157.750, 44.90527
1158.839, 46.69043
1159.929, 131.9727
1161.019, 35.75488
1162.108, 117.8076
1163.198, 128.6025
1164.287, 69.40332
1165.376, 86.78906
1166.465, 172.9883
1167.553, 9.769531
1168.642, 253.5566
1169.730, 250.3496
1170.818, 27.15137
1171.906, 78.95703
1172.994, 11.23242
1174.082, 150.5811
1175.170, 116.3984
1176.257, 114.4697
1177.344, 17.05469
1178.431, 61.89746
1179.518, 120.7461
1180.605, 35.60156
1181.691, 183.4600
1182.778, 7.671875
1183.864, 113.8047
1184.950, 23.98242
1186.036, 140.8320
1187.122, 208.6533
1188.207, 176.4922
1189.292, 46.33496
1190.378, 151.1797
1191.463, 12.02930
1192.548, 75.88184
1193.632, 82.26270
1194.717, 70.44238
1195.801, 45.35059
1196.886, 171.1455
1197.970, 159.4121
1199.054, 75.75000
1200.137, 175.5605
1201.221, 140.3760
1202.305, 134.1924
1203.388, 143.1211
1204.471, 112.7041
1205.554, 106.6582
1206.637, 93.48535
1207.719, 82.31445
1208.802, 110.1475
1209.884, 137.9824
1210.966, 119.8184
1212.048, 110.9160
1213.130, 85.75684
1214.212, 90.76953
1215.293, 30.44531
1216.374, 88.29297
1217.456, 86.14258
1218.536, 60.99316
1219.617, 31.15430
1220.698, 75.68359
1221.778, 41.19336
1222.859, 29.63574
1223.939, 59.18945
1225.019, 126.0166
1226.099, 73.84570
1227.178, 60.67676
1228.258, 107.5078
1229.337, 69.34766
1230.417, 14.18164
1231.496, 156.0176
1232.574, 200.8545
1233.653, 110.6934
1234.732, 24.53320
1235.810, 33.37305
1236.888, 103.7852
1237.966, 23.00000
