##NAMES=Edingtonite
##RRUFFID=R040003
##IDEAL CHEMISTRY=Ba(Si_3_Al_2_)O_10_&#183;4H_2_O
##LOCALITY=Bohl, Sweden
##OWNER=RRUFF
##SOURCE=University of Arizona Mineral Museum
##DESCRIPTION=Colorless tetragonal prism
##STATUS=The identification of this mineral has been confirmed by X-ray diffraction and chemical analysis
##URL=rruff.info/R040003
##MEASURED CHEMISTRY=Ba_1.00_(Si_3.00_Al_2.00_)O_10_Â·4H_2_O; trace amounts of Na; H_2_O estimated by difference
##PIN_ID=m00026
##ORIENTATION=Laser parallel to a* (1 0 0). Fiducial mark perpendicular to laser is parallel to c [0 0 1]
119.947, 0.000
121.337, 433.414
122.727, 494.320
124.116, 1107.348
125.506, 1257.629
126.895, 1201.867
128.284, 1399.268
129.673, 1380.133
131.062, 1252.318
132.450, 973.551
133.838, 905.557
135.226, 570.082
136.614, 447.838
138.001, 338.922
139.388, 350.307
140.775, 427.369
142.162, 697.016
143.549, 803.312
144.935, 1420.877
146.321, 1793.715
147.707, 2670.376
149.093, 3483.853
150.478, 4554.834
151.863, 5694.613
153.248, 6570.922
154.633, 6985.478
156.018, 7528.117
157.402, 6922.779
158.786, 6141.094
160.170, 5654.564
161.554, 4400.062
162.937, 3725.601
164.320, 3212.566
165.703, 2620.423
167.086, 2407.896
168.469, 1683.651
169.851, 1714.338
171.233, 1465.578
172.615, 1042.103
173.996, 1016.871
175.378, 676.444
176.759, 897.048
178.140, 528.340
179.521, 517.579
180.901, 284.579
182.281, 417.151
183.662, 176.423
185.041, 52.226
186.421, 227.226
187.800, 86.154
189.180, 40.320
190.558, 69.884
191.937, 21.543
193.316, 13.052
194.694, 22.539
196.072, 100.821
197.450, 154.166
198.827, 139.749
200.205, 77.288
201.582, 344.654
202.959, 472.905
204.336, 429.294
205.712, 686.354
207.088, 722.651
208.465, 723.600
209.840, 395.048
211.216, 95.593
212.591, 198.690
213.967, 304.078
215.341, 242.168
216.716, 341.327
218.091, 400.544
219.465, 359.851
220.839, 329.291
222.213, 248.457
223.586, 347.320
224.960, 404.754
226.333, 283.411
227.706, 222.093
229.079, 70.841
230.451, 68.994
231.823, 237.247
233.195, 724.587
234.567, 1081.569
235.939, 1338.236
237.310, 1344.632
238.682, 1190.781
240.052, 946.617
241.423, 691.960
242.794, 586.777
244.164, 441.038
245.534, 274.786
246.904, 238.025
248.274, 270.788
249.643, 83.195
251.012, 166.152
252.381, 159.067
253.750, 381.271
255.118, 416.096
256.487, 534.584
257.855, 615.945
259.223, 247.089
260.590, 328.004
261.958, 298.734
263.325, 279.304
264.692, 459.697
266.059, 310.482
267.425, 380.601
268.791, 318.381
270.158, 405.827
271.523, 422.790
272.889, 369.204
274.255, 485.027
275.620, 394.900
276.985, 274.822
278.350, 298.751
279.714, 225.469
281.078, 334.625
282.443, 196.570
283.806, 217.836
285.170, 248.405
286.534, 368.262
287.897, 217.411
289.260, 215.862
290.623, 293.652
291.985, 220.800
293.348, 317.292
294.710, 563.110
296.072, 508.194
297.433, 592.558
298.795, 386.165
300.156, 579.017
301.517, 641.040
302.878, 782.791
304.239, 733.946
305.599, 814.777
306.959, 985.644
308.319, 1015.682
309.679, 1135.582
311.038, 1225.377
312.398, 1304.403
313.757, 1393.591
315.116, 1371.791
316.474, 1449.664
317.833, 1226.674
319.191, 1372.819
320.549, 1287.174
321.907, 1051.318
323.264, 1162.584
324.622, 1034.441
325.979, 1034.526
327.336, 915.119
328.692, 872.665
330.049, 961.352
331.405, 936.745
332.761, 888.974
334.117, 914.059
335.473, 888.680
336.828, 831.974
338.183, 942.095
339.538, 893.556
340.893, 955.565
342.247, 1066.271
343.602, 1127.487
344.956, 1302.191
346.310, 1374.920
347.663, 1366.437
349.017, 1510.813
350.370, 1556.119
351.723, 1930.970
353.076, 2156.938
354.428, 2472.910
355.780, 2678.752
357.133, 3192.727
358.484, 3439.502
359.836, 3543.782
361.188, 3915.525
362.539, 3798.635
363.890, 3659.367
365.241, 3258.654
366.591, 2738.820
367.942, 2489.630
369.292, 2102.253
370.642, 1672.508
371.992, 1481.352
373.341, 1272.948
374.691, 985.904
376.040, 962.312
377.388, 811.586
378.737, 792.793
380.086, 656.973
381.434, 662.748
382.782, 749.047
384.130, 725.271
385.477, 801.365
386.825, 816.265
388.172, 1019.926
389.519, 1003.044
390.865, 1045.438
392.212, 1006.532
393.558, 1007.258
394.904, 878.268
396.250, 917.249
397.596, 907.243
398.941, 834.400
400.286, 919.002
401.631, 770.992
402.976, 823.505
404.321, 866.368
405.665, 807.038
407.009, 878.445
408.353, 589.570
409.697, 770.498
411.040, 752.510
412.384, 683.704
413.727, 865.294
415.070, 856.358
416.412, 1017.688
417.755, 958.908
419.097, 1169.696
420.439, 1303.131
421.781, 1551.389
423.122, 1640.948
424.464, 1740.560
425.805, 1839.722
427.146, 2238.914
428.486, 2237.085
429.827, 2515.299
431.167, 2433.647
432.507, 2622.782
433.847, 2470.556
435.187, 2408.178
436.526, 2176.390
437.865, 2033.796
439.204, 1621.977
440.543, 1531.221
441.882, 1240.092
443.220, 1029.239
444.558, 627.316
445.896, 706.185
447.234, 485.240
448.572, 434.856
449.909, 344.148
451.246, 203.719
452.583, 253.984
453.919, 184.298
455.256, 105.076
456.592, 215.796
457.928, 56.424
459.264, 116.954
460.600, 37.402
461.935, 67.775
463.270, 118.069
464.605, 158.285
465.940, 18.428
467.274, 198.198
468.609, 238.291
469.943, 217.951
471.277, 67.581
472.610, 236.619
473.944, 215.448
475.277, 354.677
476.610, 103.801
477.943, 452.738
479.275, 111.817
480.608, 190.779
481.940, 319.492
483.272, 238.756
484.604, 257.819
485.935, 337.203
487.267, 416.980
488.598, 356.749
489.929, 426.514
491.260, 556.264
492.590, 536.018
493.920, 535.757
495.250, 785.489
496.580, 825.227
497.910, 964.955
499.239, 934.673
500.569, 1144.366
501.898, 1364.039
503.226, 1423.738
504.555, 1813.465
505.883, 2253.232
507.212, 2183.027
508.540, 2752.865
509.867, 2982.748
511.195, 3532.672
512.522, 4192.636
513.849, 4912.628
515.176, 5902.662
516.503, 7102.744
517.829, 8722.858
519.156, 10803.005
520.482, 13883.159
521.808, 17633.314
523.133, 22933.416
524.459, 29612.879
525.784, 37782.359
527.109, 46472.215
528.434, 51131.945
529.758, 51781.926
531.083, 47321.883
532.407, 40581.809
533.731, 33001.715
535.055, 25731.604
536.378, 20201.480
537.701, 15972.128
539.025, 12841.981
540.348, 11332.764
541.670, 8343.357
542.993, 7133.249
544.315, 5945.295
545.637, 5076.139
546.959, 4246.969
548.281, 3699.550
549.602, 3389.936
550.923, 2770.359
552.244, 2640.212
553.565, 2210.200
554.886, 2130.642
556.206, 2030.250
557.526, 1579.974
558.846, 1459.621
560.166, 1549.253
561.486, 1258.871
562.805, 1208.475
564.124, 1178.063
565.443, 1267.641
566.762, 937.208
568.080, 996.770
569.399, 1096.326
570.717, 765.873
572.035, 935.419
573.352, 914.963
574.670, 694.504
575.987, 674.038
577.304, 613.572
578.621, 565.625
579.938, 642.638
581.254, 642.170
582.570, 751.699
583.886, 961.222
585.202, 1010.736
586.518, 1030.244
587.833, 1099.749
589.148, 1069.246
590.463, 828.530
591.778, 967.423
593.093, 835.901
594.407, 823.611
595.721, 1021.749
597.035, 939.623
598.349, 1067.304
599.662, 996.227
600.976, 1124.149
602.289, 994.283
603.602, 945.282
604.914, 935.987
606.227, 933.940
607.539, 862.357
608.851, 925.886
610.163, 976.141
611.475, 864.060
612.786, 813.483
614.097, 1182.085
615.408, 1291.726
616.719, 1663.157
618.030, 1944.390
619.340, 2055.700
620.651, 2440.114
621.961, 3118.774
623.270, 3887.714
624.580, 4516.959
625.889, 4935.943
627.199, 4826.855
628.507, 4215.997
629.816, 3566.104
631.125, 3098.193
632.433, 2307.507
633.741, 2049.105
635.049, 1870.309
636.357, 1843.442
637.664, 1968.973
638.972, 1982.480
640.279, 2265.597
641.586, 2845.887
642.893, 3015.179
644.199, 3577.121
645.505, 3976.926
646.811, 4316.767
648.117, 4375.602
649.423, 4744.963
650.728, 4723.760
652.034, 4862.534
653.339, 5391.289
654.644, 4880.021
655.948, 4888.732
657.253, 4367.422
658.557, 3776.090
659.861, 3274.736
661.165, 2723.359
662.468, 2381.959
663.772, 2000.537
665.075, 1459.092
666.378, 2047.626
667.681, 1836.142
668.983, 1594.637
670.286, 883.109
671.588, 571.559
672.890, 809.986
674.192, 438.393
675.493, 486.773
676.795, 435.135
678.096, 93.473
679.397, 261.781
680.697, 60.066
681.998, 98.320
683.298, 246.546
684.598, 65.253
685.898, 32.904
687.198, 31.028
688.498, 90.880
689.797, 117.160
691.096, 105.172
692.395, 103.154
693.694, 191.112
694.992, 89.042
696.290, 326.943
697.589, 234.822
698.886, 352.679
700.184, 560.512
701.482, 528.322
702.779, 646.110
704.076, 643.876
705.373, 801.619
706.669, 719.340
707.966, 677.038
709.262, 874.713
710.558, 742.364
711.854, 1019.994
713.150, 867.601
714.445, 1025.185
715.740, 1232.745
717.035, 990.282
718.330, 1097.799
719.625, 985.290
720.919, 812.759
722.214, 770.204
723.508, 457.626
724.801, 475.025
726.095, 422.401
727.388, 279.755
728.682, 317.084
729.975, 164.391
731.267, 199.262
732.560, 198.934
733.852, 236.176
735.145, 183.402
736.437, 170.611
737.728, 132.793
739.020, 5.022
740.311, 32.125
741.603, 90.747
742.894, 143.661
744.184, 86.625
745.475, 29.629
746.765, 27.340
748.055, 255.713
749.345, 508.839
750.635, 287.900
751.925, 35.374
753.214, 28.680
754.503, 42.012
755.792, 125.377
757.081, 88.793
758.370, 142.253
759.658, 205.766
760.946, 19.350
762.234, 12.960
763.522, 13.403
764.809, 0.260
766.097, 93.949
767.384, 52.317
768.671, 21.441
769.958, 125.230
771.244, 100.925
772.530, 82.942
773.817, 66.857
775.102, 150.814
776.388, 254.833
777.674, 168.936
778.959, 153.101
780.244, 27.328
781.529, 108.411
782.814, 105.875
784.098, 0.210
785.383, 4.575
786.667, 221.030
787.951, 66.615
789.235, 242.176
790.518, 287.717
791.801, 213.238
793.084, 508.742
794.367, 374.227
795.650, 589.692
796.933, 445.139
798.215, 430.567
799.497, 575.979
800.779, 571.371
802.061, 366.745
803.342, 442.102
804.624, 477.440
805.905, 452.761
807.186, 588.064
808.466, 515.940
809.747, 678.618
811.027, 503.870
812.307, 469.105
813.587, 604.322
814.867, 459.523
816.146, 644.709
817.426, 479.096
818.705, 424.249
819.984, 838.457
821.263, 602.830
822.541, 687.882
823.819, 880.746
825.098, 844.782
826.375, 1098.797
827.653, 801.023
828.931, 1125.419
830.208, 1209.748
831.485, 1054.058
832.762, 1258.766
834.039, 1072.988
835.315, 1237.946
836.592, 1312.828
837.868, 1087.756
839.144, 1732.674
840.420, 1387.574
841.695, 1702.461
842.970, 1767.338
844.246, 1692.201
845.521, 1907.051
846.795, 1851.887
848.070, 1896.711
849.344, 1831.521
850.618, 1786.320
851.892, 2261.105
853.166, 2125.877
854.440, 2500.639
855.713, 2945.387
856.986, 3180.125
858.259, 3874.850
859.532, 4139.562
860.804, 4204.264
862.077, 4588.951
863.349, 3643.631
864.621, 3518.297
865.893, 3172.953
867.164, 2837.596
868.436, 2581.936
869.707, 2236.439
870.978, 2190.951
872.248, 2315.584
873.519, 2030.021
874.789, 1954.396
876.060, 1968.646
877.330, 1892.168
878.599, 2005.959
879.869, 1867.857
881.138, 1968.518
882.408, 1850.535
883.677, 1503.799
884.945, 1817.691
886.214, 1375.863
887.482, 1788.150
888.751, 1772.965
890.019, 1556.209
891.287, 1879.572
892.554, 1612.691
893.822, 1693.922
895.089, 1796.000
896.356, 1556.830
897.623, 1926.182
898.889, 1609.701
900.156, 1873.307
901.422, 1797.209
902.688, 1540.990
903.954, 1862.932
905.220, 1527.012
906.485, 1610.490
907.750, 1761.703
909.015, 1346.008
910.280, 1548.201
911.545, 1520.771
912.809, 1271.391
914.074, 1429.588
915.338, 1189.789
916.602, 970.367
917.865, 733.752
919.129, 798.119
920.392, 719.814
921.655, 333.627
922.918, 637.385
924.181, 652.125
925.443, 526.320
926.706, 841.098
927.968, 645.871
929.230, 590.645
930.491, 795.461
931.753, 700.275
933.014, 875.098
934.276, 929.918
935.536, 574.736
936.797, 1029.553
938.058, 444.371
939.318, 719.186
940.578, 744.000
941.838, 598.814
943.098, 753.650
944.358, 558.492
945.617, 493.334
946.876, 798.213
948.135, 763.092
949.394, 1097.969
950.653, 1162.854
951.911, 1187.740
953.169, 1742.625
954.427, 1517.512
955.685, 1732.400
956.943, 1517.295
958.200, 1162.193
959.458, 1387.094
960.715, 1222.002
961.971, 886.914
963.228, 1071.834
964.485, 626.764
965.741, 1171.695
966.997, 726.633
968.253, 871.570
969.508, 856.508
970.764, 401.449
972.019, 686.389
973.274, 751.328
974.529, 506.266
975.784, 531.203
977.039, 466.141
978.293, 561.076
979.547, 806.012
980.801, 560.943
982.055, 1155.877
983.308, 1080.811
984.562, 1325.742
985.815, 1680.670
987.068, 1605.600
988.321, 1800.529
989.573, 1745.457
990.826, 1620.383
992.078, 2035.309
993.330, 1650.232
994.582, 1795.156
995.833, 1940.076
997.085, 1844.998
998.336, 2889.916
999.587, 3194.836
1000.838, 4809.752
1002.088, 6074.668
1003.339, 5089.582
1004.589, 3546.533
1005.839, 2174.086
1007.089, 1130.850
1008.339, 1306.629
1009.588, 631.539
1010.838, 789.654
1012.087, 705.232
1013.336, 694.102
1014.584, 638.004
1015.833, 573.303
1017.081, 1026.596
1018.330, 1520.742
1019.577, 1369.695
1020.825, 1754.842
1022.073, 2171.566
1023.320, 1888.266
1024.567, 2309.760
1025.814, 1914.779
1027.061, 1831.473
1028.308, 2036.781
1029.554, 1551.811
1030.800, 1657.055
1032.046, 1452.100
1033.292, 1187.164
1034.538, 1302.229
1035.783, 967.291
1037.029, 1442.346
1038.274, 1307.400
1039.519, 1102.461
1040.763, 1567.516
1042.008, 1442.570
1043.252, 1577.633
1044.496, 1922.686
1045.740, 1837.748
1046.984, 2682.809
1048.228, 2927.881
1049.471, 3362.977
1050.714, 4279.549
1051.957, 4394.670
1053.200, 4770.480
1054.442, 4946.074
1055.685, 4291.188
1056.927, 4166.299
1058.169, 3441.406
1059.411, 2856.500
1060.652, 2879.723
1061.894, 2284.801
1063.135, 1959.867
1064.376, 1804.262
1065.617, 1499.305
1066.858, 1865.643
1068.098, 1340.662
1069.339, 1555.670
1070.579, 1450.666
1071.819, 1115.650
1073.058, 1560.623
1074.298, 1495.676
1075.537, 1180.623
1076.776, 1810.100
1078.015, 1566.482
1079.254, 1581.654
1080.493, 1824.174
1081.731, 1779.055
1082.969, 2013.920
1084.207, 2140.883
1085.445, 1545.719
1086.683, 1720.543
1087.920, 1045.350
1089.157, 1120.145
1090.394, 1366.066
1091.631, 710.832
1092.868, 1145.580
1094.105, 660.314
1095.341, 395.039
1096.577, 839.750
1097.813, 244.443
1099.049, 419.123
1100.284, 393.785
1101.519, 238.434
1102.755, 463.064
1103.990, 467.684
1105.224, 322.287
1106.459, 696.875
1107.693, 451.445
1108.928, 806.008
1110.162, 1130.555
1111.395, 765.084
1112.629, 1079.602
1113.863, 524.100
1115.096, 628.592
1116.329, 773.070
1117.562, 687.529
1118.795, 701.973
1120.027, 526.400
1121.259, 1060.812
1122.492, 1595.207
1123.723, 939.582
1124.955, 893.943
1126.187, 608.287
1127.418, 442.613
1128.649, 426.922
1129.880, 371.213
1131.111, 285.488
1132.342, 429.744
1133.572, 163.982
1134.802, 268.207
1136.033, 192.408
1137.262, 33.404
1138.492, 59.256
1139.722, 25.152
1140.951, 18.914
1142.180, 252.955
1143.409, 513.023
1144.638, 30.854
1145.866, 115.287
1147.095, 331.488
1148.323, 62.209
1149.551, 304.113
1150.779, 340.535
1152.006, 117.066
1153.234, 383.654
1154.461, 20.357
1155.688, 17.100
1156.915, 223.875
1158.141, 269.264
1159.368, 17.615
1160.594, 75.471
1161.820, 368.533
1163.046, 91.576
1164.272, 354.598
1165.498, 167.598
1166.723, 350.580
1167.948, 393.543
1169.173, 306.488
1170.398, 609.410
1171.623, 642.316
1172.847, 165.203
1174.071, 788.070
1175.295, 480.916
1176.519, 423.744
1177.743, 446.551
1178.966, 209.340
1180.190, 132.109
1181.413, 294.857
1182.636, 12.414
1183.858, 320.279
1185.081, 22.953
1186.303, 35.600
1187.526, 348.219
1188.748, 190.816
1189.969, 273.395
1191.191, 475.955
1192.412, 301.508
1193.634, 280.938
1194.855, 213.359
1196.076, 354.238
1197.296, 298.057
1198.517, 9.668
1199.737, 322.574
1200.957, 294.795
1202.177, 186.998
1203.397, 139.184
1204.617, 351.346
1205.836, 83.492
1207.055, 285.619
1208.274, 152.273
1209.493, 20.229
1210.712, 41.783
1211.930, 286.227
1213.148, 405.672
1214.367, 427.553
1215.584, 50.582
1216.802, 701.242
1218.020, 453.051
1219.237, 134.842
1220.454, 406.615
1221.671, 11.629
1222.888, 260.102
1224.105, 131.814
1225.321, 83.512
1226.537, 596.324
1227.753, 97.992
1228.969, 359.645
1230.185, 711.281
1231.400, 522.906
1232.616, 834.520
1233.831, 856.117
1235.046, 488.354
1236.261, 1139.930
1237.475, 1221.490
1238.689, 1083.045
1239.904, 1145.938
1241.118, 1077.469
1242.332, 699.197
1243.545, 1450.719
1244.759, 552.234
1245.972, 1215.672
1247.185, 1077.180
1248.398, 828.668
1249.611, 1170.143
1250.823, 631.594
1252.036, 903.031
1253.248, 724.453
1254.460, 585.854
1255.671, 667.236
1256.883, 678.602
1258.095, 639.951
1259.306, 1131.281
1260.517, 652.594
1261.728, 1223.891
1262.938, 1085.170
1264.149, 1176.436
1265.359, 1497.684
1266.569, 1648.920
1267.779, 1660.141
1268.989, 1899.316
1270.199, 1667.873
1271.408, 2057.207
1272.617, 2297.730
1273.826, 1858.893
1275.035, 2106.834
1276.244, 2098.475
1277.452, 1825.643
1278.661, 1927.771
1279.869, 1218.514
1281.077, 1441.258
1282.285, 1753.145
1283.492, 820.223
1284.700, 1431.096
1285.907, 1220.412
1287.114, 849.801
1288.321, 1184.379
1289.527, 1315.434
1290.734, 924.805
1291.940, 1445.559
1293.146, 1416.602
1294.352, 1707.428
1295.558, 1728.467
1296.763, 1089.502
1297.969, 1440.535
1299.174, 1121.568
1300.379, 1172.604
1301.584, 1393.637
1302.788, 1004.662
1303.993, 915.688
1305.197, 1516.711
1306.401, 1067.732
1307.605, 1908.754
1308.809, 2379.760
1310.013, 1750.770
1311.216, 2491.779
1312.419, 2052.768
1313.622, 2102.293
1314.825, 2583.287
1316.028, 2043.592
1317.230, 2284.104
1318.432, 2805.107
1319.634, 2316.113
1320.836, 2847.125
1322.038, 2048.146
1323.240, 2091.037
1324.441, 2122.068
1325.642, 1633.105
1326.843, 1424.797
1328.044, 1655.836
1329.245, 825.578
1330.445, 1046.637
1331.645, 1097.707
1332.845, 468.791
1334.045, 819.887
1335.245, 410.998
1336.445, 432.029
1337.644, 483.170
1338.843, 339.785
1340.042, 499.500
1341.241, 640.430
1342.440, 74.021
1343.638, 835.260
1344.836, 316.521
1346.034, 35.701
1347.232, 907.018
1348.430, 58.367
1349.628, 369.746
1350.825, 711.160
1352.022, 21.469
1353.219, 472.961
1354.416, 244.496
1355.613, 103.924
1356.809, 457.701
1358.005, 19.381
1359.202, 51.117
1360.398, 332.914
1361.593, 244.783
1362.789, 26.725
1363.984, 71.248
1365.179, 170.867
1366.374, 483.084
1367.569, 105.414
1368.764, 122.125
1369.958, 700.473
1371.153, 26.758
1372.347, 56.477
1373.541, 579.691
1374.735, 156.891
1375.928, 286.812
1377.122, 647.580
1378.315, 218.332
1379.508, 819.072
1380.701, 809.805
1381.893, 290.521
1383.086, 761.230
1384.278, 621.930
1385.470, 552.621
1386.662, 843.303
1387.854, 324.012
1389.046, 774.754
1390.237, 845.561
1391.428, 296.453
1392.619, 1057.471
1393.810, 388.633
1395.001, 339.951
1396.191, 391.367
1397.382, 102.879
1398.572, 264.432
1399.762, 675.996
1400.952, 32.420
1402.141, 349.178
1403.331, 430.791
1404.520, 117.578
1405.709, 744.068
1406.898, 335.734
1408.087, 7.418
1409.275, 739.131
1410.464, 300.887
1411.652, 542.674
1412.840, 784.484
1414.028, 266.375
1415.215, 488.348
1416.403, 570.479
1417.590, 202.662
1418.777, 604.883
1419.964, 807.135
1421.151, 229.426
1422.338, 911.836
1423.524, 134.359
1424.710, 1006.980
1425.896, 1149.684
1427.082, 442.430
1428.268, 1525.230
1429.453, 1178.086
1430.639, 809.010
1431.824, 1711.918
1433.009, 1494.863
1434.194, 1866.646
1435.378, 2319.633
1436.563, 2210.072
1437.747, 3302.658
1438.931, 3715.611
1440.115, 3744.668
1441.299, 4697.574
1442.482, 5050.570
1443.666, 4983.658
1444.849, 5416.848
1446.032, 5580.143
1447.215, 5903.549
1448.397, 6377.064
1449.580, 5920.688
1450.762, 6534.410
1451.944, 6628.234
1453.126, 6501.609
1454.308, 7112.604
1455.490, 6826.680
1456.671, 6410.842
1457.852, 6545.166
1459.033, 6469.621
1460.214, 5944.215
1461.395, 6128.938
1462.575, 5233.805
1463.756, 5148.814
1464.936, 4883.969
1466.116, 4319.270
1467.296, 3904.760
1468.475, 4100.457
1469.655, 3256.391
1470.834, 3382.646
1472.013, 3119.240
1473.192, 2536.195
1474.371, 2443.459
1475.550, 2371.047
1476.728, 2268.982
1477.906, 2717.295
1479.084, 1986.141
1480.262, 2595.545
1481.440, 2295.479
1482.617, 2185.994
1483.795, 2617.160
1484.972, 2239.062
1486.149, 1611.799
1487.326, 1855.477
1488.502, 1570.203
1489.679, 1066.125
1490.855, 1503.438
1492.031, 852.361
1493.207, 573.170
1494.383, 906.240
1495.559, 182.061
1496.734, 331.297
1497.909, 884.891
1499.084, 25.746
1500.259, 631.604
1501.434, 281.844
1502.608, 0.000
##END=



