##NAMES=Edingtonite
##RRUFFID=R040110
##IDEAL CHEMISTRY=Ba(Si_3_Al_2_)O_10_&#183;4H_2_O
##LOCALITY=2350 level, Brunswick 12 mine, Bathhurst, New Brunswick, Canada
##OWNER=RRUFF
##SOURCE=National Museums of Canada
##DESCRIPTION=Colorless rectangular prism
##STATUS=The identification of this mineral has been confirmed by X-ray diffraction and chemical analysis
##URL=rruff.info/R040110
##MEASURED CHEMISTRY=Ba_1.00_(Si_3.00_Al_2.00_)O_10_Â·4H_2_O
##PIN_ID=M00273
##ORIENTATION=Laser parallel to -a* (-1 0 0). Fiducial mark perpendicular to laser is parallel to b [0 1 0]
53.91000, 0.0000000E+00
55.14900, 78.39661
56.38700, 126.3675
57.62600, 111.3145
58.86400, 16.26978
60.10300, 37.68292
61.34100, 21.29913
62.57900, 29.81250
63.81700, 137.3156
65.05400, 217.1144
66.29200, 219.2979
67.52900, 239.1077
68.76700, 186.9143
70.00400, 216.1970
71.24100, 223.5200
72.47700, 298.3235
73.71400, 342.8608
74.95100, 551.2638
76.18700, 706.4580
77.42300, 955.2114
78.65900, 1270.322
79.89500, 1661.614
81.13100, 2068.934
82.36700, 2494.148
83.60200, 2756.148
84.83700, 3279.837
86.07200, 3816.121
87.30800, 4131.911
88.54200, 4709.137
89.77700, 5132.734
91.01200, 5561.589
92.24600, 6065.515
93.48000, 6453.011
94.71400, 6943.280
95.94800, 7416.513
97.18200, 7745.655
98.41600, 8124.661
99.64900, 8299.495
100.8830, 8516.119
102.1160, 8493.510
103.3490, 8466.639
104.5820, 8091.483
105.8150, 8194.020
107.0470, 8266.230
108.2800, 8528.098
109.5120, 8403.605
110.7440, 8574.752
111.9760, 8824.590
113.2080, 9217.055
114.4400, 9560.174
115.6710, 9956.870
116.9030, 10208.11
118.1340, 10285.88
119.3650, 10440.19
120.5960, 10555.03
121.8270, 10334.40
123.0580, 10529.33
124.2880, 10181.80
125.5190, 9914.823
126.7490, 9637.387
127.9790, 9507.350
129.2090, 9245.344
130.4390, 8934.348
131.6680, 8675.383
132.8980, 8344.533
134.1270, 8327.838
135.3560, 8093.317
136.5850, 7738.000
137.8140, 7795.896
139.0430, 7965.018
140.2710, 8256.380
141.5000, 8430.993
142.7280, 8684.858
143.9560, 9179.985
145.1840, 9664.382
146.4120, 10344.04
147.6390, 10885.98
148.8670, 11486.20
150.0940, 11985.68
151.3210, 12819.45
152.5490, 12971.49
153.7750, 13116.81
155.0020, 12704.41
156.2290, 12242.29
157.4550, 11447.44
158.6810, 10450.87
159.9080, 9627.571
161.1340, 8708.547
162.3590, 7810.792
163.5850, 7137.308
164.8110, 6327.090
166.0360, 5758.187
167.2610, 5173.206
168.4860, 4818.870
169.7110, 4412.558
170.9360, 4094.067
172.1610, 3744.484
173.3850, 3463.255
174.6100, 3227.612
175.8340, 2939.627
177.0580, 2853.891
178.2820, 2604.405
179.5050, 2481.164
180.7290, 2351.167
181.9520, 2228.419
183.1760, 2120.726
184.3990, 2017.688
185.6220, 1923.291
186.8450, 1842.120
188.0670, 1769.566
189.2900, 1703.403
190.5120, 1634.495
191.7340, 1590.183
192.9560, 1520.303
194.1780, 1485.777
195.4000, 1383.562
196.6220, 1364.620
197.8430, 1221.885
199.0640, 1250.329
200.2860, 1360.949
201.5070, 1196.848
202.7270, 1266.469
203.9480, 1209.804
205.1690, 920.0024
206.3890, 858.2363
207.6090, 795.2749
208.8290, 803.6074
210.0490, 696.9727
211.2690, 571.8843
212.4890, 711.3066
213.7080, 548.2100
214.9280, 530.5679
216.1470, 523.3555
217.3660, 416.5532
218.5850, 431.1411
219.8030, 325.1025
221.0220, 377.4214
222.2400, 391.0840
223.4590, 459.0767
224.6770, 365.3882
225.8950, 614.0073
227.1120, 549.9248
228.3300, 737.1299
229.5480, 982.6157
230.7650, 1167.373
231.9820, 1326.395
233.1990, 1588.672
234.4160, 1727.200
235.6330, 1756.972
236.8490, 1650.981
238.0660, 1602.222
239.2820, 1362.688
240.4980, 1109.376
241.7140, 952.2812
242.9300, 649.3984
244.1460, 508.7246
245.3610, 517.2554
246.5770, 359.9873
247.7920, 384.9170
249.0070, 399.0415
250.2220, 228.3569
251.4370, 267.8613
252.6510, 184.5513
253.8660, 162.4233
255.0800, 241.4756
256.2940, 357.7051
257.5080, 247.1079
258.7220, 456.6831
259.9360, 391.4268
261.1490, 198.3364
262.3630, 109.4092
263.5760, 173.6436
264.7890, 223.0366
266.0020, 167.5869
267.2150, 197.2271
268.4270, 92.14844
269.6400, 149.1553
270.8520, 75.31055
272.0640, 14.61084
273.2760, 54.05518
274.4880, 84.64062
275.7000, 25.36768
276.9120, 1.237305
278.1230, 0.2485350
279.3340, 60.59863
280.5450, 8.307129
281.7560, 133.8750
282.9670, 123.3101
284.1780, 12.61279
285.3880, 41.77686
286.5980, 0.8056640
287.8090, 11.69775
289.0190, 8.545410
290.2290, 71.07715
291.4380, 105.5688
292.6480, 110.9331
293.8570, 3.172363
295.0670, 49.71875
296.2760, 55.74023
297.4850, 159.8901
298.6930, 139.1675
299.9020, 177.5708
301.1110, 121.0996
302.3190, 292.7539
303.5270, 234.5303
304.7350, 292.4312
305.9430, 399.4526
307.1510, 471.5986
308.3580, 446.5791
309.5660, 510.1099
310.7730, 409.2983
311.9800, 403.6133
313.1870, 428.8906
314.3940, 605.9917
315.6010, 417.8521
316.8070, 486.6118
318.0130, 377.8203
319.2200, 375.5439
320.4260, 410.1582
321.6310, 302.0488
322.8370, 212.3447
324.0430, 161.6479
325.2480, 148.2969
326.4540, 216.8218
327.6590, 294.5190
328.8640, 218.3760
330.0680, 210.5298
331.2730, 169.2261
332.4780, 250.4941
333.6820, 325.4424
334.8860, 250.0010
336.0900, 248.2988
337.2940, 356.0454
338.4980, 340.9351
339.7010, 403.8418
340.9050, 510.8232
342.1080, 574.8960
343.3110, 708.6255
344.5140, 851.2207
345.7170, 1004.490
346.9200, 1152.892
348.1220, 1353.425
349.3240, 1626.093
350.5270, 1829.896
351.7290, 2021.833
352.9310, 2407.905
354.1320, 2823.104
355.3340, 2964.423
356.5350, 3296.860
357.7370, 3563.413
358.9380, 3706.080
360.1390, 3558.858
361.3400, 3599.746
362.5400, 3356.742
363.7410, 2976.844
364.9410, 2676.050
366.1410, 2374.360
367.3410, 2054.771
368.5410, 1751.281
369.7410, 1484.891
370.9400, 1238.838
372.1400, 1046.400
373.3390, 826.2964
374.5380, 700.2871
375.7370, 559.3696
376.9360, 418.5430
378.1350, 347.8066
379.3330, 306.1582
380.5310, 216.5981
381.7300, 215.1240
382.9280, 237.7358
384.1260, 162.4316
385.3230, 132.2119
386.5210, 98.07373
387.7180, 81.01758
388.9160, 127.0425
390.1130, 185.1465
391.3100, 221.3286
392.5060, 204.5898
393.7030, 221.9272
394.9000, 215.3413
396.0960, 213.8306
397.2920, 326.3936
398.4880, 416.0308
399.6840, 559.7412
400.8800, 424.5234
402.0750, 466.3765
403.2710, 481.2998
404.4660, 605.2930
405.6610, 677.3545
406.8560, 678.4844
408.0510, 821.6816
409.2450, 728.9448
410.4400, 828.2749
411.6340, 910.6689
412.8280, 931.1279
414.0220, 996.6504
415.2160, 1102.237
416.4100, 1341.885
417.6030, 1356.594
418.7970, 1615.364
419.9900, 1746.196
421.1830, 1850.047
422.3760, 2069.953
423.5690, 2239.457
424.7610, 2368.443
425.9540, 2506.001
427.1460, 2639.786
428.3380, 2822.924
429.5300, 2801.886
430.7220, 2761.183
431.9140, 2848.488
433.1050, 2671.931
434.2970, 2566.768
435.4880, 2329.174
436.6790, 2093.535
437.8700, 1864.136
439.0610, 1596.842
440.2510, 1356.598
441.4420, 1203.402
442.6320, 947.2544
443.8220, 658.1885
445.0120, 651.1343
446.2020, 446.1274
447.3910, 416.5020
448.5810, 215.5850
449.7700, 188.6909
450.9600, 55.77002
452.1490, 64.83643
453.3370, 7.582031
454.5260, 51.02393
455.7150, 105.6499
456.9030, 117.6343
458.0910, 163.0361
459.2800, 174.4199
460.4670, 158.8647
461.6550, 219.3711
462.8430, 194.6201
464.0300, 195.6113
465.2180, 143.9888
466.4050, 195.4341
467.5920, 124.3867
468.7790, 191.9819
469.9650, 99.64111
471.1520, 209.3813
472.3380, 101.1426
473.5250, 71.04199
474.7110, 59.98242
475.8970, 50.96045
477.0820, 40.03076
478.2680, 51.25146
479.4540, 99.73145
480.6390, 68.32324
481.8240, 166.6064
483.0090, 173.6543
484.1940, 159.7754
485.3780, 229.9360
486.5630, 271.1401
487.7470, 380.3750
488.9320, 439.6484
490.1160, 559.9604
491.3000, 766.3018
492.4830, 675.6758
493.6670, 914.1055
494.8500, 872.5859
496.0340, 1101.110
497.2170, 1171.691
498.4000, 1301.302
499.5820, 1418.939
500.7650, 1613.598
501.9480, 1923.295
503.1300, 2154.018
504.3120, 2338.769
505.4940, 2878.551
506.6760, 3130.382
507.8580, 3706.237
509.0390, 4343.111
510.2210, 5130.006
511.4020, 6051.915
512.5830, 7260.845
513.7640, 8643.815
514.9450, 10832.81
516.1250, 13123.82
517.3060, 16104.85
518.4860, 20141.90
519.6660, 24707.96
520.8460, 29749.03
522.0260, 35499.11
523.2060, 41210.21
524.3850, 47418.32
525.5650, 52224.45
526.7440, 55598.56
527.9230, 56418.70
529.1020, 54954.87
530.2810, 50939.02
531.4590, 44569.18
532.6380, 37738.36
533.8160, 31321.54
534.9940, 25543.73
536.1720, 20631.93
537.3500, 16771.13
538.5270, 13879.34
539.7050, 11548.56
540.8820, 9590.777
542.0590, 8216.004
543.2360, 7050.235
544.4130, 5924.470
545.5900, 5219.707
546.7660, 4473.947
547.9430, 4215.189
549.1190, 3594.434
550.2950, 3278.679
551.4710, 3273.930
552.6470, 2814.182
553.8220, 2372.435
554.9980, 2095.688
556.1730, 1871.939
557.3480, 1701.190
558.5230, 1548.440
559.6980, 1401.945
560.8730, 1300.771
562.0470, 1217.175
563.2220, 1124.416
564.3960, 1148.652
565.5700, 1061.888
566.7440, 992.1206
567.9170, 969.3564
569.0910, 819.5938
570.2640, 746.8271
571.4380, 721.0566
572.6110, 702.2808
573.7840, 566.5000
574.9570, 593.7144
576.1290, 606.9258
577.3020, 487.1357
578.4740, 449.3447
579.6460, 487.5464
580.8180, 384.7397
581.9900, 394.9253
583.1620, 440.1021
584.3330, 325.2695
585.5040, 344.4272
586.6760, 372.5752
587.8470, 297.7134
589.0180, 421.8379
590.1880, 254.9512
591.3590, 260.0449
592.5290, 160.4097
593.7000, 236.3140
594.8700, 188.6611
596.0400, 304.9746
597.2090, 192.4233
598.3790, 102.1323
599.5490, 119.1528
600.7180, 83.09277
601.8870, 225.1851
603.0560, 142.5845
604.2250, 224.1934
605.3940, 306.6016
606.5620, 264.7910
607.7300, 168.7173
608.8990, 263.3271
610.0670, 195.7324
611.2350, 253.3164
612.4020, 167.6533
613.5700, 238.5981
614.7370, 183.6851
615.9050, 211.0137
617.0720, 213.8125
618.2390, 95.15820
619.4060, 196.3608
620.5720, 95.12451
621.7390, 114.9136
622.9050, 187.7617
624.0710, 313.7583
625.2370, 196.3994
626.4030, 351.2603
627.5690, 337.9751
628.7340, 296.9102
629.9000, 405.0996
631.0650, 379.8052
632.2300, 351.0488
633.3950, 551.9409
634.5600, 437.7510
635.7240, 489.9561
636.8890, 626.6421
638.0530, 656.0244
639.2170, 785.7607
640.3810, 804.5186
641.5450, 924.3237
642.7080, 975.0771
643.8720, 1082.881
645.0350, 1279.417
646.1980, 1579.820
647.3610, 1741.807
648.5240, 2029.914
649.6870, 2332.109
650.8490, 2447.694
652.0120, 2867.302
653.1740, 2998.924
654.3360, 3067.325
655.4980, 3144.760
656.6600, 3131.195
657.8210, 3042.114
658.9830, 2975.218
660.1440, 2742.815
661.3050, 2556.272
662.4660, 2361.921
663.6270, 2059.515
664.7870, 1827.120
665.9480, 1624.501
667.1080, 1524.396
668.2680, 1345.308
669.4280, 1200.611
670.5880, 1241.214
671.7480, 1136.486
672.9070, 1119.978
674.0670, 944.2188
675.2260, 1086.444
676.3850, 936.9722
677.5440, 914.2588
678.7030, 688.6235
679.8610, 895.9043
681.0200, 821.0483
682.1780, 747.1758
683.3360, 825.6201
684.4940, 892.9893
685.6520, 979.0669
686.8090, 875.1274
687.9670, 901.4639
689.1240, 887.4912
690.2810, 934.4541
691.4380, 998.6299
692.5950, 1036.886
693.7520, 1170.046
694.9080, 1197.986
696.0650, 1290.908
697.2210, 1446.813
698.3770, 1482.238
699.5330, 1573.996
700.6880, 1578.421
701.8440, 1745.255
702.9990, 1694.075
704.1550, 1879.873
705.3100, 1872.688
706.4650, 1950.470
707.6190, 2089.214
708.7740, 2100.939
709.9290, 2327.646
711.0830, 2252.336
712.2370, 2183.007
713.3910, 2329.987
714.5450, 2404.694
715.6980, 2376.384
716.8520, 2175.981
718.0050, 1953.561
719.1580, 1879.120
720.3110, 1688.664
721.4640, 1436.187
722.6170, 1176.692
723.7700, 1132.144
724.9220, 916.6113
726.0740, 847.0601
727.2260, 717.1538
728.3780, 634.5654
729.5300, 494.9800
730.6810, 428.6001
731.8330, 352.7720
732.9840, 293.4243
734.1350, 260.1270
735.2860, 262.3198
736.4370, 206.0059
737.5880, 275.9385
738.7380, 228.8809
739.8880, 270.7886
741.0390, 263.7251
742.1890, 168.3555
743.3380, 178.1626
744.4880, 151.9204
745.6380, 80.62500
746.7870, 84.78711
747.9360, 128.5571
749.0850, 97.37744
750.2340, 118.8394
751.3830, 140.9019
752.5310, 77.81152
753.6800, 101.8081
754.8280, 28.74658
755.9760, 50.31250
757.1240, 48.87598
758.2720, 156.7720
759.4190, 137.5664
760.5670, 6.166992
761.7140, 125.4956
762.8610, 8.682129
764.0080, 11.99561
765.1550, 51.72217
766.3020, 2.742188
767.4480, 1.685059
768.5950, 50.80518
769.7410, 22.36035
770.8870, 76.27197
772.0330, 58.93408
773.1780, 33.61523
774.3240, 89.35498
775.4690, 14.81787
776.6140, 43.95557
777.7590, 139.0654
778.9040, 28.84326
780.0490, 40.24756
781.1940, 5.197266
782.3380, 8.6914003E-02
783.4820, 74.16113
784.6260, 29.68359
785.7700, 90.59131
786.9140, 78.38184
788.0580, 166.1484
789.2010, 43.90186
790.3450, 58.37842
791.4880, 11.67236
792.6310, 53.12988
793.7730, 52.85107
794.9160, 122.4253
796.0590, 60.45312
797.2010, 140.9658
798.3430, 170.4590
799.4850, 122.9341
800.6270, 131.0049
801.7690, 124.6997
802.9100, 174.1147
804.0520, 84.51270
805.1930, 79.88770
806.3340, 180.2402
807.4750, 111.5752
808.6160, 274.8901
809.7560, 122.1875
810.8970, 199.4658
812.0370, 243.7271
813.1770, 106.9712
814.3170, 153.1958
815.4570, 34.40137
816.5960, 145.5806
817.7360, 249.7417
818.8750, 172.8862
820.0140, 100.0137
821.1530, 106.1216
822.2920, 198.2109
823.4310, 205.2832
824.5690, 101.3389
825.7070, 181.3760
826.8460, 43.39746
827.9840, 112.3936
829.1220, 88.37207
830.2590, 148.3311
831.3970, 169.2729
832.5340, 248.1992
833.6710, 268.1099
834.8080, 268.6030
835.9450, 176.8853
837.0820, 243.7490
838.2190, 176.5977
839.3550, 157.4312
840.4910, 225.2495
841.6270, 148.0527
842.7630, 150.8408
843.8990, 243.6133
845.0350, 208.3711
846.1700, 220.8477
847.3060, 184.6953
848.4410, 219.5586
849.5760, 81.25830
850.7100, 131.9409
851.8450, 130.6089
852.9800, 258.2617
854.1140, 165.9004
855.2480, 196.5366
856.3820, 144.1587
857.5160, 260.7671
858.6500, 147.3613
859.7830, 183.9424
860.9170, 167.5107
862.0500, 257.0649
863.1830, 232.6064
864.3160, 163.1362
865.4480, 213.6548
866.5810, 99.16455
867.7130, 181.6650
868.8460, 125.1680
869.9780, 147.6621
871.1100, 267.1548
872.2410, 94.63477
873.3730, 206.1094
874.5050, 114.5923
875.6360, 176.0771
876.7670, 189.5698
877.8980, 141.0518
879.0290, 52.50732
880.1590, 103.9688
881.2900, 142.3237
882.4200, 180.0142
883.5500, 189.7544
884.6800, 111.9014
885.8100, 35.77295
886.9400, 73.02979
888.0690, 165.0063
889.1990, 98.59619
890.3280, 173.4399
891.4570, 145.2017
892.5860, 147.8721
893.7140, 206.0088
894.8430, 33.19678
895.9710, 164.2744
897.1000, 30.33447
898.2280, 72.24023
899.3560, 122.4644
900.4830, 66.47021
901.6110, 22.60205
902.7380, 136.4956
903.8660, 10.88477
904.9930, 13.80371
906.1200, 10.28320
907.2460, 14.43506
908.3730, 78.47266
909.5000, 115.9673
910.6260, 134.5728
911.7520, 169.2500
912.8780, 144.1606
914.0040, 74.03125
915.1290, 27.16309
916.2550, 79.33008
917.3800, 43.58301
918.5050, 50.78564
919.6300, 72.51172
920.7550, 4.013184
921.8800, 51.37598
923.0040, 78.62891
924.1290, 21.47461
925.2530, 85.27930
926.3770, 43.95166
927.5010, 30.98682
928.6250, 39.07812
929.7480, 6.804688
930.8720, 21.62500
931.9950, 35.35791
933.1180, 41.01904
934.2410, 6.800293
935.3640, 26.62793
936.4860, 14.02490
937.6090, 36.54639
938.7310, 101.3223
939.8530, 47.56592
940.9750, 182.7720
942.0970, 194.5669
943.2180, 51.04736
944.3400, 326.8374
945.4610, 315.3896
946.5820, 362.1724
947.7030, 482.9517
948.8240, 492.4092
949.9450, 534.0884
951.0650, 571.6694
952.1860, 648.3169
953.3060, 775.0806
954.4260, 722.8413
955.5460, 844.2656
956.6650, 706.7456
957.7850, 628.4990
958.9040, 719.2500
960.0230, 514.7119
961.1420, 499.4648
962.2610, 404.2607
963.3800, 416.7822
964.4990, 549.1592
965.6170, 412.8350
966.7350, 424.5781
967.8530, 428.3213
968.9710, 351.0625
970.0890, 329.8027
971.2070, 412.5420
972.3240, 334.2930
973.4410, 501.0430
974.5580, 495.7881
975.6750, 573.5371
976.7920, 479.2578
977.9090, 411.9932
979.0250, 573.7773
980.1410, 610.5332
981.2580, 713.2891
982.3740, 812.0430
983.4890, 809.7988
984.6050, 959.2266
985.7200, 811.9102
986.8360, 999.5898
987.9510, 994.3467
989.0660, 1257.584
990.1810, 1141.341
991.2950, 1401.097
992.4100, 1383.855
993.5240, 1392.615
994.6390, 1191.375
995.7530, 1231.137
996.8660, 1244.897
997.9800, 1183.664
999.0940, 954.7539
1000.207, 863.5234
1001.320, 827.1406
1002.433, 701.9111
1003.546, 577.6533
1004.659, 610.4346
1005.772, 316.2178
1006.884, 420.8477
1007.996, 350.7285
1009.108, 361.4629
1010.220, 293.2588
1011.332, 353.0566
1012.444, 252.8574
1013.555, 233.1807
1014.666, 264.8975
1015.777, 332.7197
1016.888, 193.5469
1017.999, 243.3789
1019.110, 206.1787
1020.220, 253.3975
1021.331, 200.6035
1022.441, 196.6201
1023.551, 401.2881
1024.661, 195.1855
1025.770, 303.0938
1026.880, 394.0303
1027.989, 303.9961
1029.098, 300.4590
1030.207, 387.4287
1031.316, 412.2764
1032.425, 362.2236
1033.533, 506.2715
1034.642, 682.2578
1035.750, 565.9238
1036.858, 660.0117
1037.966, 868.1553
1039.073, 985.2236
1040.181, 1004.457
1041.288, 1179.684
1042.396, 1349.889
1043.503, 1669.945
1044.610, 1809.216
1045.716, 2062.499
1046.823, 2570.791
1047.929, 2930.207
1049.036, 3361.479
1050.142, 3741.884
1051.248, 4238.173
1052.353, 4389.555
1053.459, 4565.973
1054.564, 4533.307
1055.670, 4155.744
1056.775, 3987.188
1057.880, 3556.633
1058.985, 3183.094
1060.089, 2738.184
1061.194, 2531.845
1062.298, 2226.227
1063.402, 2036.736
1064.506, 1705.780
1065.610, 1616.533
1066.713, 1410.083
1067.817, 1241.638
1068.920, 1201.584
1070.023, 1053.894
1071.126, 894.4688
1072.229, 950.0498
1073.332, 909.6387
1074.435, 724.2354
1075.537, 753.5312
1076.639, 659.1416
1077.741, 689.7578
1078.843, 608.3809
1079.945, 465.0098
1081.046, 613.6455
1082.148, 541.2871
1083.249, 536.9385
1084.350, 382.5996
1085.451, 472.2676
1086.551, 339.9414
1087.652, 374.6221
1088.752, 315.3096
1089.853, 376.0049
1090.953, 276.7051
1092.053, 288.7119
1093.152, 350.4268
1094.252, 246.1465
1095.351, 320.8770
1096.451, 271.6152
1097.550, 219.3594
1098.649, 244.1123
1099.748, 240.8691
1100.846, 314.6328
1101.945, 175.4033
1103.043, 218.1787
1104.141, 262.8125
1105.239, 143.6006
1106.337, 137.3945
1107.434, 219.1934
1108.532, 130.8877
1109.629, 91.69922
1110.726, 2.483398
1111.823, 119.3389
1112.920, 131.1680
1114.017, 227.0010
1115.113, 233.1279
1116.210, 24.68750
1117.306, 233.5391
1118.402, 198.3984
1119.498, 197.2646
1120.593, 74.86523
1121.689, 85.98926
1122.784, 57.85059
1123.879, 107.7158
1124.974, 155.5879
1126.069, 94.46484
1127.164, 118.3477
1128.259, 171.2363
1129.353, 74.72461
1130.447, 17.37500
1131.541, 116.5283
1132.635, 141.4355
1133.729, 108.3496
1134.822, 150.7363
1135.916, 92.66113
1137.009, 59.59277
1138.102, 19.52832
1139.195, 6.529297
1140.288, 79.07520
1141.380, 72.02637
1142.473, 73.98340
1143.565, 78.94629
1144.657, 77.16699
1145.749, 84.75391
1146.841, 78.38770
1147.932, 128.3799
1149.024, 118.3750
1150.115, 195.3760
1151.206, 82.31445
1152.297, 22.90723
1153.388, 109.0176
1154.479, 109.3564
1155.569, 105.3789
1156.659, 82.40625
1157.750, 83.43555
1158.839, 0.5292970
1159.929, 130.4180
1161.019, 161.6514
1162.108, 71.29980
1163.198, 73.72656
1164.287, 40.75586
1165.376, 86.78711
1166.465, 93.82324
1167.553, 8.865234
1168.642, 89.90918
1169.730, 52.31055
1170.818, 29.39453
1171.906, 126.5068
1172.994, 88.58008
1174.082, 22.04199
1175.170, 119.0283
1176.257, 4.100586
1177.344, 100.1738
1178.431, 2.739258
1179.518, 46.02832
1180.605, 125.2822
1181.691, 16.30859
1182.778, 81.82520
1183.864, 76.94043
1184.950, 11.05762
1186.036, 32.17578
1187.122, 85.29395
1188.207, 84.41406
1189.292, 90.53418
1190.378, 67.65625
1191.463, 85.78418
1192.548, 110.9189
1193.632, 57.05762
1194.717, 128.1982
1195.801, 2.659180
1196.886, 11.48340
1197.970, 124.6240
1199.054, 58.76562
1200.137, 4.910156
1201.221, 150.0576
1202.305, 88.20410
1203.388, 123.3516
1204.471, 146.4980
1205.554, 12.35449
1206.637, 139.7852
1207.719, 31.92676
1208.802, 113.0664
1209.884, 172.2061
1210.966, 95.34668
1212.048, 133.4863
1213.130, 27.96191
1214.212, 101.1084
1215.293, 45.25391
1216.374, 157.3975
1217.456, 142.5420
1218.536, 77.68555
1219.617, 180.8281
1220.698, 71.97070
1221.778, 18.88672
1222.859, 164.2422
1223.939, 70.37109
1225.019, 128.5029
1226.099, 81.63477
1227.178, 154.7646
1228.258, 110.8945
1229.337, 65.02344
1230.417, 65.15234
1231.496, 71.27832
1232.574, 60.40430
1233.653, 40.47070
1234.732, 69.67578
1235.810, 206.7725
1236.888, 92.86914
