##NAMES=Edingtonite
##RRUFFID=R040110
##IDEAL CHEMISTRY=Ba(Si_3_Al_2_)O_10_&#183;4H_2_O
##LOCALITY=2350 level, Brunswick 12 mine, Bathhurst, New Brunswick, Canada
##OWNER=RRUFF
##SOURCE=National Museums of Canada
##DESCRIPTION=Colorless rectangular prism
##STATUS=The identification of this mineral has been confirmed by X-ray diffraction and chemical analysis
##URL=rruff.info/R040110
##MEASURED CHEMISTRY=Ba_1.00_(Si_3.00_Al_2.00_)O_10_Â·4H_2_O
##PIN_ID=M00390
##ORIENTATION=Laser parallel to -c* (0 0 -1). Fiducial mark perpendicular to laser is parallel to a [1 0 0]
53.91000, 0.0000000E+00
55.14900, 50.43219
56.38700, 66.88507
57.62600, 139.2315
58.86400, 186.3996
60.10300, 172.0910
61.34100, 97.09235
62.57900, 44.94440
63.81700, 11.76050
65.05400, 60.47656
66.29200, 39.65588
67.52900, 11.27710
68.76700, 90.94080
70.00400, 127.9991
71.24100, 175.1598
72.47700, 184.1793
73.71400, 418.8531
74.95100, 545.9807
76.18700, 838.3679
77.42300, 947.8389
78.65900, 1162.236
79.89500, 1449.422
81.13100, 1670.274
82.36700, 2004.684
83.60200, 2252.556
84.83700, 2661.806
86.07200, 2884.358
87.30800, 3191.146
88.54200, 3487.124
89.77700, 3787.274
91.01200, 4165.592
92.24600, 4502.009
93.48000, 4706.424
94.71400, 5095.749
95.94800, 5345.911
97.18200, 5589.857
98.41600, 5934.545
99.64900, 6277.933
100.8830, 6427.988
102.1160, 6579.686
103.3490, 6756.998
104.5820, 6531.905
105.8150, 6584.385
107.0470, 6589.422
108.2800, 6847.998
109.5120, 6565.100
110.7440, 6187.716
111.9760, 6294.831
113.2080, 6446.433
114.4400, 6918.512
115.6710, 7219.059
116.9030, 7467.064
118.1340, 7832.526
119.3650, 8337.435
120.5960, 8886.801
121.8270, 9371.713
123.0580, 10039.28
124.2880, 10765.57
125.5190, 11472.60
126.7490, 12252.46
127.9790, 13209.84
129.2090, 14003.26
130.4390, 14764.67
131.6680, 15442.09
132.8980, 16087.02
134.1270, 16612.58
135.3560, 17116.29
136.5850, 17477.82
137.8140, 17657.48
139.0430, 17921.27
140.2710, 18229.22
141.5000, 18791.32
142.7280, 19669.60
143.9560, 20653.05
145.1840, 21667.69
146.4120, 22754.51
147.6390, 23863.53
148.8670, 24982.74
150.0940, 26154.16
151.3210, 27118.77
152.5490, 27183.59
153.7750, 26821.62
155.0020, 25904.85
156.2290, 23865.30
157.4550, 22089.96
158.6810, 20131.82
159.9080, 17896.90
161.1340, 15897.19
162.3590, 14180.68
163.5850, 12714.40
164.8110, 11421.32
166.0360, 10288.45
167.2610, 9718.795
168.4860, 8790.346
169.7110, 8199.105
170.9360, 7781.075
172.1610, 7259.247
173.3850, 6812.630
174.6100, 6478.217
175.8340, 6196.012
177.0580, 5853.009
178.2820, 5648.211
179.5050, 5424.619
180.7290, 5160.227
181.9520, 5040.384
183.1760, 4920.394
184.3990, 4563.603
185.6220, 4604.949
186.8450, 4382.700
188.0670, 4240.901
189.2900, 4149.977
190.5120, 4096.897
191.7340, 3913.762
192.9560, 3770.909
194.1780, 3636.797
195.4000, 3485.890
196.6220, 3393.909
197.8430, 3395.815
199.0640, 3203.517
200.2860, 3318.913
201.5070, 3298.104
202.7270, 3047.646
203.9480, 2902.819
205.1690, 2683.806
206.3890, 2552.266
207.6090, 2384.814
208.8290, 2327.390
210.0490, 2282.366
211.2690, 2252.594
212.4890, 2191.574
213.7080, 2157.404
214.9280, 2104.873
216.1470, 1955.708
217.3660, 1931.426
218.5850, 1900.412
219.8030, 1901.252
221.0220, 1949.401
222.2400, 1956.848
223.4590, 1884.582
224.6770, 1965.594
225.8950, 2035.873
227.1120, 2033.415
228.3300, 2217.207
229.5480, 2262.412
230.7650, 2243.690
231.9820, 2314.201
233.1990, 2194.939
234.4160, 2185.899
235.6330, 2061.075
236.8490, 1638.463
238.0660, 1512.058
239.2820, 1357.854
240.4980, 1157.847
241.7140, 1142.033
242.9300, 1008.410
244.1460, 937.9727
245.3610, 909.7188
246.5770, 812.6460
247.7920, 815.7510
249.0070, 745.0317
250.2220, 733.4844
251.4370, 774.1074
252.6510, 776.8984
253.8660, 771.8555
255.0800, 806.9761
256.2940, 749.2583
257.5080, 965.7012
258.7220, 1119.301
259.9360, 1022.056
261.1490, 923.9668
262.3630, 877.0288
263.5760, 931.2417
264.7890, 936.4824
266.0020, 1025.665
267.2150, 1087.765
268.4270, 1277.561
269.6400, 1403.497
270.8520, 1602.572
272.0640, 1679.780
273.2760, 1729.120
274.4880, 1746.225
275.7000, 1627.185
276.9120, 1607.912
278.1230, 1493.769
279.3340, 1299.756
280.5450, 1216.875
281.7560, 1111.125
282.9670, 857.5049
284.1780, 850.0166
285.3880, 703.6587
286.5980, 601.4312
287.8090, 530.3330
289.0190, 432.3652
290.2290, 390.5264
291.4380, 443.8154
292.6480, 250.2334
293.8570, 269.7783
295.0670, 143.4512
296.2760, 251.2495
297.4850, 112.1738
298.6930, 159.2246
299.9020, 117.3989
301.1110, 112.6978
302.3190, 74.11963
303.5270, 65.66406
304.7350, 115.3330
305.9430, 72.12939
307.1510, 14.04639
308.3580, 13.91650
309.5660, 83.23779
310.7730, 85.51074
311.9800, 82.90234
313.1870, 128.4126
314.3940, 33.95898
315.6010, 148.7803
316.8070, 99.63818
318.0130, 2.373047
319.2200, 67.72852
320.4260, 46.05566
321.6310, 140.7295
322.8370, 92.31152
324.0430, 93.77490
325.2480, 52.12695
326.4540, 51.36475
327.6590, 137.4883
328.8640, 47.51270
330.0680, 168.4346
331.2730, 215.2646
332.4780, 117.0098
333.6820, 154.6426
334.8860, 53.22070
336.0900, 196.7090
337.2940, 134.1504
338.4980, 187.5430
339.7010, 164.8906
340.9050, 237.1855
342.1080, 179.4482
343.3110, 157.6846
344.5140, 14.90527
345.7170, 43.03320
346.9200, 2.921875
348.1220, 6.878906
349.3240, 26.47461
350.5270, 9.038086
351.7290, 2.590820
352.9310, 55.38574
354.1320, 110.3369
355.3340, 103.4678
356.5350, 75.75879
357.7370, 201.2090
358.9380, 109.8252
360.1390, 203.5811
361.3400, 157.4766
362.5400, 154.5312
363.7410, 172.7266
364.9410, 200.0654
366.1410, 290.5488
367.3410, 246.1514
368.5410, 118.9189
369.7410, 201.7969
370.9400, 202.7998
372.1400, 203.9365
373.3390, 10.19434
374.5380, 231.5811
375.7370, 138.0967
376.9360, 85.76855
378.1350, 191.5811
379.3330, 233.5254
380.5310, 344.5967
381.7300, 357.5928
382.9280, 230.1133
384.1260, 375.5518
385.3230, 384.1104
386.5210, 372.7832
387.7180, 435.5723
388.9160, 406.4717
390.1130, 567.4824
391.3100, 555.6064
392.5060, 760.8389
393.7030, 771.1865
394.9000, 759.6426
396.0960, 915.2100
397.2920, 1144.885
398.4880, 1143.666
399.6840, 1279.553
400.8800, 1338.545
402.0750, 1195.642
403.2710, 1291.842
404.4660, 1125.146
405.6610, 1094.553
406.8560, 1074.062
408.0510, 1147.673
409.2450, 1044.385
410.4400, 1076.197
411.6340, 963.1094
412.8280, 1130.121
414.0220, 937.2324
415.2160, 1011.441
416.4100, 1180.749
417.6030, 1321.153
418.7970, 1468.654
419.9900, 1543.253
421.1830, 1822.946
422.3760, 1825.734
423.5690, 1958.618
424.7610, 1987.596
425.9540, 2220.668
427.1460, 2242.833
428.3380, 2506.091
429.5300, 2456.441
430.7220, 2302.883
431.9140, 2422.416
433.1050, 2342.039
434.2970, 2339.752
435.4880, 2046.556
436.6790, 1918.448
437.8700, 1601.430
439.0610, 1534.499
440.2510, 1290.655
441.4420, 1154.898
442.6320, 1177.229
443.8220, 983.6445
445.0120, 848.1455
446.2020, 763.7314
447.3910, 605.6436
448.5810, 606.6074
449.7700, 609.4453
450.9600, 438.3652
452.1490, 497.0635
453.3370, 387.1465
454.5260, 320.3125
455.7150, 432.6934
456.9030, 490.1123
458.0910, 342.6797
459.2800, 593.5449
460.4670, 501.5723
461.6550, 666.0811
462.8430, 669.8086
464.0300, 679.2178
465.2180, 764.4736
466.4050, 721.1299
467.5920, 837.4600
468.7790, 944.3984
469.9650, 1138.330
471.1520, 1078.178
472.3380, 1206.368
473.5250, 1350.248
474.7110, 1280.890
475.8970, 1745.803
477.0820, 1601.080
478.2680, 1830.789
479.4540, 2125.356
480.6390, 2300.525
481.8240, 2500.264
483.0090, 2690.766
484.1940, 2788.713
485.3780, 3044.654
486.5630, 3112.531
487.7470, 3366.369
488.9320, 3649.546
490.1160, 3845.308
491.3000, 4000.237
492.4830, 4206.078
493.6670, 4246.830
494.8500, 4262.266
496.0340, 4346.125
497.2170, 4404.623
498.4000, 4584.958
499.5820, 4560.870
500.7650, 4646.132
501.9480, 4742.254
503.1300, 4531.816
504.3120, 4678.284
505.4940, 4636.648
506.6760, 4914.190
507.8580, 5265.995
509.0390, 5578.369
510.2210, 6072.565
511.4020, 6881.494
512.5830, 7983.304
513.7640, 9106.369
514.9450, 11156.23
516.1250, 13507.47
517.3060, 16446.02
518.4860, 20279.01
519.6660, 24693.91
520.8460, 29155.25
522.0260, 34642.59
523.2060, 39691.97
524.3850, 44659.79
525.5650, 48958.98
526.7440, 51724.84
527.9230, 51639.44
529.1020, 49539.48
530.2810, 44690.98
531.4590, 39553.52
532.6380, 32659.45
533.8160, 27123.09
534.9940, 22115.03
536.1720, 17860.77
537.3500, 14718.27
538.5270, 12168.06
539.7050, 9800.883
540.8820, 8156.739
542.0590, 7018.633
543.2360, 5810.563
544.4130, 4944.529
545.5900, 4383.527
546.7660, 3792.557
547.9430, 3259.619
549.1190, 2738.710
550.2950, 2414.011
551.4710, 2162.980
552.6470, 1925.158
553.8220, 1824.365
554.9980, 1723.598
556.1730, 1553.859
557.3480, 1396.148
558.5230, 1203.463
559.6980, 1079.803
560.8730, 948.1709
562.0470, 987.5645
563.2220, 804.9805
564.3960, 861.4209
565.5700, 693.8828
566.7440, 680.3682
567.9170, 551.8740
569.0910, 568.4004
570.2640, 436.9482
571.4380, 543.5146
572.6110, 354.1006
573.7840, 355.7051
574.9570, 454.3291
576.1290, 354.3672
577.3020, 381.3672
578.4740, 309.3008
579.6460, 343.9902
580.8180, 285.6953
581.9900, 283.4141
583.1620, 198.1465
584.3330, 224.8926
585.5040, 248.6523
586.6760, 276.4248
587.8470, 52.20898
589.0180, 14.00098
590.1880, 154.7910
591.3590, 171.5918
592.5290, 231.4033
593.7000, 91.22559
594.8700, 155.0566
596.0400, 65.96875
597.2090, 71.81348
598.3790, 185.7188
599.5490, 53.68359
600.7180, 26.34473
601.8870, 109.4922
603.0560, 135.1328
604.2250, 32.35742
605.3940, 116.2080
606.5620, 43.81445
607.7300, 18.73242
608.8990, 2.838867
610.0670, 19.10156
611.2350, 0.9394530
612.4020, 67.30176
613.5700, 17.92383
614.7370, 10.72461
615.9050, 90.16992
617.0720, 8.235352
618.2390, 22.69824
619.4060, 47.27832
620.5720, 130.7178
621.7390, 58.16895
622.9050, 9.254883
624.0710, 38.49316
625.2370, 7.349609
626.4030, 37.14160
627.5690, 42.08398
628.7340, 40.24121
629.9000, 45.34082
631.0650, 61.61230
632.2300, 48.72559
633.3950, 79.68848
634.5600, 30.80078
635.7240, 24.85645
636.8890, 75.60645
638.0530, 17.33496
639.2170, 72.90723
640.3810, 31.79785
641.5450, 71.00586
642.7080, 53.89844
643.8720, 47.23828
645.0350, 32.69043
646.1980, 6.788086
647.3610, 4.143555
648.5240, 42.37598
649.6870, 51.64453
650.8490, 126.3867
652.0120, 147.3652
653.1740, 32.00293
654.3360, 158.5596
655.4980, 26.95801
656.6600, 57.05273
657.8210, 87.76953
658.9830, 16.81934
660.1440, 12.58496
661.3050, 46.95410
662.4660, 49.12695
663.6270, 71.88184
664.7870, 104.2832
665.9480, 75.80371
667.1080, 157.2451
668.2680, 123.8174
669.4280, 209.5928
670.5880, 194.1924
671.7480, 142.7393
672.9070, 225.2930
674.0670, 94.59082
675.2260, 188.4824
676.3850, 126.1338
677.5440, 241.3555
678.7030, 325.7100
679.8610, 320.2168
681.0200, 377.6982
682.1780, 350.4326
683.3360, 374.9795
684.4940, 428.4062
685.6520, 378.5146
686.8090, 489.5117
687.9670, 635.5322
689.1240, 638.4766
690.2810, 731.3936
691.4380, 823.2832
692.5950, 890.1445
693.7520, 920.0000
694.9080, 1021.110
696.0650, 1423.110
697.2210, 1494.160
698.3770, 1737.968
699.5330, 1930.378
700.6880, 2128.213
701.8440, 2293.062
702.9990, 2329.818
704.1550, 2476.394
705.3100, 2462.061
706.4650, 2375.751
707.6190, 2362.238
708.7740, 2109.694
709.9290, 1859.396
711.0830, 1760.803
712.2370, 1599.167
713.3910, 1347.818
714.5450, 1339.121
715.6980, 1131.596
716.8520, 952.8369
718.0050, 930.0469
719.1580, 951.2246
720.3110, 784.3711
721.4640, 854.4863
722.6170, 598.5693
723.7700, 613.8281
724.9220, 604.8467
726.0740, 488.8340
727.2260, 472.5479
728.3780, 426.2861
729.5300, 386.1777
730.6810, 332.2832
731.8330, 449.8604
732.9840, 312.6533
734.1350, 136.4131
735.2860, 344.0000
736.4370, 252.6260
737.5880, 242.2773
738.7380, 241.5205
739.8880, 344.6436
741.0390, 155.1953
742.1890, 200.7061
743.3380, 307.2891
744.4880, 242.7314
745.6380, 115.5830
746.7870, 247.7236
747.9360, 135.6689
749.0850, 128.6846
750.2340, 67.69824
751.3830, 20.35352
752.5310, 92.35645
753.6800, 24.49023
754.8280, 0.2099610
755.9760, 183.1426
757.1240, 43.64258
758.2720, 133.2969
759.4190, 79.11523
760.5670, 128.0684
761.7140, 146.5938
762.8610, 206.4932
764.0080, 87.27344
765.1550, 26.56152
766.3020, 119.1777
767.4480, 34.40430
768.5950, 70.46582
769.7410, 90.48535
770.8870, 129.7236
772.0330, 40.46094
773.1780, 51.00391
774.3240, 57.06152
775.4690, 18.73242
776.6140, 140.6133
777.7590, 54.93750
778.9040, 11.93848
780.0490, 77.10059
781.1940, 75.85156
782.3380, 2.279297
783.4820, 7.284180
784.6260, 13.44824
785.7700, 15.14062
786.9140, 8.938477
788.0580, 43.42090
789.2010, 21.94824
790.3450, 46.61719
791.4880, 49.05273
792.6310, 64.71387
793.7730, 96.00000
794.9160, 22.13867
796.0590, 88.44531
797.2010, 21.13574
798.3430, 131.5811
799.4850, 28.65918
800.6270, 0.9111330
801.7690, 73.71387
802.9100, 112.1709
804.0520, 124.9775
805.1930, 82.07129
806.3340, 41.72168
807.4750, 60.94043
808.6160, 67.13477
809.7560, 51.05176
810.8970, 112.0654
812.0370, 4.891602
813.1770, 22.07910
814.3170, 103.2109
815.4570, 64.22168
816.5960, 32.21094
817.7360, 38.17578
818.8750, 3.883789
820.0140, 14.03125
821.1530, 23.91992
822.2920, 78.78516
823.4310, 98.77930
824.5690, 84.45215
825.7070, 152.2568
826.8460, 149.7100
827.9840, 136.8047
829.1220, 132.5488
830.2590, 84.27539
831.3970, 18.98047
832.5340, 33.66504
833.6710, 16.32910
834.8080, 62.97168
835.9450, 13.40332
837.0820, 39.19531
838.2190, 27.77539
839.3550, 41.33398
840.4910, 115.8750
841.6270, 45.39746
842.7630, 30.90332
843.8990, 89.39062
845.0350, 129.8604
846.1700, 2.314453
847.3060, 63.74805
848.4410, 106.1670
849.5760, 3.430664
850.7100, 134.9531
851.8450, 11.32227
852.9800, 276.6738
854.1140, 150.0107
855.2480, 143.3320
856.3820, 198.6377
857.5160, 53.92969
858.6500, 159.2070
859.7830, 0.4707030
860.9170, 80.71875
862.0500, 187.9521
863.1830, 166.1729
864.3160, 34.38281
865.4480, 61.58496
866.5810, 96.77344
867.7130, 199.9502
868.8460, 114.1143
869.9780, 127.2646
871.1100, 118.3340
872.2410, 20.47070
873.3730, 130.5410
874.5050, 68.55371
875.6360, 95.55078
876.7670, 141.6621
877.8980, 193.9668
879.0290, 20.68164
880.1590, 34.76758
881.2900, 100.7412
882.4200, 12.59863
883.5500, 112.6338
884.6800, 1.818359
885.8100, 207.9941
886.9400, 139.3037
888.0690, 73.51465
889.1990, 106.2354
890.3280, 40.65625
891.4570, 181.2109
892.5860, 146.1113
893.7140, 30.08496
894.8430, 87.61719
895.9710, 79.48535
897.1000, 40.87793
898.2280, 94.77539
899.3560, 32.07129
900.4830, 87.14062
901.6110, 16.62207
902.7380, 13.03418
903.8660, 68.58887
904.9930, 4.797852
906.1200, 150.3604
907.2460, 9.301758
908.3730, 109.6934
909.5000, 47.09180
910.6260, 54.21680
911.7520, 91.07715
912.8780, 57.28418
914.0040, 105.7490
915.1290, 39.66992
916.2550, 99.48242
917.3800, 176.3076
918.5050, 173.0273
919.6300, 62.55664
920.7550, 154.8008
921.8800, 9.145508
923.0040, 53.42773
924.1290, 99.21680
925.2530, 162.7617
926.3770, 189.5098
927.5010, 216.3340
928.6250, 229.6514
929.7480, 222.0059
930.8720, 188.2539
931.9950, 136.6787
933.1180, 168.6113
934.2410, 148.5557
935.3640, 335.6680
936.4860, 278.4902
937.6090, 420.0088
938.7310, 346.7041
939.8530, 364.4541
940.9750, 491.0557
942.0970, 539.4336
943.2180, 555.9707
944.3400, 715.5439
945.4610, 786.0967
946.5820, 1124.887
947.7030, 1381.060
948.8240, 1520.453
949.9450, 1757.256
951.0650, 2085.906
952.1860, 2309.388
953.3060, 2316.938
954.4260, 2345.094
955.5460, 2314.259
956.6650, 2210.965
957.7850, 2097.752
958.9040, 1971.630
960.0230, 1824.467
961.1420, 1699.961
962.2610, 1645.271
963.3800, 1456.193
964.4990, 1352.125
965.6170, 1295.042
966.7350, 1368.685
967.8530, 1393.420
968.9710, 1332.084
970.0890, 1466.972
971.2070, 1479.239
972.3240, 1629.062
973.4410, 1712.853
974.5580, 1865.717
975.6750, 2163.742
976.7920, 2208.656
977.9090, 2535.525
979.0250, 3041.604
980.1410, 3061.693
981.2580, 3347.516
982.3740, 3580.615
983.4890, 3839.734
984.6050, 4100.549
985.7200, 4293.689
986.8360, 4750.639
987.9510, 5129.803
989.0660, 5528.977
990.1810, 6237.160
991.2950, 6448.358
992.4100, 6589.566
993.5240, 6827.785
994.6390, 6840.809
995.7530, 6599.052
996.8660, 6051.305
997.9800, 5668.571
999.0940, 4935.822
1000.207, 4359.111
1001.320, 3943.422
1002.433, 3225.744
1003.546, 2791.092
1004.659, 2305.451
1005.772, 1912.403
1006.884, 1743.763
1007.996, 1430.168
1009.108, 1164.585
1010.220, 1082.016
1011.332, 890.4668
1012.444, 797.9326
1013.555, 756.4365
1014.666, 612.9414
1015.777, 613.4736
1016.888, 681.0254
1017.999, 492.5889
1019.110, 570.5664
1020.220, 540.1641
1021.331, 553.1729
1022.441, 605.8574
1023.551, 470.2686
1024.661, 593.2656
1025.770, 615.3643
1026.880, 759.0918
1027.989, 762.6602
1029.098, 749.6416
1030.207, 773.4414
1031.316, 816.1396
1032.425, 790.9688
1033.533, 797.3428
1034.642, 966.1992
1035.750, 1325.900
1036.858, 1259.792
1037.966, 1376.703
1039.073, 1669.630
1040.181, 1756.674
1041.288, 2058.439
1042.396, 2597.847
1043.503, 2775.084
1044.610, 3210.104
1045.716, 3750.139
1046.823, 4349.186
1047.929, 5090.248
1049.036, 5874.352
1050.142, 6315.902
1051.248, 6693.009
1052.353, 7280.818
1053.459, 7427.962
1054.564, 7338.514
1055.670, 7035.699
1056.775, 6284.898
1057.880, 5825.861
1058.985, 5334.225
1060.089, 4610.465
1061.194, 4196.719
1062.298, 3549.983
1063.402, 3098.260
1064.506, 2998.086
1065.610, 2474.429
1066.713, 2073.175
1067.817, 1977.542
1068.920, 1801.920
1070.023, 1779.310
1071.126, 1555.710
1072.229, 1416.120
1073.332, 1293.538
1074.435, 956.0771
1075.537, 1049.516
1076.639, 843.1348
1077.741, 1002.826
1078.843, 836.3066
1079.945, 674.7949
1081.046, 617.2949
1082.148, 643.8125
1083.249, 752.3359
1084.350, 676.6191
1085.451, 568.4121
1086.551, 617.9648
1087.652, 489.5283
1088.752, 456.1025
1089.853, 403.6855
1090.953, 367.2891
1092.053, 483.8994
1093.152, 595.5176
1094.252, 505.9727
1095.351, 588.3613
1096.451, 508.0039
1097.550, 615.6533
1098.649, 568.3105
1099.748, 709.9775
1100.846, 574.6514
1101.945, 534.3330
1103.043, 553.0234
1104.141, 560.4590
1105.239, 399.2080
1106.337, 374.9248
1107.434, 324.6494
1108.532, 313.3818
1109.629, 324.1221
1110.726, 356.1514
1111.823, 312.0820
1112.920, 424.2598
1114.017, 261.0342
1115.113, 199.8164
1116.210, 225.6035
1117.306, 297.3994
1118.402, 145.2021
1119.498, 313.0107
1120.593, 115.8262
1121.689, 191.6465
1122.784, 257.4736
1123.879, 221.3066
1124.974, 136.1455
1126.069, 307.9893
1127.164, 155.8398
1128.259, 93.69629
1129.353, 88.55957
1130.447, 10.42676
1131.541, 112.2988
1132.635, 96.09961
1133.729, 127.9834
1134.822, 146.8809
1135.916, 57.77441
1137.009, 43.32812
1138.102, 64.56055
1139.195, 93.83301
1140.288, 154.7295
1141.380, 54.91211
1142.473, 148.3457
1143.565, 109.2559
1144.657, 1.170898
1145.749, 12.69043
1146.841, 85.88770
1147.932, 85.81152
1149.024, 31.73926
1150.115, 148.3301
1151.206, 131.5322
1152.297, 50.18555
1153.388, 114.6611
1154.479, 55.48145
1155.569, 29.64453
1156.659, 7.816406
1157.750, 44.00781
1158.839, 79.83594
1159.929, 76.66602
1161.019, 105.7871
1162.108, 18.66895
1163.198, 106.1582
1164.287, 58.98730
1165.376, 18.82031
1166.465, 136.6553
1167.553, 42.49316
1168.642, 35.33203
1169.730, 118.1729
1170.818, 86.98535
1171.906, 33.18652
1172.994, 5.403320
1174.082, 113.3760
1175.170, 101.1592
1176.257, 15.94531
1177.344, 59.73145
1178.431, 90.51758
1179.518, 7.305664
1180.605, 4.907227
1181.691, 35.87598
1182.778, 9.281250
1183.864, 175.4365
1184.950, 21.78613
1186.036, 161.6885
1187.122, 170.4541
1188.207, 26.78223
1189.292, 32.97754
1190.378, 135.7520
1191.463, 55.48047
1192.548, 59.20898
1193.632, 47.93652
1194.717, 3.337891
1195.801, 10.38379
1196.886, 18.89746
1197.970, 137.8076
1199.054, 37.51172
1200.137, 92.21582
1201.221, 73.91797
1202.305, 36.61914
1203.388, 132.3203
1204.471, 9.019531
1205.554, 76.71680
1206.637, 7.412109
1207.719, 12.89648
1208.802, 26.78223
1209.884, 48.45898
1210.966, 109.1338
1212.048, 105.8076
1213.130, 22.47852
1214.212, 112.1484
1215.293, 29.81543
1216.374, 86.48145
1217.456, 80.14453
1218.536, 24.80566
1219.617, 61.04688
1220.698, 129.4600
1221.778, 34.11621
1222.859, 67.76953
1223.939, 17.58008
1225.019, 5.1757999E-02
1226.099, 118.6729
1227.178, 200.2930
1228.258, 91.90820
1229.337, 152.5225
1230.417, 161.1328
1231.496, 92.75781
1232.574, 140.3799
1233.653, 2.000000
1234.732, 20.61035
1235.810, 169.2168
1236.888, 32.81934
