##NAMES=Edingtonite
##RRUFFID=R040003
##IDEAL CHEMISTRY=Ba(Si_3_Al_2_)O_10_&#183;4H_2_O
##LOCALITY=Bohl, Sweden
##OWNER=RRUFF
##SOURCE=University of Arizona Mineral Museum
##DESCRIPTION=Colorless tetragonal prism
##STATUS=The identification of this mineral has been confirmed by X-ray diffraction and chemical analysis
##URL=rruff.info/R040003
##MEASURED CHEMISTRY=Ba_1.00_(Si_3.00_Al_2.00_)O_10_Â·4H_2_O; trace amounts of Na; H_2_O estimated by difference
##PIN_ID=m00026
##ORIENTATION=Laser parallel to a* (1 0 0). Fiducial mark perpendicular to laser is parallel to c [0 0 1]
124.675, 0.000
126.063, 192.053
127.452, 21.047
128.840, 361.766
130.228, 1040.900
131.615, 1161.145
133.003, 2013.324
134.390, 2102.633
135.777, 2735.295
137.164, 2667.727
138.550, 2878.213
139.937, 2734.191
141.323, 2696.623
142.709, 2906.104
144.094, 3052.043
145.480, 3540.191
146.865, 4458.807
148.250, 5138.150
149.635, 7160.012
151.019, 8066.609
152.403, 10369.336
153.788, 11598.357
155.171, 13073.043
156.555, 13479.473
157.939, 13173.746
159.322, 12459.738
160.705, 10747.965
162.088, 9836.111
163.470, 8379.543
164.853, 7711.057
166.235, 7059.389
167.617, 6069.752
168.998, 5401.617
170.380, 4203.330
171.761, 3649.828
173.142, 2923.248
174.523, 2807.906
175.904, 2420.994
177.284, 2162.434
178.664, 2196.621
180.044, 1705.291
181.424, 1681.289
182.803, 1256.295
184.183, 1134.057
185.562, 964.045
186.940, 662.527
188.319, 477.732
189.698, 219.389
191.076, 403.555
192.454, 327.928
193.831, 259.691
195.209, 391.107
196.586, 214.217
197.963, 364.883
199.340, 478.311
200.717, 683.080
202.093, 741.873
203.470, 888.869
204.846, 946.385
206.221, 1088.662
207.597, 990.393
208.972, 776.029
210.347, 856.064
211.722, 694.668
213.097, 525.213
214.472, 568.432
215.846, 372.916
217.220, 415.850
218.594, 226.773
219.967, 297.549
221.341, 197.473
222.714, 131.291
224.087, 109.318
225.460, 34.934
226.832, 20.113
228.204, 37.285
229.577, 63.406
230.948, 83.686
232.320, 340.486
233.692, 714.479
235.063, 817.043
236.434, 1187.064
237.805, 1327.293
239.175, 1395.201
240.545, 1641.090
241.916, 1544.195
243.286, 1734.111
244.655, 1381.592
246.025, 1318.408
247.394, 976.363
248.763, 733.590
250.132, 520.918
251.501, 267.402
252.869, 303.055
254.237, 38.125
255.605, 120.250
256.973, 140.295
258.340, 71.586
259.708, 4.254
261.075, 120.697
262.442, 13.170
263.808, 224.203
265.175, 282.031
266.541, 270.291
267.907, 388.994
269.273, 107.008
270.639, 395.141
272.004, 274.277
273.369, 241.242
274.734, 336.941
276.099, 179.438
277.463, 232.809
278.828, 227.170
280.192, 242.432
281.556, 188.617
282.919, 165.676
284.283, 173.521
285.646, 103.816
287.009, 91.443
288.372, 28.707
289.734, 147.715
291.097, 327.082
292.459, 464.859
293.821, 527.502
295.183, 614.006
296.544, 583.324
297.905, 661.186
299.266, 588.385
300.627, 544.025
301.988, 619.684
303.348, 343.523
304.709, 536.309
306.069, 337.802
307.428, 508.049
308.788, 457.653
310.147, 445.213
311.507, 642.077
312.865, 477.357
314.224, 601.480
315.583, 524.425
316.941, 516.203
318.299, 606.831
319.657, 456.281
321.015, 574.505
322.372, 421.470
323.729, 637.161
325.086, 671.532
326.443, 574.583
327.800, 776.369
329.156, 676.948
330.512, 846.369
331.868, 774.630
333.224, 911.720
334.579, 897.641
335.935, 752.372
337.290, 1105.921
338.645, 978.027
339.999, 1238.777
341.354, 1178.267
342.708, 1266.744
344.062, 1264.454
345.416, 1371.486
346.769, 1456.657
348.123, 1350.638
349.476, 1323.220
350.829, 1463.819
352.182, 1462.807
353.534, 1579.153
354.887, 1545.937
356.239, 1650.806
357.591, 1803.721
358.942, 1825.747
360.294, 2023.807
361.645, 2071.672
362.996, 2038.759
364.347, 1995.909
365.698, 2072.052
367.048, 2008.044
368.398, 1693.353
369.748, 1938.941
371.098, 1723.268
372.448, 1815.494
373.797, 1648.113
375.146, 1639.110
376.495, 1787.960
377.844, 1567.080
379.192, 1813.230
380.540, 1579.843
381.889, 1692.498
383.236, 1846.559
384.584, 1757.982
385.932, 1833.321
387.279, 1870.126
388.626, 1810.109
389.973, 1983.384
391.319, 1922.977
392.666, 2038.336
394.012, 1884.513
395.358, 2007.298
396.704, 1913.894
398.049, 2061.123
399.394, 2230.289
400.740, 2269.806
402.084, 2369.376
403.429, 2129.758
404.774, 2399.524
406.118, 2219.893
407.462, 2028.601
408.806, 2046.865
410.150, 1863.511
411.493, 1818.229
412.836, 1771.007
414.179, 1770.564
415.522, 1850.562
416.865, 1713.568
418.207, 2029.801
419.549, 1856.544
420.891, 2022.934
422.233, 2084.102
423.575, 2207.473
424.916, 2409.312
426.257, 2486.318
427.598, 2679.760
428.939, 2853.998
430.279, 2770.852
431.619, 2945.466
432.959, 2742.061
434.299, 2986.309
435.639, 2902.705
436.978, 2823.639
438.318, 2784.088
439.657, 2231.301
440.996, 2329.349
442.334, 1936.200
443.673, 1796.579
445.011, 1608.562
446.349, 1300.532
447.687, 1467.507
449.024, 1214.770
450.361, 1040.327
451.699, 1037.905
453.036, 987.031
454.372, 937.534
455.709, 847.189
457.045, 1030.308
458.381, 869.728
459.717, 819.442
461.053, 968.191
462.388, 726.267
463.724, 914.629
465.059, 910.355
466.394, 957.403
467.728, 982.475
469.063, 858.693
470.397, 1114.183
471.731, 949.301
473.065, 1125.854
474.398, 1210.787
475.732, 1256.522
477.065, 1261.345
478.398, 1175.842
479.731, 1400.879
481.063, 1344.559
482.396, 1368.857
483.728, 1622.342
485.060, 1556.693
486.391, 1791.127
487.723, 1784.530
489.054, 1929.137
490.385, 2282.997
491.716, 2217.506
493.047, 2501.559
494.377, 2506.004
495.708, 2750.241
497.038, 2863.693
498.368, 2748.460
499.697, 2912.567
501.027, 2797.612
502.356, 3112.273
503.685, 2927.182
505.014, 3031.955
506.342, 3127.078
507.671, 3072.933
508.999, 3328.557
510.327, 3404.502
511.655, 3580.250
512.982, 4017.136
514.310, 4154.258
515.637, 5020.396
516.964, 5657.391
518.291, 6725.297
519.617, 8434.285
520.944, 10085.691
522.270, 13313.975
523.596, 17644.049
524.921, 22641.859
526.247, 28549.756
527.572, 35899.633
528.897, 42935.512
530.222, 44064.258
531.547, 43330.711
532.871, 37267.594
534.196, 30533.344
535.520, 24378.680
536.844, 18445.074
538.167, 14890.020
539.491, 11546.029
540.814, 9061.098
542.137, 7786.689
543.460, 5892.977
544.783, 5288.957
546.105, 4305.461
547.427, 3902.207
548.749, 3338.859
550.071, 2666.363
551.393, 2563.771
552.714, 2111.770
554.035, 1989.225
555.356, 1817.240
556.677, 1454.885
557.998, 1683.123
559.318, 1211.330
560.638, 1229.498
561.958, 1037.631
563.278, 1005.721
564.597, 927.455
565.917, 711.787
567.236, 769.766
568.555, 747.711
569.874, 655.682
571.192, 792.998
572.511, 650.475
573.829, 688.887
575.147, 636.488
576.464, 524.623
577.782, 743.111
579.099, 381.668
580.416, 710.783
581.733, 538.857
583.050, 581.264
584.366, 690.369
585.683, 359.494
586.999, 698.613
588.315, 468.014
589.630, 387.477
590.946, 476.842
592.261, 406.121
593.576, 405.498
594.891, 214.580
596.206, 333.789
597.520, 313.080
598.834, 222.471
600.148, 332.916
601.462, 312.500
602.776, 502.596
604.089, 222.342
605.402, 112.186
606.715, 273.133
608.028, 73.121
609.341, 124.281
610.653, 174.010
611.965, 33.744
613.277, 283.691
614.589, 126.945
615.901, 286.543
617.212, 566.680
618.523, 376.240
619.834, 506.609
621.145, 546.541
622.456, 690.420
623.766, 730.607
625.076, 793.492
626.386, 1093.857
627.696, 1036.223
629.006, 1105.648
630.315, 877.514
631.624, 419.688
632.933, 632.072
634.242, 415.174
635.551, 409.525
636.859, 381.396
638.167, 282.264
639.475, 452.260
640.783, 152.883
642.090, 456.152
643.398, 502.357
644.705, 503.842
646.012, 675.203
647.318, 739.900
648.625, 711.477
649.931, 862.279
651.237, 874.967
652.543, 973.938
653.849, 784.707
655.155, 1016.695
656.460, 826.449
657.765, 777.619
659.070, 851.178
660.375, 456.072
661.679, 439.580
662.984, 498.336
664.288, 219.264
665.592, 163.281
666.895, 37.865
668.199, 198.498
669.502, 22.936
670.805, 12.574
672.108, 142.754
673.411, 23.760
674.713, 15.396
676.016, 64.299
677.318, 113.961
678.620, 86.141
679.921, 73.002
681.223, 107.047
682.524, 157.479
683.825, 72.461
685.126, 247.521
686.427, 42.506
687.727, 127.441
689.028, 117.379
690.328, 217.303
691.628, 307.223
692.927, 207.139
694.227, 387.047
695.526, 426.953
696.825, 336.854
698.124, 706.754
699.423, 556.650
700.721, 916.539
702.020, 856.426
703.318, 1166.303
704.616, 1306.174
705.913, 1276.035
707.211, 1425.885
708.508, 1335.723
709.805, 1315.547
711.102, 1155.359
712.399, 1085.154
713.695, 1034.939
714.992, 774.707
716.288, 874.461
717.584, 884.195
718.879, 423.918
720.175, 593.623
721.470, 543.314
722.765, 392.988
724.060, 662.646
725.355, 202.291
726.649, 411.914
727.944, 241.525
729.238, 31.123
730.532, 520.697
731.825, 80.256
733.119, 189.793
734.412, 159.307
735.705, 58.773
736.998, 328.242
738.291, 72.307
739.584, 97.088
740.876, 116.453
742.168, 145.789
743.460, 105.104
744.752, 124.393
746.043, 163.611
747.334, 218.676
748.626, 222.094
749.916, 401.275
751.207, 359.973
752.498, 459.107
753.788, 488.205
755.078, 86.916
756.368, 525.969
757.658, 214.996
758.947, 323.990
760.237, 312.650
761.526, 60.838
762.815, 289.676
764.104, 2.338
765.392, 205.830
766.680, 164.188
767.969, 71.941
769.257, 130.682
770.544, 43.709
771.832, 14.936
773.119, 73.541
774.406, 167.887
775.693, 10.562
776.980, 51.027
778.267, 162.686
779.553, 24.469
780.839, 156.314
782.125, 18.281
783.411, 130.307
784.697, 342.443
785.982, 174.803
787.267, 177.299
788.552, 9.934
789.837, 32.627
791.122, 165.391
792.406, 121.711
793.690, 131.385
794.974, 185.559
796.258, 8.246
797.542, 61.398
798.825, 35.363
800.108, 42.078
801.391, 31.250
802.674, 35.348
803.957, 138.098
805.239, 8.328
806.522, 105.303
807.804, 170.957
809.085, 27.182
810.367, 116.645
811.649, 79.412
812.930, 4.570
814.211, 28.617
815.492, 2.742
816.772, 96.928
818.053, 138.775
819.333, 186.055
820.613, 21.316
821.893, 202.820
823.173, 92.402
824.452, 261.064
825.732, 35.334
827.011, 98.963
828.290, 132.732
829.568, 66.131
830.847, 238.438
832.125, 419.096
833.403, 93.004
834.681, 284.922
835.959, 178.857
837.236, 263.006
838.514, 404.846
839.791, 659.322
841.068, 591.914
842.345, 667.107
843.621, 649.723
844.898, 654.004
846.174, 558.635
847.450, 642.854
848.726, 467.578
850.001, 602.336
851.277, 767.066
852.552, 481.768
853.827, 906.555
855.102, 651.314
856.376, 916.049
857.651, 1060.779
858.925, 885.477
860.199, 1480.146
861.473, 1294.811
862.746, 1279.441
864.020, 1374.094
865.293, 998.719
866.566, 1193.311
867.839, 847.879
869.112, 592.414
870.384, 806.920
871.656, 461.396
872.928, 735.846
874.200, 480.264
875.472, 564.654
876.744, 609.014
878.015, 503.342
879.286, 747.152
880.557, 571.422
881.828, 365.338
883.098, 748.348
884.369, 492.562
885.639, 485.756
886.909, 628.750
888.178, 521.088
889.448, 755.904
890.717, 560.008
891.987, 559.822
893.256, 582.943
894.524, 446.123
895.793, 649.396
897.061, 502.473
898.330, 425.605
899.598, 708.875
900.865, 472.350
902.133, 705.811
903.401, 729.639
904.668, 373.445
905.935, 727.223
907.202, 570.973
908.468, 653.740
909.735, 747.443
911.001, 450.697
912.267, 1004.352
913.533, 567.963
914.799, 570.539
916.064, 834.047
917.330, 415.703
918.595, 728.818
919.860, 491.736
921.124, 404.250
922.389, 866.982
923.653, 396.352
924.918, 778.422
926.182, 540.865
927.445, 393.145
928.709, 774.877
929.972, 423.471
931.236, 645.773
932.499, 575.604
933.761, 418.102
935.024, 708.111
936.286, 761.965
937.549, 542.928
938.811, 864.020
940.073, 604.895
941.334, 895.045
942.596, 823.949
943.857, 865.326
945.118, 968.744
946.379, 820.957
947.640, 1063.580
948.900, 1113.561
950.161, 1170.605
951.421, 1792.369
952.681, 1784.262
953.940, 2032.818
955.200, 2544.496
956.459, 2236.945
957.719, 2297.510
958.978, 2131.795
960.236, 1774.277
961.495, 2015.545
962.753, 1479.045
964.012, 1631.129
965.270, 1540.822
966.527, 1219.180
967.785, 1538.920
969.043, 1343.410
970.300, 1365.727
971.557, 1484.945
972.814, 933.594
974.071, 1326.186
975.327, 1150.838
976.583, 1223.688
977.840, 1701.557
979.095, 1293.742
980.351, 1846.076
981.607, 1898.145
982.862, 2100.949
984.117, 2733.961
985.372, 2526.199
986.627, 2949.225
987.882, 3248.859
989.136, 3211.844
990.390, 3715.539
991.644, 3808.805
992.898, 4371.902
994.152, 4552.174
995.405, 4815.387
996.659, 5179.230
997.912, 4919.521
999.165, 4532.562
1000.417, 4660.611
1001.670, 4364.402
1002.922, 3955.398
1004.174, 3617.496
1005.426, 2952.039
1006.678, 2565.531
1007.930, 1824.279
1009.181, 1387.287
1010.432, 1550.828
1011.683, 939.035
1012.934, 982.027
1014.185, 946.787
1015.435, 649.768
1016.685, 1092.912
1017.935, 716.713
1019.185, 1119.707
1020.435, 1272.775
1021.684, 1156.207
1022.934, 1279.154
1024.183, 1242.939
1025.432, 1175.875
1026.680, 1188.807
1027.929, 1151.732
1029.177, 1304.652
1030.425, 1157.568
1031.673, 1060.480
1032.921, 1203.389
1034.169, 934.291
1035.416, 997.783
1036.663, 1331.059
1037.911, 987.750
1039.157, 1430.646
1040.404, 1285.809
1041.650, 1398.928
1042.897, 2061.838
1044.143, 1645.465
1045.389, 2298.373
1046.634, 2811.369
1047.880, 2835.457
1049.125, 3898.434
1050.371, 4252.246
1051.615, 4945.309
1052.860, 6008.377
1054.105, 6001.752
1055.349, 6924.820
1056.593, 6397.945
1057.837, 5792.123
1059.081, 6025.318
1060.325, 4778.990
1061.568, 4212.570
1062.812, 3785.816
1064.055, 3208.398
1065.298, 3151.711
1066.540, 2465.021
1067.783, 2198.898
1069.025, 2302.270
1070.267, 1475.777
1071.509, 1589.176
1072.751, 1662.576
1073.993, 1336.477
1075.234, 1669.918
1076.475, 1263.359
1077.716, 1317.549
1078.957, 1531.039
1080.198, 1404.828
1081.438, 1648.404
1082.679, 1611.969
1083.919, 1405.582
1085.159, 1929.205
1086.398, 1332.861
1087.638, 1456.615
1088.877, 1390.416
1090.116, 1114.264
1091.355, 1028.123
1092.594, 931.996
1093.833, 675.918
1095.071, 829.834
1096.309, 663.791
1097.547, 787.742
1098.785, 751.705
1100.023, 495.688
1101.260, 869.674
1102.498, 513.660
1103.735, 687.662
1104.972, 901.666
1106.208, 485.709
1107.445, 819.758
1108.681, 723.840
1109.918, 577.918
1111.154, 1012.002
1112.389, 756.121
1113.625, 690.236
1114.860, 664.365
1116.096, 458.510
1117.331, 602.664
1118.566, 516.850
1119.800, 541.029
1121.035, 725.262
1122.269, 1089.508
1123.503, 891.289
1124.737, 1388.021
1125.971, 572.289
1127.205, 616.570
1128.438, 330.854
1129.671, 185.129
1130.904, 449.402
1132.137, 223.668
1133.370, 327.926
1134.602, 302.182
1135.834, 113.572
1137.066, 410.604
1138.298, 24.775
1139.530, 128.932
1140.762, 173.076
1141.993, 112.787
1143.224, 151.275
1144.455, 5.326
1145.686, 110.637
1146.917, 253.322
1148.147, 232.725
1149.377, 21.086
1150.607, 144.883
1151.837, 421.334
1153.067, 7.791
1154.296, 95.727
1155.526, 80.771
1156.755, 272.668
1157.984, 86.094
1159.213, 70.496
1160.441, 312.848
1161.670, 173.818
1162.898, 399.398
1164.126, 182.602
1165.354, 25.789
1166.581, 218.955
1167.809, 202.107
1169.036, 115.242
1170.263, 368.361
1171.490, 31.465
1172.717, 424.545
1173.943, 437.699
1175.170, 260.752
1176.396, 543.789
1177.622, 276.812
1178.848, 259.818
1180.073, 462.811
1181.299, 104.211
1182.524, 108.678
1183.749, 161.545
1184.974, 35.604
1186.199, 357.193
1187.423, 9.990
1188.648, 202.752
1189.872, 266.322
1191.096, 89.633
1192.320, 482.318
1193.543, 269.975
1194.767, 33.746
1195.990, 457.430
1197.213, 121.020
1198.436, 304.000
1199.659, 318.877
1200.881, 233.080
1202.104, 635.977
1203.326, 463.156
1204.548, 102.943
1205.770, 695.422
1206.991, 251.693
1208.213, 274.143
1209.434, 467.246
1210.655, 73.609
1211.876, 508.764
1213.096, 431.789
1214.317, 267.809
1215.537, 520.303
1216.757, 368.422
1217.977, 531.217
1219.197, 804.121
1220.417, 290.725
1221.636, 543.828
1222.855, 586.141
1224.074, 238.605
1225.293, 820.633
1226.512, 343.354
1227.731, 405.281
1228.949, 767.182
1230.167, 609.939
1231.385, 581.793
1232.603, 683.623
1233.820, 666.375
1235.038, 1008.154
1236.255, 819.932
1237.472, 1021.682
1238.689, 1293.404
1239.906, 835.135
1241.122, 1496.812
1242.338, 1249.482
1243.555, 1390.088
1244.771, 1111.684
1245.986, 983.248
1247.202, 825.002
1248.417, 1206.510
1249.633, 957.986
1250.848, 979.426
1252.063, 1330.826
1253.277, 782.207
1254.492, 1083.564
1255.706, 734.902
1256.920, 816.686
1258.134, 1087.980
1259.348, 749.252
1260.562, 771.453
1261.775, 1092.680
1262.988, 713.887
1264.201, 1115.068
1265.414, 1046.227
1266.627, 827.359
1267.839, 1528.473
1269.052, 989.561
1270.264, 1220.920
1271.476, 1521.959
1272.688, 1172.973
1273.899, 1574.787
1275.111, 1475.752
1276.322, 1196.824
1277.533, 1747.797
1278.744, 1348.699
1279.955, 1199.770
1281.165, 1370.627
1282.376, 884.451
1283.586, 1355.773
1284.796, 1095.910
1286.006, 606.451
1287.215, 1127.145
1288.425, 1070.645
1289.634, 611.184
1290.843, 1311.068
1292.052, 614.484
1293.261, 1225.129
1294.469, 1140.734
1295.678, 980.486
1296.886, 1510.713
1298.094, 1144.041
1299.302, 732.992
1300.509, 1192.670
1301.717, 586.949
1302.924, 646.852
1304.131, 1046.072
1305.338, 470.588
1306.545, 980.191
1307.752, 1127.947
1308.958, 727.410
1310.164, 1366.668
1311.370, 1105.229
1312.576, 914.559
1313.782, 1213.777
1314.987, 772.596
1316.193, 791.859
1317.398, 1210.248
1318.603, 399.453
1319.807, 1148.627
1321.012, 917.771
1322.216, 1016.887
1323.421, 1485.971
1324.625, 815.027
1325.829, 1074.051
1327.032, 1165.047
1328.236, 583.418
1329.439, 871.963
1330.642, 677.057
1331.845, 405.910
1333.048, 552.467
1334.251, 211.021
1335.453, 269.758
1336.656, 487.742
1337.858, 163.594
1339.060, 154.939
1340.261, 162.338
1341.463, 259.193
1342.664, 318.400
1343.866, 66.697
1345.067, 104.941
1346.267, 322.832
1347.468, 159.014
1348.669, 200.961
1349.869, 406.000
1351.069, 146.084
1352.269, 401.320
1353.469, 238.791
1354.668, 193.434
1355.868, 374.979
1357.067, 212.635
1358.266, 149.736
1359.465, 327.309
1360.664, 25.027
1361.862, 242.336
1363.061, 209.879
1364.259, 2.695
1365.457, 154.221
1366.655, 332.146
1367.852, 289.488
1369.050, 386.105
1370.247, 214.031
1371.444, 411.047
1372.641, 628.303
1373.838, 186.289
1375.035, 673.553
1376.231, 441.104
1377.427, 169.105
1378.623, 826.348
1379.819, 508.861
1381.015, 506.109
1382.211, 903.342
1383.406, 392.652
1384.601, 539.869
1385.796, 887.055
1386.991, 484.375
1388.185, 811.080
1389.380, 777.709
1390.574, 344.984
1391.768, 1450.990
1392.962, 707.545
1394.156, 492.729
1395.350, 816.555
1396.543, 405.533
1397.736, 504.465
1398.929, 673.346
1400.122, 282.182
1401.315, 580.965
1402.507, 689.701
1403.700, 168.389
1404.892, 577.027
1406.084, 625.617
1407.276, 484.152
1408.467, 1072.635
1409.659, 451.064
1410.850, 549.479
1412.041, 687.879
1413.232, 326.232
1414.423, 664.611
1415.614, 722.988
1416.804, 201.432
1417.994, 809.914
1419.184, 368.641
1420.374, 387.377
1421.564, 916.123
1422.753, 354.904
1423.943, 673.795
1425.132, 732.672
1426.321, 281.539
1427.510, 680.398
1428.698, 919.137
1429.887, 467.977
1431.075, 1216.801
1432.263, 825.615
1433.451, 724.523
1434.639, 1593.455
1435.827, 1042.375
1437.014, 1499.312
1438.201, 1886.828
1439.388, 1662.389
1440.575, 2429.719
1441.762, 2612.123
1442.949, 2677.719
1444.135, 3249.279
1445.321, 3085.471
1446.507, 3115.439
1447.693, 3851.062
1448.879, 2745.436
1450.064, 3721.367
1451.250, 3829.127
1452.435, 3363.277
1453.620, 4168.727
1454.805, 4233.662
1455.989, 3688.322
1457.174, 4494.445
1458.358, 3858.809
1459.542, 3824.713
1460.726, 4250.508
1461.910, 3356.270
1463.093, 3721.973
1464.277, 3827.211
1465.460, 2742.816
1466.643, 3188.418
1467.826, 3013.938
1469.009, 2238.357
1470.191, 2753.600
1471.373, 2106.654
1472.556, 1901.582
1473.738, 2236.365
1474.919, 1840.996
1476.101, 1684.781
1477.283, 2347.125
1478.464, 1740.883
1479.645, 1844.605
1480.826, 1997.740
1482.007, 1539.793
1483.187, 2032.873
1484.368, 1805.676
1485.548, 1568.178
1486.728, 2160.361
1487.908, 1162.510
1489.088, 1405.057
1490.268, 1578.137
1491.447, 872.230
1492.626, 987.184
1493.805, 1152.820
1494.984, 328.836
1496.163, 804.889
1497.341, 790.969
1498.520, 247.080
1499.698, 953.178
1500.876, 369.281
1502.054, 165.391
1503.232, 681.531
1504.409, 177.756
1505.586, 564.082
1506.763, 540.516
1507.940, 67.186
1509.117, 314.074
1510.294, 561.305
1511.470, 58.898
1512.647, 516.963
1513.823, 345.535
1514.999, 54.527
1516.174, 573.836
1517.350, 153.447
1518.526, 63.410
1519.701, 742.635
1520.876, 57.393
1522.051, 493.910
