##NAMES=Edingtonite
##RRUFFID=R040003
##IDEAL CHEMISTRY=Ba(Si_3_Al_2_)O_10_&#183;4H_2_O
##LOCALITY=Bohl, Sweden
##OWNER=RRUFF
##SOURCE=University of Arizona Mineral Museum
##DESCRIPTION=Colorless tetragonal prism
##STATUS=The identification of this mineral has been confirmed by X-ray diffraction and chemical analysis
##URL=rruff.info/R040003
##MEASURED CHEMISTRY=Ba_1.00_(Si_3.00_Al_2.00_)O_10_Â·4H_2_O; trace amounts of Na; H_2_O estimated by difference
##PIN_ID=m00038
##ORIENTATION=Laser parallel to b* (0 1 0). Fiducial mark perpendicular to laser is parallel to c [0 0 1]
84.311, 0.000
85.706, 19.481
87.101, 30.794
88.496, 68.973
89.890, 103.268
91.284, 255.394
92.678, 447.461
94.071, 871.116
95.465, 1101.640
96.858, 1327.042
98.251, 1925.213
99.644, 2324.218
101.036, 2902.258
102.428, 3277.774
103.820, 3706.796
105.212, 4146.320
106.604, 4468.312
107.995, 4636.113
109.387, 4949.125
110.777, 5056.688
112.168, 5338.090
113.559, 5712.488
114.949, 5879.185
116.339, 6637.647
117.729, 6842.443
119.119, 7078.633
120.508, 7669.841
121.897, 7471.949
123.286, 8074.438
124.675, 8457.191
126.063, 9380.642
127.452, 10149.906
128.840, 11447.583
130.228, 13311.257
131.615, 14596.835
133.003, 16471.922
134.390, 16857.094
135.777, 17273.559
137.164, 17250.543
138.550, 15966.218
139.937, 14800.236
141.323, 13702.531
142.709, 12983.134
144.094, 11942.179
145.480, 11349.773
146.865, 11466.029
148.250, 11311.023
149.635, 11644.831
151.019, 11557.525
152.403, 12179.161
153.788, 12219.789
155.171, 12519.464
156.555, 12308.226
157.939, 11906.124
159.322, 11253.292
160.705, 9999.826
162.088, 9085.778
163.470, 7601.090
164.853, 6525.692
166.235, 5330.531
167.617, 4622.591
168.998, 4089.783
170.380, 3641.410
171.761, 3321.972
173.142, 2980.900
174.523, 2747.482
175.904, 2645.263
177.284, 2338.569
178.664, 2191.938
180.044, 1930.097
181.424, 1879.186
182.803, 1751.824
184.183, 1735.008
185.562, 1831.245
186.940, 1706.849
188.319, 1984.213
189.698, 1859.042
191.076, 2072.102
192.454, 2025.165
193.831, 2116.102
195.209, 2140.893
196.586, 2175.532
197.963, 2183.491
199.340, 2209.569
200.717, 2203.770
202.093, 2204.690
203.470, 2204.478
204.846, 2181.956
206.221, 2162.638
207.597, 2136.000
208.972, 2098.537
210.347, 2006.052
211.722, 1986.516
213.097, 1750.902
214.472, 1837.193
215.846, 1621.380
217.220, 1609.461
218.594, 1358.423
219.967, 1318.259
221.341, 1138.964
222.714, 1007.540
224.087, 1085.987
225.460, 1158.307
226.832, 1443.500
228.204, 1985.568
229.577, 3019.513
230.948, 4600.051
232.320, 6657.451
233.692, 9595.932
235.063, 11904.924
236.434, 13274.538
237.805, 12324.146
239.175, 9772.505
240.545, 6849.362
241.916, 4334.782
243.286, 2764.256
244.655, 1614.617
246.025, 976.864
247.394, 495.001
248.763, 140.025
250.132, 55.406
251.501, 212.288
252.869, 308.399
254.237, 422.034
255.605, 413.097
256.973, 482.568
258.340, 543.609
259.708, 405.348
261.075, 468.834
262.442, 361.161
263.808, 432.363
265.175, 355.513
266.541, 223.635
267.907, 150.734
269.273, 70.822
270.639, 0.095
272.004, 30.678
273.369, 68.907
274.734, 61.752
276.099, 103.538
277.463, 87.245
278.828, 106.854
280.192, 47.641
281.556, 36.288
282.919, 109.091
284.283, 144.078
285.646, 82.261
287.009, 181.629
288.372, 13.211
289.734, 153.967
291.097, 18.063
292.459, 71.897
293.821, 120.509
295.183, 319.879
296.544, 202.018
297.905, 370.916
299.266, 417.583
300.627, 416.013
301.988, 478.699
303.348, 474.858
304.709, 708.250
306.069, 695.691
307.428, 831.043
308.788, 979.806
310.147, 1084.803
311.507, 1257.828
312.865, 1243.387
314.224, 1323.725
315.583, 1441.051
316.941, 1448.439
318.299, 1526.962
319.657, 1400.793
321.015, 1510.062
322.372, 1298.830
323.729, 1375.060
325.086, 1306.124
326.443, 1272.764
327.800, 1353.305
329.156, 1346.760
330.512, 1507.336
331.868, 1593.623
333.224, 1824.363
334.579, 2051.411
335.935, 2218.690
337.290, 2415.290
338.645, 2465.263
339.999, 2474.191
341.354, 2437.842
342.708, 2316.739
344.062, 2192.453
345.416, 2024.002
346.769, 2040.327
348.123, 1998.349
349.476, 1917.032
350.829, 1999.394
352.182, 2039.460
353.534, 2321.356
354.887, 2433.137
356.239, 2778.826
357.591, 3085.427
358.942, 3272.949
360.294, 3586.404
361.645, 3589.796
362.996, 3528.126
364.347, 3299.394
365.698, 2891.598
367.048, 2637.737
368.398, 2094.812
369.748, 1857.821
371.098, 1475.765
372.448, 1295.644
373.797, 1011.458
375.146, 838.205
376.495, 819.885
377.844, 575.497
379.192, 622.036
380.540, 522.505
381.889, 509.902
383.236, 515.225
384.584, 433.477
385.932, 493.653
387.279, 442.758
388.626, 454.790
389.973, 506.750
391.319, 499.640
392.666, 627.459
394.012, 604.211
395.358, 678.885
396.704, 836.477
398.049, 979.989
399.394, 1174.419
400.740, 1294.769
402.084, 1552.042
403.429, 1631.247
404.774, 1940.388
406.118, 1942.474
407.462, 1972.506
408.806, 1944.482
410.150, 1870.941
411.493, 1893.741
412.836, 1832.026
414.179, 1837.366
415.522, 1876.568
416.865, 1904.949
418.207, 2056.991
419.549, 2116.848
420.891, 2228.670
422.233, 2487.955
423.575, 2733.032
424.916, 2964.636
426.257, 3211.536
427.598, 3642.021
428.939, 4059.541
430.279, 4336.393
431.619, 4712.011
432.959, 4805.833
434.299, 5024.233
435.639, 4931.090
436.978, 4802.435
438.318, 4678.982
439.657, 4145.794
440.996, 3930.999
442.334, 3373.044
443.673, 3056.551
445.011, 2643.250
446.349, 2186.508
447.687, 1978.403
449.024, 1635.842
450.361, 1430.626
451.699, 1327.366
453.036, 1007.682
454.372, 920.533
455.709, 761.007
457.045, 630.206
458.381, 448.431
459.717, 381.972
461.053, 403.801
462.388, 188.539
463.724, 255.700
465.059, 142.740
466.394, 76.820
467.728, 45.768
469.063, 22.779
470.397, 30.955
471.731, 51.350
473.065, 40.719
474.398, 74.148
475.732, 46.633
477.065, 55.989
478.398, 66.816
479.731, 48.500
481.063, 70.261
482.396, 59.091
483.728, 25.009
485.060, 26.049
486.391, 90.044
487.723, 75.981
489.054, 59.875
490.385, 232.713
491.716, 267.498
493.047, 447.241
494.377, 427.938
495.708, 510.589
497.038, 678.198
498.368, 709.768
499.697, 813.304
501.027, 927.805
502.356, 1129.272
503.685, 1179.708
505.014, 1350.111
506.342, 1707.501
507.671, 1752.859
508.999, 2037.190
510.327, 2401.493
511.655, 2687.771
512.982, 3275.024
514.310, 3810.252
515.637, 4751.460
516.964, 5551.645
518.291, 7022.807
519.617, 8863.946
520.944, 10995.063
522.270, 14566.158
523.596, 18927.232
524.921, 25108.289
526.247, 32189.316
527.572, 40050.336
528.897, 46521.324
530.222, 48122.285
531.547, 46783.238
532.871, 40254.168
534.196, 33805.070
535.520, 26995.324
536.844, 20905.482
538.167, 16334.604
539.491, 13123.911
540.814, 10312.677
542.137, 8581.329
543.460, 6780.025
544.783, 5878.031
546.105, 4813.538
547.427, 3998.613
548.749, 3559.788
550.071, 2997.396
551.393, 2649.940
552.714, 2239.157
554.035, 1998.268
555.356, 1779.682
556.677, 1454.747
557.998, 1529.333
559.318, 1182.905
560.638, 1135.462
561.958, 999.005
563.278, 918.535
564.597, 856.051
565.917, 707.553
567.236, 682.042
568.555, 703.517
569.874, 546.982
571.192, 590.449
572.511, 494.958
573.829, 526.548
575.147, 424.248
576.464, 451.084
577.782, 497.058
579.099, 788.187
580.416, 829.488
581.733, 737.819
583.050, 1097.518
584.366, 555.237
585.683, 418.101
586.999, 583.150
588.315, 625.236
589.630, 737.646
590.946, 847.861
592.261, 814.191
593.576, 1004.708
594.891, 1011.163
596.206, 1140.880
597.520, 1337.371
598.834, 1505.151
600.148, 1451.108
601.462, 1540.978
602.776, 1537.641
604.089, 1463.813
605.402, 1326.994
606.715, 1266.725
608.028, 998.213
609.341, 866.677
610.653, 791.087
611.965, 580.403
613.277, 589.626
614.589, 358.338
615.901, 342.959
617.212, 265.828
618.523, 174.391
619.834, 233.169
621.145, 163.312
622.456, 177.455
623.766, 179.467
625.076, 97.597
626.386, 189.145
627.696, 112.090
629.006, 196.008
630.315, 121.409
631.624, 137.431
632.933, 273.224
634.242, 194.364
635.551, 196.808
636.859, 279.376
638.167, 323.926
639.475, 406.808
640.783, 498.581
642.090, 584.435
643.398, 703.073
644.705, 813.040
646.012, 996.125
647.318, 1149.641
648.625, 1421.118
649.931, 1698.557
651.237, 1989.237
652.543, 2404.786
653.849, 2590.251
655.155, 2945.583
656.460, 3178.679
657.765, 3158.971
659.070, 3152.432
660.375, 2770.727
661.679, 2596.851
662.984, 2263.913
664.288, 1872.023
665.592, 1601.520
666.895, 1305.809
668.199, 1198.853
669.502, 1005.271
670.805, 868.238
672.108, 758.155
673.411, 657.369
674.713, 583.359
676.016, 498.736
677.318, 425.919
678.620, 412.250
679.921, 414.398
681.223, 401.512
682.524, 378.845
683.825, 365.043
685.126, 373.201
686.427, 425.577
687.727, 420.376
689.028, 517.437
690.328, 448.387
691.628, 547.312
692.927, 583.688
694.227, 612.446
695.526, 684.533
696.825, 695.668
698.124, 877.426
699.423, 895.333
700.721, 1030.161
702.020, 1126.936
703.318, 1336.017
704.616, 1574.789
705.913, 1654.844
707.211, 1978.620
708.508, 2153.399
709.805, 2224.299
711.102, 2531.075
712.399, 2540.994
713.695, 2703.761
714.992, 2633.534
716.288, 2806.673
717.584, 2813.595
718.879, 2542.403
720.175, 2546.498
721.470, 2252.219
722.765, 1820.059
724.060, 1750.763
725.355, 1419.952
726.649, 1232.671
727.944, 1060.587
729.238, 816.524
730.532, 748.185
731.825, 595.942
733.119, 550.911
734.412, 481.541
735.705, 356.239
736.998, 381.987
738.291, 230.671
739.584, 271.445
740.876, 232.008
742.168, 136.852
743.460, 175.382
744.752, 93.018
746.043, 189.685
747.334, 136.251
748.626, 99.903
749.916, 121.396
751.207, 65.814
752.498, 125.511
753.788, 62.887
755.078, 26.241
756.368, 61.849
757.658, 42.844
758.947, 22.816
760.237, 42.048
761.526, 69.595
762.815, 31.399
764.104, 77.306
765.392, 58.285
766.680, 55.327
767.969, 84.432
769.257, 9.613
770.544, 88.835
771.832, 28.131
773.119, 38.433
774.406, 120.841
775.693, 38.245
776.980, 64.806
778.267, 69.438
779.553, 43.140
780.839, 114.898
782.125, 82.750
783.411, 104.676
784.697, 51.689
785.982, 56.758
787.267, 99.885
788.552, 12.090
789.837, 20.330
791.122, 74.608
792.406, 33.047
793.690, 32.317
794.974, 4.725
796.258, 10.836
797.542, 47.634
798.825, 31.834
800.108, 41.725
801.391, 17.657
802.674, 58.009
803.957, 12.669
805.239, 23.606
806.522, 40.849
807.804, 59.062
809.085, 89.248
810.367, 11.404
811.649, 95.525
812.930, 53.617
814.211, 91.681
815.492, 130.716
816.772, 37.275
818.053, 130.672
819.333, 36.592
820.613, 84.483
821.893, 141.345
823.173, 50.181
824.452, 128.988
825.732, 19.768
827.011, 93.513
828.290, 145.231
829.568, 50.923
830.847, 95.586
832.125, 106.221
833.403, 51.829
834.681, 106.407
835.959, 51.958
837.236, 82.479
838.514, 89.973
839.791, 36.438
841.068, 171.874
842.345, 107.284
843.621, 131.676
844.898, 136.042
846.174, 34.381
847.450, 191.692
848.726, 93.979
850.001, 82.238
851.277, 207.469
852.552, 136.674
853.827, 155.856
855.102, 169.012
856.376, 96.144
857.651, 199.252
858.925, 103.335
860.199, 205.391
861.473, 169.423
862.746, 139.429
864.020, 199.411
865.293, 133.368
866.566, 224.299
867.839, 164.206
869.112, 74.087
870.384, 123.940
871.656, 148.767
872.928, 77.568
874.200, 173.353
875.472, 134.114
876.744, 225.848
878.015, 45.560
879.286, 155.243
880.557, 105.901
881.828, 98.540
883.098, 195.153
884.369, 135.751
885.639, 82.322
886.909, 190.866
888.178, 140.387
889.448, 124.883
890.717, 136.358
891.987, 110.808
893.256, 188.233
894.524, 85.634
895.793, 169.953
897.061, 126.304
898.330, 113.388
899.598, 181.694
900.865, 85.900
902.133, 139.925
903.401, 229.011
904.668, 79.837
905.935, 151.883
907.202, 176.639
908.468, 83.216
909.735, 188.911
911.001, 49.845
912.267, 226.321
913.533, 108.849
914.799, 126.875
916.064, 204.217
917.330, 178.613
918.595, 192.134
919.860, 157.771
921.124, 136.516
922.389, 141.776
923.653, 109.115
924.918, 96.204
926.182, 183.586
927.445, 71.736
928.709, 205.020
929.972, 167.582
931.236, 144.800
932.499, 201.619
933.761, 127.884
935.024, 232.120
936.286, 223.936
937.549, 128.034
938.811, 263.774
940.073, 130.769
941.334, 288.236
942.596, 293.150
943.857, 219.623
945.118, 419.627
946.379, 422.687
947.640, 508.433
948.900, 637.972
950.161, 706.974
951.421, 1085.912
952.681, 1088.226
953.940, 1309.922
955.200, 1512.938
956.459, 1393.994
957.719, 1385.791
958.978, 1329.705
960.236, 1132.685
961.495, 1138.781
962.753, 872.099
964.012, 884.203
965.270, 695.124
966.527, 562.194
967.785, 570.419
969.043, 442.691
970.300, 422.900
971.557, 415.707
972.814, 343.707
974.071, 375.937
975.327, 346.778
976.583, 262.941
977.840, 478.369
979.095, 286.370
980.351, 402.582
981.607, 439.391
982.862, 372.382
984.117, 534.412
985.372, 501.207
986.627, 498.226
987.882, 609.011
989.136, 474.918
990.390, 690.852
991.644, 601.553
992.898, 658.820
994.152, 674.821
995.405, 673.909
996.659, 657.012
997.912, 622.228
999.165, 609.477
1000.417, 586.390
1001.670, 531.249
1002.922, 521.481
1004.174, 579.771
1005.426, 337.141
1006.678, 452.520
1007.930, 388.241
1009.181, 267.453
1010.432, 397.512
1011.683, 263.714
1012.934, 357.915
1014.185, 273.472
1015.435, 224.664
1016.685, 369.711
1017.935, 245.161
1019.185, 325.332
1020.435, 379.127
1021.684, 303.128
1022.934, 375.242
1024.183, 430.977
1025.432, 452.156
1026.680, 488.227
1027.929, 444.801
1029.177, 479.511
1030.425, 570.736
1031.673, 586.577
1032.921, 713.532
1034.169, 679.664
1035.416, 679.778
1036.663, 877.687
1037.911, 798.049
1039.157, 1059.199
1040.404, 1132.352
1041.650, 1232.552
1042.897, 1509.591
1044.143, 1595.988
1045.389, 1972.923
1046.634, 2372.182
1047.880, 2721.361
1049.125, 3431.446
1050.371, 3997.715
1051.615, 4629.740
1052.860, 5495.952
1054.105, 6013.377
1055.349, 6510.342
1056.593, 6297.615
1057.837, 5905.035
1059.081, 5762.031
1060.325, 4884.321
1061.568, 4377.219
1062.812, 3915.525
1064.055, 3420.816
1065.298, 3235.103
1066.540, 2685.458
1067.783, 2291.094
1069.025, 2230.497
1070.267, 1883.924
1071.509, 1711.377
1072.751, 1625.837
1073.993, 1337.619
1075.234, 1312.071
1076.475, 1102.587
1077.716, 1010.591
1078.957, 1073.160
1080.198, 797.752
1081.438, 802.574
1082.679, 775.208
1083.919, 657.878
1085.159, 759.577
1086.398, 558.310
1087.638, 546.184
1088.877, 608.959
1090.116, 440.767
1091.355, 469.620
1092.594, 446.450
1093.833, 407.540
1095.071, 475.399
1096.309, 336.275
1097.547, 354.221
1098.785, 391.110
1100.023, 248.021
1101.260, 402.097
1102.498, 326.028
1103.735, 301.262
1104.972, 369.199
1106.208, 199.148
1107.445, 308.262
1108.681, 339.216
1109.918, 278.173
1111.154, 382.365
1112.389, 383.331
1113.625, 413.299
1114.860, 371.270
1116.096, 242.242
1117.331, 313.478
1118.566, 333.469
1119.800, 248.461
1121.035, 414.480
1122.269, 455.476
1123.503, 551.485
1124.737, 519.616
1125.971, 209.616
1127.205, 242.708
1128.438, 117.741
1129.671, 86.748
1130.904, 162.031
1132.137, 83.042
1133.370, 149.055
1134.602, 164.255
1135.834, 39.270
1137.066, 66.409
1138.298, 110.428
1139.530, 108.448
1140.762, 121.709
1141.993, 57.269
1143.224, 99.736
1144.455, 93.997
1145.686, 24.999
1146.917, 67.158
1148.147, 47.158
1149.377, 16.159
1150.607, 114.166
1151.837, 11.835
1153.067, 11.838
1154.296, 9.439
1155.526, 29.449
1156.755, 98.637
1157.984, 7.142
1159.213, 23.836
1160.441, 84.384
1161.670, 19.554
1162.898, 30.414
1164.126, 87.331
1165.354, 11.705
1166.581, 77.507
1167.809, 56.081
1169.036, 23.038
1170.263, 82.605
1171.490, 65.179
1172.717, 98.867
1173.943, 87.789
1175.170, 12.498
1176.396, 119.930
1177.622, 14.961
1178.848, 41.886
1180.073, 79.886
1181.299, 41.004
1182.524, 58.905
1183.749, 89.284
1184.974, 5.147
1186.199, 93.005
1187.423, 22.045
1188.648, 27.891
1189.872, 67.963
1191.096, 2.915
1192.320, 82.743
1193.543, 101.859
1194.767, 17.544
1195.990, 193.264
1197.213, 74.917
1198.436, 45.716
1199.659, 124.685
1200.881, 18.764
1202.104, 103.570
1203.326, 111.070
1204.548, 25.183
1205.770, 148.950
1206.991, 120.327
1208.213, 84.085
1209.434, 103.839
1210.655, 41.588
1211.876, 176.330
1213.096, 77.135
1214.317, 13.155
1215.537, 131.876
1216.757, 111.552
1217.977, 125.283
1219.197, 169.985
1220.417, 6.768
1221.636, 96.452
1222.855, 150.129
1224.074, 13.990
1225.293, 176.659
1226.512, 92.299
1227.731, 31.944
1228.949, 135.567
1230.167, 100.380
1231.385, 124.988
1232.603, 197.587
1233.820, 55.265
1235.038, 237.846
1236.255, 91.419
1237.472, 78.066
1238.689, 243.620
1239.906, 32.167
1241.122, 93.703
1242.338, 181.230
1243.555, 74.748
1244.771, 197.255
1245.986, 143.754
1247.202, 52.447
1248.417, 159.925
1249.633, 21.393
1250.848, 143.853
1252.063, 241.307
1253.277, 55.754
1254.492, 128.194
1255.706, 144.627
1256.920, 41.834
1258.134, 109.253
1259.348, 98.666
1260.562, 104.187
1261.775, 259.585
1262.988, 36.977
1264.201, 120.359
1265.414, 203.734
1266.627, 96.101
1267.839, 217.460
1269.052, 99.812
1270.264, 72.244
1271.476, 182.579
1272.688, 83.905
1273.899, 99.426
1275.111, 174.730
1276.322, 41.025
1277.533, 225.339
1278.744, 112.613
1279.955, 63.897
1281.165, 202.147
1282.376, 80.387
1283.586, 172.678
1284.796, 159.854
1286.006, 54.005
1287.215, 175.182
1288.425, 138.259
1289.634, 49.309
1290.843, 167.387
1292.052, 73.821
1293.261, 122.819
1294.469, 191.763
1295.678, 110.692
1296.886, 168.657
1298.094, 116.333
1299.302, 4.981
1300.509, 176.660
1301.717, 87.651
1302.924, 55.421
1304.131, 214.048
1305.338, 27.782
1306.545, 92.495
1307.752, 133.711
1308.958, 15.397
1310.164, 204.067
1311.370, 53.459
1312.576, 27.100
1313.782, 181.725
1314.987, 13.663
1316.193, 51.923
1317.398, 83.577
1318.603, 52.864
1319.807, 19.660
1321.012, 13.212
1322.216, 22.730
1323.421, 54.681
1324.625, 19.747
1325.829, 7.659
1327.032, 100.135
1328.236, 46.496
1329.439, 136.838
1330.642, 130.027
1331.845, 23.669
1333.048, 86.547
1334.251, 52.748
1335.453, 80.984
1336.656, 166.038
1337.858, 90.761
1339.060, 18.391
1340.261, 135.481
1341.463, 20.404
1342.664, 151.682
1343.866, 65.712
1345.067, 43.767
1346.267, 101.670
1347.468, 2.306
1348.669, 39.698
1349.869, 219.541
1351.069, 32.482
1352.269, 115.466
1353.469, 162.527
1354.668, 38.549
1355.868, 180.225
1357.067, 89.106
1358.266, 4.975
1359.465, 203.574
1360.664, 12.411
1361.862, 99.232
1363.061, 120.042
1364.259, 82.840
1365.457, 170.326
1366.655, 149.102
1367.852, 52.869
1369.050, 257.070
1370.247, 124.817
1371.444, 98.556
1372.641, 226.081
1373.838, 53.894
1375.035, 211.604
1376.231, 166.310
1377.427, 79.009
1378.623, 227.581
1379.819, 165.272
1381.015, 78.960
1382.211, 253.612
1383.406, 108.735
1384.601, 144.183
1385.796, 228.866
1386.991, 128.554
1388.185, 167.188
1389.380, 235.830
1390.574, 49.463
1391.768, 301.921
1392.962, 200.561
1394.156, 117.860
1395.350, 292.276
1396.543, 137.839
1397.736, 160.139
1398.929, 208.659
1400.122, 17.881
1401.315, 147.362
1402.507, 257.800
1403.700, 71.087
1404.892, 211.415
1406.084, 205.790
1407.276, 148.868
1408.467, 265.020
1409.659, 162.222
1410.850, 190.541
1412.041, 229.566
1413.232, 78.567
1414.423, 187.668
1415.614, 233.938
1416.804, 55.185
1417.994, 256.722
1419.184, 162.813
1420.374, 92.726
1421.564, 291.095
1422.753, 93.071
1423.943, 173.903
1425.132, 189.249
1426.321, 77.614
1427.510, 196.956
1428.698, 274.560
1429.887, 69.980
1431.075, 191.294
1432.263, 188.865
1433.451, 64.639
1434.639, 275.898
1435.827, 142.103
1437.014, 113.232
1438.201, 245.646
1439.388, 39.944
1440.575, 162.707
1441.762, 189.490
1442.949, 60.355
1444.135, 252.072
1445.321, 186.010
1446.507, 157.065
1447.693, 355.114
1448.879, 74.590
1450.064, 225.494
1451.250, 275.525
1452.435, 101.183
1453.620, 239.167
1454.805, 310.801
1455.989, 83.751
1457.174, 324.517
1458.358, 195.259
1459.542, 166.123
1460.726, 289.957
1461.910, 288.760
1463.093, 558.130
1464.277, 276.865
1465.460, 81.548
1466.643, 245.167
1467.826, 255.068
1469.009, 112.520
1470.191, 323.645
1471.373, 171.945
1472.556, 146.170
1473.738, 189.315
1474.919, 128.169
1476.101, 171.652
1477.283, 314.554
1478.464, 107.301
1479.645, 230.992
1480.826, 163.497
1482.007, 107.335
1483.187, 184.145
1484.368, 287.127
1485.548, 113.246
1486.728, 270.569
1487.908, 1.234
1489.088, 89.185
1490.268, 247.797
1491.447, 83.495
1492.626, 131.247
1493.805, 231.985
1494.984, 6.285
1496.163, 231.433
1497.341, 194.142
1498.520, 18.837
1499.698, 223.536
1500.876, 30.231
1502.054, 8.994
1503.232, 209.790
1504.409, 38.626
1505.586, 124.539
1506.763, 195.544
1507.940, 57.663
