##NAMES=Edingtonite
##RRUFFID=R040003
##IDEAL CHEMISTRY=Ba(Si_3_Al_2_)O_10_&#183;4H_2_O
##LOCALITY=Bohl, Sweden
##OWNER=RRUFF
##SOURCE=University of Arizona Mineral Museum
##DESCRIPTION=Colorless tetragonal prism
##STATUS=The identification of this mineral has been confirmed by X-ray diffraction and chemical analysis
##URL=rruff.info/R040003
##MEASURED CHEMISTRY=Ba_1.00_(Si_3.00_Al_2.00_)O_10_Â·4H_2_O; trace amounts of Na; H_2_O estimated by difference
##PIN_ID=m00038
##ORIENTATION=Laser parallel to b* (0 1 0). Fiducial mark perpendicular to laser is parallel to c [0 0 1]
125.506, 0.000
126.895, 71.791
128.284, 279.146
129.673, 392.326
131.062, 544.691
132.450, 882.363
133.838, 1014.770
135.226, 1150.449
136.614, 897.043
138.001, 793.955
139.388, 1253.714
140.775, 1377.299
142.162, 1613.115
143.549, 1807.971
144.935, 2250.721
146.321, 2689.772
147.707, 3406.178
149.093, 4182.292
150.478, 5094.607
151.863, 6296.244
153.248, 7155.864
154.633, 7739.343
156.018, 7911.136
157.402, 8272.623
158.786, 7380.867
160.170, 6390.671
161.554, 5508.139
162.937, 4637.716
164.320, 3777.463
165.703, 3223.396
167.086, 2506.498
168.469, 2081.771
169.851, 1674.702
171.233, 1324.084
172.615, 1183.703
173.996, 937.932
175.378, 737.976
176.759, 762.963
178.140, 657.207
179.521, 410.021
180.901, 425.024
182.281, 324.998
183.662, 122.535
185.041, 250.083
186.421, 124.782
187.800, 59.105
189.180, 63.132
190.558, 368.536
191.937, 223.231
193.316, 253.803
194.694, 153.751
196.072, 151.593
197.450, 144.927
198.827, 211.921
200.205, 169.896
201.582, 290.715
202.959, 243.283
204.336, 287.902
205.712, 225.010
207.088, 456.340
208.465, 345.226
209.840, 303.005
211.216, 17.348
212.591, 8.766
213.967, 131.061
215.341, 100.786
216.716, 73.360
218.091, 208.962
219.465, 167.396
220.839, 185.450
222.213, 224.713
223.586, 313.326
224.960, 420.782
226.333, 277.952
227.706, 335.042
229.079, 222.165
230.451, 10.297
231.823, 10.299
233.195, 399.218
234.567, 758.071
235.939, 1375.564
237.310, 1322.689
238.682, 1059.455
240.052, 895.865
241.423, 611.938
242.794, 467.650
244.164, 182.921
245.534, 167.719
246.904, 42.021
248.274, 34.174
249.643, 50.922
251.012, 78.212
252.381, 55.968
253.750, 103.864
255.118, 111.642
256.487, 70.578
257.855, 145.401
259.223, 27.480
260.590, 20.698
261.958, 130.782
263.325, 81.489
264.692, 121.584
266.059, 100.917
267.425, 50.056
268.791, 58.711
270.158, 52.770
271.523, 74.521
272.889, 86.553
274.255, 99.623
275.620, 17.044
276.985, 56.732
278.350, 11.052
279.714, 78.958
281.078, 28.511
282.443, 82.341
283.806, 52.482
285.170, 108.020
286.534, 70.860
287.897, 171.019
289.260, 171.484
290.623, 191.241
291.985, 260.296
293.348, 155.658
294.710, 376.342
296.072, 281.365
297.433, 459.725
298.795, 535.396
300.156, 440.337
301.517, 694.506
302.878, 517.889
304.239, 580.583
305.599, 692.483
306.959, 754.773
308.319, 826.290
309.679, 1007.688
311.038, 1088.020
312.398, 1117.980
313.757, 1048.231
315.116, 1097.497
316.474, 1136.479
317.833, 1165.371
319.191, 1112.922
320.549, 1080.148
321.907, 1006.852
323.264, 991.974
324.622, 975.190
325.979, 937.666
327.336, 926.476
328.692, 919.514
330.049, 899.410
331.405, 887.390
332.761, 895.717
334.117, 972.748
335.473, 990.991
336.828, 993.283
338.183, 1080.628
339.538, 1095.279
340.893, 1101.261
342.247, 1014.752
343.602, 1187.974
344.956, 1141.010
346.310, 1343.865
347.663, 1355.948
349.017, 1538.852
350.370, 1730.986
351.723, 1763.295
353.076, 2214.747
354.428, 2307.740
355.780, 2849.896
357.133, 3251.466
358.484, 3479.463
359.836, 4047.148
361.188, 4061.447
362.539, 4186.305
363.890, 3941.666
365.241, 3643.752
366.591, 3236.699
367.942, 2889.117
369.292, 2470.517
370.642, 2170.051
371.992, 1906.373
373.341, 1606.204
374.691, 1404.595
376.040, 1215.499
377.388, 1081.223
378.737, 1037.308
380.086, 907.369
381.434, 838.992
382.782, 962.540
384.130, 795.984
385.477, 938.716
386.825, 666.595
388.172, 653.056
389.519, 713.750
390.865, 753.340
392.212, 855.710
393.558, 737.485
394.904, 785.589
396.250, 779.244
397.596, 742.211
398.941, 875.643
400.286, 777.913
401.631, 919.952
402.976, 865.733
404.321, 996.884
405.665, 921.911
407.009, 1005.865
408.353, 962.155
409.697, 1057.841
411.040, 1133.952
412.384, 1019.831
413.727, 1092.922
415.070, 1138.153
416.412, 1178.966
417.755, 1333.564
419.097, 1425.701
420.439, 1497.323
421.781, 1771.405
423.122, 1863.604
424.464, 2066.656
425.805, 2107.923
427.146, 2561.392
428.486, 2625.422
429.827, 2816.709
431.167, 2890.642
432.507, 2933.939
433.847, 3018.089
435.187, 2842.064
436.526, 2716.051
437.865, 2480.508
439.204, 2163.826
440.543, 1878.636
441.882, 1592.805
443.220, 1417.689
444.558, 1132.776
445.896, 997.275
447.234, 822.817
448.572, 657.398
449.909, 652.140
451.246, 420.272
452.583, 437.561
453.919, 316.055
455.256, 407.262
456.592, 358.918
457.928, 172.396
459.264, 272.423
460.600, 209.570
461.935, 86.783
463.270, 236.015
464.605, 157.896
465.940, 126.519
467.274, 260.973
468.609, 161.995
469.943, 238.854
471.277, 147.459
472.610, 274.942
473.944, 248.331
475.277, 183.566
476.610, 304.699
477.943, 240.824
479.275, 263.269
480.608, 264.770
481.940, 326.253
483.272, 533.115
484.604, 229.030
485.935, 502.941
487.267, 497.440
488.598, 452.460
489.929, 577.460
491.260, 592.437
492.590, 747.389
493.920, 782.322
495.250, 927.228
496.580, 1032.107
497.910, 1106.971
499.239, 1311.802
500.569, 1296.607
501.898, 1671.387
503.226, 1616.171
504.555, 1890.957
505.883, 2155.757
507.212, 2350.569
508.540, 2685.394
509.867, 3110.238
511.195, 3505.104
512.522, 4249.980
513.849, 4854.879
515.176, 5759.811
516.503, 7034.785
517.829, 8419.785
519.156, 10754.818
520.482, 13469.870
521.808, 17264.916
523.133, 22579.961
524.459, 28844.818
525.784, 37489.340
527.109, 46334.289
528.434, 52678.570
529.758, 55463.445
531.083, 52157.078
532.407, 45540.641
533.731, 37384.484
535.055, 30278.516
536.378, 23393.033
537.701, 18717.021
539.025, 14841.269
540.348, 12025.521
541.670, 9779.646
542.993, 8124.430
544.315, 6968.809
545.637, 5773.616
546.959, 4938.418
548.281, 4293.236
549.602, 3778.054
550.923, 3322.873
552.244, 2997.685
553.565, 2602.489
554.886, 2457.285
556.206, 2232.077
557.526, 1936.875
558.846, 1801.669
560.166, 1566.470
561.486, 1571.281
562.805, 1316.104
564.124, 1330.938
565.443, 1295.772
566.762, 1030.619
568.080, 1035.472
569.399, 900.338
570.717, 925.209
572.035, 900.081
573.352, 794.968
574.670, 719.856
575.987, 844.748
577.304, 649.641
578.621, 694.533
579.938, 609.428
581.254, 584.320
582.570, 509.216
583.886, 564.110
585.202, 509.003
586.518, 493.893
587.833, 458.775
589.148, 423.658
590.463, 458.532
591.778, 373.331
593.093, 468.121
594.407, 321.846
595.721, 365.942
597.035, 299.230
598.349, 253.396
599.662, 307.184
600.976, 300.042
602.289, 335.089
603.602, 348.609
604.914, 451.640
606.227, 335.071
607.539, 438.315
608.851, 221.313
610.163, 384.926
611.475, 328.071
612.786, 331.801
614.097, 395.211
615.408, 309.567
616.719, 314.102
618.030, 438.498
619.340, 553.732
620.651, 458.435
621.961, 613.378
623.270, 797.907
624.580, 716.138
625.889, 1123.403
627.199, 988.730
628.507, 1115.959
629.816, 1111.239
631.125, 829.967
632.433, 817.189
633.741, 653.521
635.049, 631.974
636.357, 777.801
637.664, 674.304
638.972, 821.587
640.279, 817.238
641.586, 1013.729
642.893, 1009.013
644.199, 1247.611
645.505, 1555.201
646.811, 1652.250
648.117, 1838.795
649.423, 2076.624
650.728, 2282.484
652.034, 2699.027
653.339, 2963.666
654.644, 3099.713
655.948, 3344.889
657.253, 3070.812
658.557, 3185.668
659.861, 2850.400
661.165, 2585.105
662.468, 2209.736
663.772, 2024.619
665.075, 1789.472
666.378, 1463.869
667.681, 1318.670
668.983, 1163.045
670.286, 937.516
671.588, 911.869
672.890, 766.290
674.192, 680.969
675.493, 715.301
676.795, 559.627
678.096, 674.328
679.397, 568.634
680.697, 552.962
681.998, 517.544
683.298, 592.242
684.598, 566.681
685.898, 480.935
687.198, 595.176
688.498, 559.404
689.797, 643.621
691.096, 667.823
692.395, 502.013
693.694, 726.188
694.992, 670.352
696.290, 894.502
697.589, 828.639
698.886, 922.763
700.184, 1086.872
701.482, 1150.970
702.779, 1175.054
704.076, 1379.122
705.373, 1323.178
706.669, 1477.219
707.966, 1461.247
709.262, 1545.261
710.558, 1699.260
711.854, 1723.245
713.150, 1787.216
714.445, 1921.172
715.740, 2005.113
717.035, 1869.040
718.330, 1812.953
719.625, 1706.850
720.919, 1610.731
722.214, 1304.599
723.508, 1238.451
724.801, 812.288
726.095, 776.110
727.388, 669.916
728.682, 553.708
729.975, 517.484
731.267, 331.245
732.560, 274.991
733.852, 268.722
735.145, 122.442
736.437, 176.150
737.728, 79.849
739.020, 113.335
740.311, 127.007
741.603, 69.327
742.894, 24.311
744.184, 7.936
745.475, 71.549
746.765, 35.151
748.055, 58.173
749.345, 62.048
750.635, 65.617
751.925, 19.175
753.214, 2.721
754.503, 23.748
755.792, 41.366
757.081, 49.386
758.370, 63.278
759.658, 49.838
760.946, 56.421
762.234, 33.030
763.522, 189.661
764.809, 106.347
766.097, 83.075
767.384, 109.832
768.671, 6.631
769.958, 183.455
771.244, 100.334
772.530, 57.254
773.817, 154.206
775.102, 31.211
776.388, 68.244
777.674, 105.311
778.959, 22.419
780.244, 69.554
781.529, 3.277
782.814, 163.914
784.098, 121.159
785.383, 98.450
786.667, 75.780
787.951, 133.146
789.235, 40.558
790.518, 77.999
791.801, 114.525
793.084, 52.968
794.367, 0.491
795.650, 48.036
796.933, 54.390
798.215, 76.796
799.497, 79.186
800.779, 91.559
802.061, 33.913
803.342, 36.251
804.624, 268.568
805.905, 40.872
807.186, 213.157
808.466, 105.428
809.747, 167.683
811.027, 109.925
812.307, 52.151
813.587, 204.359
814.867, 206.554
816.146, 38.734
817.426, 190.898
818.705, 113.047
819.984, 55.182
821.263, 27.300
822.541, 79.400
823.819, 221.485
825.098, 203.557
826.375, 245.614
827.653, 217.658
828.931, 119.689
830.208, 191.707
831.485, 213.712
832.762, 175.703
834.039, 317.682
835.315, 286.757
836.592, 321.599
837.868, 343.539
839.144, 275.466
840.420, 347.380
841.695, 209.280
842.970, 471.169
844.246, 413.045
845.521, 514.908
846.795, 506.760
848.070, 468.599
849.344, 530.426
850.618, 482.240
851.892, 364.044
853.166, 595.833
854.440, 527.612
855.713, 679.379
856.986, 731.133
858.259, 702.877
859.532, 994.609
860.804, 846.329
862.077, 988.037
863.349, 869.735
864.621, 841.421
865.893, 783.095
867.164, 744.760
868.436, 506.413
869.707, 638.055
870.978, 469.687
872.248, 491.309
873.519, 452.642
874.789, 374.221
876.060, 545.345
877.330, 406.626
878.599, 367.966
879.869, 527.582
881.138, 358.431
882.408, 499.199
883.677, 380.258
884.945, 421.150
886.214, 452.145
887.482, 333.183
888.751, 504.231
890.019, 435.063
891.287, 425.797
892.554, 436.186
893.822, 316.280
895.089, 526.221
896.356, 355.894
897.623, 675.811
898.889, 625.599
900.156, 425.814
901.422, 452.624
902.688, 411.364
903.954, 380.635
905.220, 429.282
906.485, 269.856
907.750, 436.783
909.015, 415.639
910.280, 315.368
911.545, 502.963
912.809, 353.171
914.074, 402.688
915.338, 361.412
916.602, 281.754
917.865, 291.240
919.129, 181.923
920.392, 199.286
921.655, 277.646
922.918, 96.534
924.181, 295.915
925.443, 83.998
926.706, 174.035
927.968, 273.391
929.230, 184.636
930.491, 264.472
931.753, 245.166
933.014, 125.099
934.276, 336.104
935.536, 217.216
936.797, 268.342
938.058, 289.540
939.318, 170.473
940.578, 461.420
941.838, 272.812
943.098, 323.789
944.358, 415.192
945.617, 326.488
946.876, 477.890
948.135, 449.226
949.394, 550.299
950.653, 801.713
951.911, 783.128
953.169, 784.155
954.427, 1085.573
955.685, 956.958
956.943, 968.079
958.200, 1139.086
959.458, 890.338
960.715, 981.766
961.971, 813.209
963.228, 754.651
964.485, 746.101
965.741, 647.552
966.997, 689.003
968.253, 580.457
969.508, 681.912
970.764, 583.369
972.019, 694.829
973.274, 616.290
974.529, 607.750
975.784, 559.210
977.039, 610.452
978.293, 532.134
979.547, 733.597
980.801, 855.060
982.055, 896.523
983.308, 1117.988
984.562, 869.454
985.815, 1110.920
987.068, 1292.388
988.321, 1163.856
989.573, 1475.328
990.826, 1516.799
992.078, 1578.271
993.330, 1829.744
994.582, 1686.689
995.833, 1662.699
997.085, 1534.178
998.336, 1565.661
999.587, 1567.145
1000.838, 1528.630
1002.088, 1730.139
1003.339, 1911.629
1004.589, 1673.120
1005.839, 1524.804
1007.089, 1196.298
1008.339, 777.793
1009.588, 829.562
1010.838, 501.061
1012.087, 663.996
1013.336, 625.503
1014.584, 407.014
1015.833, 588.643
1017.081, 510.364
1018.330, 681.995
1019.577, 695.003
1020.825, 716.865
1022.073, 944.938
1023.320, 776.484
1024.567, 988.601
1025.814, 900.688
1027.061, 952.258
1028.308, 983.994
1029.554, 895.587
1030.800, 827.188
1032.046, 978.984
1033.292, 860.604
1034.538, 942.554
1035.783, 964.187
1037.029, 905.845
1038.274, 1117.516
1039.519, 1169.198
1040.763, 1180.894
1042.008, 1462.991
1043.252, 1354.714
1044.496, 1726.451
1045.740, 2008.196
1046.984, 2239.961
1048.228, 2861.788
1049.471, 3203.567
1050.714, 3935.360
1051.957, 4357.162
1053.200, 4618.970
1054.442, 4822.617
1055.685, 4814.863
1056.927, 4376.709
1058.169, 3798.744
1059.411, 3450.611
1060.652, 2972.529
1061.894, 2667.062
1063.135, 2068.961
1064.376, 1973.232
1065.617, 1825.444
1066.858, 1537.353
1068.098, 1572.751
1069.339, 1264.665
1070.579, 1076.580
1071.819, 1180.766
1073.058, 942.679
1074.298, 1204.611
1075.537, 927.010
1076.776, 978.926
1078.015, 953.488
1079.254, 775.521
1080.493, 957.507
1081.731, 831.962
1082.969, 843.898
1084.207, 1176.918
1085.445, 849.125
1086.683, 941.058
1087.920, 923.796
1089.157, 655.763
1090.394, 717.866
1091.631, 562.188
1092.868, 504.123
1094.105, 796.274
1095.341, 281.457
1096.577, 383.400
1097.813, 576.662
1099.049, 269.001
1100.284, 470.949
1101.519, 373.517
1102.755, 195.459
1103.990, 478.019
1105.224, 310.435
1106.459, 352.373
1107.693, 424.307
1108.928, 296.237
1110.162, 368.164
1111.395, 270.286
1112.629, 412.207
1113.863, 404.124
1115.096, 236.034
1116.329, 437.950
1117.562, 299.860
1118.795, 211.766
1120.027, 573.665
1121.259, 766.039
1122.492, 835.257
1123.723, 877.278
1124.955, 971.684
1126.187, 643.553
1127.418, 455.416
1128.649, 167.962
1129.880, 449.812
1131.111, 72.202
1132.342, 144.038
1133.572, 315.869
1134.802, 68.202
1136.033, 250.019
1137.262, 191.828
1138.492, 33.631
1139.722, 195.425
1140.951, 97.210
1142.180, 18.989
1143.409, 80.758
1144.638, 56.900
1145.866, 94.838
1147.095, 116.572
1148.323, 58.516
1149.551, 40.236
1150.779, 61.946
1152.006, 56.352
1153.234, 15.327
1154.461, 273.006
1155.688, 118.980
1156.915, 9.432
1158.141, 5.024
1159.368, 256.533
1160.594, 59.559
1161.820, 101.098
1163.046, 272.627
1164.272, 54.146
1165.498, 345.653
1166.723, 27.152
1167.948, 108.638
1169.173, 220.112
1170.398, 111.577
1171.623, 253.030
1172.847, 204.473
1174.071, 15.950
1175.295, 197.368
1176.519, 228.772
1177.743, 250.166
1178.966, 231.548
1180.190, 92.917
1181.413, 364.274
1182.636, 345.618
1183.858, 106.949
1185.081, 118.269
1186.303, 60.427
1187.526, 20.848
1188.748, 152.105
1189.969, 73.349
1191.191, 154.578
1192.412, 105.793
1193.634, 93.006
1194.855, 208.156
1196.076, 80.696
1197.296, 50.414
1198.517, 201.507
1199.737, 127.415
1200.957, 183.727
1202.177, 244.743
1203.397, 74.256
1204.617, 226.709
1205.836, 117.658
1207.055, 18.593
1208.274, 140.250
1209.493, 88.851
1210.712, 106.631
1211.930, 117.850
1213.148, 80.987
1214.367, 230.548
1215.584, 18.682
1216.802, 72.755
1218.020, 233.479
1219.237, 5.813
1220.454, 124.943
1221.671, 96.019
1222.888, 73.333
1224.105, 229.640
1225.321, 90.486
1226.537, 108.723
1227.753, 265.269
1228.969, 24.222
1230.185, 58.433
1231.400, 290.186
1232.616, 10.627
1233.831, 351.849
1235.046, 12.824
1236.261, 43.204
1237.475, 325.102
1238.689, 315.492
1239.904, 266.061
1241.118, 376.903
1242.332, 107.321
1243.545, 448.367
1244.759, 208.678
1245.972, 228.930
1247.185, 311.440
1248.398, 191.649
1249.611, 221.845
1250.823, 292.122
1252.036, 52.286
1253.248, 302.436
1254.460, 282.642
1255.671, 172.754
1256.883, 362.853
1258.095, 192.934
1259.306, 12.999
1260.517, 393.048
1261.728, 43.081
1262.938, 173.093
1264.149, 293.280
1265.359, 53.261
1266.569, 333.204
1267.779, 343.229
1268.989, 223.143
1270.199, 472.841
1271.408, 302.714
1272.617, 342.573
1273.826, 432.418
1275.035, 42.246
1276.244, 440.622
1277.452, 430.995
1278.661, 120.771
1279.869, 400.790
1281.077, 220.758
1282.285, 170.387
1283.492, 288.626
1284.700, 177.999
1285.907, 81.148
1287.114, 320.812
1288.321, 80.107
1289.527, 348.992
1290.734, 21.325
1291.940, 228.104
1293.146, 427.670
1294.352, 227.216
1295.558, 376.521
1296.763, 316.146
1297.969, 255.273
1299.174, 304.708
1300.379, 344.123
1301.584, 233.506
1302.788, 362.867
1303.993, 162.186
1305.197, 191.062
1306.401, 500.313
1307.605, 189.542
1308.809, 208.742
1310.013, 537.919
1311.216, 227.013
1312.419, 636.147
1313.622, 315.242
1314.825, 484.318
1316.028, 533.379
1317.230, 270.587
1318.432, 509.197
1319.634, 538.206
1320.836, 277.020
1322.038, 585.991
1323.240, 394.909
1324.441, 391.201
1325.642, 680.119
1326.843, 296.643
1328.044, 445.207
1329.245, 404.059
1330.445, 149.401
1331.645, 528.208
1332.845, 306.998
1334.045, 203.498
1335.245, 242.248
1336.445, 240.960
1337.644, 19.187
1338.843, 247.875
1340.042, 156.103
1341.241, 92.430
1342.440, 100.994
1343.638, 17.068
1344.836, 265.645
1346.034, 23.122
1347.232, 271.396
1348.430, 269.926
1349.628, 157.637
1350.825, 86.104
1352.022, 224.416
1353.219, 59.502
1354.416, 118.952
1355.613, 127.178
1356.809, 107.643
1358.005, 280.764
1359.202, 52.159
1360.398, 14.170
1361.593, 244.201
1362.789, 11.945
1363.984, 50.307
1365.179, 228.047
1366.374, 24.073
1367.569, 164.283
1368.764, 122.646
1369.958, 62.146
1371.153, 150.529
1372.347, 18.735
1373.541, 168.262
1374.735, 226.496
1375.928, 53.321
1377.122, 271.548
1378.315, 260.497
1379.508, 158.928
1380.701, 267.820
1381.893, 246.689
1383.086, 164.809
1384.278, 423.042
1385.470, 321.822
1386.662, 340.028
1387.854, 228.751
1389.046, 307.452
1390.237, 376.127
1391.428, 364.133
1392.619, 142.515
1393.810, 421.111
1395.001, 209.692
1396.191, 167.837
1397.382, 403.084
1398.572, 209.874
1399.762, 258.395
1400.952, 346.892
1402.141, 125.367
1403.331, 283.822
1404.520, 392.253
1405.709, 60.606
1406.898, 478.997
1408.087, 107.368
1409.275, 95.721
1410.464, 324.053
1411.652, 322.378
1412.840, 350.702
1414.028, 449.012
1415.215, 197.322
1416.403, 425.650
1417.590, 433.985
1418.777, 172.188
1419.964, 520.559
1421.151, 318.937
1422.338, 356.159
1423.524, 506.701
1424.710, 153.255
1425.896, 290.409
1427.082, 508.676
1428.268, 406.145
1429.453, 510.419
1430.639, 467.836
1431.824, 390.039
1433.009, 742.060
1434.194, 528.691
1435.378, 555.693
1436.563, 840.762
1437.747, 557.253
1438.931, 853.443
1440.115, 1071.199
1441.299, 804.457
1442.482, 1231.985
1443.666, 1339.669
1444.849, 1107.164
1446.032, 1524.782
1447.215, 1262.359
1448.397, 1339.896
1449.580, 1646.950
1450.762, 1524.209
1451.944, 1491.702
1453.126, 1819.171
1454.308, 1525.896
1455.490, 1611.747
1456.671, 1778.040
1457.852, 1464.077
1459.033, 1711.169
1460.214, 1678.194
1461.395, 1365.146
1462.575, 1561.780
1463.756, 1428.576
1464.936, 1165.061
1466.116, 1442.009
1467.296, 928.961
1468.475, 1016.022
1469.655, 1123.353
1470.834, 770.749
1472.013, 918.242
1473.192, 765.831
1474.371, 573.507
1475.550, 821.188
1476.728, 498.877
1477.906, 746.601
1479.084, 704.350
1480.262, 432.194
1481.440, 570.215
1482.617, 728.359
1483.795, 406.641
1484.972, 725.108
1486.149, 733.781
1487.326, 472.654
1488.502, 741.730
1489.679, 421.023
1490.855, 240.570
1492.031, 590.430
1493.207, 240.668
1494.383, 391.340
1495.559, 242.521
1496.734, 34.307
1497.909, 376.844
1499.084, 290.336
1500.259, 55.061
1501.434, 362.939
1502.608, 19.598
1503.783, 0.000
##END=



