##NAMES=Edingtonite
##RRUFFID=R040003
##IDEAL CHEMISTRY=Ba(Si_3_Al_2_)O_10_&#183;4H_2_O
##LOCALITY=Bohl, Sweden
##OWNER=RRUFF
##SOURCE=University of Arizona Mineral Museum
##DESCRIPTION=Colorless tetragonal prism
##STATUS=The identification of this mineral has been confirmed by X-ray diffraction and chemical analysis
##URL=rruff.info/R040003
##MEASURED CHEMISTRY=Ba_1.00_(Si_3.00_Al_2.00_)O_10_Â·4H_2_O; trace amounts of Na; H_2_O estimated by difference
##PIN_ID=m00029
##ORIENTATION=Laser parallel to c* (0 0 1). Fiducial mark perpendicular to laser is parallel to a [1 0 0]
89.890, 0.000
91.284, 210.353
92.678, 24.200
94.071, 120.788
95.465, 139.858
96.858, 158.925
98.251, 357.689
99.644, 501.073
101.036, 877.457
102.428, 1124.802
103.820, 1471.415
105.212, 1695.743
106.604, 1966.436
107.995, 1832.286
109.387, 1922.171
110.777, 1765.643
112.168, 1853.627
113.559, 2266.223
114.949, 2432.416
116.339, 2801.527
117.729, 3062.931
119.119, 3416.193
120.508, 3761.042
121.897, 3906.867
123.286, 4513.504
124.675, 4850.453
126.063, 5547.066
127.452, 6123.227
128.840, 7388.904
130.228, 8605.974
131.615, 9709.475
133.003, 11040.781
134.390, 11637.641
135.777, 12256.441
137.164, 12053.590
138.550, 11248.680
139.937, 10712.689
141.323, 9866.863
142.709, 9390.249
144.094, 8651.993
145.480, 8532.194
146.865, 8822.633
148.250, 9383.426
149.635, 10284.567
151.019, 11142.516
152.403, 12557.525
153.788, 12981.795
155.171, 13706.788
156.555, 13692.645
157.939, 12963.065
159.322, 11666.319
160.705, 10048.458
162.088, 8509.531
163.470, 7059.584
164.853, 5818.668
166.235, 4786.822
167.617, 3987.447
168.998, 3333.502
170.380, 2817.508
171.761, 2559.465
173.142, 2285.086
174.523, 2081.274
175.904, 2016.590
177.284, 1850.784
178.664, 1845.342
180.044, 1774.521
181.424, 1826.915
182.803, 1599.022
184.183, 1550.360
185.562, 1433.188
186.940, 1374.980
188.319, 1372.627
189.698, 1206.108
191.076, 1264.856
192.454, 1208.398
193.831, 1217.425
195.209, 1094.913
196.586, 1010.005
197.963, 961.317
199.340, 945.404
200.717, 832.643
202.093, 798.777
203.470, 709.956
204.846, 696.176
206.221, 606.099
207.597, 610.058
208.972, 498.962
210.347, 643.723
211.722, 587.958
213.097, 609.271
214.472, 734.421
215.846, 652.263
217.220, 606.008
218.594, 536.641
219.967, 498.155
221.341, 434.549
222.714, 417.821
224.087, 558.963
225.460, 608.971
226.832, 968.841
228.204, 1136.576
229.577, 1772.169
230.948, 2692.615
232.320, 3781.906
233.692, 5089.045
235.063, 5983.039
236.434, 6306.890
237.805, 5490.590
239.175, 4337.135
240.545, 2999.533
241.916, 1833.810
243.286, 1105.972
244.655, 490.021
246.025, 271.957
247.394, 95.782
248.763, 54.501
250.132, 149.900
251.501, 252.985
252.869, 296.383
254.237, 381.836
255.605, 428.474
256.973, 463.738
258.340, 432.987
259.708, 406.747
261.075, 414.093
262.442, 338.171
263.808, 422.063
265.175, 313.876
266.541, 229.644
267.907, 241.398
269.273, 154.188
270.639, 12.027
272.004, 81.088
273.369, 95.153
274.734, 269.151
276.099, 298.076
277.463, 299.908
278.828, 363.626
280.192, 346.214
281.556, 282.657
282.919, 184.940
284.283, 72.047
285.646, 114.958
287.009, 6.330
288.372, 41.156
289.734, 45.574
291.097, 85.544
292.459, 18.764
293.821, 18.214
295.183, 36.097
296.544, 95.156
297.905, 154.938
299.266, 171.427
300.627, 216.614
301.988, 310.510
303.348, 441.135
304.709, 506.494
306.069, 621.592
307.428, 706.440
308.788, 806.037
310.147, 985.406
311.507, 1085.543
312.865, 1088.449
314.224, 1140.136
315.583, 1149.604
316.941, 1082.889
318.299, 1096.975
319.657, 927.854
321.015, 968.526
322.372, 697.012
323.729, 685.341
325.086, 720.501
326.443, 662.495
327.800, 746.323
329.156, 650.993
330.512, 778.506
331.868, 699.854
333.224, 811.965
334.579, 818.628
335.935, 924.677
337.290, 1080.999
338.645, 1169.573
339.999, 1426.459
341.354, 1588.704
342.708, 1633.428
344.062, 1857.712
345.416, 1934.778
346.769, 2079.698
348.123, 2086.500
349.476, 2083.194
350.829, 2103.756
352.182, 2103.140
353.534, 2116.330
354.887, 2075.156
356.239, 2149.761
357.591, 2153.177
358.942, 2188.450
360.294, 2275.605
361.645, 2196.678
362.996, 2209.675
364.347, 2111.453
365.698, 2032.037
367.048, 1876.194
368.398, 1680.239
369.748, 1737.845
371.098, 1602.392
372.448, 1672.399
373.797, 1518.935
375.146, 1630.166
376.495, 1821.416
377.844, 1774.129
379.192, 2046.442
380.540, 2065.508
381.889, 2273.229
383.236, 2454.737
384.584, 2443.835
385.932, 2568.746
387.279, 2367.352
388.626, 2308.118
389.973, 2238.945
391.319, 2076.723
392.666, 2098.453
394.012, 1936.135
395.358, 2004.770
396.704, 1901.358
398.049, 2046.900
399.394, 2151.397
400.740, 2239.850
402.084, 2416.258
403.429, 2435.623
404.774, 2530.945
406.118, 2530.224
407.462, 2503.873
408.806, 2530.870
410.150, 2362.745
411.493, 2322.987
412.836, 2231.256
414.179, 2191.072
415.522, 2240.187
416.865, 2183.973
418.207, 2344.758
419.549, 2204.266
420.891, 2349.655
422.233, 2462.576
423.575, 2656.909
424.916, 2705.867
426.257, 2913.412
427.598, 3120.593
428.939, 3302.903
430.279, 3622.313
431.619, 3745.034
432.959, 3805.510
434.299, 3986.338
435.639, 3736.422
436.978, 3816.505
438.318, 3622.825
439.657, 3296.040
440.996, 3126.672
442.334, 2927.045
443.673, 2555.657
445.011, 2294.737
446.349, 2140.817
447.687, 2001.062
449.024, 1681.839
450.361, 1691.177
451.699, 1444.158
453.036, 1328.469
454.372, 1256.813
455.709, 1184.036
457.045, 1128.351
458.381, 1089.861
459.717, 1100.875
461.053, 1075.122
462.388, 968.127
463.724, 1078.548
465.059, 1008.205
466.394, 1039.246
467.728, 1095.169
469.063, 1052.980
470.397, 1201.108
471.731, 1171.653
473.065, 1382.031
474.398, 1453.108
475.732, 1483.907
477.065, 1521.624
478.398, 1626.488
479.731, 1789.454
481.063, 1893.609
482.396, 2074.156
483.728, 2179.712
485.060, 2408.522
486.391, 2602.587
487.723, 2721.361
489.054, 2903.446
490.385, 3100.090
491.716, 3263.230
493.047, 3457.992
494.377, 3532.178
495.708, 3678.349
497.038, 3776.937
498.368, 3717.169
499.697, 3824.541
501.027, 3669.895
502.356, 3776.249
503.685, 3628.605
505.014, 3617.946
506.342, 3630.291
507.671, 3577.624
508.999, 3785.959
510.327, 3914.289
511.655, 4198.609
512.982, 4683.934
514.310, 5175.256
515.637, 6009.578
516.964, 6916.003
518.291, 8358.375
519.617, 10410.987
520.944, 12744.824
522.270, 16487.170
523.596, 21140.414
524.921, 27412.896
526.247, 34415.410
527.572, 41847.980
528.897, 47700.344
530.222, 48462.723
531.547, 46825.094
532.871, 40527.469
534.196, 34119.852
535.520, 27682.225
536.844, 21534.615
538.167, 17106.996
539.491, 13899.394
540.814, 11011.790
542.137, 9174.189
543.460, 7456.589
544.783, 6348.996
546.105, 5349.407
547.427, 4544.822
548.749, 3909.235
550.071, 3331.648
551.393, 2988.056
552.714, 2571.158
554.035, 2368.863
555.356, 2075.262
556.677, 1790.665
557.998, 1726.065
559.318, 1510.463
560.638, 1385.858
561.958, 1209.251
563.278, 1166.647
564.597, 1198.042
565.917, 988.434
567.236, 966.833
568.555, 924.243
569.874, 848.682
571.192, 810.183
572.511, 715.770
573.829, 735.473
575.147, 726.299
576.464, 694.272
577.782, 738.405
579.099, 564.705
580.416, 713.167
581.733, 648.782
583.050, 644.554
584.366, 736.463
585.683, 668.537
586.999, 751.804
588.315, 703.278
589.630, 855.027
590.946, 900.679
592.261, 906.666
593.576, 1030.569
594.891, 1093.597
596.206, 1216.086
597.520, 1241.187
598.834, 1218.113
600.148, 1341.914
601.462, 1284.802
602.776, 1334.940
604.089, 1177.921
605.402, 1016.792
606.715, 995.716
608.028, 746.614
609.341, 709.560
610.653, 584.576
611.965, 380.674
613.277, 342.838
614.589, 282.067
615.901, 192.348
617.212, 161.669
618.523, 105.025
619.834, 56.412
621.145, 50.171
622.456, 8.743
623.766, 49.216
625.076, 89.674
626.386, 2.138
627.696, 128.013
629.006, 96.198
630.315, 83.306
631.624, 170.338
632.933, 96.091
634.242, 203.283
635.551, 123.570
636.859, 101.875
638.167, 123.202
639.475, 113.072
640.783, 123.667
642.090, 32.882
643.398, 69.218
644.705, 71.256
646.012, 141.032
647.318, 180.971
648.625, 235.805
649.931, 409.033
651.237, 442.635
652.543, 592.836
653.849, 681.180
655.155, 786.473
656.460, 821.527
657.765, 881.291
659.070, 838.976
660.375, 674.295
661.679, 606.302
662.984, 544.396
664.288, 432.659
665.592, 373.159
666.895, 246.796
668.199, 189.485
669.502, 132.611
670.805, 129.571
672.108, 97.370
673.411, 60.647
674.713, 75.200
676.016, 25.613
677.318, 27.864
678.620, 94.934
679.921, 9.743
681.223, 66.912
682.524, 67.983
683.825, 51.735
685.126, 174.150
686.427, 119.690
687.727, 207.276
689.028, 198.210
690.328, 262.846
691.628, 322.844
692.927, 376.086
694.227, 508.588
695.526, 630.699
696.825, 673.328
698.124, 868.970
699.423, 1013.972
700.721, 1246.584
702.020, 1414.939
703.318, 1677.479
704.616, 1977.049
705.913, 2169.614
707.211, 2404.896
708.508, 2459.488
709.805, 2537.904
711.102, 2495.295
712.399, 2324.062
713.695, 2256.437
714.992, 2012.803
716.288, 1953.286
717.584, 1856.450
718.879, 1583.024
720.175, 1571.486
721.470, 1551.839
722.765, 1273.969
724.060, 1187.112
725.355, 840.150
726.649, 823.797
727.944, 668.230
729.238, 540.027
730.532, 477.244
731.825, 348.571
733.119, 377.032
734.412, 300.230
735.705, 204.536
736.998, 265.879
738.291, 189.161
739.584, 164.285
740.876, 146.406
742.168, 132.701
743.460, 110.914
744.752, 73.219
746.043, 119.522
747.334, 12.483
748.626, 82.411
749.916, 61.285
751.207, 0.161
752.498, 54.007
753.788, 100.834
755.078, 17.609
756.368, 119.408
757.658, 65.133
758.947, 109.881
760.237, 146.563
761.526, 143.260
762.815, 270.902
764.104, 212.523
765.392, 303.124
766.680, 322.704
767.969, 410.263
769.257, 363.838
770.544, 362.353
771.832, 270.846
773.119, 304.316
774.406, 192.763
775.693, 226.187
776.980, 188.414
778.267, 154.547
779.553, 151.736
780.839, 83.564
782.125, 77.766
783.411, 76.973
784.697, 52.423
785.982, 41.314
787.267, 25.429
788.552, 44.743
789.837, 46.065
791.122, 12.838
792.406, 38.079
793.690, 23.941
794.974, 3.365
796.258, 38.842
797.542, 27.803
798.825, 9.037
800.108, 21.155
801.391, 6.394
802.674, 20.673
803.957, 137.001
805.239, 51.095
806.522, 296.274
807.804, 26.126
809.085, 56.578
810.367, 84.098
811.649, 1.298
812.930, 61.344
814.211, 55.058
815.492, 20.160
816.772, 50.654
818.053, 13.465
819.333, 40.449
820.613, 10.426
821.893, 5.551
823.173, 33.510
824.452, 14.630
825.732, 11.800
827.011, 51.017
828.290, 7.394
829.568, 52.765
830.847, 38.434
832.125, 33.621
833.403, 35.873
834.681, 56.689
835.959, 48.024
837.236, 36.182
838.514, 12.288
839.791, 23.427
841.068, 70.804
842.345, 27.007
843.621, 58.179
844.898, 1.323
846.174, 2.575
847.450, 88.484
848.726, 0.485
850.001, 56.504
851.277, 52.465
852.552, 24.396
853.827, 57.905
855.102, 118.168
856.376, 73.013
857.651, 64.831
858.925, 64.621
860.199, 131.382
861.473, 56.119
862.746, 96.826
864.020, 101.508
865.293, 4.162
866.566, 102.777
867.839, 103.365
869.112, 73.928
870.384, 160.462
871.656, 6.976
872.928, 74.451
874.200, 98.899
875.472, 47.320
876.744, 118.713
878.015, 60.089
879.286, 35.437
880.557, 70.755
881.828, 27.046
883.098, 118.307
884.369, 89.543
885.639, 54.754
886.909, 114.936
888.178, 86.095
889.448, 74.228
890.717, 85.335
891.987, 119.417
893.256, 116.473
894.524, 70.498
895.793, 86.436
897.061, 59.253
898.330, 54.886
899.598, 123.683
900.865, 146.175
902.133, 149.761
903.401, 129.233
904.668, 126.237
905.935, 124.625
907.202, 139.181
908.468, 117.855
909.735, 164.436
911.001, 118.763
912.267, 184.251
913.533, 119.866
914.799, 146.442
916.064, 185.081
917.330, 147.698
918.595, 196.296
919.860, 178.872
921.124, 115.428
922.389, 216.963
923.653, 190.476
924.918, 225.969
926.182, 276.439
927.445, 158.892
928.709, 292.324
929.972, 225.742
931.236, 307.057
932.499, 283.347
933.761, 273.347
935.024, 319.300
936.286, 378.260
937.549, 352.115
938.811, 436.872
940.073, 413.305
941.334, 523.152
942.596, 576.045
943.857, 589.925
945.118, 740.797
946.379, 785.185
947.640, 971.269
948.900, 1141.948
950.161, 1273.304
951.421, 1712.714
952.681, 1887.384
953.940, 2248.884
955.200, 2453.486
956.459, 2405.689
957.719, 2396.513
958.978, 2203.732
960.236, 2021.803
961.495, 1891.920
962.753, 1653.271
964.012, 1635.899
965.270, 1518.600
966.527, 1403.660
967.785, 1459.020
969.043, 1465.284
970.300, 1421.732
971.557, 1433.204
972.814, 1426.904
974.071, 1561.541
975.327, 1671.731
976.583, 1774.079
977.840, 2031.577
979.095, 2188.586
980.351, 2537.310
981.607, 2691.162
982.862, 2969.894
984.117, 3345.335
985.372, 3364.240
986.627, 3439.798
987.882, 3676.931
989.136, 3682.373
990.390, 4038.140
991.644, 4189.776
992.898, 4532.355
994.152, 4849.579
995.405, 5007.089
996.659, 5003.239
997.912, 4963.113
999.165, 4557.729
1000.417, 4195.727
1001.670, 3475.194
1002.922, 3058.640
1004.174, 2646.715
1005.426, 2061.172
1006.678, 1873.875
1007.930, 1563.384
1009.181, 1339.854
1010.432, 1315.317
1011.683, 983.054
1012.934, 955.473
1014.185, 866.107
1015.435, 769.707
1016.685, 821.920
1017.935, 771.634
1019.185, 709.229
1020.435, 715.698
1021.684, 683.378
1022.934, 739.748
1024.183, 739.222
1025.432, 757.795
1026.680, 855.178
1027.929, 914.698
1029.177, 997.136
1030.425, 1046.414
1031.673, 1092.909
1032.921, 1237.022
1034.169, 1249.114
1035.416, 1339.684
1036.663, 1459.141
1037.911, 1447.126
1039.157, 1717.678
1040.404, 1870.476
1041.650, 2071.061
1042.897, 2409.765
1044.143, 2512.710
1045.389, 3099.207
1046.634, 3525.772
1047.880, 3828.504
1049.125, 4718.944
1050.371, 5366.749
1051.615, 6076.566
1052.860, 6988.871
1054.105, 7344.730
1055.349, 7784.662
1056.593, 7564.463
1057.837, 7135.459
1059.081, 6717.247
1060.325, 5834.096
1061.568, 5230.901
1062.812, 4616.750
1064.055, 3988.788
1065.298, 3677.636
1066.540, 3104.617
1067.783, 2737.897
1069.025, 2617.818
1070.267, 2194.083
1071.509, 2068.010
1072.751, 1848.851
1073.993, 1665.736
1075.234, 1610.575
1076.475, 1402.034
1077.716, 1309.037
1078.957, 1343.873
1080.198, 1169.951
1081.438, 1217.943
1082.679, 1171.776
1083.919, 1084.769
1085.159, 1161.603
1086.398, 1101.439
1087.638, 1168.522
1088.877, 1183.361
1090.116, 1126.341
1091.355, 1228.187
1092.594, 1297.031
1093.833, 1371.951
1095.071, 1509.807
1096.309, 1602.702
1097.547, 1810.697
1098.785, 2030.688
1100.023, 2230.591
1101.260, 2506.652
1102.498, 2583.569
1103.735, 2580.701
1104.972, 2623.637
1106.208, 2310.572
1107.445, 2145.622
1108.681, 1857.557
1109.918, 1572.329
1111.154, 1533.009
1112.389, 1235.010
1113.625, 1112.144
1114.860, 961.511
1116.096, 808.705
1117.331, 737.893
1118.566, 679.969
1119.800, 570.100
1121.035, 617.652
1122.269, 664.761
1123.503, 556.952
1124.737, 662.354
1125.971, 401.516
1127.205, 385.734
1128.438, 300.912
1129.671, 260.146
1130.904, 247.385
1132.137, 214.614
1133.370, 228.896
1134.602, 180.433
1135.834, 156.684
1137.066, 188.136
1138.298, 200.409
1139.530, 133.234
1140.762, 178.827
1141.993, 75.121
1143.224, 95.483
1144.455, 87.804
1145.686, 7.108
1146.917, 139.560
1148.147, 45.873
1149.377, 52.195
1150.607, 60.674
1151.837, 18.997
1153.067, 85.403
1154.296, 54.930
1155.526, 22.255
1156.755, 62.581
1157.984, 2.010
1159.213, 33.350
1160.441, 82.149
1161.670, 5.454
1162.898, 63.904
1164.126, 48.370
1165.354, 10.268
1166.581, 42.167
1167.809, 25.644
1169.036, 34.816
1170.263, 19.369
1171.490, 1.915
1172.717, 29.280
1173.943, 61.394
1175.170, 48.740
1176.396, 65.743
1177.622, 11.976
1178.848, 4.574
1180.073, 55.552
1181.299, 16.104
1182.524, 29.294
1183.749, 3.011
1184.974, 12.698
1186.199, 38.727
1187.423, 11.862
1188.648, 3.454
1189.872, 40.501
1191.096, 9.023
1192.320, 29.347
1193.543, 60.048
1194.767, 32.169
1195.990, 65.887
1197.213, 10.798
1198.436, 36.046
1199.659, 13.665
1200.881, 13.638
1202.104, 0.235
1203.326, 30.197
1204.548, 1.028
1205.770, 45.189
1206.991, 68.680
1208.213, 48.916
1209.434, 66.522
1210.655, 3.086
1211.876, 52.109
1213.096, 5.300
1214.317, 9.137
1215.537, 20.047
1216.757, 8.383
1217.977, 10.912
1219.197, 78.090
1220.417, 30.264
1221.636, 59.493
1222.855, 11.364
1224.074, 2.815
1225.293, 94.965
1226.512, 1.795
1227.731, 6.327
1228.949, 46.441
1230.167, 7.555
1231.385, 54.658
1232.603, 50.890
1233.820, 0.937
1235.038, 89.149
1236.255, 15.231
1237.472, 48.306
1238.689, 67.376
1239.906, 34.583
1241.122, 62.641
1242.338, 44.694
1243.555, 22.809
1244.771, 27.849
1245.986, 71.883
1247.202, 15.910
1248.417, 90.930
1249.633, 4.944
1250.848, 83.954
1252.063, 72.961
1253.277, 28.976
1254.492, 91.971
1255.706, 7.036
1256.920, 4.935
1258.134, 116.035
1259.348, 11.009
1260.562, 1.937
1261.775, 25.876
1262.988, 28.833
1264.201, 71.764
1265.414, 49.689
1266.627, 30.390
1267.839, 105.512
1269.052, 12.409
1270.264, 32.300
1271.476, 60.185
1272.688, 50.065
1273.899, 91.978
1275.111, 54.846
1276.322, 59.708
1277.533, 74.565
1278.744, 55.413
1279.955, 10.397
1281.165, 128.231
1282.376, 26.057
1283.586, 70.859
1284.796, 4.617
1286.006, 12.355
1287.215, 110.120
1288.425, 55.814
1289.634, 66.497
1290.843, 83.172
1292.052, 39.839
1293.261, 82.474
1294.469, 97.097
1295.678, 36.704
1296.886, 148.273
1298.094, 55.819
1299.302, 27.349
1300.509, 86.859
1301.717, 83.345
1302.924, 51.816
1304.131, 73.278
1305.338, 11.728
1306.545, 60.162
1307.752, 69.537
1308.958, 43.951
1310.164, 70.353
1311.370, 52.628
1312.576, 43.009
1313.782, 28.378
1314.987, 28.166
1316.193, 27.169
1317.398, 68.490
1318.603, 90.199
1319.807, 12.072
1321.012, 1.510
1322.216, 2.731
1323.421, 3.042
1324.625, 8.159
1325.829, 14.647
1327.032, 54.127
1328.236, 16.289
1329.439, 110.404
1330.642, 46.228
1331.845, 49.351
1333.048, 71.165
1334.251, 41.778
1335.453, 32.290
1336.656, 56.090
1337.858, 17.128
1339.060, 14.151
1340.261, 5.881
1341.463, 56.128
1342.664, 79.772
1343.866, 1.719
1345.067, 1.163
1346.267, 109.018
1347.468, 0.790
1348.669, 6.322
1349.869, 89.393
1351.069, 17.745
1352.269, 73.096
1353.469, 47.928
1354.668, 16.749
1355.868, 98.333
1357.067, 87.163
1358.266, 20.818
1359.465, 77.160
1360.664, 19.855
1361.862, 47.190
1363.061, 73.819
1364.259, 73.555
1365.457, 59.239
1366.655, 101.957
1367.852, 67.045
1369.050, 72.581
1370.247, 52.731
1371.444, 79.175
1372.641, 147.696
1373.838, 78.370
1375.035, 93.879
1376.231, 47.539
1377.427, 60.193
1378.623, 128.595
1379.819, 130.261
1381.015, 83.763
1382.211, 166.321
1383.406, 44.869
1384.601, 95.340
1385.796, 133.860
1386.991, 62.332
1388.185, 144.692
1389.380, 130.059
1390.574, 82.517
1391.768, 119.815
1392.962, 100.274
1394.156, 99.448
1395.350, 103.699
1396.543, 75.209
1397.736, 115.806
1398.929, 75.591
1400.122, 48.586
1401.315, 138.801
1402.507, 93.426
1403.700, 94.269
1404.892, 133.380
1406.084, 72.511
1407.276, 112.646
1408.467, 115.415
1409.659, 98.341
1410.850, 140.829
1412.041, 167.574
1413.232, 131.089
1414.423, 132.828
1415.614, 110.485
1416.804, 70.327
1417.994, 154.001
1419.184, 128.000
1420.374, 136.842
1421.564, 117.131
1422.753, 46.863
1423.943, 137.624
1425.132, 233.083
1426.321, 166.075
1427.510, 228.803
1428.698, 156.261
1429.887, 54.989
1431.075, 164.962
1432.263, 117.872
1433.451, 95.297
1434.639, 174.676
1435.827, 105.587
1437.014, 195.331
1438.201, 161.894
1439.388, 123.445
1440.575, 184.640
1441.762, 206.285
1442.949, 126.175
1444.135, 175.812
1445.321, 237.044
1446.507, 165.184
1447.693, 242.682
1448.879, 159.913
1450.064, 257.919
1451.250, 247.836
1452.435, 153.759
1453.620, 290.563
1454.805, 246.537
1455.989, 223.258
1457.174, 291.046
1458.358, 188.957
1459.542, 216.576
1460.726, 261.437
1461.910, 173.143
1463.093, 226.957
1464.277, 307.749
1465.460, 174.495
1466.643, 225.179
1467.826, 153.589
1469.009, 158.242
1470.191, 184.867
1471.373, 119.386
1472.556, 111.896
1473.738, 212.361
1474.919, 93.764
1476.101, 114.010
1477.283, 149.281
1478.464, 122.487
1479.645, 142.264
1480.826, 128.373
1482.007, 154.680
1483.187, 162.932
1484.368, 136.315
1485.548, 121.714
1486.728, 123.169
1487.908, 106.816
1489.088, 140.547
1490.268, 157.392
1491.447, 82.239
1492.626, 112.104
1493.805, 131.961
1494.984, 40.813
1496.163, 136.664
1497.341, 104.513
1498.520, 9.364
1499.698, 92.216
1500.876, 52.071
1502.054, 14.945
1503.232, 57.835
1504.409, 14.751
1505.586, 46.706
1506.763, 102.717
1507.940, 52.817
1509.117, 101.991
1510.294, 130.240
1511.470, 19.440
1512.647, 109.933
1513.823, 59.357
1514.999, 51.838
1516.174, 159.388
