##NAMES=Edingtonite
##RRUFFID=R040003
##IDEAL CHEMISTRY=Ba(Si_3_Al_2_)O_10_&#183;4H_2_O
##LOCALITY=Bohl, Sweden
##OWNER=RRUFF
##SOURCE=University of Arizona Mineral Museum
##DESCRIPTION=Colorless tetragonal prism
##STATUS=The identification of this mineral has been confirmed by X-ray diffraction and chemical analysis
##URL=rruff.info/R040003
##MEASURED CHEMISTRY=Ba_1.00_(Si_3.00_Al_2.00_)O_10_Â·4H_2_O; trace amounts of Na; H_2_O estimated by difference
##PIN_ID=m00026
##ORIENTATION=Laser parallel to a* (1 0 0). Fiducial mark perpendicular to laser is parallel to c [0 0 1]
121.337, 0.000
122.727, 2.761
124.116, 620.029
125.506, 958.490
126.895, 1447.333
128.284, 2116.059
129.673, 2819.145
131.062, 3682.809
132.450, 4464.031
133.838, 5401.102
135.226, 6054.082
136.614, 6371.703
138.001, 6582.762
139.388, 6816.506
140.775, 7032.268
142.162, 7338.543
143.549, 7913.744
144.935, 9431.585
146.321, 10614.868
147.707, 12952.573
149.093, 15312.126
150.478, 18200.084
151.863, 20987.930
153.248, 23245.602
154.633, 23902.805
156.018, 23539.502
157.402, 21358.334
158.786, 18215.850
160.170, 15817.854
161.554, 12536.096
162.937, 10529.950
164.320, 8441.430
165.703, 6808.654
167.086, 5755.967
168.469, 4658.084
169.851, 3953.393
171.233, 3300.985
172.615, 2744.464
173.996, 2514.525
175.378, 2127.924
176.759, 2037.680
178.140, 1810.584
179.521, 1686.438
180.901, 1438.722
182.281, 1417.257
183.662, 1228.303
185.041, 1262.229
186.421, 1215.814
187.800, 1304.536
189.180, 1229.461
190.558, 1161.492
191.937, 1055.089
193.316, 1080.834
194.694, 938.856
196.072, 1027.101
197.450, 1019.085
198.827, 923.998
200.205, 923.558
201.582, 891.632
202.959, 908.921
204.336, 860.342
205.712, 1116.202
207.088, 1183.021
208.465, 1064.321
209.840, 679.569
211.216, 158.397
212.591, 100.274
213.967, 117.438
215.341, 108.932
216.716, 118.326
218.091, 253.109
219.465, 257.641
220.839, 250.822
222.213, 251.655
223.586, 300.220
224.960, 335.224
226.333, 266.052
227.706, 227.458
229.079, 211.586
230.451, 195.037
231.823, 113.134
233.195, 25.141
234.567, 35.404
235.939, 40.310
237.310, 92.462
238.682, 217.199
240.052, 364.428
241.423, 289.468
242.794, 312.997
244.164, 263.051
245.534, 343.671
246.904, 357.849
248.274, 237.596
249.643, 365.859
251.012, 342.602
252.381, 374.728
253.750, 420.224
255.118, 330.188
256.487, 375.653
257.855, 281.596
259.223, 223.018
260.590, 196.904
261.958, 121.266
263.325, 4.084
264.692, 42.311
266.059, 40.889
267.425, 175.254
268.791, 75.144
270.158, 261.140
271.523, 434.041
272.889, 588.319
274.255, 766.696
275.620, 852.008
276.985, 960.504
278.350, 973.135
279.714, 1007.626
281.078, 917.864
282.443, 715.719
283.806, 636.263
285.170, 454.140
286.534, 419.656
287.897, 290.684
289.260, 186.207
290.623, 252.216
291.985, 106.717
293.348, 141.688
294.710, 154.105
296.072, 205.945
297.433, 200.201
298.795, 149.878
300.156, 327.972
301.517, 278.493
302.878, 373.439
304.239, 426.815
305.599, 417.611
306.959, 514.833
308.319, 536.507
309.679, 650.655
311.038, 629.297
312.398, 706.490
313.757, 736.211
315.116, 754.313
316.474, 761.679
317.833, 740.075
319.191, 686.143
320.549, 681.250
321.907, 644.628
323.264, 637.107
324.622, 590.497
325.979, 608.175
327.336, 620.378
328.692, 662.982
330.049, 622.005
331.405, 698.469
332.761, 758.397
334.117, 725.785
335.473, 771.630
336.828, 823.976
338.183, 966.727
339.538, 900.510
340.893, 921.064
342.247, 1096.671
343.602, 1077.466
344.956, 1106.067
346.310, 1168.094
347.663, 1130.996
349.017, 1137.624
350.370, 1061.179
351.723, 1087.336
353.076, 1074.472
354.428, 1173.691
355.780, 1099.129
357.133, 1180.560
358.484, 1335.871
359.836, 1353.199
361.188, 1401.807
362.539, 1445.466
363.890, 1445.770
365.241, 1359.808
366.591, 1354.612
367.942, 1292.444
369.292, 1242.126
370.642, 1195.546
371.992, 1282.021
373.341, 1177.978
374.691, 1193.715
376.040, 1263.708
377.388, 1206.981
378.737, 1392.061
380.086, 1498.236
381.434, 1519.527
382.782, 1648.835
384.130, 1753.095
385.477, 1798.391
386.825, 1802.205
388.172, 1956.711
389.519, 1900.623
390.865, 1925.662
392.212, 1968.795
393.558, 2042.570
394.904, 2119.205
396.250, 2203.981
397.596, 2320.788
398.941, 2409.130
400.286, 2528.405
401.631, 2658.770
402.976, 2726.079
404.321, 2763.570
405.665, 2552.422
407.009, 2516.876
408.353, 2277.087
409.697, 2145.023
411.040, 2072.074
412.384, 1965.165
413.727, 1951.781
415.070, 1974.212
416.412, 2006.451
417.755, 2198.751
419.097, 2239.583
420.439, 2523.056
421.781, 2584.735
423.122, 3034.730
424.464, 3145.596
425.805, 3495.433
427.146, 3762.667
428.486, 3912.777
429.827, 4333.336
431.167, 4468.868
432.507, 4470.063
433.847, 4445.100
435.187, 4272.986
436.526, 4121.315
437.865, 3724.980
439.204, 3442.943
440.543, 3077.859
441.882, 2747.100
443.220, 2489.133
444.558, 2132.548
445.896, 1981.474
447.234, 1899.798
448.572, 1659.868
449.909, 1671.106
451.246, 1357.176
452.583, 1516.575
453.919, 1370.957
455.256, 1385.758
456.592, 1411.354
457.928, 1418.202
459.264, 1427.089
460.600, 1365.961
461.935, 1515.777
463.270, 1409.404
464.605, 1620.695
465.940, 1576.890
467.274, 1646.837
468.609, 1719.682
469.943, 1777.240
471.277, 1918.813
472.610, 1964.381
473.944, 2115.088
475.277, 2320.560
476.610, 2334.337
477.943, 2535.349
479.275, 2639.171
480.608, 2766.168
481.940, 3052.373
483.272, 3040.206
484.604, 3371.702
485.935, 3781.267
487.267, 3895.625
488.598, 4216.880
489.929, 4410.254
491.260, 4867.903
492.590, 5055.368
493.920, 5322.853
495.250, 5609.975
496.580, 5897.211
497.910, 6014.378
499.239, 6131.998
500.569, 5939.265
501.898, 6236.862
503.226, 6074.477
504.555, 6232.100
505.883, 6079.761
507.212, 6317.447
508.540, 6375.155
509.867, 6572.905
511.195, 6930.693
512.522, 7618.520
513.849, 8196.384
515.176, 9624.293
516.503, 11152.250
517.829, 13240.251
519.156, 16098.287
520.482, 20296.365
521.808, 25594.475
523.133, 32842.840
524.459, 42261.930
525.784, 53510.945
527.109, 59851.844
528.434, 59852.199
529.758, 59852.859
531.083, 59854.316
532.407, 57345.754
533.731, 46278.973
535.055, 36541.840
536.378, 28574.439
537.701, 22759.496
539.025, 18142.859
540.348, 14656.842
541.670, 11840.910
542.993, 10133.673
544.315, 8566.579
545.637, 7260.083
546.959, 6411.118
548.281, 5391.910
549.602, 4821.470
550.923, 4252.784
552.244, 3837.834
553.565, 3405.895
554.886, 3160.974
556.206, 2927.070
557.526, 2580.165
558.846, 2507.265
560.166, 2272.361
561.486, 2075.447
562.805, 1900.522
564.124, 1803.582
565.443, 1669.130
566.762, 1608.650
568.080, 1483.659
569.399, 1484.649
570.717, 1401.626
572.035, 1474.594
573.352, 1295.554
574.670, 1272.513
575.987, 1273.470
577.304, 1080.433
578.621, 1118.406
579.938, 1125.387
581.254, 1115.383
582.570, 1175.396
583.886, 1169.421
585.202, 1247.460
586.518, 1261.513
587.833, 1247.582
589.148, 1288.660
590.463, 1239.895
591.778, 1118.994
593.093, 1139.420
594.407, 1077.710
595.721, 1167.196
597.035, 1145.490
598.349, 1235.071
599.662, 1213.970
600.976, 1253.701
602.289, 1118.903
603.602, 1054.634
604.914, 1097.816
606.227, 1023.731
607.539, 965.714
608.851, 797.347
610.163, 765.031
611.475, 729.207
612.786, 901.663
614.097, 1001.230
615.408, 962.962
616.719, 1173.388
618.030, 1280.287
619.340, 1368.334
620.651, 1591.050
621.961, 2038.134
623.270, 2454.662
624.580, 2938.053
625.889, 3040.293
627.199, 3016.868
628.507, 2674.309
629.816, 2172.574
631.125, 1837.789
632.433, 1345.367
633.741, 1164.268
635.049, 931.047
636.357, 930.288
637.664, 922.707
638.972, 986.037
640.279, 1077.853
641.586, 1302.527
642.893, 1419.060
644.199, 1790.986
645.505, 1942.446
646.811, 1956.115
648.117, 2013.716
649.423, 1951.489
650.728, 1823.942
652.034, 1686.196
653.339, 1765.345
654.644, 1456.485
655.948, 1311.618
657.253, 1154.740
658.557, 791.854
659.861, 556.958
661.165, 356.052
662.468, 245.135
663.772, 152.208
665.075, 6.269
666.378, 15.309
667.681, 95.671
668.983, 71.691
670.286, 82.746
671.588, 114.836
672.890, 111.972
674.192, 186.151
675.493, 169.391
676.795, 155.688
678.096, 259.039
679.397, 184.467
680.697, 208.956
681.998, 210.511
683.298, 152.135
684.598, 155.941
685.898, 179.547
687.198, 71.343
688.498, 59.177
689.797, 52.954
691.096, 111.062
692.395, 181.151
693.694, 285.223
694.992, 400.143
696.290, 614.316
697.589, 707.338
698.886, 939.342
700.184, 1171.329
701.482, 1303.300
702.779, 1643.252
704.076, 1725.188
705.373, 1961.107
706.669, 1984.008
707.966, 1882.893
709.262, 1762.761
710.558, 1450.611
711.854, 1349.445
713.150, 1016.262
714.445, 957.062
715.740, 859.845
717.035, 798.611
718.330, 719.360
719.625, 592.092
720.919, 570.808
722.214, 356.505
723.508, 309.186
724.801, 260.849
726.095, 242.494
727.388, 162.122
728.682, 223.732
729.975, 99.324
731.267, 190.898
732.560, 58.453
733.852, 87.986
735.145, 45.500
736.437, 33.008
737.728, 48.546
739.020, 10.118
740.311, 56.717
741.603, 28.447
742.894, 57.014
744.184, 27.712
745.475, 12.439
746.765, 68.193
748.055, 9.016
749.345, 54.797
750.635, 148.355
751.925, 46.490
753.214, 22.604
754.503, 0.698
755.792, 87.233
757.081, 11.204
758.370, 20.199
759.658, 56.223
760.946, 22.280
762.234, 29.636
763.522, 58.531
764.809, 94.407
766.097, 16.265
767.384, 44.103
768.671, 82.080
769.958, 80.301
771.244, 51.561
772.530, 67.852
773.817, 63.178
775.102, 83.538
776.388, 91.729
777.674, 88.375
778.959, 109.852
780.244, 104.374
781.529, 98.937
782.814, 202.541
784.098, 97.208
785.383, 149.916
786.667, 4.675
787.951, 17.327
789.235, 3.740
790.518, 35.915
791.801, 75.072
793.084, 162.213
794.367, 145.338
795.650, 177.448
796.933, 228.541
798.215, 200.618
799.497, 265.680
800.779, 236.726
802.061, 199.757
803.342, 164.542
804.624, 139.604
805.905, 202.734
807.186, 238.985
808.466, 106.779
809.747, 278.303
811.027, 190.066
812.307, 197.883
813.587, 240.962
814.867, 152.420
816.146, 321.185
817.426, 321.537
818.705, 273.614
819.984, 307.113
821.263, 268.569
822.541, 377.376
823.819, 467.090
825.098, 450.249
826.375, 443.921
827.653, 432.873
828.931, 624.088
830.208, 581.546
831.485, 511.343
832.762, 631.107
834.039, 578.866
835.315, 590.617
836.592, 636.361
837.868, 658.049
839.144, 828.833
840.420, 804.560
841.695, 923.281
842.970, 1071.996
844.246, 1098.707
845.521, 1271.411
846.795, 1222.111
848.070, 1253.806
849.344, 1285.497
850.618, 1356.661
851.892, 1393.864
853.166, 1569.542
854.440, 1698.215
855.713, 1820.885
856.986, 2164.550
858.259, 2509.212
859.532, 2657.871
860.804, 2700.527
862.077, 2930.180
863.349, 2335.830
864.621, 2208.477
865.893, 1958.121
867.164, 1716.763
868.436, 1616.260
869.707, 1326.898
870.978, 1362.214
872.248, 1315.673
873.519, 1166.939
874.789, 1134.404
876.060, 1254.592
877.330, 1129.480
878.599, 1182.554
879.869, 1099.184
881.138, 1015.309
882.408, 1094.998
883.677, 1067.979
884.945, 1040.913
886.214, 906.219
887.482, 1048.489
888.751, 1051.286
890.019, 944.825
891.287, 1144.263
892.554, 947.550
893.822, 1099.151
895.089, 1130.292
896.356, 1073.302
897.623, 1144.651
898.889, 1109.642
900.156, 1164.196
901.422, 1135.896
902.688, 1000.753
903.954, 1130.280
905.220, 1030.948
906.485, 1015.793
907.750, 1107.693
909.015, 969.232
910.280, 961.449
911.545, 1078.790
912.809, 849.673
914.074, 943.381
915.338, 854.183
916.602, 646.504
917.865, 503.970
919.129, 546.581
920.392, 552.801
921.655, 273.490
922.918, 472.974
924.181, 476.526
925.443, 401.910
926.706, 553.631
927.968, 527.554
929.230, 506.584
930.491, 652.641
931.753, 483.709
933.014, 660.790
934.276, 683.882
935.536, 523.985
936.797, 800.100
938.058, 608.226
939.318, 709.364
940.578, 764.519
941.838, 825.694
943.098, 1041.887
944.358, 1017.120
945.617, 1090.385
946.876, 1342.680
948.135, 1574.004
949.394, 2092.356
950.653, 2414.745
951.911, 2825.169
953.169, 3431.627
954.427, 3568.130
955.685, 3754.669
956.943, 3521.249
958.200, 3202.867
959.458, 3188.520
960.715, 2676.207
961.971, 2423.930
963.228, 2324.679
964.485, 2025.451
965.741, 2143.239
966.997, 1983.045
968.253, 1927.864
969.508, 1930.698
970.764, 1832.547
972.019, 1901.410
973.274, 1874.288
974.529, 1907.181
975.784, 2143.088
977.039, 2308.010
978.293, 2601.947
979.547, 3137.899
980.801, 3390.867
982.055, 3847.850
983.308, 4224.847
984.562, 4431.860
985.815, 4998.889
987.068, 5275.932
988.321, 5832.992
989.573, 6360.066
990.826, 6827.158
992.078, 7694.264
993.330, 8031.386
994.582, 8598.523
995.833, 8835.677
997.085, 8502.847
998.336, 8170.032
999.587, 7717.233
1000.838, 7904.451
1002.088, 7831.684
1003.339, 6648.932
1004.589, 5096.199
1005.839, 3633.480
1007.089, 2522.781
1008.339, 2107.099
1009.588, 1749.434
1010.838, 1500.087
1012.087, 1496.105
1013.336, 1158.671
1014.584, 1234.788
1015.833, 1166.551
1017.081, 1198.584
1018.330, 1476.865
1019.577, 1449.321
1020.825, 1829.052
1022.073, 1795.911
1023.320, 1779.300
1024.567, 2236.349
1025.814, 1690.954
1027.061, 1661.005
1028.308, 1676.747
1029.554, 1428.411
1030.800, 1649.619
1032.046, 1568.318
1033.292, 1504.040
1034.538, 1685.780
1035.783, 1565.535
1037.029, 1834.305
1038.274, 2048.089
1039.519, 2124.888
1040.763, 2507.702
1042.008, 2773.540
1043.252, 3159.402
1044.496, 3795.285
1045.740, 4173.191
1046.984, 5401.118
1048.228, 6289.070
1049.471, 7417.047
1050.714, 8975.245
1051.957, 9823.273
1053.200, 10841.326
1054.442, 10969.406
1055.685, 10287.521
1056.927, 9715.663
1058.169, 8423.836
1059.411, 7262.021
1060.652, 6423.094
1061.894, 5541.406
1063.135, 4609.639
1064.376, 4080.940
1065.617, 3599.271
1066.858, 3153.860
1068.098, 2723.163
1069.339, 2487.458
1070.579, 2298.765
1071.819, 1879.084
1073.058, 1917.415
1074.298, 1788.384
1075.537, 1623.489
1076.776, 1811.927
1078.015, 1704.244
1079.254, 1676.938
1080.493, 1858.334
1081.731, 1825.754
1082.969, 1982.184
1084.207, 1905.625
1085.445, 1505.076
1086.683, 1617.538
1087.920, 1246.008
1089.157, 1217.489
1090.394, 1206.980
1091.631, 1030.480
1092.868, 1036.989
1094.105, 1046.508
1095.341, 967.039
1096.577, 1094.579
1097.813, 1075.135
1099.049, 1159.709
1100.284, 1245.291
1101.519, 1082.892
1102.755, 1097.508
1103.990, 1079.132
1105.224, 883.766
1106.459, 1144.406
1107.693, 879.054
1108.928, 994.712
1110.162, 883.378
1111.395, 738.051
1112.629, 755.732
1113.863, 597.421
1115.096, 502.117
1116.329, 470.820
1117.562, 371.531
1118.795, 490.249
1120.027, 555.974
1121.259, 885.705
1122.492, 800.183
1123.723, 1073.189
1124.955, 687.942
1126.187, 446.702
1127.418, 237.467
1128.649, 231.239
1129.880, 197.017
1131.111, 188.802
1132.342, 197.985
1133.572, 145.389
1134.802, 185.191
1136.033, 173.000
1137.262, 72.814
1138.492, 404.634
1139.722, 642.460
1140.951, 347.291
1142.180, 335.466
1143.409, 81.031
1144.638, 138.198
1145.866, 160.383
1147.095, 225.595
1148.323, 208.945
1149.551, 133.138
1150.779, 185.450
1152.006, 148.795
1153.234, 159.165
1154.461, 77.562
1155.688, 98.970
1156.915, 126.393
1158.141, 11.164
1159.368, 26.277
1160.594, 2.719
1161.820, 107.842
1163.046, 84.595
1164.272, 22.956
1165.498, 145.510
1166.723, 103.067
1167.948, 210.628
1169.173, 124.192
1170.398, 246.758
1171.623, 284.328
1172.847, 132.901
1174.071, 301.476
1175.295, 168.054
1176.519, 206.634
1177.743, 303.216
1178.966, 165.801
1180.190, 116.387
1181.413, 133.976
1182.636, 7.434
1183.858, 152.154
1185.081, 84.745
1186.303, 49.336
1187.526, 145.929
1188.748, 90.522
1189.969, 54.117
1191.191, 135.713
1192.412, 134.691
1193.634, 0.877
1194.855, 16.444
1196.076, 141.988
1197.296, 2.549
1198.517, 14.915
1199.737, 6.618
1200.957, 117.150
1202.177, 78.682
1203.397, 185.214
1204.617, 63.748
1205.836, 33.720
1207.055, 40.194
1208.274, 3.323
1209.493, 134.162
1210.712, 63.676
1211.930, 50.203
1213.148, 86.754
1214.367, 233.215
1215.584, 138.676
1216.802, 386.137
1218.020, 216.598
1219.237, 78.059
1220.454, 137.519
1221.671, 68.979
1222.888, 31.439
1224.105, 28.900
1225.321, 41.360
1226.537, 38.829
1227.753, 87.041
1228.969, 84.093
1230.185, 210.226
1231.400, 275.687
1232.616, 405.395
1233.831, 463.205
1235.046, 456.667
1236.261, 693.128
1237.475, 693.590
1238.689, 704.053
1239.904, 636.865
1241.118, 619.330
1242.332, 482.795
1243.545, 664.267
1244.759, 423.741
1245.972, 665.219
1247.185, 644.707
1248.398, 585.187
1249.611, 724.663
1250.823, 631.139
1252.036, 606.612
1253.248, 534.083
1254.460, 489.552
1255.671, 493.018
1256.883, 514.482
1258.095, 510.943
1259.306, 543.990
1260.517, 576.355
1261.728, 626.313
1262.938, 679.764
1264.149, 765.213
1265.359, 861.661
1266.569, 1010.106
1267.779, 999.552
1268.989, 1202.995
1270.199, 1190.437
1271.408, 1231.879
1272.617, 1277.320
1273.826, 1297.761
1275.035, 1322.906
1276.244, 1365.455
1277.452, 1252.730
1278.661, 1200.479
1279.869, 949.603
1281.077, 895.480
1282.285, 960.131
1283.492, 646.626
1284.700, 806.872
1285.907, 818.007
1287.114, 619.638
1288.321, 603.623
1289.527, 782.069
1290.734, 586.086
1291.940, 880.433
1293.146, 1074.885
1294.352, 1166.813
1295.558, 1123.271
1296.763, 998.719
1297.969, 973.171
1299.174, 765.625
1300.379, 716.083
1301.584, 863.543
1302.788, 742.000
1303.993, 784.446
1305.197, 946.879
1306.401, 979.283
1307.605, 1062.689
1308.809, 1274.097
1310.013, 1250.503
1311.216, 1521.913
1312.419, 1496.324
1313.622, 1320.540
1314.825, 1446.955
1316.028, 1367.374
1317.230, 1483.794
1318.432, 1427.218
1319.634, 1432.645
1320.836, 1527.074
1322.038, 1478.507
1323.240, 1233.076
1324.441, 1147.423
1325.642, 1088.867
1326.843, 923.258
1328.044, 848.627
1329.245, 583.755
1330.445, 548.185
1331.645, 497.640
1332.845, 327.100
1334.045, 323.563
1335.245, 112.033
1336.445, 198.881
1337.644, 157.611
1338.843, 96.026
1340.042, 58.580
1341.241, 151.773
1342.440, 79.716
1343.638, 161.792
1344.836, 115.311
1346.034, 59.838
1347.232, 238.378
1348.430, 24.930
1349.628, 56.493
1350.825, 84.069
1352.022, 50.660
1353.219, 70.265
1354.416, 89.887
1355.613, 47.475
1356.809, 61.179
1358.005, 83.147
1359.202, 86.460
1360.398, 49.242
1361.593, 111.029
1362.789, 72.284
1363.984, 54.484
1365.179, 50.287
1366.374, 141.127
1367.569, 76.009
1368.764, 27.063
1369.958, 280.915
1371.153, 96.952
1372.347, 219.771
1373.541, 278.242
1374.735, 151.573
1375.928, 271.618
1377.122, 383.457
1378.315, 279.863
1379.508, 458.265
1380.701, 425.664
1381.893, 309.059
1383.086, 458.452
1384.278, 443.841
1385.470, 400.227
1386.662, 470.611
1387.854, 299.992
1389.046, 431.370
1390.237, 475.744
1391.428, 315.142
1392.619, 492.608
1393.810, 322.165
1395.001, 89.797
1396.191, 214.496
1397.382, 79.244
1398.572, 57.015
1399.762, 118.798
1400.952, 56.607
1402.141, 18.423
1403.331, 128.245
1404.520, 42.926
1405.709, 196.911
1406.898, 106.756
1408.087, 35.611
1409.275, 211.475
1410.464, 139.353
1411.652, 220.241
1412.840, 364.140
1414.028, 141.050
1415.215, 188.013
1416.403, 239.011
1417.590, 78.050
1418.777, 353.109
1419.964, 297.183
1421.151, 184.279
1422.338, 327.411
1423.524, 152.619
1424.710, 308.490
1425.896, 421.729
1427.082, 292.989
1428.268, 592.269
1429.453, 646.568
1430.639, 571.582
1431.824, 772.115
1433.009, 830.434
1434.194, 901.192
1435.378, 1247.352
1436.563, 1389.519
1437.747, 1803.027
1438.931, 2177.182
1440.115, 2351.317
1441.299, 2763.432
1442.482, 3078.584
1443.666, 3097.765
1444.849, 3316.974
1446.032, 3616.215
1447.215, 3505.490
1448.397, 3754.802
1449.580, 3914.147
1450.762, 4083.521
1451.944, 4142.921
1453.126, 4152.347
1454.308, 4271.797
1455.490, 4359.343
1456.671, 4128.801
1457.852, 4108.284
1459.033, 4097.795
1460.214, 3727.333
1461.395, 3716.896
1462.575, 3296.483
1463.756, 3266.093
1464.936, 2985.760
1466.116, 2765.486
1467.296, 2285.233
1468.475, 2445.103
1469.655, 2018.288
1470.834, 1908.660
1472.013, 1794.146
1473.192, 1565.725
1474.371, 1573.409
1475.550, 1456.205
1476.728, 1336.121
1477.906, 1532.166
1479.084, 1339.354
1480.262, 1372.754
1481.440, 1454.400
1482.617, 1296.264
1483.795, 1337.374
1484.972, 1336.768
1486.149, 965.488
1487.326, 1049.569
1488.502, 901.020
1489.679, 645.889
1490.855, 651.239
1492.031, 468.158
1493.207, 320.735
1494.383, 426.079
1495.559, 224.333
1496.734, 153.680
1497.909, 297.377
1499.084, 25.783
1500.259, 106.407
1501.434, 173.021
1502.608, 18.638
1503.783, 0.000
##END=



