##NAMES=Edingtonite
##RRUFFID=R040110
##IDEAL CHEMISTRY=Ba(Si_3_Al_2_)O_10_&#183;4H_2_O
##LOCALITY=2350 level, Brunswick 12 mine, Bathhurst, New Brunswick, Canada
##OWNER=RRUFF
##SOURCE=National Museums of Canada
##DESCRIPTION=Colorless rectangular prism
##STATUS=The identification of this mineral has been confirmed by X-ray diffraction and chemical analysis
##URL=rruff.info/R040110
##MEASURED CHEMISTRY=Ba_1.00_(Si_3.00_Al_2.00_)O_10_Â·4H_2_O
##PIN_ID=L01449
##ORIENTATION=Laser parallel to b* (0 1 0). Fiducial mark perpendicular to laser is parallel to c [0 0 1]
91.01200, 0.0000000E+00
92.24600, 161.0137
93.48000, 63.23438
94.71400, 385.4307
95.94800, 786.8643
97.18200, 1063.818
98.41600, 1864.343
99.64900, 2510.533
100.8830, 3038.408
102.1160, 3222.649
103.3490, 3835.303
104.5820, 4378.265
105.8150, 4852.768
107.0470, 4986.141
108.2800, 5598.257
109.5120, 6037.173
110.7440, 6479.437
111.9760, 7190.550
113.2080, 7436.465
114.4400, 7952.460
115.6710, 7870.051
116.9030, 8387.287
118.1340, 9260.901
119.3650, 9388.763
120.5960, 9374.973
121.8270, 9506.795
123.0580, 10412.65
124.2880, 10802.03
125.5190, 11388.54
126.7490, 12191.84
127.9790, 12751.64
129.2090, 13762.67
130.4390, 14655.43
131.6680, 15434.95
132.8980, 16171.99
134.1270, 16921.30
135.3560, 17145.97
136.5850, 17424.62
137.8140, 17162.04
139.0430, 16417.45
140.2710, 15741.63
141.5000, 14827.77
142.7280, 14492.59
143.9560, 13921.47
145.1840, 13763.51
146.4120, 13684.85
147.6390, 13906.61
148.8670, 14093.88
150.0940, 14392.78
151.3210, 14689.39
152.5490, 15085.79
153.7750, 15303.05
155.0020, 15315.21
156.2290, 15002.35
157.4550, 14563.51
158.6810, 13685.71
159.9080, 12699.01
161.1340, 11581.45
162.3590, 10398.04
163.5850, 9211.844
164.8110, 8108.825
166.0360, 6709.842
167.2610, 5685.234
168.4860, 4727.172
169.7110, 4083.700
170.9360, 3464.168
172.1610, 3082.640
173.3850, 2831.940
174.6100, 2503.126
175.8340, 2276.559
177.0580, 2176.805
178.2820, 2088.714
179.5050, 1930.651
180.7290, 1901.045
181.9520, 1774.739
183.1760, 1551.175
184.3990, 1721.537
185.6220, 1683.885
186.8450, 1812.238
188.0670, 1751.692
189.2900, 1751.885
190.5120, 1793.494
191.7340, 2094.393
192.9560, 1949.491
194.1780, 2231.674
195.4000, 2084.432
196.6220, 2242.381
197.8430, 2402.428
199.0640, 2490.600
200.2860, 2551.842
201.5070, 2512.259
202.7270, 2579.722
203.9480, 2398.257
205.1690, 2356.837
206.3890, 2297.428
207.6090, 2057.036
208.8290, 1922.732
210.0490, 1934.528
211.2690, 1882.306
212.4890, 1901.101
213.7080, 1803.810
214.9280, 1625.489
216.1470, 1601.135
217.3660, 1455.682
218.5850, 1274.088
219.8030, 1431.342
221.0220, 1253.441
222.2400, 1273.385
223.4590, 1451.172
224.6770, 1883.804
225.8950, 2257.281
227.1120, 2493.602
228.3300, 3218.770
229.5480, 3630.778
230.7650, 4272.634
231.9820, 5280.336
233.1990, 6344.881
234.4160, 7520.271
235.6330, 8766.593
236.8490, 9271.626
238.0660, 8998.953
239.2820, 7353.484
240.4980, 5533.527
241.7140, 3700.781
242.9300, 2161.854
244.1460, 1183.224
245.3610, 544.4697
246.5770, 43.80078
247.7920, 268.9395
249.0070, 446.5146
250.2220, 700.1758
251.4370, 733.7607
252.6510, 779.3555
253.8660, 836.6855
255.0800, 876.8457
256.2940, 818.9072
257.5080, 509.9150
258.7220, 592.3955
259.9360, 587.5337
261.1490, 526.7197
262.3630, 681.7539
263.5760, 631.9424
264.7890, 462.3057
266.0020, 458.8252
267.2150, 230.5273
268.4270, 31.37109
269.6400, 231.3242
270.8520, 41.45020
272.0640, 35.28223
273.2760, 8.884766
274.4880, 119.3379
275.7000, 168.6602
276.9120, 120.8496
278.1230, 99.85352
279.3340, 101.6143
280.5450, 38.90820
281.7560, 66.78125
282.9670, 11.02393
284.1780, 17.37549
285.3880, 35.41846
286.5980, 112.1045
287.8090, 129.4419
289.0190, 49.45898
290.2290, 210.1216
291.4380, 245.4751
292.6480, 306.5332
293.8570, 455.3086
295.0670, 567.8257
296.2760, 606.5151
297.4850, 718.1382
298.6930, 717.9492
299.9020, 698.5371
301.1110, 813.9043
302.3190, 798.0562
303.5270, 1039.997
304.7350, 1078.730
305.9430, 1133.259
307.1510, 1191.587
308.3580, 1236.718
309.5660, 1328.652
310.7730, 1351.396
311.9800, 1506.951
313.1870, 1594.322
314.3940, 1765.509
315.6010, 1621.331
316.8070, 1749.399
318.0130, 1727.591
319.2200, 1678.137
320.4260, 1648.908
321.6310, 1572.281
322.8370, 1732.538
324.0430, 1692.122
325.2480, 1849.398
326.4540, 1934.733
327.6590, 2063.999
328.8640, 2120.854
330.0680, 2374.828
331.2730, 2371.230
332.4780, 2696.370
333.6820, 3072.369
334.8860, 3076.453
336.0900, 3312.954
337.2940, 3505.672
338.4980, 3756.549
339.7010, 3702.082
340.9050, 3634.668
342.1080, 3625.653
343.3110, 3453.958
344.5140, 3500.773
345.7170, 3432.202
346.9200, 3306.460
348.1220, 3266.393
349.3240, 3108.661
350.5270, 3175.602
351.7290, 3170.437
352.9310, 3349.164
354.1320, 3530.784
355.3340, 3549.296
356.5350, 3925.699
357.7370, 4006.993
358.9380, 4038.180
360.1390, 4220.259
361.3400, 4188.230
362.5400, 4167.093
363.7410, 3904.849
364.9410, 3553.497
366.1410, 3340.040
367.3410, 3027.477
368.5410, 2658.809
369.7410, 2505.037
370.9400, 1997.162
372.1400, 1854.183
373.3390, 1653.102
374.5380, 1514.918
375.7370, 1393.634
376.9360, 1230.248
378.1350, 1145.761
379.3330, 1079.170
380.5310, 1039.468
381.7300, 1139.647
382.9280, 999.7778
384.1260, 1048.825
385.3230, 968.7788
386.5210, 938.6104
387.7180, 1088.304
388.9160, 1191.865
390.1130, 1088.292
391.3100, 1110.524
392.5060, 1058.306
393.7030, 1124.238
394.9000, 1178.537
396.0960, 1225.006
397.2920, 1321.888
398.4880, 1514.440
399.6840, 1552.095
400.8800, 1524.942
402.0750, 1735.804
403.2710, 1701.756
404.4660, 1757.283
405.6610, 1969.898
406.8560, 1845.058
408.0510, 1800.627
409.2450, 1731.132
410.4400, 1681.149
411.6340, 1643.798
412.8280, 1765.252
414.0220, 1749.467
415.2160, 1786.915
416.4100, 1969.462
417.6030, 2113.714
418.7970, 2251.941
419.9900, 2622.291
421.1830, 2681.604
422.3760, 2903.281
423.5690, 3328.402
424.7610, 3430.700
425.9540, 3659.616
427.1460, 3929.410
428.3380, 4123.378
429.5300, 4379.834
430.7220, 4781.831
431.9140, 4804.097
433.1050, 5006.638
434.2970, 4882.354
435.4880, 4821.945
436.6790, 4488.251
437.8700, 4353.443
439.0610, 4100.515
440.2510, 3773.827
441.4420, 3354.415
442.6320, 3074.894
443.8220, 2706.238
445.0120, 2280.506
446.2020, 1958.668
447.3910, 1730.728
448.5810, 1645.683
449.7700, 1366.536
450.9600, 1198.288
452.1490, 1043.940
453.3370, 848.0093
454.5260, 725.9468
455.7150, 582.3027
456.9030, 522.5615
458.0910, 502.7246
459.2800, 358.7930
460.4670, 332.6616
461.6550, 231.0889
462.8430, 204.4600
464.0300, 65.17773
465.2180, 25.19824
466.4050, 60.69385
467.5920, 83.32324
468.7790, 77.09521
469.9650, 131.0020
471.1520, 9.929688
472.3380, 381.7764
473.5250, 88.43701
474.7110, 108.7808
475.8970, 312.7388
477.0820, 216.2021
478.2680, 89.39062
479.4540, 67.10303
480.6390, 58.91748
481.8240, 57.83008
483.0090, 11.16602
484.1940, 43.09717
485.3780, 104.3564
486.5630, 191.8789
487.7470, 254.6064
488.9320, 363.4521
490.1160, 467.1836
491.3000, 522.6484
492.4830, 631.7705
493.6670, 742.4058
494.8500, 777.0239
496.0340, 967.6182
497.2170, 957.1963
498.4000, 1153.786
499.5820, 1197.385
500.7650, 1388.962
501.9480, 1682.549
503.1300, 1897.107
504.3120, 2076.646
505.4940, 2483.210
506.6760, 2618.764
507.8580, 3261.295
509.0390, 3650.803
510.2210, 4231.298
511.4020, 5032.792
512.5830, 6015.259
513.7640, 7323.727
514.9450, 8894.163
516.1250, 10861.57
517.3060, 13438.97
518.4860, 16568.35
519.6660, 19913.36
520.8460, 23906.96
522.0260, 28264.96
523.2060, 32782.59
524.3850, 37684.02
525.5650, 42919.08
526.7440, 48047.66
527.9230, 52547.24
529.1020, 54933.38
530.2810, 54629.19
531.4590, 51971.69
532.6380, 46709.41
533.8160, 40012.30
534.9940, 33516.94
536.1720, 27321.46
537.3500, 22459.56
538.5270, 17924.22
539.7050, 14628.10
540.8820, 12009.21
542.0590, 10070.55
543.2360, 8516.129
544.4130, 7090.868
545.5900, 6064.779
546.7660, 5235.869
547.9430, 4553.122
549.1190, 3861.580
550.2950, 3397.236
551.4710, 3072.044
552.6470, 2712.009
553.8220, 2516.077
554.9980, 2193.210
556.1730, 2011.450
557.3480, 1704.749
558.5230, 1633.093
559.6980, 1459.488
560.8730, 1246.912
562.0470, 1230.356
563.2220, 1108.832
564.3960, 1010.348
565.5700, 942.9043
566.7440, 759.5391
567.9170, 711.2637
569.0910, 654.4736
570.2640, 753.9390
571.4380, 603.8823
572.6110, 629.8789
573.7840, 626.9316
574.9570, 628.0581
576.1290, 511.2241
577.3020, 473.4263
578.4740, 556.6558
579.6460, 525.8955
580.8180, 576.1357
581.9900, 594.3755
583.1620, 647.6113
584.3330, 668.6685
585.5040, 661.0742
586.6760, 719.3018
587.8470, 766.5273
589.0180, 800.7510
590.1880, 883.9731
591.3590, 1036.194
592.5290, 979.4141
593.7000, 1208.633
594.8700, 1114.852
596.0400, 1294.071
597.2090, 1264.292
598.3790, 1332.513
599.5490, 1194.735
600.7180, 1258.912
601.8870, 1267.996
603.0560, 1169.673
604.2250, 1200.255
605.3940, 1011.436
606.5620, 1177.926
607.7300, 839.3335
608.8990, 828.4688
610.0670, 668.1455
611.2350, 526.5923
612.4020, 511.4385
613.5700, 397.7114
614.7370, 336.3662
615.9050, 296.2065
617.0720, 202.4849
618.2390, 157.4058
619.4060, 146.7617
620.5720, 15.21973
621.7390, 60.15088
622.9050, 100.8379
624.0710, 86.76416
625.2370, 36.11914
626.4030, 18.79248
627.5690, 40.55615
628.7340, 8.738770
629.9000, 74.63721
631.0650, 25.87695
632.2300, 116.7139
633.3950, 46.33643
634.5600, 137.7930
635.7240, 210.8623
636.8890, 254.2456
638.0530, 339.3413
639.2170, 436.5581
640.3810, 612.5073
641.5450, 722.6855
642.7080, 739.9688
643.8720, 901.8413
645.0350, 1208.531
646.1980, 1307.399
647.3610, 1549.411
648.5240, 1872.179
649.6870, 2053.431
650.8490, 2434.857
652.0120, 2499.287
653.1740, 2693.667
654.3360, 2963.039
655.4980, 3073.471
656.6600, 3020.374
657.8210, 3038.179
658.9830, 2943.550
660.1440, 2792.613
661.3050, 2591.866
662.4660, 2390.696
663.6270, 2102.365
664.7870, 1865.810
665.9480, 1534.962
667.1080, 1276.493
668.2680, 1174.750
669.4280, 1090.416
670.5880, 929.5586
671.7480, 865.2681
672.9070, 773.2100
674.0670, 685.4438
675.2260, 472.6567
676.3850, 584.8525
677.5440, 640.9551
678.7030, 429.4116
679.8610, 592.5571
681.0200, 510.0137
682.1780, 510.0283
683.3360, 577.8926
684.4940, 674.8184
685.6520, 654.1777
686.8090, 616.9927
687.9670, 611.9175
689.1240, 742.1084
690.2810, 704.9546
691.4380, 898.6055
692.5950, 819.0898
693.7520, 1013.466
694.9080, 1023.737
696.0650, 1134.853
697.2210, 1241.618
698.3770, 1272.693
699.5330, 1520.846
700.6880, 1566.992
701.8440, 1698.852
702.9990, 1857.776
704.1550, 2052.576
705.3100, 2166.374
706.4650, 2295.886
707.6190, 2413.921
708.7740, 2510.762
709.9290, 2566.534
711.0830, 2687.993
712.2370, 2948.605
713.3910, 2976.442
714.5450, 2978.892
715.6980, 3011.165
716.8520, 2977.514
718.0050, 2819.741
719.1580, 2655.945
720.3110, 2619.126
721.4640, 2232.284
722.6170, 1949.469
723.7700, 1730.579
724.9220, 1598.665
726.0740, 1369.838
727.2260, 1198.875
728.3780, 1053.991
729.5300, 907.9697
730.6810, 804.9355
731.8330, 668.8765
732.9840, 633.7930
734.1350, 570.9482
735.2860, 557.8149
736.4370, 463.6572
737.5880, 397.5264
738.7380, 338.3174
739.8880, 323.2144
741.0390, 294.3042
742.1890, 353.0225
743.3380, 297.7178
744.4880, 322.2690
745.6380, 335.7515
746.7870, 325.3540
747.9360, 299.0498
749.0850, 273.7559
750.2340, 114.5405
751.3830, 182.5039
752.5310, 161.2339
753.6800, 90.92871
754.8280, 238.6353
755.9760, 175.3140
757.1240, 142.0249
758.2720, 15.68262
759.4190, 67.33740
760.5670, 1.985352
761.7140, 94.93018
762.8610, 25.46289
764.0080, 0.7890630
765.1550, 30.26318
766.3020, 55.59668
767.4480, 16.42041
768.5950, 48.93506
769.7410, 33.85547
770.8870, 0.6254880
772.0330, 77.43799
773.1780, 54.33350
774.3240, 74.30078
775.4690, 180.2881
776.6140, 165.3833
777.7590, 47.61768
778.9040, 162.0083
780.0490, 19.53027
781.1940, 44.10986
782.3380, 215.7598
783.4820, 74.57031
784.6260, 28.46777
785.7700, 23.23584
786.9140, 62.25781
788.0580, 96.35889
789.2010, 0.1582030
790.3450, 110.0967
791.4880, 30.58545
792.6310, 24.18359
793.7730, 85.25781
794.9160, 92.20459
796.0590, 71.36865
797.2010, 101.9683
798.3430, 58.26904
799.4850, 14.53223
800.6270, 47.24902
801.7690, 29.89209
802.9100, 9.993164
804.0520, 11.95312
805.1930, 72.04053
806.3340, 61.00293
807.4750, 104.8677
808.6160, 13.29834
809.7560, 155.4746
810.8970, 87.21240
812.0370, 93.91260
813.1770, 98.57520
814.3170, 121.2007
815.4570, 38.78955
816.5960, 109.3394
817.7360, 37.85156
818.8750, 0.6757810
820.0140, 1.741211
821.1530, 155.1045
822.2920, 49.43311
823.4310, 176.7217
824.5690, 147.9766
825.7070, 81.19531
826.8460, 160.3770
827.9840, 255.5239
829.1220, 27.63721
830.2590, 23.29053
831.3970, 43.71338
832.5340, 76.67920
833.6710, 19.60791
834.8080, 77.49170
835.9450, 54.33740
837.0820, 51.14551
838.2190, 114.9160
839.3550, 94.65088
840.4910, 119.3486
841.6270, 115.0112
842.7630, 92.63867
843.8990, 133.2300
845.0350, 88.78662
846.1700, 99.30762
847.3060, 168.7930
848.4410, 17.24512
849.5760, 66.65283
850.7100, 153.0244
851.8450, 215.3628
852.9800, 164.6699
854.1140, 200.9443
855.2480, 246.1870
856.3820, 257.3984
857.5160, 279.5791
858.6500, 171.7285
859.7830, 204.8462
860.9170, 217.9331
862.0500, 154.9893
863.1830, 255.0137
864.3160, 158.0078
865.4480, 229.9712
866.5810, 186.9038
867.7130, 236.8071
868.8460, 226.6802
869.9780, 111.5239
871.1100, 177.3350
872.2410, 185.1167
873.3730, 158.8691
874.5050, 265.5918
875.6360, 138.2856
876.7670, 84.94922
877.8980, 172.5806
879.0290, 195.1841
880.1590, 83.75879
881.2900, 197.3022
882.4200, 101.8169
883.5500, 188.3042
884.6800, 193.7627
885.8100, 146.1934
886.9400, 98.34912
888.0690, 146.7217
889.1990, 214.0034
890.3280, 154.9570
891.4570, 186.2441
892.5860, 138.4834
893.7140, 151.5688
894.8430, 149.0913
895.9710, 140.7964
897.1000, 78.95850
898.2280, 197.7085
899.3560, 116.5098
900.4830, 199.5542
901.6110, 140.8779
902.7380, 123.5264
903.8660, 100.5532
904.9930, 135.4731
906.1200, 162.2769
907.2460, 169.0342
908.3730, 162.1309
909.5000, 203.2227
910.6260, 90.17432
911.7520, 70.40234
912.8780, 34.50439
914.0040, 95.83203
915.1290, 168.9253
916.2550, 86.90039
917.3800, 72.27344
918.5050, 123.8164
919.6300, 68.16846
920.7550, 33.63672
921.8800, 76.78467
923.0040, 21.70947
924.1290, 26.55127
925.2530, 64.16943
926.3770, 1.071777
927.5010, 156.6831
928.6250, 100.3833
929.7480, 61.60156
930.8720, 69.61816
931.9950, 34.40723
933.1180, 32.88770
934.2410, 31.50684
935.3640, 51.76562
936.4860, 68.18652
937.6090, 135.8276
938.7310, 212.7612
939.8530, 238.3149
940.9750, 339.1558
942.0970, 311.5923
943.2180, 287.5498
944.3400, 492.9360
945.4610, 581.0869
946.5820, 492.9438
947.7030, 579.8198
948.8240, 849.7070
949.9450, 972.6812
951.0650, 1158.290
952.1860, 1306.199
953.3060, 1469.792
954.4260, 1579.812
955.5460, 1628.970
956.6650, 1599.050
957.7850, 1574.683
958.9040, 1385.859
960.0230, 1488.922
961.1420, 1248.710
962.2610, 1200.825
963.3800, 1018.116
964.4990, 893.5537
965.6170, 903.0791
966.7350, 750.6943
967.8530, 775.4448
968.9710, 706.5225
970.0890, 496.2705
971.2070, 555.9194
972.3240, 533.5532
973.4410, 550.4517
974.5580, 561.2646
975.6750, 632.1797
976.7920, 680.0747
977.9090, 674.8887
979.0250, 530.8735
980.1410, 661.6743
981.2580, 806.5190
982.3740, 706.6543
983.4890, 850.6123
984.6050, 855.3350
985.7200, 852.4204
986.8360, 944.6592
987.9510, 997.7959
989.0660, 1114.033
990.1810, 1058.267
991.2950, 1093.501
992.4100, 1062.748
993.5240, 1088.943
994.6390, 1080.196
995.7530, 931.4487
996.8660, 1107.591
997.9800, 915.8413
999.0940, 1017.023
1000.207, 899.2998
1001.320, 718.5781
1002.433, 807.8560
1003.546, 779.1343
1004.659, 595.1631
1005.772, 515.4565
1006.884, 590.7520
1007.996, 463.0098
1009.108, 452.3223
1010.220, 424.5063
1011.332, 359.4741
1012.444, 429.7920
1013.555, 339.1118
1014.666, 376.0942
1015.777, 313.4185
1016.888, 456.2119
1017.999, 456.5415
1019.110, 377.8916
1020.220, 535.1895
1021.331, 494.5400
1022.441, 538.8569
1023.551, 474.2217
1024.661, 477.6812
1025.770, 454.0542
1026.880, 632.7256
1027.989, 724.1084
1029.098, 755.4966
1030.207, 699.8623
1031.316, 817.9839
1032.425, 855.3970
1033.533, 950.7144
1034.642, 912.1538
1035.750, 1112.611
1036.858, 1184.049
1037.966, 1459.471
1039.073, 1422.381
1040.181, 1649.934
1041.288, 1834.498
1042.396, 2216.094
1043.503, 2344.716
1044.610, 2711.974
1045.716, 3205.594
1046.823, 3818.279
1047.929, 4261.075
1049.036, 4805.928
1050.142, 5213.802
1051.248, 5937.703
1052.353, 6311.678
1053.459, 6973.684
1054.564, 7067.521
1055.670, 7056.572
1056.775, 6829.652
1057.880, 6503.055
1058.985, 6010.195
1060.089, 5760.335
1061.194, 4925.098
1062.298, 4568.428
1063.402, 4126.673
1064.506, 3642.929
1065.610, 3318.832
1066.713, 3134.131
1067.817, 2682.086
1068.920, 2630.289
1070.023, 2424.641
1071.126, 2193.005
1072.229, 2033.383
1073.332, 1749.338
1074.435, 1702.748
1075.537, 1588.189
1076.639, 1544.642
1077.741, 1357.113
1078.843, 1343.595
1079.945, 1192.086
1081.046, 1185.585
1082.148, 1218.095
1083.249, 1168.613
1084.350, 1037.142
1085.451, 1012.196
1086.551, 984.7451
1087.652, 997.3120
1088.752, 965.8975
1089.853, 905.4912
1090.953, 907.8857
1092.053, 942.1284
1093.152, 884.0713
1094.252, 752.7017
1095.351, 853.3394
1096.451, 801.9980
1097.550, 780.6685
1098.649, 965.2681
1099.748, 840.9717
1100.846, 879.6855
1101.945, 956.4121
1103.043, 902.1479
1104.141, 830.8940
1105.239, 870.6499
1106.337, 727.4141
1107.434, 850.1880
1108.532, 651.9702
1109.629, 685.3125
1110.726, 698.6543
1111.823, 692.6182
1112.920, 703.4346
1114.017, 583.2603
1115.113, 522.0928
1116.210, 554.9644
1117.306, 495.8193
1118.402, 517.6816
1119.498, 482.5513
1120.593, 582.6113
1121.689, 442.4946
1122.784, 378.3838
1123.879, 434.8325
1124.974, 314.8110
1126.069, 421.1587
1127.164, 331.0747
1128.259, 350.9971
1129.353, 286.9258
1130.447, 277.2939
1131.541, 185.6377
1132.635, 202.5854
1133.729, 178.5386
1134.822, 280.4980
1135.916, 126.5537
1137.009, 188.5254
1138.102, 186.6045
1139.195, 115.8203
1140.288, 146.9385
1141.380, 127.1338
1142.473, 109.9307
1143.565, 137.9365
1144.657, 172.0498
1145.749, 195.0654
1146.841, 66.08789
1147.932, 30.03564
1149.024, 178.8066
1150.115, 296.7852
1151.206, 320.9961
1152.297, 13.43945
1153.388, 115.2549
1154.479, 58.63086
1155.569, 5.787109
1156.659, 188.1064
1157.750, 94.14307
1158.839, 95.62891
1159.929, 97.58398
1161.019, 185.1670
1162.108, 86.01367
1163.198, 44.61621
1164.287, 189.9600
1165.376, 231.9395
1166.465, 111.3057
1167.553, 204.4072
1168.642, 84.35352
1169.730, 38.05469
1170.818, 155.6660
1171.906, 117.0381
1172.994, 64.06934
1174.082, 189.1143
1175.170, 20.83887
1176.257, 19.25586
1177.344, 54.30176
1178.431, 110.3594
1179.518, 135.4189
1180.605, 86.21289
1181.691, 98.27539
1182.778, 91.05566
1183.864, 133.4023
1184.950, 85.46777
1186.036, 37.53906
1187.122, 35.61035
1188.207, 148.6826
1189.292, 108.7588
1190.378, 58.83398
1191.463, 65.09082
1192.548, 3.046875
1193.632, 19.99512
1194.717, 149.0352
1195.801, 12.92480
1196.886, 85.10742
1197.970, 12.86133
1199.054, 16.83887
1200.137, 99.17578
1201.221, 24.18750
1202.305, 98.19727
1203.388, 43.79297
1204.471, 60.19043
1205.554, 84.17285
1206.637, 41.15332
1207.719, 94.13281
1208.802, 46.10840
1209.884, 48.08301
1210.966, 157.0557
1212.048, 82.02441
1213.130, 102.9922
1214.212, 63.95605
1215.293, 22.08105
1216.374, 28.86328
1217.456, 134.8066
1218.536, 125.7461
1219.617, 20.68262
1220.698, 56.38379
1221.778, 37.48242
1222.859, 32.17969
1223.939, 133.3789
1225.019, 43.22559
1226.099, 145.1650
1227.178, 88.00684
1228.258, 6.154297
1229.337, 98.67090
1230.417, 131.4941
1231.496, 102.2441
1232.574, 123.0996
1233.653, 96.99805
1234.732, 98.82422
1235.810, 113.6475
1236.888, 171.4658
1237.966, 61.27832
1239.044, 28.91113
1240.122, 3.872070
1241.199, 14.64355
1242.277, 149.4102
1243.354, 58.17090
1244.431, 122.9277
1245.508, 34.31934
1246.585, 69.40137
1247.661, 91.11816
1248.738, 87.83008
1249.814, 17.53711
1250.890, 129.2363
1251.966, 171.9316
1253.042, 40.37891
1254.117, 32.27441
1255.193, 6.078125
1256.268, 146.5508
1257.343, 112.1738
1258.418, 56.79199
1259.493, 52.59570
1260.567, 4.026367
1261.642, 167.5234
1262.716, 147.0684
1263.790, 97.60742
1264.864, 29.85742
1265.938, 114.6445
1267.011, 34.13965
1268.085, 31.37109
1269.158, 30.09375
1270.231, 133.5410
