##NAMES=Elbaite
##RRUFFID=R050487
##IDEAL CHEMISTRY=Na(Al_1.5_Li_1.5_)Al_6_(Si_6_O_18_)(BO_3_)_3_(OH)_3_OH
##LOCALITY=White Queen mine, Pala, San Diego County, California, USA
##OWNER=RRUFF
##SOURCE=California Institute of Technology
##DESCRIPTION=Mass of blue acicular crystals
##STATUS=The identification of this mineral has been confirmed by X-ray diffraction and chemical analysis
##URL=rruff.info/R050487
##MEASURED CHEMISTRY=(Na_0.86_[box]_0.13_Ca_0.01_)(Al_0.42_Li_0.38_Fe^2+^_0.18_Mn_0.02_)_3_Al_6_(BO_3_)_3_Si_6_O_18_((OH)_0.85_F_0.15_)_4_
##PIN_ID=M01385
##ORIENTATION=Laser parallel to c* (0 0 1). Fiducial mark perpendicular to laser is parallel to b [0 1 0]
198.7430, 0.0000000E+00
199.9670, 75.26660
201.1900, 8.385742
202.4130, 82.75293
203.6360, 64.16699
204.8590, 292.1689
206.0820, 345.2764
207.3050, 723.8340
208.5270, 997.9883
209.7490, 1412.005
210.9710, 1977.785
212.1930, 2630.963
213.4150, 3183.906
214.6370, 3761.050
215.8580, 4352.582
217.0790, 5179.627
218.3010, 5376.929
219.5210, 5957.004
220.7420, 6223.506
221.9630, 6396.320
223.1830, 6311.602
224.4040, 6181.531
225.6240, 5642.761
226.8440, 5288.332
228.0640, 4594.981
229.2840, 4157.222
230.5030, 3845.998
231.7230, 3489.361
232.9420, 3031.004
234.1610, 3015.246
235.3800, 2904.932
236.5990, 2623.903
237.8170, 2368.779
239.0360, 2391.223
240.2540, 2217.479
241.4720, 2293.828
242.6900, 2053.417
243.9080, 2161.974
245.1250, 1978.818
246.3430, 1760.980
247.5600, 1748.176
248.7770, 1437.359
249.9940, 1166.387
251.2110, 1184.693
252.4280, 771.0205
253.6450, 743.7324
254.8610, 535.4717
256.0770, 310.0166
257.2930, 397.6250
258.5090, 421.6357
259.7250, 385.4463
260.9400, 108.5596
262.1560, 142.6094
263.3710, 52.14062
264.5860, 43.38281
265.8010, 34.64551
267.0160, 185.4785
268.2310, 11.01855
269.4450, 74.62988
270.6600, 162.3154
271.8740, 182.1465
273.0880, 227.3311
274.3020, 290.8672
275.5150, 183.7432
276.7290, 314.9375
277.9420, 270.4268
279.1550, 139.1895
280.3680, 96.20020
281.5810, 56.32617
282.7940, 82.12598
284.0070, 8.505859
285.2190, 12.27344
286.4310, 49.80566
287.6430, 188.7646
288.8550, 117.6260
290.0670, 252.4141
291.2790, 240.1348
292.4900, 122.7979
293.7020, 61.41602
294.9130, 134.0078
296.1240, 193.5938
297.3350, 74.18750
298.5450, 155.7900
299.7560, 16.40820
300.9660, 77.07031
302.1760, 1.242188
303.3860, 64.46777
304.5960, 190.5303
305.8060, 271.4453
307.0150, 354.2588
308.2250, 403.2588
309.4340, 479.5674
310.6430, 545.3828
311.8520, 587.5020
313.0610, 669.3320
314.2700, 683.0449
315.4780, 719.6855
316.6860, 916.3936
317.8940, 1350.215
319.1020, 1301.137
320.3100, 1639.892
321.5180, 1787.504
322.7250, 2338.055
323.9330, 2514.621
325.1400, 2622.258
326.3470, 2642.980
327.5540, 2862.794
328.7600, 3145.699
329.9670, 3339.696
331.1730, 3334.783
332.3800, 3366.958
333.5860, 3580.219
334.7920, 3468.570
335.9970, 3486.007
337.2030, 3536.529
338.4080, 3514.139
339.6140, 3552.832
340.8190, 3583.611
342.0240, 3609.475
343.2290, 3773.419
344.4330, 3938.016
345.6380, 4000.852
346.8420, 4191.728
348.0460, 4546.905
349.2500, 4945.098
350.4540, 5040.246
351.6580, 5267.314
352.8610, 5510.266
354.0650, 5616.075
355.2680, 5738.731
356.4710, 5815.217
357.6740, 6064.519
358.8760, 6326.629
360.0790, 6546.540
361.2810, 6814.588
362.4840, 6917.660
363.6860, 7481.880
364.8880, 7830.893
366.0900, 8498.694
367.2910, 9027.265
368.4930, 9637.595
369.6940, 10536.69
370.8950, 11144.55
372.0960, 11813.19
373.2970, 12325.57
374.4980, 12392.73
375.6980, 12386.56
376.8980, 12142.88
378.0990, 11207.92
379.2990, 10293.65
380.4980, 9100.219
381.6980, 7998.688
382.8980, 7017.176
384.0970, 6036.452
385.2960, 5343.600
386.4950, 4870.467
387.6940, 4268.127
388.8930, 3823.385
390.0920, 3419.121
391.2900, 3166.619
392.4880, 2941.797
393.6860, 2913.753
394.8840, 2623.614
396.0820, 2523.495
397.2800, 2487.304
398.4770, 2305.138
399.6750, 2540.262
400.8720, 2464.054
402.0690, 2570.826
403.2660, 2612.688
404.4620, 2612.311
405.6590, 2631.156
406.8550, 2610.617
408.0510, 2573.229
409.2480, 2474.752
410.4430, 2551.395
411.6390, 2291.950
412.8350, 2203.126
414.0300, 2007.678
415.2250, 1754.602
416.4200, 1443.959
417.6150, 1481.908
418.8100, 1408.510
420.0050, 1226.330
421.1990, 1173.225
422.3940, 995.9912
423.5880, 896.6875
424.7820, 864.9355
425.9750, 860.5283
427.1690, 834.6924
428.3630, 570.7451
429.5560, 640.3369
430.7490, 586.3223
431.9420, 631.8418
433.1350, 568.0801
434.3280, 672.1094
435.5200, 391.1572
436.7130, 456.8145
437.9050, 513.5693
439.0970, 377.0098
440.2890, 364.9502
441.4810, 482.6260
442.6720, 520.4189
443.8640, 407.1982
445.0550, 505.4072
446.2460, 519.2539
447.4370, 664.5791
448.6280, 572.4424
449.8180, 572.7100
451.0090, 464.3896
452.1990, 475.3398
453.3890, 394.4150
454.5790, 403.5293
455.7690, 468.6797
456.9590, 422.8682
458.1480, 571.0938
459.3380, 770.3564
460.5270, 678.6592
461.7160, 1037.002
462.9050, 708.3857
464.0940, 959.8105
465.2820, 1002.279
466.4700, 1032.790
467.6590, 1121.344
468.8470, 1116.938
470.0350, 1154.575
471.2220, 1251.254
472.4100, 1097.972
473.5970, 1087.731
474.7850, 1175.530
475.9720, 1182.369
477.1590, 1348.248
478.3460, 1286.164
479.5320, 1414.119
480.7190, 1409.112
481.9050, 1406.144
483.0910, 1530.213
484.2770, 1556.319
485.4630, 1760.463
486.6490, 1875.643
487.8340, 1910.824
489.0200, 2069.006
490.2050, 2048.188
491.3900, 2484.369
492.5750, 2537.549
493.7600, 2861.728
494.9440, 3099.904
496.1290, 3382.080
497.3130, 3505.967
498.4970, 3582.482
499.6810, 3624.608
500.8650, 3560.787
502.0480, 3444.970
503.2320, 3349.154
504.4150, 3165.764
505.5980, 3047.537
506.7810, 2741.736
507.9640, 2535.943
509.1460, 2280.158
510.3290, 2057.383
511.5110, 1720.618
512.6930, 1297.862
513.8750, 1173.120
515.0570, 750.3896
516.2390, 891.6738
517.4210, 378.9736
518.6020, 511.2891
519.7830, 385.6240
520.9640, 153.9775
522.1450, 80.35254
523.3260, 26.74805
524.5060, 14.83496
525.6870, 95.60254
526.8670, 23.06250
528.0470, 48.54590
529.2270, 206.0527
530.4070, 104.0840
531.5870, 75.13086
532.7660, 230.5947
533.9450, 439.2871
535.1240, 253.3965
536.3030, 451.8682
537.4820, 516.5303
538.6610, 741.2480
539.8390, 588.8799
541.0180, 647.4053
542.1960, 818.0010
543.3740, 891.7637
544.5520, 788.9043
545.7290, 902.6211
546.9070, 835.0840
548.0840, 1051.942
549.2620, 834.8838
550.4390, 931.0615
551.6160, 885.1797
552.7920, 797.9980
553.9690, 796.9873
555.1450, 660.7627
556.3220, 554.6699
557.4980, 484.4492
558.6740, 610.6758
559.8490, 449.5400
561.0250, 502.0273
562.2000, 356.4316
563.3760, 198.0684
564.5510, 238.9678
565.7260, 259.9639
566.9010, 262.1494
568.0750, 189.1172
569.2500, 213.2969
570.4240, 198.5703
571.5980, 182.2793
572.7720, 230.0312
573.9460, 262.7490
575.1200, 219.5244
576.2930, 322.3916
577.4670, 230.3438
578.6400, 319.3506
579.8130, 224.3955
580.9860, 343.4951
582.1590, 483.6650
583.3310, 373.8701
584.5040, 450.1338
585.6760, 374.4180
586.8480, 558.7344
588.0200, 576.0645
589.1920, 561.4023
590.3630, 668.7432
591.5350, 791.0859
592.7060, 935.4268
593.8770, 930.7676
595.0480, 1096.107
596.2190, 1126.442
597.3900, 1220.774
598.5600, 1165.102
599.7310, 1318.427
600.9010, 1261.748
602.0710, 1375.062
603.2410, 1356.373
604.4100, 1327.679
605.5800, 1284.978
606.7490, 1221.941
607.9190, 1040.558
609.0880, 1111.837
610.2570, 1072.108
611.4250, 1109.373
612.5940, 899.6309
613.7620, 930.8818
614.9310, 760.1396
616.0990, 733.3906
617.2670, 549.6504
618.4340, 622.9150
619.6020, 393.1953
620.7690, 607.5029
621.9370, 406.8252
623.1040, 328.1797
624.2710, 442.5635
625.4380, 430.9629
626.6040, 409.4238
627.7710, 334.8896
628.9370, 572.3779
630.1030, 591.8643
631.2690, 564.3809
632.4350, 668.9160
633.6010, 666.4482
634.7660, 880.0020
635.9320, 864.5518
637.0970, 906.0938
638.2620, 908.6201
639.4270, 761.1572
640.5920, 679.6768
641.7560, 756.2002
642.9210, 830.7070
644.0850, 834.1992
645.2490, 813.5576
646.4130, 787.1484
647.5770, 695.6445
648.7400, 703.1582
649.9040, 652.6768
651.0670, 677.1816
652.2300, 739.6934
653.3930, 740.2266
654.5560, 980.7490
655.7190, 858.2490
656.8810, 919.7314
658.0440, 922.1934
659.2060, 788.6328
660.3680, 910.0527
661.5300, 907.4521
662.6910, 828.8271
663.8530, 767.1807
665.0140, 773.3936
666.1750, 610.7012
667.3360, 535.9883
668.4970, 452.0586
669.6580, 270.4844
670.8190, 276.6943
671.9790, 187.8721
673.1390, 144.0195
674.2990, 85.51074
675.4590, 54.20215
676.6190, 25.76855
677.7790, 103.8242
678.9380, 100.0078
680.0970, 159.6758
681.2570, 301.7822
682.4160, 206.4863
683.5740, 194.3740
684.7330, 201.4414
685.8920, 354.6963
687.0500, 263.2188
688.2080, 166.9609
689.3660, 343.8730
690.5240, 229.0527
691.6820, 206.4355
692.8390, 128.0146
693.9960, 138.7480
695.1540, 75.64355
696.3110, 7.333008
697.4680, 249.2236
698.6240, 341.0732
699.7810, 435.8867
700.9370, 589.6621
702.0940, 668.4072
703.2500, 915.1162
704.4060, 1085.791
705.5610, 1323.431
706.7170, 1453.037
707.8720, 1771.609
709.0280, 2044.145
710.1830, 2448.644
711.3380, 2912.107
712.4920, 3467.535
713.6470, 4213.926
714.8020, 4995.279
715.9560, 5770.597
717.1100, 6604.873
718.2640, 7569.111
719.4180, 8690.312
720.5720, 9575.472
721.7250, 10659.59
722.8780, 11575.67
724.0320, 12380.71
725.1850, 12923.71
726.3380, 12938.67
727.4900, 12887.59
728.6430, 12470.46
729.7950, 11954.30
730.9470, 10885.09
732.1000, 9501.840
733.2510, 8499.547
734.4030, 7498.215
735.5550, 6579.837
736.7060, 5650.420
737.8570, 4658.959
739.0090, 4091.455
740.1600, 3663.908
741.3100, 3190.319
742.4610, 2964.686
743.6110, 2922.014
744.7620, 2704.295
745.9120, 2645.531
747.0620, 2526.727
748.2120, 2539.881
749.3610, 2526.988
750.5110, 2676.555
751.6600, 2727.174
752.8090, 2761.883
753.9580, 2792.980
755.1070, 2782.387
756.2560, 2765.885
757.4050, 2704.002
758.5530, 2668.043
759.7010, 2557.551
760.8490, 2509.742
761.9970, 2222.729
763.1450, 2258.064
764.2920, 2080.688
765.4400, 1773.686
766.5870, 1765.949
767.7340, 1685.629
768.8810, 1493.465
770.0280, 1429.988
771.1740, 1210.373
772.3210, 1144.316
773.4670, 1149.203
774.6130, 1016.500
775.7590, 1063.600
776.9050, 1101.576
778.0510, 1025.477
779.1960, 922.2422
780.3420, 965.0371
781.4870, 831.5156
782.6320, 856.0781
783.7770, 877.3672
784.9210, 900.7734
786.0660, 862.3359
787.2100, 932.7168
788.3540, 974.3223
789.4980, 1033.855
790.6420, 1165.555
791.7860, 1228.670
792.9300, 1241.867
794.0730, 1472.238
795.2160, 1593.326
796.3590, 1587.354
797.5020, 1699.328
798.6450, 1810.115
799.7880, 1915.469
800.9300, 2067.922
802.0720, 2243.674
803.2150, 2385.379
804.3560, 2638.025
805.4980, 2763.619
806.6400, 3129.162
807.7810, 3456.150
808.9230, 3542.098
810.0640, 3510.604
811.2050, 3566.859
812.3460, 3383.676
813.4860, 3172.111
814.6270, 2884.336
815.7670, 2526.484
816.9070, 2308.701
818.0470, 2234.004
819.1870, 2149.223
820.3270, 2006.268
821.4670, 2129.918
822.6060, 1775.977
823.7450, 1900.277
824.8840, 1801.186
826.0230, 1983.008
827.1620, 1845.605
828.3010, 2115.297
829.4390, 2204.299
830.5770, 2036.121
831.7150, 2247.174
832.8530, 2277.094
833.9910, 2392.129
835.1290, 2568.703
836.2660, 2564.629
837.4030, 2518.914
838.5410, 2593.266
839.6780, 2751.588
840.8140, 2620.877
841.9510, 2790.137
843.0870, 2700.365
844.2240, 2951.564
845.3600, 3295.730
846.4960, 3351.869
847.6320, 3856.977
848.7680, 4071.057
849.9030, 4478.104
851.0380, 5163.123
852.1740, 5524.113
853.3090, 5894.074
854.4440, 6501.006
855.5780, 6655.908
856.7130, 6709.781
857.8470, 6722.627
858.9820, 6493.445
860.1160, 6267.232
861.2500, 5801.992
862.3830, 5021.729
863.5170, 4356.432
864.6500, 3773.109
865.7840, 3209.760
866.9170, 2755.385
868.0500, 2367.980
869.1830, 2057.551
870.3150, 1509.094
871.4480, 1448.613
872.5800, 1194.105
873.7120, 1199.568
874.8440, 1011.010
875.9760, 875.4219
877.1080, 628.8145
878.2390, 518.1777
879.3710, 272.5176
880.5020, 368.8320
881.6330, 241.1230
882.7640, 233.9492
883.8940, 368.6309
885.0250, 266.8496
886.1550, 96.04297
887.2850, 121.2109
888.4160, 1.648438
889.5450, 85.43555
890.6750, 15.50391
891.8050, 6.505859
892.9340, 42.55859
894.0630, 90.68555
895.1930, 51.91016
896.3220, 112.2109
897.4500, 110.6172
898.5790, 54.13281
899.7070, 235.7207
900.8360, 20.47852
901.9640, 90.29102
903.0920, 3.197266
904.2200, 119.1484
905.3470, 84.20508
906.4750, 4.347656
907.6020, 88.53125
908.7290, 6.804688
909.8560, 6.878906
910.9830, 126.5312
912.1100, 55.83594
913.2360, 232.7305
914.3630, 40.71875
915.4890, 193.7773
916.6150, 23.25391
917.7410, 29.71094
918.8670, 22.85156
919.9920, 126.4551
921.1180, 109.1562
922.2430, 64.94141
923.3680, 4.212891
924.4930, 77.65625
925.6180, 133.5938
926.7420, 7.625000
927.8670, 124.3145
928.9910, 30.26172
930.1150, 91.22070
931.2390, 186.1953
932.3630, 148.1914
933.4860, 198.2383
934.6100, 176.3281
935.7330, 283.4453
936.8560, 168.6113
937.9790, 332.8633
939.1020, 357.1406
940.2250, 512.4961
941.3470, 295.9004
942.4700, 346.3555
943.5920, 535.8594
944.7140, 362.3848
945.8360, 458.9277
946.9570, 465.5234
948.0790, 446.1152
949.2000, 403.7383
950.3220, 653.3848
951.4430, 611.0859
952.5640, 783.8730
953.6840, 732.7441
954.8050, 889.7129
955.9250, 1078.756
957.0460, 933.8691
958.1660, 932.0547
959.2860, 1179.357
960.4050, 1156.750
961.5250, 1202.209
962.6440, 1150.781
963.7640, 1313.436
964.8830, 1329.951
966.0020, 1300.965
967.1210, 1428.820
968.2390, 1515.719
969.3580, 1469.643
970.4760, 1526.568
971.5940, 1518.494
972.7120, 1551.418
973.8300, 1570.320
974.9480, 1541.492
976.0650, 1627.184
977.1830, 1519.102
978.3000, 1591.021
979.4170, 1660.938
980.5340, 1589.855
981.6500, 1837.771
982.7670, 1719.689
983.8830, 1930.605
985.0000, 1870.520
986.1160, 1692.439
987.2320, 1737.355
988.3470, 1690.271
989.4630, 1842.191
990.5780, 1923.111
991.6940, 1776.033
992.8090, 1931.955
993.9240, 1761.879
995.0380, 1855.805
996.1530, 2183.732
997.2680, 2308.660
998.3820, 2315.594
999.4960, 2344.525
1000.610, 2447.465
1001.724, 2371.404
1002.837, 2190.348
1003.951, 2287.295
1005.064, 2332.246
1006.177, 2455.201
1007.291, 2438.156
1008.403, 2394.117
1009.516, 2522.084
1010.629, 2341.055
1011.741, 2718.029
1012.853, 2727.008
1013.965, 2720.990
1015.077, 2529.979
1016.189, 2909.973
1017.300, 2790.973
1018.412, 3076.977
1019.523, 3066.986
1020.634, 2943.498
1021.745, 3042.135
1022.856, 2898.219
1023.966, 3138.740
1025.077, 3293.064
1026.187, 3234.006
1027.297, 3315.746
1028.407, 3392.523
1029.517, 3396.797
1030.627, 3465.350
1031.736, 3740.070
1032.845, 3835.406
1033.955, 4063.418
1035.064, 3970.016
1036.172, 4197.312
1037.281, 4387.156
1038.390, 4612.807
1039.498, 4823.035
1040.606, 5113.768
1041.714, 5312.602
1042.822, 5543.662
1043.930, 5909.672
1045.037, 6205.846
1046.145, 6386.109
1047.252, 6838.408
1048.359, 7098.812
1049.466, 7811.148
1050.573, 8045.059
1051.679, 8827.027
1052.786, 9504.951
1053.892, 9880.465
1054.998, 10431.17
1056.104, 11068.76
1057.210, 11360.73
1058.315, 11603.47
1059.421, 11786.34
1060.526, 11636.95
1061.631, 11486.50
1062.736, 11170.98
1063.841, 10551.77
1064.946, 9794.828
1066.050, 9169.523
1067.154, 8013.803
1068.258, 7521.865
1069.362, 6961.752
1070.466, 5993.812
1071.570, 5487.082
1072.674, 4783.273
1073.777, 4419.268
1074.880, 3749.902
1075.983, 3597.869
1077.086, 3353.240
1078.189, 2922.730
1079.291, 2654.594
1080.394, 2395.461
1081.496, 2248.152
1082.598, 2179.045
1083.700, 1891.102
1084.802, 2111.811
1085.903, 1806.141
1087.005, 1935.082
1088.106, 1987.037
1089.207, 1916.004
1090.308, 1938.977
1091.409, 1996.795
1092.509, 2131.961
1093.610, 2174.967
1094.710, 2293.982
1095.810, 2478.010
1096.910, 2402.041
1098.010, 2340.082
1099.110, 2513.133
1100.209, 2757.191
1101.309, 2553.256
1102.408, 2838.330
1103.507, 2865.412
1104.606, 2966.502
1105.704, 3412.602
1106.803, 3354.709
1107.901, 3631.824
1108.999, 4108.949
1110.097, 4220.084
1111.195, 4519.223
1112.293, 4523.371
1113.391, 4511.531
1114.488, 4609.697
1115.585, 4173.873
1116.682, 3798.059
1117.779, 3530.254
1118.876, 3193.457
1119.973, 2874.842
1121.069, 2380.896
1122.165, 2316.129
1123.261, 1964.373
1124.357, 1832.625
1125.453, 1742.889
1126.549, 1348.158
1127.644, 1487.441
1128.739, 1421.732
1129.835, 1215.033
1130.930, 1266.348
1132.024, 1123.668
1133.119, 1209.002
1134.214, 1304.344
1135.308, 1039.697
1136.402, 1174.061
1137.496, 950.4375
1138.590, 974.8223
1139.684, 1077.221
1140.777, 945.6270
1141.871, 1065.047
1142.964, 944.4785
1144.057, 958.9219
1145.150, 793.3750
1146.243, 1040.842
1147.335, 1161.316
1148.428, 1144.805
1149.520, 1197.309
1150.612, 1451.820
1151.704, 1327.346
1152.796, 1395.883
1153.887, 1261.438
1154.979, 1703.018
1156.070, 1314.611
1157.161, 1443.238
1158.252, 1685.893
1159.343, 1364.586
1160.433, 1514.332
1161.524, 1550.113
1162.614, 1229.953
1163.704, 1117.848
1164.794, 1256.783
1165.884, 1102.807
1166.974, 833.8574
1168.063, 788.9609
1169.153, 887.0859
1170.242, 685.2715
1171.331, 638.5000
1172.420, 771.7559
1173.508, 571.0605
1174.597, 597.3867
1175.685, 581.7363
1176.774, 366.1016
1177.862, 430.5020
1178.950, 467.9180
1180.037, 545.3652
1181.125, 468.8281
1182.212, 516.7227
1183.300, 523.7949
1184.387, 528.3105
1185.474, 554.8828
1186.560, 585.5020
1187.647, 461.1562
1188.733, 398.0000
1189.820, 154.5449
1190.906, 166.3086
1191.992, 38.90430
1193.078, 96.13867
1194.163, 78.41602
1195.249, 117.7305
1196.334, 228.1016
1197.419, 188.5840
1198.504, 133.1582
1199.589, 213.7969
1200.674, 359.5410
1201.758, 118.4648
1202.843, 313.4492
1203.927, 214.5898
1205.011, 208.8340
1206.095, 198.1816
1207.179, 102.6270
1208.262, 50.11914
1209.345, 196.6348
1210.429, 60.75391
1211.512, 90.84375
1212.595, 59.51562
1213.677, 24.10938
1214.760, 160.7461
1215.842, 66.45703
1216.925, 174.8027
1218.007, 233.0762
1219.089, 236.3633
1220.171, 330.6641
1221.252, 252.9805
1222.334, 303.3105
1223.415, 565.6543
1224.496, 607.0137
1225.577, 498.3867
1226.658, 578.7754
1227.738, 455.1777
1228.819, 700.5957
1229.899, 745.0273
1230.979, 801.4785
1232.060, 860.9414
1233.139, 615.4219
1234.219, 846.9160
1235.299, 648.4258
1236.378, 845.9512
1237.457, 794.4941
1238.536, 865.0527
1239.615, 820.6309
1240.694, 839.2246
1241.772, 861.8359
1242.851, 873.4609
1243.929, 879.1074
1245.007, 883.7695
1246.085, 912.9434
1247.163, 713.1543
1248.240, 1001.875
1249.318, 930.6113
1250.395, 1029.365
1251.472, 1261.137
1252.549, 1135.930
1253.626, 1062.734
1254.703, 1170.562
1255.779, 1149.406
1256.855, 1174.270
1257.931, 1294.150
1259.007, 1532.051
1260.083, 1082.971
1261.159, 1159.908
1262.234, 1343.865
1263.310, 1045.842
1264.385, 1167.863
1265.460, 1191.900
1266.535, 1102.959
1267.610, 1109.039
1268.684, 998.1387
1269.758, 1030.289
1270.833, 1114.461
1271.907, 1317.650
1272.981, 1351.863
1274.054, 1001.098
1275.128, 1297.354
1276.201, 1107.627
1277.275, 1002.926
1278.348, 1056.254
1279.421, 948.6055
1280.493, 865.7676
1281.566, 850.7227
1282.638, 697.7910
1283.711, 793.2402
1284.783, 824.7129
1285.855, 884.2090
1286.927, 1051.729
1287.998, 785.2695
1289.070, 796.8320
1290.141, 745.4160
1291.212, 809.0215
1292.283, 1032.646
1293.354, 964.2949
1294.425, 1151.965
1295.495, 1005.654
1296.566, 833.3652
1297.636, 1075.094
1298.706, 1074.844
1299.776, 949.6152
1300.845, 975.4023
1301.915, 1010.211
1302.984, 904.0371
1304.054, 888.8828
1305.123, 903.7480
1306.191, 813.6289
1307.260, 835.5273
1308.329, 868.4395
1309.397, 813.3594
1310.465, 839.2910
1311.534, 847.2324
1312.602, 612.1855
1313.669, 635.1504
1314.737, 778.1250
1315.804, 497.1113
1316.872, 594.1094
1317.939, 633.1191
1319.006, 536.1445
1320.073, 488.1816
1321.139, 487.1445
1322.206, 454.1289
1323.272, 473.1016
1324.338, 487.7852
1325.404, 523.8691
1326.470, 592.4180
1327.536, 516.2246
1328.601, 577.2441
1329.667, 411.1426
1330.732, 487.8691
1331.797, 328.7188
1332.862, 354.8066
1333.926, 332.4805
1334.991, 538.5059
1336.055, 407.3535
1337.120, 74.12305
1338.184, 287.5625
1339.248, 420.0449
1340.311, 268.7480
1341.375, 396.2910
1342.438, 200.7148
1343.502, 327.5312
1344.565, 467.7734
1345.628, 272.4473
1346.691, 176.1504
1347.753, 319.8887
1348.816, 363.6621
1349.878, 467.4688
1350.940, 109.3086
1352.002, 62.18164
1353.064, 89.08789
1354.126, 268.0293
1355.187, 359.0039
1356.248, 361.0156
1357.310, 229.0586
1358.371, 170.1367
1359.431, 234.2500
