##NAMES=Elbaite
##RRUFFID=R060631
##IDEAL CHEMISTRY=Na(Al_1.5_Li_1.5_)Al_6_(Si_6_O_18_)(BO_3_)_3_(OH)_3_OH
##LOCALITY=unknown
##OWNER=RRUFF
##SOURCE=Gemological Institute of America
##DESCRIPTION=Pink polished fragment
##STATUS=The identification of this mineral is confirmed by single-crystal X-ray diffraction and chemical analysis.
##URL=rruff.info/R060631
##MEASURED CHEMISTRY=(Na_0.55_Ca_0.34_[box]_0.11_)(Li_1.53_Al_1.30_Mn_0.14_Fe^2+^_0.03_)Al_6.00_(BO_3_)_3_[Si_6.00_O_18_]((OH)_0.82_F_0.18_)_4_
##PIN_ID=L01625
##ORIENTATION=Laser parallel to a* (1 0 0). Fiducial mark perpendicular to laser is parallel to c [0 0 1]
113.2080, 0.0000000E+00
114.4400, 349.7070
115.6710, 284.4873
116.9030, 153.2793
118.1340, 71.40234
119.3650, 42.95508
120.5960, 124.2852
121.8270, 379.4941
123.0580, 386.7803
124.2880, 356.8359
125.5190, 251.8809
126.7490, 386.7178
127.9790, 684.9160
129.2090, 866.6455
130.4390, 1021.629
131.6680, 897.6191
132.8980, 1122.389
134.1270, 1282.717
135.3560, 1221.396
136.5850, 1389.014
137.8140, 1420.314
139.0430, 1413.122
140.2710, 1287.116
141.5000, 1128.243
142.7280, 1159.034
143.9560, 1186.406
145.1840, 1249.275
146.4120, 1529.568
147.6390, 1576.213
148.8670, 1688.146
150.0940, 1764.305
151.3210, 1724.593
152.5490, 1357.912
153.7750, 1101.183
155.0020, 1070.342
156.2290, 654.3379
157.4550, 384.1240
158.6810, 107.6650
159.9080, 122.0742
161.1340, 20.11816
162.3590, 32.51660
163.5850, 158.8213
164.8110, 86.20605
166.0360, 69.56055
167.2610, 77.23242
168.4860, 63.78320
169.7110, 223.4893
170.9360, 378.8652
172.1610, 450.8828
173.3850, 455.5176
174.6100, 637.7441
175.8340, 696.5410
177.0580, 584.8906
178.2820, 487.7686
179.5050, 499.1631
180.7290, 427.0537
181.9520, 503.4268
183.1760, 397.2656
184.3990, 584.5596
185.6220, 759.2939
186.8450, 750.3408
188.0670, 1274.366
189.2900, 1397.411
190.5120, 1914.477
191.7340, 2370.637
192.9560, 2847.920
194.1780, 3301.345
195.4000, 3768.929
196.6220, 4334.688
197.8430, 4878.631
199.0640, 5383.769
200.2860, 6091.109
201.5070, 6739.656
202.7270, 6881.415
203.9480, 7146.393
205.1690, 7849.607
206.3890, 8589.067
207.6090, 9568.540
208.8290, 10851.70
210.0490, 12207.00
211.2690, 13791.63
212.4890, 15767.65
213.7080, 17816.11
214.9280, 19502.03
216.1470, 21729.43
217.3660, 23841.37
218.5850, 25058.78
219.8030, 26487.76
221.0220, 26605.34
222.2400, 26456.49
223.4590, 25337.13
224.6770, 23979.27
225.8950, 22301.66
227.1120, 20787.22
228.3300, 19926.95
229.5480, 18513.81
230.7650, 17875.82
231.9820, 17438.97
233.1990, 16932.28
234.4160, 16888.72
235.6330, 16890.32
236.8490, 17246.07
238.0660, 17120.95
239.2820, 17124.99
240.4980, 17039.17
241.7140, 17106.49
242.9300, 16441.96
244.1460, 16225.57
245.3610, 15366.31
246.5770, 15055.20
247.7920, 14073.23
249.0070, 13438.40
250.2220, 12429.70
251.4370, 11352.14
252.6510, 10836.72
253.8660, 10247.43
255.0800, 9696.268
256.2940, 9469.242
257.5080, 9097.263
258.7220, 8608.868
259.9360, 8633.221
261.1490, 7857.668
262.3630, 7535.689
263.5760, 7618.997
264.7890, 7422.990
266.0020, 7231.287
267.2150, 7279.445
268.4270, 6937.111
269.6400, 6818.250
270.8520, 6680.830
272.0640, 6404.822
273.2760, 6331.195
274.4880, 6111.932
275.7000, 5728.016
276.9120, 5639.436
278.1230, 5191.172
279.3340, 4982.217
280.5450, 4694.555
281.7560, 4443.182
282.9670, 4159.031
284.1780, 3808.145
285.3880, 3581.492
286.5980, 3234.051
287.8090, 2862.857
289.0190, 2621.906
290.2290, 2196.189
291.4380, 1985.699
292.6480, 1790.432
293.8570, 1449.379
295.0670, 1462.533
296.2760, 1252.768
297.4850, 1052.387
298.6930, 1181.143
299.9020, 1153.086
301.1110, 1299.219
302.3190, 1329.541
303.5270, 1749.848
304.7350, 1965.662
305.9430, 2033.379
307.1510, 2459.934
308.3580, 2544.615
309.5660, 2909.652
310.7730, 3160.098
311.9800, 3540.998
313.1870, 3807.877
314.3940, 3995.488
315.6010, 4069.359
316.8070, 4031.074
318.0130, 3951.693
319.2200, 3822.562
320.4260, 4182.777
321.6310, 4559.105
322.8370, 4570.635
324.0430, 4591.277
325.2480, 4772.953
326.4540, 4933.113
327.6590, 4894.680
328.8640, 5013.902
330.0680, 5039.297
331.2730, 5123.357
332.4780, 5245.113
333.6820, 5373.828
334.8860, 5532.553
336.0900, 5770.164
337.2940, 5980.098
338.4980, 5964.537
339.7010, 6208.084
340.9050, 6603.740
342.1080, 7061.502
343.3110, 7253.371
344.5140, 7651.350
345.7170, 7733.430
346.9200, 7880.615
348.1220, 8048.906
349.3240, 8263.299
350.5270, 8489.797
351.7290, 8693.395
352.9310, 9146.094
354.1320, 9402.895
355.3340, 10030.79
356.5350, 11044.79
357.7370, 12058.88
358.9380, 13249.06
360.1390, 15289.34
361.3400, 17342.70
362.5400, 19853.15
363.7410, 23030.70
364.9410, 26498.32
366.1410, 30228.02
367.3410, 34000.81
368.5410, 37493.66
369.7410, 41219.60
370.9400, 43729.61
372.1400, 44842.70
373.3390, 44533.85
374.5380, 42212.07
375.7370, 38533.38
376.9360, 34613.74
378.1350, 31125.19
379.3330, 27313.71
380.5310, 23980.29
381.7300, 21627.95
382.9280, 19026.66
384.1260, 17185.46
385.3230, 15538.33
386.5210, 14175.27
387.7180, 13518.28
388.9160, 12553.36
390.1130, 12070.51
391.3100, 11793.73
392.5060, 11548.02
393.7030, 11649.73
394.9000, 11944.82
396.0960, 12172.33
397.2920, 12834.91
398.4880, 13267.55
399.6840, 13759.28
400.8800, 14163.06
402.0750, 14398.93
403.2710, 14516.37
404.4660, 14706.92
405.6610, 14306.11
406.8560, 14061.43
408.0510, 13529.87
409.2450, 12634.43
410.4400, 11731.12
411.6340, 10653.92
412.8280, 9102.844
414.0220, 8185.875
415.2160, 6967.018
416.4100, 5888.268
417.6030, 4931.625
418.7970, 3932.088
419.9900, 3244.654
421.1830, 2602.322
422.3760, 2205.094
423.5690, 1716.965
424.7610, 1744.936
425.9540, 1301.965
427.1460, 1060.100
428.3380, 750.4297
429.5300, 601.7871
430.7220, 340.2363
431.9140, 322.7812
433.1050, 383.4160
434.2970, 263.1445
435.4880, 209.9629
436.6790, 50.87109
437.8700, 45.86523
439.0610, 8.947266
440.2510, 36.10156
441.4420, 205.3379
442.6320, 178.6602
443.8220, 112.0645
445.0120, 10.55469
446.2020, 16.11328
447.3910, 115.2617
448.5810, 0.3789060
449.7700, 123.9121
450.9600, 29.80273
452.1490, 61.41016
453.3370, 224.5938
454.5260, 163.8105
455.7150, 21.03516
456.9030, 195.2129
458.0910, 196.4180
459.2800, 129.6543
460.4670, 222.8945
461.6550, 242.1797
462.8430, 168.5195
464.0300, 206.8809
465.2180, 108.2832
466.4050, 279.6855
467.5920, 369.1602
468.7790, 264.7539
469.9650, 269.4180
471.1520, 297.1543
472.3380, 260.9766
473.5250, 232.8691
474.7110, 188.8223
475.8970, 242.8125
477.0820, 220.8652
478.2680, 53.02734
479.4540, 45.01953
480.6390, 212.9570
481.8240, 210.0000
483.0090, 424.1113
484.1940, 671.2891
485.3780, 757.5352
486.5630, 978.8496
487.7470, 1126.289
488.9320, 1257.676
490.1160, 1466.191
491.3000, 1603.770
492.4830, 1851.414
493.6670, 1953.123
494.8500, 2209.898
496.0340, 2370.736
497.2170, 2609.258
498.4000, 2736.609
499.5820, 3119.639
500.7650, 3348.734
501.9480, 3613.895
503.1300, 4008.115
504.3120, 4156.398
505.4940, 4359.896
506.6760, 4424.154
507.8580, 4667.623
509.0390, 4662.156
510.2210, 4900.750
511.4020, 4808.402
512.5830, 4838.117
513.7640, 4511.891
514.9450, 4251.727
516.1250, 4359.625
517.3060, 3960.592
518.4860, 3902.625
519.6660, 3370.748
520.8460, 3037.971
522.0260, 2993.270
523.2060, 2832.729
524.3850, 2661.297
525.5650, 2598.850
526.7440, 2399.910
527.9230, 2409.957
529.1020, 2443.172
530.2810, 2351.551
531.4590, 2390.072
532.6380, 2283.764
533.8160, 2421.602
534.9940, 2458.580
536.1720, 2259.748
537.3500, 2346.059
538.5270, 2223.482
539.7050, 2057.090
540.8820, 1822.820
542.0590, 1960.686
543.2360, 1824.738
544.4130, 1664.953
545.5900, 1485.287
546.7660, 1481.732
547.9430, 1479.234
549.1190, 1476.801
550.2950, 1279.441
551.4710, 1203.139
552.6470, 1336.889
553.8220, 998.6973
554.9980, 1133.562
556.1730, 906.4824
557.3480, 955.4531
558.5230, 730.4746
559.6980, 689.5410
560.8730, 634.6543
562.0470, 479.8145
563.2220, 381.0156
564.3960, 367.2637
565.5700, 422.5547
566.7440, 282.8906
567.9170, 319.2715
569.0910, 183.6953
570.2640, 360.1602
571.4380, 351.6680
572.6110, 199.2168
573.7840, 323.8066
574.9570, 410.4375
576.1290, 382.1035
577.3020, 554.8086
578.4740, 468.5508
579.6460, 477.3301
580.8180, 542.2715
581.9900, 617.0566
583.1620, 666.9355
584.3330, 581.8457
585.5040, 666.7852
586.6760, 673.7480
587.8470, 491.9414
589.0180, 661.8281
590.1880, 617.2617
591.3590, 563.4160
592.5290, 736.2656
593.7000, 512.7227
594.8700, 490.9551
596.0400, 519.2090
597.2090, 647.5488
598.3790, 459.1738
599.5490, 567.7129
600.7180, 500.5820
601.8870, 540.7168
603.0560, 621.7715
604.2250, 472.6426
605.3940, 660.5664
606.5620, 585.4453
607.7300, 458.3711
608.8990, 467.4160
610.0670, 463.1309
611.2350, 588.5918
612.4020, 445.5469
613.5700, 239.4785
614.7370, 524.9512
615.9050, 516.8398
617.0720, 663.8105
618.2390, 838.0000
619.4060, 1052.449
620.5720, 1165.723
621.7390, 1747.635
622.9050, 2061.586
624.0710, 2675.572
625.2370, 3028.602
626.4030, 3532.670
627.5690, 4194.783
628.7340, 5227.938
629.9000, 5691.129
631.0650, 6363.359
632.2300, 6982.631
633.3950, 7449.941
634.5600, 7733.285
635.7240, 7871.676
636.8890, 7784.102
638.0530, 7536.557
639.2170, 7116.055
640.3810, 6815.582
641.5450, 6225.141
642.7080, 5792.729
643.8720, 5436.340
645.0350, 5028.977
646.1980, 4740.564
647.3610, 4411.314
648.5240, 4197.016
649.6870, 4052.738
650.8490, 3798.479
652.0120, 3672.234
653.1740, 3438.684
654.3360, 3106.121
655.4980, 2973.930
656.6600, 2766.883
657.8210, 2483.742
658.9830, 2493.828
660.1440, 2066.918
661.3050, 1975.334
662.4660, 1790.553
663.6270, 1640.672
664.7870, 1586.410
665.9480, 1380.604
667.1080, 1308.602
668.2680, 1253.871
669.4280, 1242.564
670.5880, 1148.881
671.7480, 1077.924
672.9070, 1163.605
674.0670, 1125.877
675.2260, 1204.188
676.3850, 1113.262
677.5440, 989.5605
678.7030, 1112.137
679.8610, 1224.176
681.0200, 1048.766
682.1780, 1240.447
683.3360, 1507.289
684.4940, 1679.463
685.6520, 2121.828
686.8090, 2496.020
687.9670, 2895.393
689.1240, 3145.279
690.2810, 3721.391
691.4380, 4506.305
692.5950, 5320.404
693.7520, 6306.246
694.9080, 7424.873
696.0650, 8268.459
697.2210, 9796.020
698.3770, 11346.24
699.5330, 13147.25
700.6880, 14424.11
701.8440, 16269.05
702.9990, 17654.95
704.1550, 19008.08
705.3100, 19907.10
706.4650, 20609.37
707.6190, 20621.53
708.7740, 20396.33
709.9290, 19409.33
711.0830, 18233.27
712.2370, 17242.21
713.3910, 15096.92
714.5450, 13540.42
715.6980, 12050.08
716.8520, 10359.54
718.0050, 9302.898
719.1580, 8329.848
720.3110, 7089.559
721.4640, 6493.225
722.6170, 5982.852
723.7700, 5554.432
724.9220, 5275.971
726.0740, 4936.543
727.2260, 4622.006
728.3780, 4601.459
729.5300, 4639.875
730.6810, 4622.281
731.8330, 4813.646
732.9840, 4932.986
734.1350, 5255.338
735.2860, 5484.689
736.4370, 5685.008
737.5880, 6214.328
738.7380, 6619.654
739.8880, 6915.969
741.0390, 7241.293
742.1890, 7655.635
743.3380, 7902.969
744.4880, 8194.312
745.6380, 8541.637
746.7870, 8383.984
747.9360, 8451.375
749.0850, 8243.994
750.2340, 8208.693
751.3830, 8082.061
752.5310, 7198.182
753.6800, 6844.410
754.8280, 6309.781
755.9760, 5885.939
757.1240, 5486.990
758.2720, 5071.576
759.4190, 4684.492
760.5670, 4434.707
761.7140, 3823.539
762.8610, 3509.812
764.0080, 3630.518
765.1550, 3389.162
766.3020, 2846.213
767.4480, 2937.398
768.5950, 2455.340
769.7410, 2629.742
770.8870, 2589.508
772.0330, 2374.020
773.1780, 2671.727
774.3240, 2398.293
775.4690, 2297.299
776.6140, 2353.891
777.7590, 1825.076
778.9040, 1730.084
780.0490, 1242.725
781.1940, 1241.502
782.3380, 1255.072
783.4820, 1106.457
784.6260, 817.4629
785.7700, 764.7871
786.9140, 702.6543
788.0580, 570.4531
789.2010, 461.1797
790.3450, 419.8398
791.4880, 308.4297
792.6310, 394.9453
793.7730, 157.3926
794.9160, 223.7461
796.0590, 14.01758
797.2010, 36.84375
798.3430, 90.13867
799.4850, 259.9824
800.6270, 66.38281
801.7690, 186.9551
802.9100, 384.7656
804.0520, 189.9219
805.1930, 305.3164
806.3340, 264.0117
807.4750, 209.9883
808.6160, 285.2148
809.7560, 231.7344
810.8970, 177.5176
812.0370, 385.5352
813.1770, 206.8965
814.3170, 83.50781
815.4570, 375.3066
816.5960, 128.4414
817.7360, 185.7871
818.8750, 379.3691
820.0140, 287.2949
821.1530, 134.5098
822.2920, 90.93750
823.4310, 163.4512
824.5690, 148.7422
825.7070, 26.93359
826.8460, 241.0039
827.9840, 259.9883
829.1220, 155.8867
830.2590, 173.6914
831.3970, 187.2930
832.5340, 284.0195
833.6710, 282.5586
834.8080, 319.0137
835.9450, 344.8770
837.0820, 376.6797
838.2190, 345.9004
839.3550, 350.0430
840.4910, 306.6445
841.6270, 316.0879
842.7630, 281.9922
843.8990, 289.8145
845.0350, 330.5566
846.1700, 298.5020
847.3060, 300.8047
848.4410, 295.3066
849.5760, 318.7324
850.7100, 360.0781
851.8450, 312.3457
852.9800, 348.5352
854.1140, 364.6504
855.2480, 452.6914
856.3820, 587.6562
857.5160, 650.5508
858.6500, 648.3750
859.7830, 610.1309
860.9170, 682.8145
862.0500, 484.4297
863.1830, 704.9727
864.3160, 697.4492
865.4480, 1066.854
866.5810, 934.1855
867.7130, 847.4531
868.8460, 1046.646
869.9780, 817.7695
871.1100, 801.8262
872.2410, 847.8125
873.3730, 788.7285
874.5050, 926.5723
875.6360, 711.3496
876.7670, 841.0547
877.8980, 642.6875
879.0290, 749.2539
880.1590, 748.7480
881.2900, 632.1699
882.4200, 627.5234
883.5500, 506.8086
884.6800, 442.0195
885.8100, 428.1602
886.9400, 272.2246
888.0690, 334.2109
889.1990, 310.1211
890.3280, 274.9512
891.4570, 326.7051
892.5860, 353.3809
893.7140, 224.9805
894.8430, 362.4980
895.9710, 275.9414
897.1000, 172.3086
898.2280, 110.5918
899.3560, 65.26953
900.4830, 63.21289
901.6110, 23.91992
902.7380, 85.84766
903.8660, 104.6914
904.9930, 54.44727
906.1200, 18.13086
907.2460, 127.7656
908.3730, 26.68164
909.5000, 101.7617
910.6260, 159.1230
911.7520, 1.468750
912.8780, 117.7227
914.0040, 128.8965
915.1290, 162.9941
916.2550, 323.0293
917.3800, 355.0020
918.5050, 380.9062
919.6300, 533.7598
920.7550, 359.5449
921.8800, 457.2734
923.0040, 535.0000
924.1290, 523.6641
925.2530, 780.2871
926.3770, 729.8750
927.5010, 797.1094
928.6250, 1114.639
929.7480, 1038.980
930.8720, 1214.164
931.9950, 1230.578
933.1180, 1230.730
934.2410, 1541.453
935.3640, 1284.398
936.4860, 1393.459
937.6090, 1533.916
938.7310, 1439.932
939.8530, 1553.158
940.9750, 1785.117
942.0970, 1633.645
943.2180, 1806.529
944.3400, 2028.643
945.4610, 2341.070
946.5820, 2516.861
947.7030, 1876.562
948.8240, 2056.451
949.9450, 2325.068
951.0650, 2348.355
952.1860, 2535.135
953.3060, 2766.312
954.4260, 3001.340
955.5460, 2956.162
956.6650, 3156.594
957.7850, 3336.783
958.9040, 3701.100
960.0230, 3796.199
961.1420, 4110.756
962.2610, 4221.039
963.3800, 4573.461
964.4990, 4801.641
965.6170, 4636.023
966.7350, 4816.574
967.8530, 4901.109
968.9710, 5343.613
970.0890, 5372.398
971.2070, 5302.344
972.3240, 5466.398
973.4410, 5474.299
974.5580, 5436.441
975.6750, 5432.324
976.7920, 5334.496
977.9090, 5363.879
979.0250, 5286.307
980.1410, 5275.316
981.2580, 5376.500
982.3740, 5242.975
983.4890, 5196.387
984.6050, 5165.977
985.7200, 5054.727
986.8360, 5207.252
987.9510, 5106.912
989.0660, 5192.621
990.1810, 5114.678
991.2950, 5197.918
992.4100, 5075.143
993.5240, 5057.352
994.6390, 5329.541
995.7530, 5158.711
996.8660, 5280.795
997.9800, 5462.930
999.0940, 5201.047
1000.207, 5435.145
1001.320, 5492.230
1002.433, 5382.393
1003.546, 5452.342
1004.659, 5303.371
1005.772, 5421.387
1006.884, 5456.381
1007.996, 5592.359
1009.108, 5583.324
1010.220, 5479.271
1011.332, 5457.203
1012.444, 5650.121
1013.555, 5956.025
1014.666, 5936.910
1015.777, 5818.781
1016.888, 5975.639
1017.999, 5926.480
1019.110, 6054.094
1020.220, 5934.641
1021.331, 6027.521
1022.441, 5834.652
1023.551, 5772.674
1024.661, 6025.738
1025.770, 5664.914
1026.880, 5802.260
1027.989, 5682.836
1029.098, 5595.258
1030.207, 5605.682
1031.316, 5628.264
1032.425, 5603.133
1033.533, 5638.691
1034.642, 5696.932
1035.750, 5765.932
1036.858, 5849.061
1037.966, 6083.672
1039.073, 6189.199
1040.181, 6415.023
1041.288, 6707.117
1042.396, 6833.670
1043.503, 7182.953
1044.610, 7604.957
1045.716, 8074.416
1046.823, 8266.805
1047.929, 8675.547
1049.036, 9095.164
1050.142, 9604.189
1051.248, 10005.58
1052.353, 10330.05
1053.459, 10812.00
1054.564, 11119.40
1055.670, 11181.55
1056.775, 11622.65
1057.880, 11720.06
1058.985, 11786.59
1060.089, 11726.55
1061.194, 11670.60
1062.298, 11626.10
1063.402, 11535.92
1064.506, 11450.73
1065.610, 11360.00
1066.713, 11232.04
1067.817, 11009.25
1068.920, 11128.74
1070.023, 11082.29
1071.126, 11088.62
1072.229, 10808.82
1073.332, 11060.78
1074.435, 10826.09
1075.537, 11049.28
1076.639, 10755.89
1077.741, 10868.35
1078.843, 10950.40
1079.945, 10955.59
1081.046, 10909.52
1082.148, 11270.44
1083.249, 11209.90
1084.350, 11514.56
1085.451, 11676.73
1086.551, 11331.16
1087.652, 11330.57
1088.752, 11137.48
1089.853, 10807.11
1090.953, 10423.58
1092.053, 10247.56
1093.152, 9575.344
1094.252, 9154.943
1095.351, 8875.137
1096.451, 8481.430
1097.550, 8052.055
1098.649, 7795.762
1099.748, 7373.094
1100.846, 7066.820
1101.945, 6572.359
1103.043, 6131.316
1104.141, 5703.533
1105.239, 5288.680
1106.337, 5176.109
1107.434, 4628.188
1108.532, 4583.977
1109.629, 3961.508
1110.726, 4017.723
1111.823, 3804.061
1112.920, 3492.922
1114.017, 3343.383
1115.113, 3295.791
1116.210, 2961.178
1117.306, 3114.736
1118.402, 2804.836
1119.498, 2914.160
1120.593, 2773.424
1121.689, 2403.324
1122.784, 2387.598
1123.879, 2170.238
1124.974, 2262.561
1126.069, 2174.621
1127.164, 1974.430
1128.259, 1770.574
1129.353, 1844.404
1130.447, 1759.156
1131.541, 1611.893
1132.635, 1501.607
1133.729, 1416.854
1134.822, 1341.980
1135.916, 1211.684
1137.009, 1088.322
1138.102, 901.9395
1139.195, 998.5410
1140.288, 957.1211
1141.380, 982.6816
1142.473, 800.2207
1143.565, 658.7402
1144.657, 690.2441
1145.749, 516.9434
1146.841, 643.1855
1147.932, 395.6250
1149.024, 416.0469
1150.115, 532.4453
1151.206, 335.8262
1152.297, 293.1875
1153.388, 202.5332
1154.479, 177.8594
1155.569, 119.1680
1156.659, 143.4590
1157.750, 129.7305
1158.839, 173.9805
1159.929, 121.2148
1161.019, 34.42969
1162.108, 73.62109
1163.198, 123.7910
1164.287, 62.95117
1165.376, 47.90820
1166.465, 220.1992
1167.553, 23.29688
1168.642, 189.3789
1169.730, 79.55664
1170.818, 169.5430
1171.906, 131.3711
1172.994, 242.2676
1174.082, 42.16016
1175.170, 238.9668
1176.257, 2.242188
1177.344, 60.46484
1178.431, 6.152344
1179.518, 51.18750
1180.605, 24.57617
1181.691, 142.9922
1182.778, 44.46484
1183.864, 110.0234
1184.950, 24.51562
1186.036, 222.0977
1187.122, 75.16797
1188.207, 64.59570
1189.292, 81.43164
1190.378, 87.34375
1191.463, 135.4219
1192.548, 95.55273
1193.632, 137.5820
1194.717, 2.173828
1195.801, 38.88672
1196.886, 49.43164
1197.970, 98.81641
1199.054, 228.2969
1200.137, 195.9414
1201.221, 221.9531
1202.305, 217.2754
1203.388, 163.7988
1204.471, 135.0430
1205.554, 67.40625
1206.637, 9.146484
1207.719, 15.65234
1208.802, 74.74805
1209.884, 59.17773
1210.966, 148.9395
1212.048, 15.29883
1213.130, 51.60938
1214.212, 35.88477
1215.293, 163.1172
1216.374, 120.2656
1217.456, 151.3164
1218.536, 55.60156
1219.617, 138.6875
1220.698, 21.73242
1221.778, 37.26953
1222.859, 65.34375
1223.939, 156.4902
1225.019, 418.2852
1226.099, 225.0469
1227.178, 146.7715
1228.258, 19.45703
1229.337, 214.1016
1230.417, 116.7598
1231.496, 159.3789
1232.574, 56.95898
1233.653, 11.49609
1234.732, 244.9805
1235.810, 23.57031
1236.888, 265.8105
1237.966, 82.16992
1239.044, 7.488281
1240.122, 213.7461
1241.199, 181.9707
1242.277, 53.15430
1243.354, 146.3027
1244.431, 155.4082
1245.508, 157.7539
1246.585, 8.523438
1247.661, 219.5000
1248.738, 162.4414
1249.814, 173.3438
1250.890, 345.2129
1251.966, 163.0430
1253.042, 71.83789
1254.117, 142.5918
1255.193, 201.3066
1256.268, 278.9844
1257.343, 171.6309
1258.418, 243.2422
1259.493, 330.8145
1260.567, 471.3535
1261.642, 291.8594
1262.716, 400.3359
1263.790, 454.7773
1264.864, 245.1836
1265.938, 392.5566
1267.011, 500.8965
1268.085, 403.2012
1269.158, 343.4766
1270.231, 513.7148
1271.304, 304.9238
1272.377, 294.0996
1273.450, 290.2422
1274.522, 323.3516
1275.594, 571.4277
1276.666, 534.4707
1277.738, 591.4824
1278.810, 470.4609
1279.882, 490.4062
1280.953, 465.3203
1282.025, 609.1992
1283.096, 563.4043
1284.167, 646.8594
1285.238, 603.4434
1286.308, 539.0859
