##NAMES=Elbaite
##RRUFFID=R060003
##IDEAL CHEMISTRY=Na(Al_1.5_Li_1.5_)Al_6_(Si_6_O_18_)(BO_3_)_3_(OH)_3_OH
##LOCALITY=Mount Begbie, Revelstoke, British Columbia, Canada
##OWNER=RRUFF
##SOURCE=Bob Downs
##DESCRIPTION=Pink crystal associated with trilithionite, R060004
##STATUS=The identification of this mineral has been confirmed by X-ray diffraction and chemical analysis
##URL=rruff.info/R060003
##MEASURED CHEMISTRY=(Na_0.58_[box]_0.42_)(Al_1.69_Li_1.27_Mn_0.04_)Al_6_(BO_3_)_3_[Si_6_O_18_](OH)_4_
##PIN_ID=M00450
##ORIENTATION=Laser parallel to -c* (0 0 -1). Fiducial mark perpendicular to laser is parallel to -a [-1 0 0]
167.2610, 0.0000000E+00
168.4860, 0.7890630
169.7110, 160.7227
170.9360, 377.3965
172.1610, 96.62695
173.3850, 1.347656
174.6100, 30.75781
175.8340, 103.5156
177.0580, 130.1406
178.2820, 66.90625
179.5050, 184.2734
180.7290, 53.20898
181.9520, 0.9199220
183.1760, 14.14648
184.3990, 155.1055
185.6220, 256.6504
186.8450, 321.1992
188.0670, 533.5156
189.2900, 622.4121
190.5120, 711.7227
191.7340, 1057.324
192.9560, 992.1035
194.1780, 1207.980
195.4000, 1007.871
196.6220, 1023.717
197.8430, 1260.461
199.0640, 1396.398
200.2860, 1646.904
201.5070, 1606.604
202.7270, 1671.785
203.9480, 1743.449
205.1690, 1449.572
206.3890, 1641.125
207.6090, 1806.074
208.8290, 2250.408
210.0490, 2570.113
211.2690, 3036.182
212.4890, 3800.605
213.7080, 4454.387
214.9280, 4933.514
216.1470, 5653.990
217.3660, 6242.807
218.5850, 7227.969
219.8030, 8088.469
221.0220, 8531.305
222.2400, 8714.479
223.4590, 8288.980
224.6770, 8007.807
225.8950, 7294.965
227.1120, 6614.439
228.3300, 5732.238
229.5480, 5388.352
230.7650, 4620.088
231.9820, 4436.314
233.1990, 4078.803
234.4160, 3824.582
235.6330, 3885.014
236.8490, 3745.791
238.0660, 3706.902
239.2820, 3839.336
240.4980, 3957.035
241.7140, 3842.762
242.9300, 3857.773
244.1460, 3726.631
245.3610, 3604.395
246.5770, 3353.484
247.7920, 3050.676
249.0070, 2750.010
250.2220, 2504.127
251.4370, 2216.145
252.6510, 2084.998
253.8660, 1731.035
255.0800, 1708.260
256.2940, 1359.684
257.5080, 1398.309
258.7220, 1909.143
259.9360, 1870.186
261.1490, 1688.438
262.3630, 1478.898
263.5760, 1247.570
264.7890, 1749.449
266.0020, 1772.535
267.2150, 1701.828
268.4270, 2056.332
269.6400, 1977.041
270.8520, 2188.957
272.0640, 2021.078
273.2760, 2053.148
274.4880, 2061.666
275.7000, 1937.629
276.9120, 1973.533
278.1230, 1820.633
279.3340, 1669.926
280.5450, 1821.406
281.7560, 1746.080
282.9670, 1369.945
284.1780, 1333.002
285.3880, 1176.246
286.5980, 960.6777
287.8090, 833.2988
289.0190, 406.1094
290.2290, 479.1074
291.4380, 139.2910
292.6480, 163.6641
293.8570, 313.7773
295.0670, 230.0332
296.2760, 328.1074
297.4850, 207.9980
298.6930, 207.7070
299.9020, 183.2363
301.1110, 7.585938
302.3190, 157.2422
303.5270, 169.2109
304.7350, 416.2383
305.9430, 601.3438
307.1510, 910.5742
308.3580, 911.9805
309.5660, 925.5605
310.7730, 1075.316
311.9800, 1235.248
313.1870, 1179.094
314.3940, 1186.873
315.6010, 1229.814
316.8070, 1194.072
318.0130, 1371.691
319.2200, 1474.332
320.4260, 1944.498
321.6310, 2052.992
322.8370, 2378.818
324.0430, 2726.955
325.2480, 3081.383
326.4540, 3398.342
327.6590, 3758.281
328.8640, 3753.248
330.0680, 4050.738
331.2730, 3774.465
332.4780, 3681.434
333.6820, 3456.621
334.8860, 3306.898
336.0900, 3269.195
337.2940, 3036.627
338.4980, 2956.822
339.7010, 2862.262
340.9050, 2817.035
342.1080, 2618.656
343.3110, 2427.426
344.5140, 2427.004
345.7170, 2138.787
346.9200, 2473.797
348.1220, 2241.959
349.3240, 2451.303
350.5270, 2631.801
351.7290, 2682.451
352.9310, 3061.250
354.1320, 3281.189
355.3340, 3485.268
356.5350, 3907.494
357.7370, 4303.857
358.9380, 4815.357
360.1390, 5381.992
361.3400, 5826.764
362.5400, 6494.668
363.7410, 6972.703
364.9410, 7666.875
366.1410, 8507.172
367.3410, 8988.598
368.5410, 9902.148
369.7410, 10412.83
370.9400, 11273.63
372.1400, 12170.56
373.3390, 12966.62
374.5380, 13558.79
375.7370, 13939.01
376.9360, 13886.45
378.1350, 13483.46
379.3330, 12964.79
380.5310, 12143.23
381.7300, 10864.80
382.9280, 9862.488
384.1260, 8759.293
385.3230, 7761.211
386.5210, 7226.246
387.7180, 6454.391
388.9160, 5798.656
390.1130, 5525.035
391.3100, 5096.525
392.5060, 4947.135
393.7030, 4950.855
394.9000, 4989.691
396.0960, 4913.639
397.2920, 4788.701
398.4880, 5058.875
399.6840, 5038.160
400.8800, 5378.557
402.0750, 5418.066
403.2710, 5613.689
404.4660, 5520.430
405.6610, 5544.281
406.8560, 5264.303
408.0510, 5282.438
409.2450, 5178.736
410.4400, 4763.139
411.6340, 4511.652
412.8280, 4192.270
414.0220, 3557.994
415.2160, 3093.820
416.4100, 2652.748
417.6030, 2330.779
418.7970, 1902.885
419.9900, 1539.145
421.1830, 1163.480
422.3760, 965.9121
423.5690, 631.4453
424.7610, 685.0762
425.9540, 108.8008
427.1460, 271.6250
428.3380, 208.5449
429.5300, 127.5605
430.7220, 137.6699
431.9140, 12.87305
433.1050, 273.1660
434.2970, 452.5547
435.4880, 260.0332
436.6790, 531.6035
437.8700, 498.6582
439.0610, 719.5488
440.2510, 695.3438
441.4420, 713.0879
442.6320, 1110.945
443.8220, 1366.613
445.0120, 1241.713
446.2020, 1296.980
447.3910, 1470.334
448.5810, 1277.768
449.7700, 1515.287
450.9600, 1446.889
452.1490, 1582.574
453.3370, 1147.340
454.5260, 1255.189
455.7150, 1039.117
456.9030, 1184.152
458.0910, 832.3125
459.2800, 802.5840
460.4670, 751.9707
461.6550, 699.4648
462.8430, 697.0684
464.0300, 640.8281
465.2180, 728.5938
466.4050, 529.5137
467.5920, 467.5371
468.7790, 337.6621
469.9650, 374.8945
471.1520, 118.2266
472.3380, 423.2285
473.5250, 184.7578
474.7110, 502.3965
475.8970, 282.1152
477.0820, 98.05078
478.2680, 106.6367
479.4540, 50.87891
480.6390, 169.6816
481.8240, 174.5820
483.0090, 323.0898
484.1940, 503.0859
485.3780, 330.3887
486.5630, 385.7363
487.7470, 305.6836
488.9320, 376.7383
490.1160, 452.4219
491.3000, 628.3691
492.4830, 620.2422
493.6670, 455.1309
494.8500, 655.1699
496.0340, 554.2012
497.2170, 781.2969
498.4000, 1091.762
499.5820, 1382.990
500.7650, 1228.285
501.9480, 1499.641
503.1300, 1628.062
504.3120, 1937.549
505.4940, 2020.100
506.6760, 2363.711
507.8580, 2392.447
509.0390, 2688.182
510.2210, 2972.977
511.4020, 3310.957
512.5830, 3480.910
513.7640, 3612.842
514.9450, 3785.389
516.1250, 3724.477
517.3060, 3773.623
518.4860, 3937.828
519.6660, 3788.086
520.8460, 3790.402
522.0260, 3808.770
523.2060, 3621.195
524.3850, 3365.668
525.5650, 3434.195
526.7440, 3625.771
527.9230, 3609.398
529.1020, 3824.074
530.2810, 3857.809
531.4590, 4093.592
532.6380, 4331.518
533.8160, 4511.322
534.9940, 4959.268
536.1720, 5102.262
537.3500, 5557.355
538.5270, 5692.572
539.7050, 5743.928
540.8820, 5784.398
542.0590, 5868.582
543.2360, 5909.617
544.4130, 5934.240
545.5900, 5778.021
546.7660, 5690.969
547.9430, 5463.879
549.1190, 5680.490
550.2950, 5728.938
551.4710, 5354.047
552.6470, 5522.770
553.8220, 5310.984
554.9980, 5232.275
556.1730, 5008.629
557.3480, 4792.355
558.5230, 4811.529
559.6980, 4354.059
560.8730, 4027.625
562.0470, 3903.246
563.2220, 3684.898
564.3960, 3404.580
565.5700, 2982.301
566.7440, 2891.078
567.9170, 2671.908
569.0910, 2625.764
570.2640, 2142.643
571.4380, 1820.545
572.6110, 1883.471
573.7840, 1424.414
574.9570, 1553.379
576.1290, 1309.371
577.3020, 1191.383
578.4740, 1218.414
579.6460, 1023.047
580.8180, 877.6152
581.9900, 781.7871
583.1620, 905.9902
584.3330, 757.2285
585.5040, 710.4941
586.6760, 640.7754
587.8470, 607.0664
589.0180, 563.3691
590.1880, 684.6797
591.3590, 476.0039
592.5290, 437.3340
593.7000, 354.6719
594.8700, 539.0195
596.0400, 635.3730
597.2090, 386.7305
598.3790, 291.0957
599.5490, 433.4668
600.7180, 123.8398
601.8870, 52.21484
603.0560, 125.5918
604.2250, 141.9688
605.3940, 137.3457
606.5620, 138.2930
607.7300, 133.0762
608.8990, 95.47070
610.0670, 74.84180
611.2350, 81.20898
612.4020, 27.42969
613.5700, 78.89062
614.7370, 12.79297
615.9050, 32.48438
617.0720, 68.25977
618.2390, 283.0703
619.4060, 39.51562
620.5720, 296.0020
621.7390, 181.1797
622.9050, 546.4785
624.0710, 407.0879
625.2370, 245.9238
626.4030, 293.9160
627.5690, 131.0957
628.7340, 232.3828
629.9000, 147.1875
631.0650, 69.25586
632.2300, 56.21875
633.3950, 59.68555
634.5600, 103.1230
635.7240, 124.5605
636.8890, 192.0078
638.0530, 94.40234
639.2170, 260.8066
640.3810, 298.1914
641.5450, 152.5918
642.7080, 134.1914
643.8720, 342.1641
645.0350, 248.6152
646.1980, 369.9453
647.3610, 126.2539
648.5240, 401.3438
649.6870, 298.6055
650.8490, 127.9629
652.0120, 324.3301
653.1740, 265.5098
654.3360, 109.8906
655.4980, 188.5059
656.6600, 193.7559
657.8210, 341.9629
658.9830, 419.9922
660.1440, 295.1543
661.3050, 574.2422
662.4660, 684.1777
663.6270, 328.0820
664.7870, 518.9531
665.9480, 687.7910
667.1080, 364.5938
668.2680, 432.3633
669.4280, 717.8203
670.5880, 382.1035
671.7480, 711.9434
672.9070, 753.2930
674.0670, 660.6797
675.2260, 711.1445
676.3850, 707.5488
677.5440, 415.3828
678.7030, 433.2090
679.8610, 435.8066
681.0200, 567.5234
682.1780, 335.7422
683.3360, 188.4395
684.4940, 195.1992
685.6520, 192.5879
686.8090, 56.03516
687.9670, 183.3965
689.1240, 38.44922
690.2810, 487.9883
691.4380, 240.1074
692.5950, 513.3086
693.7520, 508.7637
694.9080, 402.0195
696.0650, 550.6133
697.2210, 613.7109
698.3770, 772.4414
699.5330, 915.5488
700.6880, 968.3906
701.8440, 1198.748
702.9990, 1390.580
704.1550, 1435.818
705.3100, 1624.260
706.4650, 1708.797
707.6190, 2063.473
708.7740, 2393.441
709.9290, 3011.275
711.0830, 2998.223
712.2370, 3445.033
713.3910, 4115.975
714.5450, 4504.891
715.6980, 5122.518
716.8520, 5882.621
718.0050, 6749.859
719.1580, 8007.139
720.3110, 9608.328
721.4640, 11041.37
722.6170, 12877.35
723.7700, 14899.25
724.9220, 16846.09
726.0740, 19024.86
727.2260, 20812.56
728.3780, 22391.19
729.5300, 22999.76
730.6810, 22924.25
731.8330, 21905.68
732.9840, 20583.03
734.1350, 18833.31
735.2860, 16676.53
736.4370, 14726.67
737.5880, 13043.74
738.7380, 11717.75
739.8880, 10154.67
741.0390, 8771.529
742.1890, 8022.316
743.3380, 6979.027
744.4880, 6367.670
745.6380, 5946.238
746.7870, 5611.732
747.9360, 5091.156
749.0850, 4986.506
750.2340, 4529.781
751.3830, 4456.416
752.5310, 4298.543
753.6800, 4080.578
754.8280, 3827.561
755.9760, 3633.342
757.1240, 3430.613
758.2720, 3237.469
759.4190, 3085.477
760.5670, 2883.236
761.7140, 2691.426
762.8610, 2543.094
764.0080, 2181.410
765.1550, 2112.711
766.3020, 1718.047
767.4480, 1333.977
768.5950, 1448.609
769.7410, 1368.637
770.8870, 1065.105
772.0330, 1044.457
773.1780, 1085.594
774.3240, 693.0000
775.4690, 818.5781
776.6140, 583.7891
777.7590, 789.3438
778.9040, 575.5078
780.0490, 374.9297
781.1940, 285.7500
782.3380, 405.3750
783.4820, 551.1406
784.6260, 528.8438
785.7700, 268.2734
786.9140, 469.3398
788.0580, 413.8086
789.2010, 407.6523
790.3450, 491.5586
791.4880, 394.3945
792.6310, 331.6445
793.7730, 234.3477
794.9160, 235.9688
796.0590, 645.5156
797.2010, 418.9961
798.3430, 430.4102
799.4850, 685.7539
800.6270, 532.0391
801.7690, 773.2539
802.9100, 792.4062
804.0520, 866.4922
805.1930, 527.5156
806.3340, 193.4727
807.4750, 332.3477
808.6160, 242.1523
809.7560, 128.8828
810.8970, 288.5234
812.0370, 275.0938
813.1770, 93.41016
814.3170, 181.0938
815.4570, 246.0000
816.5960, 148.1602
817.7360, 151.5664
818.8750, 69.90234
820.0140, 50.23047
821.1530, 109.4688
822.2920, 93.59375
823.4310, 89.44531
824.5690, 52.70312
825.7070, 50.62500
826.8460, 48.55078
827.9840, 107.0234
829.1220, 15.15625
830.2590, 68.89062
831.3970, 35.77344
832.5340, 26.21094
833.6710, 116.9023
834.8080, 100.8164
835.9450, 165.4492
837.0820, 12.98828
838.2190, 195.4609
839.3550, 262.8359
840.4910, 49.14062
841.6270, 41.63672
842.7630, 13.53906
843.8990, 237.4453
845.0350, 390.3633
846.1700, 406.2695
847.3060, 363.0234
848.4410, 378.7617
849.5760, 331.4375
850.7100, 149.0586
851.8450, 372.6055
852.9800, 242.0977
854.1140, 505.5195
855.2480, 428.8906
856.3820, 385.2031
857.5160, 747.4531
858.6500, 423.6602
859.7830, 603.8008
860.9170, 573.8945
862.0500, 634.9258
863.1830, 534.9102
864.3160, 594.8359
865.4480, 725.7070
866.5810, 530.5273
867.7130, 552.2930
868.8460, 974.0078
869.9780, 979.6680
871.1100, 862.2773
872.2410, 763.8359
873.3730, 940.3398
874.5050, 987.7969
875.6360, 993.1992
876.7670, 1079.551
877.8980, 847.8516
879.0290, 832.1055
880.1590, 891.3047
881.2900, 583.4609
882.4200, 1092.562
883.5500, 641.6172
884.6800, 1003.621
885.8100, 654.5820
886.9400, 640.4922
888.0690, 460.3750
889.1990, 658.2109
890.3280, 592.0156
891.4570, 570.7812
892.5860, 453.5469
893.7140, 478.3438
894.8430, 238.1250
895.9710, 149.9414
897.1000, 143.7656
898.2280, 50.30078
899.3560, 164.6914
900.4830, 156.7344
901.6110, 245.8672
902.7380, 37.99609
903.8660, 238.1523
904.9930, 321.2578
906.1200, 67.64062
907.2460, 256.3867
908.3730, 66.60938
909.5000, 30.31250
910.6260, 5.183594
911.7520, 36.00000
912.8780, 121.7500
914.0040, 123.4375
915.1290, 119.2852
916.2550, 43.73828
917.3800, 274.7773
918.5050, 29.69531
919.6300, 220.8789
920.7550, 255.4258
921.8800, 98.13672
923.0040, 222.6055
924.1290, 378.9141
925.2530, 425.1523
926.3770, 556.5078
927.5010, 558.6055
928.6250, 619.4258
929.7480, 573.5625
930.8720, 508.6719
931.9950, 455.8906
933.1180, 522.7266
934.2410, 704.0742
935.3640, 682.2852
936.4860, 997.4688
937.6090, 1090.613
938.7310, 1080.625
939.8530, 1008.832
940.9750, 1072.902
942.0970, 1165.219
943.2180, 1243.645
944.3400, 1353.445
945.4610, 1370.668
946.5820, 1373.777
947.7030, 1469.742
948.8240, 1372.699
949.9450, 1389.121
951.0650, 1190.555
952.1860, 1355.102
953.3060, 1445.465
954.4260, 1502.262
955.5460, 1282.500
956.6650, 1355.609
957.7850, 1262.008
958.9040, 1419.340
960.0230, 1396.703
961.1420, 1360.840
962.2610, 1486.773
963.3800, 1504.977
964.4990, 1639.016
965.6170, 1862.734
966.7350, 1693.914
967.8530, 1396.000
968.9710, 1546.852
970.0890, 1299.012
971.2070, 1478.066
972.3240, 1655.629
973.4410, 1612.941
974.5580, 1973.707
975.6750, 1910.984
976.7920, 1894.988
977.9090, 1872.820
979.0250, 1842.441
980.1410, 1944.695
981.2580, 1910.004
982.3740, 2060.129
983.4890, 1950.309
984.6050, 1964.281
985.7200, 1995.211
986.8360, 1873.348
987.9510, 1628.941
989.0660, 1770.316
990.1810, 1737.676
991.2950, 1788.855
992.4100, 1883.207
993.5240, 1682.543
994.6390, 1721.871
995.7530, 1527.195
996.8660, 1606.504
997.9800, 1526.848
999.0940, 1546.180
1000.207, 1622.430
1001.320, 1549.820
1002.433, 1785.129
1003.546, 1930.426
1004.659, 2024.707
1005.772, 2043.086
1006.884, 1724.250
1007.996, 1969.508
1009.108, 1783.758
1010.220, 1777.004
1011.332, 2187.234
1012.444, 2059.461
1013.555, 1970.684
1014.666, 2081.898
1015.777, 2466.109
1016.888, 2552.312
1017.999, 2594.500
1019.110, 2783.070
1020.220, 2692.484
1021.331, 3183.660
1022.441, 2831.203
1023.551, 2814.363
1024.661, 3487.777
1025.770, 3394.824
1026.880, 3414.961
1027.989, 3332.801
1029.098, 3405.684
1030.207, 3512.867
1031.316, 3632.082
1032.425, 3745.223
1033.533, 4006.422
1034.642, 3963.484
1035.750, 4210.609
1036.858, 4408.734
1037.966, 4368.043
1039.073, 4455.809
1040.181, 4796.934
1041.288, 4562.301
1042.396, 4692.383
1043.503, 5206.449
1044.610, 5325.094
1045.716, 5450.074
1046.823, 5768.938
1047.929, 6089.363
1049.036, 6363.574
1050.142, 6854.840
1051.248, 7365.219
1052.353, 7759.371
1053.459, 8447.250
1054.564, 8727.840
1055.670, 9054.387
1056.775, 9611.008
1057.880, 10150.85
1058.985, 11004.89
1060.089, 11659.73
1061.194, 12534.39
1062.298, 12960.14
1063.402, 13735.14
1064.506, 14220.14
1065.610, 15144.52
1066.713, 15151.73
1067.817, 15405.16
1068.920, 15630.78
1070.023, 15492.71
1071.126, 15095.32
1072.229, 14268.18
1073.332, 13654.08
1074.435, 12763.54
1075.537, 11765.57
1076.639, 10931.07
1077.741, 10136.03
1078.843, 9245.898
1079.945, 8264.758
1081.046, 7353.766
1082.148, 6637.660
1083.249, 6083.668
1084.350, 5183.074
1085.451, 4864.586
1086.551, 4466.219
1087.652, 3920.812
1088.752, 3307.375
1089.853, 3256.742
1090.953, 3124.348
1092.053, 2627.570
1093.152, 2576.164
1094.252, 2226.445
1095.351, 2116.582
1096.451, 2098.867
1097.550, 1896.168
1098.649, 2053.543
1099.748, 1742.895
1100.846, 1788.254
1101.945, 1565.426
1103.043, 1614.445
1104.141, 1502.473
1105.239, 1288.461
1106.337, 1407.176
1107.434, 1239.555
1108.532, 1351.344
1109.629, 1021.750
1110.726, 969.1680
1111.823, 1089.020
1112.920, 1124.418
1114.017, 1066.148
1115.113, 900.6602
1116.210, 747.0156
1117.306, 1098.859
1118.402, 1124.770
1119.498, 889.6758
1120.593, 1134.980
1121.689, 935.8164
1122.784, 1071.332
1123.879, 1054.602
1124.974, 1179.859
1126.069, 873.3203
1127.164, 929.0391
1128.259, 736.2500
1129.353, 809.2773
1130.447, 693.4531
1131.541, 598.7578
1132.635, 657.4023
1133.729, 586.0000
1134.822, 701.4727
1135.916, 594.5703
1137.009, 577.6523
1138.102, 619.7188
1139.195, 582.7656
1140.288, 563.1680
1141.380, 535.0938
1142.473, 457.9844
1143.565, 431.9688
1144.657, 402.7891
1145.749, 236.8828
1146.841, 339.8086
1147.932, 325.8125
1149.024, 252.7109
1150.115, 78.88672
1151.206, 113.8867
1152.297, 326.1016
1153.388, 82.92188
1154.479, 262.7227
1155.569, 111.5000
1156.659, 65.74219
1157.750, 294.0938
1158.839, 77.21875
1159.929, 216.4102
1161.019, 121.0156
1162.108, 48.39062
1163.198, 77.83984
1164.287, 93.08203
1165.376, 200.2695
1166.465, 15.76172
1167.553, 27.95703
1168.642, 35.18750
1169.730, 16.58594
1170.818, 73.85547
1171.906, 46.95703
1172.994, 122.1758
1174.082, 61.84766
1175.170, 135.3906
1176.257, 53.56250
1177.344, 387.3516
1178.431, 36.30859
1179.518, 341.4609
1180.605, 45.55859
1181.691, 92.77344
1182.778, 348.9062
1183.864, 48.42578
1184.950, 25.17969
1186.036, 116.7500
1187.122, 325.3086
1188.207, 31.84375
1189.292, 248.3477
1190.378, 27.83594
1191.463, 75.70312
1192.548, 2.671875
1193.632, 286.0117
1194.717, 256.3281
1195.801, 86.37891
1196.886, 211.1719
1197.970, 109.8828
1199.054, 65.91016
1200.137, 355.9180
1201.221, 60.89453
1202.305, 62.15234
1203.388, 288.7266
1204.471, 88.58594
1205.554, 185.4180
1206.637, 74.22656
1207.719, 199.0078
1208.802, 352.7695
1209.884, 346.5078
1210.966, 184.2227
1212.048, 332.9180
1213.130, 209.6797
1214.212, 134.2383
1215.293, 122.8633
1216.374, 108.4648
1217.456, 119.0352
1218.536, 127.5820
1219.617, 186.1016
1220.698, 128.5938
1221.778, 243.0586
1222.859, 139.5000
1223.939, 381.9180
1225.019, 41.69141
1226.099, 223.6289
1227.178, 269.9297
1228.258, 208.2031
1229.337, 529.4570
1230.417, 290.6797
1231.496, 24.11719
1232.574, 69.02344
1233.653, 165.1328
1234.732, 220.2227
1235.810, 140.2773
1236.888, 242.8281
1237.966, 120.3164
1239.044, 216.2969
1240.122, 361.2461
1241.199, 107.1797
1242.277, 564.0781
1243.354, 128.9570
1244.431, 178.8047
1245.508, 333.6211
1246.585, 92.41797
1247.661, 74.18359
1248.738, 72.92578
1249.814, 264.6328
1250.890, 83.38672
1251.966, 19.04297
1253.042, 351.6562
1254.117, 273.2500
1255.193, 156.8164
1256.268, 91.35938
1257.343, 282.8789
1258.418, 120.6328
1259.493, 466.7461
1260.567, 173.1055
1261.642, 129.4336
1262.716, 476.7383
1263.790, 449.0234
1264.864, 469.2930
1265.938, 294.5117
1267.011, 308.7227
1268.085, 488.9102
1269.158, 209.0742
1270.231, 159.2148
1271.304, 389.3281
1272.377, 289.4219
1273.450, 21.49219
1274.522, 477.5234
1275.594, 334.5352
1276.666, 174.5273
1277.738, 253.4961
1278.810, 125.1133
1279.882, 159.5352
1280.953, 104.6406
1282.025, 218.5156
1283.096, 356.9883
1284.167, 384.8164
1285.238, 291.3633
1286.308, 156.2539
1287.379, 335.0195
1288.449, 545.0547
1289.519, 370.7773
1290.589, 366.2461
1291.659, 416.9062
1292.729, 114.6562
1293.798, 50.61328
1294.868, 108.1836
1295.937, 27.74609
1297.006, 114.3906
1298.075, 245.3828
1299.143, 89.02734
1300.212, 163.9180
1301.280, 279.6445
1302.348, 15.70703
1303.416, 254.5078
1304.484, 125.3672
1305.552, 263.8828
1306.620, 118.6172
1307.687, 10.39844
1308.754, 75.66797
1309.821, 103.1992
1310.888, 103.5508
1311.955, 177.7656
1313.021, 118.0078
1314.088, 184.0117
1315.154, 201.8242
1316.220, 280.8477
1317.286, 265.0625
1318.352, 345.0742
1319.417, 244.2578
1320.483, 426.5977
1321.548, 220.8242
1322.613, 359.7812
1323.678, 229.7266
1324.743, 366.2578
1325.807, 384.9258
1326.872, 246.3555
1327.936, 325.5859
1329.000, 140.4609
1330.064, 365.6484
1331.128, 389.5469
1332.191, 396.3906
1333.255, 484.6562
