##NAMES=Elbaite
##RRUFFID=R060003
##IDEAL CHEMISTRY=Na(Al_1.5_Li_1.5_)Al_6_(Si_6_O_18_)(BO_3_)_3_(OH)_3_OH
##LOCALITY=Mount Begbie, Revelstoke, British Columbia, Canada
##OWNER=RRUFF
##SOURCE=Bob Downs
##DESCRIPTION=Pink crystal associated with trilithionite, R060004
##STATUS=The identification of this mineral has been confirmed by X-ray diffraction and chemical analysis
##URL=rruff.info/R060003
##MEASURED CHEMISTRY=(Na_0.58_[box]_0.42_)(Al_1.69_Li_1.27_Mn_0.04_)Al_6_(BO_3_)_3_[Si_6_O_18_](OH)_4_
##PIN_ID=M00450
##ORIENTATION=Laser parallel to -c* (0 0 -1). Fiducial mark perpendicular to laser is parallel to -a [-1 0 0]
167.2610, 0.0000000E+00
168.4860, 19.92188
169.7110, 156.2090
170.9360, 157.1797
172.1610, 202.3740
173.3850, 218.2520
174.6100, 127.8906
175.8340, 78.20117
177.0580, 67.34961
178.2820, 9.153320
179.5050, 9.333008
180.7290, 113.4961
181.9520, 185.3750
183.1760, 301.1084
184.3990, 418.7207
185.6220, 524.3086
186.8450, 635.8359
188.0670, 794.7051
189.2900, 906.4551
190.5120, 1108.895
191.7340, 1245.012
192.9560, 1283.256
194.1780, 1478.947
195.4000, 1596.852
196.6220, 1539.895
197.8430, 1687.020
199.0640, 1646.254
200.2860, 1895.600
201.5070, 2208.150
202.7270, 2208.238
203.9480, 2229.871
205.1690, 2169.027
206.3890, 2203.676
207.6090, 2577.250
208.8290, 2872.383
210.0490, 3519.295
211.2690, 3935.688
212.4890, 4553.496
213.7080, 5294.719
214.9280, 6249.354
216.1470, 7203.396
217.3660, 8104.854
218.5850, 9157.715
219.8030, 9990.984
221.0220, 10665.66
222.2400, 10591.73
223.4590, 10295.21
224.6770, 9688.078
225.8950, 8954.344
227.1120, 7894.004
228.3300, 7050.053
229.5480, 6346.488
230.7650, 5781.254
231.9820, 5363.275
233.1990, 5016.770
234.4160, 4833.844
235.6330, 4660.021
236.8490, 4707.564
238.0660, 4611.051
239.2820, 4805.943
240.4980, 4932.170
241.7140, 4658.488
242.9300, 4711.906
244.1460, 4628.420
245.3610, 4433.016
246.5770, 4112.703
247.7920, 3824.559
249.0070, 3530.598
250.2220, 3078.834
251.4370, 2985.279
252.6510, 2498.943
253.8660, 2191.844
255.0800, 2032.982
256.2940, 1813.375
257.5080, 1846.023
258.7220, 2251.928
259.9360, 2518.094
261.1490, 2756.520
262.3630, 1813.211
263.5760, 1802.162
264.7890, 1789.375
266.0020, 2594.848
267.2150, 2110.584
268.4270, 2403.578
269.6400, 2446.832
270.8520, 2502.344
272.0640, 2698.111
273.2760, 2556.133
274.4880, 2673.402
275.7000, 2433.914
276.9120, 2531.668
278.1230, 2385.668
279.3340, 2114.908
280.5450, 2205.387
281.7560, 2071.107
282.9670, 1978.066
284.1780, 1726.264
285.3880, 1402.697
286.5980, 1292.369
287.8090, 933.2773
289.0190, 571.4180
290.2290, 266.7930
291.4380, 246.4004
292.6480, 132.7578
293.8570, 59.31055
295.0670, 250.3887
296.2760, 363.8613
297.4850, 647.1074
298.6930, 310.1289
299.9020, 336.9258
301.1110, 50.50195
302.3190, 112.1523
303.5270, 401.0020
304.7350, 646.9922
305.9430, 769.9688
307.1510, 1074.080
308.3580, 1122.408
309.5660, 1296.688
310.7730, 1354.725
311.9800, 1506.707
313.1870, 1611.787
314.3940, 1627.146
315.6010, 1857.414
316.8070, 1799.838
318.0130, 2024.881
319.2200, 2140.355
320.4260, 2619.273
321.6310, 2826.613
322.8370, 3115.164
324.0430, 3546.434
325.2480, 3868.949
326.4540, 4478.805
327.6590, 4519.014
328.8640, 4808.582
330.0680, 4844.486
331.2730, 4858.707
332.4780, 4611.254
333.6820, 4472.113
334.8860, 4111.289
336.0900, 3769.789
337.2940, 3462.590
338.4980, 3199.080
339.7010, 2927.211
340.9050, 2859.023
342.1080, 2737.139
343.3110, 2852.510
344.5140, 2585.195
345.7170, 2705.119
346.9200, 2324.287
348.1220, 2482.645
349.3240, 2747.189
350.5270, 2905.934
351.7290, 3240.883
352.9310, 3533.016
354.1320, 3826.326
355.3340, 4128.824
356.5350, 4643.498
357.7370, 5430.344
358.9380, 5743.359
360.1390, 6514.545
361.3400, 7174.900
362.5400, 7753.418
363.7410, 8574.105
364.9410, 9326.953
366.1410, 10285.96
367.3410, 11285.13
368.5410, 12254.46
369.7410, 12920.94
370.9400, 14144.57
372.1400, 15139.37
373.3390, 16395.33
374.5380, 16945.45
375.7370, 17036.71
376.9360, 17168.00
378.1350, 16790.20
379.3330, 15946.50
380.5310, 14728.93
381.7300, 13399.53
382.9280, 12071.27
384.1260, 10744.14
385.3230, 9767.172
386.5210, 8800.346
387.7180, 8287.660
388.9160, 7338.121
390.1130, 6850.723
391.3100, 6274.471
392.5060, 6077.361
393.7030, 6272.395
394.9000, 6298.568
396.0960, 6028.883
397.2920, 6208.342
398.4880, 6366.939
399.6840, 6745.678
400.8800, 6762.553
402.0750, 7008.566
403.2710, 6871.723
404.4660, 7037.020
405.6610, 6798.457
406.8560, 6953.037
408.0510, 6652.760
409.2450, 6561.633
410.4400, 5997.639
411.6340, 5747.775
412.8280, 4866.045
414.0220, 4725.447
415.2160, 3993.977
416.4100, 3291.641
417.6030, 2955.426
418.7970, 2270.344
419.9900, 1900.383
421.1830, 1364.551
422.3760, 1006.842
423.5690, 742.2559
424.7610, 561.7949
425.9540, 456.4531
427.1460, 348.2305
428.3380, 243.1309
429.5300, 127.1465
430.7220, 30.28320
431.9140, 35.53320
433.1050, 37.90039
434.2970, 420.3809
435.4880, 361.9746
436.6790, 515.9512
437.8700, 518.7695
439.0610, 857.2930
440.2510, 1047.703
441.4420, 926.9375
442.6320, 1347.180
443.8220, 1248.764
445.0120, 1345.236
446.2020, 1651.814
447.3910, 1709.496
448.5810, 1852.283
449.7700, 1838.176
450.9600, 1850.211
452.1490, 1792.928
453.3370, 1756.471
454.5260, 1562.773
455.7150, 1448.174
456.9030, 1290.709
458.0910, 1147.385
459.2800, 1056.477
460.4670, 961.1445
461.6550, 902.2324
462.8430, 713.4551
464.0300, 689.8125
465.2180, 650.9512
466.4050, 854.7109
467.5920, 665.4824
468.7790, 743.5996
469.9650, 777.4199
471.1520, 388.2578
472.3380, 485.4199
473.5250, 414.7422
474.7110, 527.2988
475.8970, 434.7715
477.0820, 567.4980
478.2680, 534.7148
479.4540, 536.1973
480.6390, 489.7441
481.8240, 504.5195
483.0090, 434.4805
484.1940, 500.5312
485.3780, 479.3398
486.5630, 606.3379
487.7470, 769.7598
488.9320, 630.4844
490.1160, 906.3008
491.3000, 624.7988
492.4830, 803.2832
493.6670, 944.9668
494.8500, 967.4258
496.0340, 942.6719
497.2170, 1404.842
498.4000, 1542.254
499.5820, 1541.746
500.7650, 1937.320
501.9480, 2066.969
503.1300, 2206.699
504.3120, 2553.506
505.4940, 2797.389
506.6760, 3104.361
507.8580, 3238.416
509.0390, 3528.207
510.2210, 3763.398
511.4020, 4062.061
512.5830, 4250.432
513.7640, 4608.867
514.9450, 4844.707
516.1250, 4893.287
517.3060, 4971.346
518.4860, 4868.074
519.6660, 5038.855
520.8460, 4987.742
522.0260, 4712.656
523.2060, 4607.633
524.3850, 4651.678
525.5650, 4579.781
526.7440, 4692.949
527.9230, 4638.178
529.1020, 4657.467
530.2810, 5002.816
531.4590, 5540.229
532.6380, 5841.703
533.8160, 6101.240
534.9940, 6621.842
536.1720, 6732.516
537.3500, 6871.324
538.5270, 7335.240
539.7050, 7435.266
540.8820, 7503.430
542.0590, 7555.732
543.2360, 7483.156
544.4130, 7559.746
545.5900, 7488.395
546.7660, 7222.328
547.9430, 7044.523
549.1190, 7277.701
550.2950, 7297.684
551.4710, 6916.910
552.6470, 6922.209
553.8220, 6830.648
554.9980, 6625.090
556.1730, 6308.590
557.3480, 6141.012
558.5230, 6028.719
559.6980, 5598.352
560.8730, 5280.027
562.0470, 4875.752
563.2220, 4671.520
564.3960, 4434.320
565.5700, 3981.168
566.7440, 3786.055
567.9170, 3564.982
569.0910, 3194.953
570.2640, 2718.953
571.4380, 2636.980
572.6110, 2306.039
573.7840, 2302.125
574.9570, 2140.236
576.1290, 1860.377
577.3020, 1420.541
578.4740, 1731.740
579.6460, 1442.961
580.8180, 1153.229
581.9900, 1128.553
583.1620, 843.9746
584.3330, 1133.441
585.5040, 842.9590
586.6760, 973.4902
587.8470, 660.0391
589.0180, 489.6016
590.1880, 801.1777
591.3590, 730.7676
592.5290, 622.3691
593.7000, 297.9805
594.8700, 388.6035
596.0400, 560.2344
597.2090, 213.8770
598.3790, 242.5234
599.5490, 434.1797
600.7180, 502.8398
601.8870, 75.50586
603.0560, 70.17383
604.2250, 81.84766
605.3940, 391.5215
606.5620, 161.8047
607.7300, 92.77930
608.8990, 42.36328
610.0670, 79.06250
611.2350, 130.5449
612.4020, 113.1152
613.5700, 92.76172
614.7370, 147.3789
615.9050, 141.0938
617.0720, 196.2070
618.2390, 237.2480
619.4060, 196.4375
620.5720, 349.7559
621.7390, 383.2832
622.9050, 365.0332
624.0710, 260.0059
625.2370, 113.1484
626.4030, 336.3867
627.5690, 98.83398
628.7340, 153.3730
629.9000, 125.9648
631.0650, 76.29688
632.2300, 5.605469
633.3950, 13.13867
634.5600, 96.06445
635.7240, 176.2695
636.8890, 25.46094
638.0530, 231.6094
639.2170, 170.7422
640.3810, 350.8477
641.5450, 312.9375
642.7080, 149.0117
643.8720, 503.0645
645.0350, 312.5527
646.1980, 267.9512
647.3610, 382.2363
648.5240, 280.3613
649.6870, 258.7676
650.8490, 325.0488
652.0120, 171.0137
653.1740, 106.2070
654.3360, 67.78516
655.4980, 271.5098
656.6600, 24.20117
657.8210, 170.8145
658.9830, 315.3945
660.1440, 173.9355
661.3050, 626.4414
662.4660, 517.9102
663.6270, 291.3418
664.7870, 371.7344
665.9480, 535.0898
667.1080, 349.4062
668.2680, 285.6816
669.4280, 382.7148
670.5880, 377.9082
671.7480, 541.8926
672.9070, 408.9883
674.0670, 460.0781
675.2260, 599.9199
676.3850, 828.1797
677.5440, 490.7734
678.7030, 487.1016
679.8610, 572.6445
681.0200, 298.9473
682.1780, 391.2266
683.3360, 447.5742
684.4940, 250.8340
685.6520, 252.9219
686.8090, 260.3730
687.9670, 286.3242
689.1240, 225.4648
690.2810, 417.3867
691.4380, 616.6953
692.5950, 375.7031
693.7520, 629.2461
694.9080, 695.2559
696.0650, 609.1445
697.2210, 851.7402
698.3770, 879.3340
699.5330, 821.7676
700.6880, 1238.674
701.8440, 1389.625
702.9990, 1726.299
704.1550, 1830.084
705.3100, 2300.625
706.4650, 2507.480
707.6190, 2827.783
708.7740, 3196.285
709.9290, 3453.383
711.0830, 4083.615
712.2370, 4378.424
713.3910, 4992.559
714.5450, 5605.797
715.6980, 6380.150
716.8520, 7363.428
718.0050, 8415.705
719.1580, 10081.85
720.3110, 11610.73
721.4640, 14053.55
722.6170, 15787.81
723.7700, 18412.99
724.9220, 21078.09
726.0740, 23609.11
727.2260, 25952.04
728.3780, 27787.90
729.5300, 28310.69
730.6810, 28448.39
731.8330, 27243.00
732.9840, 25269.54
734.1350, 22839.00
735.2860, 20680.37
736.4370, 18321.67
737.5880, 16018.88
738.7380, 14078.01
739.8880, 12437.05
741.0390, 10920.02
742.1890, 9777.684
743.3380, 9062.691
744.4880, 8071.404
745.6380, 7472.264
746.7870, 6991.811
747.9360, 6745.055
749.0850, 6148.635
750.2340, 5926.236
751.3830, 5639.549
752.5310, 5338.738
753.6800, 5014.725
754.8280, 4965.828
755.9760, 4677.711
757.1240, 4552.945
758.2720, 4123.318
759.4190, 3868.463
760.5670, 3563.963
761.7140, 3204.908
762.8610, 2937.635
764.0080, 2582.428
765.1550, 2469.711
766.3020, 2282.850
767.4480, 1999.078
768.5950, 1851.334
769.7410, 1687.232
770.8870, 1362.287
772.0330, 1246.752
773.1780, 1139.686
774.3240, 895.5137
775.4690, 807.4844
776.6140, 594.9102
777.7590, 538.3750
778.9040, 614.1641
780.0490, 551.2051
781.1940, 459.1250
782.3380, 341.9668
783.4820, 174.2051
784.6260, 179.6152
785.7700, 416.2383
786.9140, 123.1523
788.0580, 368.8867
789.2010, 266.5430
790.3450, 379.1172
791.4880, 304.6211
792.6310, 472.7168
793.7730, 575.0625
794.9160, 520.9297
796.0590, 509.1172
797.2010, 763.2480
798.3430, 768.2695
799.4850, 718.2598
800.6270, 918.1758
801.7690, 853.0254
802.9100, 960.8027
804.0520, 823.5098
805.1930, 593.1445
806.3340, 307.7109
807.4750, 486.1992
808.6160, 205.6172
809.7560, 286.9512
810.8970, 190.2051
812.0370, 93.37305
813.1770, 171.5625
814.3170, 82.72656
815.4570, 80.07227
816.5960, 212.5957
817.7360, 194.5977
818.8750, 164.1758
820.0140, 310.6035
821.1530, 88.12891
822.2920, 119.7871
823.4310, 191.8184
824.5690, 282.2129
825.7070, 15.28125
826.8460, 1.078125
827.9840, 6.265625
829.1220, 8.486328
830.2590, 34.48828
831.3970, 98.46875
832.5340, 165.3359
833.6710, 300.1191
834.8080, 103.8320
835.9450, 178.4570
837.0820, 75.00391
838.2190, 208.4551
839.3550, 230.8320
840.4910, 119.1367
841.6270, 130.3574
842.7630, 106.4980
843.8990, 76.55273
845.0350, 319.5234
846.1700, 454.4258
847.3060, 403.2676
848.4410, 247.0469
849.5760, 386.7578
850.7100, 342.4062
851.8450, 295.3281
852.9800, 292.5078
854.1140, 272.9609
855.2480, 283.8496
856.3820, 327.4863
857.5160, 319.9395
858.6500, 466.1406
859.7830, 481.2852
860.9170, 598.3711
862.0500, 639.4023
863.1830, 796.3750
864.3160, 699.2949
865.4480, 862.1582
866.5810, 768.9648
867.7130, 930.7188
868.8460, 849.4199
869.9780, 1034.068
871.1100, 1040.660
872.2410, 1175.199
873.3730, 998.6875
874.5050, 1296.121
875.6360, 931.5039
876.7670, 1042.834
877.8980, 985.1152
879.0290, 977.3438
880.1590, 1112.523
881.2900, 938.6523
882.4200, 1066.777
883.5500, 760.8516
884.6800, 1021.881
885.8100, 829.9121
886.9400, 783.9355
888.0690, 710.9473
889.1990, 741.9453
890.3280, 647.9434
891.4570, 521.9375
892.5860, 484.9473
893.7140, 509.9785
894.8430, 412.0273
895.9710, 217.1289
897.1000, 309.2910
898.2280, 342.5098
899.3560, 149.7637
900.4830, 228.0078
901.6110, 163.3066
902.7380, 85.59375
903.8660, 16.11523
904.9930, 209.1113
906.1200, 14.30078
907.2460, 5.548828
908.3730, 122.4160
909.5000, 67.65430
910.6260, 23.27539
911.7520, 108.7539
912.8780, 329.7344
914.0040, 28.69922
915.1290, 46.36523
916.2550, 152.5762
917.3800, 151.4766
918.5050, 275.9375
919.6300, 278.4336
920.7550, 337.1543
921.8800, 282.6113
923.0040, 415.9043
924.1290, 447.2559
925.2530, 445.8594
926.3770, 364.1719
927.5010, 819.0312
928.6250, 708.6738
929.7480, 801.2969
930.8720, 721.9141
931.9950, 908.5000
933.1180, 860.0547
934.2410, 1076.602
935.3640, 1094.125
936.4860, 1025.701
937.6090, 1354.248
938.7310, 1062.809
939.8530, 1304.340
940.9750, 1451.855
942.0970, 1568.543
943.2180, 1502.061
944.3400, 1503.270
945.4610, 1502.760
946.5820, 1373.656
947.7030, 1439.270
948.8240, 1483.402
949.9450, 1440.143
951.0650, 1550.078
952.1860, 1567.729
953.3060, 1434.562
954.4260, 1559.348
955.5460, 1617.990
956.6650, 1643.688
957.7850, 1732.467
958.9040, 1392.809
960.0230, 1504.564
961.1420, 1537.053
962.2610, 1757.668
963.3800, 1730.418
964.4990, 1513.264
965.6170, 1707.061
966.7350, 1676.320
967.8530, 1610.621
968.9710, 1744.141
970.0890, 1806.600
971.2070, 1794.143
972.3240, 1852.135
973.4410, 2070.004
974.5580, 2244.100
975.6750, 1845.010
976.7920, 2051.084
977.9090, 2191.852
979.0250, 2057.152
980.1410, 2228.787
981.2580, 2119.984
982.3740, 2070.969
983.4890, 2196.299
984.6050, 1996.221
985.7200, 2007.961
986.8360, 2292.506
987.9510, 2302.041
989.0660, 1931.502
990.1810, 2023.008
991.2950, 1933.707
992.4100, 1973.404
993.5240, 1838.584
994.6390, 1807.762
995.7530, 1967.947
996.8660, 2206.131
997.9800, 1919.309
999.0940, 1913.500
1000.207, 2078.684
1001.320, 1919.895
1002.433, 2146.100
1003.546, 1791.303
1004.659, 2038.502
1005.772, 2114.699
1006.884, 1695.895
1007.996, 2001.090
1009.108, 2103.283
1010.220, 2164.475
1011.332, 2452.666
1012.444, 2343.855
1013.555, 2436.041
1014.666, 2555.225
1015.777, 2619.410
1016.888, 2641.613
1017.999, 2863.797
1019.110, 3098.859
1020.220, 3005.043
1021.331, 3313.221
1022.441, 3333.398
1023.551, 3817.576
1024.661, 3710.994
1025.770, 4035.168
1026.880, 3937.475
1027.989, 4368.742
1029.098, 4212.045
1030.207, 4030.848
1031.316, 4432.020
1032.425, 5191.242
1033.533, 5641.781
1034.642, 5173.473
1035.750, 4847.930
1036.858, 4917.090
1037.966, 5092.156
1039.073, 5364.271
1040.181, 5634.160
1041.288, 5620.070
1042.396, 5813.816
1043.503, 6170.014
1044.610, 6640.523
1045.716, 6642.006
1046.823, 7125.094
1047.929, 7301.984
1049.036, 7890.107
1050.142, 8316.297
1051.248, 9106.891
1052.353, 9381.047
1053.459, 9947.029
1054.564, 10456.80
1055.670, 10956.54
1056.775, 11850.71
1057.880, 12909.38
1058.985, 13449.02
1060.089, 14400.20
1061.194, 15583.43
1062.298, 16105.76
1063.402, 17235.29
1064.506, 18328.05
1065.610, 18692.13
1066.713, 18891.27
1067.817, 19391.81
1068.920, 19323.16
1070.023, 18988.21
1071.126, 18459.57
1072.229, 17677.15
1073.332, 16587.85
1074.435, 15468.50
1075.537, 14324.07
1076.639, 13536.50
1077.741, 12227.75
1078.843, 11258.55
1079.945, 10078.16
1081.046, 9220.406
1082.148, 8228.066
1083.249, 7398.928
1084.350, 6365.516
1085.451, 6020.758
1086.551, 5299.262
1087.652, 4761.139
1088.752, 4478.684
1089.853, 3712.246
1090.953, 3480.184
1092.053, 2919.848
1093.152, 3120.859
1094.252, 2867.984
1095.351, 2602.094
1096.451, 2206.041
1097.550, 2499.453
1098.649, 1843.762
1099.748, 2199.615
1100.846, 1909.744
1101.945, 1660.662
1103.043, 1624.059
1104.141, 1715.898
1105.239, 1443.209
1106.337, 1695.445
1107.434, 1316.271
1108.532, 1323.096
1109.629, 1529.965
1110.726, 1285.057
1111.823, 1237.273
1112.920, 1190.076
1114.017, 1142.018
1115.113, 1238.318
1116.210, 1193.672
1117.306, 1304.854
1118.402, 1256.602
1119.498, 1254.338
1120.593, 1382.318
1121.689, 1145.361
1122.784, 1292.164
1123.879, 1230.084
1124.974, 918.7598
1126.069, 1020.547
1127.164, 885.6895
1128.259, 806.5957
1129.353, 804.2441
1130.447, 831.7031
1131.541, 583.2871
1132.635, 588.6855
1133.729, 514.2324
1134.822, 424.7676
1135.916, 541.2812
1137.009, 438.7812
1138.102, 546.2617
1139.195, 527.8652
1140.288, 509.6250
1141.380, 346.1348
1142.473, 473.5469
1143.565, 428.2793
1144.657, 451.3164
1145.749, 469.6738
1146.841, 196.0273
1147.932, 155.3496
1149.024, 361.6523
1150.115, 87.82812
1151.206, 176.3945
1152.297, 253.5957
1153.388, 366.7793
1154.479, 228.9434
1155.569, 110.0898
1156.659, 222.4590
1157.750, 138.5625
1158.839, 148.6484
1159.929, 140.7129
1161.019, 127.3281
1162.108, 134.0254
1163.198, 158.2070
1164.287, 131.1895
1165.376, 175.4531
1166.465, 169.5098
1167.553, 151.8418
1168.642, 149.6445
1169.730, 65.25781
1170.818, 88.13672
1171.906, 49.99805
1172.994, 125.1816
1174.082, 184.4258
1175.170, 46.20703
1176.257, 128.8223
1177.344, 66.58203
1178.431, 69.05078
1179.518, 236.5820
1180.605, 10.74023
1181.691, 225.9609
1182.778, 0.8125000
1183.864, 212.3027
1184.950, 36.39844
1186.036, 23.46484
1187.122, 180.5020
1188.207, 63.52148
1189.292, 67.51367
1190.378, 5.478516
1191.463, 12.58789
1192.548, 29.70117
1193.632, 0.1347660
1194.717, 36.93555
1195.801, 206.7051
1196.886, 56.54492
1197.970, 14.69141
1199.054, 298.0566
1200.137, 308.3809
1201.221, 154.2031
1202.305, 73.09180
1203.388, 15.63867
1204.471, 53.58398
1205.554, 204.2227
1206.637, 102.8223
1207.719, 71.15820
1208.802, 114.7832
1209.884, 194.6992
1210.966, 22.40625
1212.048, 11.56641
1213.130, 26.22656
1214.212, 101.9883
1215.293, 49.27539
1216.374, 159.3906
1217.456, 85.02930
1218.536, 97.35938
1219.617, 196.1562
1220.698, 118.6465
1221.778, 200.1113
1222.859, 139.5469
1223.939, 116.9551
1225.019, 84.66797
1226.099, 166.6191
1227.178, 58.88086
1228.258, 90.10938
1229.337, 294.3047
1230.417, 131.4805
1231.496, 32.37891
1232.574, 64.69922
1233.653, 242.7422
1234.732, 83.76953
1235.810, 69.23828
1236.888, 252.6719
1237.966, 224.5508
1239.044, 181.4062
1240.122, 127.2344
1241.199, 97.03125
1242.277, 266.8047
1243.354, 155.5508
1244.431, 68.23828
1245.508, 288.9258
1246.585, 308.5898
1247.661, 298.2227
1248.738, 474.8320
1249.814, 127.4102
1250.890, 109.9648
1251.966, 163.4922
1253.042, 66.01172
1254.117, 274.4023
1255.193, 155.7930
1256.268, 6.843750
1257.343, 117.4688
1258.418, 174.7500
1259.493, 12.98828
1260.567, 198.2148
1261.642, 60.60547
1262.716, 245.4961
1263.790, 230.5742
1264.864, 375.6211
1265.938, 380.6484
1267.011, 310.6523
1268.085, 141.6289
1269.158, 99.57812
1270.231, 153.5000
1271.304, 242.3984
1272.377, 192.9727
1273.450, 200.7461
1274.522, 211.9492
1275.594, 164.7500
1276.666, 287.5234
1277.738, 386.2578
1278.810, 108.9883
1279.882, 262.8125
1280.953, 178.4922
1282.025, 175.1484
1283.096, 313.7852
1284.167, 284.3984
1285.238, 95.74219
1286.308, 445.3086
1287.379, 163.7227
1288.449, 287.1484
1289.519, 82.51562
1290.589, 263.7969
1291.659, 115.0820
1292.729, 441.4414
1293.798, 74.66406
1294.868, 119.0430
1295.937, 309.3711
1297.006, 285.5977
1298.075, 461.7891
1299.143, 367.2539
1300.212, 334.4961
1301.280, 157.0938
1302.348, 263.9023
1303.416, 154.9180
1304.484, 276.5352
1305.552, 294.4805
1306.620, 409.6875
1307.687, 177.6680
1308.754, 329.0781
1309.821, 336.4609
1310.888, 270.4219
1311.955, 346.3320
1313.021, 245.4297
1314.088, 187.8555
1315.154, 115.2109
1316.220, 219.2188
1317.286, 275.7188
1318.352, 82.22656
1319.417, 256.1836
1320.483, 276.0859
1321.548, 320.8672
1322.613, 426.4180
1323.678, 397.7188
1324.743, 324.6758
1325.807, 4.550781
1326.872, 389.0039
1327.936, 44.62500
1329.000, 395.5156
1330.064, 247.0820
1331.128, 122.4062
1332.191, 75.58984
1333.255, 97.96875
