##NAMES=Elbaite
##RRUFFID=R060562
##IDEAL CHEMISTRY=Na(Al_1.5_Li_1.5_)Al_6_(Si_6_O_18_)(BO_3_)_3_(OH)_3_OH
##LOCALITY=unknown
##OWNER=RRUFF
##SOURCE=Gemological Institute of America
##DESCRIPTION=Blue colored polished fragment
##STATUS=The identification of this mineral has been confirmed by X-ray diffraction and chemical analysis
##URL=rruff.info/R060562
##MEASURED CHEMISTRY=(Na_0.68_Ca_0.20_[box]_0.12_)(Li_1.20_Al_1.12_Fe^2+^_0.50_Mn_0.18_)Al_6_(BO_3_)_3_[Si_6_O_18_]((OH)_0.80_F_0.20_)_4_
##PIN_ID=M00501
##ORIENTATION=Laser parallel to c* (0 0 1). Fiducial mark perpendicular to laser is parallel to -a [-1 0 0]
118.1340, 0.0000000E+00
119.3650, 100.4170
120.5960, 111.6963
121.8270, 529.8828
123.0580, 935.9932
124.2880, 1810.010
125.5190, 1957.564
126.7490, 2559.093
127.9790, 3034.243
129.2090, 3524.416
130.4390, 3603.040
131.6680, 3582.783
132.8980, 3559.070
134.1270, 3346.941
135.3560, 3057.542
136.5850, 2515.066
137.8140, 2168.974
139.0430, 1802.642
140.2710, 1177.632
141.5000, 683.3760
142.7280, 499.4551
143.9560, 128.5781
145.1840, 230.5371
146.4120, 435.6719
147.6390, 415.1670
148.8670, 493.6055
150.0940, 648.5254
151.3210, 702.7451
152.5490, 994.0430
153.7750, 869.5771
155.0020, 1079.188
156.2290, 978.6240
157.4550, 738.3652
158.6810, 664.7100
159.9080, 701.1406
161.1340, 658.0205
162.3590, 585.0674
163.5850, 701.3955
164.8110, 786.1582
166.0360, 443.4951
167.2610, 280.5283
168.4860, 259.3652
169.7110, 242.0938
170.9360, 217.7891
172.1610, 66.53320
173.3850, 166.5977
174.6100, 274.5391
175.8340, 133.2354
177.0580, 51.63184
178.2820, 345.3174
179.5050, 29.34277
180.7290, 11.43066
181.9520, 389.6758
183.1760, 374.4268
184.3990, 571.7178
185.6220, 822.5801
186.8450, 1013.042
188.0670, 1303.131
189.2900, 1576.873
190.5120, 1862.201
191.7340, 2451.193
192.9560, 2819.140
194.1780, 3339.449
195.4000, 4087.000
196.6220, 4209.344
197.8430, 4723.574
199.0640, 5081.520
200.2860, 5319.547
201.5070, 5700.301
202.7270, 5571.455
203.9480, 5247.027
205.1690, 5061.787
206.3890, 5018.805
207.6090, 5254.023
208.8290, 5677.434
210.0490, 6172.029
211.2690, 7036.800
212.4890, 7712.738
213.7080, 8893.831
214.9280, 9971.072
216.1470, 11255.45
217.3660, 12906.96
218.5850, 14189.60
219.8030, 15513.15
221.0220, 16883.60
222.2400, 17877.15
223.4590, 18711.79
224.6770, 18921.54
225.8950, 19205.41
227.1120, 18811.40
228.3300, 18108.49
229.5480, 17731.68
230.7650, 17033.93
231.9820, 16175.23
233.1990, 15219.58
234.4160, 14840.99
235.6330, 14317.44
236.8490, 13639.95
238.0660, 13154.51
239.2820, 12510.13
240.4980, 11820.80
241.7140, 11073.54
242.9300, 10126.34
244.1460, 9222.201
245.3610, 8325.126
246.5770, 7384.119
247.7920, 6353.180
249.0070, 5455.311
250.2220, 4499.511
251.4370, 3741.951
252.6510, 3221.128
253.8660, 2448.547
255.0800, 1919.039
256.2940, 1588.608
257.5080, 1863.254
258.7220, 1216.519
259.9360, 1469.781
261.1490, 458.6631
262.3630, 130.3721
263.5760, 450.3838
264.7890, 444.4834
266.0020, 427.1123
267.2150, 475.9307
268.4270, 620.2588
269.6400, 685.3184
270.8520, 527.2422
272.0640, 374.0752
273.2760, 421.8457
274.4880, 412.6143
275.7000, 317.4092
276.9120, 146.2314
278.1230, 64.05566
279.3340, 38.30371
280.5450, 35.49121
281.7560, 10.84180
282.9670, 26.14258
284.1780, 103.0889
285.3880, 11.99512
286.5980, 352.8623
287.8090, 148.6855
289.0190, 384.4727
290.2290, 103.2256
291.4380, 440.9404
292.6480, 328.0771
293.8570, 405.9688
295.0670, 473.8096
296.2760, 635.6406
297.4850, 651.4766
298.6930, 885.3184
299.9020, 1076.167
301.1110, 1128.008
302.3190, 1450.806
303.5270, 1724.526
304.7350, 2022.157
305.9430, 2181.704
307.1510, 2540.172
308.3580, 2979.570
309.5660, 3054.904
310.7730, 3259.186
311.9800, 3304.416
313.1870, 3482.605
314.3940, 3759.757
315.6010, 3937.878
316.8070, 4322.973
318.0130, 4385.045
319.2200, 4836.384
320.4260, 4950.250
321.6310, 5550.124
322.8370, 5911.217
324.0430, 6466.240
325.2480, 6715.309
326.4540, 6905.113
327.6590, 7489.143
328.8640, 7364.184
330.0680, 7703.260
331.2730, 8016.389
332.4780, 7641.564
333.6820, 7959.825
334.8860, 7754.184
336.0900, 7754.502
337.2940, 7545.389
338.4980, 7575.856
339.7010, 7650.712
340.9050, 7590.174
342.1080, 7530.270
343.3110, 7548.184
344.5140, 7421.596
345.7170, 7365.975
346.9200, 7238.925
348.1220, 6936.901
349.3240, 6890.953
350.5270, 6668.074
351.7290, 6611.270
352.9310, 6602.543
354.1320, 6782.891
355.3340, 7020.922
356.5350, 7311.807
357.7370, 7843.377
358.9380, 8445.022
360.1390, 9116.738
361.3400, 10175.53
362.5400, 11369.39
363.7410, 12634.32
364.9410, 14188.33
366.1410, 16407.41
367.3410, 18457.57
368.5410, 20878.80
369.7410, 23626.10
370.9400, 26483.48
372.1400, 30072.94
373.3390, 32925.46
374.5380, 35810.05
375.7370, 37210.73
376.9360, 37788.46
378.1350, 37071.29
379.3330, 34950.19
380.5310, 31761.15
381.7300, 28755.19
382.9280, 25299.30
384.1260, 22287.49
385.3230, 19444.75
386.5210, 17360.09
387.7180, 15340.50
388.9160, 14026.98
390.1130, 12679.54
391.3100, 11665.17
392.5060, 10890.88
393.7030, 10440.65
394.9000, 10033.51
396.0960, 9620.437
397.2920, 9643.439
398.4880, 9359.518
399.6840, 9486.670
400.8800, 9547.892
402.0750, 9554.219
403.2710, 10076.68
404.4660, 10275.27
405.6610, 10523.01
406.8560, 10676.00
408.0510, 10554.32
409.2450, 10298.24
410.4400, 9704.468
411.6340, 8972.765
412.8280, 8489.102
414.0220, 7255.449
415.2160, 6504.812
416.4100, 5439.884
417.6030, 4731.054
418.7970, 4164.900
419.9900, 3536.827
421.1830, 3057.602
422.3760, 2788.503
423.5690, 2472.018
424.7610, 2216.856
425.9540, 2000.192
427.1460, 1959.776
428.3380, 1866.242
429.5300, 1693.854
430.7220, 1728.170
431.9140, 1566.546
433.1050, 1426.987
434.2970, 1404.925
435.4880, 1398.063
436.6790, 1433.128
437.8700, 1523.830
439.0610, 1570.600
440.2510, 1640.438
441.4420, 1615.346
442.6320, 1642.321
443.8220, 1759.366
445.0120, 1637.479
446.2020, 1708.662
447.3910, 1703.916
448.5810, 1548.239
449.7700, 1587.635
450.9600, 1517.101
452.1490, 1480.159
453.3370, 1486.790
454.5260, 1454.934
455.7150, 1505.692
456.9030, 1540.524
458.0910, 1627.431
459.2800, 1955.410
460.4670, 2035.467
461.6550, 2305.598
462.8430, 2531.846
464.0300, 2626.237
465.2180, 2917.739
466.4050, 3112.333
467.5920, 2953.004
468.7790, 3149.766
469.9650, 3139.607
471.1520, 3376.530
472.3380, 3262.799
473.5250, 3175.898
474.7110, 3201.453
475.8970, 2957.645
477.0820, 3008.939
478.2680, 2892.760
479.4540, 2860.632
480.6390, 2802.550
481.8240, 2707.385
483.0090, 2562.330
484.1940, 2543.888
485.3780, 2310.733
486.5630, 2252.532
487.7470, 2085.682
488.9320, 2086.223
490.1160, 2075.438
491.3000, 2143.740
492.4830, 2052.124
493.6670, 2200.593
494.8500, 2197.147
496.0340, 2285.785
497.2170, 2347.507
498.4000, 2275.312
499.5820, 2318.199
500.7650, 2239.172
501.9480, 2325.227
503.1300, 2258.368
504.3120, 2235.598
505.4940, 2238.913
506.6760, 2275.315
507.8580, 2061.799
509.0390, 1986.369
510.2210, 2046.021
511.4020, 1802.755
512.5830, 1743.569
513.7640, 1681.465
514.9450, 1728.438
516.1250, 1595.661
517.3060, 1342.621
518.4860, 1378.832
519.6660, 1287.121
520.8460, 1153.488
522.0260, 1307.932
523.2060, 1209.453
524.3850, 1298.052
525.5650, 1400.727
526.7440, 1475.477
527.9230, 1515.304
529.1020, 1608.204
530.2810, 1883.182
531.4590, 2159.234
532.6380, 2319.431
533.8160, 2427.560
534.9940, 2685.834
536.1720, 2835.180
537.3500, 2912.601
538.5270, 3221.092
539.7050, 3319.657
540.8820, 3437.292
542.0590, 3579.999
543.2360, 3642.371
544.4130, 3717.713
545.5900, 3754.332
546.7660, 3821.443
547.9430, 3787.903
549.1190, 3849.470
550.2950, 3832.172
551.4710, 3617.660
552.6470, 3481.007
553.8220, 3406.017
554.9980, 3155.277
556.1730, 3096.805
557.3480, 2922.558
558.5230, 2973.494
559.6980, 2721.626
560.8730, 2536.952
562.0470, 2172.445
563.2220, 2215.061
564.3960, 2101.775
565.5700, 1899.584
566.7440, 1743.465
567.9170, 1768.432
569.0910, 1698.473
570.2640, 1813.575
571.4380, 1702.760
572.6110, 1829.999
573.7840, 1711.291
574.9570, 1863.635
576.1290, 2009.036
577.3020, 2014.489
578.4740, 2214.993
579.6460, 2144.547
580.8180, 2272.151
581.9900, 2301.805
583.1620, 2211.508
584.3330, 2325.259
585.5040, 2223.057
586.6760, 2369.903
587.8470, 2130.799
589.0180, 2157.744
590.1880, 2141.739
591.3590, 1878.783
592.5290, 1729.873
593.7000, 1652.013
594.8700, 1472.202
596.0400, 1465.438
597.2090, 1323.730
598.3790, 1299.080
599.5490, 1232.504
600.7180, 1237.994
601.8870, 1085.562
603.0560, 995.1992
604.2250, 903.9219
605.3940, 790.7568
606.5620, 629.6777
607.7300, 355.7109
608.8990, 254.8125
610.0670, 121.0176
611.2350, 40.30859
612.4020, 141.2842
613.5700, 194.8369
614.7370, 160.3564
615.9050, 300.8311
617.0720, 368.3633
618.2390, 304.9805
619.4060, 516.6455
620.5720, 497.4932
621.7390, 445.4473
622.9050, 425.5117
624.0710, 333.6768
625.2370, 283.9131
626.4030, 225.1914
627.5690, 49.51270
628.7340, 77.79785
629.9000, 58.93066
631.0650, 233.7002
632.2300, 328.5400
633.3950, 463.4219
634.5600, 486.3311
635.7240, 592.2725
636.8890, 908.2422
638.0530, 714.2402
639.2170, 929.2646
640.3810, 975.3311
641.5450, 747.4033
642.7080, 789.6025
643.8720, 597.6416
645.0350, 659.6230
646.1980, 497.0723
647.3610, 467.4141
648.5240, 465.3799
649.6870, 694.7998
650.8490, 693.4775
652.0120, 859.6904
653.1740, 1156.913
654.3360, 1239.146
655.4980, 1391.386
656.6600, 1415.635
657.8210, 1455.891
658.9830, 1460.152
660.1440, 1521.420
661.3050, 1440.692
662.4660, 1295.970
663.6270, 1309.251
664.7870, 1072.534
665.9480, 1002.820
667.1080, 747.1074
668.2680, 810.3955
669.4280, 581.6836
670.5880, 613.9707
671.7480, 434.2578
672.9070, 554.5430
674.0670, 651.8262
675.2260, 414.1064
676.3850, 435.3818
677.5440, 255.6533
678.7030, 269.9189
679.8610, 113.1797
681.0200, 121.4336
682.1780, 43.32031
683.3360, 132.1406
684.4940, 182.5273
685.6520, 171.1572
686.8090, 221.3779
687.9670, 282.7656
689.1240, 104.3555
690.2810, 271.0557
691.4380, 7.043945
692.5950, 152.0859
693.7520, 195.1133
694.9080, 415.1211
696.0650, 699.1113
697.2210, 1149.081
698.3770, 1500.029
699.5330, 1622.953
700.6880, 2156.855
701.8440, 2322.730
702.9990, 2775.581
704.1550, 3209.404
705.3100, 3617.202
706.4650, 4121.969
707.6190, 4550.709
708.7740, 5088.418
709.9290, 5802.100
711.0830, 6507.748
712.2370, 7328.365
713.3910, 8296.949
714.5450, 9604.505
715.6980, 10953.02
716.8520, 12550.51
718.0050, 14563.97
719.1580, 16430.38
720.3110, 18797.76
721.4640, 21419.11
722.6170, 24157.42
723.7700, 27108.70
724.9220, 30042.05
726.0740, 33052.62
727.2260, 35462.40
728.3780, 37012.36
729.5300, 37928.44
730.6810, 37645.92
731.8330, 36085.98
732.9840, 34250.24
734.1350, 31777.15
735.2860, 28732.31
736.4370, 26101.44
737.5880, 23568.78
738.7380, 21303.76
739.8880, 19249.79
741.0390, 17684.60
742.1890, 15978.47
743.3380, 14336.74
744.4880, 13262.04
745.6380, 11981.69
746.7870, 10868.75
747.9360, 9942.674
749.0850, 9070.175
750.2340, 8205.242
751.3830, 7544.457
752.5310, 6899.957
753.6800, 6414.658
754.8280, 5845.018
755.9760, 5469.062
757.1240, 5010.682
758.2720, 4673.016
759.4190, 4283.166
760.5670, 3994.551
761.7140, 3372.258
762.8610, 3056.412
764.0080, 2768.921
765.1550, 2283.533
766.3020, 2228.454
767.4480, 1850.069
768.5950, 1601.179
769.7410, 1334.014
770.8870, 1085.329
772.0330, 874.9531
773.1780, 860.3428
774.3240, 1009.334
775.4690, 788.1074
776.6140, 742.3389
777.7590, 494.4541
778.9040, 507.2441
780.0490, 267.1162
781.1940, 292.0508
782.3380, 313.1846
783.4820, 253.7236
784.6260, 481.0898
785.7700, 339.3271
786.9140, 476.4854
788.0580, 421.5732
789.2010, 610.5869
790.3450, 665.5312
791.4880, 872.4053
792.6310, 875.2080
793.7730, 967.9414
794.9160, 1067.605
796.0590, 1192.367
797.2010, 1374.079
798.3430, 1569.170
799.4850, 1791.549
800.6270, 2100.857
801.7690, 2340.092
802.9100, 2492.258
804.0520, 2655.350
805.1930, 2833.371
806.3340, 2793.318
807.4750, 2803.195
808.6160, 2930.998
809.7560, 2663.729
810.8970, 2631.387
812.0370, 2494.972
813.1770, 2309.484
814.3170, 2071.923
815.4570, 1928.288
816.5960, 1575.580
817.7360, 1452.797
818.8750, 1119.939
820.0140, 1062.324
821.1530, 973.9170
822.2920, 888.1357
823.4310, 957.8594
824.5690, 826.2275
825.7070, 982.5479
826.8460, 1082.874
827.9840, 1323.552
829.1220, 1283.503
830.2590, 1560.936
831.3970, 1835.301
832.5340, 1795.598
833.6710, 1947.826
834.8080, 2089.987
835.9450, 2094.080
837.0820, 2113.104
838.2190, 2076.059
839.3550, 1890.945
840.4910, 1852.764
841.6270, 1609.513
842.7630, 1393.193
843.8990, 1353.805
845.0350, 1121.347
846.1700, 1098.820
847.3060, 834.2236
848.4410, 1077.560
849.5760, 780.8252
850.7100, 844.0205
851.8450, 720.1475
852.9800, 727.2051
854.1140, 738.1914
855.2480, 711.1094
856.3820, 768.9590
857.5160, 833.7383
858.6500, 773.4492
859.7830, 687.0898
860.9170, 563.6602
862.0500, 505.1611
863.1830, 443.5879
864.3160, 393.9404
865.4480, 360.3340
866.5810, 492.4111
867.7130, 343.5342
868.8460, 294.5791
869.9780, 362.5420
871.1100, 96.42676
872.2410, 96.21387
873.3730, 1.098633
874.5050, 20.45703
875.6360, 30.10645
876.7670, 4.181641
877.8980, 61.65723
879.0290, 164.6592
880.1590, 70.87891
881.2900, 173.2646
882.4200, 5.871094
883.5500, 148.6094
884.6800, 79.55566
885.8100, 201.6709
886.9400, 121.0186
888.0690, 189.5303
889.1990, 191.2285
890.3280, 37.12109
891.4570, 82.09375
892.5860, 100.1523
893.7140, 17.32227
894.8430, 270.5020
895.9710, 162.8291
897.1000, 168.2598
898.2280, 106.7998
899.3560, 133.4404
900.4830, 23.20410
901.6110, 50.04980
902.7380, 4.026367
903.8660, 43.89746
904.9930, 84.27832
906.1200, 26.38379
907.2460, 237.9453
908.3730, 137.4287
909.5000, 175.8291
910.6260, 135.1543
911.7520, 276.3975
912.8780, 179.5693
914.0040, 325.6445
915.1290, 288.6660
916.2550, 253.5107
917.3800, 341.4658
918.5050, 392.5537
919.6300, 567.9287
920.7550, 604.4883
921.8800, 784.4023
923.0040, 885.8359
924.1290, 961.9727
925.2530, 933.5449
926.3770, 1179.104
927.5010, 1101.629
928.6250, 1394.119
929.7480, 1467.588
930.8720, 1489.018
931.9950, 1691.425
933.1180, 1732.801
934.2410, 1702.132
935.3640, 1932.406
936.4860, 2145.623
937.6090, 2169.807
938.7310, 2278.976
939.8530, 2460.094
940.9750, 2473.165
942.0970, 2725.191
943.2180, 2945.211
944.3400, 2750.178
945.4610, 2791.108
946.5820, 2988.996
947.7030, 3167.843
948.8240, 3242.638
949.9450, 3304.378
951.0650, 3485.064
952.1860, 3483.698
953.3060, 3603.277
954.4260, 3449.808
955.5460, 3672.313
956.6650, 3616.865
957.7850, 3650.442
958.9040, 3916.053
960.0230, 3837.689
961.1420, 4041.370
962.2610, 3974.063
963.3800, 4212.799
964.4990, 4141.504
965.6170, 4267.158
966.7350, 4429.760
967.8530, 4628.312
968.9710, 4833.814
970.0890, 4736.267
971.2070, 4928.668
972.3240, 4956.019
973.4410, 4988.324
974.5580, 5015.578
975.6750, 4786.783
976.7920, 4758.939
977.9090, 4873.047
979.0250, 4663.105
980.1410, 4654.117
981.2580, 4570.081
982.3740, 4413.008
983.4890, 4339.478
984.6050, 4153.689
985.7200, 4179.463
986.8360, 4093.193
987.9510, 4205.877
989.0660, 4088.514
990.1810, 4012.104
991.2950, 3976.650
992.4100, 3965.149
993.5240, 4074.605
994.6390, 3956.017
995.7530, 4101.270
996.8660, 4004.226
997.9800, 3996.875
999.0940, 4050.269
1000.207, 4127.472
1001.320, 4194.180
1002.433, 4282.236
1003.546, 4377.000
1004.659, 4483.023
1005.772, 4549.716
1006.884, 4676.363
1007.996, 4910.716
1009.108, 4963.334
1010.220, 5194.824
1011.332, 5321.447
1012.444, 5620.922
1013.555, 5925.917
1014.666, 6047.792
1015.777, 6156.234
1016.888, 6414.184
1017.999, 6536.175
1019.110, 6653.509
1020.220, 7007.188
1021.331, 7206.943
1022.441, 7321.416
1023.551, 7487.805
1024.661, 7538.893
1025.770, 7744.182
1026.880, 7586.363
1027.989, 7746.611
1029.098, 7960.312
1030.207, 7865.638
1031.316, 8191.648
1032.425, 8278.838
1033.533, 8492.423
1034.642, 8939.661
1035.750, 9039.411
1036.858, 9739.101
1037.966, 10200.43
1039.073, 10517.14
1040.181, 11259.29
1041.288, 11783.17
1042.396, 12578.29
1043.503, 13195.64
1044.610, 14090.83
1045.716, 14937.17
1046.823, 16034.69
1047.929, 16908.90
1049.036, 18153.20
1050.142, 19457.26
1051.248, 20821.71
1052.353, 22424.51
1053.459, 24160.02
1054.564, 25522.66
1055.670, 27103.52
1056.775, 29061.45
1057.880, 30049.85
1058.985, 31338.52
1060.089, 32604.87
1061.194, 32881.11
1062.298, 33395.94
1063.402, 33301.66
1064.506, 32388.81
1065.610, 31133.49
1066.713, 29589.45
1067.817, 27756.52
1068.920, 25895.28
1070.023, 23713.87
1071.126, 21349.02
1072.229, 19369.70
1073.332, 17385.96
1074.435, 15504.50
1075.537, 14002.09
1076.639, 12481.44
1077.741, 11107.87
1078.843, 9898.358
1079.945, 9147.844
1081.046, 8227.890
1082.148, 7606.512
1083.249, 6751.338
1084.350, 6325.951
1085.451, 5852.779
1086.551, 5337.752
1087.652, 5021.477
1088.752, 4703.095
1089.853, 4506.516
1090.953, 4172.616
1092.053, 4098.355
1093.152, 3853.777
1094.252, 3613.388
1095.351, 3392.010
1096.451, 3322.386
1097.550, 3205.744
1098.649, 3042.087
1099.748, 2838.414
1100.846, 2807.727
1101.945, 2729.047
1103.043, 2604.330
1104.141, 2553.598
1105.239, 2503.074
1106.337, 2394.032
1107.434, 2235.537
1108.532, 2195.748
1109.629, 1984.945
1110.726, 1844.131
1111.823, 1954.301
1112.920, 1727.459
1114.017, 1799.604
1115.113, 1762.737
1116.210, 1637.857
1117.306, 1621.966
1118.402, 1541.062
1119.498, 1411.148
1120.593, 1503.223
1121.689, 1324.284
1122.784, 1437.335
1123.879, 1270.376
1124.974, 1137.406
1126.069, 1198.426
1127.164, 1174.435
1128.259, 1024.435
1129.353, 886.9756
1130.447, 981.2002
1131.541, 1022.009
1132.635, 1012.250
1133.729, 800.5264
1134.822, 849.6064
1135.916, 794.1543
1137.009, 734.4268
1138.102, 820.2148
1139.195, 637.8799
1140.288, 721.3877
1141.380, 698.8232
1142.473, 724.8281
1143.565, 645.7266
1144.657, 599.1328
1145.749, 657.8047
1146.841, 658.2686
1147.932, 567.2910
1149.024, 596.6670
1150.115, 411.0859
1151.206, 414.2471
1152.297, 498.9053
1153.388, 413.4678
1154.479, 445.1006
1155.569, 432.2568
1156.659, 216.9658
1157.750, 194.7480
1158.839, 236.5498
1159.929, 266.3750
1161.019, 343.2949
1162.108, 146.2773
1163.198, 55.32617
1164.287, 47.42090
1165.376, 116.5693
1166.465, 76.74316
1167.553, 72.95020
1168.642, 118.1758
1169.730, 75.41309
1170.818, 73.68945
1171.906, 46.90625
1172.994, 28.20312
1174.082, 20.45117
1175.170, 5.822266
1176.257, 9.6680000E-02
1177.344, 12.36035
1178.431, 52.62402
1179.518, 3.743164
1180.605, 11.13477
1181.691, 90.61914
1182.778, 23.42383
1183.864, 91.24902
1184.950, 92.13281
1186.036, 79.07520
1187.122, 29.07031
1188.207, 71.09082
1189.292, 174.1611
1190.378, 82.33301
1191.463, 83.56055
1192.548, 140.8438
1193.632, 59.21289
1194.717, 129.6260
1195.801, 90.11816
1196.886, 46.67090
1197.970, 54.73828
1199.054, 126.1396
1200.137, 72.46484
1201.221, 161.1201
1202.305, 2.873047
1203.388, 15.64355
1204.471, 39.43555
1205.554, 168.2607
1206.637, 3.812500
1207.719, 54.12891
1208.802, 39.11230
1209.884, 39.12891
1210.966, 12.81934
1212.048, 110.7588
1213.130, 57.69238
1214.212, 104.6201
1215.293, 49.55566
1216.374, 11.48242
1217.456, 66.39941
1218.536, 153.6904
1219.617, 20.87402
1220.698, 66.08105
1221.778, 46.66699
1222.859, 167.4072
1223.939, 42.81934
1225.019, 60.91992
1226.099, 139.6592
1227.178, 209.3955
1228.258, 161.1436
1229.337, 133.8906
1230.417, 193.6309
1231.496, 107.3730
1232.574, 176.1113
1233.653, 230.8682
1234.732, 58.62695
1235.810, 277.3799
1236.888, 199.1621
1237.966, 318.9551
1239.044, 233.7539
1240.122, 209.5479
1241.199, 394.3389
1242.277, 351.1289
1243.354, 384.4756
1244.431, 389.1318
1245.508, 391.5049
1246.585, 320.2959
1247.661, 335.1094
1248.738, 315.9219
1249.814, 376.7305
1250.890, 380.5371
1251.966, 355.3428
1253.042, 452.1445
1254.117, 279.9463
1255.193, 460.7441
1256.268, 255.5400
1257.343, 505.3350
1258.418, 524.1279
1259.493, 486.9180
1260.567, 611.7070
1261.642, 616.4941
1262.716, 544.2803
1263.790, 717.0654
1264.864, 584.8496
1265.938, 690.6309
1267.011, 585.4111
1268.085, 786.1904
1269.158, 786.9688
1270.231, 791.7441
1271.304, 801.5195
1272.377, 813.2227
1273.450, 883.0635
1274.522, 866.8320
1275.594, 819.5977
1276.666, 888.3613
1277.738, 838.1201
1278.810, 813.8760
1279.882, 924.6270
1280.953, 924.3740
1282.025, 947.1162
1283.096, 817.8516
1284.167, 931.5830
1285.238, 918.3066
1286.308, 910.0234
1287.379, 1081.733
1288.449, 813.4365
1289.519, 1085.131
1290.589, 851.8174
