##NAMES=Elbaite
##RRUFFID=R050487
##IDEAL CHEMISTRY=Na(Al_1.5_Li_1.5_)Al_6_(Si_6_O_18_)(BO_3_)_3_(OH)_3_OH
##LOCALITY=White Queen mine, Pala, San Diego County, California, USA
##OWNER=RRUFF
##SOURCE=California Institute of Technology
##DESCRIPTION=Mass of blue acicular crystals
##STATUS=The identification of this mineral has been confirmed by X-ray diffraction and chemical analysis
##URL=rruff.info/R050487
##MEASURED CHEMISTRY=(Na_0.86_[box]_0.13_Ca_0.01_)(Al_0.42_Li_0.38_Fe^2+^_0.18_Mn_0.02_)_3_Al_6_(BO_3_)_3_Si_6_O_18_((OH)_0.85_F_0.15_)_4_
##PIN_ID=M00967
##ORIENTATION=Laser parallel to -a* (-1 0 0). Fiducial mark perpendicular to laser is parallel to c [0 0 1]
187.9850, 0.0000000E+00
189.2130, 166.4712
190.4400, 3.559082
191.6680, 159.0142
192.8960, 2.647949
194.1230, 65.31396
195.3500, 116.6074
196.5770, 124.7549
197.8030, 134.7559
199.0300, 248.6270
200.2560, 230.7466
201.4830, 301.8472
202.7090, 339.6934
203.9340, 524.4077
205.1600, 588.9653
206.3860, 745.7153
207.6110, 1146.255
208.8360, 1310.343
210.0610, 1714.844
211.2860, 2265.908
212.5100, 2478.068
213.7350, 2972.257
214.9590, 3431.447
216.1830, 3848.977
217.4070, 4305.030
218.6310, 4494.754
219.8540, 4706.023
221.0780, 4816.105
222.3010, 4621.235
223.5240, 4505.615
224.7470, 4180.419
225.9690, 3859.818
227.1920, 3494.961
228.4140, 3194.980
229.6360, 2854.992
230.8580, 2506.097
232.0800, 2326.383
233.3020, 2110.128
234.5230, 2082.069
235.7440, 1843.713
236.9650, 1866.085
238.1860, 1843.716
239.4070, 1864.159
240.6280, 1879.314
241.8480, 1820.647
243.0680, 1843.363
244.2880, 1839.097
245.5080, 1625.684
246.7280, 1507.105
247.9470, 1325.224
249.1660, 1293.399
250.3860, 1198.265
251.6040, 943.2876
252.8230, 888.9839
254.0420, 836.2051
255.2600, 785.2500
256.4790, 722.2993
257.6970, 689.4160
258.9150, 653.4165
260.1320, 623.4180
261.3500, 613.0088
262.5670, 584.8032
263.7840, 587.2217
265.0010, 629.5576
266.2180, 626.3564
267.4350, 635.3140
268.6510, 687.4219
269.8680, 702.6699
271.0840, 690.0713
272.3000, 687.1665
273.5160, 679.5269
274.7310, 667.4170
275.9470, 637.0645
277.1620, 603.5869
278.3770, 411.5542
279.5920, 379.5884
280.8070, 221.6826
282.0210, 168.8315
283.2360, 158.0308
284.4500, 47.27637
285.6640, 43.43799
286.8780, 63.12695
288.0920, 86.80811
289.3050, 134.4951
290.5180, 125.1934
291.7320, 147.9033
292.9450, 87.62109
294.1570, 138.3457
295.3700, 66.07471
296.5830, 118.8066
297.7950, 124.5396
299.0070, 65.27344
300.2190, 104.0068
301.4310, 31.26221
302.6420, 1.534180
303.8540, 109.8091
305.0650, 212.0874
306.2760, 110.3677
307.4870, 269.6377
308.6980, 389.8745
309.9080, 403.0156
311.1190, 440.9487
312.3290, 493.6152
313.5390, 633.0190
314.7490, 614.1968
315.9580, 776.1577
317.1680, 892.9326
318.3770, 985.6221
319.5860, 1161.300
320.7950, 1309.991
322.0040, 1506.732
323.2130, 1612.525
324.4210, 1703.368
325.6290, 1830.249
326.8380, 2032.172
328.0460, 2181.135
329.2530, 2118.136
330.4610, 2242.175
331.6680, 2238.252
332.8760, 2246.366
334.0830, 2207.824
335.2890, 2162.108
336.4960, 2157.746
337.7030, 2149.211
338.9090, 2136.150
340.1150, 2104.825
341.3210, 2097.175
342.5270, 2080.038
343.7330, 2073.115
344.9380, 2063.578
346.1440, 2049.403
347.3490, 2016.880
348.5540, 2030.630
349.7590, 2031.767
350.9630, 2046.833
352.1680, 2074.828
353.3720, 2155.754
354.5760, 2359.609
355.7800, 2500.398
356.9840, 2789.664
358.1870, 3070.775
359.3910, 3477.335
360.5940, 3909.781
361.7970, 4375.098
363.0000, 4984.288
364.2030, 5880.359
365.4050, 6464.325
366.6080, 7195.193
367.8100, 7920.972
369.0120, 8686.667
370.2140, 8992.291
371.4150, 8794.843
372.6170, 8679.332
373.8180, 8284.761
375.0190, 7661.137
376.2200, 7137.461
377.4210, 6403.739
378.6220, 5739.968
379.8220, 5024.131
381.0230, 4438.201
382.2230, 3966.059
383.4230, 3668.608
384.6220, 3252.790
385.8220, 3096.642
387.0220, 2824.207
388.2210, 2688.503
389.4200, 2445.575
390.6190, 2426.596
391.8180, 2213.623
393.0160, 2133.680
394.2150, 2004.775
395.4130, 1932.911
396.6110, 1903.102
397.8090, 1995.289
399.0060, 1890.530
400.2040, 1949.811
401.4010, 1976.117
402.5980, 2005.445
403.7950, 2019.593
404.9920, 2010.408
406.1890, 1995.552
407.3860, 1934.960
408.5820, 1854.388
409.7780, 1729.832
410.9740, 1649.931
412.1700, 1463.773
413.3650, 1397.364
414.5610, 1280.875
415.7560, 1052.400
416.9510, 938.9404
418.1460, 897.4941
419.3410, 778.0610
420.5360, 770.6416
421.7300, 587.2354
422.9240, 424.4639
424.1180, 517.5859
425.3120, 474.8208
426.5060, 325.4297
427.7000, 410.9575
428.8930, 362.4087
430.0860, 300.6431
431.2790, 256.7520
432.4720, 230.7065
433.6650, 251.3281
434.8580, 207.8657
436.0500, 241.0864
437.2420, 271.1982
438.4340, 244.3032
439.6260, 226.9819
440.8180, 286.4580
442.0090, 326.6816
443.2010, 282.7305
444.3920, 246.4546
445.5830, 223.3667
446.7740, 393.9243
447.9640, 425.7505
449.1550, 425.6929
450.3450, 384.5903
451.5350, 388.8838
452.7250, 379.4087
453.9150, 327.3013
455.1050, 306.2705
456.2940, 345.0215
457.4830, 320.6802
458.6720, 323.5488
459.8610, 321.5371
461.0500, 314.9609
462.2390, 290.0835
463.4270, 289.3716
464.6150, 278.7251
465.8040, 267.7026
466.9910, 239.3701
468.1790, 225.5674
469.3670, 202.1846
470.5540, 192.0254
471.7410, 229.2852
472.9280, 246.5654
474.1150, 323.8657
475.3020, 285.1865
476.4890, 237.5278
477.6750, 285.8672
478.8610, 239.2075
480.0470, 359.5503
481.2330, 441.8911
482.4190, 443.2319
483.6040, 508.5708
484.7900, 557.9082
485.9750, 569.2441
487.1600, 705.5776
488.3450, 695.9097
489.5290, 670.2407
490.7140, 823.5708
491.8980, 810.8994
493.0820, 884.2271
494.2660, 964.3887
495.4500, 955.4658
496.6340, 1047.209
497.8170, 991.5366
499.0010, 906.8647
500.1840, 943.1938
501.3670, 968.5244
502.5500, 863.8560
503.7320, 850.1890
504.9150, 946.5254
506.0970, 786.8647
507.2790, 833.2070
508.4610, 873.5542
509.6430, 841.9053
510.8250, 735.2637
512.0060, 758.6279
513.1870, 726.0010
514.3680, 614.3813
515.5490, 605.7700
516.7300, 524.1694
517.9110, 463.5869
519.0910, 482.0278
520.2710, 460.5103
521.4510, 346.0024
522.6310, 334.5171
523.8110, 308.0444
524.9910, 294.5981
526.1700, 297.1909
527.3490, 276.0117
528.5280, 278.1128
529.7070, 305.7998
530.8860, 361.0732
532.0650, 299.8926
533.2430, 328.7861
534.4210, 210.9199
535.5990, 295.1782
536.7770, 332.2725
537.9550, 224.9307
539.1320, 208.5054
540.3100, 183.4834
541.4870, 222.0625
542.6640, 169.8877
543.8410, 140.2808
545.0170, 107.3223
546.1940, 119.3765
547.3700, 64.44238
548.5470, 96.52051
549.7230, 80.60986
550.8980, 68.71045
552.0740, 29.82275
553.2500, 61.94629
554.4250, 8.918457
555.6000, 80.22559
556.7750, 26.38086
557.9500, 77.54688
559.1250, 86.70947
560.2990, 149.9102
561.4730, 78.10791
562.6480, 70.31592
563.8220, 10.53369
564.9950, 70.76318
566.1690, 6.995117
567.3430, 70.26123
568.5160, 89.53613
569.6890, 22.16992
570.8620, 103.1499
572.0350, 73.52002
573.2070, 14.94531
574.3800, 65.43066
575.5520, 26.98975
576.7240, 50.61816
577.8960, 27.32178
579.0680, 5.915527
580.2400, 55.91748
581.4110, 15.80273
582.5830, 67.75342
583.7540, 82.77100
584.9250, 100.8394
586.0950, 41.96729
587.2660, 91.12012
588.4370, 60.30469
589.6070, 90.50586
590.7770, 64.71875
591.9470, 11.94678
593.1170, 35.81592
594.2860, 44.26367
595.4560, 30.65625
596.6250, 65.10254
597.7940, 2.127930
598.9630, 3.636230
600.1320, 120.6055
601.3000, 45.85254
602.4690, 48.10547
603.6370, 25.63623
604.8050, 44.62402
605.9730, 52.89014
607.1410, 107.1743
608.3090, 82.46436
609.4760, 47.75879
610.6430, 71.05762
611.8100, 93.36279
612.9770, 63.67285
614.1440, 76.98730
615.3110, 160.3071
616.4770, 254.6313
617.6430, 282.9607
618.8090, 314.2935
619.9750, 456.6311
621.1410, 522.9717
622.3070, 669.3167
623.4720, 863.6643
624.6370, 1071.022
625.8020, 1279.383
626.9670, 1431.747
628.1320, 1554.114
629.2970, 1548.484
630.4610, 1616.866
631.6250, 1605.256
632.7890, 1468.649
633.9530, 1424.044
635.1170, 1242.442
636.2810, 1166.842
637.4440, 1078.245
638.6070, 1004.650
639.7700, 916.6873
640.9330, 843.4658
642.0960, 784.3965
643.2590, 728.2876
644.4210, 684.7705
645.5830, 643.1152
646.7450, 615.5315
647.9070, 547.9487
649.0690, 559.4697
650.2310, 462.2920
651.3920, 517.1104
652.5530, 407.0854
653.7140, 432.8782
654.8750, 430.8455
656.0360, 475.4299
657.1970, 392.1282
658.3570, 393.4595
659.5170, 260.9888
660.6770, 223.9868
661.8370, 114.8030
662.9970, 107.2266
664.1570, 74.79614
665.3160, 63.75366
666.4750, 16.83008
667.6340, 2.640869
668.7930, 96.67480
669.9520, 20.45288
671.1110, 124.3616
672.2690, 60.63403
673.4270, 123.8247
674.5850, 59.55005
675.7430, 55.64941
676.9010, 45.85278
678.0590, 27.58911
679.2160, 32.64062
680.3730, 57.44092
681.5300, 5.726318
682.6870, 31.70898
683.8440, 147.7498
685.0010, 150.5767
686.1570, 243.3938
687.3130, 363.2021
688.4690, 506.0015
689.6250, 716.7917
690.7810, 946.5723
691.9370, 1226.346
693.0920, 1586.106
694.2470, 1905.761
695.4020, 2326.504
696.5570, 2767.236
697.7120, 3168.958
698.8670, 3535.671
700.0210, 3744.372
701.1750, 4108.063
702.3290, 4159.746
703.4830, 4215.416
704.6370, 4140.074
705.7910, 3861.647
706.9440, 3651.284
708.0970, 3471.910
709.2510, 2963.224
710.4030, 2728.828
711.5560, 2250.420
712.7090, 1992.999
713.8610, 1687.566
715.0140, 1375.120
716.1660, 1176.661
717.3180, 944.1584
718.4690, 753.6326
719.6210, 625.1318
720.7730, 539.6160
721.9240, 487.0854
723.0750, 416.5396
724.2260, 350.9778
725.3770, 396.4001
726.5270, 417.8066
727.6780, 374.1968
728.8280, 406.5701
729.9780, 424.9268
731.1280, 528.2668
732.2780, 565.8906
733.4280, 596.2141
734.5770, 661.5037
735.7260, 806.0122
736.8760, 910.2578
738.0250, 1208.443
739.1730, 1389.665
740.3220, 1570.868
741.4700, 1977.209
742.6190, 2364.117
743.7670, 2849.499
744.9150, 3388.633
746.0630, 3913.948
747.2100, 4364.107
748.3580, 4878.248
749.5050, 5099.659
750.6520, 5282.973
751.7990, 5188.137
752.9460, 5000.522
754.0930, 4601.832
755.2390, 4347.097
756.3860, 3780.214
757.5320, 3328.484
758.6780, 3042.507
759.8240, 2817.632
760.9690, 2400.512
762.1150, 2054.992
763.2600, 1995.895
764.4060, 1883.719
765.5510, 1588.815
766.6950, 1509.726
767.8400, 1328.604
768.9850, 1299.561
770.1290, 1202.290
771.2730, 1212.180
772.4170, 1140.094
773.5610, 1099.935
774.7050, 1009.686
775.8480, 948.5808
776.9920, 769.1941
778.1350, 695.7881
779.2780, 672.3625
780.4210, 469.1997
781.5640, 429.7341
782.7060, 352.3201
783.8490, 298.1045
784.9910, 242.5798
786.1330, 159.0352
787.2750, 87.46948
788.4170, 88.88037
789.5580, 61.26782
790.7000, 95.63037
791.8410, 62.96899
792.9820, 37.28271
794.1230, 11.56519
795.2640, 15.19360
796.4040, 82.00757
797.5450, 61.08789
798.6850, 6.841797
799.8250, 43.17700
800.9650, 18.83350
802.1050, 56.90161
803.2450, 11.04639
804.3840, 118.4458
805.5230, 5.176514
806.6630, 33.51514
807.8020, 48.46582
808.9400, 19.00806
810.0790, 83.60303
811.2170, 32.49048
812.3560, 2.475098
813.4940, 46.40747
814.6320, 8.121582
815.7700, 5.276611
816.9070, 75.90942
818.0450, 67.48828
819.1820, 106.8154
820.3190, 89.57031
821.4560, 138.1599
822.5930, 164.7546
823.7300, 247.8218
824.8670, 296.8718
826.0030, 401.9058
827.1390, 434.9231
828.2750, 599.9236
829.4110, 644.9080
830.5470, 820.8755
831.6820, 788.8276
832.8180, 932.7634
833.9530, 925.6826
835.0880, 1072.586
836.2230, 1102.472
837.3580, 1228.343
838.4920, 1144.197
839.6270, 1156.035
840.7610, 1181.857
841.8950, 1062.663
843.0290, 1101.453
844.1630, 1032.227
845.2960, 955.9851
846.4300, 897.7290
847.5630, 870.6194
848.6960, 893.1692
849.8290, 833.8657
850.9620, 814.5464
852.0940, 788.2112
853.2270, 777.8604
854.3590, 800.4941
855.4910, 782.2266
856.6230, 807.6150
857.7550, 785.3037
858.8870, 842.8760
860.0180, 863.4331
861.1500, 863.9749
862.2810, 882.5015
863.4120, 716.0132
864.5430, 617.5100
865.6730, 576.9919
866.8040, 548.4585
867.9340, 429.9104
869.0640, 403.3511
870.1940, 212.7822
871.3240, 240.1987
872.4540, 165.6091
873.5830, 149.0051
874.7130, 139.3877
875.8420, 116.7556
876.9710, 69.10962
878.1000, 54.44800
879.2290, 49.51367
880.3570, 39.91650
881.4860, 55.35205
882.6140, 87.62842
883.7420, 86.89062
884.8700, 17.14038
885.9980, 35.40259
887.1250, 65.64868
888.2530, 7.883545
889.3800, 21.11230
890.5070, 26.34546
891.6340, 56.56323
892.7610, 14.78955
893.8880, 69.00806
895.0140, 39.21240
896.1400, 99.40527
897.2670, 22.41431
898.3930, 76.73779
899.5180, 98.87671
900.6440, 20.01050
901.7700, 59.14111
902.8950, 31.72925
904.0200, 17.61230
905.1450, 98.48047
906.2700, 42.56982
907.3950, 31.64868
908.5190, 43.71362
909.6440, 59.76538
910.7680, 19.80420
911.8920, 102.8291
913.0160, 104.8428
914.1400, 96.84424
915.2630, 11.83496
916.3870, 123.8113
917.5100, 60.77637
918.6330, 7.729736
919.7560, 90.66943
920.8790, 155.5981
922.0010, 108.4128
923.1240, 80.91553
924.2460, 74.41211
925.3680, 168.7415
926.4900, 170.2427
927.6120, 184.5588
928.7340, 217.2471
929.8550, 234.8115
930.9760, 260.7324
932.0980, 313.4458
933.2190, 269.6895
934.3390, 279.1172
935.4600, 324.9485
936.5810, 353.6416
937.7010, 340.9360
938.8210, 410.1130
939.9410, 379.5435
941.0610, 430.0872
942.1810, 368.0623
943.3010, 408.1492
944.4200, 381.5786
945.5390, 434.9023
946.6580, 493.7231
947.7770, 468.8872
948.8960, 351.1245
950.0150, 492.8657
951.1330, 476.8989
952.2510, 461.6553
953.3690, 581.4111
954.4870, 647.3362
955.6050, 572.1890
956.7230, 545.2437
957.8400, 584.2961
958.9580, 637.3452
960.0750, 625.3916
961.1920, 654.4346
962.3090, 689.4741
963.4250, 719.5112
964.5420, 719.5464
965.6580, 683.5762
966.7740, 714.6045
967.8900, 744.6299
969.0060, 752.6531
970.1220, 677.6733
971.2380, 614.6907
972.3530, 791.7061
973.4680, 619.7188
974.5830, 700.7295
975.6980, 746.7373
976.8130, 703.7434
977.9280, 788.7466
979.0420, 742.7483
980.1560, 705.7478
981.2710, 679.7451
982.3850, 741.7407
983.4980, 715.7344
984.6120, 796.7266
985.7260, 780.7161
986.8390, 858.7048
987.9520, 755.6914
989.0650, 822.6765
990.1780, 740.6602
991.2910, 712.6426
992.4030, 726.6235
993.5160, 792.6025
994.6280, 740.5808
995.7400, 813.5576
996.8520, 665.3251
997.9640, 869.6545
999.0750, 987.8105
1000.187, 1024.436
1001.298, 735.3074
1002.409, 866.8146
1003.520, 829.7502
1004.631, 785.7729
1005.741, 976.4764
1006.852, 734.7267
1007.962, 921.7081
1009.072, 937.5456
1010.182, 941.1865
1011.292, 977.9971
1012.402, 1034.792
1013.511, 1061.526
1014.621, 1040.491
1015.730, 1171.610
1016.839, 1193.513
1017.948, 1359.733
1019.056, 1283.557
1020.165, 1368.079
1021.273, 1431.994
1022.382, 1476.360
1023.490, 1488.380
1024.598, 1503.015
1025.706, 1497.213
1026.813, 1616.373
1027.921, 1610.225
1029.028, 1764.462
1030.135, 1737.455
1031.242, 1920.792
1032.349, 1894.687
1033.456, 2090.208
1034.562, 2106.446
1035.668, 2226.109
1036.775, 2392.299
1037.881, 2686.042
1038.987, 2930.970
1040.092, 3165.246
1041.198, 3602.971
1042.303, 3821.749
1043.408, 4182.596
1044.514, 4582.280
1045.618, 4928.223
1046.723, 5305.636
1047.828, 5632.110
1048.932, 6000.772
1050.037, 6265.714
1051.141, 6519.585
1052.245, 6922.237
1053.349, 6859.179
1054.452, 7037.118
1055.556, 7094.061
1056.659, 6948.003
1057.762, 6906.946
1058.865, 6629.894
1059.968, 6465.841
1061.071, 5946.792
1062.174, 5616.748
1063.276, 5286.714
1064.378, 4891.924
1065.480, 4577.396
1066.582, 4219.911
1067.684, 3889.792
1068.786, 3656.138
1069.887, 3278.197
1070.988, 3133.968
1072.090, 2873.070
1073.191, 2770.217
1074.291, 2576.660
1075.392, 2398.842
1076.493, 2425.877
1077.593, 2267.228
1078.693, 2297.568
1079.793, 2183.827
1080.893, 2111.094
1081.993, 2136.378
1083.092, 2125.668
1084.192, 1977.964
1085.291, 1985.260
1086.390, 1859.555
1087.489, 1670.848
1088.588, 1568.140
1089.686, 1455.139
1090.785, 1334.717
1091.883, 1272.002
1092.981, 1149.286
1094.079, 1059.566
1095.177, 977.8459
1096.275, 899.3237
1097.373, 788.3972
1098.470, 784.6697
1099.567, 705.9399
1100.664, 672.2085
1101.761, 676.4746
1102.858, 649.7385
1103.954, 555.0010
1105.051, 588.2610
1106.147, 478.5188
1107.243, 610.7742
1108.339, 501.0283
1109.435, 515.2798
1110.531, 549.5295
1111.626, 558.7771
1112.722, 507.0229
1113.817, 597.2661
1114.912, 512.5078
1116.007, 420.7473
1117.101, 490.9849
1118.196, 339.2205
1119.290, 324.4543
1120.385, 349.6868
1121.479, 283.9172
1122.573, 341.1458
1123.666, 251.3728
1124.760, 225.5977
1125.853, 110.8213
1126.947, 191.0427
1128.040, 246.2627
1129.133, 195.4810
1130.226, 175.6975
1131.318, 153.9126
1132.411, 159.1260
1133.503, 143.5974
1134.596, 118.9075
1135.688, 116.7559
1136.780, 74.96289
1137.871, 24.16797
1138.963, 22.37134
1140.054, 10.57349
1141.146, 18.77393
1142.237, 62.97266
1143.328, 4.170654
1144.419, 16.36646
1145.509, 27.56226
1146.600, 83.23047
1147.690, 29.92993
1148.780, 1.911133
1149.870, 102.7576
1150.960, 35.33911
1152.050, 6.564697
1153.139, 33.47607
1154.229, 71.40845
1155.318, 9.618408
1156.407, 82.35474
1157.496, 23.37573
1158.585, 97.58765
1159.674, 4.449707
1160.762, 5.506592
1161.850, 68.46021
1162.939, 59.42065
1164.027, 21.61987
1165.114, 37.67676
1166.202, 41.75708
1167.290, 65.91553
1168.377, 47.00024
1169.464, 28.13086
1170.551, 4.281494
1171.638, 93.56152
1172.725, 47.40454
1173.812, 80.24683
1174.898, 12.08862
1175.984, 120.9307
1177.071, 25.77148
1178.157, 18.61133
1179.242, 97.44995
1180.328, 111.2891
1181.414, 63.12695
1182.499, 31.96460
1183.584, 26.80249
1184.669, 42.63965
1185.754, 124.4756
1186.839, 84.31104
1187.924, 88.14551
1189.008, 66.97925
1190.092, 36.81201
1191.177, 54.64404
1192.260, 27.10229
1193.344, 13.46167
1194.428, 0.1352540
1195.512, 27.03955
1196.595, 46.23291
1197.678, 74.45483
1198.761, 65.95996
1199.844, 25.97607
1200.927, 40.32886
1202.009, 23.34033
1203.092, 47.00830
1204.174, 18.32471
1205.256, 17.32837
1206.338, 91.02026
1207.420, 16.42114
1208.502, 31.83496
1209.583, 5.730713
1210.665, 40.29395
1211.746, 45.85571
1212.827, 42.41577
1213.908, 14.97412
1214.988, 35.53076
1216.069, 58.08594
1217.149, 104.6392
1218.230, 141.1914
1219.310, 158.7417
1220.390, 73.29053
1221.470, 80.83813
1222.549, 21.38403
1223.629, 189.9290
1224.708, 197.4722
1225.787, 164.0142
1226.866, 141.5552
1227.945, 167.0950
1229.024, 146.9487
1230.103, 154.7576
1231.181, 166.7083
1232.259, 181.2441
1233.337, 227.7791
1234.415, 281.3130
1235.493, 299.8462
1236.571, 352.3787
1237.648, 346.9109
1238.726, 349.4421
1239.803, 301.9727
1240.880, 282.5029
1241.957, 319.0347
1243.034, 372.5662
1244.110, 263.0969
1245.187, 391.6277
1246.263, 346.1672
1247.339, 397.7280
1248.415, 306.2888
1249.491, 347.8604
1250.566, 381.4321
1251.642, 339.0078
1252.717, 388.5835
1253.793, 398.1592
1254.868, 356.7354
1255.943, 426.3115
1257.017, 432.8884
1258.092, 418.4658
1259.166, 472.0439
1260.241, 385.6323
1261.315, 389.2214
1262.389, 435.8135
1263.462, 466.4065
1264.536, 503.0002
1265.610, 498.5950
1266.683, 498.1904
1267.756, 528.7869
1268.829, 516.3845
1269.902, 573.9690
1270.975, 559.5691
1272.048, 625.1704
1273.120, 546.7310
1274.192, 579.3350
1275.264, 643.9409
1276.336, 549.1941
1277.408, 530.8035
1278.480, 516.0989
1279.551, 488.1067
1280.623, 500.7224
1281.694, 443.7358
1282.765, 445.0779
1283.836, 449.0356
1284.907, 535.6382
1285.977, 424.9045
1287.048, 376.8721
1288.118, 447.5046
1289.188, 545.6328
1290.258, 444.2336
1291.328, 476.8743
1292.398, 517.5176
1293.467, 617.5972
1294.537, 562.6697
1295.606, 581.4878
1296.675, 556.7925
1297.744, 494.4517
1298.813, 517.1355
1299.882, 517.2952
1300.950, 462.9658
1302.018, 514.6404
1303.086, 541.3186
1304.155, 485.0000
1305.222, 540.6858
1306.290, 626.3750
1307.358, 519.0679
1308.425, 576.7646
1309.492, 655.4646
1310.559, 672.1689
1311.626, 659.8770
1312.693, 655.5884
1313.760, 674.3042
1314.826, 636.0227
1315.893, 550.7446
1316.959, 662.4700
1318.025, 688.1990
1319.091, 674.9314
1320.157, 538.6675
1321.222, 627.4077
1322.288, 586.1523
1323.353, 620.6763
1324.418, 610.5566
1325.483, 498.2402
1326.548, 446.1616
1327.612, 566.6265
1328.677, 424.4023
1329.741, 503.5000
1330.806, 352.2881
1331.870, 366.0828
1332.934, 356.6008
1333.997, 313.4087
1335.061, 257.3926
1336.124, 284.0745
1337.188, 321.8054
1338.251, 390.6414
1339.314, 331.4851
1340.377, 373.3364
1341.439, 293.1956
1342.502, 312.0620
1343.564, 398.9368
1344.627, 287.8193
1345.689, 356.7095
1346.751, 335.6069
1347.813, 327.5127
