##NAMES=Elbaite
##RRUFFID=R060003
##IDEAL CHEMISTRY=Na(Al_1.5_Li_1.5_)Al_6_(Si_6_O_18_)(BO_3_)_3_(OH)_3_OH
##LOCALITY=Mount Begbie, Revelstoke, British Columbia, Canada
##OWNER=RRUFF
##SOURCE=Bob Downs
##DESCRIPTION=Pink crystal associated with trilithionite, R060004
##STATUS=The identification of this mineral has been confirmed by X-ray diffraction and chemical analysis
##URL=rruff.info/R060003
##MEASURED CHEMISTRY=(Na_0.58_[box]_0.42_)(Al_1.69_Li_1.27_Mn_0.04_)Al_6_(BO_3_)_3_[Si_6_O_18_](OH)_4_
##PIN_ID=L00688
##ORIENTATION=Laser parallel to -a* (-1 0 0). Fiducial mark perpendicular to laser is parallel to -c [0 0 -1]
118.1340, 0.0000000E+00
119.3650, 288.1484
120.5960, 11.15820
121.8270, 95.97266
123.0580, 295.5391
124.2880, 19.68164
125.5190, 141.9707
126.7490, 46.63281
127.9790, 155.5625
129.2090, 478.7891
130.4390, 588.4141
131.6680, 932.9277
132.8980, 831.9023
134.1270, 1064.973
135.3560, 1470.838
136.5850, 1593.230
137.8140, 2036.924
139.0430, 2451.709
140.2710, 2953.404
141.5000, 2980.865
142.7280, 2959.986
143.9560, 3122.650
145.1840, 2981.746
146.4120, 2898.174
147.6390, 3067.842
148.8670, 2633.680
150.0940, 2428.609
151.3210, 2423.570
152.5490, 2293.504
153.7750, 1935.365
155.0020, 1839.098
156.2290, 1752.641
157.4550, 1510.918
158.6810, 1423.869
159.9080, 1253.012
161.1340, 1019.699
162.3590, 990.5918
163.5850, 886.1328
164.8110, 867.3281
166.0360, 870.2363
167.2610, 798.7188
168.4860, 812.7012
169.7110, 868.4648
170.9360, 907.0859
172.1610, 1018.451
173.3850, 1197.242
174.6100, 1264.979
175.8340, 1328.955
177.0580, 1252.049
178.2820, 1343.420
179.5050, 1218.158
180.7290, 1111.254
181.9520, 1149.699
183.1760, 1284.486
184.3990, 1039.600
185.6220, 1320.037
186.8450, 1415.791
188.0670, 1194.857
189.2900, 1304.225
190.5120, 1179.889
191.7340, 1295.787
192.9560, 1235.680
194.1780, 1303.545
195.4000, 1407.404
196.6220, 1744.297
197.8430, 1740.268
199.0640, 1954.336
200.2860, 2075.643
201.5070, 2282.457
202.7270, 2181.773
203.9480, 2286.664
205.1690, 2254.074
206.3890, 2051.918
207.6090, 2367.914
208.8290, 2420.342
210.0490, 2600.307
211.2690, 3010.500
212.4890, 3192.756
213.7080, 3603.287
214.9280, 3733.758
216.1470, 4099.488
217.3660, 4232.338
218.5850, 4452.340
219.8030, 4398.465
221.0220, 4265.723
222.2400, 4137.115
223.4590, 3671.646
224.6770, 3469.316
225.8950, 3191.129
227.1120, 3097.074
228.3300, 2764.160
229.5480, 2445.385
230.7650, 2382.535
231.9820, 2069.244
233.1990, 2214.879
234.4160, 1962.654
235.6330, 1948.562
236.8490, 2153.607
238.0660, 2028.783
239.2820, 2038.090
240.4980, 2040.529
241.7140, 2152.102
242.9300, 2102.799
244.1460, 1997.627
245.3610, 1832.584
246.5770, 1746.777
247.7920, 1550.877
249.0070, 1476.213
250.2220, 1430.676
251.4370, 1254.264
252.6510, 1378.982
253.8660, 1177.824
255.0800, 1246.797
256.2940, 1079.895
257.5080, 1344.115
258.7220, 1365.934
259.9360, 1351.014
261.1490, 1552.525
262.3630, 1481.242
263.5760, 1415.082
264.7890, 1731.156
266.0020, 1637.273
267.2150, 1879.410
268.4270, 2033.008
269.6400, 1926.488
270.8520, 2000.389
272.0640, 2006.760
273.2760, 2144.385
274.4880, 2027.520
275.7000, 2179.996
276.9120, 2361.793
278.1230, 2325.896
279.3340, 2448.287
280.5450, 2691.781
281.7560, 2552.508
282.9670, 2646.918
284.1780, 2462.930
285.3880, 1969.814
286.5980, 1844.275
287.8090, 1880.211
289.0190, 1504.898
290.2290, 1357.201
291.4380, 1045.305
292.6480, 917.5215
293.8570, 663.0801
295.0670, 335.2402
296.2760, 362.5605
297.4850, 125.0410
298.6930, 19.32812
299.9020, 147.4512
301.1110, 41.62500
302.3190, 46.56055
303.5270, 26.63477
304.7350, 134.0293
305.9430, 39.42383
307.1510, 64.00781
308.3580, 52.28320
309.5660, 45.45312
310.7730, 63.49609
311.9800, 33.56055
313.1870, 298.7422
314.3940, 267.0371
315.6010, 303.4570
316.8070, 564.9883
318.0130, 584.6270
319.2200, 842.3789
320.4260, 1246.234
321.6310, 1273.191
322.8370, 1389.291
324.0430, 1764.518
325.2480, 2013.924
326.4540, 1956.432
327.6590, 2154.035
328.8640, 1913.732
330.0680, 2230.527
331.2730, 2036.416
332.4780, 1933.396
333.6820, 1880.463
334.8860, 1649.617
336.0900, 1638.863
337.2940, 1435.191
338.4980, 1248.605
339.7010, 1182.105
340.9050, 1145.691
342.1080, 1193.361
343.3110, 1084.117
344.5140, 1015.955
345.7170, 1144.879
346.9200, 1118.885
348.1220, 1088.971
349.3240, 1284.133
350.5270, 1495.371
351.7290, 1384.678
352.9310, 1942.062
354.1320, 1958.514
355.3340, 2109.033
356.5350, 2663.617
357.7370, 3219.256
358.9380, 3572.957
360.1390, 3948.723
361.3400, 4755.559
362.5400, 5307.465
363.7410, 6130.439
364.9410, 6938.482
366.1410, 7628.594
367.3410, 8127.771
368.5410, 8861.016
369.7410, 9171.328
370.9400, 9208.705
372.1400, 9428.152
373.3390, 9081.668
374.5380, 8698.250
375.7370, 8369.922
376.9360, 7484.664
378.1350, 6958.500
379.3330, 6290.420
380.5310, 5586.422
381.7300, 4958.516
382.9280, 4590.732
384.1260, 4107.098
385.3230, 3742.365
386.5210, 3376.053
387.7180, 3233.617
388.9160, 3015.238
390.1130, 3052.918
391.3100, 3054.664
392.5060, 2905.471
393.7030, 2698.354
394.9000, 3003.303
396.0960, 3171.328
397.2920, 3085.416
398.4880, 2937.564
399.6840, 3369.766
400.8800, 3195.080
402.0750, 3423.449
403.2710, 3395.898
404.4660, 3465.402
405.6610, 3378.002
406.8560, 3405.670
408.0510, 3223.387
409.2450, 3199.180
410.4400, 2833.061
411.6340, 2591.037
412.8280, 2041.096
414.0220, 1986.244
415.2160, 1529.482
416.4100, 1151.805
417.6030, 938.2051
418.7970, 630.6855
419.9900, 303.2402
421.1830, 181.8711
422.3760, 84.57422
423.5690, 139.6523
424.7610, 89.86328
425.9540, 378.0410
427.1460, 263.3008
428.3380, 232.5996
429.5300, 400.9258
430.7220, 285.3457
431.9140, 354.8184
433.1050, 219.3730
434.2970, 412.9531
435.4880, 207.6406
436.6790, 145.3555
437.8700, 73.92969
439.0610, 52.27344
440.2510, 256.7578
441.4420, 398.1367
442.6320, 627.4531
443.8220, 759.0254
445.0120, 1025.178
446.2020, 1136.301
447.3910, 1328.557
448.5810, 1478.324
449.7700, 1621.188
450.9600, 1695.084
452.1490, 1735.352
453.3370, 1718.777
454.5260, 1605.828
455.7150, 1598.926
456.9030, 1471.074
458.0910, 1449.072
459.2800, 1479.340
460.4670, 1421.633
461.6550, 1262.230
462.8430, 1371.613
464.0300, 1551.045
465.2180, 1622.434
466.4050, 2081.834
467.5920, 2480.309
468.7790, 2930.078
469.9650, 4111.725
471.1520, 4684.412
472.3380, 4882.668
473.5250, 5100.750
474.7110, 4902.555
475.8970, 4827.398
477.0820, 4609.279
478.2680, 4398.379
479.4540, 3953.334
480.6390, 3966.326
481.8240, 3404.355
483.0090, 3189.416
484.1940, 2579.516
485.3780, 2311.648
486.5630, 1970.816
487.7470, 2042.020
488.9320, 1884.254
490.1160, 1712.520
491.3000, 2390.820
492.4830, 2837.156
493.6670, 2760.520
494.8500, 3633.918
496.0340, 4538.344
497.2170, 5445.805
498.4000, 6769.289
499.5820, 7965.809
500.7650, 8205.363
501.9480, 9360.941
503.1300, 9507.547
504.3120, 9728.188
505.4940, 9807.852
506.6760, 9790.547
507.8580, 9582.270
509.0390, 9575.016
510.2210, 8951.793
511.4020, 8534.594
512.5830, 7738.422
513.7640, 7378.273
514.9450, 6734.023
516.1250, 6107.930
517.3060, 5234.141
518.4860, 4864.203
519.6660, 4530.656
520.8460, 3651.629
522.0260, 3645.227
523.2060, 3099.172
524.3850, 3048.859
525.5650, 2734.363
526.7440, 2756.586
527.9230, 2778.707
529.1020, 2551.844
530.2810, 2546.996
531.4590, 2812.484
532.6380, 2959.750
533.8160, 2902.281
534.9940, 2915.160
536.1720, 2890.230
537.3500, 2820.789
538.5270, 2935.422
539.7050, 2947.445
540.8820, 2813.707
542.0590, 2559.805
543.2360, 2549.789
544.4130, 2425.309
545.5900, 2386.340
546.7660, 2307.004
547.9430, 2148.227
549.1190, 1986.551
550.2950, 1775.934
551.4710, 1575.285
552.6470, 1470.680
553.8220, 1700.129
554.9980, 1305.633
556.1730, 1525.145
557.3480, 1249.703
558.5230, 980.2695
559.6980, 897.9062
560.8730, 1008.559
562.0470, 942.2266
563.2220, 819.9023
564.3960, 1112.594
565.5700, 973.4609
566.7440, 1126.387
567.9170, 802.8984
569.0910, 955.1133
570.2640, 774.6914
571.4380, 786.9102
572.6110, 892.8750
573.7840, 777.2812
574.9570, 874.2695
576.1290, 618.6367
577.3020, 687.0859
578.4740, 610.3672
579.6460, 591.2148
580.8180, 531.0664
581.9900, 516.2930
583.1620, 519.7617
584.3330, 506.6094
585.5040, 446.1914
586.6760, 321.3086
587.8470, 335.1523
589.0180, 248.0000
590.1880, 246.7852
591.3590, 220.7031
592.5290, 227.5469
593.7000, 117.3945
594.8700, 231.2344
596.0400, 132.0703
597.2090, 110.9023
598.3790, 7.277344
599.5490, 77.50781
600.7180, 168.2891
601.8870, 26.05469
603.0560, 175.8008
604.2250, 91.54297
605.3940, 110.7266
606.5620, 58.09375
607.7300, 273.5156
608.8990, 33.88281
610.0670, 132.2617
611.2350, 221.6250
612.4020, 25.98047
613.5700, 69.30469
614.7370, 135.6133
615.9050, 307.9062
617.0720, 126.1953
618.2390, 39.46484
619.4060, 250.7070
620.5720, 452.9375
621.7390, 484.1602
622.9050, 342.4102
624.0710, 500.6641
625.2370, 568.9141
626.4030, 553.1484
627.5690, 724.3672
628.7340, 718.5703
629.9000, 963.7656
631.0650, 949.9414
632.2300, 1149.121
633.3950, 969.3008
634.5600, 1024.492
635.7240, 1195.695
636.8890, 1452.906
638.0530, 1564.129
639.2170, 1411.336
640.3810, 1067.531
641.5450, 1541.707
642.7080, 1307.871
643.8720, 919.0156
645.0350, 1051.137
646.1980, 858.2461
647.3610, 931.3281
648.5240, 639.3945
649.6870, 537.4414
650.8490, 411.4648
652.0120, 585.4727
653.1740, 148.4492
654.3360, 46.78516
655.4980, 229.7422
656.6600, 33.04688
657.8210, 76.76562
658.9830, 34.46875
660.1440, 9.792969
661.3050, 2.765625
662.4660, 23.23047
663.6270, 161.5625
664.7870, 269.2656
665.9480, 6.847656
667.1080, 204.8594
668.2680, 210.8438
669.4280, 215.7969
670.5880, 129.7188
671.7480, 56.60938
672.9070, 131.4492
674.0670, 1.250000
675.2260, 66.97656
676.3850, 8.343750
677.5440, 85.25391
678.7030, 72.80469
679.8610, 206.3047
681.0200, 142.2266
682.1780, 120.0938
683.3360, 20.63281
684.4940, 121.5547
685.6520, 86.01172
686.8090, 18.52344
687.9670, 279.4922
689.1240, 175.0938
690.2810, 508.1055
691.4380, 374.2773
692.5950, 687.7852
693.7520, 907.6953
694.9080, 759.7773
696.0650, 1394.305
697.2210, 1669.484
698.3770, 2060.113
699.5330, 2555.676
700.6880, 2946.918
701.8440, 3411.133
702.9990, 3797.227
704.1550, 4153.555
705.3100, 4519.887
706.4650, 4786.430
707.6190, 5062.352
708.7740, 5174.734
709.9290, 5178.359
711.0830, 5190.160
712.2370, 4898.641
713.3910, 4816.211
714.5450, 4439.102
715.6980, 4161.410
716.8520, 3998.609
718.0050, 3852.469
719.1580, 3186.953
720.3110, 3030.395
721.4640, 2698.789
722.6170, 2684.137
723.7700, 2448.441
724.9220, 2505.695
726.0740, 2414.902
727.2260, 2235.062
728.3780, 2220.273
729.5300, 2368.492
730.6810, 2316.512
731.8330, 2382.484
732.9840, 2581.406
734.1350, 2642.285
735.2860, 2704.117
736.4370, 3154.895
737.5880, 3245.828
738.7380, 3590.492
739.8880, 3875.344
741.0390, 4742.680
742.1890, 4732.219
743.3380, 5503.711
744.4880, 5634.238
745.6380, 5949.246
746.7870, 6049.680
747.9360, 6347.078
749.0850, 6247.332
750.2340, 6177.539
751.3830, 6018.543
752.5310, 5925.160
753.6800, 5622.086
754.8280, 5727.105
755.9760, 5603.387
757.1240, 5589.738
758.2720, 5182.613
759.4190, 5127.281
760.5670, 4498.676
761.7140, 4782.598
762.8610, 4104.297
764.0080, 4073.590
765.1550, 3568.832
766.3020, 3492.059
767.4480, 3098.539
768.5950, 2724.672
769.7410, 2531.777
770.8870, 2570.719
772.0330, 2401.836
773.1780, 2593.605
774.3240, 2194.465
775.4690, 2181.863
776.6140, 2364.504
777.7590, 1555.906
778.9040, 1293.359
780.0490, 1452.363
781.1940, 1255.281
782.3380, 1112.840
783.4820, 849.4453
784.6260, 933.8789
785.7700, 737.6562
786.9140, 710.9805
788.0580, 509.2617
789.2010, 512.8438
790.3450, 680.3086
791.4880, 360.9414
792.6310, 441.0195
793.7730, 374.3281
794.9160, 258.2969
796.0590, 484.8438
797.2010, 450.6992
798.3430, 336.8242
799.4850, 504.4648
800.6270, 379.5547
801.7690, 588.8711
802.9100, 391.3398
804.0520, 819.0625
805.1930, 1091.855
806.3340, 1143.605
807.4750, 1347.309
808.6160, 1582.641
809.7560, 1740.160
810.8970, 1915.387
812.0370, 1694.234
813.1770, 1817.859
814.3170, 1454.957
815.4570, 1253.949
816.5960, 1055.520
817.7360, 833.1914
818.8750, 630.2422
820.0140, 559.7422
821.1530, 391.6836
822.2920, 300.2852
823.4310, 239.7852
824.5690, 160.9102
825.7070, 100.8828
826.8460, 147.7578
827.9840, 84.37500
829.1220, 122.6328
830.2590, 130.0352
831.3970, 125.4141
832.5340, 94.18750
833.6710, 110.0820
834.8080, 193.6992
835.9450, 21.33984
837.0820, 14.69141
838.2190, 31.19531
839.3550, 94.01562
840.4910, 3.222656
841.6270, 36.53125
842.7630, 40.93750
843.8990, 190.4414
845.0350, 13.87891
846.1700, 192.1367
847.3060, 169.3477
848.4410, 149.5078
849.5760, 337.6211
850.7100, 259.6836
851.8450, 73.70703
852.9800, 193.6719
854.1140, 269.5898
855.2480, 568.4609
856.3820, 413.2891
857.5160, 729.0781
858.6500, 455.8320
859.7830, 568.5352
860.9170, 673.1992
862.0500, 713.8281
863.1830, 761.4062
864.3160, 317.9492
865.4480, 301.4570
866.5810, 381.9141
867.7130, 1029.340
868.8460, 472.7148
869.9780, 454.0586
871.1100, 707.3594
872.2410, 446.6211
873.3730, 450.8438
874.5050, 373.0430
875.6360, 276.2070
876.7670, 645.3281
877.8980, 375.4180
879.0290, 593.4688
880.1590, 438.4844
881.2900, 204.5039
882.4200, 561.5078
883.5500, 257.5586
884.6800, 400.5781
885.8100, 323.5586
886.9400, 225.5000
888.0690, 173.4062
889.1990, 290.2812
890.3280, 358.1172
891.4570, 235.9141
892.5860, 163.6758
893.7140, 318.4062
894.8430, 115.0938
895.9710, 161.2461
897.1000, 27.71484
898.2280, 0.7460940
899.3560, 143.1602
900.4830, 142.8242
901.6110, 133.0898
902.7380, 86.20312
903.8660, 13.47266
904.9930, 23.51562
906.1200, 55.84375
907.2460, 108.0586
908.3730, 104.0547
909.5000, 75.11328
910.6260, 101.2578
911.7520, 13.50000
912.8780, 26.21484
914.0040, 16.47266
915.1290, 57.86328
916.2550, 60.14453
917.3800, 99.73828
918.5050, 81.50781
919.6300, 102.2500
920.7550, 45.32422
921.8800, 98.85156
923.0040, 95.37500
924.1290, 44.90234
925.2530, 311.4531
926.3770, 209.9688
927.5010, 119.0820
928.6250, 317.5156
929.7480, 418.6406
930.8720, 146.0781
931.9950, 209.5000
933.1180, 720.9180
934.2410, 208.9062
935.3640, 410.3320
936.4860, 537.5508
937.6090, 431.0352
938.7310, 527.6016
939.8530, 397.1914
940.9750, 504.7539
942.0970, 567.3086
943.2180, 608.8750
944.3400, 523.4141
945.4610, 785.9531
946.5820, 605.4727
947.7030, 485.9883
948.8240, 845.4883
949.9450, 816.9844
951.0650, 755.4648
952.1860, 839.9258
953.3060, 928.3594
954.4260, 937.8320
955.5460, 609.2773
956.6650, 710.7344
957.7850, 768.8711
958.9040, 981.8125
960.0230, 611.2383
961.1420, 835.9805
962.2610, 792.2500
963.3800, 862.3047
964.4990, 833.9531
965.6170, 868.5430
966.7350, 923.8984
967.8530, 971.5703
968.9710, 971.3164
970.0890, 1048.559
971.2070, 957.8086
972.3240, 1176.312
973.4410, 1110.793
974.5580, 1376.297
975.6750, 1196.578
976.7920, 1261.793
977.9090, 1185.750
979.0250, 1247.352
980.1410, 1489.480
981.2580, 1575.871
982.3740, 1740.078
983.4890, 1257.113
984.6050, 1309.078
985.7200, 1420.711
986.8360, 1538.941
987.9510, 1350.273
989.0660, 1461.914
990.1810, 1367.871
991.2950, 1385.824
992.4100, 1484.762
993.5240, 1209.688
994.6390, 1442.598
995.7530, 1135.508
996.8660, 1547.426
997.9800, 1387.352
999.0940, 1255.184
1000.207, 1678.949
1001.320, 1559.852
1002.433, 1699.746
1003.546, 1568.629
1004.659, 1465.512
1005.772, 1691.387
1006.884, 1411.250
1007.996, 1338.105
1009.108, 1641.953
1010.220, 1540.578
1011.332, 1245.398
1012.444, 1705.219
1013.555, 1807.301
1014.666, 1507.094
1015.777, 1700.383
1016.888, 1602.156
1017.999, 1831.660
1019.110, 1633.410
1020.220, 1748.145
1021.331, 1842.672
1022.441, 1915.801
1023.551, 2076.414
1024.661, 1973.109
1025.770, 1880.480
1026.880, 2303.660
1027.989, 2121.324
1029.098, 2320.516
1030.207, 2467.547
1031.316, 2447.367
1032.425, 2744.133
1033.533, 2298.086
1034.642, 2732.434
1035.750, 2739.344
1036.858, 2621.945
1037.966, 2893.832
1039.073, 3148.863
1040.181, 3203.836
1041.288, 3340.785
1042.396, 3565.922
1043.503, 3893.801
1044.610, 3935.082
1045.716, 4453.062
1046.823, 4485.223
1047.929, 4624.270
1049.036, 5209.617
1050.142, 5421.090
1051.248, 5555.062
1052.353, 6128.230
1053.459, 6429.012
1054.564, 6505.285
1055.670, 6883.930
1056.775, 6936.633
1057.880, 6897.043
1058.985, 7341.504
1060.089, 7281.031
1061.194, 7125.875
1062.298, 7268.312
1063.402, 6838.746
1064.506, 6788.719
1065.610, 6814.953
1066.713, 6646.367
1067.817, 6532.820
1068.920, 6370.223
1070.023, 6083.574
1071.126, 5851.039
1072.229, 5917.777
1073.332, 5232.145
1074.435, 5215.648
1075.537, 4831.309
1076.639, 4927.645
1077.741, 4688.035
1078.843, 4697.734
1079.945, 4221.152
1081.046, 4177.453
1082.148, 3977.742
1083.249, 4025.062
1084.350, 3556.328
1085.451, 3456.590
1086.551, 3443.840
1087.652, 3330.078
1088.752, 3114.305
1089.853, 3004.523
1090.953, 2826.734
1092.053, 2677.941
1093.152, 2576.570
1094.252, 2258.332
1095.351, 2464.520
1096.451, 2365.742
1097.550, 2514.008
1098.649, 2350.309
1099.748, 1842.609
1100.846, 1894.945
1101.945, 1792.277
1103.043, 1614.668
1104.141, 1848.062
1105.239, 1718.473
1106.337, 1921.039
1107.434, 1655.285
1108.532, 2150.703
1109.629, 2342.137
1110.726, 2085.594
1111.823, 1816.102
1112.920, 1610.617
1114.017, 1339.129
1115.113, 1134.629
1116.210, 1250.129
1117.306, 1075.621
1118.402, 1287.109
1119.498, 1243.590
1120.593, 1209.066
1121.689, 1347.559
1122.784, 1121.070
1123.879, 1204.523
1124.974, 977.9727
1126.069, 1092.406
1127.164, 730.2148
1128.259, 762.8750
1129.353, 395.8242
1130.447, 594.0586
1131.541, 614.0898
1132.635, 514.4766
1133.729, 581.8516
1134.822, 535.2188
1135.916, 429.9180
1137.009, 731.2656
1138.102, 453.6523
1139.195, 737.9805
1140.288, 313.3008
1141.380, 612.2461
1142.473, 966.5508
1143.565, 613.8398
1144.657, 31.12109
1145.749, 636.3906
1146.841, 364.6562
1147.932, 473.9141
1149.024, 294.1602
1150.115, 396.3984
1151.206, 610.6289
1152.297, 53.84766
1153.388, 364.0625
1154.479, 392.2656
1155.569, 389.4609
1156.659, 238.6484
1157.750, 66.82812
1158.839, 265.0000
1159.929, 24.83203
1161.019, 411.3008
1162.108, 8.519531
1163.198, 55.65234
1164.287, 230.8164
1165.376, 56.01562
1166.465, 318.1016
1167.553, 277.2148
1168.642, 181.3242
1169.730, 48.43359
1170.818, 224.5430
1171.906, 52.33594
1172.994, 114.2266
1174.082, 144.8438
1175.170, 129.9258
1176.257, 111.0352
1177.344, 664.1406
1178.431, 376.2461
1179.518, 189.6484
1180.605, 202.3438
1181.691, 35.32812
1182.778, 7.687500
1183.864, 178.2656
1184.950, 252.7734
1186.036, 124.9648
1187.122, 126.2383
1188.207, 191.0195
1189.292, 79.94141
1190.378, 20.53516
1191.463, 0.9570310
1192.548, 237.4375
1193.632, 95.90625
1194.717, 144.3711
1195.801, 322.8320
1196.886, 345.2852
1197.970, 68.26953
1199.054, 127.1250
1200.137, 48.48828
1201.221, 162.1445
1202.305, 13.09766
1203.388, 215.3320
1204.471, 52.44141
1205.554, 103.2617
1206.637, 257.8516
1207.719, 52.04688
1208.802, 11.01172
1209.884, 32.05859
1210.966, 155.1016
1212.048, 123.1406
1213.130, 45.17188
1214.212, 225.1992
1215.293, 487.2188
1216.374, 261.2383
1217.456, 286.2422
1218.536, 247.2500
1219.617, 217.2461
1220.698, 333.2422
1221.778, 445.2344
1222.859, 249.2188
1223.939, 360.1992
1225.019, 83.17578
1226.099, 490.1445
1227.178, 483.1133
1228.258, 65.07812
1229.337, 379.0352
1230.417, 517.9883
1231.496, 362.9336
1232.574, 432.8750
1233.653, 235.8125
1234.732, 317.7500
1235.810, 275.6797
1236.888, 335.6016
1237.966, 143.5195
1239.044, 168.4336
1240.122, 254.3477
1241.199, 286.2500
1242.277, 363.1484
1243.354, 147.0469
1244.431, 340.9375
1245.508, 146.8242
1246.585, 217.7031
1247.661, 176.5820
1248.738, 283.4570
1249.814, 424.3281
1250.890, 8.191406
1251.966, 33.95312
1253.042, 114.8828
1254.117, 286.7148
1255.193, 20.53906
1256.268, 41.63281
1257.343, 56.83594
1258.418, 110.0703
1259.493, 13.36719
1260.567, 29.67969
1261.642, 121.9922
1262.716, 67.66406
1263.790, 104.3320
1264.864, 62.00781
1265.938, 262.6211
1267.011, 20.75391
1268.085, 494.8633
1269.158, 123.4766
1270.231, 12.91016
1271.304, 219.6875
1272.377, 104.2891
1273.450, 421.8945
1274.522, 232.2109
1275.594, 433.8086
1276.666, 143.4102
1277.738, 343.0039
1278.810, 349.6016
1279.882, 405.1992
1280.953, 264.7969
1282.025, 499.2148
1283.096, 236.8164
1284.167, 188.4141
1285.238, 381.0156
1286.308, 59.61328
1287.379, 303.1055
1288.449, 303.7070
1289.519, 397.9414
1290.589, 573.5508
