##NAMES=Elbaite
##RRUFFID=R060631
##IDEAL CHEMISTRY=Na(Al_1.5_Li_1.5_)Al_6_(Si_6_O_18_)(BO_3_)_3_(OH)_3_OH
##LOCALITY=unknown
##OWNER=RRUFF
##SOURCE=Gemological Institute of America
##DESCRIPTION=Pink polished fragment
##STATUS=The identification of this mineral is confirmed by single-crystal X-ray diffraction and chemical analysis.
##URL=rruff.info/R060631
##MEASURED CHEMISTRY=(Na_0.55_Ca_0.34_[box]_0.11_)(Li_1.53_Al_1.30_Mn_0.14_Fe^2+^_0.03_)Al_6.00_(BO_3_)_3_[Si_6.00_O_18_]((OH)_0.82_F_0.18_)_4_
##PIN_ID=L01326
##ORIENTATION=Laser parallel to -c* (0 0 -1). Fiducial mark perpendicular to laser is parallel to b [0 1 0]
113.2080, 0.0000000E+00
114.4400, 399.7246
115.6710, 251.2178
116.9030, 65.29980
118.1340, 234.6455
119.3650, 257.5176
120.5960, 687.6504
121.8270, 948.5225
123.0580, 1010.903
124.2880, 1166.713
125.5190, 1197.119
126.7490, 1545.131
127.9790, 1811.764
129.2090, 2039.954
130.4390, 2241.002
131.6680, 2178.301
132.8980, 2354.836
134.1270, 1890.724
135.3560, 1942.836
136.5850, 1880.043
137.8140, 1703.852
139.0430, 2041.119
140.2710, 2085.084
141.5000, 1890.772
142.7280, 1844.428
143.9560, 2088.612
145.1840, 1600.428
146.4120, 1693.967
147.6390, 1539.502
148.8670, 1455.191
150.0940, 1429.500
151.3210, 1328.745
152.5490, 1302.589
153.7750, 1164.435
155.0020, 1018.773
156.2290, 809.5889
157.4550, 425.8633
158.6810, 261.7158
159.9080, 156.3320
161.1340, 24.01758
162.3590, 226.9316
163.5850, 312.0752
164.8110, 214.4404
166.0360, 91.00391
167.2610, 44.75195
168.4860, 14.69141
169.7110, 81.16895
170.9360, 125.8213
172.1610, 186.2568
173.3850, 235.4678
174.6100, 180.4473
175.8340, 194.1895
177.0580, 58.68848
178.2820, 70.06055
179.5050, 196.9375
180.7290, 108.3223
181.9520, 25.15820
183.1760, 87.62695
184.3990, 504.6797
185.6220, 779.0039
186.8450, 987.5801
188.0670, 1086.371
189.2900, 1294.391
190.5120, 1600.650
191.7340, 1882.145
192.9560, 1923.867
194.1780, 2372.811
195.4000, 2558.967
196.6220, 2656.324
197.8430, 3136.871
199.0640, 3624.607
200.2860, 3952.521
201.5070, 3935.600
202.7270, 3831.820
203.9480, 3617.961
205.1690, 3542.500
206.3890, 3833.510
207.6090, 4362.971
208.8290, 5003.844
210.0490, 5708.879
211.2690, 6745.012
212.4890, 7895.322
213.7080, 9070.775
214.9280, 10143.30
216.1470, 11785.74
217.3660, 13415.01
218.5850, 14462.21
219.8030, 15609.52
221.0220, 17034.96
222.2400, 17042.61
223.4590, 16898.48
224.6770, 16196.58
225.8950, 15127.92
227.1120, 13864.48
228.3300, 12707.29
229.5480, 11697.32
230.7650, 10796.59
231.9820, 10153.08
233.1990, 9778.814
234.4160, 9682.771
235.6330, 9327.949
236.8490, 9139.355
238.0660, 9000.984
239.2820, 9025.838
240.4980, 8717.920
241.7140, 8432.225
242.9300, 8145.758
244.1460, 7574.516
245.3610, 6997.498
246.5770, 6444.705
247.7920, 5748.141
249.0070, 4880.803
250.2220, 4362.688
251.4370, 3846.801
252.6510, 3220.137
253.8660, 2901.699
255.0800, 2538.486
256.2940, 2728.498
257.5080, 2233.854
258.7220, 1905.793
259.9360, 1691.727
261.1490, 1115.105
262.3630, 1042.973
263.5760, 977.1641
264.7890, 1068.584
266.0020, 1049.176
267.2150, 973.9004
268.4270, 1145.711
269.6400, 1175.582
270.8520, 1012.514
272.0640, 1195.490
273.2760, 1085.512
274.4880, 1215.541
275.7000, 1202.518
276.9120, 1058.445
278.1230, 1201.350
279.3340, 1244.262
280.5450, 1274.199
281.7560, 1200.182
282.9670, 1192.199
284.1780, 1088.160
285.3880, 1136.209
286.5980, 971.2617
287.8090, 838.1465
289.0190, 606.6309
290.2290, 155.6680
291.4380, 143.5039
292.6480, 55.71094
293.8570, 237.7949
295.0670, 300.7129
296.2760, 401.4766
297.4850, 509.1074
298.6930, 294.6152
299.9020, 290.9766
301.1110, 95.18750
302.3190, 123.7734
303.5270, 417.9102
304.7350, 480.2207
305.9430, 859.0215
307.1510, 1254.807
308.3580, 1445.609
309.5660, 1636.574
310.7730, 1862.699
311.9800, 1927.990
313.1870, 2099.188
314.3940, 2342.512
315.6010, 2451.969
316.8070, 2680.350
318.0130, 2868.723
319.2200, 3345.748
320.4260, 3724.533
321.6310, 4460.055
322.8370, 5873.672
324.0430, 5631.629
325.2480, 6239.660
326.4540, 7004.996
327.6590, 6323.168
328.8640, 6317.945
330.0680, 6180.928
331.2730, 6084.100
332.4780, 5969.518
333.6820, 5846.160
334.8860, 5676.041
336.0900, 5366.100
337.2940, 5179.328
338.4980, 4899.723
339.7010, 4840.318
340.9050, 4738.090
342.1080, 4634.031
343.3110, 4610.125
344.5140, 4539.371
345.7170, 4541.229
346.9200, 4621.314
348.1220, 4575.014
349.3240, 4706.816
350.5270, 4743.648
351.7290, 4895.488
352.9310, 5142.422
354.1320, 5665.510
355.3340, 6060.754
356.5350, 6626.150
357.7370, 7267.703
358.9380, 7977.410
360.1390, 8707.270
361.3400, 9579.285
362.5400, 10788.46
363.7410, 11680.79
364.9410, 13053.28
366.1410, 14324.92
367.3410, 15884.72
368.5410, 17555.68
369.7410, 19607.80
370.9400, 21568.07
372.1400, 23705.50
373.3390, 25520.08
374.5380, 27006.81
375.7370, 27791.70
376.9360, 27702.74
378.1350, 26887.94
379.3330, 25397.29
380.5310, 23259.78
381.7300, 20649.43
382.9280, 18617.24
384.1260, 16073.18
385.3230, 14438.28
386.5210, 12877.52
387.7180, 11489.92
388.9160, 10738.46
390.1130, 9697.143
391.3100, 9058.975
392.5060, 8868.949
393.7030, 8315.070
394.9000, 8213.336
396.0960, 8274.744
397.2920, 8268.297
398.4880, 8385.992
399.6840, 8586.828
400.8800, 8742.809
402.0750, 8965.949
403.2710, 8833.270
404.4660, 9384.785
405.6610, 9532.518
406.8560, 9253.508
408.0510, 8998.738
409.2450, 8881.191
410.4400, 8267.869
411.6340, 7921.730
412.8280, 7160.816
414.0220, 6367.070
415.2160, 5306.480
416.4100, 4694.031
417.6030, 3737.730
418.7970, 3120.570
419.9900, 2346.559
421.1830, 2015.691
422.3760, 1392.969
423.5690, 1134.393
424.7610, 879.9629
425.9540, 833.6797
427.1460, 597.5410
428.3380, 616.5488
429.5300, 449.7031
430.7220, 519.0059
431.9140, 414.4551
433.1050, 523.2051
434.2970, 817.8027
435.4880, 804.7070
436.6790, 854.1270
437.8700, 1037.486
439.0610, 1045.037
440.2510, 1175.188
441.4420, 1144.271
442.6320, 1175.623
443.8220, 1182.295
445.0120, 1442.182
446.2020, 1267.447
447.3910, 1397.863
448.5810, 1445.430
449.7700, 1389.146
450.9600, 1403.033
452.1490, 1528.066
453.3370, 1266.248
454.5260, 1335.102
455.7150, 1524.047
456.9030, 1352.680
458.0910, 1244.469
459.2800, 1475.453
460.4670, 1268.613
461.6550, 1458.977
462.8430, 1493.164
464.0300, 1529.842
465.2180, 1682.211
466.4050, 1676.463
467.5920, 1731.570
468.7790, 1616.277
469.9650, 1730.701
471.1520, 1702.111
472.3380, 1583.451
473.5250, 1561.559
474.7110, 1364.781
475.8970, 1214.227
477.0820, 1085.354
478.2680, 936.3984
479.4540, 1076.598
480.6390, 886.8789
481.8240, 1154.055
483.0090, 970.2188
484.1940, 774.4590
485.3780, 919.6836
486.5630, 835.0254
487.7470, 745.4863
488.9320, 771.0625
490.1160, 878.7500
491.3000, 1035.553
492.4830, 1069.379
493.6670, 1173.750
494.8500, 1221.643
496.0340, 1304.900
497.2170, 1408.268
498.4000, 1560.680
499.5820, 1801.363
500.7650, 1971.076
501.9480, 2287.910
503.1300, 2610.881
504.3120, 2653.994
505.4940, 3101.240
506.6760, 3162.611
507.8580, 3509.121
509.0390, 3683.770
510.2210, 3682.572
511.4020, 3745.506
512.5830, 3998.564
513.7640, 3918.738
514.9450, 3741.039
516.1250, 3986.443
517.3060, 3979.967
518.4860, 3819.586
519.6660, 3587.309
520.8460, 3274.125
522.0260, 3352.039
523.2060, 3312.047
524.3850, 3326.145
525.5650, 3465.338
526.7440, 3627.512
527.9230, 3864.996
529.1020, 4134.461
530.2810, 4474.012
531.4590, 4770.652
532.6380, 5275.379
533.8160, 5711.195
534.9940, 5923.121
536.1720, 6229.229
537.3500, 6417.650
538.5270, 6476.869
539.7050, 6655.396
540.8820, 6727.055
542.0590, 6724.855
543.2360, 6791.219
544.4130, 6953.756
545.5900, 6918.344
546.7660, 7027.051
547.9430, 7001.488
549.1190, 7017.320
550.2950, 6879.863
551.4710, 6731.611
552.6470, 6602.639
553.8220, 6349.299
554.9980, 6160.369
556.1730, 6013.121
557.3480, 5590.252
558.5230, 5234.439
559.6980, 4745.684
560.8730, 4398.984
562.0470, 4244.340
563.2220, 3738.744
564.3960, 3520.211
565.5700, 2942.727
566.7440, 2889.295
567.9170, 2606.910
569.0910, 2222.580
570.2640, 1986.293
571.4380, 1667.059
572.6110, 1531.865
573.7840, 1547.719
574.9570, 1468.617
576.1290, 1227.559
577.3020, 1306.541
578.4740, 875.5645
579.6460, 1023.654
580.8180, 1001.812
581.9900, 1026.053
583.1620, 823.3965
584.3330, 967.8008
585.5040, 861.2734
586.6760, 717.7852
587.8470, 911.3281
589.0180, 668.9023
590.1880, 721.5039
591.3590, 670.1348
592.5290, 513.7949
593.7000, 491.4766
594.8700, 426.1895
596.0400, 243.9238
597.2090, 364.6816
598.3790, 276.4609
599.5490, 12.26367
600.7180, 217.0820
601.8870, 30.33008
603.0560, 13.96484
604.2250, 49.36523
605.3940, 150.5098
606.5620, 98.70312
607.7300, 173.9277
608.8990, 120.2129
610.0670, 360.5371
611.2350, 224.0137
612.4020, 217.5781
613.5700, 148.2324
614.7370, 353.9492
615.9050, 389.8203
617.0720, 323.8633
618.2390, 87.05273
619.4060, 19.28711
620.5720, 123.5371
621.7390, 156.8496
622.9050, 72.24023
624.0710, 69.67188
625.2370, 36.85547
626.4030, 106.3809
627.5690, 117.9121
628.7340, 126.4395
629.9000, 291.9707
631.0650, 109.5000
632.2300, 351.0273
633.3950, 336.5430
634.5600, 488.0566
635.7240, 533.5859
636.8890, 580.3672
638.0530, 689.8594
639.2170, 736.6504
640.3810, 750.6484
641.5450, 942.9238
642.7080, 874.5195
643.8720, 884.1719
645.0350, 968.2402
646.1980, 704.5039
647.3610, 651.9277
648.5240, 811.5273
649.6870, 696.6797
650.8490, 598.7168
652.0120, 436.8438
653.1740, 377.5605
654.3360, 454.0781
655.4980, 391.1035
656.6600, 613.0156
657.8210, 394.2109
658.9830, 587.4883
660.1440, 389.6328
661.3050, 431.6934
662.4660, 584.7207
663.6270, 577.7090
664.7870, 422.6641
665.9480, 586.5801
667.1080, 530.4570
668.2680, 411.2988
669.4280, 637.0977
670.5880, 636.8613
671.7480, 718.5781
672.9070, 538.6094
674.0670, 574.5879
675.2260, 762.4805
676.3850, 539.1602
677.5440, 596.1953
678.7030, 469.6699
679.8610, 321.8203
681.0200, 265.2422
682.1780, 65.25586
683.3360, 12.79688
684.4940, 9.603516
685.6520, 99.58594
686.8090, 274.5449
687.9670, 153.6875
689.1240, 140.6797
690.2810, 140.7578
691.4380, 53.59961
692.5950, 133.1855
693.7520, 109.7188
694.9080, 198.0137
696.0650, 359.8984
697.2210, 586.0176
698.3770, 798.0664
699.5330, 987.0488
700.6880, 1160.963
701.8440, 1434.227
702.9990, 1715.359
704.1550, 1963.264
705.3100, 2387.898
706.4650, 2636.461
707.6190, 3013.457
708.7740, 3557.922
709.9290, 4546.633
711.0830, 5026.191
712.2370, 5944.109
713.3910, 6592.340
714.5450, 7598.393
715.6980, 8799.498
716.8520, 10454.27
718.0050, 12224.09
719.1580, 14559.84
720.3110, 17086.51
721.4640, 20226.11
722.6170, 23361.62
723.7700, 27358.06
724.9220, 30867.41
726.0740, 34313.69
727.2260, 37834.88
728.3780, 39836.01
729.5300, 40969.04
730.6810, 40827.00
731.8330, 39419.87
732.9840, 36725.66
734.1350, 33364.37
735.2860, 30171.99
736.4370, 26570.54
737.5880, 23689.99
738.7380, 20720.36
739.8880, 18558.65
741.0390, 16061.86
742.1890, 14499.37
743.3380, 13016.50
744.4880, 12396.05
745.6380, 11086.80
746.7870, 9380.812
747.9360, 8570.189
749.0850, 7582.975
750.2340, 6778.836
751.3830, 6517.812
752.5310, 5986.068
753.6800, 5529.262
754.8280, 5076.275
755.9760, 4722.656
757.1240, 4513.164
758.2720, 4041.557
759.4190, 3951.236
760.5670, 3437.738
761.7140, 3081.994
762.8610, 3178.031
764.0080, 2670.607
765.1550, 2304.299
766.3020, 2199.973
767.4480, 2000.736
768.5950, 1413.117
769.7410, 1456.885
770.8870, 1087.309
772.0330, 882.7656
773.1780, 608.8828
774.3240, 515.3027
775.4690, 195.4922
776.6140, 356.1992
777.7590, 332.5664
778.9040, 226.6113
780.0490, 54.18555
781.1940, 12.45703
782.3380, 66.57422
783.4820, 125.5625
784.6260, 33.42969
785.7700, 11.15625
786.9140, 30.27344
788.0580, 39.12109
789.2010, 89.37500
790.3450, 142.5059
791.4880, 74.52539
792.6310, 232.4180
793.7730, 129.2129
794.9160, 443.8926
796.0590, 285.4961
797.2010, 443.7090
798.3430, 509.4434
799.4850, 699.7969
800.6270, 701.0762
801.7690, 929.2754
802.9100, 823.3965
804.0520, 990.4414
805.1930, 970.4082
806.3340, 771.2969
807.4750, 743.8086
808.6160, 497.8438
809.7560, 386.5020
810.8970, 60.08008
812.0370, 225.4688
813.1770, 64.28516
814.3170, 135.2852
815.4570, 32.50586
816.5960, 60.97266
817.7360, 98.98828
818.8750, 126.2246
820.0140, 138.6191
821.1530, 161.2520
822.2920, 62.01367
823.4310, 106.9375
824.5690, 40.45117
825.7070, 23.79688
826.8460, 188.3145
827.9840, 140.2148
829.1220, 221.8281
830.2590, 17.19727
831.3970, 317.6035
832.5340, 182.1992
833.6710, 543.6699
834.8080, 545.4785
835.9450, 321.4258
837.0820, 459.7109
838.2190, 549.9336
839.3550, 137.0977
840.4910, 313.1895
841.6270, 369.2227
842.7630, 432.1953
843.8990, 185.1133
845.0350, 291.9609
846.1700, 214.7539
847.3060, 298.4824
848.4410, 349.1523
849.5760, 270.7656
850.7100, 346.3242
851.8450, 435.8203
852.9800, 417.2598
854.1140, 534.6465
855.2480, 535.9766
856.3820, 784.2500
857.5160, 766.4688
858.6500, 850.6328
859.7830, 935.7441
860.9170, 854.5801
862.0500, 1140.805
863.1830, 807.7559
864.3160, 910.6543
865.4480, 1091.498
866.5810, 956.2930
867.7130, 895.0352
868.8460, 905.7266
869.9780, 958.3691
871.1100, 1008.959
872.2410, 894.5000
873.3730, 1040.992
874.5050, 884.4336
875.6360, 950.8320
876.7670, 998.1797
877.8980, 871.4805
879.0290, 840.7383
880.1590, 981.9590
881.2900, 863.1660
882.4200, 825.3477
883.5500, 703.5215
884.6800, 539.6758
885.8100, 624.8633
886.9400, 552.0625
888.0690, 504.2656
889.1990, 585.4590
890.3280, 479.6895
891.4570, 364.9688
892.5860, 220.2773
893.7140, 202.5840
894.8430, 120.9902
895.9710, 197.1211
897.1000, 33.38086
898.2280, 66.61719
899.3560, 2.171875
900.4830, 15.00586
901.6110, 19.63477
902.7380, 28.76953
903.8660, 14.71680
904.9930, 35.28906
906.1200, 95.25977
907.2460, 33.78125
908.3730, 137.8711
909.5000, 31.95508
910.6260, 101.2598
911.7520, 61.76953
912.8780, 5.365234
914.0040, 25.83789
915.1290, 111.1602
916.2550, 156.2305
917.3800, 276.6523
918.5050, 238.6738
919.6300, 328.5137
920.7550, 213.1621
921.8800, 400.6289
923.0040, 293.5176
924.1290, 314.4688
925.2530, 593.3027
926.3770, 634.5723
927.5010, 879.0000
928.6250, 1193.885
929.7480, 866.8320
930.8720, 1092.488
931.9950, 1088.006
933.1180, 1399.680
934.2410, 1453.432
935.3640, 1572.164
936.4860, 1890.906
937.6090, 1812.633
938.7310, 2086.336
939.8530, 2025.764
940.9750, 2102.732
942.0970, 2041.359
943.2180, 2156.006
944.3400, 2470.639
945.4610, 2437.902
946.5820, 2467.156
947.7030, 2239.469
948.8240, 2300.432
949.9450, 2416.006
951.0650, 2337.605
952.1860, 2309.469
953.3060, 2412.000
954.4260, 2451.891
955.5460, 2425.168
956.6650, 2310.283
957.7850, 2265.949
958.9040, 2620.355
960.0230, 2548.836
961.1420, 2703.014
962.2610, 2778.443
963.3800, 2720.662
964.4990, 2819.234
965.6170, 2664.971
966.7350, 2619.227
967.8530, 2670.816
968.9710, 3009.105
970.0890, 2967.525
971.2070, 3334.686
972.3240, 3162.975
973.4410, 3133.266
974.5580, 3274.578
975.6750, 3381.871
976.7920, 3334.168
977.9090, 3262.463
979.0250, 3452.258
980.1410, 3221.512
981.2580, 3521.451
982.3740, 3371.754
983.4890, 3218.062
984.6050, 3191.270
985.7200, 3154.586
986.8360, 3293.906
987.9510, 3145.230
989.0660, 3114.561
990.1810, 2726.893
991.2950, 2896.230
992.4100, 2713.572
993.5240, 2970.920
994.6390, 2899.273
995.7530, 2798.635
996.8660, 2993.004
997.9800, 2838.379
999.0940, 3154.760
1000.207, 3090.146
1001.320, 3446.539
1002.433, 3396.172
1003.546, 3431.150
1004.659, 3315.764
1005.772, 3440.184
1006.884, 3324.613
1007.996, 3408.051
1009.108, 3336.496
1010.220, 3542.949
1011.332, 3640.410
1012.444, 3931.881
1013.555, 3908.357
1014.666, 4377.846
1015.777, 4225.340
1016.888, 4655.846
1017.999, 4908.359
1019.110, 4994.883
1020.220, 5366.432
1021.331, 5393.975
1022.441, 5910.521
1023.551, 5978.080
1024.661, 6040.645
1025.770, 6207.348
1026.880, 6611.711
1027.989, 6282.299
1029.098, 6739.816
1030.207, 6749.420
1031.316, 6832.328
1032.425, 6946.461
1033.533, 7084.592
1034.642, 7781.164
1035.750, 7561.605
1036.858, 7939.830
1037.966, 8419.623
1039.073, 8456.117
1040.181, 8896.777
1041.288, 9353.160
1042.396, 9721.852
1043.503, 10438.99
1044.610, 10747.51
1045.716, 11531.43
1046.823, 12202.12
1047.929, 12756.33
1049.036, 13542.27
1050.142, 14139.57
1051.248, 15195.33
1052.353, 16558.05
1053.459, 17204.91
1054.564, 18675.04
1055.670, 20088.23
1056.775, 21354.27
1057.880, 22574.55
1058.985, 24194.72
1060.089, 25556.30
1061.194, 27138.79
1062.298, 28403.18
1063.402, 29258.95
1064.506, 29687.14
1065.610, 29966.16
1066.713, 29731.44
1067.817, 29414.73
1068.920, 28445.22
1070.023, 26975.72
1071.126, 25446.15
1072.229, 23695.69
1073.332, 21775.21
1074.435, 19899.24
1075.537, 18355.46
1076.639, 16586.38
1077.741, 15093.88
1078.843, 13716.20
1079.945, 12205.58
1081.046, 11099.93
1082.148, 9898.535
1083.249, 9064.076
1084.350, 8100.980
1085.451, 7285.375
1086.551, 6675.729
1087.652, 5913.240
1088.752, 5653.121
1089.853, 5214.967
1090.953, 4901.975
1092.053, 4363.930
1093.152, 3908.920
1094.252, 3597.939
1095.351, 3918.961
1096.451, 3457.090
1097.550, 3239.113
1098.649, 2650.312
1099.748, 2855.379
1100.846, 2695.416
1101.945, 2660.445
1103.043, 2630.471
1104.141, 2426.492
1105.239, 2188.510
1106.337, 2340.520
1107.434, 2397.531
1108.532, 2010.537
1109.629, 1739.537
1110.726, 1763.531
1111.823, 1713.521
1112.920, 1718.508
1114.017, 1560.492
1115.113, 1666.471
1116.210, 1713.439
1117.306, 1607.457
1118.402, 1752.367
1119.498, 1512.320
1120.593, 1408.268
1121.689, 1439.207
1122.784, 1491.143
1123.879, 1342.070
1124.974, 1097.990
1126.069, 1191.975
1127.164, 947.6562
1128.259, 932.5605
1129.353, 864.4512
1130.447, 769.3398
1131.541, 701.1191
1132.635, 684.6191
1133.729, 634.6348
1134.822, 731.8125
1135.916, 610.6602
1137.009, 749.5020
1138.102, 783.3320
1139.195, 683.1582
1140.288, 474.9746
1141.380, 431.7812
1142.473, 484.5840
1143.565, 488.3750
1144.657, 554.1582
1145.749, 642.9316
1146.841, 523.0957
1147.932, 488.4492
1149.024, 207.1973
1150.115, 309.9355
1151.206, 17.33594
1152.297, 254.3711
1153.388, 68.06836
1154.479, 135.7559
1155.569, 189.4316
1156.659, 41.09961
1157.750, 45.24219
1158.839, 135.3750
1159.929, 18.98438
1161.019, 116.5820
1162.108, 203.1680
1163.198, 73.74805
1164.287, 40.31836
1165.376, 49.11914
1166.465, 73.59570
1167.553, 100.8789
1168.642, 26.34961
1169.730, 12.18945
1170.818, 89.75586
1171.906, 60.61523
1172.994, 50.97656
1174.082, 219.3516
1175.170, 41.71680
1176.257, 19.91211
1177.344, 186.5703
1178.431, 159.6543
1179.518, 35.13086
1180.605, 4.957031
1181.691, 217.8164
1182.778, 216.0254
1183.864, 41.95703
1184.950, 156.1484
1186.036, 60.45117
1187.122, 179.1836
1188.207, 59.19531
1189.292, 263.6348
1190.378, 30.24414
1191.463, 27.90039
1192.548, 58.39844
1193.632, 158.3184
1194.717, 377.8457
1195.801, 257.0020
1196.886, 165.0176
1197.970, 91.84766
1199.054, 88.03320
1200.137, 44.90820
1201.221, 62.22070
1202.305, 34.95703
1203.388, 40.67383
1204.471, 31.62305
1205.554, 162.0254
1206.637, 20.66016
1207.719, 48.27148
1208.802, 89.86719
1209.884, 83.55469
1210.966, 116.9453
1212.048, 52.56836
1213.130, 82.14844
1214.212, 33.19531
1215.293, 73.51953
1216.374, 4.175781
1217.456, 240.0918
1218.536, 86.33984
1219.617, 120.5723
1220.698, 114.2129
1221.778, 146.9023
1222.859, 214.0039
1223.939, 148.0840
1225.019, 159.1465
1226.099, 84.19336
1227.178, 112.2207
1228.258, 70.23047
1229.337, 100.6621
1230.417, 201.1934
1231.496, 207.1465
1232.574, 203.0879
1233.653, 313.0117
1234.732, 303.2168
1235.810, 441.8066
1236.888, 364.6777
1237.966, 331.5312
1239.044, 367.3730
1240.122, 333.1973
1241.199, 110.0176
1242.277, 403.8184
1243.354, 247.6016
1244.431, 210.3750
1245.508, 334.1348
1246.585, 260.8809
1247.661, 247.6133
1248.738, 306.3262
1249.814, 262.4844
1250.890, 189.7051
1251.966, 263.3691
1253.042, 200.0156
1254.117, 201.6484
1255.193, 77.26172
1256.268, 18.86133
1257.343, 294.4355
1258.418, 367.9922
1259.493, 324.5352
1260.567, 353.0605
1261.642, 452.5723
1262.716, 446.0645
1263.790, 485.5430
1264.864, 678.0078
1265.938, 684.4570
1267.011, 629.8887
1268.085, 711.3066
1269.158, 557.7109
1270.231, 803.0996
1271.304, 695.4746
1272.377, 929.8320
1273.450, 769.1777
1274.522, 1035.508
1275.594, 844.8281
1276.666, 762.1309
1277.738, 821.4219
1278.810, 866.6973
1279.882, 845.9609
1280.953, 956.1914
1282.025, 728.4238
1283.096, 780.6445
1284.167, 881.8535
1285.238, 725.0508
1286.308, 904.1016
