##NAMES=Elbaite
##RRUFFID=R060003
##IDEAL CHEMISTRY=Na(Al_1.5_Li_1.5_)Al_6_(Si_6_O_18_)(BO_3_)_3_(OH)_3_OH
##LOCALITY=Mount Begbie, Revelstoke, British Columbia, Canada
##OWNER=RRUFF
##SOURCE=Bob Downs
##DESCRIPTION=Pink crystal associated with trilithionite, R060004
##STATUS=The identification of this mineral has been confirmed by X-ray diffraction and chemical analysis
##URL=rruff.info/R060003
##MEASURED CHEMISTRY=(Na_0.58_[box]_0.42_)(Al_1.69_Li_1.27_Mn_0.04_)Al_6_(BO_3_)_3_[Si_6_O_18_](OH)_4_
##PIN_ID=L00688
##ORIENTATION=Laser parallel to -a* (-1 0 0). Fiducial mark perpendicular to laser is parallel to -c [0 0 -1]
118.1340, 0.0000000E+00
119.3650, 378.2246
120.5960, 2.330078
121.8270, 57.64844
123.0580, 301.9473
124.2880, 14.00195
125.5190, 74.02734
126.7490, 81.58594
127.9790, 48.17383
129.2090, 132.3125
130.4390, 381.9121
131.6680, 652.7168
132.8980, 552.9922
134.1270, 650.1328
135.3560, 1081.631
136.5850, 1162.066
137.8140, 1618.068
139.0430, 1506.301
140.2710, 1649.471
141.5000, 1712.338
142.7280, 1561.699
143.9560, 1642.373
145.1840, 1626.195
146.4120, 1646.658
147.6390, 1778.297
148.8670, 1813.191
150.0940, 2028.307
151.3210, 2250.982
152.5490, 2356.133
153.7750, 2063.674
155.0020, 1986.539
156.2290, 1716.623
157.4550, 1583.809
158.6810, 1588.014
159.9080, 1500.018
161.1340, 1639.242
162.3590, 1608.238
163.5850, 1561.150
164.8110, 1781.953
166.0360, 1460.609
167.2610, 1574.072
168.4860, 1282.312
169.7110, 1446.301
170.9360, 1495.004
172.1610, 1653.395
173.3850, 1415.449
174.6100, 1227.141
175.8340, 1337.449
177.0580, 1366.354
178.2820, 1299.840
179.5050, 1174.887
180.7290, 1094.477
181.9520, 887.5977
183.1760, 1150.234
184.3990, 1084.367
185.6220, 862.9941
186.8450, 1326.090
188.0670, 1390.652
189.2900, 1059.666
190.5120, 1237.119
191.7340, 1379.896
192.9560, 1575.596
194.1780, 1484.266
195.4000, 1844.971
196.6220, 1861.754
197.8430, 2185.648
199.0640, 2389.689
200.2860, 2573.891
201.5070, 2829.295
202.7270, 3140.250
203.9480, 3394.977
205.1690, 3552.354
206.3890, 3981.273
207.6090, 4580.881
208.8290, 5137.660
210.0490, 6155.031
211.2690, 7107.613
212.4890, 8185.381
213.7080, 9131.918
214.9280, 10028.46
216.1470, 11056.79
217.3660, 11990.40
218.5850, 12915.29
219.8030, 13870.36
221.0220, 13985.63
222.2400, 13961.10
223.4590, 13424.77
224.6770, 13012.64
225.8950, 12202.70
227.1120, 11159.97
228.3300, 10060.44
229.5480, 9450.098
230.7650, 8568.961
231.9820, 7947.016
233.1990, 7523.266
234.4160, 7188.711
235.6330, 7035.350
236.8490, 6946.178
238.0660, 7222.195
239.2820, 7077.406
240.4980, 7107.797
241.7140, 7222.377
242.9300, 7177.137
244.1460, 7206.082
245.3610, 7347.205
246.5770, 7005.506
247.7920, 6922.984
249.0070, 6665.637
250.2220, 6612.465
251.4370, 6191.461
252.6510, 5824.629
253.8660, 5766.965
255.0800, 5367.469
256.2940, 5254.137
257.5080, 5453.973
258.7220, 5230.752
259.9360, 5239.510
261.1490, 5232.434
262.3630, 5200.906
263.5760, 5315.531
264.7890, 5506.674
266.0020, 5557.977
267.2150, 5729.443
268.4270, 5500.463
269.6400, 5724.188
270.8520, 5322.359
272.0640, 5228.441
273.2760, 5062.113
274.4880, 4897.379
275.7000, 4708.514
276.9120, 4639.715
278.1230, 4584.363
279.3340, 4324.434
280.5450, 4223.898
281.7560, 3834.740
282.9670, 3664.943
284.1780, 3419.645
285.3880, 3356.371
286.5980, 3039.154
287.8090, 3032.623
289.0190, 3000.203
290.2290, 2629.469
291.4380, 2134.107
292.6480, 2038.021
293.8570, 1751.918
295.0670, 1204.549
296.2760, 973.5215
297.4850, 533.2402
298.6930, 445.9512
299.9020, 144.7812
301.1110, 228.9355
302.3190, 220.6230
303.5270, 314.1719
304.7350, 194.9141
305.9430, 305.8730
307.1510, 342.0156
308.3580, 749.3359
309.5660, 877.8438
310.7730, 783.5195
311.9800, 1078.357
313.1870, 852.3750
314.3940, 1292.092
315.6010, 966.5371
316.8070, 1138.961
318.0130, 1043.771
319.2200, 881.7305
320.4260, 1112.904
321.6310, 1381.242
322.8370, 1402.762
324.0430, 1607.412
325.2480, 1400.207
326.4540, 1509.133
327.6590, 1757.189
328.8640, 1804.381
330.0680, 2023.701
331.2730, 1933.176
332.4780, 1782.832
333.6820, 1639.605
334.8860, 1768.494
336.0900, 2010.498
337.2940, 2032.611
338.4980, 2005.838
339.7010, 2127.180
340.9050, 2023.635
342.1080, 2269.203
343.3110, 2297.881
344.5140, 2141.672
345.7170, 2416.574
346.9200, 2888.586
348.1220, 2839.709
349.3240, 3152.936
350.5270, 3513.264
351.7290, 3327.693
352.9310, 3644.221
354.1320, 3910.842
355.3340, 4126.559
356.5350, 4646.367
357.7370, 5110.266
358.9380, 5972.258
360.1390, 6903.342
361.3400, 7863.512
362.5400, 9110.053
363.7410, 10756.12
364.9410, 11883.55
366.1410, 13431.07
367.3410, 15121.68
368.5410, 16447.37
369.7410, 17798.14
370.9400, 18882.99
372.1400, 19024.93
373.3390, 19248.95
374.5380, 19059.05
375.7370, 17712.23
376.9360, 16453.48
378.1350, 15039.82
379.3330, 13335.23
380.5310, 11934.72
381.7300, 10521.29
382.9280, 9151.926
384.1260, 8332.641
385.3230, 7524.428
386.5210, 6656.293
387.7180, 6340.225
388.9160, 6012.232
390.1130, 5753.309
391.3100, 5663.387
392.5060, 5321.676
393.7030, 5577.973
394.9000, 5628.352
396.0960, 5573.805
397.2920, 5807.328
398.4880, 5789.914
399.6840, 5878.566
400.8800, 5899.764
402.0750, 5727.064
403.2710, 5809.910
404.4660, 5707.816
405.6610, 5541.785
406.8560, 5332.818
408.0510, 5357.910
409.2450, 4938.119
410.4400, 4749.453
411.6340, 4053.922
412.8280, 3964.506
414.0220, 3200.205
415.2160, 3088.016
416.4100, 2631.936
417.6030, 1995.959
418.7970, 1647.090
419.9900, 1181.320
421.1830, 754.6523
422.3760, 583.0742
423.5690, 375.5977
424.7610, 344.2109
425.9540, 26.91797
427.1460, 52.00781
428.3380, 314.8672
429.5300, 347.0469
430.7220, 372.2812
431.9140, 578.5781
433.1050, 230.0391
434.2970, 312.5117
435.4880, 229.0273
436.6790, 283.5586
437.8700, 187.1289
439.0610, 271.7031
440.2510, 260.3164
441.4420, 293.8633
442.6320, 187.5625
443.8220, 149.7305
445.0120, 36.90625
446.2020, 278.5000
447.3910, 70.73438
448.5810, 193.0469
449.7700, 184.6641
450.9600, 178.9766
452.1490, 185.9258
453.3370, 289.7383
454.5260, 229.6445
455.7150, 334.5234
456.9030, 134.0742
458.0910, 256.9023
459.2800, 68.04688
460.4670, 136.1719
461.6550, 137.4492
462.8430, 363.0547
464.0300, 438.6328
465.2180, 357.5430
466.4050, 844.1680
467.5920, 1023.457
468.7790, 1545.195
469.9650, 1814.758
471.1520, 2106.312
472.3380, 2433.648
473.5250, 2617.914
474.7110, 3055.281
475.8970, 3391.008
477.0820, 3548.957
478.2680, 3640.758
479.4540, 3584.594
480.6390, 3415.520
481.8240, 3124.457
483.0090, 2654.441
484.1940, 2128.461
485.3780, 1791.523
486.5630, 1416.625
487.7470, 1339.770
488.9320, 1534.949
490.1160, 1381.172
491.3000, 1563.426
492.4830, 1701.719
493.6670, 2029.051
494.8500, 2622.422
496.0340, 2944.820
497.2170, 3784.258
498.4000, 4450.730
499.5820, 5402.238
500.7650, 5764.781
501.9480, 6704.355
503.1300, 7580.965
504.3120, 8674.605
505.4940, 9286.281
506.6760, 10073.98
507.8580, 10294.73
509.0390, 10387.51
510.2210, 9919.328
511.4020, 9542.180
512.5830, 8985.078
513.7640, 8149.008
514.9450, 7497.969
516.1250, 6609.977
517.3060, 5970.020
518.4860, 5606.102
519.6660, 4827.230
520.8460, 4573.391
522.0260, 3962.594
523.2060, 3542.824
524.3850, 2948.098
525.5650, 2955.457
526.7440, 2402.848
527.9230, 2353.238
529.1020, 1911.770
530.2810, 2153.281
531.4590, 2225.820
532.6380, 1980.379
533.8160, 2083.441
534.9940, 2064.203
536.1720, 1900.168
537.3500, 2084.852
538.5270, 1990.508
539.7050, 1927.184
540.8820, 2080.941
542.0590, 1801.664
543.2360, 1683.406
544.4130, 1608.172
545.5900, 1318.047
546.7660, 1420.992
547.9430, 1189.973
549.1190, 1018.047
550.2950, 1051.238
551.4710, 1075.457
552.6470, 917.7305
553.8220, 976.0312
554.9980, 625.3633
556.1730, 704.7383
557.3480, 625.1758
558.5230, 616.6641
559.6980, 368.1992
560.8730, 447.7539
562.0470, 408.3516
563.2220, 301.9961
564.3960, 338.6719
565.5700, 279.3594
566.7440, 282.0859
567.9170, 325.8164
569.0910, 219.4102
570.2640, 278.3086
571.4380, 297.4844
572.6110, 392.3242
573.7840, 468.3516
574.9570, 319.9766
576.1290, 373.4922
577.3020, 287.0039
578.4740, 515.7812
579.6460, 385.0703
580.8180, 233.2578
581.9900, 129.9219
583.1620, 302.8164
584.3330, 354.8086
585.5040, 188.6797
586.6760, 342.2266
587.8470, 76.10156
589.0180, 75.01953
590.1880, 140.7852
591.3590, 103.5977
592.5290, 25.40625
593.7000, 301.1836
594.8700, 130.9648
596.0400, 18.75000
597.2090, 118.5039
598.3790, 217.3438
599.5490, 268.1758
600.7180, 187.1367
601.8870, 62.24609
603.0560, 224.3828
604.2250, 29.15625
605.3940, 88.98828
606.5620, 108.1016
607.7300, 42.18359
608.8990, 109.2383
610.0670, 130.1758
611.2350, 40.32031
612.4020, 85.33203
613.5700, 68.66797
614.7370, 171.7500
615.9050, 162.0430
617.0720, 122.8281
618.2390, 424.6055
619.4060, 311.3711
620.5720, 392.1250
621.7390, 833.8789
622.9050, 721.6211
624.0710, 702.3555
625.2370, 539.0820
626.4030, 945.7930
627.5690, 1165.496
628.7340, 1543.191
629.9000, 1728.875
631.0650, 2041.555
632.2300, 2317.227
633.3950, 2673.895
634.5600, 2778.551
635.7240, 3397.246
636.8890, 3358.941
638.0530, 3918.641
639.2170, 4144.352
640.3810, 4424.059
641.5450, 4549.766
642.7080, 4433.465
643.8720, 4613.145
645.0350, 4360.867
646.1980, 4367.508
647.3610, 3945.160
648.5240, 4428.676
649.6870, 3700.523
650.8490, 3694.473
652.0120, 3252.152
653.1740, 2878.871
654.3360, 2586.473
655.4980, 2284.027
656.6600, 2075.750
657.8210, 1728.035
658.9830, 1643.117
660.1440, 1213.945
661.3050, 1151.539
662.4660, 872.9492
663.6270, 911.3008
664.7870, 652.3359
665.9480, 438.0156
667.1080, 691.2852
668.2680, 708.0234
669.4280, 335.8516
670.5880, 281.4492
671.7480, 241.5547
672.9070, 133.8086
674.0670, 56.84766
675.2260, 50.83594
676.3850, 60.76953
677.5440, 248.6562
678.7030, 510.5039
679.8610, 178.4336
681.0200, 372.1641
682.1780, 227.4922
683.3360, 308.4258
684.4940, 202.4258
685.6520, 522.1484
686.8090, 587.1797
687.9670, 654.8203
689.1240, 1115.414
690.2810, 1003.457
691.4380, 1497.191
692.5950, 1456.047
693.7520, 2212.797
694.9080, 2749.395
696.0650, 3074.980
697.2210, 3575.785
698.3770, 4277.629
699.5330, 5222.496
700.6880, 6141.383
701.8440, 6602.703
702.9990, 7567.293
704.1550, 8227.266
705.3100, 8838.164
706.4650, 9370.277
707.6190, 9590.922
708.7740, 9648.969
709.9290, 9861.633
711.0830, 9672.820
712.2370, 9377.172
713.3910, 8549.551
714.5450, 8062.418
715.6980, 7481.801
716.8520, 6683.676
718.0050, 6389.559
719.1580, 5644.777
720.3110, 5370.652
721.4640, 5324.602
722.6170, 4353.480
723.7700, 3772.344
724.9220, 3510.152
726.0740, 3359.918
727.2260, 3394.875
728.3780, 3184.766
729.5300, 3006.367
730.6810, 2741.598
731.8330, 2740.301
732.9840, 2775.992
734.1350, 2805.332
735.2860, 2884.715
736.4370, 3052.574
737.5880, 3208.754
738.7380, 3220.012
739.8880, 3726.008
741.0390, 3987.949
742.1890, 4363.562
743.3380, 4445.203
744.4880, 4769.508
745.6380, 4898.094
746.7870, 4977.023
747.9360, 4958.492
749.0850, 4955.062
750.2340, 4916.887
751.3830, 4772.918
752.5310, 4529.836
753.6800, 4313.652
754.8280, 4072.453
755.9760, 3780.273
757.1240, 3482.324
758.2720, 3218.137
759.4190, 2775.570
760.5670, 2591.344
761.7140, 2331.133
762.8610, 2127.602
764.0080, 2232.582
765.1550, 1817.543
766.3020, 1785.043
767.4480, 1611.316
768.5950, 1312.773
769.7410, 1324.352
770.8870, 1021.551
772.0330, 806.5703
773.1780, 1057.480
774.3240, 1235.758
775.4690, 788.1680
776.6140, 871.9688
777.7590, 831.4062
778.9040, 798.7969
780.0490, 641.3477
781.1940, 652.0156
782.3380, 345.1328
783.4820, 438.1875
784.6260, 128.1836
785.7700, 135.6055
786.9140, 306.4531
788.0580, 176.3164
789.2010, 69.10156
790.3450, 193.0938
791.4880, 201.0859
792.6310, 90.57812
793.7730, 47.08203
794.9160, 143.4023
796.0590, 14.64844
797.2010, 176.7930
798.3430, 63.98438
799.4850, 209.8516
800.6270, 30.77344
801.7690, 132.4023
802.9100, 107.2461
804.0520, 26.19141
805.1930, 100.2578
806.3340, 92.62109
807.4750, 297.9062
808.6160, 455.1289
809.7560, 368.2930
810.8970, 533.9062
812.0370, 578.7930
813.1770, 623.4336
814.3170, 693.3125
815.4570, 459.1875
816.5960, 386.0000
817.7360, 22.69141
818.8750, 275.3633
820.0140, 197.9648
821.1530, 197.5000
822.2920, 194.1914
823.4310, 6.937500
824.5690, 227.0352
825.7070, 307.2266
826.8460, 32.31641
827.9840, 73.22266
829.1220, 35.09766
830.2590, 3.328125
831.3970, 59.40234
832.5340, 108.5312
833.6710, 81.67578
834.8080, 83.96484
835.9450, 140.6016
837.0820, 71.89844
838.2190, 80.53125
839.3550, 38.74609
840.4910, 212.8047
841.6270, 63.14453
842.7630, 181.7773
843.8990, 121.6328
845.0350, 119.4219
846.1700, 0.8554690
847.3060, 106.2305
848.4410, 142.2539
849.5760, 296.6719
850.7100, 450.0273
851.8450, 295.3281
852.9800, 438.5703
854.1140, 497.7578
855.2480, 327.8945
856.3820, 568.9688
857.5160, 365.9883
858.6500, 616.9531
859.7830, 559.8672
860.9170, 436.7227
862.0500, 889.5234
863.1830, 842.2695
864.3160, 548.9609
865.4480, 595.6406
866.5810, 651.2617
867.7130, 821.8359
868.8460, 708.3711
869.9780, 710.8477
871.1100, 748.2773
872.2410, 885.6641
873.3730, 638.0469
874.5050, 507.4492
875.6360, 598.8008
876.7670, 539.1602
877.8980, 544.4766
879.0290, 459.8125
880.1590, 566.1211
881.2900, 421.4219
882.4200, 581.6680
883.5500, 409.8789
884.6800, 356.0391
885.8100, 416.1484
886.9400, 339.2148
888.0690, 601.2344
889.1990, 528.2031
890.3280, 299.2617
891.4570, 531.2266
892.5860, 290.1484
893.7140, 246.0156
894.8430, 322.8281
895.9710, 227.6016
897.1000, 209.3164
898.2280, 297.9844
899.3560, 348.5977
900.4830, 370.1680
901.6110, 62.68750
902.7380, 261.1641
903.8660, 51.58203
904.9930, 29.00391
906.1200, 66.36328
907.2460, 78.67188
908.3730, 205.0781
909.5000, 31.04688
910.6260, 73.17188
911.7520, 97.15625
912.8780, 3.9059999E-03
914.0040, 60.10156
915.1290, 74.75000
916.2550, 225.5977
917.3800, 362.3945
918.5050, 446.1133
919.6300, 581.8438
920.7550, 217.5039
921.8800, 541.2344
923.0040, 313.5898
924.1290, 313.8008
925.2530, 240.2227
926.3770, 221.1172
927.5010, 402.0586
928.6250, 298.8945
929.7480, 554.7812
930.8720, 662.4180
931.9950, 601.2031
933.1180, 592.1758
934.2410, 691.3203
935.3640, 787.5898
936.4860, 689.8516
937.6090, 631.3672
938.7310, 725.1719
939.8530, 699.3203
940.9750, 731.9414
942.0970, 647.4062
943.2180, 716.0391
944.3400, 719.7969
945.4610, 886.9492
946.5820, 765.9453
947.7030, 896.9219
948.8240, 892.9922
949.9450, 1008.645
951.0650, 1094.969
952.1860, 1311.824
953.3060, 1391.793
954.4260, 1554.105
955.5460, 1329.766
956.6650, 1865.293
957.7850, 1681.039
958.9040, 1516.406
960.0230, 1743.102
961.1420, 1851.781
962.2610, 1863.938
963.3800, 2205.344
964.4990, 2319.566
965.6170, 2405.820
966.7350, 2438.164
967.8530, 2521.457
968.9710, 2565.324
970.0890, 2558.359
971.2070, 2685.172
972.3240, 2745.895
973.4410, 2834.121
974.5580, 2931.012
975.6750, 2898.449
976.7920, 2764.895
977.9090, 3190.059
979.0250, 2975.641
980.1410, 3109.230
981.2580, 3262.758
982.3740, 3130.770
983.4890, 3174.621
984.6050, 2947.504
985.7200, 3193.875
986.8360, 2936.754
987.9510, 3129.117
989.0660, 3217.469
990.1810, 3030.461
991.2950, 3153.785
992.4100, 3164.922
993.5240, 2833.223
994.6390, 2785.516
995.7530, 2969.793
996.8660, 3148.066
997.9800, 2892.324
999.0940, 3040.609
1000.207, 3163.887
1001.320, 2981.148
1002.433, 2912.406
1003.546, 2800.648
1004.659, 2692.941
1005.772, 2840.125
1006.884, 2553.352
1007.996, 2607.566
1009.108, 2638.773
1010.220, 2465.969
1011.332, 2655.156
1012.444, 2912.344
1013.555, 2670.531
1014.666, 2679.703
1015.777, 2532.867
1016.888, 2507.020
1017.999, 2504.156
1019.110, 2604.199
1020.220, 2576.332
1021.331, 2550.285
1022.441, 2703.398
1023.551, 2734.500
1024.661, 2692.277
1025.770, 2690.371
1026.880, 2872.109
1027.989, 2672.656
1029.098, 2661.258
1030.207, 2741.211
1031.316, 2586.328
1032.425, 2662.086
1033.533, 2982.059
1034.642, 2549.086
1035.750, 2326.703
1036.858, 2479.410
1037.966, 2888.469
1039.073, 2599.641
1040.181, 2822.375
1041.288, 2596.980
1042.396, 2526.145
1043.503, 2887.367
1044.610, 2753.590
1045.716, 2864.996
1046.823, 3166.926
1047.929, 3540.914
1049.036, 3393.898
1050.142, 3749.355
1051.248, 3609.555
1052.353, 3917.844
1053.459, 3799.781
1054.564, 4140.293
1055.670, 4444.371
1056.775, 4273.645
1057.880, 4724.520
1058.985, 4538.598
1060.089, 5069.391
1061.194, 4809.957
1062.298, 4947.605
1063.402, 5188.754
1064.506, 4885.547
1065.610, 4968.531
1066.713, 4868.824
1067.817, 5043.820
1068.920, 4531.035
1070.023, 5165.047
1071.126, 4786.109
1072.229, 5207.180
1073.332, 4894.273
1074.435, 4581.379
1075.537, 5197.488
1076.639, 4848.957
1077.741, 5144.062
1078.843, 4885.047
1079.945, 5171.141
1081.046, 4972.562
1082.148, 5009.750
1083.249, 4795.898
1084.350, 5134.973
1085.451, 4897.234
1086.551, 5024.316
1087.652, 4617.473
1088.752, 4498.551
1089.853, 4564.867
1090.953, 4766.086
1092.053, 4687.367
1093.152, 4495.680
1094.252, 4216.086
1095.351, 4373.512
1096.451, 4066.973
1097.550, 3757.438
1098.649, 3635.926
1099.748, 3851.441
1100.846, 3475.000
1101.945, 3490.605
1103.043, 3113.242
1104.141, 3010.883
1105.239, 3046.566
1106.337, 2518.277
1107.434, 2538.020
1108.532, 2513.758
1109.629, 2466.531
1110.726, 2431.324
1111.823, 2195.340
1112.920, 2268.125
1114.017, 2067.918
1115.113, 1873.758
1116.210, 2011.594
1117.306, 1820.660
1118.402, 2200.242
1119.498, 1812.074
1120.593, 1826.902
1121.689, 2079.723
1122.784, 1674.547
1123.879, 1816.363
1124.974, 1479.180
1126.069, 1731.984
1127.164, 1527.793
1128.259, 1338.590
1129.353, 1259.410
1130.447, 1148.586
1131.541, 1158.551
1132.635, 1455.156
1133.729, 1291.934
1134.822, 934.7539
1135.916, 1070.195
1137.009, 782.9570
1138.102, 962.7148
1139.195, 630.4648
1140.288, 850.2148
1141.380, 646.9570
1142.473, 570.6953
1143.565, 770.6016
1144.657, 586.3281
1145.749, 361.0469
1146.841, 756.7656
1147.932, 396.4805
1149.024, 432.1875
1150.115, 577.8867
1151.206, 518.5820
1152.297, 272.2734
1153.388, 543.9570
1154.479, 221.6406
1155.569, 429.3164
1156.659, 197.9922
1157.750, 314.6562
1158.839, 200.3203
1159.929, 12.02344
1161.019, 156.6211
1162.108, 191.2617
1163.198, 99.90234
1164.287, 92.53906
1165.376, 128.1641
1166.465, 34.21094
1167.553, 65.60156
1168.642, 217.0117
1169.730, 222.4648
1170.818, 14.05078
1171.906, 166.4180
1172.994, 132.1133
1174.082, 144.3320
1175.170, 11.21875
1176.257, 87.76562
1177.344, 218.3438
1178.431, 123.3867
1179.518, 158.4180
1180.605, 106.3672
1181.691, 44.48047
1182.778, 12.63281
1183.864, 132.7383
1184.950, 78.83984
1186.036, 25.05859
1187.122, 108.9883
1188.207, 166.0078
1189.292, 253.0000
1190.378, 28.85156
1191.463, 79.31250
1192.548, 129.5273
1193.632, 51.17578
1194.717, 1.867188
1195.801, 160.5469
1196.886, 21.21875
1197.970, 189.8828
1199.054, 39.53906
1200.137, 231.1914
1201.221, 111.8359
1202.305, 462.4766
1203.388, 280.1094
1204.471, 133.7383
1205.554, 141.3594
1206.637, 14.97266
1207.719, 269.5742
1208.802, 2.171875
1209.884, 277.7539
1210.966, 310.6719
1212.048, 61.72266
1213.130, 71.11328
1214.212, 512.4961
1215.293, 40.87109
1216.374, 113.2422
1217.456, 35.39453
1218.536, 269.9375
1219.617, 2.738281
1220.698, 533.5703
1221.778, 71.86719
1222.859, 459.1641
1223.939, 126.4492
1225.019, 261.7266
1226.099, 266.0039
1227.178, 309.2773
1228.258, 307.3047
1229.337, 261.7930
1230.417, 321.0430
1231.496, 289.2852
1232.574, 462.5195
1233.653, 258.7617
1234.732, 368.9961
1235.810, 454.2227
1236.888, 85.44531
1237.966, 95.66016
1239.044, 335.8711
1240.122, 16.92578
1241.199, 86.75000
1242.277, 119.3633
1243.354, 310.4727
1244.431, 139.5781
1245.508, 251.6719
1246.585, 46.76562
1247.661, 64.14844
1248.738, 162.8867
1249.814, 254.9180
1250.890, 122.9453
1251.966, 195.9688
1253.042, 266.9844
1254.117, 217.1445
1255.193, 227.8516
1256.268, 211.0234
1257.343, 92.03125
1258.418, 56.03906
1259.493, 120.9648
1260.567, 94.94922
1261.642, 169.8516
1262.716, 217.7383
1263.790, 47.60938
1264.864, 13.52734
1265.938, 89.31641
1267.011, 141.1328
1268.085, 205.9375
1269.158, 351.7344
1270.231, 125.5117
1271.304, 142.2812
1272.377, 39.95703
1273.450, 53.77344
1274.522, 494.4961
1275.594, 134.2070
1276.666, 505.9062
1277.738, 120.5938
1278.810, 258.2695
1279.882, 458.9336
1280.953, 214.5859
1282.025, 155.2344
1283.096, 279.8672
1284.167, 135.4922
1285.238, 368.1133
1286.308, 214.7188
1287.379, 146.3164
1288.449, 351.9062
1289.519, 489.5352
1290.589, 125.1133
