##NAMES=Elbaite
##RRUFFID=R060631
##IDEAL CHEMISTRY=Na(Al_1.5_Li_1.5_)Al_6_(Si_6_O_18_)(BO_3_)_3_(OH)_3_OH
##LOCALITY=unknown
##OWNER=RRUFF
##SOURCE=Gemological Institute of America
##DESCRIPTION=Pink polished fragment
##STATUS=The identification of this mineral is confirmed by single-crystal X-ray diffraction and chemical analysis.
##URL=rruff.info/R060631
##MEASURED CHEMISTRY=(Na_0.55_Ca_0.34_[box]_0.11_)(Li_1.53_Al_1.30_Mn_0.14_Fe^2+^_0.03_)Al_6.00_(BO_3_)_3_[Si_6.00_O_18_]((OH)_0.82_F_0.18_)_4_
##PIN_ID=L01326
##ORIENTATION=Laser parallel to -c* (0 0 -1). Fiducial mark perpendicular to laser is parallel to b [0 1 0]
113.2080, 0.0000000E+00
114.4400, 163.8359
115.6710, 230.9688
116.9030, 231.6650
118.1340, 391.6465
119.3650, 386.6807
120.5960, 524.0225
121.8270, 928.8613
123.0580, 1288.405
124.2880, 1333.845
125.5190, 1331.697
126.7490, 1609.111
127.9790, 1929.031
129.2090, 1954.402
130.4390, 1942.051
131.6680, 2234.772
132.8980, 2083.481
134.1270, 1919.895
135.3560, 1710.348
136.5850, 1544.915
137.8140, 1129.507
139.0430, 1191.966
140.2710, 972.3701
141.5000, 890.2500
142.7280, 950.0908
143.9560, 1140.857
145.1840, 1116.917
146.4120, 1502.863
147.6390, 1559.983
148.8670, 1639.281
150.0940, 1796.303
151.3210, 1868.025
152.5490, 1765.435
153.7750, 1590.513
155.0020, 1387.241
156.2290, 1143.601
157.4550, 877.5703
158.6810, 825.1387
159.9080, 517.9102
161.1340, 399.5156
162.3590, 422.5674
163.5850, 229.0527
164.8110, 57.94043
166.0360, 5.195313
167.2610, 68.21191
168.4860, 91.28320
169.7110, 28.01172
170.9360, 187.3916
172.1610, 264.4150
173.3850, 123.0771
174.6100, 172.3750
175.8340, 251.3027
177.0580, 200.8545
178.2820, 161.0293
179.5050, 234.8223
180.7290, 2.230469
181.9520, 136.7480
183.1760, 192.1172
184.3990, 556.8779
185.6220, 619.0332
186.8450, 912.5645
188.0670, 1232.438
189.2900, 1435.674
190.5120, 1563.271
191.7340, 1851.218
192.9560, 2044.502
194.1780, 2285.107
195.4000, 2541.017
196.6220, 2902.211
197.8430, 3210.676
199.0640, 3370.400
200.2860, 3772.378
201.5070, 3919.575
202.7270, 3995.959
203.9480, 4129.195
205.1690, 4452.680
206.3890, 5097.404
207.6090, 5816.056
208.8290, 6613.982
210.0490, 7579.721
211.2690, 8657.148
212.4890, 9821.558
213.7080, 11133.99
214.9280, 12549.39
216.1470, 14434.66
217.3660, 16111.84
218.5850, 18032.90
219.8030, 19289.94
221.0220, 20620.14
222.2400, 20745.63
223.4590, 20688.42
224.6770, 19773.50
225.8950, 18295.88
227.1120, 17087.57
228.3300, 15692.57
229.5480, 14407.86
230.7650, 13331.46
231.9820, 12611.37
233.1990, 12039.01
234.4160, 11606.38
235.6330, 11497.87
236.8490, 11140.97
238.0660, 11023.36
239.2820, 10757.05
240.4980, 10664.05
241.7140, 10439.33
242.9300, 9958.921
244.1460, 9487.803
245.3610, 8728.983
246.5770, 8047.462
247.7920, 7152.238
249.0070, 6266.309
250.2220, 5638.678
251.4370, 4887.340
252.6510, 4203.297
253.8660, 3639.551
255.0800, 3216.098
256.2940, 2936.938
257.5080, 2490.670
258.7220, 2162.588
259.9360, 1845.442
261.1490, 1629.379
262.3630, 1434.863
263.5760, 1536.695
264.7890, 1256.754
266.0020, 1475.968
267.2150, 1423.291
268.4270, 1389.663
269.6400, 1481.053
270.8520, 1550.458
272.0640, 1604.886
273.2760, 1625.312
274.4880, 1748.674
275.7000, 1624.917
276.9120, 1603.031
278.1230, 1594.064
279.3340, 1729.061
280.5450, 1782.050
281.7560, 1719.062
282.9670, 1721.120
284.1780, 1562.240
285.3880, 1469.744
286.5980, 1448.048
287.8090, 1117.498
289.0190, 906.3389
290.2290, 580.8662
291.4380, 374.9873
292.6480, 124.8486
293.8570, 52.07715
295.0670, 235.7588
296.2760, 327.2129
297.4850, 337.4512
298.6930, 298.4746
299.9020, 205.2832
301.1110, 28.12891
302.3190, 169.7754
303.5270, 662.6523
304.7350, 1107.760
305.9430, 1412.090
307.1510, 1607.643
308.3580, 1821.414
309.5660, 2221.098
310.7730, 2252.543
311.9800, 2622.140
313.1870, 2940.256
314.3940, 3055.834
315.6010, 3360.927
316.8070, 3559.491
318.0130, 3955.214
319.2200, 4569.148
320.4260, 4890.994
321.6310, 5488.027
322.8370, 5889.836
324.0430, 6547.795
325.2480, 7036.276
326.4540, 7430.297
327.6590, 7723.191
328.8640, 7612.740
330.0680, 7860.912
331.2730, 7727.337
332.4780, 7332.045
333.6820, 7310.050
334.8860, 6887.338
336.0900, 6494.907
337.2940, 6333.748
338.4980, 5820.826
339.7010, 5618.117
340.9050, 5498.607
342.1080, 5421.296
343.3110, 5307.184
344.5140, 5226.268
345.7170, 5235.548
346.9200, 5268.024
348.1220, 5223.697
349.3240, 5471.562
350.5270, 5699.561
351.7290, 6033.680
352.9310, 6618.976
354.1320, 6850.467
355.3340, 7261.158
356.5350, 8148.047
357.7370, 8886.133
358.9380, 9777.413
360.1390, 10685.89
361.3400, 11941.57
362.5400, 13137.45
363.7410, 14409.54
364.9410, 16152.82
366.1410, 17564.31
367.3410, 19823.99
368.5410, 21557.88
369.7410, 23647.98
370.9400, 26360.27
372.1400, 28363.75
373.3390, 30592.44
374.5380, 32201.33
375.7370, 33302.41
376.9360, 33499.69
378.1350, 32256.17
379.3330, 30659.84
380.5310, 27801.70
381.7300, 25278.75
382.9280, 22480.00
384.1260, 19675.44
385.3230, 17513.07
386.5210, 15524.88
387.7180, 13820.89
388.9160, 12660.08
390.1130, 11919.46
391.3100, 10929.03
392.5060, 10383.78
393.7030, 10161.71
394.9000, 9949.835
396.0960, 9785.137
397.2920, 10093.62
398.4880, 10110.29
399.6840, 10116.13
400.8800, 10586.16
402.0750, 10843.39
403.2710, 11118.82
404.4660, 11170.48
405.6610, 11336.37
406.8560, 11208.54
408.0510, 11093.98
409.2450, 10705.69
410.4400, 10291.69
411.6340, 9625.962
412.8280, 8766.478
414.0220, 7687.201
415.2160, 6733.109
416.4100, 5536.197
417.6030, 4749.470
418.7970, 3881.923
419.9900, 2988.562
421.1830, 2263.382
422.3760, 1805.389
423.5690, 1342.580
424.7610, 1073.958
425.9540, 876.5225
427.1460, 718.2715
428.3380, 485.2070
429.5300, 399.3291
430.7220, 317.6406
431.9140, 389.1416
433.1050, 495.8350
434.2970, 508.7217
435.4880, 612.8066
436.6790, 709.0879
437.8700, 948.1387
439.0610, 912.5195
440.2510, 1074.980
441.4420, 1104.411
442.6320, 1272.048
443.8220, 1374.927
445.0120, 1391.574
446.2020, 1330.410
447.3910, 1469.438
448.5810, 1504.658
449.7700, 1334.066
450.9600, 1462.664
452.1490, 1482.448
453.3370, 1468.423
454.5260, 1542.604
455.7150, 1452.003
456.9030, 1369.633
458.0910, 1549.495
459.2800, 1507.574
460.4670, 1509.602
461.6550, 1624.987
462.8430, 1655.252
464.0300, 1807.631
465.2180, 1868.317
466.4050, 2010.236
467.5920, 2044.342
468.7790, 1887.295
469.9650, 2034.448
471.1520, 1786.824
472.3380, 1610.429
473.5250, 1640.277
474.7110, 1531.895
475.8970, 1342.022
477.0820, 1324.673
478.2680, 1444.218
479.4540, 1308.858
480.6390, 1358.031
481.8240, 1126.874
483.0090, 1137.811
484.1940, 1153.896
485.3780, 773.1318
486.5630, 946.5137
487.7470, 997.0420
488.9320, 869.7168
490.1160, 1066.535
491.3000, 1005.498
492.4830, 1067.605
493.6670, 1032.855
494.8500, 1323.246
496.0340, 1617.779
497.2170, 1635.453
498.4000, 1881.266
499.5820, 2051.223
500.7650, 2300.327
501.9480, 2624.582
503.1300, 3059.992
504.3120, 3424.563
505.4940, 3613.300
506.6760, 3784.203
507.8580, 4086.275
509.0390, 4394.506
510.2210, 4446.895
511.4020, 4817.439
512.5830, 4708.137
513.7640, 4839.988
514.9450, 4835.973
516.1250, 4750.092
517.3060, 4816.344
518.4860, 4450.722
519.6660, 4421.230
520.8460, 4472.857
522.0260, 4752.606
523.2060, 4059.473
524.3850, 4018.457
525.5650, 4344.559
526.7440, 4227.774
527.9230, 4757.104
529.1020, 5104.549
530.2810, 5482.104
531.4590, 5864.771
532.6380, 6244.748
533.8160, 6631.928
534.9940, 6988.459
536.1720, 7376.624
537.3500, 7660.959
538.5270, 7955.474
539.7050, 8111.536
540.8820, 8021.043
542.0590, 8287.107
543.2360, 8241.137
544.4130, 8227.438
545.5900, 8213.712
546.7660, 8220.491
547.9430, 8422.558
549.1190, 8355.301
550.2950, 8377.457
551.4710, 8187.943
552.6470, 8206.373
553.8220, 7714.911
554.9980, 7361.122
556.1730, 7236.005
557.3480, 6775.702
558.5230, 5951.477
559.6980, 5841.323
560.8730, 5299.246
562.0470, 4686.240
563.2220, 4414.307
564.3960, 4074.441
565.5700, 3563.647
566.7440, 3033.920
567.9170, 2789.260
569.0910, 2444.665
570.2640, 2112.135
571.4380, 1928.667
572.6110, 1604.261
573.7840, 1390.915
574.9570, 1296.629
576.1290, 1056.400
577.3020, 874.2285
578.4740, 949.1123
579.6460, 774.0537
580.8180, 900.0625
581.9900, 785.1484
583.1620, 863.3115
584.3330, 734.5449
585.5040, 728.8379
586.6760, 898.1787
587.8470, 516.5635
589.0180, 592.9932
590.1880, 425.4658
591.3590, 434.9795
592.5290, 442.5322
593.7000, 339.1240
594.8700, 301.7529
596.0400, 228.4189
597.2090, 156.3789
598.3790, 77.85254
599.5490, 51.61719
600.7180, 9.586914
601.8870, 4.225586
603.0560, 40.94238
604.2250, 123.1074
605.3940, 208.1016
606.5620, 224.5615
607.7300, 358.8955
608.8990, 421.3682
610.0670, 286.0078
611.2350, 396.7578
612.4020, 412.6699
613.5700, 220.7549
614.7370, 307.9287
615.9050, 421.2344
617.0720, 332.7246
618.2390, 324.7197
619.4060, 302.1426
620.5720, 132.0635
621.7390, 12.04883
622.9050, 116.9463
624.0710, 169.9482
625.2370, 263.9561
626.4030, 191.9668
627.5690, 155.9863
628.7340, 172.0186
629.9000, 177.0576
631.0650, 220.7432
632.2300, 372.1562
633.3950, 396.2412
634.5600, 498.3330
635.7240, 706.4365
636.8890, 853.5439
638.0530, 846.6846
639.2170, 868.8994
640.3810, 894.9629
641.5450, 1033.647
642.7080, 1129.273
643.8720, 1026.737
645.0350, 1004.783
646.1980, 980.3193
647.3610, 898.5225
648.5240, 845.0352
649.6870, 745.6133
650.8490, 669.3887
652.0120, 546.1934
653.1740, 423.9307
654.3360, 408.2930
655.4980, 351.4365
656.6600, 312.4248
657.8210, 358.5234
658.9830, 356.2188
660.1440, 407.0312
661.3050, 402.8105
662.4660, 346.5557
663.6270, 573.2656
664.7870, 532.9395
665.9480, 484.5781
667.1080, 591.1777
668.2680, 530.7383
669.4280, 504.2607
670.5880, 761.7432
671.7480, 653.1826
672.9070, 616.2578
674.0670, 676.9824
675.2260, 523.0830
676.3850, 591.1309
677.5440, 688.5908
678.7030, 417.3975
679.8610, 417.1973
681.0200, 317.2295
682.1780, 93.64160
683.3360, 154.9844
684.4940, 14.45215
685.6520, 17.31055
686.8090, 156.3643
687.9670, 129.5537
689.1240, 137.7764
690.2810, 187.7510
691.4380, 160.6895
692.5950, 13.39746
693.7520, 133.0918
694.9080, 340.1064
696.0650, 444.9512
697.2210, 598.7266
698.3770, 909.4297
699.5330, 1105.061
700.6880, 1418.617
701.8440, 1619.102
702.9990, 2158.512
704.1550, 2306.844
705.3100, 2764.104
706.4650, 3304.285
707.6190, 3920.391
708.7740, 4333.418
709.9290, 5241.367
711.0830, 6051.238
712.2370, 6915.031
713.3910, 8248.740
714.5450, 9424.371
715.6980, 11047.92
716.8520, 12951.39
718.0050, 15169.77
719.1580, 18012.08
720.3110, 20938.30
721.4640, 24729.44
722.6170, 28600.49
723.7700, 33082.45
724.9220, 37362.33
726.0740, 41861.14
727.2260, 45405.84
728.3780, 48052.46
729.5300, 49783.99
730.6810, 49805.43
731.8330, 48183.79
732.9840, 45194.06
734.1350, 41198.24
735.2860, 37408.31
736.4370, 32773.32
737.5880, 28659.23
738.7380, 25359.04
739.8880, 22561.07
741.0390, 19745.36
742.1890, 17784.01
743.3380, 15750.14
744.4880, 14043.12
745.6380, 12247.02
746.7870, 11153.86
747.9360, 9955.998
749.0850, 9169.024
750.2340, 8349.908
751.3830, 7669.642
752.5310, 7010.889
753.6800, 6492.078
754.8280, 5913.516
755.9760, 5453.504
757.1240, 5156.668
758.2720, 5011.805
759.4190, 4514.619
760.5670, 4149.711
761.7140, 3773.224
762.8610, 3260.632
764.0080, 3036.973
765.1550, 2543.943
766.3020, 2432.372
767.4480, 1958.814
768.5950, 1768.786
769.7410, 1275.796
770.8870, 1142.515
772.0330, 953.5078
773.1780, 784.5586
774.3240, 582.0146
775.4690, 440.7305
776.6140, 302.0049
777.7590, 247.6533
778.9040, 216.9404
780.0490, 134.7734
781.1940, 107.1533
782.3380, 64.31055
783.4820, 52.67578
784.6260, 46.16113
785.7700, 67.05273
786.9140, 103.1240
788.0580, 96.72363
789.2010, 95.18359
790.3450, 96.50195
791.4880, 304.6807
792.6310, 254.7568
793.7730, 254.7256
794.9160, 427.5859
796.0590, 274.3555
797.2010, 538.0195
798.3430, 753.5957
799.4850, 858.0859
800.6270, 995.4697
801.7690, 1054.803
802.9100, 1088.031
804.0520, 1060.863
805.1930, 995.7988
806.3340, 940.1973
807.4750, 689.0791
808.6160, 600.8750
809.7560, 395.5859
810.8970, 104.2021
812.0370, 35.68652
813.1770, 79.98535
814.3170, 119.8740
815.4570, 110.9990
816.5960, 144.3555
817.7360, 149.7686
818.8750, 125.8135
820.0140, 160.6973
821.1530, 165.9219
822.2920, 163.1914
823.4310, 114.0352
824.5690, 25.77441
825.7070, 104.8906
826.8460, 111.1875
827.9840, 201.6465
829.1220, 226.3682
830.2590, 286.6816
831.3970, 360.3281
832.5340, 384.3066
833.6710, 454.4766
834.8080, 418.5742
835.9450, 601.6025
837.0820, 508.5576
838.2190, 575.4424
839.3550, 473.2568
840.4910, 515.0020
841.6270, 444.6768
842.7630, 504.2812
843.8990, 475.8184
845.0350, 443.2842
846.1700, 461.6826
847.3060, 474.8340
848.4410, 523.2754
849.5760, 528.4697
850.7100, 628.5977
851.8450, 619.6582
852.9800, 619.6533
854.1140, 596.5811
855.2480, 724.4434
856.3820, 811.2393
857.5160, 944.9717
858.6500, 1058.639
859.7830, 1074.241
860.9170, 1091.781
862.0500, 1221.256
863.1830, 1080.668
864.3160, 1218.019
865.4480, 1107.306
866.5810, 997.5322
867.7130, 1263.696
868.8460, 1122.799
869.9780, 1085.841
871.1100, 1167.823
872.2410, 1215.744
873.3730, 1196.608
874.5050, 1215.411
875.6360, 1146.156
876.7670, 1167.849
877.8980, 1113.488
879.0290, 1033.081
880.1590, 1075.643
881.2900, 1049.193
882.4200, 896.7363
883.5500, 856.3008
884.6800, 740.9023
885.8100, 612.5146
886.9400, 696.1611
888.0690, 621.8457
889.1990, 525.5293
890.3280, 508.2324
891.4570, 381.9795
892.5860, 360.7539
893.7140, 326.5547
894.8430, 294.3779
895.9710, 274.1758
897.1000, 188.9600
898.2280, 192.6807
899.3560, 187.3691
900.4830, 68.00977
901.6110, 37.40820
902.7380, 1.902344
903.8660, 31.54004
904.9930, 35.07715
906.1200, 140.7578
907.2460, 42.52734
908.3730, 77.36719
909.5000, 32.27148
910.6260, 167.2344
911.7520, 92.31934
912.8780, 87.48926
914.0040, 99.60156
915.1290, 32.62891
916.2550, 51.85840
917.3800, 14.78516
918.5050, 210.9629
919.6300, 137.1875
920.7550, 262.0869
921.8800, 146.8789
923.0040, 504.9365
924.1290, 444.7676
925.2530, 565.5225
926.3770, 597.2949
927.5010, 621.4121
928.6250, 756.8203
929.7480, 873.2129
930.8720, 1065.562
931.9950, 1257.279
933.1180, 1426.840
934.2410, 1695.399
935.3640, 1643.932
936.4860, 1908.442
937.6090, 1929.936
938.7310, 1922.410
939.8530, 1993.898
940.9750, 2063.146
942.0970, 2284.837
943.2180, 2291.299
944.3400, 2353.772
945.4610, 2530.558
946.5820, 2510.625
947.7030, 2321.245
948.8240, 2478.861
949.9450, 2510.990
951.0650, 2772.698
952.1860, 2730.346
953.3060, 2775.692
954.4260, 2639.596
955.5460, 2611.473
956.6650, 2556.146
957.7850, 2531.312
958.9040, 2625.889
960.0230, 2710.812
961.1420, 2720.052
962.2610, 2809.973
963.3800, 2791.127
964.4990, 2905.872
965.6170, 2974.280
966.7350, 3014.059
967.8530, 3168.922
968.9710, 3148.846
970.0890, 3319.619
971.2070, 3213.455
972.3240, 3367.281
973.4410, 3528.099
974.5580, 3528.908
975.6750, 3479.708
976.7920, 3574.501
977.9090, 3535.285
979.0250, 3633.062
980.1410, 3455.833
981.2580, 3585.596
982.3740, 3498.353
983.4890, 3468.104
984.6050, 3528.847
985.7200, 3354.584
986.8360, 3336.316
987.9510, 3213.043
989.0660, 3134.766
990.1810, 3278.482
991.2950, 3077.193
992.4100, 3197.900
993.5240, 2980.604
994.6390, 3105.302
995.7530, 3067.998
996.8660, 3058.689
997.9800, 3200.378
999.0940, 3408.062
1000.207, 3627.745
1001.320, 3613.424
1002.433, 3706.100
1003.546, 3488.774
1004.659, 3382.447
1005.772, 3382.117
1006.884, 3416.787
1007.996, 3469.454
1009.108, 3583.120
1010.220, 3728.786
1011.332, 3821.329
1012.444, 4172.112
1013.555, 4123.777
1014.666, 4536.438
1015.777, 4837.101
1016.888, 5019.760
1017.999, 5270.422
1019.110, 5521.080
1020.220, 5764.737
1021.331, 5980.395
1022.441, 6109.049
1023.551, 6538.809
1024.661, 6596.547
1025.770, 6736.340
1026.880, 7063.219
1027.989, 7187.142
1029.098, 7398.826
1030.207, 7521.297
1031.316, 7708.281
1032.425, 7874.797
1033.533, 8083.818
1034.642, 8261.273
1035.750, 8465.423
1036.858, 8851.901
1037.966, 9256.991
1039.073, 9750.454
1040.181, 10234.79
1041.288, 10839.98
1042.396, 11239.96
1043.503, 11763.27
1044.610, 12581.68
1045.716, 13341.08
1046.823, 13851.05
1047.929, 14831.71
1049.036, 15682.60
1050.142, 16688.90
1051.248, 18016.03
1052.353, 19119.10
1053.459, 20323.21
1054.564, 21928.64
1055.670, 23485.78
1056.775, 25078.48
1057.880, 26912.43
1058.985, 28683.45
1060.089, 30199.96
1061.194, 31909.41
1062.298, 33369.22
1063.402, 34507.88
1064.506, 35709.50
1065.610, 35694.76
1066.713, 35552.92
1067.817, 34714.64
1068.920, 33665.86
1070.023, 31889.53
1071.126, 30030.96
1072.229, 27989.88
1073.332, 25873.26
1074.435, 23542.92
1075.537, 21304.38
1076.639, 19483.45
1077.741, 17711.03
1078.843, 15993.37
1079.945, 14074.05
1081.046, 12786.54
1082.148, 11483.51
1083.249, 10425.92
1084.350, 9491.339
1085.451, 8491.217
1086.551, 7592.406
1087.652, 6801.146
1088.752, 6220.838
1089.853, 5666.457
1090.953, 5247.215
1092.053, 4887.111
1093.152, 4430.822
1094.252, 4115.461
1095.351, 3894.106
1096.451, 3685.748
1097.550, 3488.382
1098.649, 3312.169
1099.748, 3160.891
1100.846, 3001.512
1101.945, 2822.172
1103.043, 2701.894
1104.141, 2548.460
1105.239, 2476.012
1106.337, 2188.553
1107.434, 2244.080
1108.532, 2221.597
1109.629, 2067.100
1110.726, 1843.588
1111.823, 1846.171
1112.920, 1770.635
1114.017, 1665.086
1115.113, 1515.525
1116.210, 1576.950
1117.306, 1285.361
1118.402, 1365.761
1119.498, 1262.146
1120.593, 1050.520
1121.689, 1053.879
1122.784, 972.0029
1123.879, 1087.555
1124.974, 919.8721
1126.069, 971.1758
1127.164, 933.4668
1128.259, 853.7432
1129.353, 861.0049
1130.447, 757.2529
1131.541, 664.4873
1132.635, 582.7070
1133.729, 552.9111
1134.822, 740.1016
1135.916, 495.2783
1137.009, 441.4395
1138.102, 650.5859
1139.195, 446.7188
1140.288, 564.8340
1141.380, 646.9365
1142.473, 503.8438
1143.565, 507.0938
1144.657, 388.1504
1145.749, 363.1904
1146.841, 414.2148
1147.932, 291.2256
1149.024, 237.2188
1150.115, 287.1973
1151.206, 188.1582
1152.297, 143.1045
1153.388, 246.0352
1154.479, 98.94922
1155.569, 104.8457
1156.659, 91.72461
1157.750, 72.58691
1158.839, 62.42969
1159.929, 110.2549
1161.019, 7.938477
1162.108, 99.84082
1163.198, 75.39453
1164.287, 3.692383
1165.376, 135.9863
1166.465, 79.65234
1167.553, 102.3105
1168.642, 38.96094
1169.730, 11.40332
1170.818, 85.78906
1171.906, 73.78711
1172.994, 54.64258
1174.082, 19.11230
1175.170, 28.39062
1176.257, 146.0879
1177.344, 1.653320
1178.431, 56.24512
1179.518, 37.12305
1180.605, 71.52539
1181.691, 126.2383
1182.778, 68.04297
1183.864, 55.91309
1184.950, 52.84570
1186.036, 20.20117
1187.122, 86.87988
1188.207, 26.00000
1189.292, 10.16895
1190.378, 96.37891
1191.463, 206.6768
1192.548, 100.1191
1193.632, 192.6514
1194.717, 80.32324
1195.801, 57.85547
1196.886, 87.89551
1197.970, 17.20020
1199.054, 8.733398
1200.137, 15.71094
1201.221, 11.73535
1202.305, 130.8037
1203.388, 39.01953
1204.471, 158.1807
1205.554, 11.50488
1206.637, 116.8750
1207.719, 29.34375
1208.802, 41.13086
1209.884, 20.58203
1210.966, 10.99609
1212.048, 178.3809
1213.130, 63.73633
1214.212, 76.06738
1215.293, 3.375977
1216.374, 16.28516
1217.456, 49.86133
1218.536, 5.946289
1219.617, 13.20020
1220.698, 98.31152
1221.778, 79.39746
1222.859, 127.4580
1223.939, 148.9941
1225.019, 156.6279
1226.099, 148.4961
1227.178, 178.4619
1228.258, 106.4043
1229.337, 92.32129
1230.417, 148.2139
1231.496, 263.0830
1232.574, 104.9277
1233.653, 151.7500
1234.732, 248.5488
1235.810, 174.3232
1236.888, 312.0752
1237.966, 197.8037
1239.044, 349.5137
1240.122, 254.1992
1241.199, 107.8652
1242.277, 267.5098
1243.354, 321.1299
1244.431, 194.7363
1245.508, 273.3213
1246.585, 262.8857
1247.661, 269.4268
1248.738, 178.9473
1249.814, 355.4463
1250.890, 238.9238
1251.966, 360.3809
1253.042, 215.8145
1254.117, 449.2266
1255.193, 255.6182
1256.268, 312.9893
1257.343, 315.3369
1258.418, 298.6650
1259.493, 474.9727
1260.567, 409.2588
1261.642, 547.5244
1262.716, 442.7686
1263.790, 618.9932
1264.864, 664.1963
1265.938, 560.3799
1267.011, 499.5439
1268.085, 718.6885
1269.158, 717.8125
1270.231, 685.9160
1271.304, 702.0000
1272.377, 743.0654
1273.450, 770.1113
1274.522, 1010.138
1275.594, 786.1455
1276.666, 795.1348
1277.738, 983.1045
1278.810, 753.0566
1279.882, 700.9902
1280.953, 734.9053
1282.025, 829.8027
1283.096, 884.6826
1284.167, 693.4375
1285.238, 778.1953
1286.308, 750.8760
