##NAMES=Elbaite
##RRUFFID=R050260
##IDEAL CHEMISTRY=Na(Al_1.5_Li_1.5_)Al_6_(Si_6_O_18_)(BO_3_)_3_(OH)_3_OH
##LOCALITY=Minas Gerais, Brazil
##OWNER=RRUFF
##SOURCE=Marcus Origlieri
##DESCRIPTION=Greenish-gray prismatic single crystal
##STATUS=The identification of this mineral has been confirmed by X-ray diffraction and chemical analysis
##URL=rruff.info/R050260
##MEASURED CHEMISTRY=(Na_0.76_[box]_0.17_Ca_0.07_)_Σ=1_(Al_1.67_Li_0.97_Mn_0.36_)_Σ=3_Al_6.00_(B_1.00_O_3_)_3_Si_6.00_O_18_((OH)_3.40_F_0.60_)_Σ=4_; B assumed by stoichiometry; OH estimated by charge balance
##PIN_ID=L01964
##ORIENTATION=Laser parallel to a* (1 0 0). Fiducial mark perpendicular to laser is parallel to -c [0 0 -1]
118.1340, 0.0000000E+00
119.3650, 60.89746
120.5960, 2.815430
121.8270, 46.49219
123.0580, 569.6348
124.2880, 523.2783
125.5190, 397.1074
126.7490, 156.4814
127.9790, 525.4824
129.2090, 702.8223
130.4390, 972.6250
131.6680, 1022.002
132.8980, 964.6826
134.1270, 864.3291
135.3560, 907.3174
136.5850, 1033.617
137.8140, 960.5938
139.0430, 1019.549
140.2710, 1107.250
141.5000, 548.3867
142.7280, 155.4766
143.9560, 124.8682
145.1840, 37.84375
146.4120, 14.21973
147.6390, 440.8086
148.8670, 762.0146
150.0940, 1045.881
151.3210, 1615.856
152.5490, 1857.568
153.7750, 2097.850
155.0020, 2307.690
156.2290, 2401.650
157.4550, 2352.998
158.6810, 2450.429
159.9080, 2387.355
161.1340, 2232.759
162.3590, 2370.699
163.5850, 2147.738
164.8110, 2241.752
166.0360, 1818.080
167.2610, 1441.714
168.4860, 1091.652
169.7110, 953.8926
170.9360, 904.4141
172.1610, 484.2021
173.3850, 346.2617
174.6100, 37.40332
175.8340, 151.7852
177.0580, 52.87695
178.2820, 210.6748
179.5050, 88.17285
180.7290, 243.3672
181.9520, 153.2539
183.1760, 217.8301
184.3990, 72.90820
185.6220, 96.96289
186.8450, 188.3379
188.0670, 596.0371
189.2900, 716.0605
190.5120, 946.4102
191.7340, 1086.072
192.9560, 1325.994
194.1780, 1617.174
195.4000, 1848.604
196.6220, 2182.270
197.8430, 2211.164
199.0640, 2391.275
200.2860, 2753.586
201.5070, 3335.090
202.7270, 3488.785
203.9480, 3685.666
205.1690, 3622.699
206.3890, 4252.801
207.6090, 4563.059
208.8290, 5700.840
210.0490, 6608.375
211.2690, 7868.793
212.4890, 9287.127
213.7080, 10733.65
214.9280, 11957.36
216.1470, 13207.28
217.3660, 15061.40
218.5850, 16472.75
219.8030, 18304.27
221.0220, 20122.77
222.2400, 21575.24
223.4590, 22938.64
224.6770, 23159.06
225.8950, 22471.72
227.1120, 21192.65
228.3300, 18898.84
229.5480, 16825.29
230.7650, 15111.99
231.9820, 13609.94
233.1990, 12260.15
234.4160, 11091.62
235.6330, 10350.34
236.8490, 9617.316
238.0660, 9361.547
239.2820, 9197.018
240.4980, 8902.742
241.7140, 8787.715
242.9300, 8662.943
244.1460, 8417.418
245.3610, 8317.139
246.5770, 7962.113
247.7920, 7692.336
249.0070, 6972.805
250.2220, 6446.525
251.4370, 5829.494
252.6510, 5232.711
253.8660, 4606.178
255.0800, 4151.891
256.2940, 3852.852
257.5080, 3972.059
258.7220, 3603.395
259.9360, 3280.873
261.1490, 3244.162
262.3630, 2601.354
263.5760, 2344.791
264.7890, 2358.988
266.0020, 2417.312
267.2150, 2392.703
268.4270, 2577.223
269.6400, 2618.781
270.8520, 2696.379
272.0640, 2729.977
273.2760, 2743.562
274.4880, 2734.150
275.7000, 2620.758
276.9120, 2525.953
278.1230, 2434.881
279.3340, 2213.223
280.5450, 1950.574
281.7560, 1765.930
282.9670, 1432.311
284.1780, 1184.744
285.3880, 1124.248
286.5980, 742.8359
287.8090, 666.5234
289.0190, 473.0293
290.2290, 392.2695
291.4380, 80.15820
292.6480, 88.21680
293.8570, 191.0488
295.0670, 235.6445
296.2760, 203.5996
297.4850, 142.6387
298.6930, 342.4844
299.9020, 298.1152
301.1110, 181.5215
302.3190, 16.70312
303.5270, 161.8457
304.7350, 410.6387
305.9430, 628.1797
307.1510, 916.9688
308.3580, 1176.049
309.5660, 1558.371
310.7730, 1631.965
311.9800, 1918.811
313.1870, 2379.904
314.3940, 2302.248
315.6010, 2799.875
316.8070, 2904.766
318.0130, 3297.918
319.2200, 3876.309
320.4260, 4088.535
321.6310, 4481.730
322.8370, 5149.371
324.0430, 5824.406
325.2480, 6263.238
326.4540, 6877.602
327.6590, 7242.871
328.8640, 8060.957
330.0680, 8424.154
331.2730, 8930.531
332.4780, 9133.078
333.6820, 9747.801
334.8860, 9860.691
336.0900, 10073.76
337.2940, 9906.992
338.4980, 9961.398
339.7010, 9768.969
340.9050, 9535.715
342.1080, 9376.625
343.3110, 9097.707
344.5140, 8706.953
345.7170, 8974.365
346.9200, 8823.945
348.1220, 8933.695
349.3240, 8611.609
350.5270, 8874.688
351.7290, 8912.910
352.9310, 8933.242
354.1320, 9197.668
355.3340, 9798.199
356.5350, 10214.90
357.7370, 11026.76
358.9380, 11881.80
360.1390, 13297.00
361.3400, 15071.37
362.5400, 16828.90
363.7410, 18932.61
364.9410, 20679.48
366.1410, 22845.51
367.3410, 24793.71
368.5410, 26944.08
369.7410, 29700.62
370.9400, 32117.33
372.1400, 35277.20
373.3390, 38203.24
374.5380, 40372.45
375.7370, 40822.82
376.9360, 39879.36
378.1350, 37849.06
379.3330, 34456.91
380.5310, 31406.95
381.7300, 28202.13
382.9280, 24878.48
384.1260, 22150.99
385.3230, 19962.65
386.5210, 17653.49
387.7180, 15849.48
388.9160, 14756.63
390.1130, 13588.94
391.3100, 12568.41
392.5060, 11855.04
393.7030, 11046.82
394.9000, 10560.77
396.0960, 9955.871
397.2920, 9852.133
398.4880, 9728.549
399.6840, 9601.121
400.8800, 9431.854
402.0750, 9391.738
403.2710, 9616.781
404.4660, 9392.973
405.6610, 9438.324
406.8560, 9284.828
408.0510, 9199.484
409.2450, 9069.301
410.4400, 8705.836
411.6340, 8278.410
412.8280, 7835.707
414.0220, 7382.160
415.2160, 6759.777
416.4100, 5992.551
417.6030, 4922.486
418.7970, 4321.584
419.9900, 3676.842
421.1830, 3157.262
422.3760, 2510.846
423.5690, 2126.590
424.7610, 1643.500
425.9540, 1491.572
427.1460, 1089.812
428.3380, 1186.213
429.5300, 955.7812
430.7220, 873.5098
431.9140, 769.4043
433.1050, 783.4629
434.2970, 838.6895
435.4880, 714.0957
436.6790, 718.6855
437.8700, 814.4180
439.0610, 1038.100
440.2510, 1175.900
441.4420, 1209.246
442.6320, 1367.771
443.8220, 1500.729
445.0120, 1621.598
446.2020, 1660.303
447.3910, 1877.559
448.5810, 1851.230
449.7700, 1882.594
450.9600, 2013.604
452.1490, 2005.926
453.3370, 1953.178
454.5260, 2043.922
455.7150, 1947.238
456.9030, 1849.156
458.0910, 1991.674
459.2800, 1839.627
460.4670, 1869.150
461.6550, 1969.105
462.8430, 1704.230
464.0300, 1724.910
465.2180, 1489.121
466.4050, 1656.650
467.5920, 1617.936
468.7790, 1389.012
469.9650, 1506.426
471.1520, 1369.832
472.3380, 1284.461
473.5250, 1135.199
474.7110, 1103.074
475.8970, 1186.082
477.0820, 1134.223
478.2680, 1256.195
479.4540, 1395.902
480.6390, 1477.441
481.8240, 1588.109
483.0090, 1677.908
484.1940, 1946.840
485.3780, 2193.896
486.5630, 2494.086
487.7470, 2777.402
488.9320, 3010.848
490.1160, 3251.418
491.3000, 3598.117
492.4830, 3750.941
493.6670, 4017.895
494.8500, 4325.971
496.0340, 4319.172
497.2170, 4820.500
498.4000, 4569.953
499.5820, 4694.527
500.7650, 4759.227
501.9480, 4914.049
503.1300, 4985.992
504.3120, 5049.062
505.4940, 5099.250
506.6760, 5120.559
507.8580, 5285.988
509.0390, 5374.533
510.2210, 5249.201
511.4020, 5127.986
512.5830, 5101.885
513.7640, 5199.902
514.9450, 5030.035
516.1250, 5041.285
517.3060, 4663.645
518.4860, 4497.121
519.6660, 4313.707
520.8460, 4165.422
522.0260, 3888.270
523.2060, 3644.244
524.3850, 3615.383
525.5650, 3547.682
526.7440, 3451.105
527.9230, 3453.602
529.1020, 3389.477
530.2810, 3498.490
531.4590, 3553.732
532.6380, 3730.162
533.8160, 3825.789
534.9940, 3862.262
536.1720, 4030.564
537.3500, 3927.738
538.5270, 4002.066
539.7050, 4053.584
540.8820, 4109.250
542.0590, 3794.088
543.2360, 3501.051
544.4130, 3477.156
545.5900, 3223.387
546.7660, 2980.719
547.9430, 2642.145
549.1190, 2458.660
550.2950, 2421.268
551.4710, 2181.967
552.6470, 2024.756
553.8220, 1752.635
554.9980, 1702.600
556.1730, 1636.654
557.3480, 1595.793
558.5230, 1430.018
559.6980, 1245.324
560.8730, 1106.717
562.0470, 985.1914
563.2220, 832.7480
564.3960, 726.3828
565.5700, 754.0996
566.7440, 587.8965
567.9170, 473.7656
569.0910, 421.7148
570.2640, 544.7402
571.4380, 332.8398
572.6110, 326.0117
573.7840, 151.2578
574.9570, 353.5742
576.1290, 111.9629
577.3020, 200.4238
578.4740, 155.9492
579.6460, 31.43945
580.8180, 54.23242
581.9900, 79.98828
583.1620, 165.1836
584.3330, 199.3359
585.5040, 145.4941
586.6760, 174.6504
587.8470, 89.83008
589.0180, 254.0020
590.1880, 202.2383
591.3590, 416.5176
592.5290, 209.9395
593.7000, 354.4121
594.8700, 266.0039
596.0400, 252.6758
597.2090, 258.4219
598.3790, 411.2480
599.5490, 322.2266
600.7180, 309.3203
601.8870, 220.5234
603.0560, 218.7969
604.2250, 166.1426
605.3940, 71.53906
606.5620, 32.94727
607.7300, 21.64844
608.8990, 9.267578
610.0670, 34.09766
611.2350, 111.5391
612.4020, 83.21289
613.5700, 93.92578
614.7370, 229.6777
615.9050, 397.4688
617.0720, 386.3027
618.2390, 552.1855
619.4060, 612.1152
620.5720, 997.0898
621.7390, 1118.127
622.9050, 1545.225
624.0710, 1828.367
625.2370, 2139.557
626.4030, 2621.428
627.5690, 3019.812
628.7340, 3621.467
629.9000, 4073.893
631.0650, 4703.396
632.2300, 5435.967
633.3950, 5564.582
634.5600, 5861.240
635.7240, 5724.977
636.8890, 5645.754
638.0530, 5357.578
639.2170, 4859.463
640.3810, 4353.385
641.5450, 3802.355
642.7080, 3388.357
643.8720, 2910.701
645.0350, 2317.455
646.1980, 2052.539
647.3610, 1761.648
648.5240, 1359.777
649.6870, 1167.920
650.8490, 938.0742
652.0120, 918.2422
653.1740, 774.4180
654.3360, 576.6055
655.4980, 592.8008
656.6600, 505.0020
657.8210, 603.2129
658.9830, 658.7969
660.1440, 515.3164
661.3050, 520.7051
662.4660, 570.2910
663.6270, 712.3867
664.7870, 547.9512
665.9480, 530.8828
667.1080, 558.3398
668.2680, 484.6895
669.4280, 564.6523
670.5880, 489.4883
671.7480, 557.8652
672.9070, 540.7734
674.0670, 673.3145
675.2260, 802.1328
676.3850, 862.9961
677.5440, 915.8809
678.7030, 968.3418
679.8610, 983.7871
681.0200, 998.5215
682.1780, 1094.189
683.3360, 1213.334
684.4940, 1208.062
685.6520, 1425.701
686.8090, 1656.672
687.9670, 1873.549
689.1240, 2412.393
690.2810, 2836.203
691.4380, 3687.980
692.5950, 4485.725
693.7520, 5452.432
694.9080, 6660.104
696.0650, 8062.738
697.2210, 9247.336
698.3770, 10925.89
699.5330, 12251.42
700.6880, 13877.90
701.8440, 15514.34
702.9990, 16850.74
704.1550, 18347.10
705.3100, 19297.42
706.4650, 20379.69
707.6190, 20478.92
708.7740, 20695.11
709.9290, 19825.25
711.0830, 18879.35
712.2370, 17529.40
713.3910, 15788.40
714.5450, 14137.36
715.6980, 12524.26
716.8520, 10811.12
718.0050, 9373.935
719.1580, 7994.816
720.3110, 6856.808
721.4640, 5961.189
722.6170, 5092.524
723.7700, 4536.954
724.9220, 4150.896
726.0740, 3741.188
727.2260, 3472.430
728.3780, 3294.445
729.5300, 3267.719
730.6810, 3188.538
731.8330, 3304.152
732.9840, 3502.942
734.1350, 3906.348
735.2860, 4137.285
736.4370, 4648.722
737.5880, 5208.666
738.7380, 6091.271
739.8880, 7045.409
741.0390, 8142.209
742.1890, 9415.942
743.3380, 10989.24
744.4880, 12837.17
745.6380, 14793.90
746.7870, 16375.29
747.9360, 18429.76
749.0850, 20386.30
750.2340, 22258.75
751.3830, 23654.72
752.5310, 24495.47
753.6800, 24307.41
754.8280, 23426.79
755.9760, 22225.79
757.1240, 20467.31
758.2720, 18356.76
759.4190, 16930.57
760.5670, 15116.31
761.7140, 13999.60
762.8610, 12976.83
764.0080, 11802.49
765.1550, 10938.16
766.3020, 10019.34
767.4480, 9273.591
768.5950, 8811.411
769.7410, 8099.766
770.8870, 7690.429
772.0330, 7362.732
773.1780, 7066.899
774.3240, 6815.335
775.4690, 6764.855
776.6140, 6611.047
777.7590, 6232.230
778.9040, 5691.287
780.0490, 5160.732
781.1940, 4412.266
782.3380, 3878.749
783.4820, 3158.426
784.6260, 2659.497
785.7700, 2081.014
786.9140, 1772.224
788.0580, 1371.775
789.2010, 1186.365
790.3450, 938.7832
791.4880, 634.1357
792.6310, 622.4209
793.7730, 591.6387
794.9160, 416.7891
796.0590, 317.8721
797.2010, 192.8809
798.3430, 82.79980
799.4850, 146.6016
800.6270, 42.69824
801.7690, 34.17188
802.9100, 69.17969
804.0520, 16.58887
805.1930, 142.5205
806.3340, 343.6826
807.4750, 310.1787
808.6160, 159.9932
809.7560, 185.0459
810.8970, 164.0098
812.0370, 25.89258
813.1770, 250.6035
814.3170, 61.59766
815.4570, 181.7783
816.5960, 40.20605
817.7360, 109.8066
818.8750, 37.38379
820.0140, 23.55762
821.1530, 32.33789
822.2920, 325.1016
823.4310, 411.7881
824.5690, 728.4053
825.7070, 852.9521
826.8460, 984.4307
827.9840, 1266.840
829.1220, 1622.180
830.2590, 1963.452
831.3970, 2340.655
832.5340, 2525.790
833.6710, 2799.855
834.8080, 3178.854
835.9450, 3051.781
837.0820, 3397.643
838.2190, 3198.434
839.3550, 3222.157
840.4910, 2945.812
841.6270, 2863.398
842.7630, 2675.917
843.8990, 2539.367
845.0350, 2425.751
846.1700, 2154.066
847.3060, 1940.314
848.4410, 1762.494
849.5760, 1615.606
850.7100, 1697.652
851.8450, 1589.631
852.9800, 1594.542
854.1140, 1712.387
855.2480, 1694.164
856.3820, 1825.887
857.5160, 1679.543
858.6500, 1672.134
859.7830, 1627.698
860.9170, 1488.241
862.0500, 1613.758
863.1830, 1694.250
864.3160, 1524.703
865.4480, 1158.013
866.5810, 1397.618
867.7130, 1503.746
868.8460, 1483.422
869.9780, 958.2803
871.1100, 1085.121
872.2410, 950.7412
873.3730, 805.5850
874.5050, 1024.233
875.6360, 728.4902
876.7670, 774.0430
877.8980, 635.5928
879.0290, 691.1377
880.1590, 560.6670
881.2900, 599.1611
882.4200, 412.6123
883.5500, 487.0088
884.6800, 415.3525
885.8100, 473.6543
886.9400, 333.8916
888.0690, 380.0635
889.1990, 326.1680
890.3280, 262.2061
891.4570, 102.1709
892.5860, 62.97852
893.7140, 136.8340
894.8430, 27.46289
895.9710, 27.87598
897.1000, 60.59570
898.2280, 58.99023
899.3560, 94.29395
900.4830, 97.46680
901.6110, 91.37305
902.7380, 14.42480
903.8660, 132.5840
904.9930, 67.90820
906.1200, 24.33496
907.2460, 17.15332
908.3730, 134.4258
909.5000, 26.16895
910.6260, 4.016602
911.7520, 108.9473
912.8780, 60.01953
914.0040, 63.06445
915.1290, 105.7598
916.2550, 20.53418
917.3800, 89.23340
918.5050, 152.8643
919.6300, 108.4277
920.7550, 273.9229
921.8800, 330.3672
923.0040, 529.7754
924.1290, 445.1279
925.2530, 546.4502
926.3770, 637.7695
927.5010, 710.0352
928.6250, 865.2461
929.7480, 1066.402
930.8720, 1022.545
931.9950, 1275.267
933.1180, 1314.006
934.2410, 1540.848
935.3640, 1719.473
936.4860, 1616.542
937.6090, 1712.095
938.7310, 1707.252
939.8530, 1864.838
940.9750, 2144.476
942.0970, 1887.465
943.2180, 2562.529
944.3400, 2167.037
945.4610, 2094.963
946.5820, 2192.223
947.7030, 2423.150
948.8240, 2428.977
949.9450, 2322.685
951.0650, 2554.882
952.1860, 2516.010
953.3060, 2450.832
954.4260, 2477.674
955.5460, 2813.984
956.6650, 2547.650
957.7850, 2713.347
958.9040, 2918.651
960.0230, 2878.989
961.1420, 2990.320
962.2610, 3295.622
963.3800, 3167.895
964.4990, 3290.139
965.6170, 3249.355
966.7350, 3400.543
967.8530, 3566.703
968.9710, 3766.836
970.0890, 3655.941
971.2070, 3695.020
972.3240, 3760.071
973.4410, 3956.096
974.5580, 4169.094
975.6750, 4067.067
976.7920, 4253.014
977.9090, 4171.938
979.0250, 4378.831
980.1410, 4339.702
981.2580, 4357.549
982.3740, 4346.371
983.4890, 4390.168
984.6050, 4406.941
985.7200, 4322.690
986.8360, 4508.418
987.9510, 4409.119
989.0660, 4126.801
990.1810, 4365.457
991.2950, 4274.092
992.4100, 4359.703
993.5240, 4124.295
994.6390, 4329.863
995.7530, 4078.409
996.8660, 4147.935
997.9800, 4114.436
999.0940, 4117.915
1000.207, 4205.374
1001.320, 4225.811
1002.433, 4226.227
1003.546, 4078.618
1004.659, 4215.989
1005.772, 4275.337
1006.884, 4341.663
1007.996, 4493.968
1009.108, 4578.246
1010.220, 4667.506
1011.332, 4786.793
1012.444, 4917.365
1013.555, 5059.145
1014.666, 5226.311
1015.777, 5510.455
1016.888, 5701.316
1017.999, 5990.414
1019.110, 6130.236
1020.220, 6288.277
1021.331, 6622.796
1022.441, 6778.396
1023.551, 6985.746
1024.661, 6915.582
1025.770, 7069.760
1026.880, 7435.309
1027.989, 7610.150
1029.098, 7896.463
1030.207, 7919.109
1031.316, 8346.016
1032.425, 8674.801
1033.533, 9230.262
1034.642, 9726.425
1035.750, 10003.86
1036.858, 10725.75
1037.966, 11681.95
1039.073, 12223.45
1040.181, 13340.69
1041.288, 14363.07
1042.396, 15368.41
1043.503, 17103.44
1044.610, 18217.29
1045.716, 19785.49
1046.823, 21327.16
1047.929, 22857.95
1049.036, 24316.51
1050.142, 25944.58
1051.248, 27801.88
1052.353, 29078.93
1053.459, 29843.92
1054.564, 31192.14
1055.670, 31908.05
1056.775, 32494.02
1057.880, 32568.85
1058.985, 32627.74
1060.089, 32128.51
1061.194, 31648.23
1062.298, 30602.03
1063.402, 29768.61
1064.506, 28605.34
1065.610, 27037.96
1066.713, 25866.25
1067.817, 24634.51
1068.920, 23216.77
1070.023, 21807.79
1071.126, 20779.46
1072.229, 19534.73
1073.332, 18631.66
1074.435, 17472.35
1075.537, 16443.55
1076.639, 15778.25
1077.741, 14969.08
1078.843, 14363.42
1079.945, 13809.89
1081.046, 13007.40
1082.148, 12711.06
1083.249, 12214.00
1084.350, 11629.51
1085.451, 11267.12
1086.551, 10874.43
1087.652, 10270.05
1088.752, 9821.873
1089.853, 9193.414
1090.953, 8541.260
1092.053, 7817.984
1093.152, 7501.359
1094.252, 6666.855
1095.351, 6363.339
1096.451, 5770.809
1097.550, 5660.301
1098.649, 5082.747
1099.748, 4790.180
1100.846, 4492.600
1101.945, 4114.008
1103.043, 3880.402
1104.141, 3625.946
1105.239, 3442.156
1106.337, 3190.516
1107.434, 3062.860
1108.532, 2828.196
1109.629, 2736.520
1110.726, 2584.830
1111.823, 2495.129
1112.920, 2193.416
1114.017, 2333.691
1115.113, 2060.955
1116.210, 2183.208
1117.306, 2129.448
1118.402, 2054.678
1119.498, 2094.896
1120.593, 1911.102
1121.689, 1944.295
1122.784, 1869.479
1123.879, 1998.649
1124.974, 1685.810
1126.069, 1565.958
1127.164, 1623.096
1128.259, 1410.222
1129.353, 1217.336
1130.447, 1194.439
1131.541, 933.5322
1132.635, 956.6143
1133.729, 824.6836
1134.822, 864.7422
1135.916, 791.7900
1137.009, 682.8271
1138.102, 611.8525
1139.195, 551.8662
1140.288, 469.8721
1141.380, 456.8643
1142.473, 503.8477
1143.565, 293.8184
1144.657, 364.7793
1145.749, 378.7295
1146.841, 254.6689
1147.932, 366.5977
1149.024, 191.5176
1150.115, 249.4268
1151.206, 215.3271
1152.297, 92.21777
1153.388, 145.0996
1154.479, 164.9727
1155.569, 162.8389
1156.659, 105.7002
1157.750, 113.8223
1158.839, 47.42871
1159.929, 68.29395
1161.019, 2.173828
1162.108, 43.93359
1163.198, 42.94043
1164.287, 76.18457
1165.376, 19.34961
1166.465, 92.50684
1167.553, 207.3955
1168.642, 28.29590
1169.730, 105.7617
1170.818, 90.85352
1171.906, 87.98145
1172.994, 14.84375
1174.082, 8.710938
1175.170, 52.41406
1176.257, 164.5625
1177.344, 124.7588
1178.431, 109.0430
1179.518, 96.35938
1180.605, 42.73242
1181.691, 30.12891
1182.778, 11.54785
1183.864, 18.98340
1184.950, 31.43750
1186.036, 85.92090
1187.122, 18.53223
1188.207, 76.02637
1189.292, 186.6455
1190.378, 58.61914
1191.463, 67.87109
1192.548, 45.11133
1193.632, 132.6602
1194.717, 55.47852
1195.801, 81.60352
1196.886, 63.28125
1197.970, 94.22168
1199.054, 5.769531
1200.137, 13.73828
1201.221, 66.30762
1202.305, 8.587891
1203.388, 42.46582
1204.471, 31.66992
1205.554, 20.15332
1206.637, 123.0400
1207.719, 6.678711
1208.802, 50.62598
1209.884, 37.01758
1210.966, 37.64551
1212.048, 19.74414
1213.130, 39.16992
1214.212, 78.64453
1215.293, 111.1885
1216.374, 41.81738
1217.456, 87.50098
1218.536, 47.80371
1219.617, 166.0918
1220.698, 42.36328
1221.778, 67.61816
1222.859, 57.13965
1223.939, 123.0439
1225.019, 129.2139
1226.099, 135.3701
1227.178, 105.5127
1228.258, 130.9307
1229.337, 322.7539
1230.417, 181.8564
1231.496, 181.9473
1232.574, 253.0342
1233.653, 144.1084
1234.732, 232.1680
1235.810, 242.2129
1236.888, 457.2568
1237.966, 160.2998
1239.044, 191.3389
1240.122, 164.3789
1241.199, 377.4053
1242.277, 361.4199
1243.354, 263.4219
1244.431, 171.4111
1245.508, 341.3887
1246.585, 331.3535
1247.661, 304.3047
1248.738, 319.2432
1249.814, 258.1689
1250.890, 250.0820
1251.966, 253.9834
1253.042, 204.8711
1254.117, 305.7480
1255.193, 333.6113
1256.268, 231.4639
1257.343, 331.3037
1258.418, 866.1309
1259.493, 533.0879
1260.567, 793.7520
1261.642, 299.5459
1262.716, 322.3262
1263.790, 404.0967
1264.864, 486.8564
1265.938, 382.6035
1267.011, 563.3398
1268.085, 281.0654
1269.158, 420.7803
1270.231, 440.4844
1271.304, 502.1768
1272.377, 564.8584
1273.450, 486.5303
1274.522, 549.8223
1275.594, 517.8428
1276.666, 555.4834
1277.738, 662.1143
1278.810, 635.7344
1279.882, 587.3447
1280.953, 823.9463
1282.025, 525.4502
1283.096, 585.0293
1284.167, 448.5996
1285.238, 649.1592
1286.308, 594.6729
