##NAMES=Elbaite
##RRUFFID=R060003
##IDEAL CHEMISTRY=Na(Al_1.5_Li_1.5_)Al_6_(Si_6_O_18_)(BO_3_)_3_(OH)_3_OH
##LOCALITY=Mount Begbie, Revelstoke, British Columbia, Canada
##OWNER=RRUFF
##SOURCE=Bob Downs
##DESCRIPTION=Pink crystal associated with trilithionite, R060004
##STATUS=The identification of this mineral has been confirmed by X-ray diffraction and chemical analysis
##URL=rruff.info/R060003
##MEASURED CHEMISTRY=(Na_0.58_[box]_0.42_)(Al_1.69_Li_1.27_Mn_0.04_)Al_6_(BO_3_)_3_[Si_6_O_18_](OH)_4_
##PIN_ID=L00688
##ORIENTATION=Laser parallel to -a* (-1 0 0). Fiducial mark perpendicular to laser is parallel to -c [0 0 -1]
118.1340, 0.0000000E+00
119.3650, 117.8057
120.5960, 99.12109
121.8270, 182.8936
123.0580, 110.5771
124.2880, 261.2578
125.5190, 34.63672
126.7490, 135.7412
127.9790, 27.14844
129.2090, 135.7305
130.4390, 114.3535
131.6680, 176.5371
132.8980, 152.3379
134.1270, 61.34961
135.3560, 301.2070
136.5850, 229.6016
137.8140, 299.2500
139.0430, 538.8809
140.2710, 622.2461
141.5000, 561.1270
142.7280, 748.3516
143.9560, 542.7773
145.1840, 759.2773
146.4120, 945.7383
147.6390, 895.0469
148.8670, 968.1055
150.0940, 1430.820
151.3210, 1771.104
152.5490, 1590.877
153.7750, 1871.068
155.0020, 1842.605
156.2290, 1684.393
157.4550, 1569.318
158.6810, 1576.283
159.9080, 1653.219
161.1340, 1800.062
162.3590, 1852.775
163.5850, 1816.338
164.8110, 1661.758
166.0360, 1851.053
167.2610, 1740.219
168.4860, 1624.256
169.7110, 1782.148
170.9360, 1642.857
172.1610, 1522.350
173.3850, 1456.582
174.6100, 1363.531
175.8340, 1533.168
177.0580, 1472.465
178.2820, 1455.209
179.5050, 1407.186
180.7290, 1424.088
181.9520, 1256.805
183.1760, 1329.078
184.3990, 1405.893
185.6220, 1286.230
186.8450, 1161.080
188.0670, 1501.424
189.2900, 1569.250
190.5120, 1698.547
191.7340, 1695.205
192.9560, 1982.924
194.1780, 2034.666
195.4000, 2428.418
196.6220, 2747.209
197.8430, 2994.990
199.0640, 3624.916
200.2860, 4089.000
201.5070, 4684.266
202.7270, 5331.730
203.9480, 6049.402
205.1690, 6788.326
206.3890, 7563.584
207.6090, 8731.330
208.8290, 10189.75
210.0490, 11751.98
211.2690, 13764.76
212.4890, 15951.25
213.7080, 18099.40
214.9280, 20410.10
216.1470, 22669.37
217.3660, 24546.27
218.5850, 26136.73
219.8030, 28017.48
221.0220, 28623.40
222.2400, 29075.48
223.4590, 28883.73
224.6770, 28005.16
225.8950, 26573.75
227.1120, 25134.51
228.3300, 23455.45
229.5480, 21117.55
230.7650, 19443.83
231.9820, 18011.27
233.1990, 16866.89
234.4160, 16125.68
235.6330, 15511.65
236.8490, 15158.79
238.0660, 14969.09
239.2820, 14958.57
240.4980, 15211.23
241.7140, 15374.05
242.9300, 15373.03
244.1460, 15404.20
245.3610, 15414.52
246.5770, 15263.01
247.7920, 15055.66
249.0070, 15027.48
250.2220, 14429.46
251.4370, 13752.60
252.6510, 13676.90
253.8660, 13157.36
255.0800, 12540.97
256.2940, 12153.74
257.5080, 12319.67
258.7220, 12331.75
259.9360, 12242.98
261.1490, 11854.37
262.3630, 11863.90
263.5760, 11798.59
264.7890, 11781.84
266.0020, 11831.50
267.2150, 11934.53
268.4270, 11846.17
269.6400, 11831.39
270.8520, 11264.32
272.0640, 10914.06
273.2760, 10480.16
274.4880, 9976.262
275.7000, 9347.230
276.9120, 8769.832
278.1230, 8117.883
279.3340, 7276.357
280.5450, 6637.238
281.7560, 6326.559
282.9670, 5467.252
284.1780, 4933.312
285.3880, 4301.719
286.5980, 3666.482
287.8090, 3316.566
289.0190, 2873.957
290.2290, 2744.646
291.4380, 2337.484
292.6480, 1967.738
293.8570, 1783.426
295.0670, 1402.744
296.2760, 1230.621
297.4850, 811.0371
298.6930, 845.9629
299.9020, 836.1230
301.1110, 698.2969
302.3190, 910.8379
303.5270, 1016.465
304.7350, 1208.650
305.9430, 1497.443
307.1510, 1908.713
308.3580, 2041.213
309.5660, 2457.873
310.7730, 2653.391
311.9800, 2823.889
313.1870, 2928.941
314.3940, 2888.424
315.6010, 2887.234
316.8070, 2738.371
318.0130, 2610.523
319.2200, 2279.209
320.4260, 2164.100
321.6310, 2016.137
322.8370, 1688.322
324.0430, 1733.648
325.2480, 1519.113
326.4540, 1578.715
327.6590, 1578.453
328.8640, 1419.324
330.0680, 1592.326
331.2730, 1559.453
332.4780, 1634.711
333.6820, 1547.090
334.8860, 1542.592
336.0900, 1384.211
337.2940, 1285.949
338.4980, 1427.809
339.7010, 1405.785
340.9050, 1638.881
342.1080, 1819.098
343.3110, 2036.432
344.5140, 2232.887
345.7170, 2463.457
346.9200, 2835.150
348.1220, 3077.957
349.3240, 3338.883
350.5270, 3817.922
351.7290, 4491.078
352.9310, 4521.344
354.1320, 5745.721
355.3340, 6491.203
356.5350, 7589.787
357.7370, 8927.475
358.9380, 10211.26
360.1390, 11864.14
361.3400, 14072.11
362.5400, 16526.17
363.7410, 19208.33
364.9410, 22171.56
366.1410, 25123.89
367.3410, 28163.30
368.5410, 30845.80
369.7410, 32748.38
370.9400, 34718.06
372.1400, 36097.80
373.3390, 36112.64
374.5380, 35718.56
375.7370, 34073.55
376.9360, 32120.64
378.1350, 29303.80
379.3330, 26374.05
380.5310, 23364.37
381.7300, 20800.77
382.9280, 18644.76
384.1260, 16437.82
385.3230, 15065.46
386.5210, 13891.18
387.7180, 12676.97
388.9160, 12160.84
390.1130, 11768.79
391.3100, 11441.82
392.5060, 11219.91
393.7030, 11055.20
394.9000, 11284.33
396.0960, 11069.66
397.2920, 11381.05
398.4880, 11810.52
399.6840, 11822.05
400.8800, 11986.67
402.0750, 11943.35
403.2710, 11972.11
404.4660, 11843.93
405.6610, 11532.83
406.8560, 11242.80
408.0510, 10904.84
409.2450, 10550.00
410.4400, 9950.270
411.6340, 9327.672
412.8280, 8519.199
414.0220, 7936.852
415.2160, 6936.629
416.4100, 6203.172
417.6030, 5416.203
418.7970, 4643.748
419.9900, 3946.051
421.1830, 3527.465
422.3760, 2602.990
423.5690, 2388.625
424.7610, 1746.074
425.9540, 1384.926
427.1460, 1084.756
428.3380, 841.8105
429.5300, 582.1836
430.7220, 588.5430
431.9140, 286.8965
433.1050, 82.34766
434.2970, 60.10547
435.4880, 136.5020
436.6790, 212.7988
437.8700, 198.1016
439.0610, 75.40430
440.2510, 438.6582
441.4420, 229.0215
442.6320, 494.4043
443.8220, 414.9219
445.0120, 162.5449
446.2020, 178.1641
447.3910, 360.7832
448.5810, 459.4902
449.7700, 312.3262
450.9600, 213.2266
452.1490, 251.1504
453.3370, 283.1172
454.5260, 238.1406
455.7150, 304.2012
456.9030, 288.3301
458.0910, 383.5215
459.2800, 292.8203
460.4670, 89.18555
461.6550, 116.5312
462.8430, 80.13086
464.0300, 328.8652
465.2180, 491.6758
466.4050, 741.5547
467.5920, 1261.510
468.7790, 1235.535
469.9650, 2055.633
471.1520, 2158.803
472.3380, 2431.039
473.5250, 2492.346
474.7110, 2284.727
475.8970, 2325.172
477.0820, 2413.688
478.2680, 2021.270
479.4540, 2183.920
480.6390, 2064.637
481.8240, 1729.422
483.0090, 1311.271
484.1940, 1221.188
485.3780, 1162.170
486.5630, 835.2168
487.7470, 878.3262
488.9320, 1088.502
490.1160, 962.7422
491.3000, 1056.041
492.4830, 1381.406
493.6670, 1747.859
494.8500, 2371.320
496.0340, 2976.865
497.2170, 3743.477
498.4000, 4609.145
499.5820, 5442.875
500.7650, 6014.664
501.9480, 7007.514
503.1300, 7892.426
504.3120, 8610.391
505.4940, 9045.465
506.6760, 9610.590
507.8580, 9598.781
509.0390, 10089.03
510.2210, 9959.395
511.4020, 9587.832
512.5830, 8864.326
513.7640, 8714.885
514.9450, 8065.496
516.1250, 7301.172
517.3060, 7071.896
518.4860, 6802.707
519.6660, 6009.570
520.8460, 5541.486
522.0260, 5196.486
523.2060, 4578.580
524.3850, 4313.727
525.5650, 3922.941
526.7440, 3442.213
527.9230, 3103.576
529.1020, 3082.023
530.2810, 2856.537
531.4590, 2913.111
532.6380, 2428.760
533.8160, 2259.463
534.9940, 2391.248
536.1720, 2092.098
537.3500, 1970.004
538.5270, 1809.967
539.7050, 1698.033
540.8820, 1678.154
542.0590, 1579.385
543.2360, 1453.734
544.4130, 1275.170
545.5900, 1146.734
546.7660, 1070.418
547.9430, 844.2324
549.1190, 652.1562
550.2950, 761.1523
551.4710, 429.2578
552.6470, 296.4883
553.8220, 480.7969
554.9980, 384.2344
556.1730, 270.7461
557.3480, 15.30859
558.5230, 188.9062
559.6980, 82.57422
560.8730, 288.3320
562.0470, 148.2051
563.2220, 183.1699
564.3960, 381.1953
565.5700, 155.7207
566.7440, 141.3086
567.9170, 14.38867
569.0910, 228.4785
570.2640, 51.39062
571.4380, 106.7227
572.6110, 147.8633
573.7840, 123.0352
574.9570, 209.2402
576.1290, 256.6074
577.3020, 366.9141
578.4740, 311.0898
579.6460, 350.9277
580.8180, 478.4941
581.9900, 332.7969
583.1620, 368.8574
584.3330, 538.9473
585.5040, 288.2734
586.6760, 340.4824
587.8470, 602.8477
589.0180, 328.9004
590.1880, 582.5176
591.3590, 332.0098
592.5290, 519.4375
593.7000, 743.9219
594.8700, 305.7715
596.0400, 278.8516
597.2090, 244.5859
598.3790, 474.1016
599.5490, 97.49414
600.7180, 162.7617
601.8870, 248.2109
603.0560, 104.3145
604.2250, 280.4062
605.3940, 234.5371
606.5620, 450.7031
607.7300, 307.9160
608.8990, 279.1660
610.0670, 454.4473
611.2350, 521.7637
612.4020, 414.1113
613.5700, 289.4902
614.7370, 578.9004
615.9050, 818.3359
617.0720, 930.8047
618.2390, 856.3008
619.4060, 1199.826
620.5720, 1303.391
621.7390, 1533.982
622.9050, 1941.602
624.0710, 2144.797
625.2370, 2465.143
626.4030, 2716.617
627.5690, 3068.338
628.7340, 3265.088
629.9000, 3596.863
631.0650, 4327.660
632.2300, 4744.477
633.3950, 5609.314
634.5600, 6321.176
635.7240, 6840.057
636.8890, 7492.957
638.0530, 8136.873
639.2170, 8514.812
640.3810, 9053.766
641.5450, 9534.736
642.7080, 9725.338
643.8720, 9925.342
645.0350, 9876.404
646.1980, 9740.441
647.3610, 9292.926
648.5240, 8943.988
649.6870, 8667.609
650.8490, 8117.848
652.0120, 7655.004
653.1740, 7232.703
654.3360, 6267.846
655.4980, 5939.756
656.6600, 5459.893
657.8210, 4761.250
658.9830, 4480.398
660.1440, 3447.672
661.3050, 3398.479
662.4660, 2830.113
663.6270, 2392.027
664.7870, 2202.160
665.9480, 1701.742
667.1080, 1800.342
668.2680, 1439.375
669.4280, 1329.619
670.5880, 949.0664
671.7480, 1057.875
672.9070, 889.2578
674.0670, 847.8125
675.2260, 1002.969
676.3850, 751.5430
677.5440, 887.2891
678.7030, 803.4531
679.8610, 964.0000
681.0200, 1044.531
682.1780, 1050.346
683.3360, 1234.543
684.4940, 1502.953
685.6520, 1516.787
686.8090, 1884.250
687.9670, 2048.830
689.1240, 2576.195
690.2810, 2731.439
691.4380, 3227.473
692.5950, 3943.930
693.7520, 4445.984
694.9080, 5356.541
696.0650, 6096.336
697.2210, 7080.807
698.3770, 8390.418
699.5330, 9495.676
700.6880, 10503.11
701.8440, 11957.17
702.9990, 13300.67
704.1550, 15025.83
705.3100, 16071.01
706.4650, 16762.20
707.6190, 16697.13
708.7740, 17229.26
709.9290, 16935.17
711.0830, 16590.95
712.2370, 15719.69
713.3910, 14622.08
714.5450, 13585.49
715.6980, 12800.61
716.8520, 10936.65
718.0050, 10149.80
719.1580, 9121.430
720.3110, 8365.922
721.4640, 7318.672
722.6170, 6621.686
723.7700, 5904.260
724.9220, 5482.811
726.0740, 4810.664
727.2260, 4741.262
728.3780, 4416.318
729.5300, 4351.559
730.6810, 3886.250
731.8330, 4239.953
732.9840, 3789.900
734.1350, 3798.070
735.2860, 3883.383
736.4370, 3851.104
737.5880, 3980.910
738.7380, 4032.789
739.8880, 4223.652
741.0390, 4646.664
742.1890, 4883.957
743.3380, 5018.576
744.4880, 5128.332
745.6380, 5234.578
746.7870, 5426.783
747.9360, 5338.393
749.0850, 5373.586
750.2340, 5078.475
751.3830, 4685.273
752.5310, 4241.680
753.6800, 4127.033
754.8280, 3619.336
755.9760, 3277.580
757.1240, 2970.746
758.2720, 2568.152
759.4190, 2297.740
760.5670, 1936.980
761.7140, 1608.961
762.8610, 1420.264
764.0080, 1310.133
765.1550, 883.6719
766.3020, 1021.355
767.4480, 793.1523
768.5950, 778.8633
769.7410, 565.4492
770.8870, 509.9805
772.0330, 475.4492
773.1780, 259.0156
774.3240, 222.3691
775.4690, 297.6660
776.6140, 267.9023
777.7590, 212.2129
778.9040, 288.4160
780.0490, 116.4727
781.1940, 229.7129
782.3380, 103.3594
783.4820, 244.4180
784.6260, 144.1348
785.7700, 271.7852
786.9140, 171.6289
788.0580, 10.76953
789.2010, 203.0723
790.3450, 77.31250
791.4880, 221.4727
792.6310, 138.5703
793.7730, 247.5977
794.9160, 33.43945
796.0590, 259.4004
797.2010, 225.1797
798.3430, 38.10938
799.4850, 66.52148
800.6270, 161.9219
801.7690, 31.29492
802.9100, 114.5762
804.0520, 79.22266
805.1930, 37.68945
806.3340, 32.75195
807.4750, 26.58398
808.6160, 0.6816410
809.7560, 144.9414
810.8970, 43.50977
812.0370, 41.90234
813.1770, 70.22070
814.3170, 123.4531
815.4570, 131.3945
816.5960, 75.57617
817.7360, 138.5430
818.8750, 202.8457
820.0140, 51.36914
821.1530, 230.0312
822.2920, 204.9277
823.4310, 231.0469
824.5690, 169.3984
825.7070, 6.953125
826.8460, 180.6270
827.9840, 225.5098
829.1220, 41.62500
830.2590, 242.8711
831.3970, 60.36133
832.5340, 120.0039
833.6710, 6.712891
834.8080, 47.53320
835.9450, 128.4902
837.0820, 221.6250
838.2190, 120.9863
839.3550, 17.52734
840.4910, 2.812500
841.6270, 6.046875
842.7630, 24.22461
843.8990, 95.30273
845.0350, 74.31055
846.1700, 143.4707
847.3060, 298.0996
848.4410, 318.9004
849.5760, 208.6328
850.7100, 433.2910
851.8450, 87.11523
852.9800, 133.3242
854.1140, 123.6836
855.2480, 326.9609
856.3820, 185.1680
857.5160, 308.3008
858.6500, 250.3652
859.7830, 372.3594
860.9170, 583.2852
862.0500, 319.1406
863.1830, 194.9297
864.3160, 281.6426
865.4480, 253.2832
866.5810, 408.8535
867.7130, 404.3555
868.8460, 336.7910
869.9780, 290.1602
871.1100, 259.3555
872.2410, 203.8594
873.3730, 195.8281
874.5050, 191.8984
875.6360, 195.8945
876.7670, 355.8145
877.8980, 139.6641
879.0290, 213.4316
880.1590, 426.1289
881.2900, 3.244141
882.4200, 258.2852
883.5500, 439.7402
884.6800, 236.1289
885.8100, 297.4473
886.9400, 305.6973
888.0690, 428.8770
889.1990, 475.9922
890.3280, 570.0410
891.4570, 403.0254
892.5860, 182.9434
893.7140, 39.78906
894.8430, 301.5508
895.9710, 332.2695
897.1000, 434.9238
898.2280, 289.5254
899.3560, 388.0605
900.4830, 204.5312
901.6110, 177.9336
902.7380, 352.2637
903.8660, 358.5332
904.9930, 428.7363
906.1200, 552.8809
907.2460, 421.9648
908.3730, 332.9844
909.5000, 399.9414
910.6260, 379.8496
911.7520, 447.6992
912.8780, 332.4883
914.0040, 342.2148
915.1290, 407.8828
916.2550, 299.9258
917.3800, 656.5664
918.5050, 608.1328
919.6300, 747.6816
920.7550, 585.7402
921.8800, 624.1914
923.0040, 643.0430
924.1290, 536.2500
925.2530, 668.4980
926.3770, 687.1562
927.5010, 664.3281
928.6250, 512.6973
929.7480, 605.8184
930.8720, 611.6914
931.9950, 692.7266
933.1180, 646.5918
934.2410, 743.8809
935.3640, 751.2949
936.4860, 835.2734
937.6090, 936.1992
938.7310, 1017.527
939.8530, 961.8125
940.9750, 1008.619
942.0970, 968.1875
943.2180, 1113.562
944.3400, 1073.520
945.4610, 1012.906
946.5820, 1380.066
947.7030, 1360.578
948.8240, 1669.621
949.9450, 1463.445
951.0650, 1687.801
952.1860, 1871.727
953.3060, 1917.496
954.4260, 2132.172
955.5460, 2176.305
956.6650, 2319.164
957.7850, 2321.555
958.9040, 2844.266
960.0230, 2754.809
961.1420, 2917.516
962.2610, 3109.297
963.3800, 3129.234
964.4990, 3041.699
965.6170, 3425.520
966.7350, 3674.781
967.8530, 3561.754
968.9710, 3863.371
970.0890, 3903.746
971.2070, 4026.391
972.3240, 4029.523
973.4410, 3945.973
974.5580, 3912.934
975.6750, 4226.184
976.7920, 4509.652
977.9090, 4336.797
979.0250, 4282.266
980.1410, 3990.383
981.2580, 4111.434
982.3740, 4164.699
983.4890, 4044.027
984.6050, 4148.668
985.7200, 4100.238
986.8360, 4063.070
987.9510, 4151.941
989.0660, 3889.680
990.1810, 3988.945
991.2950, 4026.312
992.4100, 3787.473
993.5240, 3819.363
994.6390, 4051.758
995.7530, 4021.270
996.8660, 4020.500
997.9800, 3920.008
999.0940, 3861.090
1000.207, 3717.070
1001.320, 3870.688
1002.433, 3622.316
1003.546, 3491.703
1004.659, 3525.891
1005.772, 3225.938
1006.884, 3118.594
1007.996, 3074.188
1009.108, 2808.738
1010.220, 3015.336
1011.332, 2905.758
1012.444, 2542.887
1013.555, 2488.645
1014.666, 2688.219
1015.777, 2630.258
1016.888, 2428.285
1017.999, 2382.855
1019.110, 2392.781
1020.220, 2280.312
1021.331, 2324.180
1022.441, 2242.730
1023.551, 2233.281
1024.661, 2342.828
1025.770, 2227.367
1026.880, 2224.945
1027.989, 2086.059
1029.098, 2004.965
1030.207, 1940.293
1031.316, 1876.949
1032.425, 2050.102
1033.533, 1869.637
1034.642, 2169.438
1035.750, 1959.043
1036.858, 1821.473
1037.966, 1788.938
1039.073, 1736.461
1040.181, 1671.605
1041.288, 1805.527
1042.396, 1580.906
1043.503, 1786.652
1044.610, 1745.184
1045.716, 1611.723
1046.823, 1690.129
1047.929, 1828.781
1049.036, 1595.727
1050.142, 1836.250
1051.248, 1712.461
1052.353, 1832.094
1053.459, 1700.695
1054.564, 2000.820
1055.670, 2053.430
1056.775, 2147.969
1057.880, 2235.664
1058.985, 2188.363
1060.089, 2372.348
1061.194, 2451.699
1062.298, 2453.090
1063.402, 2704.484
1064.506, 2868.238
1065.610, 2939.000
1066.713, 3182.766
1067.817, 3109.566
1068.920, 3358.445
1070.023, 3676.297
1071.126, 4127.168
1072.229, 4002.898
1073.332, 4368.828
1074.435, 4946.621
1075.537, 4856.680
1076.639, 4774.688
1077.741, 5059.961
1078.843, 5156.000
1079.945, 5433.074
1081.046, 5521.172
1082.148, 5662.520
1083.249, 5858.414
1084.350, 5914.602
1085.451, 6066.805
1086.551, 6245.070
1087.652, 6242.211
1088.752, 6181.859
1089.853, 6281.367
1090.953, 6340.957
1092.053, 6365.637
1093.152, 6202.391
1094.252, 5928.176
1095.351, 5850.039
1096.451, 5850.992
1097.550, 5533.984
1098.649, 5416.070
1099.748, 5164.203
1100.846, 4919.262
1101.945, 4670.531
1103.043, 4457.758
1104.141, 4277.055
1105.239, 4109.438
1106.337, 3914.883
1107.434, 3618.355
1108.532, 3446.859
1109.629, 3361.000
1110.726, 3176.586
1111.823, 3243.609
1112.920, 3014.199
1114.017, 2861.215
1115.113, 2920.844
1116.210, 2957.461
1117.306, 2885.094
1118.402, 2964.020
1119.498, 3198.707
1120.593, 3024.414
1121.689, 3209.133
1122.784, 3130.855
1123.879, 2919.438
1124.974, 2749.402
1126.069, 2419.156
1127.164, 2173.598
1128.259, 1883.266
1129.353, 1526.051
1130.447, 1502.836
1131.541, 1678.059
1132.635, 1491.945
1133.729, 1446.355
1134.822, 1256.156
1135.916, 1166.965
1137.009, 1288.781
1138.102, 1092.613
1139.195, 946.4453
1140.288, 917.2812
1141.380, 748.6172
1142.473, 856.4688
1143.565, 747.7227
1144.657, 815.7070
1145.749, 673.5742
1146.841, 671.2852
1147.932, 659.1758
1149.024, 718.1484
1150.115, 725.0508
1151.206, 543.9570
1152.297, 278.8633
1153.388, 226.7773
1154.479, 182.6875
1155.569, 105.6055
1156.659, 202.5234
1157.750, 298.4453
1158.839, 317.3750
1159.929, 127.6875
1161.019, 305.2031
1162.108, 62.90625
1163.198, 123.9688
1164.287, 50.84375
1165.376, 151.7227
1166.465, 10.60547
1167.553, 225.5000
1168.642, 22.39062
1169.730, 254.2891
1170.818, 74.18359
1171.906, 63.07812
1172.994, 41.97656
1174.082, 55.12500
1175.170, 109.7539
1176.257, 170.6328
1177.344, 24.06250
1178.431, 2.609375
1179.518, 167.7305
1180.605, 195.9336
1181.691, 106.2305
1182.778, 16.41406
1183.864, 224.0625
1184.950, 69.28906
1186.036, 118.3320
1187.122, 73.05469
1188.207, 105.5273
1189.292, 106.1094
1190.378, 0.3125000
1191.463, 28.73828
1192.548, 83.18359
1193.632, 80.66797
1194.717, 167.8047
1195.801, 84.27344
1196.886, 116.7422
1197.970, 341.2109
1199.054, 32.67578
1200.137, 60.14062
1201.221, 52.60547
1202.305, 92.92969
1203.388, 180.4805
1204.471, 75.11328
1205.554, 189.7500
1206.637, 80.50391
1207.719, 143.2461
1208.802, 128.9219
1209.884, 81.08594
1210.966, 100.2461
1212.048, 136.4023
1213.130, 219.5586
1214.212, 182.8477
1215.293, 123.8594
1216.374, 171.0039
1217.456, 111.4336
1218.536, 176.2852
1219.617, 176.4141
1220.698, 106.5391
1221.778, 137.6602
1222.859, 308.7695
1223.939, 228.8789
1225.019, 262.9805
1226.099, 524.6797
1227.178, 620.2383
1228.258, 1121.238
1229.337, 954.3086
1230.417, 1365.367
1231.496, 1298.145
1232.574, 812.5273
1233.653, 141.5586
1234.732, 463.5859
1235.810, 191.6055
1236.888, 255.6133
1237.966, 137.6094
1239.044, 78.40234
1240.122, 97.51562
1241.199, 27.42578
1242.277, 367.3125
1243.354, 31.19141
1244.431, 78.05469
1245.508, 143.9102
1246.585, 108.7539
1247.661, 5.410156
1248.738, 200.3867
1249.814, 85.17578
1250.890, 366.9492
1251.966, 210.7188
1253.042, 72.47266
1254.117, 142.2109
1255.193, 146.9453
1256.268, 151.3320
1257.343, 90.72266
1258.418, 76.19922
1259.493, 91.25781
1260.567, 82.30078
1261.642, 203.9414
1262.716, 52.71875
1263.790, 105.4414
1264.864, 155.5898
1265.938, 285.7266
1267.011, 87.85156
1268.085, 99.96484
1269.158, 197.0625
1270.231, 1.847656
1271.304, 222.2070
1272.377, 237.2500
1273.450, 33.71875
1274.522, 100.2617
1275.594, 6.777344
1276.666, 147.1523
1277.738, 73.07031
1278.810, 224.9727
1279.882, 225.8672
1280.953, 430.7461
1282.025, 398.6172
1283.096, 419.4766
1284.167, 451.3203
1285.238, 378.1562
1286.308, 269.9766
1287.379, 176.7852
1288.449, 186.4883
1289.519, 163.2422
1290.589, 260.4492
