##NAMES=Elbaite
##RRUFFID=R060562
##IDEAL CHEMISTRY=Na(Al_1.5_Li_1.5_)Al_6_(Si_6_O_18_)(BO_3_)_3_(OH)_3_OH
##LOCALITY=unknown
##OWNER=RRUFF
##SOURCE=Gemological Institute of America
##DESCRIPTION=Blue colored polished fragment
##STATUS=The identification of this mineral has been confirmed by X-ray diffraction and chemical analysis
##URL=rruff.info/R060562
##MEASURED CHEMISTRY=(Na_0.68_Ca_0.20_[box]_0.12_)(Li_1.20_Al_1.12_Fe^2+^_0.50_Mn_0.18_)Al_6_(BO_3_)_3_[Si_6_O_18_]((OH)_0.80_F_0.20_)_4_
##PIN_ID=M00501
##ORIENTATION=Laser parallel to c* (0 0 1). Fiducial mark perpendicular to laser is parallel to -a [-1 0 0]
118.1340, 0.0000000E+00
119.3650, 9.588867
120.5960, 296.2275
121.8270, 747.8457
123.0580, 1324.509
124.2880, 1622.288
125.5190, 1608.375
126.7490, 1868.697
127.9790, 2215.025
129.2090, 2501.287
130.4390, 2613.363
131.6680, 2670.113
132.8980, 2368.964
134.1270, 2114.597
135.3560, 1861.960
136.5850, 1587.293
137.8140, 1521.554
139.0430, 1488.840
140.2710, 1439.108
141.5000, 1190.918
142.7280, 1138.930
143.9560, 1112.908
145.1840, 1042.837
146.4120, 1322.930
147.6390, 1328.979
148.8670, 1482.040
150.0940, 1539.797
151.3210, 1772.473
152.5490, 1628.021
153.7750, 1512.412
155.0020, 1743.172
156.2290, 1694.675
157.4550, 999.9150
158.6810, 901.1357
159.9080, 760.2949
161.1340, 519.8047
162.3590, 466.7549
163.5850, 378.6543
164.8110, 290.5830
166.0360, 335.4639
167.2610, 189.3711
168.4860, 206.2744
169.7110, 127.2441
170.9360, 42.34668
172.1610, 114.3525
173.3850, 19.79297
174.6100, 90.91602
175.8340, 120.6729
177.0580, 103.0205
178.2820, 5.082031
179.5050, 26.67188
180.7290, 110.4141
181.9520, 143.4502
183.1760, 299.6992
184.3990, 523.5605
185.6220, 698.0615
186.8450, 1024.225
188.0670, 1319.073
189.2900, 1776.630
190.5120, 2022.010
191.7340, 2497.994
192.9560, 2934.672
194.1780, 3398.651
195.4000, 4121.693
196.6220, 4352.479
197.8430, 4998.934
199.0640, 5213.492
200.2860, 5504.307
201.5070, 5802.480
202.7270, 5672.456
203.9480, 5622.037
205.1690, 5048.801
206.3890, 5002.735
207.6090, 5172.828
208.8290, 5398.070
210.0490, 5733.457
211.2690, 6618.982
212.4890, 7232.637
213.7080, 8327.416
214.9280, 9427.312
216.1470, 10510.32
217.3660, 11803.43
218.5850, 13540.58
219.8030, 14956.72
221.0220, 16261.77
222.2400, 17682.86
223.4590, 18593.03
224.6770, 18982.30
225.8950, 19044.66
227.1120, 18708.11
228.3300, 18466.66
229.5480, 17756.29
230.7650, 16824.98
231.9820, 16096.72
233.1990, 15408.51
234.4160, 14440.34
235.6330, 13819.21
236.8490, 12965.12
238.0660, 12161.07
239.2820, 11592.07
240.4980, 10802.12
241.7140, 9965.220
242.9300, 8832.366
244.1460, 8119.570
245.3610, 7243.824
246.5770, 6556.137
247.7920, 5892.501
249.0070, 4925.926
250.2220, 4393.406
251.4370, 3796.949
252.6510, 3291.552
253.8660, 2574.215
255.0800, 2266.942
256.2940, 1925.732
257.5080, 1966.590
258.7220, 1382.142
259.9360, 1787.500
261.1490, 598.5547
262.3630, 138.6797
263.5760, 148.8750
264.7890, 170.5381
266.0020, 405.4385
267.2150, 352.5166
268.4270, 349.2383
269.6400, 469.7402
270.8520, 282.1426
272.0640, 376.4600
273.2760, 503.7705
274.4880, 292.1406
275.7000, 234.5410
276.9120, 388.9727
278.1230, 255.4990
279.3340, 146.1309
280.5450, 170.8535
281.7560, 107.6699
282.9670, 72.55566
284.1780, 89.50098
285.3880, 78.46973
286.5980, 21.50977
287.8090, 66.39453
289.0190, 234.2637
290.2290, 163.1016
291.4380, 171.7354
292.6480, 416.1533
293.8570, 529.2285
295.0670, 530.2705
296.2760, 490.3164
297.4850, 706.6777
298.6930, 843.4248
299.9020, 1113.488
301.1110, 1234.557
302.3190, 1484.604
303.5270, 1610.605
304.7350, 1935.545
305.9430, 2386.418
307.1510, 2587.226
308.3580, 2755.977
309.5660, 2950.735
310.7730, 3079.130
311.9800, 3142.945
313.1870, 3300.525
314.3940, 3390.077
315.6010, 3448.605
316.8070, 3713.111
318.0130, 3858.417
319.2200, 3945.018
320.4260, 4314.447
321.6310, 4621.037
322.8370, 4977.474
324.0430, 5511.236
325.2480, 5775.617
326.4540, 6063.078
327.6590, 6298.548
328.8640, 6586.023
330.0680, 6545.521
331.2730, 6694.045
332.4780, 6613.629
333.6820, 6510.305
334.8860, 6257.057
336.0900, 6165.922
337.2940, 6010.762
338.4980, 5867.221
339.7010, 5737.920
340.9050, 5603.928
342.1080, 5449.594
343.3110, 5371.787
344.5140, 5228.820
345.7170, 5143.732
346.9200, 5017.646
348.1220, 4979.510
349.3240, 4960.434
350.5270, 4956.422
351.7290, 5091.476
352.9310, 5059.592
354.1320, 5098.775
355.3340, 5552.020
356.5350, 5806.328
357.7370, 6263.700
358.9380, 7044.136
360.1390, 7576.633
361.3400, 8464.194
362.5400, 9497.815
363.7410, 10588.50
364.9410, 11998.25
366.1410, 13927.06
367.3410, 15825.94
368.5410, 18393.88
369.7410, 21364.88
370.9400, 24114.95
372.1400, 27443.09
373.3390, 31008.29
374.5380, 34095.54
375.7370, 36406.87
376.9360, 37201.25
378.1350, 36165.71
379.3330, 33939.22
380.5310, 31136.80
381.7300, 27714.44
382.9280, 24442.15
384.1260, 21522.92
385.3230, 19160.76
386.5210, 16806.66
387.7180, 15144.62
388.9160, 13628.65
390.1130, 12362.74
391.3100, 11514.90
392.5060, 10639.08
393.7030, 9981.408
394.9000, 9694.756
396.0960, 9260.173
397.2920, 9298.653
398.4880, 9128.195
399.6840, 9043.806
400.8800, 9398.481
402.0750, 9709.218
403.2710, 9801.067
404.4660, 10222.08
405.6610, 10430.22
406.8560, 10758.44
408.0510, 10798.86
409.2450, 10516.26
410.4400, 9971.100
411.6340, 9155.385
412.8280, 7992.980
414.0220, 7249.115
415.2160, 6356.121
416.4100, 5720.307
417.6030, 4817.604
418.7970, 3967.285
419.9900, 3326.689
421.1830, 3122.509
422.3760, 2564.818
423.5690, 2351.111
424.7610, 2115.973
425.9540, 1764.928
427.1460, 1799.216
428.3380, 1505.327
429.5300, 1335.510
430.7220, 1171.280
431.9140, 1148.228
433.1050, 1113.818
434.2970, 1080.465
435.4880, 1029.089
436.6790, 965.7109
437.8700, 920.7529
439.0610, 834.6357
440.2510, 790.5781
441.4420, 761.5811
442.6320, 793.6455
443.8220, 798.7725
445.0120, 807.9590
446.2020, 813.2061
447.3910, 819.5156
448.5810, 837.8770
449.7700, 730.3223
450.9600, 887.8203
452.1490, 913.3799
453.3370, 964.0059
454.5260, 855.6953
455.7150, 880.4492
456.9030, 1127.267
458.0910, 1186.150
459.2800, 1313.100
460.4670, 1383.114
461.6550, 1735.229
462.8430, 1958.419
464.0300, 2199.705
465.2180, 2354.092
466.4050, 2549.580
467.5920, 2564.141
468.7790, 2849.771
469.9650, 2676.469
471.1520, 2699.235
472.3380, 2893.061
473.5250, 2701.222
474.7110, 2507.919
475.8970, 2687.925
477.0820, 2476.932
478.2680, 2481.468
479.4540, 2389.307
480.6390, 2330.552
481.8240, 2321.283
483.0090, 2178.938
484.1940, 2065.171
485.3780, 2106.926
486.5630, 1993.742
487.7470, 2153.976
488.9320, 2083.669
490.1160, 2231.535
491.3000, 2241.477
492.4830, 2280.488
493.6670, 2368.994
494.8500, 2390.731
496.0340, 2473.962
497.2170, 2442.266
498.4000, 2440.640
499.5820, 2396.088
500.7650, 2460.609
501.9480, 2502.213
503.1300, 2410.891
504.3120, 2341.646
505.4940, 2205.484
506.6760, 2192.398
507.8580, 2269.395
509.0390, 2141.467
510.2210, 2185.623
511.4020, 1965.854
512.5830, 2041.154
513.7640, 2003.524
514.9450, 1785.964
516.1250, 1684.473
517.3060, 1483.050
518.4860, 1704.693
519.6660, 1641.406
520.8460, 1531.186
522.0260, 1530.033
523.2060, 1502.947
524.3850, 1617.287
525.5650, 1928.973
526.7440, 1973.086
527.9230, 2145.264
529.1020, 2419.507
530.2810, 2467.813
531.4590, 2673.188
532.6380, 2897.623
533.8160, 3000.125
534.9940, 3062.688
536.1720, 3240.316
537.3500, 3285.628
538.5270, 3425.762
539.7050, 3389.577
540.8820, 3336.455
542.0590, 3290.394
543.2360, 3309.395
544.4130, 3225.251
545.5900, 3187.257
546.7660, 3159.057
547.9430, 3009.453
549.1190, 2962.942
550.2950, 2828.072
551.4710, 2774.730
552.6470, 2672.093
553.8220, 2575.421
554.9980, 2457.404
556.1730, 2309.584
557.3480, 2132.912
558.5230, 2059.410
559.6980, 1690.115
560.8730, 1714.966
562.0470, 1505.949
563.2220, 1208.105
564.3960, 1259.398
565.5700, 880.7998
566.7440, 993.3125
567.9170, 910.9229
569.0910, 772.6182
570.2640, 726.3643
571.4380, 768.1943
572.6110, 855.0977
573.7840, 853.2803
574.9570, 817.0479
576.1290, 935.0918
577.3020, 970.1787
578.4740, 1020.311
579.6460, 1208.485
580.8180, 1153.704
581.9900, 1436.965
583.1620, 1439.268
584.3330, 1539.613
585.5040, 1721.998
586.6760, 1867.426
587.8470, 1840.894
589.0180, 1873.400
590.1880, 1836.947
591.3590, 1840.533
592.5290, 1826.159
593.7000, 1719.825
594.8700, 1587.532
596.0400, 1680.281
597.2090, 1727.073
598.3790, 1600.909
599.5490, 1672.784
600.7180, 1685.708
601.8870, 1398.684
603.0560, 1386.701
604.2250, 1317.795
605.3940, 1224.963
606.5620, 1034.186
607.7300, 852.5127
608.8990, 512.8145
610.0670, 369.1982
611.2350, 220.6455
612.4020, 32.85156
613.5700, 92.26953
614.7370, 203.6113
615.9050, 348.9395
617.0720, 276.3525
618.2390, 415.7705
619.4060, 385.3018
620.5720, 322.9453
621.7390, 456.6377
622.9050, 372.4551
624.0710, 262.3779
625.2370, 268.3516
626.4030, 212.3789
627.5690, 81.44727
628.7340, 17.48242
629.9000, 151.5078
631.0650, 266.5566
632.2300, 360.6592
633.3950, 532.1641
634.5600, 581.0420
635.7240, 796.3291
636.8890, 966.6416
638.0530, 1010.982
639.2170, 946.4551
640.3810, 918.3584
641.5450, 896.8350
642.7080, 853.1895
643.8720, 728.3164
645.0350, 684.9131
646.1980, 590.5000
647.3610, 384.8936
648.5240, 432.8584
649.6870, 337.7568
650.8490, 294.5703
652.0120, 463.6182
653.1740, 587.3828
654.3360, 524.9375
655.4980, 591.4971
656.6600, 641.0645
657.8210, 690.6357
658.9830, 709.2129
660.1440, 663.7949
661.3050, 645.3809
662.4660, 671.9678
663.6270, 587.5596
664.7870, 646.1523
665.9480, 614.7471
667.1080, 646.3418
668.2680, 627.9375
669.4280, 708.5322
670.5880, 573.1270
671.7480, 478.7178
672.9070, 598.3086
674.0670, 298.8955
675.2260, 608.4795
676.3850, 451.0596
677.5440, 342.6348
678.7030, 394.2051
679.8610, 106.7695
681.0200, 148.3271
682.1780, 74.87891
683.3360, 132.5771
684.4940, 304.1436
685.6520, 192.9102
686.8090, 132.8203
687.9670, 322.8438
689.1240, 203.0820
690.2810, 96.47266
691.4380, 37.03711
692.5950, 237.5176
693.7520, 256.9834
694.9080, 594.4346
696.0650, 642.8701
697.2210, 1097.289
698.3770, 1421.690
699.5330, 1725.263
700.6880, 2153.805
701.8440, 2417.775
702.9990, 2896.095
704.1550, 3142.394
705.3100, 3417.668
706.4650, 3923.916
707.6190, 4373.141
708.7740, 4861.342
709.9290, 5238.513
711.0830, 6031.662
712.2370, 6667.779
713.3910, 7707.872
714.5450, 8591.936
715.6980, 9955.971
716.8520, 11148.97
718.0050, 12784.95
719.1580, 14399.89
720.3110, 16638.81
721.4640, 18758.69
722.6170, 21696.54
723.7700, 24313.36
724.9220, 26891.15
726.0740, 29871.90
727.2260, 32063.62
728.3780, 34044.31
729.5300, 34715.96
730.6810, 34868.11
731.8330, 33714.83
732.9840, 31818.33
734.1350, 29665.67
735.2860, 26735.83
736.4370, 24209.87
737.5880, 21856.24
738.7380, 19892.38
739.8880, 17761.40
741.0390, 16233.53
742.1890, 14748.30
743.3380, 13370.57
744.4880, 12192.46
745.6380, 10953.49
746.7870, 9882.421
747.9360, 8842.153
749.0850, 7965.455
750.2340, 7175.973
751.3830, 6365.702
752.5310, 5912.604
753.6800, 5405.583
754.8280, 4835.479
755.9760, 4443.869
757.1240, 4173.584
758.2720, 3820.193
759.4190, 3538.015
760.5670, 3280.690
761.7140, 2914.515
762.8610, 2408.011
764.0080, 2229.340
765.1550, 1923.404
766.3020, 1567.505
767.4480, 1487.631
768.5950, 1084.792
769.7410, 1233.334
770.8870, 937.5322
772.0330, 764.7686
773.1780, 539.3311
774.3240, 550.9639
775.4690, 453.3789
776.6140, 380.9229
777.7590, 287.0273
778.9040, 127.4365
780.0490, 213.1396
781.1940, 258.5967
782.3380, 91.96680
783.4820, 209.0605
784.6260, 139.7969
785.7700, 173.5693
786.9140, 88.88477
788.0580, 373.1025
789.2010, 322.0791
790.3450, 394.9912
791.4880, 451.8408
792.6310, 543.6299
793.7730, 512.3594
794.9160, 646.0283
796.0590, 909.6348
797.2010, 807.1816
798.3430, 1051.669
799.4850, 963.0938
800.6270, 1316.458
801.7690, 1488.761
802.9100, 1588.001
804.0520, 1833.181
805.1930, 2000.297
806.3340, 1854.353
807.4750, 1952.345
808.6160, 1781.276
809.7560, 1807.143
810.8970, 1656.948
812.0370, 1548.690
813.1770, 1508.368
814.3170, 1351.984
815.4570, 1173.537
816.5960, 1052.025
817.7360, 847.4502
818.8750, 635.8125
820.0140, 759.1084
821.1530, 792.5479
822.2920, 631.0322
823.4310, 708.3213
824.5690, 704.2070
825.7070, 802.9980
826.8460, 821.1455
827.9840, 1000.826
829.1220, 1093.416
830.2590, 1239.728
831.3970, 1418.863
832.5340, 1477.501
833.6710, 1677.079
834.8080, 1634.601
835.9450, 1541.062
837.0820, 1645.468
838.2190, 1650.812
839.3550, 1668.101
840.4910, 1607.331
841.6270, 1343.502
842.7630, 1339.614
843.8990, 1004.668
845.0350, 1118.662
846.1700, 895.5986
847.3060, 935.4756
848.4410, 912.2930
849.5760, 768.0527
850.7100, 891.7539
851.8450, 840.3955
852.9800, 757.9785
854.1140, 893.5020
855.2480, 888.9658
856.3820, 820.3721
857.5160, 855.7188
858.6500, 707.0059
859.7830, 810.2344
860.9170, 738.4033
862.0500, 672.5146
863.1830, 560.5654
864.3160, 527.5576
865.4480, 539.4912
866.5810, 359.3662
867.7130, 455.1758
868.8460, 257.9258
869.9780, 289.6084
871.1100, 150.2246
872.2410, 160.7676
873.3730, 259.2373
874.5050, 67.64062
875.6360, 28.95898
876.7670, 133.1855
877.8980, 69.66406
879.0290, 62.65918
880.1590, 6.206055
881.2900, 29.04492
882.4200, 3.583008
883.5500, 71.13477
884.6800, 36.41504
885.8100, 9.091797
886.9400, 156.8789
888.0690, 228.8467
889.1990, 175.0225
890.3280, 67.35352
891.4570, 250.7490
892.5860, 105.3193
893.7140, 60.95410
894.8430, 182.6357
895.9710, 172.4443
897.1000, 78.33691
898.2280, 82.28516
899.3560, 88.32031
900.4830, 37.44238
901.6110, 108.6377
902.7380, 11.02832
903.8660, 56.39062
904.9930, 47.94043
906.1200, 123.6133
907.2460, 27.55078
908.3730, 148.3691
909.5000, 132.5361
910.6260, 59.37012
911.7520, 47.12891
912.8780, 171.7061
914.0040, 126.8350
915.1290, 211.3545
916.2550, 252.9541
917.3800, 257.7441
918.5050, 299.0205
919.6300, 367.3438
920.7550, 337.6602
921.8800, 428.4492
923.0040, 426.2656
924.1290, 558.1357
925.2530, 681.7402
926.3770, 721.6357
927.5010, 758.7324
928.6250, 927.8203
929.7480, 1034.857
930.8720, 1083.872
931.9950, 1077.838
933.1180, 1164.782
934.2410, 1380.683
935.3640, 1269.562
936.4860, 1539.396
937.6090, 1484.186
938.7310, 1768.934
939.8530, 2043.637
940.9750, 1980.674
942.0970, 2428.904
943.2180, 2037.467
944.3400, 2107.999
945.4610, 2252.484
946.5820, 2263.934
947.7030, 2249.355
948.8240, 2261.730
949.9450, 2323.295
951.0650, 2370.836
952.1860, 2497.613
953.3060, 2513.848
954.4260, 2659.055
955.5460, 2703.229
956.6650, 2738.428
957.7850, 2919.698
958.9040, 3135.012
960.0230, 3123.354
961.1420, 3211.770
962.2610, 3163.214
963.3800, 3510.659
964.4990, 3578.074
965.6170, 3680.446
966.7350, 3790.779
967.8530, 3781.071
968.9710, 4016.324
970.0890, 4076.537
971.2070, 4302.729
972.3240, 4404.882
973.4410, 4487.993
974.5580, 4518.007
975.6750, 4462.099
976.7920, 4445.093
977.9090, 4343.047
979.0250, 4261.962
980.1410, 4245.838
981.2580, 4183.674
982.3740, 4056.475
983.4890, 4045.234
984.6050, 4009.956
985.7200, 3731.640
986.8360, 3657.285
987.9510, 3706.895
989.0660, 3670.467
990.1810, 3660.000
991.2950, 3615.497
992.4100, 3532.958
993.5240, 3527.384
994.6390, 3505.773
995.7530, 3667.127
996.8660, 3682.443
997.9800, 3566.727
999.0940, 3581.973
1000.207, 3807.186
1001.320, 3789.836
1002.433, 3844.849
1003.546, 3819.998
1004.659, 3983.242
1005.772, 4077.597
1006.884, 4142.002
1007.996, 4291.008
1009.108, 4284.173
1010.220, 4415.387
1011.332, 4768.410
1012.444, 4961.730
1013.555, 5011.479
1014.666, 5246.539
1015.777, 5460.375
1016.888, 5670.254
1017.999, 5898.250
1019.110, 5911.608
1020.220, 6281.676
1021.331, 6500.470
1022.441, 6488.746
1023.551, 6728.412
1024.661, 6878.844
1025.770, 6789.777
1026.880, 7200.852
1027.989, 7076.725
1029.098, 7092.975
1030.207, 7267.880
1031.316, 7327.707
1032.425, 7431.301
1033.533, 7590.504
1034.642, 7835.975
1035.750, 7951.966
1036.858, 8197.488
1037.966, 8523.800
1039.073, 8946.659
1040.181, 9464.896
1041.288, 9979.008
1042.396, 10625.70
1043.503, 10853.20
1044.610, 11597.17
1045.716, 12099.88
1046.823, 13203.90
1047.929, 14014.23
1049.036, 14752.59
1050.142, 15882.07
1051.248, 16860.68
1052.353, 18146.16
1053.459, 19339.99
1054.564, 20493.36
1055.670, 21898.88
1056.775, 22936.39
1057.880, 24158.52
1058.985, 25111.65
1060.089, 26136.38
1061.194, 26569.49
1062.298, 26613.98
1063.402, 26814.76
1064.506, 26277.22
1065.610, 25320.20
1066.713, 24199.37
1067.817, 22324.54
1068.920, 20761.33
1070.023, 19240.75
1071.126, 17410.38
1072.229, 15755.75
1073.332, 14053.12
1074.435, 12696.17
1075.537, 11193.38
1076.639, 9958.551
1077.741, 9022.568
1078.843, 8235.569
1079.945, 7214.350
1081.046, 6377.338
1082.148, 6119.009
1083.249, 5430.325
1084.350, 4871.676
1085.451, 4691.105
1086.551, 4269.862
1087.652, 4023.695
1088.752, 3804.684
1089.853, 3439.259
1090.953, 3521.742
1092.053, 3105.553
1093.152, 2900.883
1094.252, 2968.994
1095.351, 2767.074
1096.451, 2603.035
1097.550, 2547.995
1098.649, 2455.232
1099.748, 2375.268
1100.846, 2216.412
1101.945, 2119.509
1103.043, 1931.636
1104.141, 1992.563
1105.239, 1881.472
1106.337, 1826.233
1107.434, 1851.158
1108.532, 1747.117
1109.629, 1635.850
1110.726, 1544.586
1111.823, 1526.300
1112.920, 1460.005
1114.017, 1430.723
1115.113, 1427.411
1116.210, 1433.090
1117.306, 1451.761
1118.402, 1422.423
1119.498, 1356.077
1120.593, 1332.723
1121.689, 1261.361
1122.784, 1247.832
1123.879, 1099.661
1124.974, 1208.276
1126.069, 1226.884
1127.164, 1192.485
1128.259, 1072.080
1129.353, 1295.791
1130.447, 1253.371
1131.541, 1198.945
1132.635, 1403.513
1133.729, 1334.076
1134.822, 1381.634
1135.916, 1654.190
1137.009, 1623.743
1138.102, 1629.297
1139.195, 1790.852
1140.288, 1688.406
1141.380, 1837.969
1142.473, 1622.541
1143.565, 1728.117
1144.657, 1526.182
1145.749, 1424.432
1146.841, 1097.050
1147.932, 1160.746
1149.024, 919.4600
1150.115, 791.1807
1151.206, 626.9316
1152.297, 581.7041
1153.388, 394.5371
1154.479, 432.4492
1155.569, 399.4277
1156.659, 214.4424
1157.750, 281.5430
1158.839, 188.6904
1159.929, 96.87207
1161.019, 123.7812
1162.108, 87.43457
1163.198, 107.7861
1164.287, 100.1787
1165.376, 104.6133
1166.465, 122.0762
1167.553, 83.58496
1168.642, 86.37891
1169.730, 96.66602
1170.818, 63.25293
1171.906, 67.88965
1172.994, 74.53516
1174.082, 131.2383
1175.170, 12.94336
1176.257, 27.65430
1177.344, 107.6289
1178.431, 35.96680
1179.518, 22.68164
1180.605, 21.67188
1181.691, 7.960938
1182.778, 82.58984
1183.864, 70.21875
1184.950, 30.15527
1186.036, 1.549805
1187.122, 42.95410
1188.207, 32.38477
1189.292, 192.8408
1190.378, 122.4033
1191.463, 144.0381
1192.548, 14.24316
1193.632, 90.48242
1194.717, 13.73730
1195.801, 93.05078
1196.886, 11.88867
1197.970, 95.74219
1199.054, 3.655273
1200.137, 12.41895
1201.221, 20.51367
1202.305, 18.53320
1203.388, 17.57324
1204.471, 107.6055
1205.554, 50.63379
1206.637, 46.34375
1207.719, 98.64551
1208.802, 26.36914
1209.884, 55.40918
1210.966, 117.5117
1212.048, 0.2207030
1213.130, 8.964844
1214.212, 31.76953
1215.293, 64.90039
1216.374, 54.07715
1217.456, 22.27539
1218.536, 57.48242
1219.617, 66.71680
1220.698, 49.21094
1221.778, 70.27246
1222.859, 30.61328
1223.939, 34.03516
1225.019, 38.67773
1226.099, 64.33203
1227.178, 61.61230
1228.258, 9.649414
1229.337, 38.29785
1230.417, 12.94043
1231.496, 18.57520
1232.574, 58.79688
1233.653, 53.79102
1234.732, 55.37500
1235.810, 100.9600
1236.888, 46.54102
1237.966, 36.11816
1239.044, 107.6885
1240.122, 84.25684
1241.199, 178.8232
1242.277, 122.3838
1243.354, 81.94824
1244.431, 132.5078
1245.508, 180.0654
1246.585, 153.6211
1247.661, 165.1748
1248.738, 224.7246
1249.814, 226.2715
1250.890, 258.8164
1251.966, 195.3584
1253.042, 74.89648
1254.117, 221.4316
1255.193, 103.9639
1256.268, 189.4941
1257.343, 111.0205
1258.418, 55.54492
1259.493, 309.0654
1260.567, 271.5830
1261.642, 465.0986
1262.716, 264.6113
1263.790, 535.1201
1264.864, 533.6270
1265.938, 445.1328
1267.011, 455.6348
1268.085, 506.1348
1269.158, 440.6309
1270.231, 495.0859
1271.304, 409.6172
1272.377, 536.1064
1273.450, 463.5928
1274.522, 455.0742
1275.594, 613.5527
1276.666, 458.0254
1277.738, 532.4932
1278.810, 542.9590
1279.882, 698.4180
1280.953, 588.8730
1282.025, 512.3223
1283.096, 499.7666
1284.167, 647.2061
1285.238, 574.6396
1286.308, 659.0664
1287.379, 583.4854
1288.449, 626.8975
1289.519, 700.3047
1290.589, 625.7021
