##NAMES=Elbaite
##RRUFFID=R050260
##IDEAL CHEMISTRY=Na(Al_1.5_Li_1.5_)Al_6_(Si_6_O_18_)(BO_3_)_3_(OH)_3_OH
##LOCALITY=Minas Gerais, Brazil
##OWNER=RRUFF
##SOURCE=Marcus Origlieri
##DESCRIPTION=Greenish-gray prismatic single crystal
##STATUS=The identification of this mineral has been confirmed by X-ray diffraction and chemical analysis
##URL=rruff.info/R050260
##MEASURED CHEMISTRY=(Na_0.76_[box]_0.17_Ca_0.07_)_Σ=1_(Al_1.67_Li_0.97_Mn_0.36_)_Σ=3_Al_6.00_(B_1.00_O_3_)_3_Si_6.00_O_18_((OH)_3.40_F_0.60_)_Σ=4_; B assumed by stoichiometry; OH estimated by charge balance
##PIN_ID=L01964
##ORIENTATION=Laser parallel to a* (1 0 0). Fiducial mark perpendicular to laser is parallel to -c [0 0 -1]
118.1340, 0.0000000E+00
119.3650, 2.598145
120.5960, 70.78027
121.8270, 223.4634
123.0580, 264.4072
124.2880, 344.6431
125.5190, 295.6587
126.7490, 262.3979
127.9790, 266.7251
129.2090, 365.5752
130.4390, 328.3623
131.6680, 286.0991
132.8980, 95.43750
134.1270, 124.3276
135.3560, 79.71289
136.5850, 61.46533
137.8140, 25.27002
139.0430, 65.16113
140.2710, 49.94775
141.5000, 26.18555
142.7280, 33.24170
143.9560, 41.72070
145.1840, 125.6562
146.4120, 173.5308
147.6390, 338.3154
148.8670, 444.9795
150.0940, 724.4912
151.3210, 841.8208
152.5490, 1099.939
153.7750, 1072.817
155.0020, 1459.429
156.2290, 1458.734
157.4550, 1543.684
158.6810, 1452.233
159.9080, 1408.335
161.1340, 1290.948
162.3590, 1123.039
163.5850, 918.5903
164.8110, 977.5830
166.0360, 758.0039
167.2610, 700.8423
168.4860, 522.1084
169.7110, 392.8149
170.9360, 399.9736
172.1610, 304.5962
173.3850, 161.6880
174.6100, 112.2451
175.8340, 63.25098
177.0580, 58.68896
178.2820, 41.54395
179.5050, 182.8018
180.7290, 92.45020
181.9520, 178.4766
183.1760, 348.8701
184.3990, 403.6216
185.6220, 652.7217
186.8450, 863.1602
188.0670, 938.9292
189.2900, 1251.022
190.5120, 1569.429
191.7340, 1742.112
192.9560, 2084.935
194.1780, 2296.885
195.4000, 2636.942
196.6220, 3199.091
197.8430, 3622.312
199.0640, 3893.598
200.2860, 4474.947
201.5070, 5130.260
202.7270, 5726.580
203.9480, 6395.991
205.1690, 7052.528
206.3890, 8163.209
207.6090, 9053.040
208.8290, 10601.03
210.0490, 12241.17
211.2690, 14035.47
212.4890, 15635.93
213.7080, 17785.56
214.9280, 20010.39
216.1470, 21929.54
217.3660, 24681.10
218.5850, 26721.09
219.8030, 30033.51
221.0220, 33106.34
222.2400, 35903.54
223.4590, 38067.19
224.6770, 38805.24
225.8950, 38289.70
227.1120, 36433.48
228.3300, 34158.62
229.5480, 31279.98
230.7650, 28776.45
231.9820, 26528.04
233.1990, 24642.74
234.4160, 23236.55
235.6330, 22397.49
236.8490, 21497.54
238.0660, 21068.72
239.2820, 20612.01
240.4980, 20455.42
241.7140, 20639.94
242.9300, 20633.60
244.1460, 20812.37
245.3610, 20987.26
246.5770, 20989.27
247.7920, 21086.41
249.0070, 20852.65
250.2220, 20631.03
251.4370, 20118.51
252.6510, 19523.12
253.8660, 19105.85
255.0800, 18470.69
256.2940, 17877.65
257.5080, 17506.73
258.7220, 17089.93
259.9360, 16737.23
261.1490, 15783.66
262.3630, 15170.21
263.5760, 14535.87
264.7890, 14053.34
266.0020, 13524.84
267.2150, 13003.48
268.4270, 12465.00
269.6400, 12242.29
270.8520, 11714.40
272.0640, 11178.32
273.2760, 10667.19
274.4880, 9991.238
275.7000, 9559.452
276.9120, 8646.675
278.1230, 7934.143
279.3340, 7139.199
280.5450, 6488.563
281.7560, 5865.947
282.9670, 5044.485
284.1780, 4349.354
285.3880, 3975.741
286.5980, 3375.832
287.8090, 2914.602
289.0190, 2631.848
290.2290, 1996.522
291.4380, 1697.381
292.6480, 1407.422
293.8570, 1122.642
295.0670, 959.0342
296.2760, 826.5962
297.4850, 646.3252
298.6930, 613.2173
299.9020, 600.2686
301.1110, 610.4771
302.3190, 595.8394
303.5270, 817.3525
304.7350, 971.0142
305.9430, 1045.821
307.1510, 1205.774
308.3580, 1471.868
309.5660, 1663.135
310.7730, 1833.712
311.9800, 2226.250
313.1870, 2531.776
314.3940, 2890.362
315.6010, 3355.228
316.8070, 3525.056
318.0130, 3661.354
319.2200, 3534.498
320.4260, 3362.449
321.6310, 3029.786
322.8370, 2750.235
324.0430, 2498.005
325.2480, 2385.334
326.4540, 2309.993
327.6590, 2200.995
328.8640, 2213.511
330.0680, 2244.905
331.2730, 2387.721
332.4780, 2468.861
333.6820, 2610.651
334.8860, 2852.969
336.0900, 3000.104
337.2940, 3215.437
338.4980, 3568.209
339.7010, 3815.614
340.9050, 3879.799
342.1080, 4101.079
343.3110, 4576.453
344.5140, 4706.920
345.7170, 5066.481
346.9200, 5393.138
348.1220, 5736.430
349.3240, 6071.736
350.5270, 6578.676
351.7290, 7087.710
352.9310, 7584.838
354.1320, 8287.062
355.3340, 9057.376
356.5350, 10119.78
357.7370, 11186.28
358.9380, 12831.87
360.1390, 14752.55
361.3400, 17292.32
362.5400, 19789.18
363.7410, 22700.12
364.9410, 25295.15
366.1410, 27942.26
367.3410, 31168.45
368.5410, 34817.73
369.7410, 38781.08
370.9400, 43290.50
372.1400, 48470.00
373.3390, 52634.58
374.5380, 54881.23
375.7370, 54299.95
376.9360, 51625.74
378.1350, 47388.61
379.3330, 41398.55
380.5310, 35894.56
381.7300, 31287.63
382.9280, 27433.79
384.1260, 23931.01
385.3230, 21079.31
386.5210, 19176.68
387.7180, 17265.11
388.9160, 16107.62
390.1130, 15130.20
391.3100, 14440.85
392.5060, 14007.57
393.7030, 13578.36
394.9000, 13659.22
396.0960, 13481.16
397.2920, 13872.16
398.4880, 13999.23
399.6840, 14478.38
400.8800, 15022.59
402.0750, 15551.88
403.2710, 15725.23
404.4660, 16269.66
405.6610, 16469.16
406.8560, 16928.72
408.0510, 17037.35
409.2450, 16951.08
410.4400, 16737.89
411.6340, 15964.80
412.8280, 15217.52
414.0220, 14127.61
415.2160, 13236.65
416.4100, 11690.93
417.6030, 10508.31
418.7970, 9265.791
419.9900, 7998.369
421.1830, 6892.044
422.3760, 5950.820
423.5690, 5131.701
424.7610, 4329.681
425.9540, 3714.761
427.1460, 3269.966
428.3380, 2654.281
429.5300, 2256.715
430.7220, 2054.241
431.9140, 1744.868
433.1050, 1544.592
434.2970, 1348.407
435.4880, 1076.312
436.6790, 992.3066
437.8700, 873.3887
439.0610, 680.5601
440.2510, 679.8174
441.4420, 532.1621
442.6320, 479.5933
443.8220, 549.1099
445.0120, 212.7114
446.2020, 362.3979
447.3910, 197.1670
448.5810, 317.0200
449.7700, 80.95557
450.9600, 87.97363
452.1490, 18.92676
453.3370, 24.23730
454.5260, 146.5205
455.7150, 202.2651
456.9030, 140.0210
458.0910, 201.7627
459.2800, 197.5171
460.4670, 243.2832
461.6550, 197.0811
462.8430, 209.8916
464.0300, 154.7212
465.2180, 233.5479
466.4050, 137.4053
467.5920, 245.2534
468.7790, 209.1377
469.9650, 273.0454
471.1520, 201.0020
472.3380, 215.9790
473.5250, 201.9819
474.7110, 226.0073
475.8970, 145.0640
477.0820, 96.11865
478.2680, 239.1519
479.4540, 201.2231
480.6390, 20.31787
481.8240, 15.63770
483.0090, 183.6567
484.1940, 225.7466
485.3780, 395.9082
486.5630, 573.1392
487.7470, 702.4414
488.9320, 860.8140
490.1160, 965.2549
491.3000, 1216.767
492.4830, 1528.348
493.6670, 1699.997
494.8500, 1877.714
496.0340, 2037.500
497.2170, 2215.245
498.4000, 2369.275
499.5820, 2591.266
500.7650, 2781.321
501.9480, 3034.443
503.1300, 3146.632
504.3120, 3359.888
505.4940, 3535.211
506.6760, 3654.601
507.8580, 3722.054
509.0390, 3814.575
510.2210, 3839.165
511.4020, 3939.820
512.5830, 3988.557
513.7640, 4000.358
514.9450, 3804.238
516.1250, 3821.184
517.3060, 3541.200
518.4860, 3519.282
519.6660, 3251.435
520.8460, 3100.651
522.0260, 2735.951
523.2060, 2576.321
524.3850, 2215.795
525.5650, 2008.342
526.7440, 1790.984
527.9230, 1778.710
529.1020, 1666.563
530.2810, 1484.517
531.4590, 1299.588
532.6380, 1361.771
533.8160, 1294.072
534.9940, 1131.507
536.1720, 984.0591
537.3500, 888.7188
538.5270, 851.5132
539.7050, 734.4258
540.8820, 656.4541
542.0590, 543.6035
543.2360, 524.8662
544.4130, 455.2354
545.5900, 269.7256
546.7660, 285.3472
547.9430, 207.0854
549.1190, 300.9224
550.2950, 98.83838
551.4710, 97.84570
552.6470, 89.92969
553.8220, 15.91113
554.9980, 105.3027
556.1730, 18.41895
557.3480, 122.9131
558.5230, 142.3320
559.6980, 51.81885
560.8730, 105.3794
562.0470, 105.9985
563.2220, 199.6758
564.3960, 171.4292
565.5700, 125.2393
566.7440, 190.1201
567.9170, 267.0552
569.0910, 352.0400
570.2640, 365.0737
571.4380, 331.1606
572.6110, 354.2939
573.7840, 371.4756
574.9570, 484.7114
576.1290, 560.9932
577.3020, 585.3237
578.4740, 572.6982
579.6460, 767.1187
580.8180, 751.5806
581.9900, 699.0835
583.1620, 821.6260
584.3330, 828.2075
585.5040, 1023.828
586.6760, 922.4868
587.8470, 891.1836
589.0180, 1021.917
590.1880, 978.6875
591.3590, 913.4932
592.5290, 932.3350
593.7000, 953.9766
594.8700, 879.8877
596.0400, 923.8042
597.2090, 914.9023
598.3790, 942.1094
599.5490, 722.2026
600.7180, 732.4956
601.8870, 785.4814
603.0560, 844.7783
604.2250, 908.4268
605.3940, 995.8433
606.5620, 1054.299
607.7300, 1062.584
608.8990, 1149.458
610.0670, 1149.150
611.2350, 1224.644
612.4020, 1349.767
613.5700, 1378.153
614.7370, 1657.260
615.9050, 1683.180
617.0720, 1835.188
618.2390, 1952.607
619.4060, 2222.116
620.5720, 2515.214
621.7390, 2957.177
622.9050, 3442.640
624.0710, 4041.113
625.2370, 4590.305
626.4030, 5610.191
627.5690, 6558.110
628.7340, 7618.066
629.9000, 8451.055
631.0650, 9472.078
632.2300, 10749.13
633.3950, 11913.22
634.5600, 12553.34
635.7240, 13347.49
636.8890, 13650.67
638.0530, 13542.88
639.2170, 13516.12
640.3810, 13017.39
641.5450, 12498.69
642.7080, 12024.02
643.8720, 11471.37
645.0350, 10586.12
646.1980, 10025.53
647.3610, 9607.965
648.5240, 9095.893
649.6870, 8846.871
650.8490, 8612.710
652.0120, 8417.229
653.1740, 8107.197
654.3360, 7745.234
655.4980, 7475.575
656.6600, 7214.560
657.8210, 6845.724
658.9830, 6766.911
660.1440, 6367.085
661.3050, 5966.775
662.4660, 5728.342
663.6270, 5135.625
664.7870, 4892.719
665.9480, 4667.081
667.1080, 4217.352
668.2680, 3925.661
669.4280, 3456.187
670.5880, 3241.171
671.7480, 3083.718
672.9070, 2783.036
674.0670, 2637.887
675.2260, 2505.060
676.3850, 2451.736
677.5440, 2486.513
678.7030, 2547.986
679.8610, 2604.132
681.0200, 2774.652
682.1780, 2913.289
683.3360, 3088.551
684.4940, 3279.149
685.6520, 3661.276
686.8090, 4052.163
687.9670, 4563.876
689.1240, 5349.918
690.2810, 5944.762
691.4380, 7003.386
692.5950, 8112.747
693.7520, 9123.565
694.9080, 10365.14
696.0650, 11987.94
697.2210, 13471.55
698.3770, 15069.71
699.5330, 16899.64
700.6880, 18548.00
701.8440, 20177.76
702.9990, 21661.44
704.1550, 23083.03
705.3100, 24167.62
706.4650, 24771.71
707.6190, 24539.17
708.7740, 23798.30
709.9290, 22793.78
711.0830, 21131.88
712.2370, 18970.19
713.3910, 16821.08
714.5450, 14682.37
715.6980, 12754.10
716.8520, 10980.16
718.0050, 9436.601
719.1580, 8022.925
720.3110, 6944.449
721.4640, 6025.802
722.6170, 5341.100
723.7700, 4530.371
724.9220, 4096.726
726.0740, 3699.944
727.2260, 3616.134
728.3780, 3204.296
729.5300, 3201.430
730.6810, 3073.535
731.8330, 2903.610
732.9840, 2840.665
734.1350, 2822.691
735.2860, 2791.721
736.4370, 2815.872
737.5880, 2882.279
738.7380, 2956.549
739.8880, 3062.793
741.0390, 3238.889
742.1890, 3562.999
743.3380, 3603.132
744.4880, 4029.261
745.6380, 4294.419
746.7870, 4470.567
747.9360, 4832.739
749.0850, 5038.149
750.2340, 5296.360
751.3830, 5424.683
752.5310, 5375.074
753.6800, 4977.552
754.8280, 4784.997
755.9760, 4447.640
757.1240, 3879.893
758.2720, 3455.652
759.4190, 2882.164
760.5670, 2589.417
761.7140, 2312.822
762.8610, 1952.001
764.0080, 1707.321
765.1550, 1342.420
766.3020, 1156.074
767.4480, 1089.499
768.5950, 845.5010
769.7410, 770.4375
770.8870, 750.3330
772.0330, 529.1875
773.1780, 436.0469
774.3240, 467.8159
775.4690, 395.5420
776.6140, 278.2251
777.7590, 329.8643
778.9040, 211.4604
780.0490, 199.0122
781.1940, 194.5200
782.3380, 95.98291
783.4820, 208.3965
784.6260, 191.7642
785.7700, 98.08643
786.9140, 99.35791
788.0580, 115.5781
789.2010, 2.747559
790.3450, 115.8398
791.4880, 13.88037
792.6310, 95.84717
793.7730, 60.75879
794.9160, 119.6094
796.0590, 57.40625
797.2010, 128.1401
798.3430, 6.179688
799.4850, 48.41260
800.6270, 93.06152
801.7690, 31.32959
802.9100, 60.35107
804.0520, 10.15088
805.1930, 185.0435
806.3340, 76.12109
807.4750, 146.3281
808.6160, 122.7007
809.7560, 150.2271
810.8970, 205.9229
812.0370, 146.8164
813.1770, 111.8784
814.3170, 214.0898
815.4570, 150.5049
816.5960, 145.0898
817.7360, 166.8438
818.8750, 136.7764
820.0140, 114.8721
821.1530, 168.1201
822.2920, 208.5483
823.4310, 157.1777
824.5690, 90.98047
825.7070, 16.92334
826.8460, 61.96680
827.9840, 11.13330
829.1220, 7.396484
830.2590, 10.75488
831.3970, 29.80127
832.5340, 13.71924
833.6710, 61.32568
834.8080, 8.945313
835.9450, 19.86768
837.0820, 88.21924
838.2190, 63.24023
839.3550, 33.80811
840.4910, 71.03857
841.6270, 18.18311
842.7630, 100.4980
843.8990, 150.1162
845.0350, 187.6758
846.1700, 69.18018
847.3060, 185.6177
848.4410, 157.9995
849.5760, 40.32471
850.7100, 155.5781
851.8450, 113.7749
852.9800, 176.9111
854.1140, 138.9912
855.2480, 280.0142
856.3820, 247.9863
857.5160, 282.9087
858.6500, 291.7812
859.7830, 333.6050
860.9170, 264.3799
862.0500, 308.1055
863.1830, 312.7827
864.3160, 294.4116
865.4480, 312.8677
866.5810, 313.1133
867.7130, 306.0103
868.8460, 325.4478
869.9780, 314.8374
871.1100, 309.1797
872.2410, 266.4741
873.3730, 205.7207
874.5050, 241.9165
875.6360, 251.0615
876.7670, 319.1582
877.8980, 306.2070
879.0290, 289.2080
880.1590, 307.1602
881.2900, 288.0649
882.4200, 339.9219
883.5500, 300.7305
884.6800, 235.4907
885.8100, 333.2017
886.9400, 264.8638
888.0690, 251.4771
889.1990, 233.0400
890.3280, 244.5537
891.4570, 196.0166
892.5860, 290.4272
893.7140, 176.7905
894.8430, 229.1006
895.9710, 331.3604
897.1000, 238.5718
898.2280, 309.7500
899.3560, 238.8818
900.4830, 320.9644
901.6110, 296.9990
902.7380, 300.9873
903.8660, 272.9287
904.9930, 314.8232
906.1200, 344.6758
907.2460, 292.4824
908.3730, 263.2427
909.5000, 367.9590
910.6260, 320.6299
911.7520, 339.2573
912.8780, 449.8447
914.0040, 382.3916
915.1290, 296.8950
916.2550, 363.3643
917.3800, 380.7891
918.5050, 403.8037
919.6300, 476.1616
920.7550, 513.5020
921.8800, 382.3340
923.0040, 603.1113
924.1290, 406.0142
925.2530, 588.2212
926.3770, 625.9629
927.5010, 682.6162
928.6250, 632.9448
929.7480, 729.6104
930.8720, 673.0781
931.9950, 773.5049
933.1180, 848.9312
934.2410, 844.8276
935.3640, 883.8369
936.4860, 968.1079
937.6090, 1042.555
938.7310, 953.7158
939.8530, 1136.944
940.9750, 1099.119
942.0970, 1218.066
943.2180, 1296.556
944.3400, 1388.459
945.4610, 1561.581
946.5820, 1560.146
947.7030, 1602.374
948.8240, 1756.744
949.9450, 1798.653
951.0650, 2050.516
952.1860, 2061.703
953.3060, 2328.498
954.4260, 2449.160
955.5460, 2693.203
956.6650, 2701.890
957.7850, 2959.023
958.9040, 3087.372
960.0230, 3290.869
961.1420, 3303.036
962.2610, 3419.376
963.3800, 3636.936
964.4990, 3867.749
965.6170, 3957.367
966.7350, 3995.920
967.8530, 4059.368
968.9710, 4074.019
970.0890, 4083.792
971.2070, 4075.928
972.3240, 4119.622
973.4410, 4094.893
974.5580, 3929.223
975.6750, 3978.618
976.7920, 3913.971
977.9090, 3898.803
979.0250, 3896.255
980.1410, 3909.011
981.2580, 3775.381
982.3740, 3737.106
983.4890, 3610.599
984.6050, 3614.483
985.7200, 3598.942
986.8360, 3648.933
987.9510, 3736.560
989.0660, 3658.866
990.1810, 3691.083
991.2950, 3756.160
992.4100, 3722.379
993.5240, 3818.638
994.6390, 3745.894
995.7530, 3805.035
996.8660, 3802.284
997.9800, 3990.529
999.0940, 3909.772
1000.207, 3901.015
1001.320, 3974.256
1002.433, 3869.495
1003.546, 3808.736
1004.659, 3855.975
1005.772, 3932.213
1006.884, 3852.343
1007.996, 4016.218
1009.108, 3990.244
1010.220, 3969.308
1011.332, 3924.542
1012.444, 3986.776
1013.555, 3862.001
1014.666, 3968.236
1015.777, 4178.461
1016.888, 3999.697
1017.999, 4030.935
1019.110, 3944.948
1020.220, 4026.188
1021.331, 4064.332
1022.441, 4004.421
1023.551, 4081.438
1024.661, 4050.510
1025.770, 3898.384
1026.880, 3977.640
1027.989, 3774.409
1029.098, 3679.438
1030.207, 3759.705
1031.316, 3789.530
1032.425, 3749.806
1033.533, 3687.952
1034.642, 3660.235
1035.750, 3793.523
1036.858, 3576.875
1037.966, 3668.149
1039.073, 3439.407
1040.181, 3635.716
1041.288, 3661.031
1042.396, 3535.709
1043.503, 3646.063
1044.610, 3690.625
1045.716, 3686.062
1046.823, 3866.099
1047.929, 3789.726
1049.036, 3940.190
1050.142, 4088.558
1051.248, 4381.038
1052.353, 4336.689
1053.459, 4429.060
1054.564, 4527.893
1055.670, 4919.111
1056.775, 4968.788
1057.880, 5203.334
1058.985, 5279.786
1060.089, 5455.248
1061.194, 5667.732
1062.298, 5784.229
1063.402, 6028.755
1064.506, 6048.562
1065.610, 6142.103
1066.713, 6290.557
1067.817, 6382.463
1068.920, 6444.156
1070.023, 6637.151
1071.126, 6687.242
1072.229, 6867.954
1073.332, 7027.391
1074.435, 7376.984
1075.537, 7314.593
1076.639, 7629.530
1077.741, 7980.856
1078.843, 8071.923
1079.945, 8594.190
1081.046, 8831.575
1082.148, 9085.986
1083.249, 9618.864
1084.350, 9811.504
1085.451, 10091.97
1086.551, 10350.22
1087.652, 10100.64
1088.752, 9933.426
1089.853, 9746.200
1090.953, 9261.059
1092.053, 8843.986
1093.152, 8372.490
1094.252, 7523.517
1095.351, 7127.656
1096.451, 6606.969
1097.550, 6110.239
1098.649, 5689.970
1099.748, 5323.495
1100.846, 4859.250
1101.945, 4519.501
1103.043, 4193.306
1104.141, 4026.063
1105.239, 3666.862
1106.337, 3527.201
1107.434, 3178.214
1108.532, 2911.604
1109.629, 2780.026
1110.726, 2563.631
1111.823, 2456.077
1112.920, 2303.534
1114.017, 2229.650
1115.113, 2031.976
1116.210, 1867.627
1117.306, 1832.138
1118.402, 1810.660
1119.498, 1658.194
1120.593, 1677.092
1121.689, 1504.647
1122.784, 1499.210
1123.879, 1445.902
1124.974, 1376.119
1126.069, 1257.702
1127.164, 1146.292
1128.259, 1100.556
1129.353, 1094.492
1130.447, 1002.102
1131.541, 907.3765
1132.635, 852.9985
1133.729, 732.6265
1134.822, 768.0371
1135.916, 676.6768
1137.009, 754.3223
1138.102, 603.9741
1139.195, 499.6318
1140.288, 577.2969
1141.380, 530.9683
1142.473, 455.6465
1143.565, 454.3301
1144.657, 376.0190
1145.749, 418.7129
1146.841, 210.4126
1147.932, 156.1177
1149.024, 194.8281
1150.115, 243.5430
1151.206, 250.2642
1152.297, 223.9902
1153.388, 121.7222
1154.479, 121.4590
1155.569, 108.2021
1156.659, 116.9507
1157.750, 159.7051
1158.839, 50.46484
1159.929, 66.23145
1161.019, 35.00293
1162.108, 97.22168
1163.198, 78.52490
1164.287, 2.725098
1165.376, 9.029297
1166.465, 93.78760
1167.553, 3.450195
1168.642, 13.31445
1169.730, 37.91650
1170.818, 6.845703
1171.906, 72.61182
1172.994, 19.61865
1174.082, 0.1494140
1175.170, 12.07959
1176.257, 37.30859
1177.344, 26.54590
1178.431, 12.78711
1179.518, 55.02930
1180.605, 10.71045
1181.691, 4.546387
1182.778, 86.80225
1183.864, 113.0947
1184.950, 15.43750
1186.036, 60.78271
1187.122, 33.15137
1188.207, 3.531250
1189.292, 9.089355
1190.378, 46.71143
1191.463, 32.07715
1192.548, 29.46777
1193.632, 2.589844
1194.717, 6.782715
1195.801, 22.15625
1196.886, 37.53955
1197.970, 26.94092
1199.054, 0.6464840
1200.137, 25.76758
1201.221, 6.703613
1202.305, 29.37256
1203.388, 11.05957
1204.471, 45.49951
1205.554, 75.96582
1206.637, 52.52588
1207.719, 35.98389
1208.802, 49.48242
1209.884, 15.05273
1210.966, 4.399414
1212.048, 5.844727
1213.130, 1.714844
1214.212, 77.25781
1215.293, 8.875977
1216.374, 19.50879
1217.456, 100.1626
1218.536, 8.878906
1219.617, 119.3877
1220.698, 27.64941
1221.778, 40.90576
1222.859, 76.84473
1223.939, 19.35059
1225.019, 84.46191
1226.099, 38.33301
1227.178, 19.24121
1228.258, 21.82471
1229.337, 39.99902
1230.417, 105.0669
1231.496, 52.91113
1232.574, 8.119141
1233.653, 54.17188
1234.732, 10.72803
1235.810, 41.61426
1236.888, 8.491699
1237.966, 59.35400
1239.044, 40.20752
1240.122, 30.94824
1241.199, 67.85889
1242.277, 93.65674
1243.354, 11.44629
1244.431, 8.219238
1245.508, 24.97461
1246.585, 87.71875
1247.661, 58.45264
1248.738, 82.17822
1249.814, 20.89404
1250.890, 105.5962
1251.966, 109.2881
1253.042, 29.97070
1254.117, 33.35791
1255.193, 99.27197
1256.268, 42.89062
1257.343, 76.50098
1258.418, 80.10107
1259.493, 83.69092
1260.567, 18.27100
1261.642, 46.83447
1262.716, 66.38770
1263.790, 16.93115
1264.864, 47.45703
1265.938, 77.97266
1267.011, 67.47705
1268.085, 186.9727
1269.158, 54.45703
1270.231, 64.93262
1271.304, 164.3970
1272.377, 65.85059
1273.450, 170.2949
1274.522, 139.7285
1275.594, 85.15186
1276.666, 101.5649
1277.738, 179.9673
1278.810, 255.3599
1279.882, 87.74170
1280.953, 230.1133
1282.025, 89.47461
1283.096, 169.8252
1284.167, 205.1655
1285.238, 190.4956
1286.308, 176.8149
