##NAMES=Elbaite
##RRUFFID=R050119
##IDEAL CHEMISTRY=Na(Al_1.5_Li_1.5_)Al_6_(Si_6_O_18_)(BO_3_)_3_(OH)_3_OH
##LOCALITY=Cruziero mine, San Jose, Minas Gerais, Brazil
##OWNER=RRUFF
##SOURCE=Carlos and Paulo Vasconcelos
##DESCRIPTION=Red fragment
##STATUS=The identification of this mineral has been confirmed by X-ray diffraction and chemical analysis
##URL=rruff.info/R050119
##MEASURED CHEMISTRY=(Na_0.90_Ca_0.10_)(Al_0.56_Li_0.38_Mn_0.06_)_3_Al_6_(BO_3_)_3_(Si_0.89_B_0.11_)_6_O_18_(OH)_4_
##PIN_ID=L00157
##ORIENTATION=Laser parallel to -b* (0 -1 0). Fiducial mark perpendicular to laser is parallel to c [0 0 1]
120.508, 0.000
121.897, 51.096
123.286, 62.401
124.675, 64.982
126.063, 156.730
127.452, 106.938
128.840, 143.800
130.228, 160.755
131.615, 196.519
133.003, 214.956
134.390, 170.051
135.777, 229.733
137.164, 140.969
138.550, 236.971
139.937, 197.922
141.323, 220.253
142.709, 260.289
144.094, 178.314
145.480, 280.198
146.865, 255.515
148.250, 324.733
149.635, 332.922
151.019, 413.242
152.403, 446.254
153.788, 412.243
155.171, 401.876
156.555, 377.638
157.939, 319.523
159.322, 294.183
160.705, 242.526
162.088, 196.872
163.470, 152.208
164.853, 77.650
166.235, 51.220
167.617, 63.910
168.998, 42.691
170.380, 27.438
171.761, 45.527
173.142, 33.417
174.523, 11.275
175.904, 11.946
177.284, 2.236
178.664, 57.411
180.044, 24.000
181.424, 30.531
182.803, 15.996
184.183, 16.421
185.562, 17.783
186.940, 50.909
188.319, 36.656
189.698, 101.456
191.076, 92.309
192.454, 132.214
193.831, 210.172
195.209, 153.181
196.586, 161.241
197.963, 215.353
199.340, 257.515
200.717, 218.743
202.093, 213.025
203.470, 261.357
204.846, 302.741
206.221, 306.182
207.597, 380.677
208.972, 405.222
210.347, 588.815
211.722, 637.955
213.097, 889.608
214.472, 1066.297
215.846, 1214.020
217.220, 1571.789
218.594, 1846.639
219.967, 2233.563
221.341, 2486.581
222.714, 2828.666
224.087, 2903.795
225.460, 2941.938
226.832, 2778.091
228.204, 2427.237
229.577, 2159.356
230.948, 1803.442
232.320, 1657.503
233.692, 1388.512
235.063, 1249.515
236.434, 1249.513
237.805, 1138.538
239.175, 1165.592
240.545, 1125.674
241.916, 1203.784
243.286, 1204.924
244.655, 1216.094
246.025, 1249.292
247.394, 1232.519
248.763, 1200.917
250.132, 1191.063
251.501, 1086.380
252.869, 1031.727
254.237, 947.104
255.605, 830.510
256.973, 654.947
258.340, 712.415
259.708, 573.912
261.075, 545.440
262.442, 620.999
263.808, 569.587
265.175, 627.207
266.541, 596.856
267.907, 695.538
269.273, 759.250
270.639, 725.992
272.004, 807.766
273.369, 779.570
274.734, 870.406
276.099, 823.272
277.463, 867.170
278.828, 825.866
280.192, 798.818
281.556, 844.950
282.919, 675.964
284.283, 686.007
285.646, 585.217
287.009, 547.574
288.372, 539.998
289.734, 347.454
291.097, 395.922
292.459, 231.391
293.821, 190.847
295.183, 111.285
296.544, 97.706
297.905, 31.106
299.266, 6.474
300.627, 30.798
301.988, 31.921
303.348, 23.324
304.709, 89.546
306.069, 37.752
307.428, 179.948
308.788, 303.133
310.147, 291.221
311.507, 309.869
312.865, 318.616
314.224, 390.523
315.583, 399.236
316.941, 455.463
318.299, 441.151
319.657, 515.749
321.015, 570.729
322.372, 524.542
323.729, 695.824
325.086, 751.696
326.443, 904.597
327.800, 957.526
329.156, 1160.482
330.512, 1323.321
331.868, 1294.327
333.224, 1485.204
334.579, 1435.056
335.935, 1414.114
337.290, 1414.830
338.645, 1209.051
339.999, 1193.666
341.354, 1000.958
342.708, 991.618
344.062, 890.485
345.416, 855.050
346.769, 828.266
348.123, 747.934
349.476, 793.625
350.829, 750.021
352.182, 807.447
353.534, 869.898
354.887, 909.374
356.239, 1011.875
357.591, 1059.402
358.942, 1324.953
360.294, 1490.529
361.645, 1641.129
362.996, 1859.754
364.347, 2132.404
365.698, 2471.078
367.048, 2834.776
368.398, 3340.498
369.748, 3944.243
371.098, 4405.013
372.448, 5195.807
373.797, 5573.624
375.146, 6149.457
376.495, 6165.314
377.844, 5981.194
379.192, 5547.097
380.540, 4939.023
381.889, 4523.974
383.236, 3904.946
384.584, 3528.940
385.932, 3084.957
387.279, 2786.996
388.626, 2456.058
389.973, 2223.139
391.319, 2013.244
392.666, 1859.854
394.012, 1946.521
395.358, 1749.693
396.704, 1739.888
398.049, 1894.106
399.394, 1703.347
400.740, 1763.612
402.084, 1872.899
403.429, 1762.209
404.774, 1914.543
406.118, 1797.898
407.462, 1914.277
408.806, 1824.680
410.150, 1846.104
411.493, 1705.550
412.836, 1638.019
414.179, 1550.510
415.522, 1276.024
416.865, 1172.560
418.207, 1004.118
419.549, 738.698
420.891, 705.300
422.233, 455.924
423.575, 395.570
424.916, 224.237
426.257, 139.927
427.598, 88.637
428.939, 65.369
430.279, 15.714
431.619, 35.897
432.959, 28.307
434.299, 1.506
435.639, 10.341
436.978, 85.195
438.318, 6.929
439.657, 111.967
440.996, 131.879
442.334, 102.812
443.673, 243.764
445.011, 180.737
446.349, 246.729
447.687, 259.743
449.024, 304.775
450.361, 324.827
451.699, 329.897
453.036, 361.986
454.372, 315.094
455.709, 297.222
457.045, 349.368
458.381, 279.534
459.717, 256.719
461.053, 195.924
462.388, 183.148
463.724, 185.555
465.059, 62.819
466.394, 61.104
467.728, 42.410
469.063, 54.735
470.397, 5.082
471.731, 25.551
473.065, 30.169
474.398, 88.773
475.732, 35.383
477.065, 49.979
478.398, 108.565
479.731, 59.165
481.063, 91.758
482.396, 20.642
483.728, 118.935
485.060, 37.473
486.391, 60.903
487.723, 10.357
489.054, 183.834
490.385, 152.335
491.716, 199.866
493.047, 308.421
494.377, 201.019
495.708, 339.678
497.038, 344.372
498.368, 421.123
499.697, 422.920
501.027, 424.763
502.356, 561.656
503.685, 598.792
505.014, 713.802
506.342, 773.462
507.671, 870.272
508.999, 1037.562
510.327, 1079.179
511.655, 1215.112
512.982, 1232.409
514.310, 1332.740
515.637, 1527.121
516.964, 1533.523
518.291, 1558.959
519.617, 1538.425
520.944, 1598.920
522.270, 1382.460
523.596, 1242.021
524.921, 1326.604
526.247, 1050.207
527.572, 1030.831
528.897, 946.486
530.222, 877.171
531.547, 1014.879
532.871, 908.612
534.196, 1030.366
535.520, 1183.141
536.844, 1172.937
538.167, 1337.751
539.491, 1294.584
540.814, 1438.435
542.137, 1284.305
543.460, 1318.192
544.783, 1346.096
546.105, 1165.018
547.427, 1259.955
548.749, 1082.910
550.071, 974.880
551.393, 936.866
552.714, 701.867
554.035, 842.884
555.356, 721.916
556.677, 594.963
557.998, 636.024
559.318, 431.101
560.638, 558.191
561.958, 400.297
563.278, 395.416
564.597, 325.549
565.917, 291.697
567.236, 322.858
568.555, 318.033
569.874, 303.221
571.192, 285.421
572.511, 194.636
573.829, 240.863
575.147, 192.104
576.464, 197.356
577.782, 215.621
579.099, 166.898
580.416, 264.188
581.733, 129.490
583.050, 151.803
584.366, 197.128
585.683, 212.465
586.999, 223.368
588.315, 275.173
589.630, 228.543
590.946, 125.925
592.261, 116.587
593.576, 199.982
594.891, 92.397
596.206, 186.824
597.520, 120.114
598.834, 129.563
600.148, 172.025
601.462, 43.498
602.776, 113.982
604.089, 68.481
605.402, 151.989
606.715, 213.506
608.028, 19.033
609.341, 138.573
610.653, 88.123
611.965, 111.682
613.277, 135.252
614.589, 72.830
615.901, 164.417
617.212, 39.013
618.523, 172.617
619.834, 74.229
621.145, 179.850
622.456, 267.481
623.766, 148.120
625.076, 268.766
626.386, 298.418
627.696, 325.078
629.006, 472.743
630.315, 402.770
631.624, 471.650
632.933, 538.262
634.242, 540.978
635.551, 605.173
636.859, 600.907
638.167, 703.769
639.475, 666.284
640.783, 646.002
642.090, 723.585
643.398, 607.425
644.705, 600.372
646.012, 522.558
647.318, 485.697
648.625, 378.808
649.931, 283.410
651.237, 323.404
652.543, 202.594
653.849, 180.083
655.155, 174.522
656.460, 88.277
657.765, 63.730
659.070, 5.324
660.375, 5.127
661.679, 41.424
662.984, 15.944
664.288, 17.596
665.592, 24.761
666.895, 51.380
668.199, 13.033
669.502, 11.101
670.805, 73.812
672.108, 128.095
673.411, 204.608
674.713, 311.392
676.016, 296.714
677.318, 345.451
678.620, 395.125
679.921, 354.398
681.223, 392.836
682.524, 313.220
683.825, 339.186
685.126, 276.845
686.427, 273.182
687.727, 324.017
689.028, 261.144
690.328, 342.772
691.628, 379.030
692.927, 505.403
694.227, 562.445
695.526, 569.532
696.825, 845.392
698.124, 879.387
699.423, 1061.189
700.721, 1190.942
702.020, 1399.706
703.318, 1637.542
704.616, 1992.992
705.913, 2202.527
707.211, 2579.024
708.508, 2952.621
709.805, 3181.097
711.102, 3171.562
712.399, 3092.018
713.695, 3087.461
714.992, 2848.894
716.288, 2465.315
717.584, 2329.725
718.879, 1903.123
720.175, 1782.510
721.470, 1378.885
722.765, 1296.248
724.060, 1096.599
725.355, 851.938
726.649, 859.264
727.944, 667.577
729.238, 735.878
730.532, 732.167
731.825, 633.442
733.119, 786.705
734.412, 665.955
735.705, 818.191
736.998, 862.414
738.291, 953.623
739.584, 1096.819
740.876, 1281.001
742.168, 1595.170
743.460, 1848.325
744.752, 2114.569
746.043, 2571.785
747.334, 2915.898
748.626, 3399.361
749.916, 3651.449
751.207, 3901.522
752.498, 3938.815
753.788, 3739.233
755.078, 3484.176
756.368, 3295.394
757.658, 2920.854
758.947, 2689.796
760.237, 2358.805
761.526, 2262.020
762.815, 2048.958
764.104, 1770.775
765.392, 1847.115
766.680, 1502.351
767.969, 1484.606
769.257, 1471.463
770.544, 1224.471
771.832, 1328.769
773.119, 1196.575
774.406, 1195.609
775.693, 1297.468
776.980, 1210.224
778.267, 1354.010
779.553, 1170.731
780.839, 1182.487
782.125, 1126.173
783.411, 846.841
784.697, 785.492
785.982, 588.127
787.267, 486.749
788.552, 457.366
789.837, 288.969
791.122, 319.562
792.406, 175.152
793.690, 168.733
794.974, 170.310
796.258, 72.868
797.542, 119.423
798.825, 96.958
800.108, 53.473
801.391, 60.965
802.674, 15.434
803.957, 32.870
805.239, 32.720
806.522, 67.368
807.804, 8.091
809.085, 38.858
810.367, 27.687
811.649, 38.570
812.930, 56.515
814.211, 64.530
815.492, 30.794
816.772, 24.942
818.053, 36.744
819.333, 108.715
820.613, 10.801
821.893, 68.007
823.173, 62.162
824.452, 24.706
825.732, 71.303
827.011, 38.024
828.290, 15.678
829.568, 8.427
830.847, 0.779
832.125, 62.054
833.403, 54.041
834.681, 42.109
835.959, 45.150
837.236, 100.166
838.514, 14.842
839.791, 9.898
841.068, 22.001
842.345, 11.870
843.621, 30.151
844.898, 52.508
846.174, 43.288
847.450, 75.040
848.726, 68.768
850.001, 111.472
851.277, 78.153
852.552, 121.810
853.827, 131.446
855.102, 127.118
856.376, 164.654
857.651, 141.227
858.925, 175.777
860.199, 204.309
861.473, 156.820
862.746, 316.311
864.020, 267.784
865.293, 252.236
866.566, 306.697
867.839, 273.138
869.112, 326.560
870.384, 291.963
871.656, 310.348
872.928, 349.712
874.200, 271.059
875.472, 364.386
876.744, 357.698
878.015, 341.992
879.286, 430.266
880.557, 259.527
881.828, 408.768
883.098, 294.002
884.369, 280.217
885.639, 367.413
886.909, 277.607
888.178, 314.782
889.448, 315.937
890.717, 192.083
891.987, 255.209
893.256, 209.320
894.524, 208.449
895.793, 272.560
897.061, 165.654
898.330, 169.740
899.598, 198.808
900.865, 104.857
902.133, 231.886
903.401, 247.895
904.668, 135.889
905.935, 102.861
907.202, 34.824
908.468, 143.760
909.735, 82.675
911.001, 31.571
912.267, 183.438
913.533, 130.290
914.799, 199.119
916.064, 35.929
917.330, 89.720
918.595, 110.489
919.860, 102.237
921.124, 197.963
922.389, 153.669
923.653, 80.358
924.918, 237.022
926.182, 135.667
927.445, 173.295
928.709, 281.902
929.972, 182.491
931.236, 215.062
932.499, 181.612
933.761, 276.145
935.024, 359.659
936.286, 301.153
937.549, 339.629
938.811, 307.086
940.073, 364.523
941.334, 417.942
942.596, 331.342
943.857, 413.722
945.118, 402.084
946.379, 423.426
947.640, 454.759
948.900, 409.775
950.161, 438.959
951.421, 483.051
952.681, 497.889
953.940, 588.759
955.200, 477.644
956.459, 499.022
957.719, 535.995
958.978, 474.756
960.236, 524.203
961.495, 511.686
962.753, 450.839
964.012, 583.277
965.270, 441.560
966.527, 597.312
967.785, 591.163
969.043, 446.359
970.300, 606.819
971.557, 492.774
972.814, 575.160
974.071, 587.784
975.327, 515.789
976.583, 645.130
977.840, 667.531
979.095, 551.687
980.351, 640.554
981.607, 559.866
982.862, 630.745
984.117, 691.670
985.372, 618.976
986.627, 758.101
987.882, 672.396
989.136, 643.956
990.390, 762.803
991.644, 626.954
992.898, 674.588
994.152, 689.964
995.405, 571.768
996.659, 714.252
997.912, 646.271
999.165, 698.602
1000.417, 725.132
1001.670, 599.604
1002.922, 766.104
1004.174, 650.920
1005.426, 717.438
1006.678, 614.516
1007.930, 680.147
1009.181, 759.668
1010.432, 655.763
1011.683, 716.652
1012.934, 766.260
1014.185, 671.536
1015.435, 783.174
1016.685, 757.624
1017.935, 849.351
1019.185, 924.227
1020.435, 890.465
1021.684, 884.146
1022.934, 1080.040
1024.183, 1010.280
1025.432, 1162.829
1026.680, 1051.736
1027.929, 1175.689
1029.177, 1289.521
1030.425, 1143.517
1031.673, 1299.171
1032.921, 1384.564
1034.169, 1266.457
1035.416, 1406.234
1036.663, 1324.014
1037.911, 1463.477
1039.157, 1625.235
1040.404, 1597.364
1041.650, 1790.775
1042.897, 1818.173
1044.143, 1953.721
1045.389, 2240.422
1046.634, 2220.796
1047.880, 2561.818
1049.125, 2727.781
1050.371, 2826.547
1051.615, 3322.863
1052.860, 3403.460
1054.105, 3641.001
1055.349, 4044.105
1056.593, 4212.164
1057.837, 4355.863
1059.081, 4620.073
1060.325, 4554.932
1061.568, 4878.268
1062.812, 4793.212
1064.055, 4797.396
1065.298, 4821.720
1066.540, 4477.075
1067.783, 4551.129
1069.025, 4265.362
1070.267, 4065.452
1071.509, 4123.718
1072.751, 3736.323
1073.993, 3623.062
1075.234, 3600.136
1076.475, 3239.955
1077.716, 3151.087
1078.957, 2861.352
1080.198, 2605.787
1081.438, 2634.795
1082.679, 2356.317
1083.919, 2415.521
1085.159, 2281.490
1086.398, 2114.881
1087.638, 2127.832
1088.877, 1835.777
1090.116, 1856.173
1091.355, 1822.107
1092.594, 1623.216
1093.833, 1623.182
1095.071, 1369.150
1096.309, 1255.747
1097.547, 1268.690
1098.785, 1039.594
1100.023, 1000.104
1101.260, 994.998
1102.498, 759.930
1103.735, 902.817
1104.972, 701.707
1106.208, 719.625
1107.445, 721.527
1108.681, 589.451
1109.918, 606.605
1111.154, 585.552
1112.389, 440.511
1113.625, 548.485
1114.860, 403.480
1116.096, 291.552
1117.331, 405.832
1118.566, 392.872
1119.800, 360.981
1121.035, 361.064
1122.269, 326.151
1123.503, 470.261
1124.737, 424.384
1125.971, 374.478
1127.205, 423.593
1128.438, 237.702
1129.671, 320.031
1130.904, 262.141
1132.137, 133.249
1133.370, 347.367
1134.602, 194.460
1135.834, 95.521
1137.066, 209.577
1138.298, 153.608
1139.530, 190.672
1140.762, 170.638
1141.993, 115.577
1143.224, 236.960
1144.455, 49.878
1145.686, 169.766
1146.917, 209.810
1148.147, 65.672
1149.377, 227.521
1150.607, 85.380
1151.837, 51.189
1153.067, 160.119
1154.296, 9.900
1155.526, 167.077
1156.755, 154.827
1157.984, 28.564
1159.213, 77.331
1160.441, 116.196
1161.670, 6.892
1162.898, 131.327
1164.126, 101.005
1165.354, 104.597
1166.581, 66.454
1167.809, 6.970
1169.036, 107.468
1170.263, 53.993
1171.490, 4.462
1172.717, 163.912
1173.943, 12.653
1175.170, 32.759
1176.396, 55.679
1177.622, 13.947
1178.848, 92.402
1180.073, 36.240
1181.299, 34.062
1182.524, 54.342
1183.749, 58.397
1184.974, 123.827
1186.199, 56.213
1187.423, 30.598
1188.648, 140.556
1189.872, 3.077
1191.096, 132.960
1192.320, 55.102
1193.543, 2.854
1194.767, 30.837
1195.990, 7.336
1197.213, 35.303
1198.436, 45.239
1199.659, 61.192
1200.881, 5.912
1202.104, 116.962
1203.326, 36.158
1204.548, 44.675
1205.770, 89.481
1206.991, 2.727
1208.213, 111.045
1209.434, 4.181
1210.655, 68.836
1211.876, 94.464
1213.096, 17.929
1214.317, 48.652
1215.537, 34.204
1216.757, 45.733
1217.977, 91.238
1219.197, 10.716
1220.417, 97.168
1221.636, 145.572
1222.855, 0.048
1224.074, 85.307
1225.293, 70.639
1226.512, 29.948
1227.731, 209.237
1228.949, 17.515
1230.167, 70.785
1231.385, 163.062
1232.603, 32.375
1233.820, 160.348
1235.038, 140.318
1236.255, 31.283
1237.472, 284.247
1238.689, 82.184
1239.906, 115.089
1241.122, 113.964
1242.338, 23.165
1243.555, 117.704
1244.771, 160.569
1245.986, 84.573
1247.202, 231.282
1248.417, 118.130
1249.633, 150.970
1250.848, 182.802
1252.063, 121.625
1253.277, 194.440
1254.492, 154.246
1255.706, 77.041
1256.920, 199.826
1258.134, 140.438
1259.348, 145.204
1260.562, 280.896
1261.775, 119.228
1262.988, 72.961
1264.201, 244.348
1265.414, 120.403
1266.627, 200.331
1267.839, 146.015
1269.052, 133.808
1270.264, 199.542
1271.476, 149.863
1272.688, 157.862
1273.899, 204.339
1275.111, 76.417
1276.322, 284.934
1277.533, 142.303
1278.744, 150.308
1279.955, 295.753
1281.165, 184.089
1282.376, 131.774
1283.586, 203.793
1284.796, 81.057
1286.006, 202.860
1287.215, 145.146
1288.425, 17.639
1289.634, 159.858
1290.843, 130.191
1292.052, 53.928
1293.261, 171.532
1294.469, 145.303
1295.678, 79.893
1296.886, 179.976
1298.094, 56.515
1299.302, 217.463
1300.509, 13.977
1301.717, 127.579
1302.924, 184.030
1304.131, 74.780
1305.338, 47.207
1306.545, 176.439
1307.752, 3.658
1308.958, 162.266
1310.164, 238.378
1311.370, 24.110
1312.576, 134.069
1313.782, 198.331
1314.987, 54.507
1316.193, 266.645
1317.398, 119.127
1318.603, 141.018
1319.807, 175.645
1321.012, 1.366
1322.216, 153.989
1323.421, 165.340
1324.625, 48.683
1325.829, 90.000
1327.032, 178.603
1328.236, 71.730
1329.439, 221.937
1330.642, 45.860
1331.845, 160.405
1333.048, 97.549
1334.251, 2.174
1335.453, 180.240
1336.656, 66.748
1337.858, 49.891
1339.060, 168.905
1340.261, 3.385
1341.463, 61.979
1342.664, 191.106
1343.866, 26.281
1345.067, 120.514
1346.267, 118.920
1347.468, 27.464
1348.669, 207.979
1349.869, 109.699
1351.069, 86.946
1352.269, 142.345
1353.469, 2.231
1354.668, 168.663
1355.868, 122.424
1357.067, 21.496
1358.266, 213.430
1359.465, 33.683
1360.664, 64.058
1361.862, 200.518
1363.061, 16.376
1364.259, 160.224
1365.457, 190.776
1366.655, 59.311
1367.852, 161.745
1369.050, 25.264
1370.247, 28.782
1371.444, 168.122
1372.641, 106.694
1373.838, 6.655
1375.035, 201.311
1376.231, 0.000
##END=



