##NAMES=Elbaite
##RRUFFID=R060562
##IDEAL CHEMISTRY=Na(Al_1.5_Li_1.5_)Al_6_(Si_6_O_18_)(BO_3_)_3_(OH)_3_OH
##LOCALITY=unknown
##OWNER=RRUFF
##SOURCE=Gemological Institute of America
##DESCRIPTION=Blue colored polished fragment
##STATUS=The identification of this mineral has been confirmed by X-ray diffraction and chemical analysis
##URL=rruff.info/R060562
##MEASURED CHEMISTRY=(Na_0.68_Ca_0.20_[box]_0.12_)(Li_1.20_Al_1.12_Fe^2+^_0.50_Mn_0.18_)Al_6_(BO_3_)_3_[Si_6_O_18_]((OH)_0.80_F_0.20_)_4_
##PIN_ID=L01792
##ORIENTATION=Laser parallel to -a* (-1 0 0). Fiducial mark perpendicular to laser is parallel to c [0 0 1]
118.1340, 0.0000000E+00
119.3650, 95.80859
120.5960, 24.89258
121.8270, 396.7422
123.0580, 970.5215
124.2880, 1038.758
125.5190, 1163.291
126.7490, 1453.762
127.9790, 1887.979
129.2090, 2156.838
130.4390, 2372.820
131.6680, 2491.340
132.8980, 2662.902
134.1270, 2388.756
135.3560, 2391.285
136.5850, 2021.832
137.8140, 2038.469
139.0430, 2054.033
140.2710, 1953.197
141.5000, 1819.795
142.7280, 1579.203
143.9560, 1618.900
145.1840, 1667.486
146.4120, 2040.643
147.6390, 2368.121
148.8670, 2192.719
150.0940, 2741.275
151.3210, 3427.656
152.5490, 3565.750
153.7750, 3601.469
155.0020, 3763.678
156.2290, 3885.074
157.4550, 3992.072
158.6810, 3897.332
159.9080, 3712.410
161.1340, 3656.805
162.3590, 3533.406
163.5850, 3282.787
164.8110, 3125.340
166.0360, 2769.133
167.2610, 2326.244
168.4860, 1920.746
169.7110, 1787.703
170.9360, 1794.166
172.1610, 1156.191
173.3850, 982.8223
174.6100, 900.0957
175.8340, 600.0488
177.0580, 587.7070
178.2820, 610.0977
179.5050, 543.2461
180.7290, 587.1699
181.9520, 671.8906
183.1760, 644.4258
184.3990, 856.7949
185.6220, 1115.008
186.8450, 1485.080
188.0670, 1536.027
189.2900, 1777.859
190.5120, 2247.590
191.7340, 2702.891
192.9560, 3118.652
194.1780, 3531.402
195.4000, 3635.459
196.6220, 3793.068
197.8430, 4082.844
199.0640, 4370.414
200.2860, 4691.109
201.5070, 5002.064
202.7270, 5318.273
203.9480, 5186.824
205.1690, 5274.688
206.3890, 5479.660
207.6090, 5981.188
208.8290, 6723.818
210.0490, 7710.074
211.2690, 8690.562
212.4890, 9880.275
213.7080, 11221.21
214.9280, 12768.35
216.1470, 14095.70
217.3660, 15834.24
218.5850, 17568.98
219.8030, 18708.91
221.0220, 19919.01
222.2400, 20796.29
223.4590, 21056.73
224.6770, 21030.35
225.8950, 20861.11
227.1120, 20142.04
228.3300, 19374.11
229.5480, 18784.32
230.7650, 18081.64
231.9820, 17615.07
233.1990, 17165.62
234.4160, 16482.26
235.6330, 16261.98
236.8490, 15849.79
238.0660, 15500.67
239.2820, 15012.62
240.4980, 14300.17
241.7140, 13552.77
242.9300, 12517.96
244.1460, 11344.22
245.3610, 9982.555
246.5770, 8738.971
247.7920, 7071.463
249.0070, 6112.027
250.2220, 4966.668
251.4370, 3867.383
252.6510, 3219.172
253.8660, 2548.033
255.0800, 1793.967
256.2940, 1656.973
257.5080, 1574.051
258.7220, 1113.023
259.9360, 861.6367
261.1490, 565.7188
262.3630, 142.0820
263.5760, 132.4824
264.7890, 337.2324
266.0020, 333.4141
267.2150, 382.2617
268.4270, 369.1367
269.6400, 334.8848
270.8520, 319.1992
272.0640, 220.9805
273.2760, 204.6367
274.4880, 118.9141
275.7000, 0.8417970
276.9120, 141.5566
278.1230, 66.32031
279.3340, 104.8867
280.5450, 85.86719
281.7560, 46.14648
282.9670, 66.08008
284.1780, 25.10742
285.3880, 237.9590
286.5980, 286.6895
287.8090, 315.3105
289.0190, 251.8672
290.2290, 300.3613
291.4380, 401.8242
292.6480, 331.2793
293.8570, 290.7305
295.0670, 230.3105
296.2760, 61.52344
297.4850, 45.29883
298.6930, 109.2070
299.9020, 382.2422
301.1110, 735.3613
302.3190, 971.5586
303.5270, 1280.818
304.7350, 1456.109
305.9430, 1843.426
307.1510, 2255.752
308.3580, 2517.113
309.5660, 3130.500
310.7730, 3375.949
311.9800, 3851.445
313.1870, 4249.953
314.3940, 4654.463
315.6010, 5122.973
316.8070, 5403.482
318.0130, 5934.996
319.2200, 6374.512
320.4260, 7145.037
321.6310, 7539.566
322.8370, 8006.105
324.0430, 8487.656
325.2480, 8904.215
326.4540, 9234.787
327.6590, 9783.371
328.8640, 9963.973
330.0680, 10129.59
331.2730, 9778.215
332.4780, 9866.861
333.6820, 9680.523
334.8860, 9699.207
336.0900, 9404.904
337.2940, 9263.381
338.4980, 8998.531
339.7010, 9096.375
340.9050, 9016.994
342.1080, 8849.488
343.3110, 8789.010
344.5140, 8580.574
345.7170, 8626.176
346.9200, 8662.750
348.1220, 8541.121
349.3240, 8866.279
350.5270, 8764.172
351.7290, 9285.840
352.9310, 9467.443
354.1320, 9828.098
355.3340, 10370.81
356.5350, 10974.57
357.7370, 11969.39
358.9380, 13150.25
360.1390, 14259.17
361.3400, 16261.13
362.5400, 18123.15
363.7410, 20808.21
364.9410, 23718.32
366.1410, 26622.47
367.3410, 30536.67
368.5410, 34338.92
369.7410, 38398.21
370.9400, 41098.55
372.1400, 43159.91
373.3390, 43761.34
374.5380, 42689.80
375.7370, 40502.31
376.9360, 37680.86
378.1350, 34610.43
379.3330, 30927.07
380.5310, 28244.73
381.7300, 25042.44
382.9280, 22418.19
384.1260, 19898.97
385.3230, 17863.80
386.5210, 16090.73
387.7180, 14749.57
388.9160, 13444.51
390.1130, 12746.49
391.3100, 12093.52
392.5060, 11306.57
393.7030, 10745.67
394.9000, 10347.80
396.0960, 10008.98
397.2920, 9986.184
398.4880, 10218.43
399.6840, 10078.71
400.8800, 10339.03
402.0750, 10703.39
403.2710, 10854.77
404.4660, 10987.20
405.6610, 11247.66
406.8560, 11268.16
408.0510, 11240.01
409.2450, 10743.60
410.4400, 10234.51
411.6340, 9422.668
412.8280, 8391.641
414.0220, 7637.648
415.2160, 6577.590
416.4100, 5834.971
417.6030, 5101.244
418.7970, 4370.170
419.9900, 3888.930
421.1830, 3311.100
422.3760, 3079.195
423.5690, 2809.309
424.7610, 2639.938
425.9540, 2433.203
427.1460, 2164.830
428.3380, 1831.318
429.5300, 1831.516
430.7220, 1624.646
431.9140, 1558.701
433.1050, 1508.600
434.2970, 1443.928
435.4880, 1407.014
436.6790, 1369.100
437.8700, 1441.594
439.0610, 1453.523
440.2510, 1513.238
441.4420, 1605.922
442.6320, 1843.895
443.8220, 1956.809
445.0120, 1950.342
446.2020, 2280.256
447.3910, 2395.295
448.5810, 2681.486
449.7700, 2511.881
450.9600, 2827.604
452.1490, 2946.469
453.3370, 2747.645
454.5260, 2830.260
455.7150, 2970.965
456.9030, 2914.096
458.0910, 3175.871
459.2800, 3300.660
460.4670, 3060.469
461.6550, 3258.291
462.8430, 3209.133
464.0300, 3051.992
465.2180, 3132.869
466.4050, 3078.764
467.5920, 2929.676
468.7790, 2724.609
469.9650, 2651.951
471.1520, 2593.533
472.3380, 2465.523
473.5250, 2379.535
474.7110, 2383.568
475.8970, 2376.621
477.0820, 2447.695
478.2680, 2571.793
479.4540, 2736.910
480.6390, 2987.053
481.8240, 3276.221
483.0090, 3449.416
484.1940, 3715.639
485.3780, 4036.891
486.5630, 4564.172
487.7470, 4654.482
488.9320, 4831.824
490.1160, 5256.197
491.3000, 5319.600
492.4830, 5673.035
493.6670, 5593.508
494.8500, 5774.012
496.0340, 5863.551
497.2170, 5581.127
498.4000, 5764.742
499.5820, 5564.389
500.7650, 5183.074
501.9480, 5213.793
503.1300, 5307.547
504.3120, 5279.336
505.4940, 5107.160
506.6760, 4904.020
507.8580, 4605.914
509.0390, 4739.840
510.2210, 4317.803
511.4020, 4016.801
512.5830, 4061.830
513.7640, 3684.895
514.9450, 3520.992
516.1250, 3273.123
517.3060, 2825.287
518.4860, 2458.484
519.6660, 2214.715
520.8460, 2078.977
522.0260, 1867.273
523.2060, 1454.602
524.3850, 1436.961
525.5650, 1094.354
526.7440, 1032.779
527.9230, 1010.236
529.1020, 1137.723
530.2810, 956.2422
531.4590, 1196.793
532.6380, 827.3750
533.8160, 817.9883
534.9940, 819.6328
536.1720, 654.3047
537.3500, 961.0078
538.5270, 642.7422
539.7050, 852.5078
540.8820, 610.3027
542.0590, 640.1250
543.2360, 624.9805
544.4130, 580.8633
545.5900, 484.7754
546.7660, 543.7168
547.9430, 544.7070
549.1190, 574.6855
550.2950, 640.7500
551.4710, 408.9277
552.6470, 410.2168
553.8220, 414.6289
554.9980, 337.1641
556.1730, 373.8066
557.3480, 310.5586
558.5230, 261.3926
559.6980, 35.30859
560.8730, 98.28125
562.0470, 234.7090
563.2220, 22.19727
564.3960, 159.1211
565.5700, 28.93164
566.7440, 233.9863
567.9170, 150.1445
569.0910, 94.33984
570.2640, 148.5547
571.4380, 194.7656
572.6110, 120.9844
573.7840, 89.16797
574.9570, 39.31641
576.1290, 90.39453
577.3020, 15.40039
578.4740, 195.3184
579.6460, 188.2363
580.8180, 194.1758
581.9900, 276.1973
583.1620, 240.8594
584.3330, 102.5898
585.5040, 181.8828
586.6760, 171.2559
587.8470, 49.70312
589.0180, 34.16406
590.1880, 0.3691410
591.3590, 168.0898
592.5290, 153.6113
593.7000, 292.1953
594.8700, 200.9082
596.0400, 44.69922
597.2090, 15.49219
598.3790, 39.72656
599.5490, 216.9727
600.7180, 97.25781
601.8870, 117.6211
603.0560, 199.0781
604.2250, 208.5840
605.3940, 153.1641
606.5620, 506.8516
607.7300, 246.6270
608.8990, 368.5176
610.0670, 550.5254
611.2350, 505.6113
612.4020, 627.8359
613.5700, 1163.133
614.7370, 945.7969
615.9050, 1984.977
617.0720, 1000.508
618.2390, 1156.166
619.4060, 1539.904
620.5720, 2090.762
621.7390, 2334.738
622.9050, 3153.799
624.0710, 3694.914
625.2370, 4506.105
626.4030, 5264.359
627.5690, 5911.691
628.7340, 6502.100
629.9000, 7001.555
631.0650, 7229.102
632.2300, 7162.607
633.3950, 6845.299
634.5600, 6463.975
635.7240, 5823.695
636.8890, 5099.453
638.0530, 4191.262
639.2170, 3556.098
640.3810, 3072.967
641.5450, 2589.859
642.7080, 2081.771
643.8720, 1803.701
645.0350, 1525.650
646.1980, 1390.615
647.3610, 1211.035
648.5240, 1018.594
649.6870, 1024.602
650.8490, 1010.619
652.0120, 1015.646
653.1740, 1168.686
654.3360, 1166.729
655.4980, 1225.783
656.6600, 1154.842
657.8210, 1292.912
658.9830, 1243.988
660.1440, 1170.070
661.3050, 1210.160
662.4660, 1039.254
663.6270, 1143.355
664.7870, 984.4629
665.9480, 1016.574
667.1080, 905.6895
668.2680, 656.8105
669.4280, 752.9336
670.5880, 613.1113
671.7480, 719.1914
672.9070, 585.3242
674.0670, 643.4609
675.2260, 768.5977
676.3850, 579.7383
677.5440, 729.8789
678.7030, 813.0195
679.8610, 652.1621
681.0200, 527.3027
682.1780, 680.4453
683.3360, 821.5879
684.4940, 764.7285
685.6520, 961.8672
686.8090, 1425.004
687.9670, 1833.139
689.1240, 2272.271
690.2810, 3025.400
691.4380, 3804.527
692.5950, 4756.648
693.7520, 5905.766
694.9080, 7407.875
696.0650, 8822.979
697.2210, 10687.07
698.3770, 12252.16
699.5330, 14394.24
700.6880, 16058.31
701.8440, 17767.25
702.9990, 19189.28
704.1550, 20560.32
705.3100, 21302.88
706.4650, 21714.80
707.6190, 21495.63
708.7740, 20731.61
709.9290, 19273.53
711.0830, 18101.74
712.2370, 16055.25
713.3910, 14185.51
714.5450, 12626.48
715.6980, 10787.67
716.8520, 9214.906
718.0050, 7928.039
719.1580, 6818.578
720.3110, 5718.760
721.4640, 5188.771
722.6170, 4668.541
723.7700, 4511.049
724.9220, 3963.951
726.0740, 3818.484
727.2260, 3810.900
728.3780, 3924.861
729.5300, 4155.305
730.6810, 4438.809
731.8330, 4637.555
732.9840, 5248.303
734.1350, 5720.270
735.2860, 6162.736
736.4370, 6673.676
737.5880, 7426.020
738.7380, 8122.871
739.8880, 9109.674
741.0390, 9888.020
742.1890, 10807.67
743.3380, 12095.50
744.4880, 13099.80
745.6380, 14307.32
746.7870, 15358.74
747.9360, 16519.31
749.0850, 17493.42
750.2340, 18257.62
751.3830, 18619.24
752.5310, 18844.92
753.6800, 18398.28
754.8280, 17638.83
755.9760, 16658.32
757.1240, 15655.85
758.2720, 14768.89
759.4190, 13877.79
760.5670, 12947.26
761.7140, 12082.08
762.8610, 11576.87
764.0080, 11129.10
765.1550, 10366.29
766.3020, 10010.71
767.4480, 9770.192
768.5950, 9576.896
769.7410, 9055.900
770.8870, 9050.785
772.0330, 8756.199
773.1780, 8520.418
774.3240, 8124.648
775.4690, 7720.010
776.6140, 6883.713
777.7590, 6247.579
778.9040, 5454.668
780.0490, 4601.994
781.1940, 4064.868
782.3380, 3476.220
783.4820, 2992.086
784.6260, 2738.614
785.7700, 2390.183
786.9140, 2272.571
788.0580, 2018.967
789.2010, 1900.175
790.3450, 1553.330
791.4880, 1490.434
792.6310, 1373.484
793.7730, 1304.483
794.9160, 1241.430
796.0590, 1190.183
797.2010, 1140.054
798.3430, 1165.949
799.4850, 1131.682
800.6270, 1199.360
801.7690, 1366.985
802.9100, 1383.556
804.0520, 1480.073
805.1930, 1560.245
806.3340, 1613.719
807.4750, 1704.290
808.6160, 1732.585
809.7560, 1820.823
810.8970, 1842.507
812.0370, 1648.133
813.1770, 1702.201
814.3170, 1531.216
815.4570, 1293.172
816.5960, 1268.070
817.7360, 980.9111
818.8750, 788.6934
820.0140, 702.4180
821.1530, 647.0850
822.2920, 797.6934
823.4310, 681.2412
824.5690, 825.7314
825.7070, 868.1631
826.8460, 1204.534
827.9840, 1159.845
829.1220, 1532.095
830.2590, 1691.288
831.3970, 1931.418
832.5340, 2073.488
833.6710, 2147.496
834.8080, 2425.446
835.9450, 2384.332
837.0820, 2315.157
838.2190, 2248.922
839.3550, 2065.688
840.4910, 1982.395
841.6270, 1930.040
842.7630, 1722.639
843.8990, 1463.237
845.0350, 1551.816
846.1700, 1428.360
847.3060, 1344.957
848.4410, 1501.401
849.5760, 1187.890
850.7100, 1140.340
851.8450, 1016.744
852.9800, 1173.112
854.1140, 1057.425
855.2480, 1224.728
856.3820, 1403.019
857.5160, 1009.297
858.6500, 1025.585
859.7830, 901.8730
860.9170, 1043.125
862.0500, 782.3613
863.1830, 777.5791
864.3160, 525.7500
865.4480, 605.8604
866.5810, 279.9092
867.7130, 430.9209
868.8460, 363.8994
869.9780, 243.8740
871.1100, 176.8193
872.2410, 192.6875
873.3730, 336.4756
874.5050, 63.18066
875.6360, 95.22070
876.7670, 166.7998
877.8980, 4.401367
879.0290, 77.52539
880.1590, 227.6230
881.2900, 134.9717
882.4200, 244.5254
883.5500, 246.3389
884.6800, 111.4160
885.8100, 319.6855
886.9400, 87.25879
888.0690, 136.0127
889.1990, 98.97070
890.3280, 70.11621
891.4570, 292.4346
892.5860, 118.0381
893.7140, 253.8379
894.8430, 267.9062
895.9710, 134.2490
897.1000, 12.79688
898.2280, 92.48438
899.3560, 68.35840
900.4830, 100.4043
901.6110, 104.6211
902.7380, 4.972656
903.8660, 174.5654
904.9930, 91.67285
906.1200, 96.80762
907.2460, 61.16406
908.3730, 4.712891
909.5000, 21.45801
910.6260, 0.4228520
911.7520, 90.46680
912.8780, 77.09277
914.0040, 237.4336
915.1290, 346.6816
916.2550, 442.8662
917.3800, 315.9961
918.5050, 420.1025
919.6300, 488.1445
920.7550, 466.1299
921.8800, 735.0586
923.0040, 720.9355
924.1290, 849.7715
925.2530, 928.5381
926.3770, 1073.234
927.5010, 1197.863
928.6250, 1256.153
929.7480, 1211.913
930.8720, 1437.365
931.9950, 1390.792
933.1180, 1595.193
934.2410, 1756.541
935.3640, 1852.822
936.4860, 2032.040
937.6090, 2000.191
938.7310, 2163.274
939.8530, 1996.290
940.9750, 2340.246
942.0970, 2398.143
943.2180, 2376.987
944.3400, 2552.775
945.4610, 2733.512
946.5820, 2794.195
947.7030, 2911.813
948.8240, 2971.372
949.9450, 2956.864
951.0650, 3158.297
952.1860, 3171.660
953.3060, 3360.958
954.4260, 3446.282
955.5460, 3573.404
956.6650, 3643.541
957.7850, 3537.619
958.9040, 3626.630
960.0230, 3813.588
961.1420, 3865.488
962.2610, 4045.328
963.3800, 4307.104
964.4990, 4277.811
965.6170, 4398.457
966.7350, 4362.036
967.8530, 4461.549
968.9710, 4507.998
970.0890, 4658.381
971.2070, 4611.697
972.3240, 4858.950
973.4410, 4718.139
974.5580, 4718.264
975.6750, 4734.320
976.7920, 4855.314
977.9090, 4835.244
979.0250, 4843.109
980.1410, 4855.040
981.2580, 4687.645
982.3740, 4746.312
983.4890, 4714.918
984.6050, 4515.457
985.7200, 4552.936
986.8360, 4442.348
987.9510, 4704.691
989.0660, 4499.977
990.1810, 4478.191
991.2950, 4333.344
992.4100, 4737.432
993.5240, 4594.457
994.6390, 4606.414
995.7530, 4603.309
996.8660, 4558.137
997.9800, 4854.900
999.0940, 4784.914
1000.207, 5136.188
1001.320, 4998.020
1002.433, 5089.400
1003.546, 5398.428
1004.659, 5329.734
1005.772, 5442.398
1006.884, 5662.104
1007.996, 5654.705
1009.108, 5758.730
1010.220, 5853.730
1011.332, 6083.113
1012.444, 6159.123
1013.555, 6160.871
1014.666, 6396.086
1015.777, 6305.008
1016.888, 6609.947
1017.999, 6716.775
1019.110, 6948.777
1020.220, 7001.719
1021.331, 7100.168
1022.441, 7109.512
1023.551, 7200.236
1024.661, 7488.127
1025.770, 7418.598
1026.880, 7767.383
1027.989, 7937.064
1029.098, 8296.574
1030.207, 8398.848
1031.316, 8841.422
1032.425, 9151.346
1033.533, 9786.621
1034.642, 10328.98
1035.750, 11057.89
1036.858, 11977.28
1037.966, 12633.03
1039.073, 13582.38
1040.181, 14685.58
1041.288, 16023.87
1042.396, 17262.56
1043.503, 18821.75
1044.610, 20179.04
1045.716, 21703.99
1046.823, 23402.45
1047.929, 25001.00
1049.036, 26774.02
1050.142, 27953.97
1051.248, 29998.80
1052.353, 31148.67
1053.459, 32277.23
1054.564, 33345.64
1055.670, 34071.04
1056.775, 34302.03
1057.880, 34168.73
1058.985, 33723.07
1060.089, 33165.80
1061.194, 31946.21
1062.298, 30832.79
1063.402, 29328.84
1064.506, 27557.15
1065.610, 26028.18
1066.713, 24292.44
1067.817, 22794.02
1068.920, 20979.36
1070.023, 19640.72
1071.126, 18049.14
1072.229, 17118.32
1073.332, 15626.30
1074.435, 14503.84
1075.537, 14058.50
1076.639, 12910.32
1077.741, 12599.92
1078.843, 12058.11
1079.945, 11846.29
1081.046, 11904.05
1082.148, 11931.90
1083.249, 11747.62
1084.350, 11290.94
1085.451, 10804.41
1086.551, 10097.35
1087.652, 9601.785
1088.752, 9045.740
1089.853, 8361.027
1090.953, 8087.723
1092.053, 7817.678
1093.152, 7183.549
1094.252, 6747.451
1095.351, 6574.070
1096.451, 6120.547
1097.550, 5775.240
1098.649, 5426.561
1099.748, 5054.859
1100.846, 4760.873
1101.945, 4582.383
1103.043, 4181.805
1104.141, 3847.008
1105.239, 3583.850
1106.337, 3616.498
1107.434, 3175.637
1108.532, 3035.752
1109.629, 3042.848
1110.726, 2827.920
1111.823, 2594.971
1112.920, 2557.123
1114.017, 2304.016
1115.113, 2320.008
1116.210, 2207.979
1117.306, 1991.930
1118.402, 2119.867
1119.498, 1982.781
1120.593, 1805.678
1121.689, 1719.557
1122.784, 1596.418
1123.879, 1729.262
1124.974, 1556.809
1126.069, 1474.900
1127.164, 1382.689
1128.259, 1182.467
1129.353, 1126.225
1130.447, 1004.969
1131.541, 877.7012
1132.635, 835.4199
1133.729, 737.1289
1134.822, 766.8281
1135.916, 646.5215
1137.009, 572.2051
1138.102, 517.5078
1139.195, 428.2070
1140.288, 424.2422
1141.380, 298.9199
1142.473, 388.6406
1143.565, 354.4238
1144.657, 378.2227
1145.749, 337.0586
1146.841, 424.9766
1147.932, 381.2070
1149.024, 354.3027
1150.115, 323.1426
1151.206, 267.3281
1152.297, 187.6230
1153.388, 156.9629
1154.479, 124.3594
1155.569, 20.79883
1156.659, 116.2734
1157.750, 10.90039
1158.839, 135.4688
1159.929, 3.822266
1161.019, 90.97070
1162.108, 302.8203
1163.198, 62.69336
1164.287, 92.61328
1165.376, 58.42773
1166.465, 98.54883
1167.553, 3.427734
1168.642, 28.60938
1169.730, 33.71094
1170.818, 79.81836
1171.906, 49.06641
1172.994, 59.05469
1174.082, 43.80273
1175.170, 197.6680
1176.257, 88.38086
1177.344, 303.4395
1178.431, 51.50977
1179.518, 68.42383
1180.605, 93.39258
1181.691, 243.4160
1182.778, 60.57422
1183.864, 84.76758
1184.950, 84.01367
1186.036, 65.30859
1187.122, 108.6484
1188.207, 49.94336
1189.292, 129.5293
1190.378, 27.10547
1191.463, 99.66992
1192.548, 47.22852
1193.632, 109.2227
1194.717, 161.7422
1195.801, 157.3574
1196.886, 47.06445
1197.970, 9.191406
1199.054, 10.45703
1200.137, 47.93555
1201.221, 24.19336
1202.305, 75.07617
1203.388, 25.72266
1204.471, 17.55078
1205.554, 58.39844
1206.637, 24.28711
1207.719, 58.20117
1208.802, 51.15625
1209.884, 18.85352
1210.966, 22.14062
1212.048, 46.83789
1213.130, 5.189453
1214.212, 72.76953
1215.293, 37.72266
1216.374, 50.33203
1217.456, 77.40820
1218.536, 15.46484
1219.617, 20.66992
1220.698, 63.17773
1221.778, 34.97070
1222.859, 14.14062
1223.939, 15.32227
1225.019, 52.50586
1226.099, 79.33008
1227.178, 21.15234
1228.258, 144.9727
1229.337, 121.7910
1230.417, 213.6074
1231.496, 202.4395
1232.574, 52.26953
1233.653, 171.1113
1234.732, 163.9473
1235.810, 60.78516
1236.888, 181.6895
1237.966, 176.5938
1239.044, 286.4961
1240.122, 266.4004
1241.199, 327.3047
1242.277, 278.2090
1243.354, 284.6309
1244.431, 137.0391
1245.508, 236.9902
1246.585, 319.9434
1247.661, 262.8945
1248.738, 359.8477
1249.814, 309.8027
1250.890, 357.7578
1251.966, 283.7129
1253.042, 297.6738
1254.117, 525.6328
1255.193, 482.5938
1256.268, 486.5566
1257.343, 417.5195
1258.418, 490.4844
1259.493, 542.4531
1260.567, 506.4219
1261.642, 622.3906
1262.716, 706.3633
1263.790, 567.3398
1264.864, 428.3164
1265.938, 561.2969
1267.011, 543.2793
1268.085, 677.2637
1269.158, 719.2500
1270.231, 729.2383
1271.304, 785.7305
1272.377, 778.5039
1273.450, 798.2207
1274.522, 788.2188
1275.594, 751.2207
1276.666, 786.2207
1277.738, 696.2227
1278.810, 751.2227
1279.882, 878.2246
1280.953, 720.2266
1282.025, 755.2266
1283.096, 671.1895
1284.167, 836.0195
1285.238, 935.4199
1286.308, 806.2227
1287.379, 798.5840
1288.449, 849.4688
1289.519, 864.5898
1290.589, 870.2871
