##NAMES=Elbaite
##RRUFFID=R050487
##IDEAL CHEMISTRY=Na(Al_1.5_Li_1.5_)Al_6_(Si_6_O_18_)(BO_3_)_3_(OH)_3_OH
##LOCALITY=White Queen mine, Pala, San Diego County, California, USA
##OWNER=RRUFF
##SOURCE=California Institute of Technology
##DESCRIPTION=Mass of blue acicular crystals
##STATUS=The identification of this mineral has been confirmed by X-ray diffraction and chemical analysis
##URL=rruff.info/R050487
##MEASURED CHEMISTRY=(Na_0.86_[box]_0.13_Ca_0.01_)(Al_0.42_Li_0.38_Fe^2+^_0.18_Mn_0.02_)_3_Al_6_(BO_3_)_3_Si_6_O_18_((OH)_0.85_F_0.15_)_4_
##PIN_ID=M00967
##ORIENTATION=Laser parallel to -a* (-1 0 0). Fiducial mark perpendicular to laser is parallel to c [0 0 1]
187.9850, 0.0000000E+00
189.2130, 8.135254
190.4400, 50.66040
191.6680, 11.79541
192.8960, 1.099121
194.1230, 52.64624
195.3500, 46.39136
196.5770, 106.9626
197.8030, 165.4309
199.0300, 250.9312
200.2560, 370.7817
201.4830, 479.5857
202.7090, 523.8269
203.9340, 574.3184
205.1600, 741.3799
206.3860, 914.3044
207.6110, 1160.469
208.8360, 1447.958
210.0610, 1795.844
211.2860, 2218.017
212.5100, 2653.397
213.7350, 3199.930
214.9590, 3827.079
216.1830, 4359.122
217.4070, 4782.477
218.6310, 5385.362
219.8540, 5736.332
221.0780, 6030.500
222.3010, 6106.961
223.5240, 6020.804
224.7470, 5747.116
225.9690, 5365.958
227.1920, 5035.380
228.4140, 4532.426
229.6360, 4317.140
230.8580, 3976.555
232.0800, 3645.706
233.3020, 3578.616
234.5230, 3462.313
235.7440, 3263.406
236.9650, 3262.349
238.1860, 3242.418
239.4070, 3204.779
240.6280, 3128.458
241.8480, 3152.647
243.0680, 3143.609
244.2880, 3137.816
245.5080, 3168.325
246.7280, 3078.689
247.9470, 3073.637
249.1660, 2989.642
250.3860, 2883.726
251.6040, 2842.908
252.8230, 2803.161
254.0420, 2632.157
255.2600, 2605.094
256.4790, 2559.308
257.6970, 2495.967
258.9150, 2362.131
260.1320, 2319.857
261.3500, 2241.046
262.5670, 2160.834
263.7840, 2092.570
265.0010, 1992.726
266.2180, 1934.942
267.4350, 1842.222
268.6510, 1815.567
269.8680, 1697.977
271.0840, 1737.451
272.3000, 1655.986
273.5160, 1542.580
274.7310, 1473.232
275.9470, 1297.938
277.1620, 1218.693
278.3770, 1126.493
279.5920, 981.3369
280.8070, 966.2200
282.0210, 864.1401
283.2360, 614.0950
284.4500, 571.0830
285.6640, 386.1025
286.8780, 295.1511
288.0920, 266.2234
289.3050, 184.3093
290.5180, 64.39917
291.7320, 33.50879
292.9450, 92.40381
294.1570, 111.2837
295.3700, 79.10425
296.5830, 165.8801
297.7950, 57.59717
299.0070, 115.2803
300.2190, 150.9138
301.4310, 124.5400
302.6420, 63.16724
303.8540, 56.79541
305.0650, 61.57495
306.2760, 3.055420
307.4870, 55.31274
308.6980, 178.6797
309.9080, 203.0449
311.1190, 292.4099
312.3290, 312.2080
313.5390, 367.8877
314.7490, 468.9971
315.9580, 414.0151
317.1680, 463.7939
318.3770, 527.4509
319.5860, 465.0916
320.7950, 471.6091
322.0040, 446.1399
323.2130, 503.7446
324.4210, 499.5217
325.6290, 532.9648
326.8380, 565.9111
328.0460, 611.4280
329.2530, 674.9187
330.4610, 699.8540
331.6680, 755.3137
332.8760, 767.4658
334.0830, 870.5173
335.2890, 866.7595
336.4960, 1040.104
337.7030, 1115.083
338.9090, 1265.898
340.1150, 1242.836
341.3210, 1302.902
342.5270, 1538.072
343.7330, 1585.328
344.9380, 1722.652
346.1440, 1742.035
347.3490, 1784.465
348.5540, 1810.931
349.7590, 1875.422
350.9630, 1816.931
352.1680, 1923.450
353.3720, 2063.978
354.5760, 2057.509
355.7800, 2225.042
356.9840, 2489.576
358.1870, 2834.110
359.3910, 3067.641
360.5940, 3582.158
361.7970, 4139.643
363.0000, 4872.086
364.2030, 5752.490
365.4050, 6646.856
366.6080, 7712.191
367.8100, 8930.494
369.0120, 9633.770
370.2140, 10237.02
371.4150, 10427.25
372.6170, 10377.46
373.8180, 9582.640
375.0190, 8690.805
376.2200, 7563.956
377.4210, 6677.090
378.6220, 5699.208
379.8220, 5185.312
381.0230, 4425.402
382.2230, 3852.480
383.4230, 3484.545
384.6220, 3137.598
385.8220, 2872.495
387.0220, 2676.199
388.2210, 2574.697
389.4200, 2336.968
390.6190, 2382.091
391.8180, 2221.220
393.0160, 2227.282
394.2150, 2205.334
395.4130, 2247.396
396.6110, 2178.064
397.8090, 2358.282
399.0060, 2428.501
400.2040, 2445.054
401.4010, 2631.480
402.5980, 2773.527
403.7950, 2857.081
404.9920, 2965.074
406.1890, 3099.499
407.3860, 3104.863
408.5820, 3109.542
409.7780, 3034.917
410.9740, 2875.459
412.1700, 2661.971
413.3650, 2436.429
414.5610, 2149.340
415.7560, 1877.602
416.9510, 1561.768
418.1460, 1286.935
419.3410, 1060.133
420.5360, 861.3037
421.7300, 775.5115
422.9240, 573.6836
424.1180, 552.8569
425.3120, 392.0305
426.5060, 329.2046
427.7000, 290.3787
428.8930, 254.5525
430.0860, 260.7263
431.2790, 171.8992
432.4720, 150.0720
433.6650, 80.24390
434.8580, 87.36328
436.0500, 72.48486
437.2420, 90.50488
438.4340, 120.2078
439.6260, 135.4817
440.8180, 129.7458
442.0090, 68.58423
443.2010, 84.16968
444.3920, 65.32373
445.5830, 46.81860
446.7740, 77.00806
447.9640, 24.98706
449.1550, 60.21289
450.3450, 60.78979
451.5350, 78.25732
452.7250, 62.03711
453.9150, 103.1892
455.1050, 57.34033
456.2940, 34.48853
457.4830, 8.633789
458.6720, 37.77832
459.8610, 5.076904
461.0500, 8.935059
462.2390, 33.20312
463.4270, 2.343018
464.6150, 82.51685
465.8040, 54.39917
466.9910, 29.70337
468.1790, 41.19360
469.3670, 2.112549
470.5540, 39.03564
471.7410, 15.98633
472.9280, 39.00415
474.1150, 22.02246
475.3020, 25.06055
476.4890, 5.123291
477.6750, 6.805908
478.8610, 58.73413
480.0470, 59.66260
481.2330, 35.59277
482.4190, 108.5203
483.6040, 110.4448
484.7900, 125.3655
485.9750, 240.2820
487.1600, 315.1936
488.3450, 272.1001
489.5290, 326.0012
490.7140, 357.8965
491.8980, 408.7859
493.0820, 439.6687
494.2660, 503.5452
495.4500, 543.4016
496.6340, 606.6907
497.8170, 653.4927
499.0010, 684.7319
500.1840, 653.7112
501.3670, 703.0432
502.5500, 748.4980
503.7320, 734.3250
504.9150, 725.1489
506.0970, 706.9714
507.2790, 733.7947
508.4610, 712.6230
509.6430, 710.4539
510.8250, 739.2917
512.0060, 638.1465
513.1870, 619.0081
514.3680, 521.8928
515.5490, 495.7864
516.7300, 487.6982
517.9110, 495.6245
519.0910, 391.5486
520.2710, 350.4741
521.4510, 275.3984
522.6310, 199.3303
523.8110, 234.2661
524.9910, 189.2153
526.1700, 137.1836
527.3490, 197.1636
528.5280, 207.1582
529.7070, 111.1516
530.8860, 92.17261
532.0650, 40.21216
533.2430, 27.26538
534.4210, 39.34863
535.5990, 74.43164
536.7770, 123.5361
537.9550, 26.35815
539.1320, 12.73804
540.3100, 14.84961
541.4870, 56.04004
542.6640, 37.94922
543.8410, 15.88135
545.0170, 39.82397
546.1940, 46.79102
547.3700, 21.78613
548.5470, 20.79590
549.7230, 25.82080
550.8980, 52.86353
552.0740, 4.938965
553.2500, 4.021729
554.4250, 34.88770
555.6000, 58.16699
556.7750, 23.69629
557.9500, 83.59473
559.1250, 80.48975
560.2990, 40.38135
561.4730, 54.26904
562.6480, 39.15332
563.8220, 121.0337
564.9950, 97.90991
566.1690, 97.78247
567.3430, 64.65161
568.5160, 71.51636
569.6890, 89.37744
570.8620, 113.2346
572.0350, 104.0876
573.2070, 106.9365
574.3800, 170.7810
575.5520, 113.4197
576.7240, 119.0850
577.8960, 181.6992
579.0680, 143.4661
580.2400, 197.3813
581.4110, 171.3223
582.5830, 163.3123
583.7540, 197.2441
584.9250, 198.2893
586.0950, 217.4202
587.2660, 237.2183
588.4370, 244.5862
589.6070, 263.6504
590.7770, 253.8127
591.9470, 244.7644
593.1170, 231.1438
594.2860, 237.3018
595.4560, 274.4548
596.6250, 253.6028
597.7940, 295.6890
598.9630, 246.6619
600.1320, 343.7512
601.3000, 295.1055
602.4690, 270.2175
603.6370, 286.2715
604.8050, 344.0774
605.9730, 366.5710
607.1410, 333.8296
608.3090, 321.8472
609.4760, 340.9358
610.6430, 347.4788
611.8100, 374.7051
612.9770, 382.6448
614.1440, 377.8794
615.3110, 446.1841
616.4770, 557.3022
617.6430, 658.6772
618.8090, 788.5574
619.9750, 905.9500
621.1410, 997.6440
622.3070, 1186.631
623.4720, 1398.662
624.6370, 1607.688
625.8020, 1925.709
626.9670, 2055.726
628.1320, 2343.737
629.2970, 2459.742
630.4610, 2701.743
631.6250, 2843.739
632.7890, 2998.729
633.9530, 2918.714
635.1170, 2966.694
636.2810, 2902.668
637.4440, 2862.636
638.6070, 2761.601
639.7700, 2661.559
640.9330, 2461.680
642.0960, 2357.938
643.2590, 2293.367
644.4210, 2285.136
645.5830, 2329.047
646.7450, 2163.544
647.9070, 2233.881
649.0690, 2081.678
650.2310, 2111.504
651.3920, 1987.681
652.5530, 1885.440
653.7140, 1797.933
654.8750, 1801.134
656.0360, 1701.631
657.1970, 1642.036
658.3570, 1554.640
659.5170, 1412.051
660.6770, 1253.757
661.8370, 1331.635
662.9970, 1100.492
664.1570, 1049.656
665.3160, 900.0603
666.4750, 768.8215
667.6340, 748.1377
668.7930, 639.5776
669.9520, 638.4529
671.1110, 540.0017
672.2690, 583.3386
673.4270, 523.3235
674.5850, 500.5151
675.7430, 479.4443
676.9010, 449.3179
678.0590, 484.5781
679.2160, 451.3853
680.3730, 444.3806
681.5300, 517.6345
682.6870, 435.2661
683.8440, 553.3940
685.0010, 674.7529
686.1570, 667.6987
687.3130, 820.2378
688.4690, 965.6050
689.6250, 1195.624
690.7810, 1359.938
691.9370, 1757.078
693.0920, 2020.239
694.2470, 2253.695
695.4020, 2893.191
696.5570, 3158.575
697.7120, 3610.047
698.8670, 4169.506
700.0210, 4477.923
701.1750, 4806.358
702.3290, 4885.745
703.4830, 5013.155
704.6370, 4880.554
705.7910, 4594.940
706.9440, 4379.313
708.0970, 4004.675
709.2510, 3556.025
710.4030, 3172.361
711.5560, 2659.685
712.7090, 2303.998
713.8610, 1950.297
715.0140, 1696.585
716.1660, 1429.878
717.3180, 1208.137
718.4690, 1075.379
719.6210, 831.6187
720.7730, 826.8452
721.9240, 658.0586
723.0750, 665.2588
724.2260, 556.4456
725.3770, 462.6184
726.5270, 468.7773
727.6780, 485.9219
728.8280, 484.0530
729.9780, 450.1692
731.1280, 411.2715
732.2780, 412.3589
733.4280, 414.4319
734.5770, 446.4905
735.7260, 462.5347
736.8760, 483.5645
738.0250, 554.5808
739.1730, 579.5830
740.3220, 615.5752
741.4700, 698.5586
742.6190, 798.5278
743.7670, 961.4854
744.9150, 1186.453
746.0630, 1277.424
747.2100, 1511.380
748.3580, 1681.336
749.5050, 1779.282
750.6520, 1790.226
751.7990, 1773.157
752.9460, 1729.151
754.0930, 1630.225
755.2390, 1495.995
756.3860, 1345.023
757.5320, 1141.920
758.6780, 932.8027
759.8240, 867.6714
760.9690, 743.5264
762.1150, 615.3674
763.2600, 600.1948
764.4060, 509.0081
765.5510, 468.8071
766.6950, 404.5923
767.8400, 392.3652
768.9850, 311.1226
770.1290, 312.8657
771.2730, 245.5950
772.4170, 299.3103
773.5610, 258.0115
774.7050, 238.6987
775.8480, 245.3721
776.9920, 187.0315
778.1350, 107.6768
779.2780, 73.30688
780.4210, 41.08740
781.5640, 13.09863
782.7060, 8.256104
783.8490, 2.194580
784.9910, 15.67432
786.1330, 7.190186
787.2750, 23.73755
788.4170, 61.32568
789.5580, 22.97363
790.7000, 82.66187
791.8410, 30.42114
792.9820, 67.22388
794.1230, 50.08960
795.2640, 15.99048
796.4040, 2.949707
797.5450, 10.07666
798.6850, 26.90967
799.8250, 10.94165
800.9650, 48.00610
802.1050, 68.12256
803.2450, 42.30103
804.3840, 51.52881
805.5230, 18.19067
806.6630, 93.10938
807.8020, 56.48389
808.9400, 37.91406
810.0790, 97.38916
811.2170, 32.05981
812.3560, 64.50830
813.4940, 9.865234
814.6320, 7.781006
815.7700, 50.44702
816.9070, 31.83691
818.0450, 31.89478
819.1820, 57.34863
820.3190, 32.58838
821.4560, 87.81714
822.5930, 79.04346
823.7300, 70.26880
824.8670, 123.4868
826.0030, 208.6990
827.1390, 200.9067
828.2750, 262.1177
829.4110, 247.3191
830.5470, 236.5112
831.6820, 400.6921
832.8180, 430.8616
833.9530, 454.0200
835.0880, 415.1672
836.2230, 461.3030
837.3580, 524.4277
838.4920, 473.5413
839.6270, 543.6440
840.7610, 507.7361
841.8950, 596.8169
843.0290, 612.8867
844.1630, 572.9460
845.2960, 599.9946
846.4300, 596.0322
847.5630, 528.0596
848.6960, 540.0762
849.8290, 577.0825
850.9620, 629.0786
852.0940, 586.0645
853.2270, 650.0396
854.3590, 622.0049
855.4910, 696.9602
856.6230, 777.9053
857.7550, 728.8406
858.8870, 714.7659
860.0180, 721.6812
861.1500, 708.5869
862.2810, 634.4829
863.4120, 604.3694
864.5430, 585.2466
865.6730, 464.1143
866.8040, 428.9724
867.9340, 331.8215
869.0640, 258.6616
870.1940, 307.4922
871.3240, 217.3140
872.4540, 174.1270
873.5830, 255.9343
874.7130, 170.7327
875.8420, 181.5327
876.9710, 144.3259
878.1000, 193.1106
879.2290, 110.9019
880.3570, 161.6912
881.4860, 141.4722
882.6140, 150.2510
883.7420, 156.0364
884.8700, 121.8159
885.9980, 92.60620
887.1250, 109.3887
888.2530, 64.16602
889.3800, 102.9553
890.5070, 132.7588
891.6340, 48.57104
892.7610, 160.3794
893.8880, 107.1829
895.0140, 80.98486
896.1400, 146.7832
897.2670, 134.5762
898.3930, 98.36157
899.5180, 93.13916
900.6440, 79.77612
901.7700, 81.67163
902.8950, 68.42676
904.0200, 141.1741
905.1450, 147.9143
906.2700, 103.6497
907.3950, 145.3782
908.5190, 91.09937
909.6440, 114.8137
910.7680, 79.52661
911.8920, 75.23291
913.0160, 164.9319
914.1400, 104.4583
915.2630, 19.83447
916.3870, 105.0278
917.5100, 93.86841
918.6330, 83.55981
919.7560, 86.65210
920.8790, 80.89331
922.0010, 84.53711
923.1240, 109.3904
924.2460, 95.75610
925.3680, 109.5276
926.4900, 123.5530
927.6120, 181.8591
928.7340, 114.8721
929.8550, 214.9717
930.9760, 198.8625
932.0980, 151.9512
933.2190, 181.7349
934.3390, 202.3442
935.4600, 196.9634
936.5810, 198.2646
937.7010, 214.3132
938.8210, 264.9939
939.9410, 224.1077
941.0610, 212.0869
942.1810, 273.6194
943.3010, 273.4805
944.4200, 361.5457
945.5390, 259.9077
946.6580, 328.1155
947.7770, 363.5972
948.8960, 382.5784
950.0150, 453.6787
951.1330, 501.1248
952.2510, 526.3792
953.3690, 528.0386
954.4870, 633.4456
955.6050, 632.7314
956.7230, 709.2769
957.8400, 759.7910
958.9580, 734.2744
960.0750, 833.9849
961.1920, 838.7229
962.3090, 828.4634
963.4250, 894.2051
964.5420, 917.9487
965.6580, 845.6943
966.7740, 895.4424
967.8900, 887.1921
969.0060, 883.9443
970.1220, 953.6987
971.2380, 903.4556
972.3530, 908.2144
973.4680, 868.9758
974.5830, 851.4631
975.6980, 913.5051
976.8130, 855.2739
977.9280, 854.0447
979.0420, 943.8181
980.1560, 886.5947
981.2710, 948.6401
982.3850, 901.1543
983.4980, 1006.938
984.6120, 975.7256
985.7260, 976.5156
986.8390, 991.3079
987.9520, 945.1035
989.0650, 1043.902
990.1780, 986.7029
991.2910, 997.5073
992.4030, 974.6768
993.5160, 1039.687
994.6280, 1085.967
995.7400, 1114.543
996.8520, 1072.378
997.9640, 1121.566
999.0750, 1134.128
1000.187, 1145.214
1001.298, 1207.248
1002.409, 1175.368
1003.520, 1236.602
1004.631, 1260.670
1005.741, 1301.733
1006.852, 1306.589
1007.962, 1322.200
1009.072, 1376.913
1010.182, 1409.173
1011.292, 1409.176
1012.402, 1400.872
1013.511, 1407.139
1014.621, 1468.013
1015.730, 1483.208
1016.839, 1465.469
1017.948, 1504.752
1019.056, 1559.947
1020.165, 1635.862
1021.273, 1598.308
1022.382, 1656.871
1023.490, 1639.936
1024.598, 1565.684
1025.706, 1554.426
1026.813, 1517.987
1027.921, 1487.228
1029.028, 1374.909
1030.135, 1430.286
1031.242, 1358.197
1032.349, 1310.109
1033.456, 1379.024
1034.562, 1436.941
1035.668, 1359.859
1036.775, 1365.778
1037.881, 1394.701
1038.987, 1433.106
1040.092, 1493.955
1041.198, 1546.961
1042.303, 1653.892
1043.408, 1724.977
1044.514, 1821.912
1045.618, 1886.849
1046.723, 2025.096
1047.828, 2145.037
1048.932, 2289.815
1050.037, 2353.764
1051.141, 2562.566
1052.245, 2581.528
1053.349, 2792.500
1054.452, 2835.485
1055.556, 2841.481
1056.659, 2862.493
1057.762, 2833.530
1058.865, 2859.582
1059.968, 2906.665
1061.071, 2668.883
1062.174, 2637.436
1063.276, 2576.968
1064.378, 2342.813
1065.480, 2372.190
1066.582, 2216.365
1067.684, 2101.549
1068.786, 2041.744
1069.887, 1960.960
1070.988, 1851.202
1072.090, 1909.463
1073.191, 1914.745
1074.291, 1855.032
1075.392, 1887.464
1076.493, 2018.620
1077.593, 2052.353
1078.693, 2097.880
1079.793, 2249.274
1080.893, 2292.093
1081.993, 2342.820
1083.092, 2450.250
1084.192, 2481.698
1085.291, 2418.150
1086.390, 2333.615
1087.489, 2201.082
1088.588, 2066.551
1089.686, 1929.021
1090.785, 1843.493
1091.883, 1631.966
1092.981, 1497.439
1094.079, 1343.912
1095.177, 1275.385
1096.275, 1232.858
1097.373, 1087.331
1098.470, 952.8042
1099.567, 948.2773
1100.664, 884.7507
1101.761, 803.2236
1102.858, 725.6968
1103.954, 709.1697
1105.051, 704.6426
1106.147, 608.1150
1107.243, 540.5879
1108.339, 594.0601
1109.435, 585.5320
1110.531, 570.0037
1111.626, 483.4751
1112.722, 500.9465
1113.817, 437.4175
1114.912, 433.8877
1116.007, 388.3579
1117.101, 322.8279
1118.196, 320.2974
1119.290, 266.7666
1120.385, 303.2354
1121.479, 253.7036
1122.573, 247.1714
1123.666, 240.6389
1124.760, 249.1055
1125.853, 227.5718
1126.947, 214.0374
1128.040, 218.7139
1129.133, 198.9666
1130.226, 193.4304
1131.318, 162.8936
1132.411, 89.35620
1133.503, 124.8179
1134.596, 160.2791
1135.688, 69.73975
1136.780, 7.199951
1137.871, 11.34082
1138.963, 42.11108
1140.054, 37.43774
1141.146, 3.008057
1142.237, 55.41748
1143.328, 55.15723
1144.419, 22.76318
1145.509, 17.61646
1146.600, 21.00464
1147.690, 53.63940
1148.780, 5.304932
1149.870, 67.97656
1150.960, 2.313232
1152.050, 7.399414
1153.139, 74.11914
1154.229, 80.88086
1155.318, 59.68848
1156.407, 13.53101
1157.496, 8.383789
1158.585, 19.24438
1159.674, 10.11914
1160.762, 4.788818
1161.850, 28.10693
1162.939, 15.21606
1164.027, 21.32397
1165.114, 33.43091
1166.202, 29.53711
1167.290, 97.64185
1168.377, 151.7458
1169.464, 4.151123
1170.551, 53.94531
1171.638, 18.04077
1172.725, 122.1355
1173.812, 14.77100
1174.898, 30.31030
1175.984, 44.39062
1177.071, 0.5300290
1178.157, 65.54419
1179.242, 24.61743
1180.328, 26.69043
1181.414, 9.237549
1182.499, 66.82471
1183.584, 52.88599
1184.669, 23.94604
1185.754, 65.00488
1186.839, 22.06274
1187.924, 112.1191
1189.008, 34.17432
1190.092, 8.228027
1191.177, 44.72021
1192.260, 17.69775
1193.344, 0.6904300
1194.428, 53.68970
1195.512, 2.276855
1196.595, 26.76196
1197.678, 65.17969
1198.761, 50.86157
1199.844, 44.05591
1200.927, 67.99121
1202.009, 21.92432
1203.092, 45.85571
1204.174, 26.78442
1205.256, 44.28931
1206.338, 71.39258
1207.420, 32.54053
1208.502, 44.71240
1209.583, 20.08545
1210.665, 33.11938
1211.746, 0.6516110
1212.827, 59.41577
1213.908, 63.17725
1214.988, 99.93604
1216.069, 99.69189
1217.149, 71.44507
1218.230, 45.19507
1219.310, 37.77563
1220.390, 119.6875
1221.470, 28.42944
1222.549, 52.16895
1223.629, 87.90576
1224.708, 38.63989
1225.787, 79.37134
1226.866, 115.1003
1227.945, 128.8267
1229.024, 125.5505
1230.103, 133.2720
1231.181, 150.9907
1232.259, 161.7073
1233.337, 187.5181
1234.415, 228.1331
1235.493, 240.8425
1236.571, 253.8425
1237.648, 271.8157
1238.726, 258.9570
1239.803, 272.6575
1240.880, 269.3557
1241.957, 230.0518
1243.034, 274.7458
1244.110, 189.4375
1245.187, 343.1362
1246.263, 332.8330
1247.339, 319.5308
1248.415, 370.2268
1249.491, 316.9209
1250.566, 300.6135
1251.642, 307.3047
1252.717, 284.9941
1253.793, 293.3750
1254.868, 320.3682
1255.943, 303.0530
1257.017, 270.7361
1258.092, 269.4177
1259.166, 354.0979
1260.241, 382.7881
1261.315, 336.4778
1262.389, 359.1670
1263.462, 331.8696
1264.536, 334.5710
1265.610, 457.2717
1266.683, 463.9707
1267.756, 436.0637
1268.829, 499.7612
1269.902, 484.2075
1270.975, 451.7065
1272.048, 537.4016
1273.120, 451.6826
1274.192, 475.9810
1275.264, 479.6750
1276.336, 503.0518
1277.408, 470.3655
1278.480, 453.6602
1279.551, 398.0464
1280.623, 392.7163
1281.694, 310.8582
1282.765, 287.2285
1283.836, 351.3525
1284.907, 248.2041
1285.977, 271.9456
1287.048, 339.9915
1288.118, 299.3613
1289.188, 311.2944
1290.258, 373.5349
1291.328, 342.2451
1292.398, 375.9575
1293.467, 459.6711
1294.537, 537.3867
1295.606, 498.1045
1296.675, 441.8237
1297.744, 412.5452
1298.813, 398.7876
1299.882, 416.5129
1300.950, 447.2402
1302.018, 355.9695
1303.086, 444.5479
1304.155, 428.2817
1305.222, 363.0173
1306.290, 466.4473
1307.358, 424.1873
1308.425, 435.9297
1309.492, 505.6755
1310.559, 583.5774
1311.626, 536.3281
1312.693, 539.0820
1313.760, 525.8381
1314.826, 549.5959
1315.893, 561.3547
1316.959, 481.1152
1318.025, 551.8770
1319.091, 511.6406
1320.157, 545.2881
1321.222, 486.6304
1322.288, 509.0171
1323.353, 434.0986
1324.418, 364.6597
1325.483, 397.4331
1326.548, 246.2156
1327.612, 271.0017
1328.677, 322.7910
1329.741, 248.5850
1330.806, 271.3826
1331.870, 189.1843
1332.934, 195.9905
1333.997, 226.6873
1335.061, 133.6877
1336.124, 128.1333
1337.188, 228.8213
1338.251, 167.6509
1339.314, 182.0837
1340.377, 233.6172
1341.439, 211.4626
1342.502, 176.3140
1343.564, 188.1709
1344.627, 141.0334
1345.689, 156.9019
1346.751, 158.2168
1347.813, 169.6560
