##NAMES=Elbaite
##RRUFFID=R050487
##IDEAL CHEMISTRY=Na(Al_1.5_Li_1.5_)Al_6_(Si_6_O_18_)(BO_3_)_3_(OH)_3_OH
##LOCALITY=White Queen mine, Pala, San Diego County, California, USA
##OWNER=RRUFF
##SOURCE=California Institute of Technology
##DESCRIPTION=Mass of blue acicular crystals
##STATUS=The identification of this mineral has been confirmed by X-ray diffraction and chemical analysis
##URL=rruff.info/R050487
##MEASURED CHEMISTRY=(Na_0.86_[box]_0.13_Ca_0.01_)(Al_0.42_Li_0.38_Fe^2+^_0.18_Mn_0.02_)_3_Al_6_(BO_3_)_3_Si_6_O_18_((OH)_0.85_F_0.15_)_4_
##PIN_ID=M00967
##ORIENTATION=Laser parallel to -a* (-1 0 0). Fiducial mark perpendicular to laser is parallel to c [0 0 1]
178.1550, 0.0000000E+00
179.3840, 112.2021
180.6130, 176.8687
181.8420, 68.82568
183.0710, 54.49072
184.3000, 78.80029
185.5280, 74.87012
186.7570, 51.40576
187.9850, 233.0679
189.2130, 302.7622
190.4400, 575.7656
191.6680, 662.7100
192.8960, 928.5688
194.1230, 1156.464
195.3500, 1548.934
196.5770, 1713.929
197.8030, 2079.667
199.0300, 2408.550
200.2560, 2837.112
201.4830, 3300.989
202.7090, 3689.887
203.9340, 4171.569
205.1600, 4808.839
206.3860, 5640.536
207.6110, 6576.744
208.8360, 7574.131
210.0610, 8937.465
211.2860, 10463.10
212.5100, 12321.67
213.7350, 14258.24
214.9590, 16596.87
216.1830, 18704.57
217.4070, 21086.37
218.6310, 23647.29
219.8540, 25448.34
221.0780, 26983.53
222.3010, 27150.87
223.5240, 27177.37
224.7470, 26586.03
225.9690, 25274.87
227.1920, 23564.88
228.4140, 21822.07
229.6360, 20491.45
230.8580, 19068.02
232.0800, 18122.76
233.3020, 17343.69
234.5230, 16637.81
235.7440, 16226.39
236.9650, 15830.36
238.1860, 15758.24
239.4070, 15646.02
240.6280, 15623.76
241.8480, 15407.44
243.0680, 15235.15
244.2880, 15072.41
245.5080, 14794.93
246.7280, 14517.76
247.9470, 14229.29
249.1660, 14077.70
250.3860, 13715.75
251.6040, 13528.04
252.8230, 13246.43
254.0420, 12918.89
255.2600, 12563.57
256.4790, 12186.33
257.6970, 11794.04
258.9150, 11363.06
260.1320, 10944.00
261.3500, 10520.23
262.5670, 10049.06
263.7840, 9747.058
265.0010, 9273.228
266.2180, 8938.575
267.4350, 8649.095
268.6510, 8351.784
269.8680, 7950.641
271.0840, 7517.660
272.3000, 7169.842
273.5160, 6608.181
274.7310, 5967.677
275.9470, 5492.324
277.1620, 4894.122
278.3770, 4486.065
279.5920, 3965.154
280.8070, 3521.383
282.0210, 2951.735
283.2360, 2432.197
284.4500, 2115.764
285.6640, 1630.434
286.8780, 1084.209
288.0920, 825.0864
289.3050, 510.0972
290.5180, 247.4116
291.7320, 142.0791
292.9450, 76.87598
294.1570, 200.4761
295.3700, 268.7471
296.5830, 435.7539
297.7950, 409.5649
299.0070, 394.2871
300.2190, 424.9473
301.4310, 297.5493
302.6420, 166.0947
303.8540, 199.5850
305.0650, 50.01904
306.2760, 160.5996
307.4870, 337.2729
308.6980, 519.9849
309.9080, 789.6143
311.1190, 1063.984
312.3290, 1321.083
313.5390, 1578.017
314.7490, 1817.909
315.9580, 1902.897
317.1680, 1875.271
318.3770, 1599.230
319.5860, 1483.886
320.7950, 1199.029
322.0040, 927.1846
323.2130, 799.3350
324.4210, 654.0918
325.6290, 605.4116
326.8380, 580.9585
328.0460, 671.5752
329.2530, 818.0205
330.4610, 806.7539
331.6680, 1034.951
332.8760, 1184.226
334.0830, 1324.635
335.2890, 1377.682
336.4960, 1631.765
337.7030, 1818.516
338.9090, 1984.563
340.1150, 2333.879
341.3210, 2445.434
342.5270, 2692.206
343.7330, 2954.178
344.9380, 3006.333
346.1440, 3423.659
347.3490, 3456.144
348.5540, 3709.777
349.7590, 4062.550
350.9630, 4351.454
352.1680, 4857.483
353.3720, 5260.625
354.5760, 5817.844
355.7800, 6642.124
356.9840, 7524.462
358.1870, 8729.857
359.3910, 10191.31
360.5940, 12330.82
361.7970, 14719.39
363.0000, 17149.02
364.2030, 20684.70
365.4050, 24589.43
366.6080, 29202.21
367.8100, 33820.06
369.0120, 37917.95
370.2140, 41104.90
371.4150, 42270.89
372.6170, 42013.94
373.8180, 39945.02
375.0190, 36375.16
376.2200, 31955.36
377.4210, 27337.59
378.6220, 23770.87
379.8220, 20351.19
381.0230, 17492.53
382.2230, 15205.72
383.4230, 13576.56
384.6220, 12135.10
385.8220, 11289.51
387.0220, 10439.89
388.2210, 9690.323
389.4200, 9478.815
390.6190, 8943.359
391.8180, 8916.963
393.0160, 8693.613
394.2150, 8766.316
395.4130, 9125.067
396.6110, 9108.865
397.8090, 9243.069
399.0060, 9843.694
400.2040, 10328.70
401.4010, 11096.67
402.5980, 11746.60
403.7950, 12451.08
404.9920, 13158.83
406.1890, 13609.00
407.3860, 14023.83
408.5820, 14039.98
409.7780, 13643.75
410.9740, 13280.35
412.1700, 12113.03
413.3650, 10959.28
414.5610, 9860.440
415.7560, 8550.717
416.9510, 7363.696
418.1460, 6324.699
419.3410, 5309.162
420.5360, 4636.652
421.7300, 3913.163
422.9240, 3133.696
424.1180, 2782.250
425.3120, 2402.825
426.5060, 1887.420
427.7000, 1639.035
428.8930, 1315.667
430.0860, 1153.318
431.2790, 1087.987
432.4720, 879.6719
433.6650, 763.3735
434.8580, 686.0898
436.0500, 723.8188
437.2420, 602.4629
438.4340, 582.3511
439.6260, 454.1118
440.8180, 489.3618
442.0090, 297.0015
443.2010, 317.4365
444.3920, 224.1680
445.5830, 260.4268
446.7740, 173.6826
447.9640, 131.5054
449.1550, 52.97754
450.3450, 74.78760
451.5350, 20.60205
452.7250, 25.41846
453.9150, 146.7617
455.1050, 2.022461
456.2940, 21.80615
457.4830, 65.40479
458.6720, 35.36914
459.8610, 59.14746
461.0500, 18.11230
462.2390, 27.61328
463.4270, 64.31982
464.6150, 14.97852
465.8040, 67.71436
466.9910, 76.40186
468.1790, 76.87256
469.3670, 9.162598
470.5540, 80.56396
471.7410, 82.67627
472.9280, 39.93115
474.1150, 72.19727
475.3020, 28.49414
476.4890, 57.80273
477.6750, 78.14062
478.8610, 18.47998
480.0470, 62.10352
481.2330, 174.7383
482.4190, 195.3833
483.6040, 333.0371
484.7900, 425.6992
485.9750, 584.3672
487.1600, 642.0400
488.3450, 843.7188
489.5290, 1047.399
490.7140, 1149.083
491.8980, 1231.768
493.0820, 1480.454
494.2660, 1657.140
495.4500, 1712.825
496.6340, 1864.509
497.8170, 2057.192
499.0010, 2165.877
500.1840, 2290.296
501.3670, 2344.252
502.5500, 2470.944
503.7320, 2531.668
504.9150, 2584.405
506.0970, 2706.184
507.2790, 2720.999
508.4610, 2747.862
509.6430, 2722.147
510.8250, 2680.726
512.0060, 2568.739
513.1870, 2443.799
514.3680, 2298.871
515.5490, 2191.967
516.7300, 2046.067
517.9110, 1883.395
519.0910, 1695.288
520.2710, 1514.397
521.4510, 1346.501
522.6310, 1204.790
523.8110, 1012.737
524.9910, 967.8774
526.1700, 795.0186
527.3490, 720.3320
528.5280, 575.3525
529.7070, 532.5571
530.8860, 426.7710
532.0650, 400.0122
533.2430, 246.2764
534.4210, 261.5625
535.5990, 118.8560
536.7770, 184.1577
537.9550, 169.4795
539.1320, 48.81689
540.3100, 38.39160
541.4870, 116.5811
542.6640, 114.4014
543.8410, 96.32324
545.0170, 167.3438
546.1940, 138.5020
547.3700, 127.7837
548.5470, 137.1851
549.7230, 125.2061
550.8980, 102.1235
552.0740, 146.1108
553.2500, 34.99707
554.4250, 74.95801
555.6000, 25.01514
556.7750, 23.85742
557.9500, 99.68457
559.1250, 100.4893
560.2990, 158.6094
561.4730, 174.0366
562.6480, 224.7847
563.8220, 260.5166
564.9950, 276.2305
566.1690, 265.9282
567.3430, 409.6074
568.5160, 370.2686
569.6890, 422.9121
570.8620, 483.5371
572.0350, 505.1436
573.2070, 555.7314
574.3800, 569.3003
575.5520, 740.8496
576.7240, 733.3799
577.8960, 688.8906
579.0680, 899.3931
580.2400, 777.9072
581.4110, 897.4473
582.5830, 933.0498
583.7540, 955.7085
584.9250, 1059.419
586.0950, 1009.189
587.2660, 1005.991
588.4370, 1079.797
589.6070, 1052.616
590.7770, 1047.420
591.9470, 1013.204
593.1170, 1001.927
594.2860, 938.6670
595.4560, 1105.414
596.6250, 966.2476
597.7940, 1178.846
598.9630, 1184.001
600.1320, 1317.630
601.3000, 1389.792
602.4690, 1428.020
603.6370, 1462.287
604.8050, 1497.828
605.9730, 1441.354
607.1410, 1415.850
608.3090, 1443.325
609.4760, 1494.323
610.6430, 1635.855
611.8100, 1688.262
612.9770, 1874.634
614.1440, 1984.381
615.3110, 2133.223
616.4770, 2365.476
617.6430, 2718.021
618.8090, 3006.308
619.9750, 3497.898
621.1410, 4026.058
622.3070, 4567.323
623.4720, 5311.502
624.6370, 6174.658
625.8020, 6978.790
626.9670, 8036.900
628.1320, 8943.984
629.2970, 9871.047
630.4610, 10860.08
631.6250, 11632.10
632.7890, 12195.09
633.9530, 12772.05
635.1170, 12943.00
636.2810, 12917.91
637.4440, 12775.08
638.6070, 12181.72
639.7700, 11629.74
640.9330, 11165.42
642.0960, 10808.10
643.2590, 10345.54
644.4210, 10022.15
645.5830, 9878.226
646.7450, 9397.375
647.9070, 9417.180
649.0690, 9089.808
650.2310, 8804.352
651.3920, 8658.859
652.5530, 8395.645
653.7140, 8045.562
654.8750, 7832.784
656.0360, 7499.783
657.1970, 7124.211
658.3570, 6623.454
659.5170, 6302.281
660.6770, 6011.744
661.8370, 5545.021
662.9970, 5251.912
664.1570, 4820.819
665.3160, 4406.667
666.4750, 4071.401
667.6340, 3741.052
668.7930, 3447.034
669.9520, 3217.479
671.1110, 3108.460
672.2690, 2938.146
673.4270, 2948.796
674.5850, 2851.148
675.7430, 2794.845
676.9010, 2793.149
678.0590, 2763.550
679.2160, 2825.531
680.3730, 2850.838
681.5300, 2939.307
682.6870, 3014.500
683.8440, 3130.854
685.0010, 3343.470
686.1570, 3729.675
687.3130, 4090.313
688.4690, 4576.335
689.6250, 5149.936
690.7810, 6115.841
691.9370, 7120.831
693.0920, 8324.735
694.2470, 9583.069
695.4020, 11269.48
696.5570, 13005.78
697.7120, 14445.37
698.8670, 16189.93
700.0210, 17436.02
701.1750, 18737.08
702.3290, 19350.11
703.4830, 19591.10
704.6370, 19083.07
705.7910, 18122.00
706.9440, 16731.91
708.0970, 15292.78
709.2510, 13431.62
710.4030, 11724.43
711.5560, 10064.21
712.7090, 8674.955
713.8610, 7226.669
715.0140, 6197.353
716.1660, 5310.007
717.3180, 4389.629
718.4690, 3669.220
719.6210, 3124.779
720.7730, 2731.308
721.9240, 2373.805
723.0750, 2204.270
724.2260, 1951.703
725.3770, 1769.103
726.5270, 1636.470
727.6780, 1502.805
728.8280, 1393.106
729.9780, 1272.375
731.1280, 1267.610
732.2780, 1324.815
733.4280, 1367.989
734.5770, 1274.171
735.7260, 1236.328
736.8760, 1276.455
738.0250, 1270.570
739.1730, 1288.654
740.3220, 1398.705
741.4700, 1517.736
742.6190, 1554.736
743.7670, 1813.705
744.9150, 1975.653
746.0630, 2277.569
747.2100, 2563.454
748.3580, 2804.335
749.5050, 2981.193
750.6520, 3113.022
751.7990, 2983.848
752.9460, 2848.661
754.0930, 2598.470
755.2390, 2374.264
756.3860, 2062.052
757.5320, 1817.837
758.6780, 1638.147
759.8240, 1389.327
760.9690, 1288.027
762.1150, 1141.697
763.2600, 934.3364
764.4060, 801.9460
765.5510, 780.5264
766.6950, 631.0764
767.8400, 635.5972
768.9850, 477.0884
770.1290, 395.5500
771.2730, 436.9819
772.4170, 261.3853
773.5610, 372.7588
774.7050, 191.1033
775.8480, 109.4165
776.9920, 69.69360
778.1350, 96.93115
779.2780, 25.13208
780.4210, 73.71362
781.5640, 13.65698
782.7060, 117.6650
783.8490, 103.7937
784.9910, 147.0342
786.1330, 129.4087
787.2750, 176.9087
788.4170, 177.5574
789.5580, 151.3547
790.7000, 27.00098
791.8410, 65.00171
792.9820, 0.9082030
794.1230, 23.23462
795.2640, 10.55737
796.4040, 26.30249
797.5450, 48.00781
798.6850, 42.32349
799.8250, 5.726807
800.9650, 71.18286
802.1050, 8.274902
803.2450, 87.31104
804.3840, 28.01025
805.5230, 130.7051
806.6630, 23.53442
807.8020, 97.42163
808.9400, 78.40405
810.0790, 79.47095
811.2170, 28.62183
812.3560, 35.82983
813.4940, 79.09692
814.6320, 66.44482
815.7700, 70.13354
816.9070, 72.69141
818.0450, 57.23242
819.1820, 5.204590
820.3190, 50.36987
821.4560, 70.96216
822.5930, 98.59302
823.7300, 134.2563
824.8670, 119.9504
826.0030, 141.6794
827.1390, 157.4404
828.2750, 250.2285
829.4110, 337.0559
830.5470, 257.8950
831.6820, 245.7554
832.8180, 289.6250
833.9530, 230.4907
835.0880, 350.3420
836.2230, 388.1787
837.3580, 358.9976
838.4920, 345.7993
839.6270, 439.5835
840.7610, 446.3506
841.8950, 674.1006
843.0290, 611.8337
844.1630, 659.5505
845.2960, 636.2507
846.4300, 650.2754
847.5630, 682.6780
848.6960, 696.2563
849.8290, 780.8933
850.9620, 821.5149
852.0940, 955.1211
853.2270, 963.7129
854.3590, 1122.290
855.4910, 1227.852
856.6230, 1306.399
857.7550, 1437.933
858.8870, 1562.453
860.0180, 1665.958
861.1500, 1603.451
862.2810, 1585.929
863.4120, 1389.395
864.5430, 1125.848
865.6730, 1130.288
866.8040, 883.7153
867.9340, 809.1309
869.0640, 695.5332
870.1940, 584.9248
871.3240, 541.3037
872.4540, 474.6714
873.5830, 549.0269
874.7130, 407.3716
875.8420, 464.7051
876.9710, 378.0371
878.1000, 319.3623
879.2290, 340.6904
880.3570, 396.0396
881.4860, 455.4033
882.6140, 442.8101
883.7420, 419.5215
884.8700, 412.5537
885.9980, 325.9473
887.1250, 275.3330
888.2530, 281.7173
889.3800, 289.1123
890.5070, 339.4995
891.6340, 275.8843
892.7610, 320.2720
893.8880, 301.6499
895.0140, 336.0361
896.1400, 313.4141
897.2670, 336.7871
898.3930, 295.1636
899.5180, 433.5322
900.6440, 320.8970
901.7700, 382.2534
902.8950, 300.6021
904.0200, 278.9438
905.1450, 236.2881
906.2700, 215.6260
907.3950, 221.9561
908.5190, 229.2798
909.6440, 297.5967
910.7680, 282.6279
911.8920, 256.1592
913.0160, 336.2817
914.1400, 192.7100
915.2630, 184.1069
916.3870, 185.7207
917.5100, 121.1279
918.6330, 195.0332
919.7560, 97.83740
920.8790, 48.96045
922.0010, 19.22510
923.1240, 80.54688
924.2460, 10.87158
925.3680, 28.11230
926.4900, 82.74170
927.6120, 9.265137
928.7340, 66.98535
929.8550, 167.2554
930.9760, 127.6958
932.0980, 228.5273
933.2190, 176.7251
934.3390, 297.1006
935.4600, 305.8330
936.5810, 278.5303
937.7010, 269.2666
938.8210, 397.0928
939.9410, 338.2666
941.0610, 382.5215
942.1810, 492.5835
943.3010, 471.0986
944.4200, 502.8994
945.5390, 592.7383
946.6580, 703.8779
947.7770, 794.6660
948.8960, 924.8516
950.0150, 1030.924
951.1330, 1147.029
952.2510, 1265.190
953.3690, 1434.255
954.4870, 1586.433
955.6050, 1705.502
956.7230, 1751.776
957.8400, 1892.198
958.9580, 1993.790
960.0750, 2110.342
961.1920, 2218.006
962.3090, 2233.756
963.4250, 2345.604
964.5420, 2373.462
965.6580, 2261.332
966.7740, 2269.211
967.8900, 2328.102
969.0060, 2290.003
970.1220, 2330.915
971.2380, 2124.836
972.3530, 2108.769
973.4680, 1980.713
974.5830, 2066.667
975.6980, 2040.632
976.8130, 1805.608
977.9280, 1930.596
979.0420, 1973.594
980.1560, 1978.604
981.2710, 1826.625
982.3850, 1844.658
983.4980, 1941.701
984.6120, 2007.756
985.7260, 2021.823
986.8390, 2046.903
987.9520, 2114.993
989.0650, 2167.096
990.1780, 2200.210
991.2910, 2332.336
992.4030, 2317.474
993.5160, 2372.624
994.6280, 2414.515
995.7400, 2637.882
996.8520, 2788.980
997.9640, 2871.690
999.0750, 2681.103
1000.187, 2843.436
1001.298, 2864.317
1002.409, 2879.417
1003.520, 3091.399
1004.631, 2940.614
1005.741, 3149.447
1006.852, 3214.774
1007.962, 3345.769
1009.072, 3334.498
1010.182, 3369.425
1011.292, 3544.808
1012.402, 3517.711
1013.511, 3693.192
1014.621, 3770.170
1015.730, 3875.665
1016.839, 3921.226
1017.948, 4120.716
1019.056, 4072.209
1020.165, 4157.810
1021.273, 4184.815
1022.382, 4134.710
1023.490, 4189.358
1024.598, 4163.150
1025.706, 4063.004
1026.813, 4012.513
1027.921, 3914.893
1029.028, 3924.422
1030.135, 3857.587
1031.242, 3705.745
1032.349, 3544.304
1033.456, 3486.546
1034.562, 3297.125
1035.668, 3222.714
1036.775, 3266.313
1037.881, 3209.107
1038.987, 3032.726
1040.092, 3010.355
1041.198, 2948.994
1042.303, 3014.643
1043.408, 3016.303
1044.514, 3068.973
1045.618, 3128.658
1046.723, 3182.356
1047.828, 3306.353
1048.932, 3448.486
1050.037, 3609.578
1051.141, 3829.384
1052.245, 4071.244
1053.349, 4323.158
1054.452, 4470.133
1055.556, 4652.167
1056.659, 4774.272
1057.762, 4878.448
1058.865, 4987.400
1059.968, 4872.125
1061.071, 4864.301
1062.174, 4927.571
1063.276, 4950.003
1064.378, 4764.705
1065.480, 4714.639
1066.582, 4719.025
1067.684, 4589.467
1068.786, 4545.730
1069.887, 4637.164
1070.988, 4659.252
1072.090, 4776.954
1073.191, 4696.567
1074.291, 4864.619
1075.392, 4964.844
1076.493, 5242.563
1077.593, 5629.101
1078.693, 5889.510
1079.793, 6345.142
1080.893, 6749.709
1081.993, 7014.814
1083.092, 7404.688
1084.192, 7381.871
1085.291, 7391.759
1086.390, 7147.655
1087.489, 6795.562
1088.588, 6353.477
1089.686, 5880.398
1090.785, 5649.326
1091.883, 5107.255
1092.981, 4646.191
1094.079, 4430.130
1095.177, 3884.072
1096.275, 3597.018
1097.373, 3311.966
1098.470, 3035.917
1099.567, 2859.870
1100.664, 2627.827
1101.761, 2353.786
1102.858, 2264.748
1103.954, 2012.712
1105.051, 1958.678
1106.147, 1863.646
1107.243, 1832.616
1108.339, 1689.588
1109.435, 1573.563
1110.531, 1617.539
1111.626, 1470.516
1112.722, 1397.495
1113.817, 1214.476
1114.912, 1226.458
1116.007, 1171.441
1117.101, 987.4258
1118.196, 1036.412
1119.290, 945.3984
1120.385, 815.3862
1121.479, 749.3755
1122.573, 691.3647
1123.666, 701.3555
1124.760, 732.3462
1125.853, 612.3379
1126.947, 520.3301
1128.040, 558.3228
1129.133, 514.3159
1130.226, 400.3081
1131.318, 332.3018
1132.411, 386.2944
1133.503, 281.2876
1134.596, 343.2803
1135.688, 244.2734
1136.780, 115.2656
1137.871, 65.25732
1138.963, 94.24902
1140.054, 40.23926
1141.146, 43.77051
1142.237, 7.803223
1143.328, 54.84229
1144.419, 118.9111
1145.509, 94.04346
1146.600, 117.3228
1147.690, 0.4746090
1148.780, 83.72705
1149.870, 51.02637
1150.960, 0.6445310
1152.050, 25.69043
1153.139, 71.04248
1154.229, 1.563477
1155.318, 19.83594
1156.407, 36.25146
1157.496, 24.30859
1158.585, 59.13330
1159.674, 60.38770
1160.762, 5.094238
1161.850, 37.58496
1162.939, 34.89648
1164.027, 4.624512
1165.114, 49.84473
1166.202, 57.31152
1167.290, 14.77588
1168.377, 27.76318
1169.464, 75.67383
1170.551, 78.10840
1171.638, 53.54102
1172.725, 89.97021
1173.812, 62.39697
1174.898, 64.82080
1175.984, 61.24268
1177.071, 59.78418
1178.157, 62.32324
1179.242, 74.48926
1180.328, 62.89941
1181.414, 75.30566
1182.499, 68.70898
1183.584, 77.10791
1184.669, 127.5034
1185.754, 85.89551
1186.839, 62.28271
1187.924, 112.6650
1189.008, 110.0425
1190.092, 10.41650
1191.177, 2.778809
1192.260, 13.87402
1193.344, 31.55225
1194.428, 3.264160
1195.512, 85.99609
1196.595, 60.79150
1197.678, 41.36230
1198.761, 25.49023
1199.844, 4.625000
1200.927, 5.277344
1202.009, 1.797852
1203.092, 28.14551
1204.174, 18.12451
1205.256, 52.13330
1206.338, 43.19043
1207.420, 87.29102
1208.502, 100.4590
1209.583, 55.70117
1210.665, 101.9946
1211.746, 14.36328
1212.827, 119.2383
1213.908, 22.16602
1214.988, 196.3804
1216.069, 298.3125
1217.149, 331.8286
1218.230, 92.08691
1219.310, 205.1865
1220.390, 176.8672
1221.470, 142.7417
1222.549, 305.4697
1223.629, 105.4238
1224.708, 265.0137
1225.787, 281.0288
1226.866, 362.7422
1227.945, 302.1655
1229.024, 285.5278
1230.103, 411.2090
1231.181, 458.0664
1232.259, 381.0684
1233.337, 413.0498
1234.415, 436.4849
1235.493, 375.9116
1236.571, 444.3311
1237.648, 400.7432
1238.726, 465.1465
1239.803, 426.5420
1240.880, 429.9302
1241.957, 417.3105
1243.034, 388.6831
1244.110, 370.0483
1245.187, 390.4097
1246.263, 524.7632
1247.339, 506.1094
1248.415, 510.4556
1249.491, 523.7939
1250.566, 482.1250
1251.642, 515.4614
1252.717, 498.7905
1253.793, 480.1133
1254.868, 485.4282
1255.943, 541.7363
1257.017, 544.0371
1258.092, 547.3315
1259.166, 506.6182
1260.241, 639.8984
1261.315, 646.1719
1262.389, 666.4385
1263.462, 620.6982
1264.536, 775.9517
1265.610, 778.1982
1266.683, 841.4385
1267.756, 890.0269
1268.829, 923.9009
1269.902, 927.1221
1270.975, 947.0923
1272.048, 932.9453
1273.120, 845.1118
1274.192, 847.2041
1275.264, 805.1890
1276.336, 799.8999
1277.408, 748.9341
1278.480, 742.0449
1279.551, 693.1641
1280.623, 635.1816
1281.694, 571.8027
1282.765, 514.5405
1283.836, 561.5342
1284.907, 510.5352
1285.977, 607.1953
1287.048, 506.3530
1288.118, 554.6470
1289.188, 594.8008
1290.258, 633.3271
1291.328, 647.8682
1292.398, 689.0181
1293.467, 779.4946
1294.537, 802.6426
1295.606, 749.7900
1296.675, 823.9360
1297.744, 788.8979
1298.813, 671.0435
1299.882, 786.1895
1300.950, 665.3354
1302.018, 638.4814
1303.086, 647.6279
1304.155, 767.7749
1305.222, 781.9233
1306.290, 778.0723
1307.358, 780.2227
1308.425, 957.3745
1309.492, 1032.531
1310.559, 962.6904
1311.626, 885.8516
1312.693, 917.0161
1313.760, 859.1807
1314.826, 925.3418
1315.893, 813.4990
1316.959, 941.6533
1318.025, 867.8037
1319.091, 963.4961
1320.157, 875.7754
1321.222, 795.9814
1322.288, 733.0508
1323.353, 761.8706
1324.418, 669.4731
1325.483, 615.6362
1326.548, 481.7759
1327.612, 428.1162
1328.677, 440.3271
1329.741, 313.9028
1330.806, 322.9077
1331.870, 235.0181
1332.934, 142.7441
1333.997, 124.3237
1335.061, 83.17773
1336.124, 54.79004
1337.188, 68.32764
1338.251, 49.65381
1339.314, 57.07178
