##NAMES=Elbaite
##RRUFFID=R050260
##IDEAL CHEMISTRY=Na(Al_1.5_Li_1.5_)Al_6_(Si_6_O_18_)(BO_3_)_3_(OH)_3_OH
##LOCALITY=Minas Gerais, Brazil
##OWNER=RRUFF
##SOURCE=Marcus Origlieri
##DESCRIPTION=Greenish-gray prismatic single crystal
##STATUS=The identification of this mineral has been confirmed by X-ray diffraction and chemical analysis
##URL=rruff.info/R050260
##MEASURED CHEMISTRY=(Na_0.76_[box]_0.17_Ca_0.07_)_Σ=1_(Al_1.67_Li_0.97_Mn_0.36_)_Σ=3_Al_6.00_(B_1.00_O_3_)_3_Si_6.00_O_18_((OH)_3.40_F_0.60_)_Σ=4_; B assumed by stoichiometry; OH estimated by charge balance
##PIN_ID=L01093
##ORIENTATION=Laser parallel to c* (0 0 1). Fiducial mark perpendicular to laser is parallel to -a [-1 0 0]
118.1340, 0.0000000E+00
119.3650, 122.6924
120.5960, 2.152344
121.8270, 291.1504
123.0580, 621.6133
124.2880, 1053.038
125.5190, 1000.730
126.7490, 747.2793
127.9790, 866.5664
129.2090, 1062.270
130.4390, 1313.611
131.6680, 1615.309
132.8980, 1647.133
134.1270, 1164.387
135.3560, 1110.910
136.5850, 1102.045
137.8140, 1003.598
139.0430, 1010.184
140.2710, 970.2656
141.5000, 570.2930
142.7280, 155.5820
143.9560, 69.68750
145.1840, 81.63281
146.4120, 193.2402
147.6390, 439.6719
148.8670, 790.8320
150.0940, 913.2812
151.3210, 1087.115
152.5490, 1475.229
153.7750, 1387.738
155.0020, 1473.998
156.2290, 1554.977
157.4550, 1228.635
158.6810, 1157.941
159.9080, 1104.865
161.1340, 1113.381
162.3590, 943.6035
163.5850, 1000.129
164.8110, 969.6328
166.0360, 891.5332
167.2610, 568.8340
168.4860, 668.5312
169.7110, 346.6133
170.9360, 338.0547
172.1610, 167.8574
173.3850, 53.97461
174.6100, 51.44141
175.8340, 300.5312
177.0580, 296.2461
178.2820, 189.5781
179.5050, 82.52344
180.7290, 51.08203
181.9520, 78.09180
183.1760, 25.98047
184.3990, 342.6035
185.6220, 372.6270
186.8450, 619.0469
188.0670, 934.8711
189.2900, 939.0957
190.5120, 1285.723
191.7340, 1566.711
192.9560, 1639.904
194.1780, 2072.311
195.4000, 2184.938
196.6220, 2179.783
197.8430, 2460.850
199.0640, 2842.125
200.2860, 2896.611
201.5070, 3203.305
202.7270, 3577.211
203.9480, 3482.326
205.1690, 3284.535
206.3890, 3733.979
207.6090, 3924.074
208.8290, 4688.479
210.0490, 5564.436
211.2690, 6649.031
212.4890, 8095.863
213.7080, 9205.924
214.9280, 10908.22
216.1470, 12372.75
217.3660, 14120.53
218.5850, 15985.56
219.8030, 17336.74
221.0220, 18702.85
222.2400, 19543.96
223.4590, 19782.28
224.6770, 19014.88
225.8950, 18037.77
227.1120, 16562.95
228.3300, 14711.42
229.5480, 13448.19
230.7650, 12118.27
231.9820, 11047.65
233.1990, 10376.33
234.4160, 9905.320
235.6330, 9221.607
236.8490, 9037.195
238.0660, 8679.082
239.2820, 8644.264
240.4980, 8413.742
241.7140, 8327.516
242.9300, 8043.582
244.1460, 7507.945
245.3610, 7273.602
246.5770, 6629.555
247.7920, 6184.801
249.0070, 5566.338
250.2220, 4882.168
251.4370, 4319.289
252.6510, 3699.701
253.8660, 3271.404
255.0800, 2828.396
256.2940, 2372.678
257.5080, 2431.246
258.7220, 2187.482
259.9360, 1830.695
261.1490, 2023.676
262.3630, 1406.393
263.5760, 1056.398
264.7890, 1428.832
266.0020, 959.0527
267.2150, 1047.062
268.4270, 1395.797
269.6400, 1396.727
270.8520, 1429.842
272.0640, 1594.074
273.2760, 1487.434
274.4880, 1669.936
275.7000, 1717.586
276.9120, 1590.396
278.1230, 1542.961
279.3340, 1390.691
280.5450, 1260.543
281.7560, 1140.537
282.9670, 1051.686
284.1780, 778.0000
285.3880, 763.4922
286.5980, 665.1719
287.8090, 423.0391
289.0190, 395.1016
290.2290, 192.0938
291.4380, 116.7422
292.6480, 212.8086
293.8570, 180.8574
295.0670, 257.9941
296.2760, 245.9609
297.4850, 320.7051
298.6930, 299.2246
299.9020, 259.5254
301.1110, 165.5996
302.3190, 92.55273
303.5270, 204.9414
304.7350, 230.5664
305.9430, 606.4258
307.1510, 809.5117
308.3580, 1139.828
309.5660, 1346.367
310.7730, 1472.127
311.9800, 1561.102
313.1870, 1933.295
314.3940, 2094.705
315.6010, 2098.328
316.8070, 2524.168
318.0130, 2680.219
319.2200, 3307.809
320.4260, 3497.031
321.6310, 3917.020
322.8370, 4397.918
324.0430, 4785.029
325.2480, 5321.893
326.4540, 5893.625
327.6590, 6445.697
328.8640, 6841.992
330.0680, 6959.594
331.2730, 7439.459
332.4780, 7596.633
333.6820, 7743.090
334.8860, 7472.818
336.0900, 7353.879
337.2940, 7513.234
338.4980, 7077.848
339.7010, 7193.732
340.9050, 7072.877
342.1080, 6862.314
343.3110, 6680.951
344.5140, 6599.201
345.7170, 6433.805
346.9200, 6428.023
348.1220, 6516.434
349.3240, 6441.035
350.5270, 6198.834
351.7290, 6428.777
352.9310, 6392.852
354.1320, 6426.045
355.3340, 6894.383
356.5350, 7434.914
357.7370, 7895.643
358.9380, 8550.559
360.1390, 8950.668
361.3400, 10002.97
362.5400, 10900.47
363.7410, 11592.15
364.9410, 13039.02
366.1410, 14477.09
367.3410, 15852.34
368.5410, 17623.79
369.7410, 20036.44
370.9400, 21790.26
372.1400, 24587.28
373.3390, 26990.48
374.5380, 29063.88
375.7370, 30511.45
376.9360, 31116.21
378.1350, 30475.16
379.3330, 28781.29
380.5310, 26851.60
381.7300, 24307.09
382.9280, 21488.77
384.1260, 19150.62
385.3230, 16577.65
386.5210, 14711.86
387.7180, 13089.24
388.9160, 11657.80
390.1130, 10539.53
391.3100, 9880.443
392.5060, 9100.521
393.7030, 8675.775
394.9000, 8180.199
396.0960, 8044.797
397.2920, 7708.570
398.4880, 7553.521
399.6840, 7443.662
400.8800, 7526.006
402.0750, 7733.572
403.2710, 7796.359
404.4660, 7817.414
405.6610, 8134.762
406.8560, 8218.420
408.0510, 8026.324
409.2450, 8089.480
410.4400, 7793.908
411.6340, 7620.545
412.8280, 6907.383
414.0220, 6504.406
415.2160, 5852.605
416.4100, 4899.986
417.6030, 4387.545
418.7970, 3847.285
419.9900, 3202.203
421.1830, 2690.299
422.3760, 2128.576
423.5690, 1805.641
424.7610, 1646.666
425.9540, 1361.477
427.1460, 1135.467
428.3380, 1135.635
429.5300, 619.9785
430.7220, 828.5000
431.9140, 792.1934
433.1050, 862.0625
434.2970, 1105.141
435.4880, 897.3984
436.6790, 1159.746
437.8700, 1339.953
439.0610, 1285.695
440.2510, 1421.934
441.4420, 1156.516
442.6320, 1475.840
443.8220, 1577.369
445.0120, 1678.998
446.2020, 1452.818
447.3910, 1675.811
448.5810, 1434.971
449.7700, 1407.303
450.9600, 1416.801
452.1490, 1318.465
453.3370, 1234.297
454.5260, 1204.289
455.7150, 1193.539
456.9030, 1313.770
458.0910, 1317.254
459.2800, 1208.898
460.4670, 1424.705
461.6550, 1503.670
462.8430, 1717.734
464.0300, 1715.320
465.2180, 2025.666
466.4050, 2022.346
467.5920, 2097.941
468.7790, 2423.607
469.9650, 2433.639
471.1520, 2552.551
472.3380, 2629.910
473.5250, 2731.115
474.7110, 2825.988
475.8970, 2809.523
477.0820, 2675.330
478.2680, 2676.186
479.4540, 2650.418
480.6390, 2399.561
481.8240, 2597.389
483.0090, 2447.688
484.1940, 2482.240
485.3780, 2603.314
486.5630, 2371.514
487.7470, 2575.834
488.9320, 2461.275
490.1160, 2457.840
491.3000, 2215.523
492.4830, 2487.328
493.6670, 2562.250
494.8500, 2751.291
496.0340, 2724.453
497.2170, 2875.730
498.4000, 3020.125
499.5820, 3004.635
500.7650, 3083.264
501.9480, 3380.004
503.1300, 3696.857
504.3120, 3749.828
505.4940, 3933.914
506.6760, 3950.117
507.8580, 4241.434
509.0390, 4188.865
510.2210, 4169.410
511.4020, 3983.059
512.5830, 4221.824
513.7640, 4171.693
514.9450, 4073.666
516.1250, 3986.744
517.3060, 3885.232
518.4860, 3751.832
519.6660, 3627.580
520.8460, 3497.217
522.0260, 3302.633
523.2060, 3229.305
524.3850, 3201.070
525.5650, 3321.934
526.7440, 3319.887
527.9230, 3422.936
529.1020, 3502.072
530.2810, 4020.303
531.4590, 4069.623
532.6380, 4299.029
533.8160, 4458.525
534.9940, 4746.107
536.1720, 4978.781
537.3500, 5191.145
538.5270, 5135.996
539.7050, 5121.902
540.8820, 5663.148
542.0590, 5466.613
543.2360, 5860.127
544.4130, 6006.441
545.5900, 5698.373
546.7660, 6022.746
547.9430, 5923.281
549.1190, 5675.328
550.2950, 5771.832
551.4710, 5981.555
552.6470, 5628.365
553.8220, 5656.236
554.9980, 5278.111
556.1730, 5131.043
557.3480, 4748.029
558.5230, 4552.070
559.6980, 4081.162
560.8730, 4089.311
562.0470, 3270.506
563.2220, 3330.754
564.3960, 3119.049
565.5700, 2639.393
566.7440, 2713.781
567.9170, 2325.219
569.0910, 2291.699
570.2640, 1835.225
571.4380, 1757.791
572.6110, 1696.400
573.7840, 1460.049
574.9570, 1420.732
576.1290, 1519.457
577.3020, 1540.217
578.4740, 1347.031
579.6460, 1180.889
580.8180, 1252.799
581.9900, 1366.762
583.1620, 1120.777
584.3330, 1023.848
585.5040, 1070.969
586.6760, 909.1250
587.8470, 931.3086
589.0180, 841.5176
590.1880, 542.7520
591.3590, 479.0098
592.5290, 593.2891
593.7000, 387.5898
594.8700, 457.9121
596.0400, 223.2520
597.2090, 352.6094
598.3790, 255.9863
599.5490, 91.37891
600.7180, 95.78516
601.8870, 58.20703
603.0560, 146.3594
604.2250, 129.9902
605.3940, 191.6816
606.5620, 96.46875
607.7300, 236.3027
608.8990, 157.2344
610.0670, 319.2402
611.2350, 259.3652
612.4020, 169.6230
613.5700, 215.9395
614.7370, 393.3242
615.9050, 288.9141
617.0720, 250.6660
618.2390, 494.5098
619.4060, 341.6152
620.5720, 197.8945
621.7390, 238.2637
622.9050, 206.7598
624.0710, 342.3555
625.2370, 131.8516
626.4030, 579.0625
627.5690, 134.3008
628.7340, 229.5742
629.9000, 350.9004
631.0650, 377.2832
632.2300, 469.7051
633.3950, 526.1895
634.5600, 732.7090
635.7240, 706.2637
636.8890, 1245.865
638.0530, 1071.457
639.2170, 1222.092
640.3810, 1142.732
641.5450, 1091.443
642.7080, 1020.053
643.8720, 971.6016
645.0350, 887.8418
646.1980, 892.4492
647.3610, 825.8594
648.5240, 808.9922
649.6870, 684.6777
650.8490, 701.1348
652.0120, 606.1504
653.1740, 540.5508
654.3360, 564.2754
655.4980, 824.6172
656.6600, 716.9316
657.8210, 734.2148
658.9830, 752.4648
660.1440, 630.6816
661.3050, 974.8652
662.4660, 755.0176
663.6270, 939.1348
664.7870, 939.2148
665.9480, 680.2617
667.1080, 473.2695
668.2680, 706.2402
669.4280, 351.1738
670.5880, 491.0664
671.7480, 512.9199
672.9070, 387.7324
674.0670, 351.4355
675.2260, 312.7480
676.3850, 258.6074
677.5440, 241.8496
678.7030, 168.3848
679.8610, 163.5977
681.0200, 39.48047
682.1780, 26.20898
683.3360, 18.81055
684.4940, 215.8711
685.6520, 282.8691
686.8090, 377.4531
687.9670, 127.3945
689.1240, 67.55664
690.2810, 99.91406
691.4380, 113.5137
692.5950, 172.8359
693.7520, 460.0625
694.9080, 462.2383
696.0650, 561.3633
697.2210, 1057.428
698.3770, 1152.443
699.5330, 1385.402
700.6880, 1664.305
701.8440, 2066.154
702.9990, 2389.945
704.1550, 2785.682
705.3100, 3366.355
706.4650, 3846.975
707.6190, 4330.535
708.7740, 5130.039
709.9290, 5786.482
711.0830, 6818.867
712.2370, 7959.191
713.3910, 9087.453
714.5450, 10519.66
715.6980, 12443.80
716.8520, 14229.88
718.0050, 16909.90
719.1580, 19369.86
720.3110, 22377.75
721.4640, 25486.58
722.6170, 28926.35
723.7700, 32114.05
724.9220, 35748.69
726.0740, 38155.27
727.2260, 40545.77
728.3780, 41304.21
729.5300, 41384.59
730.6810, 40434.90
731.8330, 38440.14
732.9840, 35354.32
734.1350, 31504.43
735.2860, 28139.47
736.4370, 24150.44
737.5880, 20872.35
738.7380, 18267.40
739.8880, 15639.16
741.0390, 13900.87
742.1890, 12065.57
743.3380, 10858.98
744.4880, 9650.678
745.6380, 8892.656
746.7870, 8047.760
747.9360, 7608.207
749.0850, 7223.148
750.2340, 7005.227
751.3830, 6854.801
752.5310, 6558.789
753.6800, 6527.590
754.8280, 6266.775
755.9760, 6327.070
757.1240, 6174.098
758.2720, 5875.361
759.4190, 5592.293
760.5670, 5326.984
761.7140, 4856.314
762.8610, 4635.766
764.0080, 4169.430
765.1550, 3701.580
766.3020, 3293.883
767.4480, 2986.098
768.5950, 2695.752
769.7410, 2358.320
770.8870, 1883.324
772.0330, 1736.969
773.1780, 1324.479
774.3240, 1017.045
775.4690, 1101.146
776.6140, 791.5215
777.7590, 754.0469
778.9040, 433.7617
780.0490, 506.5020
781.1940, 407.2363
782.3380, 389.5879
783.4820, 288.9297
784.6260, 371.3145
785.7700, 338.4297
786.9140, 330.4648
788.0580, 538.4219
789.2010, 306.3105
790.3450, 465.1133
791.4880, 408.8516
792.6310, 497.5137
793.7730, 591.1094
794.9160, 679.6387
796.0590, 734.0996
797.2010, 902.4902
798.3430, 1060.816
799.4850, 1119.074
800.6270, 1308.260
801.7690, 1273.383
802.9100, 1349.438
804.0520, 1361.354
805.1930, 1295.344
806.3340, 1280.199
807.4750, 1056.984
808.6160, 892.7031
809.7560, 763.3574
810.8970, 573.9453
812.0370, 474.6758
813.1770, 583.9141
814.3170, 338.6895
815.4570, 286.9902
816.5960, 385.2441
817.7360, 252.1699
818.8750, 346.8789
820.0140, 246.5527
821.1530, 329.4277
822.2920, 381.6934
823.4310, 431.5273
824.5690, 679.2129
825.7070, 843.3906
826.8460, 768.1328
827.9840, 1236.656
829.1220, 1238.098
830.2590, 1577.488
831.3970, 1862.883
832.5340, 2257.225
833.6710, 2356.516
834.8080, 2408.756
835.9450, 2851.945
837.0820, 2955.084
838.2190, 2944.174
839.3550, 2643.209
840.4910, 2554.199
841.6270, 2498.139
842.7630, 2364.025
843.8990, 2023.863
845.0350, 1744.654
846.1700, 1666.396
847.3060, 1590.088
848.4410, 1325.732
849.5760, 1255.326
850.7100, 1231.912
851.8450, 1349.373
852.9800, 1268.824
854.1140, 1322.229
855.2480, 1353.588
856.3820, 1175.896
857.5160, 1247.160
858.6500, 1137.379
859.7830, 1324.549
860.9170, 1213.674
862.0500, 1177.752
863.1830, 1137.785
864.3160, 939.7754
865.4480, 1031.717
866.5810, 900.6172
867.7130, 822.4707
868.8460, 827.2812
869.9780, 651.0488
871.1100, 433.7734
872.2410, 505.4551
873.3730, 379.0918
874.5050, 264.6855
875.6360, 410.2383
876.7670, 371.7461
877.8980, 553.2129
879.0290, 284.6758
880.1590, 331.1348
881.2900, 211.6016
882.4200, 13.94531
883.5500, 23.48438
884.6800, 96.67578
885.8100, 105.2656
886.9400, 95.34766
888.0690, 131.0312
889.1990, 65.20508
890.3280, 213.4941
891.4570, 151.1758
892.5860, 62.07812
893.7140, 38.58984
894.8430, 79.25195
895.9710, 43.95898
897.1000, 81.68359
898.2280, 9.548828
899.3560, 25.82617
900.4830, 81.94922
901.6110, 117.8340
902.7380, 181.8438
903.8660, 206.5117
904.9930, 143.2930
906.1200, 231.7402
907.2460, 132.3711
908.3730, 148.1348
909.5000, 183.0312
910.6260, 77.93359
911.7520, 184.1289
912.8780, 45.31641
914.0040, 91.44336
915.1290, 225.0762
916.2550, 69.77539
917.3800, 320.2051
918.5050, 263.4277
919.6300, 230.2344
920.7550, 420.2070
921.8800, 330.7324
923.0040, 628.1133
924.1290, 552.6699
925.2530, 732.6055
926.3770, 597.1367
927.5010, 857.2871
928.6250, 917.7793
929.7480, 819.2637
930.8720, 1151.721
931.9950, 1116.168
933.1180, 1230.604
934.2410, 1529.023
935.3640, 1595.416
936.4860, 1581.793
937.6090, 1836.180
938.7310, 1785.541
939.8530, 1835.881
940.9750, 1889.215
942.0970, 1948.559
943.2180, 2030.852
944.3400, 2185.137
945.4610, 2154.410
946.5820, 2360.674
947.7030, 2309.939
948.8240, 2467.195
949.9450, 2575.154
951.0650, 2368.420
952.1860, 2570.928
953.3060, 2510.699
954.4260, 2640.934
955.5460, 2749.961
956.6650, 2664.338
957.7850, 2719.477
958.9040, 2778.010
960.0230, 2804.676
961.1420, 2901.412
962.2610, 3076.217
963.3800, 2834.086
964.4990, 3228.014
965.6170, 3354.949
966.7350, 3237.863
967.8530, 2990.764
968.9710, 3166.652
970.0890, 3459.525
971.2070, 3198.383
972.3240, 3308.225
973.4410, 3644.047
974.5580, 3567.855
975.6750, 3568.648
976.7920, 3621.426
977.9090, 3463.186
979.0250, 3791.932
980.1410, 3671.664
981.2580, 3474.379
982.3740, 3695.082
983.4890, 3696.770
984.6050, 3690.441
985.7200, 3512.102
986.8360, 3448.748
987.9510, 3367.379
989.0660, 3569.996
990.1810, 3449.604
991.2950, 3440.199
992.4100, 3505.783
993.5240, 3268.354
994.6390, 3237.912
995.7530, 3396.459
996.8660, 3315.994
997.9800, 3332.518
999.0940, 3086.027
1000.207, 3598.559
1001.320, 3276.076
1002.433, 3462.582
1003.546, 3446.078
1004.659, 3636.562
1005.772, 3412.037
1006.884, 3780.500
1007.996, 3500.955
1009.108, 3909.195
1010.220, 4009.629
1011.332, 3965.051
1012.444, 4039.465
1013.555, 4598.762
1014.666, 4636.156
1015.777, 4758.086
1016.888, 5199.090
1017.999, 5268.783
1019.110, 5438.699
1020.220, 5896.670
1021.331, 6212.766
1022.441, 6291.670
1023.551, 6625.672
1024.661, 6658.605
1025.770, 6509.387
1026.880, 6707.871
1027.989, 6886.805
1029.098, 6944.221
1030.207, 7133.893
1031.316, 7322.148
1032.425, 7543.887
1033.533, 7788.762
1034.642, 8114.191
1035.750, 8407.615
1036.858, 8779.752
1037.966, 9115.539
1039.073, 9633.488
1040.181, 10153.73
1041.288, 10880.27
1042.396, 11712.63
1043.503, 12374.12
1044.610, 13073.26
1045.716, 14156.15
1046.823, 15212.74
1047.929, 16269.96
1049.036, 17022.55
1050.142, 18603.46
1051.248, 19812.67
1052.353, 21139.10
1053.459, 22822.48
1054.564, 24322.71
1055.670, 26096.95
1056.775, 27791.26
1057.880, 29568.51
1058.985, 30633.94
1060.089, 31801.50
1061.194, 32544.69
1062.298, 33467.50
1063.402, 33152.29
1064.506, 32747.33
1065.610, 31752.13
1066.713, 30825.25
1067.817, 28835.62
1068.920, 26858.37
1070.023, 25216.95
1071.126, 22977.42
1072.229, 20858.85
1073.332, 18904.41
1074.435, 17054.36
1075.537, 15445.07
1076.639, 13794.16
1077.741, 12597.07
1078.843, 11324.93
1079.945, 10140.85
1081.046, 9088.092
1082.148, 8229.336
1083.249, 7378.777
1084.350, 6785.994
1085.451, 6161.242
1086.551, 5604.512
1087.652, 5419.916
1088.752, 4896.039
1089.853, 4180.318
1090.953, 4108.693
1092.053, 3868.969
1093.152, 3648.240
1094.252, 3489.342
1095.351, 3166.637
1096.451, 3420.023
1097.550, 3165.275
1098.649, 2867.520
1099.748, 2492.756
1100.846, 2394.506
1101.945, 2514.922
1103.043, 2418.145
1104.141, 2379.359
1105.239, 2376.572
1106.337, 2253.777
1107.434, 2143.980
1108.532, 2201.172
1109.629, 1893.359
1110.726, 1941.541
1111.823, 1787.719
1112.920, 1496.893
1114.017, 1923.061
1115.113, 1749.223
1116.210, 1815.381
1117.306, 1661.531
1118.402, 1520.678
1119.498, 1682.816
1120.593, 1569.953
1121.689, 1506.084
1122.784, 1765.928
1123.879, 1551.049
1124.974, 1585.164
1126.069, 1406.273
1127.164, 1540.381
1128.259, 1269.480
1129.353, 1364.576
1130.447, 1178.666
1131.541, 1066.551
1132.635, 1026.629
1133.729, 1085.703
1134.822, 1100.773
1135.916, 1152.838
1137.009, 1123.895
1138.102, 776.9492
1139.195, 1167.996
1140.288, 844.0410
1141.380, 964.0801
1142.473, 979.1152
1143.565, 543.1445
1144.657, 581.1660
1145.749, 619.1875
1146.841, 445.1992
1147.932, 333.2109
1149.024, 326.2285
1150.115, 388.2734
1151.206, 293.3457
1152.297, 192.4219
1153.388, 243.5352
1154.479, 7.310547
1155.569, 194.8457
1156.659, 89.99805
1157.750, 417.1992
1158.839, 122.4062
1159.929, 221.6328
1161.019, 152.8887
1162.108, 39.16992
1163.198, 30.51953
1164.287, 8.779297
1165.376, 69.08594
1166.465, 12.42188
1167.553, 115.2051
1168.642, 49.16406
1169.730, 14.59570
1170.818, 87.07227
1171.906, 237.6172
1172.994, 9.796875
1174.082, 50.06836
1175.170, 69.41602
1176.257, 102.2324
1177.344, 100.2734
1178.431, 29.38086
1179.518, 41.04883
1180.605, 104.4922
1181.691, 244.0332
1182.778, 113.4336
1183.864, 161.9688
1184.950, 28.59766
1186.036, 106.7441
1187.122, 57.08398
1188.207, 173.4160
1189.292, 109.2578
1190.378, 7.000000
1191.463, 56.75195
1192.548, 50.55078
1193.632, 2.613281
1194.717, 37.23633
1195.801, 49.11719
1196.886, 22.03906
1197.970, 45.01367
1199.054, 14.93945
1200.137, 123.9160
1201.221, 21.02930
1202.305, 30.96484
1203.388, 59.10742
1204.471, 33.22461
1205.554, 26.68359
1206.637, 72.44727
1207.719, 15.73438
1208.802, 30.94336
1209.884, 127.1836
1210.966, 78.49414
1212.048, 96.16602
1213.130, 35.83398
1214.212, 110.4922
1215.293, 35.85352
1216.374, 160.7637
1217.456, 39.37695
1218.536, 49.01758
1219.617, 95.54688
1220.698, 48.10352
1221.778, 162.6543
1222.859, 232.1973
1223.939, 48.24219
1225.019, 63.27734
1226.099, 180.1621
1227.178, 259.2891
1228.258, 154.7734
1229.337, 325.2520
1230.417, 10.27539
1231.496, 25.17578
1232.574, 326.6172
1233.653, 238.0586
1234.732, 122.4902
1235.810, 170.9160
1236.888, 112.6973
1237.966, 148.7520
1239.044, 110.1641
1240.122, 208.5684
1241.199, 206.9688
1242.277, 205.9023
1243.354, 232.7637
1244.431, 189.1406
1245.508, 235.5195
1246.585, 216.8926
1247.661, 234.2656
1248.738, 79.62891
1249.814, 280.9902
1250.890, 409.3477
1251.966, 6.697266
1253.042, 300.0371
1254.117, 120.3711
1255.193, 145.6992
1256.268, 374.0234
1257.343, 209.3457
1258.418, 139.6602
1259.493, 398.9707
1260.567, 92.72266
1261.642, 201.5215
1262.716, 286.7617
1263.790, 455.9961
1264.864, 379.2266
1265.938, 253.4570
1267.011, 294.6797
1268.085, 355.8965
1269.158, 267.1133
1270.231, 305.3242
1271.304, 126.5352
1272.377, 218.8320
1273.450, 427.9453
1274.522, 316.1445
1275.594, 344.3418
1276.666, 336.5312
1277.738, 330.9707
1278.810, 558.9023
1279.882, 406.0781
1280.953, 412.2520
1282.025, 508.4199
1283.096, 328.5859
1284.167, 408.2441
1285.238, 324.3984
1286.308, 241.5508
