##NAMES=Elbaite
##RRUFFID=R060560
##IDEAL CHEMISTRY=Na(Al_1.5_Li_1.5_)Al_6_(Si_6_O_18_)(BO_3_)_3_(OH)_3_OH
##LOCALITY=California, USA
##OWNER=RRUFF
##SOURCE=Gemological Institute of America
##DESCRIPTION=Pink fragment
##STATUS=The identification of this mineral has been confirmed by X-ray diffraction and chemical analysis
##URL=rruff.info/R060560
##MEASURED CHEMISTRY=(Na_0.56_Ca_0.12_[box]_0.32_)(Al_1.60_Li_1.40_)Al_6_(BO_3_)_3_[Si_6_O_18_](OH)_4_
##PIN_ID=L01306
##ORIENTATION=Laser parallel to c* (0 0 1). Fiducial mark perpendicular to laser is parallel to a [1 0 0]
118.1340, 0.0000000E+00
119.3650, 3.625000
120.5960, 104.1670
121.8270, 217.5088
123.0580, 606.1729
124.2880, 915.3750
125.5190, 941.2803
126.7490, 1018.926
127.9790, 1441.370
129.2090, 1534.914
130.4390, 1827.822
131.6680, 1933.083
132.8980, 2056.934
134.1270, 1998.600
135.3560, 1980.387
136.5850, 2009.530
137.8140, 1875.310
139.0430, 1720.804
140.2710, 1845.164
141.5000, 1581.702
142.7280, 1600.030
143.9560, 1775.750
145.1840, 1740.934
146.4120, 1930.066
147.6390, 1906.342
148.8670, 1939.744
150.0940, 1930.983
151.3210, 1884.973
152.5490, 1827.493
153.7750, 1640.148
155.0020, 1400.479
156.2290, 1111.474
157.4550, 731.1074
158.6810, 446.3594
159.9080, 265.2100
161.1340, 73.04883
162.3590, 47.61816
163.5850, 95.86426
164.8110, 93.76855
166.0360, 58.18555
167.2610, 212.1475
168.4860, 180.6924
169.7110, 133.8311
170.9360, 116.4326
172.1610, 23.09082
173.3850, 113.1426
174.6100, 23.58887
175.8340, 97.43359
177.0580, 1.321289
178.2820, 13.32715
179.5050, 16.37988
180.7290, 30.83691
181.9520, 132.2988
183.1760, 73.02539
184.3990, 70.34277
185.6220, 21.69238
186.8450, 51.25098
188.0670, 206.1670
189.2900, 322.7051
190.5120, 598.2363
191.7340, 696.3613
192.9560, 942.7783
194.1780, 1249.498
195.4000, 1268.514
196.6220, 1688.816
197.8430, 1815.395
199.0640, 2201.232
200.2860, 2477.316
201.5070, 2623.638
202.7270, 2945.191
203.9480, 3219.951
205.1690, 3339.886
206.3890, 3897.995
207.6090, 4283.287
208.8290, 4876.077
210.0490, 5776.561
211.2690, 6600.386
212.4890, 7702.410
213.7080, 9054.552
214.9280, 10080.65
216.1470, 11954.68
217.3660, 13640.58
218.5850, 15683.65
219.8030, 17567.95
221.0220, 19386.49
222.2400, 20298.27
223.4590, 20933.28
224.6770, 20833.46
225.8950, 19801.88
227.1120, 18561.58
228.3300, 16758.56
229.5480, 15512.82
230.7650, 13918.40
231.9820, 12800.26
233.1990, 11979.42
234.4160, 11167.87
235.6330, 10400.61
236.8490, 9970.644
238.0660, 9847.968
239.2820, 10009.58
240.4980, 9845.481
241.7140, 9770.676
242.9300, 9681.161
244.1460, 9652.937
245.3610, 9498.002
246.5770, 9000.358
247.7920, 8579.008
249.0070, 8121.946
250.2220, 7279.174
251.4370, 6759.691
252.6510, 6016.500
253.8660, 5409.595
255.0800, 4842.980
256.2940, 4607.654
257.5080, 4525.616
258.7220, 4119.518
259.9360, 4268.403
261.1490, 3637.228
262.3630, 3239.337
263.5760, 3069.734
264.7890, 3273.137
266.0020, 3409.975
267.2150, 3504.193
268.4270, 3730.613
269.6400, 3876.164
270.8520, 3929.809
272.0640, 4217.492
273.2760, 4363.205
274.4880, 4355.950
275.7000, 4361.729
276.9120, 4330.455
278.1230, 4258.088
279.3340, 4246.677
280.5450, 3803.262
281.7560, 4001.859
282.9670, 3519.503
284.1780, 3676.219
285.3880, 3412.021
286.5980, 3093.688
287.8090, 2902.869
289.0190, 2604.579
290.2290, 2133.881
291.4380, 1697.379
292.6480, 1190.100
293.8570, 780.0312
295.0670, 466.1914
296.2760, 251.4629
297.4850, 55.70020
298.6930, 31.51172
299.9020, 101.6445
301.1110, 43.54199
302.3190, 34.79688
303.5270, 336.3691
304.7350, 534.1748
305.9430, 1097.213
307.1510, 1364.514
308.3580, 1834.567
309.5660, 2074.410
310.7730, 2359.213
311.9800, 2661.932
313.1870, 2951.432
314.3940, 3193.606
315.6010, 3043.333
316.8070, 3380.390
318.0130, 3654.355
319.2200, 4016.852
320.4260, 4312.025
321.6310, 4903.954
322.8370, 5076.186
324.0430, 5610.510
325.2480, 6331.117
326.4540, 6701.958
327.6590, 7170.915
328.8640, 7250.373
330.0680, 7666.445
331.2730, 7710.726
332.4780, 7748.771
333.6820, 7531.092
334.8860, 7141.664
336.0900, 6992.498
337.2940, 6710.848
338.4980, 6448.301
339.7010, 6441.926
340.9050, 6191.629
342.1080, 5854.789
343.3110, 6019.193
344.5140, 5948.818
345.7170, 5855.668
346.9200, 6044.741
348.1220, 6239.037
349.3240, 6052.545
350.5270, 6146.264
351.7290, 6493.184
352.9310, 6719.311
354.1320, 7066.633
355.3340, 7644.141
356.5350, 8104.848
357.7370, 8815.750
358.9380, 9623.848
360.1390, 10586.36
361.3400, 11816.64
362.5400, 12933.33
363.7410, 14351.23
364.9410, 15806.32
366.1410, 17412.61
367.3410, 19326.10
368.5410, 21282.78
369.7410, 23472.67
370.9400, 25829.75
372.1400, 28404.03
373.3390, 30562.50
374.5380, 32738.17
375.7370, 34336.03
376.9360, 34936.08
378.1350, 34409.32
379.3330, 33423.79
380.5310, 31449.42
381.7300, 28579.25
382.9280, 25837.27
384.1260, 23136.48
385.3230, 20463.88
386.5210, 18168.46
387.7180, 16136.23
388.9160, 14552.20
390.1130, 13293.33
391.3100, 12406.66
392.5060, 11887.17
393.7030, 11536.87
394.9000, 11207.74
396.0960, 11281.80
397.2920, 11150.04
398.4880, 11395.46
399.6840, 11403.07
400.8800, 11749.85
402.0750, 12095.81
403.2710, 12336.96
404.4660, 12961.33
405.6610, 12666.91
406.8560, 12766.72
408.0510, 12837.76
409.2450, 12469.05
410.4400, 12180.57
411.6340, 11888.32
412.8280, 11057.30
414.0220, 10163.47
415.2160, 8871.840
416.4100, 7612.399
417.6030, 6517.148
418.7970, 5439.092
419.9900, 4473.223
421.1830, 3623.548
422.3760, 2793.065
423.5690, 2003.775
424.7610, 1645.680
425.9540, 1095.778
427.1460, 804.0713
428.3380, 437.5566
429.5300, 465.2383
430.7220, 250.1143
431.9140, 260.1875
433.1050, 256.4619
434.2970, 406.9375
435.4880, 484.6152
436.6790, 597.4248
437.8700, 734.8545
439.0610, 891.8516
440.2510, 994.3301
441.4420, 1202.009
442.6320, 1320.686
443.8220, 1490.901
445.0120, 1612.875
446.2020, 1695.341
447.3910, 1896.002
448.5810, 2148.858
449.7700, 2188.908
450.9600, 2226.169
452.1490, 2102.641
453.3370, 1914.355
454.5260, 1848.310
455.7150, 1752.490
456.9030, 1670.932
458.0910, 1722.625
459.2800, 1452.553
460.4670, 1406.667
461.6550, 1460.972
462.8430, 1299.462
464.0300, 1233.139
465.2180, 1101.794
466.4050, 1032.734
467.5920, 935.0215
468.7790, 882.3779
469.9650, 797.4297
471.1520, 665.1924
472.3380, 582.8486
473.5250, 464.1963
474.7110, 443.8799
475.8970, 326.5781
477.0820, 35.33887
478.2680, 17.69629
479.4540, 31.79199
480.6390, 2.298828
481.8240, 98.52344
483.0090, 84.03125
484.1940, 145.2139
485.3780, 21.57910
486.5630, 52.17383
487.7470, 96.61816
488.9320, 152.4424
490.1160, 266.5303
491.3000, 246.1709
492.4830, 331.0527
493.6670, 455.4482
494.8500, 674.1357
496.0340, 804.2852
497.2170, 1004.583
498.4000, 1340.023
499.5820, 1631.610
500.7650, 1798.338
501.9480, 2216.209
503.1300, 2480.228
504.3120, 2879.387
505.4940, 3208.707
506.6760, 3563.570
507.8580, 3909.799
509.0390, 4284.559
510.2210, 4649.475
511.4020, 4975.530
512.5830, 5187.736
513.7640, 5524.085
514.9450, 5914.571
516.1250, 5906.201
517.3060, 6012.961
518.4860, 6277.854
519.6660, 6051.885
520.8460, 6038.263
522.0260, 5972.545
523.2060, 5589.953
524.3850, 5565.485
525.5650, 5204.141
526.7440, 5158.918
527.9230, 5214.818
529.1020, 5425.853
530.2810, 5631.007
531.4590, 5901.301
532.6380, 6377.733
533.8160, 6856.336
534.9940, 7245.156
536.1720, 7687.131
537.3500, 8132.332
538.5270, 8148.711
539.7050, 8386.300
540.8820, 8230.096
542.0590, 8415.096
543.2360, 8555.312
544.4130, 8338.727
545.5900, 8087.276
546.7660, 7852.092
547.9430, 7861.409
549.1190, 7637.949
550.2950, 7655.335
551.4710, 7800.262
552.6470, 7823.880
553.8220, 7766.087
554.9980, 7638.397
556.1730, 7554.770
557.3480, 7528.874
558.5230, 7176.088
559.6980, 7169.404
560.8730, 6865.813
562.0470, 6634.314
563.2220, 6469.908
564.3960, 5978.592
565.5700, 5642.363
566.7440, 5289.225
567.9170, 5072.174
569.0910, 4712.211
570.2640, 4226.336
571.4380, 3949.539
572.6110, 3559.821
573.7840, 3232.196
574.9570, 2919.660
576.1290, 2653.201
577.3020, 2595.816
578.4740, 2307.922
579.6460, 2139.262
580.8180, 1951.088
581.9900, 1741.976
583.1620, 1645.925
584.3330, 1569.934
585.5040, 1327.005
586.6760, 1311.134
587.8470, 1167.316
589.0180, 1116.552
590.1880, 1205.840
591.3590, 938.1777
592.5290, 673.5635
593.7000, 771.9990
594.8700, 471.4785
596.0400, 438.0049
597.2090, 520.5723
598.3790, 290.1816
599.5490, 290.8320
600.7180, 224.5186
601.8870, 100.2432
603.0560, 137.0039
604.2250, 39.01758
605.3940, 2.375977
606.5620, 58.52832
607.7300, 57.68164
608.8990, 77.83691
610.0670, 64.00293
611.2350, 106.0273
612.4020, 78.37988
613.5700, 222.5996
614.7370, 182.8984
615.9050, 316.2617
617.0720, 191.7500
618.2390, 237.3096
619.4060, 313.9648
620.5720, 287.9922
621.7390, 307.8037
622.9050, 177.9844
624.0710, 247.9053
625.2370, 165.1318
626.4030, 61.43652
627.5690, 47.77734
628.7340, 104.1543
629.9000, 57.58301
631.0650, 21.05078
632.2300, 0.4541020
633.3950, 37.59082
634.5600, 21.42285
635.7240, 109.8896
636.8890, 231.3594
638.0530, 308.8311
639.2170, 459.3018
640.3810, 591.7715
641.5450, 589.2412
642.7080, 863.8164
643.8720, 695.2773
645.0350, 669.3799
646.1980, 795.2676
647.3610, 808.8965
648.5240, 556.3877
649.6870, 507.3994
650.8490, 353.6758
652.0120, 402.9980
653.1740, 311.7100
654.3360, 222.7305
655.4980, 267.4268
656.6600, 268.2432
657.8210, 215.4785
658.9830, 265.8467
660.1440, 72.38086
661.3050, 264.8838
662.4660, 251.2578
663.6270, 154.4121
664.7870, 239.5381
665.9480, 288.5898
667.1080, 321.6592
668.2680, 287.2598
669.4280, 486.4365
670.5880, 498.0674
671.7480, 490.9023
672.9070, 813.6768
674.0670, 697.8613
675.2260, 776.9150
676.3850, 667.5410
677.5440, 660.2783
678.7030, 701.5381
679.8610, 643.2168
681.0200, 570.9453
682.1780, 597.1094
683.3360, 402.3857
684.4940, 0.3486330
685.6520, 41.11230
686.8090, 9.814453
687.9670, 10.28906
689.1240, 32.30762
690.2810, 55.86328
691.4380, 92.67969
692.5950, 44.99902
693.7520, 271.0244
694.9080, 331.3857
696.0650, 498.7139
697.2210, 565.6729
698.3770, 873.5488
699.5330, 1038.006
700.6880, 1316.599
701.8440, 1649.020
702.9990, 1966.156
704.1550, 2245.842
705.3100, 2800.852
706.4650, 3150.596
707.6190, 3734.652
708.7740, 4301.029
709.9290, 4888.334
711.0830, 5686.738
712.2370, 6728.562
713.3910, 7652.631
714.5450, 8773.400
715.6980, 10031.41
716.8520, 11800.82
718.0050, 13356.64
719.1580, 16038.79
720.3110, 18661.39
721.4640, 21813.98
722.6170, 25479.12
723.7700, 29292.17
724.9220, 34073.12
726.0740, 38604.98
727.2260, 43344.74
728.3780, 47158.41
729.5300, 50500.00
730.6810, 52169.46
731.8330, 52358.84
732.9840, 50788.13
734.1350, 48101.32
735.2860, 43910.39
736.4370, 39371.39
737.5880, 34900.28
738.7380, 30186.07
739.8880, 26520.76
741.0390, 23011.35
742.1890, 20279.84
743.3380, 17655.22
744.4880, 15603.71
745.6380, 13958.95
746.7870, 12414.02
747.9360, 11081.51
749.0850, 10031.45
750.2340, 9013.828
751.3830, 8341.239
752.5310, 7707.621
753.6800, 7193.742
754.8280, 6554.917
755.9760, 6101.098
757.1240, 5594.746
758.2720, 5384.306
759.4190, 5037.947
760.5670, 4795.369
761.7140, 4316.129
762.8610, 4014.193
764.0080, 3709.195
765.1550, 3395.026
766.3020, 3106.300
767.4480, 2776.705
768.5950, 2434.047
769.7410, 2147.099
770.8870, 1882.758
772.0330, 1614.594
773.1780, 1381.745
774.3240, 1050.840
775.4690, 792.0264
776.6140, 845.7861
777.7590, 498.6211
778.9040, 479.7744
780.0490, 304.4180
781.1940, 488.9932
782.3380, 134.1211
783.4820, 181.9678
784.6260, 308.6836
785.7700, 321.2871
786.9140, 137.7812
788.0580, 341.1318
789.2010, 165.3750
790.3450, 308.4805
791.4880, 286.4746
792.6310, 246.3516
793.7730, 391.1084
794.9160, 348.7598
796.0590, 315.3008
797.2010, 543.7295
798.3430, 426.8340
799.4850, 449.0605
800.6270, 594.1846
801.7690, 549.2109
802.9100, 359.1367
804.0520, 549.9541
805.1930, 244.6729
806.3340, 346.2695
807.4750, 138.7539
808.6160, 129.0977
809.7560, 33.70117
810.8970, 232.7051
812.0370, 6.981445
813.1770, 258.5146
814.3170, 89.33301
815.4570, 221.3818
816.5960, 200.7334
817.7360, 219.3730
818.8750, 244.3096
820.0140, 184.5566
821.1530, 330.0820
822.2920, 117.8652
823.4310, 181.9814
824.5690, 47.67285
825.7070, 28.63379
826.8460, 82.48047
827.9840, 90.91797
829.1220, 11.10156
830.2590, 84.90625
831.3970, 67.13184
832.5340, 16.90918
833.6710, 30.28320
834.8080, 71.34180
835.9450, 221.2773
837.0820, 202.1113
838.2190, 131.8408
839.3550, 221.4580
840.4910, 169.0742
841.6270, 134.3867
842.7630, 146.6895
843.8990, 115.8857
845.0350, 88.97266
846.1700, 248.9453
847.3060, 224.8242
848.4410, 1.393555
849.5760, 21.26074
850.7100, 158.7949
851.8450, 129.2275
852.9800, 280.5576
854.1140, 124.7988
855.2480, 285.9375
856.3820, 384.9902
857.5160, 365.9590
858.6500, 600.8447
859.7830, 518.6523
860.9170, 699.3809
862.0500, 771.0303
863.1830, 713.6025
864.3160, 753.0977
865.4480, 795.5166
866.5810, 902.8584
867.7130, 1008.124
868.8460, 1068.315
869.9780, 1151.432
871.1100, 1120.473
872.2410, 1082.441
873.3730, 1246.335
874.5050, 1271.156
875.6360, 1311.905
876.7670, 1367.472
877.8980, 1349.189
879.0290, 1353.726
880.1590, 1397.191
881.2900, 1281.593
882.4200, 1166.940
883.5500, 1315.234
884.6800, 1310.480
885.8100, 1132.675
886.9400, 1131.830
888.0690, 959.9385
889.1990, 1135.031
890.3280, 992.1016
891.4570, 1071.179
892.5860, 948.2383
893.7140, 771.2891
894.8430, 858.3496
895.9710, 712.4150
897.1000, 644.4922
898.2280, 560.5518
899.3560, 520.6113
900.4830, 450.9434
901.6110, 382.6582
902.7380, 345.6221
903.8660, 326.5605
904.9930, 295.4619
906.1200, 250.3428
907.2460, 157.1963
908.3730, 149.9932
909.5000, 236.7383
910.6260, 188.4287
911.7520, 264.0586
912.8780, 219.6562
914.0040, 117.2119
915.1290, 212.7217
916.2550, 199.0957
917.3800, 279.5254
918.5050, 349.2939
919.6300, 315.2266
920.7550, 450.3613
921.8800, 413.5918
923.0040, 608.2715
924.1290, 597.6377
925.2530, 755.9316
926.3770, 691.7988
927.5010, 838.3232
928.6250, 1025.120
929.7480, 1158.756
930.8720, 1221.931
931.9950, 1386.639
933.1180, 1509.723
934.2410, 1577.557
935.3640, 1555.353
936.4860, 1720.372
937.6090, 1822.357
938.7310, 1885.459
939.8530, 2026.255
940.9750, 2018.575
942.0970, 1981.248
943.2180, 2144.408
944.3400, 2251.297
945.4610, 2083.200
946.5820, 2129.662
947.7030, 2218.221
948.8240, 2175.182
949.9450, 2099.812
951.0650, 2031.234
952.1860, 2122.002
953.3060, 2121.667
954.4260, 2246.835
955.5460, 2148.830
956.6650, 2147.786
957.7850, 2047.456
958.9040, 2104.398
960.0230, 2233.189
961.1420, 2214.562
962.2610, 2290.034
963.3800, 2229.303
964.4990, 2422.857
965.6170, 2554.129
966.7350, 2318.980
967.8530, 2490.781
968.9710, 2685.869
970.0890, 2638.957
971.2070, 2734.381
972.3240, 2814.586
973.4410, 2907.880
974.5580, 3035.423
975.6750, 3184.234
976.7920, 3284.691
977.9090, 3432.332
979.0250, 3522.575
980.1410, 3516.430
981.2580, 3646.269
982.3740, 3686.923
983.4890, 3676.070
984.6050, 3497.888
985.7200, 3296.918
986.8360, 3408.613
987.9510, 3282.832
989.0660, 3411.547
990.1810, 3430.854
991.2950, 3342.604
992.4100, 3230.284
993.5240, 3179.325
994.6390, 3057.369
995.7530, 3003.416
996.8660, 2983.469
997.9800, 3015.526
999.0940, 2944.588
1000.207, 3029.653
1001.320, 3111.724
1002.433, 3180.800
1003.546, 3194.880
1004.659, 3417.968
1005.772, 3301.059
1006.884, 3236.156
1007.996, 3377.262
1009.108, 3617.373
1010.220, 3534.491
1011.332, 3617.617
1012.444, 3761.751
1013.555, 3745.893
1014.666, 4187.041
1015.777, 4461.199
1016.888, 4493.365
1017.999, 4756.541
1019.110, 4857.725
1020.220, 5234.918
1021.331, 5433.119
1022.441, 5668.331
1023.551, 5907.553
1024.661, 6208.781
1025.770, 6352.020
1026.880, 6398.270
1027.989, 6689.527
1029.098, 7086.795
1030.207, 7295.070
1031.316, 7306.356
1032.425, 7636.650
1033.533, 7731.953
1034.642, 7819.272
1035.750, 7984.594
1036.858, 8515.095
1037.966, 8478.351
1039.073, 8990.640
1040.181, 9275.225
1041.288, 9522.175
1042.396, 9908.527
1043.503, 10154.07
1044.610, 10656.11
1045.716, 11065.71
1046.823, 11444.24
1047.929, 11961.03
1049.036, 12707.92
1050.142, 13301.44
1051.248, 13937.69
1052.353, 14483.54
1053.459, 15122.49
1054.564, 16146.64
1055.670, 17117.25
1056.775, 18313.60
1057.880, 19324.56
1058.985, 20321.46
1060.089, 21707.31
1061.194, 23133.72
1062.298, 24274.05
1063.402, 25689.65
1064.506, 27184.52
1065.610, 28049.73
1066.713, 28845.65
1067.817, 29309.21
1068.920, 29262.49
1070.023, 28837.45
1071.126, 28279.49
1072.229, 27484.58
1073.332, 26134.16
1074.435, 24633.24
1075.537, 23010.33
1076.639, 21225.83
1077.741, 19355.74
1078.843, 17830.64
1079.945, 16257.36
1081.046, 14780.42
1082.148, 13310.44
1083.249, 11995.92
1084.350, 10914.83
1085.451, 9822.520
1086.551, 8757.995
1087.652, 7866.891
1088.752, 6876.816
1089.853, 6243.010
1090.953, 5647.457
1092.053, 5039.611
1093.152, 4672.383
1094.252, 4250.348
1095.351, 3821.742
1096.451, 3429.325
1097.550, 3357.993
1098.649, 3289.772
1099.748, 3033.312
1100.846, 2774.869
1101.945, 2615.256
1103.043, 2623.657
1104.141, 2503.064
1105.239, 2437.477
1106.337, 2131.900
1107.434, 2159.701
1108.532, 1914.334
1109.629, 1964.202
1110.726, 1933.797
1111.823, 1880.868
1112.920, 1816.798
1114.017, 1703.861
1115.113, 1632.336
1116.210, 1546.117
1117.306, 1509.049
1118.402, 1531.811
1119.498, 1378.736
1120.593, 1538.256
1121.689, 1515.781
1122.784, 1523.307
1123.879, 1407.912
1124.974, 1275.429
1126.069, 1387.940
1127.164, 1426.446
1128.259, 1246.376
1129.353, 1244.087
1130.447, 1249.576
1131.541, 1336.172
1132.635, 1235.648
1133.729, 1455.119
1134.822, 1460.581
1135.916, 1366.038
1137.009, 1572.488
1138.102, 1577.931
1139.195, 1629.365
1140.288, 1598.791
1141.380, 1575.211
1142.473, 1699.623
1143.565, 1725.027
1144.657, 1472.423
1145.749, 1519.810
1146.841, 1399.188
1147.932, 1217.559
1149.024, 1165.920
1150.115, 1042.271
1151.206, 900.6133
1152.297, 710.9473
1153.388, 787.2705
1154.479, 625.5840
1155.569, 509.8867
1156.659, 211.1807
1157.750, 358.4639
1158.839, 275.7363
1159.929, 223.9971
1161.019, 230.2480
1162.108, 111.4883
1163.198, 113.7168
1164.287, 108.9346
1165.376, 74.13867
1166.465, 186.3330
1167.553, 36.51465
1168.642, 150.6816
1169.730, 104.1621
1170.818, 94.06543
1171.906, 7.976563
1172.994, 12.99414
1174.082, 4.984375
1175.170, 40.00781
1176.257, 100.0117
1177.344, 68.09473
1178.431, 61.22363
1179.518, 118.3955
1180.605, 0.6416020
1181.691, 147.9053
1182.778, 41.26172
1183.864, 7.340820
1184.950, 75.07520
1186.036, 112.5498
1187.122, 43.10254
1188.207, 130.6982
1189.292, 96.38379
1190.378, 94.14355
1191.463, 37.97363
1192.548, 82.84961
1193.632, 69.79297
1194.717, 72.79785
1195.801, 92.86816
1196.886, 71.13184
1197.970, 64.22168
1199.054, 23.49316
1200.137, 6.804688
1201.221, 62.84961
1202.305, 53.06543
1203.388, 42.90137
1204.471, 64.65918
1205.554, 16.80176
1206.637, 13.69727
1207.719, 74.83008
1208.802, 136.4326
1209.884, 115.1396
1210.966, 150.7031
1212.048, 67.86230
1213.130, 152.8564
1214.212, 13.96680
1215.293, 40.12402
1216.374, 34.34277
1217.456, 20.61914
1218.536, 70.95020
1219.617, 86.35938
1220.698, 33.14355
1221.778, 14.61719
1222.859, 5.053711
1223.939, 22.44629
1225.019, 2.194336
1226.099, 72.11816
1227.178, 60.40039
1228.258, 46.65625
1229.337, 107.8809
1230.417, 112.0771
1231.496, 188.2480
1232.574, 219.5605
1233.653, 220.9668
1234.732, 239.5996
1235.810, 205.6729
1236.888, 70.71973
1237.966, 21.73730
1239.044, 58.71387
1240.122, 126.6660
1241.199, 17.41113
1242.277, 149.4521
1243.354, 211.2871
1244.431, 198.0957
1245.508, 92.87793
1246.585, 60.63086
1247.661, 102.3525
1248.738, 65.04395
1249.814, 166.7070
1250.890, 214.3418
1251.966, 183.9502
1253.042, 141.5303
1254.117, 266.0830
1255.193, 261.6094
1256.268, 219.1084
1257.343, 59.58008
1258.418, 110.0205
1259.493, 306.4316
1260.567, 134.8164
1261.642, 336.1738
1262.716, 391.5029
1263.790, 286.8066
1264.864, 336.0830
1265.938, 430.3330
1267.011, 457.5557
1268.085, 509.7520
1269.158, 385.9209
1270.231, 265.0645
1271.304, 541.1816
1272.377, 414.2715
1273.450, 459.3359
1274.522, 403.3740
1275.594, 576.3857
1276.666, 405.3711
1277.738, 348.3311
1278.810, 554.2637
1279.882, 385.1719
1280.953, 555.0537
1282.025, 488.9092
1283.096, 633.7402
1284.167, 510.5449
1285.238, 412.3252
1286.308, 534.0781
1287.379, 493.8066
1288.449, 421.5107
1289.519, 563.1895
1290.589, 370.8428
1291.659, 604.4717
1292.729, 530.0752
1293.798, 523.6553
