##NAMES=Elbaite
##RRUFFID=R060560
##IDEAL CHEMISTRY=Na(Al_1.5_Li_1.5_)Al_6_(Si_6_O_18_)(BO_3_)_3_(OH)_3_OH
##LOCALITY=California, USA
##OWNER=RRUFF
##SOURCE=Gemological Institute of America
##DESCRIPTION=Pink fragment
##STATUS=The identification of this mineral has been confirmed by X-ray diffraction and chemical analysis
##URL=rruff.info/R060560
##MEASURED CHEMISTRY=(Na_0.56_Ca_0.12_[box]_0.32_)(Al_1.60_Li_1.40_)Al_6_(BO_3_)_3_[Si_6_O_18_](OH)_4_
##PIN_ID=L01799
##ORIENTATION=Laser parallel to -a* (-1 0 0). Fiducial mark perpendicular to laser is parallel to -c [0 0 -1]
118.1340, 0.0000000E+00
119.3650, 29.91895
120.5960, 63.13281
121.8270, 153.6855
123.0580, 248.2710
124.2880, 268.8340
125.5190, 75.31348
126.7490, 96.97656
127.9790, 39.99365
129.2090, 62.30078
130.4390, 27.77637
131.6680, 11.40771
132.8980, 1.754395
134.1270, 63.95996
135.3560, 10.84326
136.5850, 8.463867
137.8140, 60.00146
139.0430, 211.1196
140.2710, 132.7715
141.5000, 260.8481
142.7280, 384.2515
143.9560, 420.9028
145.1840, 466.7402
146.4120, 706.7134
147.6390, 776.7812
148.8670, 885.9023
150.0940, 907.0332
151.3210, 966.1338
152.5490, 927.1631
153.7750, 768.0830
155.0020, 726.8555
156.2290, 569.4263
157.4550, 420.7285
158.6810, 307.7012
159.9080, 169.2925
161.1340, 267.4653
162.3590, 259.1904
163.5850, 182.4409
164.8110, 226.1953
166.0360, 265.4390
167.2610, 169.1675
168.4860, 249.4009
169.7110, 307.1494
170.9360, 262.4141
172.1610, 267.1978
173.3850, 118.5088
174.6100, 166.3555
175.8340, 50.72266
177.0580, 168.5874
178.2820, 48.92822
179.5050, 174.7266
180.7290, 29.96338
181.9520, 119.6230
183.1760, 276.6909
184.3990, 247.1509
185.6220, 338.9922
186.8450, 481.2002
188.0670, 673.7642
189.2900, 926.6743
190.5120, 1131.919
191.7340, 1400.441
192.9560, 1747.055
194.1780, 1998.729
195.4000, 2650.439
196.6220, 2923.161
197.8430, 3509.909
199.0640, 4066.703
200.2860, 4584.563
201.5070, 5176.540
202.7270, 5953.645
203.9480, 6511.885
205.1690, 7149.269
206.3890, 8104.803
207.6090, 9177.494
208.8290, 10498.34
210.0490, 11826.36
211.2690, 13390.53
212.4890, 15315.93
213.7080, 17485.55
214.9280, 19641.46
216.1470, 22779.87
217.3660, 25544.86
218.5850, 28487.32
219.8030, 31102.19
221.0220, 33415.43
222.2400, 34631.95
223.4590, 35071.80
224.6770, 34204.10
225.8950, 32315.82
227.1120, 30480.97
228.3300, 27703.59
229.5480, 25560.70
230.7650, 23521.03
231.9820, 21774.47
233.1990, 20642.00
234.4160, 19789.62
235.6330, 18962.34
236.8490, 18734.16
238.0660, 18829.08
239.2820, 19042.10
240.4980, 19427.21
241.7140, 19886.43
242.9300, 20286.75
244.1460, 20532.16
245.3610, 20681.67
246.5770, 20533.28
247.7920, 20172.34
249.0070, 19691.81
250.2220, 18824.71
251.4370, 17926.73
252.6510, 16770.83
253.8660, 15422.04
255.0800, 14787.33
256.2940, 13829.73
257.5080, 13258.22
258.7220, 13000.80
259.9360, 12366.49
261.1490, 12104.26
262.3630, 11703.13
263.5760, 11339.10
264.7890, 11577.27
266.0020, 11581.36
267.2150, 11466.90
268.4270, 11713.16
269.6400, 11586.23
270.8520, 11629.16
272.0640, 11335.76
273.2760, 11039.97
274.4880, 10897.69
275.7000, 10208.23
276.9120, 9590.145
278.1230, 8677.492
279.3340, 7912.035
280.5450, 6987.635
281.7560, 6184.805
282.9670, 5256.123
284.1780, 4413.766
285.3880, 3797.633
286.5980, 3110.717
287.8090, 2624.012
289.0190, 2250.513
290.2290, 1910.211
291.4380, 1563.105
292.6480, 1402.188
293.8570, 1213.455
295.0670, 1130.902
296.2760, 1188.523
297.4850, 1111.316
298.6930, 1082.275
299.9020, 1159.398
301.1110, 1187.680
302.3190, 1266.116
303.5270, 1467.705
304.7350, 1779.973
305.9430, 1850.607
307.1510, 2270.473
308.3580, 2714.645
309.5660, 2963.525
310.7730, 3431.712
311.9800, 3878.892
313.1870, 4273.947
314.3940, 4446.734
315.6010, 4389.107
316.8070, 4157.640
318.0130, 3797.852
319.2200, 3704.887
320.4260, 3304.492
321.6310, 3022.328
322.8370, 2919.114
324.0430, 2897.396
325.2480, 2691.140
326.4540, 2720.881
327.6590, 2678.936
328.8640, 2649.687
330.0680, 2696.578
331.2730, 2545.345
332.4780, 2573.127
333.6820, 2429.971
334.8860, 2375.323
336.0900, 2386.797
337.2940, 2428.399
338.4980, 2446.374
339.7010, 2614.666
340.9050, 2731.853
342.1080, 2752.383
343.3110, 2980.655
344.5140, 3198.015
345.7170, 3424.457
346.9200, 3625.986
348.1220, 3916.598
349.3240, 4411.296
350.5270, 4886.075
351.7290, 5160.939
352.9310, 5674.885
354.1320, 6515.914
355.3340, 7326.025
356.5350, 8256.218
357.7370, 9366.489
358.9380, 10625.84
360.1390, 12167.27
361.3400, 14275.78
362.5400, 16471.36
363.7410, 19166.01
364.9410, 22497.74
366.1410, 25997.53
367.3410, 29858.39
368.5410, 33979.32
369.7410, 38484.30
370.9400, 42883.37
372.1400, 46096.48
373.3390, 47704.66
374.5380, 48032.88
375.7370, 46600.17
376.9360, 43858.52
378.1350, 40024.93
379.3330, 36183.38
380.5310, 32203.89
381.7300, 27928.46
382.9280, 24700.09
384.1260, 21725.76
385.3230, 19461.50
386.5210, 17732.29
387.7180, 16722.13
388.9160, 15644.03
390.1130, 14714.98
391.3100, 14352.99
392.5060, 14027.05
393.7030, 14060.17
394.9000, 14286.33
396.0960, 14576.56
397.2920, 14908.84
398.4880, 15115.17
399.6840, 15426.56
400.8800, 16033.00
402.0750, 16498.50
403.2710, 16646.05
404.4660, 16707.66
405.6610, 16806.32
406.8560, 16663.04
408.0510, 16367.80
409.2450, 16007.65
410.4400, 15222.59
411.6340, 14383.61
412.8280, 13540.73
414.0220, 12034.93
415.2160, 11155.22
416.4100, 9860.609
417.6030, 8628.096
418.7970, 7528.681
419.9900, 6378.355
421.1830, 5567.130
422.3760, 4852.998
423.5690, 3884.954
424.7610, 3248.004
425.9540, 2884.141
427.1460, 2578.360
428.3380, 2075.664
429.5300, 1895.051
430.7220, 1698.518
431.9140, 1281.066
433.1050, 1174.695
434.2970, 1071.405
435.4880, 906.1934
436.6790, 838.0596
437.8700, 733.0049
439.0610, 539.0264
440.2510, 527.1240
441.4420, 329.2988
442.6320, 364.5479
443.8220, 200.8740
445.0120, 149.2725
446.2020, 260.7451
447.3910, 12.29199
448.5810, 59.10156
449.7700, 6.537109
450.9600, 39.23438
452.1490, 74.00195
453.3370, 116.2148
454.5260, 249.4219
455.7150, 262.1133
456.9030, 309.0068
458.0910, 261.4131
459.2800, 242.8799
460.4670, 156.4043
461.6550, 227.9424
462.8430, 37.53125
464.0300, 200.0889
465.2180, 136.6816
466.4050, 64.28711
467.5920, 90.87305
468.7790, 68.45117
469.9650, 229.0127
471.1520, 239.6279
472.3380, 203.3027
473.5250, 199.0195
474.7110, 215.7764
475.8970, 215.0723
477.0820, 259.4395
478.2680, 247.3662
479.4540, 310.3564
480.6390, 321.4375
481.8240, 215.6191
483.0090, 54.85059
484.1940, 27.93750
485.3780, 114.7783
486.5630, 289.6816
487.7470, 385.3760
488.9320, 530.6719
490.1160, 609.7598
491.3000, 805.9102
492.4830, 844.1211
493.6670, 1037.394
494.8500, 1452.728
496.0340, 1613.121
497.2170, 1701.576
498.4000, 2176.090
499.5820, 2322.665
500.7650, 2580.301
501.9480, 3005.995
503.1300, 3592.749
504.3120, 3751.563
505.4940, 4138.436
506.6760, 4448.366
507.8580, 4745.359
509.0390, 5083.408
510.2210, 5256.518
511.4020, 5565.684
512.5830, 5611.908
513.7640, 5840.191
514.9450, 6035.532
516.1250, 6150.932
517.3060, 6178.391
518.4860, 6309.906
519.6660, 5840.479
520.8460, 5796.108
522.0260, 5336.797
523.2060, 5007.541
524.3850, 4735.349
525.5650, 4250.213
526.7440, 3975.144
527.9230, 3589.160
529.1020, 3508.238
530.2810, 3343.384
531.4590, 3373.612
532.6380, 3179.928
533.8160, 3059.358
534.9940, 3098.902
536.1720, 2906.523
537.3500, 2773.254
538.5270, 2615.084
539.7050, 2611.027
540.8820, 2407.081
542.0590, 2213.263
543.2360, 2041.554
544.4130, 1799.967
545.5900, 1702.475
546.7660, 1498.108
547.9430, 1438.857
549.1190, 1251.722
550.2950, 1119.689
551.4710, 1172.777
552.6470, 1106.972
553.8220, 1039.261
554.9980, 989.6660
556.1730, 993.1973
557.3480, 923.8633
558.5230, 828.5430
559.6980, 812.3506
560.8730, 693.2344
562.0470, 590.2148
563.2220, 615.2949
564.3960, 627.4873
565.5700, 572.7725
566.7440, 568.1592
567.9170, 503.6289
569.0910, 556.1875
570.2640, 561.8301
571.4380, 564.5352
572.6110, 696.3193
573.7840, 729.1562
574.9570, 685.0625
576.1290, 696.0234
577.3020, 795.0459
578.4740, 921.1240
579.6460, 969.2539
580.8180, 1053.668
581.9900, 1137.668
583.1620, 1146.948
584.3330, 1123.273
585.5040, 1108.645
586.6760, 1081.060
587.8470, 1333.516
589.0180, 1261.485
590.1880, 1195.274
591.3590, 1334.019
592.5290, 1208.641
593.7000, 1167.732
594.8700, 1190.694
596.0400, 1161.837
597.2090, 1116.277
598.3790, 1089.156
599.5490, 1106.617
600.7180, 1051.034
601.8870, 1122.034
603.0560, 1001.318
604.2250, 985.1924
605.3940, 1001.991
606.5620, 1026.992
607.7300, 1157.649
608.8990, 966.9922
610.0670, 1095.484
611.2350, 1035.808
612.4020, 1194.578
613.5700, 1185.349
614.7370, 1194.382
615.9050, 1360.539
617.0720, 1367.771
618.2390, 1478.629
619.4060, 1836.189
620.5720, 1804.370
621.7390, 1917.004
622.9050, 2181.451
624.0710, 2569.136
625.2370, 2898.607
626.4030, 3479.467
627.5690, 3911.375
628.7340, 4302.326
629.9000, 4972.323
631.0650, 5655.363
632.2300, 6506.450
633.3950, 7298.580
634.5600, 7938.752
635.7240, 8659.967
636.8890, 9452.226
638.0530, 9828.525
639.2170, 10234.87
640.3810, 10337.25
641.5450, 10147.67
642.7080, 10165.14
643.8720, 9597.638
645.0350, 9334.183
646.1980, 8780.763
647.3610, 8368.382
648.5240, 8094.039
649.6870, 7610.734
650.8490, 7426.465
652.0120, 7081.234
653.1740, 7045.039
654.3360, 6648.879
655.4980, 6347.754
656.6600, 5983.664
657.8210, 5799.607
658.9830, 5222.587
660.1440, 5024.598
661.3050, 4525.643
662.4660, 4016.721
663.6270, 3787.673
664.7870, 3309.844
665.9480, 2895.751
667.1080, 2593.754
668.2680, 2224.077
669.4280, 2084.304
670.5880, 1820.770
671.7480, 1762.967
672.9070, 1656.153
674.0670, 1572.416
675.2260, 1541.679
676.3850, 1526.096
677.5440, 1481.251
678.7030, 1609.173
679.8610, 1429.418
681.0200, 1623.069
682.1780, 1668.600
683.3360, 1924.422
684.4940, 1799.563
685.6520, 2053.716
686.8090, 2167.398
687.9670, 2502.199
689.1240, 2887.672
690.2810, 3315.160
691.4380, 3878.770
692.5950, 4110.379
693.7520, 4674.467
694.9080, 5502.777
696.0650, 6185.838
697.2210, 7080.747
698.3770, 8188.568
699.5330, 9415.614
700.6880, 10891.42
701.8440, 12508.22
702.9990, 14362.16
704.1550, 16081.65
705.3100, 17909.93
706.4650, 19567.44
707.6190, 20947.03
708.7740, 22185.78
709.9290, 22776.54
711.0830, 22763.97
712.2370, 22472.13
713.3910, 21872.76
714.5450, 20621.50
715.6980, 19255.37
716.8520, 17652.28
718.0050, 15768.92
719.1580, 14163.22
720.3110, 12643.10
721.4640, 11192.82
722.6170, 9652.216
723.7700, 8762.438
724.9220, 7525.434
726.0740, 7054.131
727.2260, 6493.734
728.3780, 5908.045
729.5300, 5547.758
730.6810, 5128.795
731.8330, 5147.232
732.9840, 4996.514
734.1350, 4876.805
735.2860, 4870.691
736.4370, 4986.064
737.5880, 5112.492
738.7380, 5058.959
739.8880, 5399.465
741.0390, 5545.987
742.1890, 5866.543
743.3380, 6045.107
744.4880, 6219.684
745.6380, 6514.271
746.7870, 6471.857
747.9360, 6425.444
749.0850, 6271.029
750.2340, 6007.644
751.3830, 5576.293
752.5310, 5152.967
753.6800, 4625.664
754.8280, 4310.390
755.9760, 3851.142
757.1240, 3301.930
758.2720, 2937.750
759.4190, 2543.617
760.5670, 2190.534
761.7140, 2055.476
762.8610, 1630.405
764.0080, 1566.307
765.1550, 1291.175
766.3020, 1012.010
767.4480, 813.8086
768.5950, 729.5742
769.7410, 692.3047
770.8870, 552.9990
772.0330, 495.6572
773.1780, 407.2793
774.3240, 311.8643
775.4690, 305.5938
776.6140, 257.9219
777.7590, 279.3936
778.9040, 303.8252
780.0490, 275.2197
781.1940, 244.5742
782.3380, 312.8887
783.4820, 270.4922
784.6260, 316.3984
785.7700, 251.5908
786.9140, 338.7422
788.0580, 330.8525
789.2010, 283.9219
790.3450, 294.9463
791.4880, 328.9297
792.6310, 422.8691
793.7730, 332.7656
794.9160, 341.6182
796.0590, 258.4277
797.2010, 313.1924
798.3430, 328.9121
799.4850, 215.5869
800.6270, 71.21680
801.7690, 153.7910
802.9100, 26.31836
804.0520, 46.21777
805.1930, 68.14062
806.3340, 24.44336
807.4750, 32.32324
808.6160, 58.18750
809.7560, 150.1660
810.8970, 153.3066
812.0370, 6.610352
813.1770, 135.0039
814.3170, 97.55371
815.4570, 140.2432
816.5960, 144.0928
817.7360, 197.1055
818.8750, 130.3115
820.0140, 181.6758
821.1530, 74.22559
822.2920, 200.9053
823.4310, 144.7803
824.5690, 161.8242
825.7070, 108.0430
826.8460, 171.4121
827.9840, 124.9629
829.1220, 76.67285
830.2590, 163.5156
831.3970, 198.5381
832.5340, 82.75781
833.6710, 80.11523
834.8080, 62.60840
835.9450, 18.22754
837.0820, 93.95117
838.2190, 109.8174
839.3550, 159.8369
840.4910, 89.03320
841.6270, 117.7930
842.7630, 57.86426
843.8990, 75.48340
845.0350, 62.23633
846.1700, 18.88574
847.3060, 42.07715
848.4410, 98.84473
849.5760, 14.30078
850.7100, 60.45312
851.8450, 13.13574
852.9800, 48.73242
854.1140, 63.25488
855.2480, 82.70508
856.3820, 113.0879
857.5160, 124.4062
858.6500, 151.1270
859.7830, 169.9385
860.9170, 194.9941
862.0500, 230.0732
863.1830, 249.0977
864.3160, 326.0693
865.4480, 222.9893
866.5810, 182.8555
867.7130, 279.6650
868.8460, 319.4209
869.9780, 322.1260
871.1100, 204.7803
872.2410, 443.3770
873.3730, 341.9258
874.5050, 433.4219
875.6360, 461.8662
876.7670, 386.2588
877.8980, 404.6006
879.0290, 317.8906
880.1590, 452.1270
881.2900, 476.3125
882.4200, 350.4453
883.5500, 330.5283
884.6800, 484.5576
885.8100, 359.5342
886.9400, 428.4590
888.0690, 326.3320
889.1990, 353.1523
890.3280, 395.9189
891.4570, 418.6338
892.5860, 351.2969
893.7140, 462.9053
894.8430, 442.4619
895.9710, 491.9648
897.1000, 398.4150
898.2280, 375.8115
899.3560, 448.1543
900.4830, 495.4434
901.6110, 463.6787
902.7380, 417.8613
903.8660, 389.9922
904.9930, 340.0703
906.1200, 499.0957
907.2460, 397.0684
908.3730, 348.9883
909.5000, 483.8574
910.6260, 451.6855
911.7520, 318.4678
912.8780, 483.2012
914.0040, 502.8828
915.1290, 416.5117
916.2550, 538.0947
917.3800, 453.6279
918.5050, 388.1104
919.6300, 471.5645
920.7550, 489.9688
921.8800, 569.3252
923.0040, 565.6328
924.1290, 605.9482
925.2530, 539.1006
926.3770, 647.3008
927.5010, 682.4512
928.6250, 685.5752
929.7480, 771.6543
930.8720, 661.6855
931.9950, 657.6699
933.1180, 716.6182
934.2410, 811.5361
935.3640, 767.4062
936.4860, 907.3975
937.6090, 938.1611
938.7310, 1110.184
939.8530, 1023.103
940.9750, 1107.712
942.0970, 1231.403
943.2180, 1289.843
944.3400, 1233.534
945.4610, 1542.331
946.5820, 1436.825
947.7030, 1700.421
948.8240, 1728.851
949.9450, 1721.522
951.0650, 1854.411
952.1860, 2092.959
953.3060, 2026.088
954.4260, 2334.325
955.5460, 2543.268
956.6650, 2738.902
957.7850, 2872.131
958.9040, 3137.667
960.0230, 3081.698
961.1420, 3245.055
962.2610, 3429.375
963.3800, 3633.562
964.4990, 3698.738
965.6170, 3854.416
966.7350, 3980.876
967.8530, 4184.582
968.9710, 4132.455
970.0890, 4240.395
971.2070, 4361.092
972.3240, 4522.009
973.4410, 4600.914
974.5580, 4340.670
975.6750, 4638.853
976.7920, 4480.223
977.9090, 4612.344
979.0250, 4579.354
980.1410, 4424.193
981.2580, 4626.002
982.3740, 4522.107
983.4890, 4376.469
984.6050, 4451.326
985.7200, 4540.062
986.8360, 4455.145
987.9510, 4540.994
989.0660, 4573.674
990.1810, 4556.116
991.2950, 4337.018
992.4100, 4378.822
993.5240, 4316.442
994.6390, 4249.900
995.7530, 4329.101
996.8660, 4140.472
997.9800, 4137.475
999.0940, 4031.359
1000.207, 4060.842
1001.320, 3933.980
1002.433, 3901.717
1003.546, 3816.607
1004.659, 3869.496
1005.772, 3613.824
1006.884, 3564.706
1007.996, 3527.586
1009.108, 3294.467
1010.220, 3280.347
1011.332, 3190.224
1012.444, 3145.099
1013.555, 3078.957
1014.666, 3030.829
1015.777, 3015.698
1016.888, 2916.568
1017.999, 2764.438
1019.110, 2808.305
1020.220, 2897.187
1021.331, 2665.065
1022.441, 2773.947
1023.551, 2866.827
1024.661, 2656.710
1025.770, 2542.593
1026.880, 2622.477
1027.989, 2485.362
1029.098, 2454.250
1030.207, 2298.140
1031.316, 2424.031
1032.425, 2123.926
1033.533, 2300.822
1034.642, 2223.724
1035.750, 2157.628
1036.858, 2088.535
1037.966, 2027.446
1039.073, 2014.362
1040.181, 2103.281
1041.288, 2067.206
1042.396, 2033.136
1043.503, 2207.443
1044.610, 2045.256
1045.716, 2145.495
1046.823, 2065.445
1047.929, 2147.401
1049.036, 2079.933
1050.142, 2145.900
1051.248, 2191.875
1052.353, 2162.713
1053.459, 2373.701
1054.564, 2449.834
1055.670, 2403.894
1056.775, 2483.902
1057.880, 2542.918
1058.985, 2615.952
1060.089, 2795.324
1061.194, 2898.379
1062.298, 3031.117
1063.402, 3187.172
1064.506, 3312.232
1065.610, 3442.914
1066.713, 3611.279
1067.817, 3882.366
1068.920, 4009.635
1070.023, 4403.932
1071.126, 4619.207
1072.229, 4884.463
1073.332, 5063.531
1074.435, 5250.746
1075.537, 5580.571
1076.639, 5645.811
1077.741, 5661.104
1078.843, 6145.807
1079.945, 6059.941
1081.046, 6379.930
1082.148, 6583.438
1083.249, 6930.998
1084.350, 7041.625
1085.451, 7214.691
1086.551, 7528.090
1087.652, 7392.238
1088.752, 7952.658
1089.853, 7975.508
1090.953, 7836.587
1092.053, 8136.596
1093.152, 7918.816
1094.252, 7894.671
1095.351, 7733.094
1096.451, 7709.330
1097.550, 7494.784
1098.649, 7341.916
1099.748, 6909.295
1100.846, 6710.227
1101.945, 6470.938
1103.043, 6163.686
1104.141, 5950.479
1105.239, 5647.146
1106.337, 5295.457
1107.434, 4995.467
1108.532, 4848.037
1109.629, 4685.114
1110.726, 4401.234
1111.823, 4225.404
1112.920, 4048.558
1114.017, 3668.855
1115.113, 3770.134
1116.210, 3569.432
1117.306, 3531.758
1118.402, 3579.102
1119.498, 3417.480
1120.593, 3258.881
1121.689, 3171.300
1122.784, 3130.801
1123.879, 2966.252
1124.974, 2741.846
1126.069, 2700.076
1127.164, 2503.564
1128.259, 2305.175
1129.353, 2175.713
1130.447, 2096.227
1131.541, 1987.526
1132.635, 1989.057
1133.729, 1849.704
1134.822, 1764.386
1135.916, 1631.490
1137.009, 1541.052
1138.102, 1467.652
1139.195, 1366.198
1140.288, 1302.161
1141.380, 1293.750
1142.473, 1234.346
1143.565, 1056.946
1144.657, 1113.553
1145.749, 957.1641
1146.841, 908.2246
1147.932, 902.4980
1149.024, 803.0381
1150.115, 801.6738
1151.206, 802.1328
1152.297, 613.7793
1153.388, 528.4316
1154.479, 455.0879
1155.569, 385.7500
1156.659, 393.4170
1157.750, 223.0889
1158.839, 124.7656
1159.929, 185.4482
1161.019, 247.1338
1162.108, 129.8662
1163.198, 129.5625
1164.287, 105.8770
1165.376, 170.0918
1166.465, 51.80078
1167.553, 49.51367
1168.642, 30.23828
1169.730, 85.95996
1170.818, 115.6855
1171.906, 67.41504
1172.994, 101.3320
1174.082, 66.93066
1175.170, 34.21289
1176.257, 15.50098
1177.344, 14.20898
1178.431, 12.92188
1179.518, 23.34570
1180.605, 20.36816
1181.691, 10.08496
1182.778, 101.1953
1183.864, 37.48438
1184.950, 5.834961
1186.036, 1.153320
1187.122, 56.53027
1188.207, 115.2158
1189.292, 161.0977
1190.378, 78.51562
1191.463, 85.87012
1192.548, 16.29395
1193.632, 42.27637
1194.717, 173.8496
1195.801, 52.57617
1196.886, 63.02344
1197.970, 5.500000
1199.054, 41.97656
1200.137, 22.47168
1201.221, 39.97852
1202.305, 19.50586
1203.388, 99.04199
1204.471, 6.370117
1205.554, 7.220703
1206.637, 91.27930
1207.719, 14.68262
1208.802, 37.91406
1209.884, 25.53320
1210.966, 2.168945
1212.048, 27.18555
1213.130, 39.54102
1214.212, 48.89453
1215.293, 4.247070
1216.374, 19.23535
1217.456, 46.65430
1218.536, 96.79199
1219.617, 116.1982
1220.698, 117.8398
1221.778, 162.7549
1222.859, 20.76855
1223.939, 6.194336
1225.019, 2.855469
1226.099, 15.91895
1227.178, 43.99219
1228.258, 75.10156
1229.337, 45.25195
1230.417, 116.4424
1231.496, 47.28613
1232.574, 62.00879
1233.653, 48.72363
1234.732, 11.56836
1235.810, 3.883789
1236.888, 43.78320
1237.966, 14.44141
1239.044, 64.19434
1240.122, 89.71973
1241.199, 123.3447
1242.277, 82.95996
1243.354, 83.56836
1244.431, 65.98730
1245.508, 60.70605
1246.585, 72.14258
1247.661, 76.90039
1248.738, 100.1670
1249.814, 140.7139
1250.890, 152.3193
1251.966, 54.56250
1253.042, 155.0742
1254.117, 41.57520
1255.193, 6.2500000E-02
1256.268, 163.5234
1257.343, 46.97070
1258.418, 67.40625
1259.493, 136.8291
1260.567, 21.24121
1261.642, 158.6338
1262.716, 40.98535
1263.790, 41.34277
1264.864, 55.65820
1265.938, 131.9600
1267.011, 164.2510
1268.085, 179.5293
1269.158, 10.79590
1270.231, 84.03613
1271.304, 120.2656
1272.377, 130.4834
1273.450, 192.6885
1274.522, 191.8818
1275.594, 195.9238
1276.666, 178.2324
1277.738, 139.3887
1278.810, 101.5342
1279.882, 10.33203
1280.953, 227.7637
1282.025, 185.8467
1283.096, 170.9170
1284.167, 110.9766
1285.238, 137.0234
1286.308, 116.0576
1287.379, 117.0801
1288.449, 282.0898
1289.519, 214.0879
1290.589, 84.07422
1291.659, 176.0479
1292.729, 65.00879
