##NAMES=Elbaite
##RRUFFID=R050260
##IDEAL CHEMISTRY=Na(Al_1.5_Li_1.5_)Al_6_(Si_6_O_18_)(BO_3_)_3_(OH)_3_OH
##LOCALITY=Minas Gerais, Brazil
##OWNER=RRUFF
##SOURCE=Marcus Origlieri
##DESCRIPTION=Greenish-gray prismatic single crystal
##STATUS=The identification of this mineral has been confirmed by X-ray diffraction and chemical analysis
##URL=rruff.info/R050260
##MEASURED CHEMISTRY=(Na_0.76_[box]_0.17_Ca_0.07_)_Σ=1_(Al_1.67_Li_0.97_Mn_0.36_)_Σ=3_Al_6.00_(B_1.00_O_3_)_3_Si_6.00_O_18_((OH)_3.40_F_0.60_)_Σ=4_; B assumed by stoichiometry; OH estimated by charge balance
##PIN_ID=L01964
##ORIENTATION=Laser parallel to a* (1 0 0). Fiducial mark perpendicular to laser is parallel to -c [0 0 -1]
118.1340, 0.0000000E+00
119.3650, 224.0088
120.5960, 0.1562500
121.8270, 156.5723
123.0580, 213.8545
124.2880, 304.4658
125.5190, 43.33984
126.7490, 63.98047
127.9790, 105.1162
129.2090, 260.6924
130.4390, 425.4707
131.6680, 403.0703
132.8980, 532.9131
134.1270, 617.9678
135.3560, 483.4404
136.5850, 670.2549
137.8140, 607.3369
139.0430, 592.6084
140.2710, 548.9902
141.5000, 374.4131
142.7280, 61.80469
143.9560, 18.88965
145.1840, 97.55469
146.4120, 131.5537
147.6390, 14.74902
148.8670, 153.8271
150.0940, 191.1465
151.3210, 425.1816
152.5490, 572.9033
153.7750, 392.2881
155.0020, 579.3115
156.2290, 714.9355
157.4550, 616.1172
158.6810, 510.8174
159.9080, 562.0059
161.1340, 465.6533
162.3590, 321.7305
163.5850, 191.2109
164.8110, 147.5000
166.0360, 123.3242
167.2610, 100.9355
168.4860, 65.05371
169.7110, 122.2725
170.9360, 0.9785160
172.1610, 11.17090
173.3850, 51.72070
174.6100, 152.6592
175.8340, 132.9766
177.0580, 130.6582
178.2820, 180.6953
179.5050, 416.0732
180.7290, 468.7881
181.9520, 466.8271
183.1760, 579.1846
184.3990, 489.8516
185.6220, 620.8223
186.8450, 728.0889
188.0670, 933.6465
189.2900, 951.4883
190.5120, 1143.609
191.7340, 1352.474
192.9560, 1576.727
194.1780, 1883.912
195.4000, 2171.521
196.6220, 2574.226
197.8430, 2902.028
199.0640, 3467.926
200.2860, 3916.574
201.5070, 4603.000
202.7270, 4990.196
203.9480, 5576.506
205.1690, 6159.863
206.3890, 7027.188
207.6090, 8119.642
208.8290, 9462.238
210.0490, 11061.97
211.2690, 12779.86
212.4890, 14326.89
213.7080, 16639.08
214.9280, 18492.42
216.1470, 20791.96
217.3660, 22953.85
218.5850, 25383.03
219.8030, 27941.57
221.0220, 30660.54
222.2400, 32740.92
223.4590, 34059.62
224.6770, 34328.68
225.8950, 33425.02
227.1120, 31624.62
228.3300, 29095.39
229.5480, 27218.29
230.7650, 25119.32
231.9820, 22998.48
233.1990, 21627.74
234.4160, 20449.13
235.6330, 19637.63
236.8490, 18918.27
238.0660, 18586.02
239.2820, 18404.89
240.4980, 18373.89
241.7140, 18130.00
242.9300, 18383.24
244.1460, 18312.60
245.3610, 18467.09
246.5770, 18428.70
247.7920, 18423.43
249.0070, 18108.28
250.2220, 18019.25
251.4370, 17290.35
252.6510, 17015.57
253.8660, 16316.90
255.0800, 15950.36
256.2940, 15283.94
257.5080, 15194.65
258.7220, 15103.47
259.9360, 14552.42
261.1490, 13618.48
262.3630, 12726.67
263.5760, 12207.98
264.7890, 11798.95
266.0020, 11573.33
267.2150, 11206.12
268.4270, 10724.85
269.6400, 10382.71
270.8520, 9988.702
272.0640, 9567.751
273.2760, 8972.875
274.4880, 8731.109
275.7000, 8033.478
276.9120, 7577.987
278.1230, 6722.277
279.3340, 6383.396
280.5450, 5784.724
281.7560, 5211.255
282.9670, 4654.987
284.1780, 3995.909
285.3880, 3740.021
286.5980, 3153.314
287.8090, 2660.786
289.0190, 2363.434
290.2290, 1899.289
291.4380, 1503.293
292.6480, 1087.898
293.8570, 843.3447
295.0670, 743.8076
296.2760, 476.4248
297.4850, 182.1934
298.6930, 47.11035
299.9020, 169.1719
301.1110, 284.3770
302.3190, 282.7236
303.5270, 320.2070
304.7350, 471.8271
305.9430, 493.5820
307.1510, 870.4688
308.3580, 987.4873
309.5660, 1234.634
310.7730, 1477.909
311.9800, 1762.524
313.1870, 2133.521
314.3940, 2488.267
315.6010, 2653.699
316.8070, 3041.992
318.0130, 3083.065
319.2200, 3088.014
320.4260, 3016.368
321.6310, 2811.514
322.8370, 2670.287
324.0430, 2662.374
325.2480, 2459.412
326.4540, 2648.563
327.6590, 2854.443
328.8640, 2853.087
330.0680, 3242.888
331.2730, 3340.877
332.4780, 3604.680
333.6820, 3792.260
334.8860, 4069.678
336.0900, 4480.691
337.2940, 4549.371
338.4980, 5121.837
339.7010, 5492.324
340.9050, 5614.285
342.1080, 6145.339
343.3110, 6350.487
344.5140, 6911.729
345.7170, 7252.066
346.9200, 7459.496
348.1220, 7897.019
349.3240, 8245.633
350.5270, 8418.343
351.7290, 8685.148
352.9310, 9221.043
354.1320, 9636.031
355.3340, 10552.12
356.5350, 11216.29
357.7370, 12283.56
358.9380, 13620.92
360.1390, 15395.37
361.3400, 17866.91
362.5400, 20177.54
363.7410, 22772.26
364.9410, 25334.06
366.1410, 28229.95
367.3410, 31147.93
368.5410, 34346.98
369.7410, 37948.12
370.9400, 41865.35
372.1400, 45652.65
373.3390, 48271.04
374.5380, 49706.49
375.7370, 48803.04
376.9360, 45974.66
378.1350, 41888.37
379.3330, 36720.15
380.5310, 32426.01
381.7300, 27923.96
382.9280, 24476.98
384.1260, 21779.08
385.3230, 19556.27
386.5210, 17096.53
387.7180, 15600.87
388.9160, 14284.30
390.1130, 13404.80
391.3100, 12917.38
392.5060, 12365.04
393.7030, 11971.79
394.9000, 11923.61
396.0960, 11794.51
397.2920, 12049.49
398.4880, 12312.55
399.6840, 12617.21
400.8800, 12933.48
402.0750, 13541.21
403.2710, 13493.59
404.4660, 14000.04
405.6610, 14032.57
406.8560, 14411.47
408.0510, 14330.19
409.2450, 14034.72
410.4400, 13948.28
411.6340, 13172.71
412.8280, 12352.79
414.0220, 11622.99
415.2160, 10543.28
416.4100, 9428.664
417.6030, 8166.150
418.7970, 6910.737
419.9900, 5919.420
421.1830, 4828.199
422.3760, 4126.080
423.5690, 3531.060
424.7610, 2896.137
425.9540, 2268.314
427.1460, 1803.588
428.3380, 1463.960
429.5300, 1182.427
430.7220, 964.9883
431.9140, 858.6475
433.1050, 790.3984
434.2970, 564.2529
435.4880, 502.2275
436.6790, 411.3291
437.8700, 261.5254
439.0610, 332.8135
440.2510, 103.1934
441.4420, 215.6641
442.6320, 131.2236
443.8220, 237.8730
445.0120, 233.6123
446.2020, 351.4395
447.3910, 69.35449
448.5810, 21.35840
449.7700, 95.44824
450.9600, 75.62402
452.1490, 29.88770
453.3370, 15.23633
454.5260, 48.33301
455.7150, 53.83887
456.9030, 155.2871
458.0910, 206.7158
459.2800, 96.14844
460.4670, 87.53906
461.6550, 207.8877
462.8430, 173.2402
464.0300, 325.5840
465.2180, 155.9863
466.4050, 239.3730
467.5920, 235.7812
468.7790, 69.20898
469.9650, 247.5908
471.1520, 139.9971
472.3380, 241.3848
473.5250, 55.79785
474.7110, 197.1572
475.8970, 107.5234
477.0820, 10.85742
478.2680, 69.12500
479.4540, 134.6533
480.6390, 4.491211
481.8240, 2.566406
483.0090, 273.4297
484.1940, 539.5039
485.3780, 650.6562
486.5630, 862.9385
487.7470, 833.1982
488.9320, 1163.587
490.1160, 1211.053
491.3000, 1376.598
492.4830, 1550.219
493.6670, 1860.917
494.8500, 1942.692
496.0340, 2136.544
497.2170, 2230.473
498.4000, 2517.477
499.5820, 2615.656
500.7650, 2775.952
501.9480, 2901.943
503.1300, 3043.248
504.3120, 3213.629
505.4940, 3328.088
506.6760, 3406.630
507.8580, 3489.271
509.0390, 3337.014
510.2210, 3535.863
511.4020, 3298.830
512.5830, 3457.912
513.7640, 3375.146
514.9450, 3305.490
516.1250, 3029.971
517.3060, 2884.590
518.4860, 2646.319
519.6660, 2443.136
520.8460, 2252.070
522.0260, 2097.117
523.2060, 1609.283
524.3850, 1579.586
525.5650, 1335.025
526.7440, 1234.591
527.9230, 1093.966
529.1020, 860.1240
530.2810, 912.0791
531.4590, 604.1357
532.6380, 734.2988
533.8160, 736.5869
534.9940, 555.9863
536.1720, 634.5049
537.3500, 533.1406
538.5270, 509.8799
539.7050, 329.7266
540.8820, 220.6602
542.0590, 307.6797
543.2360, 262.7803
544.4130, 265.9541
545.5900, 173.1895
546.7660, 45.49023
547.9430, 13.14551
549.1190, 51.32520
550.2950, 66.11426
551.4710, 42.82910
552.6470, 37.33301
553.8220, 42.19727
554.9980, 31.78613
556.1730, 65.43066
557.3480, 138.1318
558.5230, 36.89062
559.6980, 37.70410
560.8730, 146.5742
562.0470, 243.4990
563.2220, 130.4766
564.3960, 176.5098
565.5700, 248.5957
566.7440, 208.0830
567.9170, 253.8740
569.0910, 182.1670
570.2640, 309.4600
571.4380, 202.8037
572.6110, 299.1982
573.7840, 424.6406
574.9570, 499.1328
576.1290, 599.6738
577.3020, 472.2607
578.4740, 523.8955
579.6460, 659.5752
580.8180, 844.3018
581.9900, 857.0742
583.1620, 823.8906
584.3330, 797.7510
585.5040, 821.6543
586.6760, 945.5996
587.8470, 925.5889
589.0180, 1019.620
590.1880, 1023.692
591.3590, 972.8057
592.5290, 896.9580
593.7000, 1012.150
594.8700, 1070.383
596.0400, 995.4404
597.2090, 972.2822
598.3790, 991.8867
599.5490, 885.2676
600.7180, 983.2646
601.8870, 968.6738
603.0560, 907.3652
604.2250, 936.8350
605.3940, 878.6699
606.5620, 1036.032
607.7300, 1053.238
608.8990, 1075.651
610.0670, 1133.105
611.2350, 1062.985
612.4020, 986.2480
613.5700, 1119.545
614.7370, 1266.837
615.9050, 1283.467
617.0720, 1226.502
618.2390, 1377.838
619.4060, 1777.719
620.5720, 2095.092
621.7390, 2484.868
622.9050, 2981.786
624.0710, 3399.371
625.2370, 4184.997
626.4030, 4944.668
627.5690, 5687.385
628.7340, 6709.152
629.9000, 7531.978
631.0650, 8849.844
632.2300, 9711.754
633.3950, 10750.70
634.5600, 11450.68
635.7240, 11904.69
636.8890, 12001.74
638.0530, 11689.81
639.2170, 11754.92
640.3810, 11084.05
641.5450, 10561.21
642.7080, 10110.39
643.8720, 9332.596
645.0350, 8785.492
646.1980, 8353.837
647.3610, 7853.445
648.5240, 7676.398
649.6870, 7286.199
650.8490, 7187.737
652.0120, 6821.938
653.1740, 6645.599
654.3360, 6555.969
655.4980, 6362.856
656.6600, 5811.441
657.8210, 5748.637
658.9830, 5438.211
660.1440, 5229.832
661.3050, 5082.601
662.4660, 4706.160
663.6270, 4554.652
664.7870, 4022.071
665.9480, 3814.345
667.1080, 3560.266
668.2680, 3190.712
669.4280, 2833.204
670.5880, 2622.182
671.7480, 2474.001
672.9070, 2430.061
674.0670, 2290.518
675.2260, 2099.091
676.3850, 2158.150
677.5440, 2081.581
678.7030, 2070.041
679.8610, 2265.702
681.0200, 2393.344
682.1780, 2566.939
683.3360, 2718.090
684.4940, 2951.473
685.6520, 3327.805
686.8090, 3811.247
687.9670, 4364.074
689.1240, 4765.036
690.2810, 5766.561
691.4380, 6609.128
692.5950, 7500.916
693.7520, 8873.119
694.9080, 10311.30
696.0650, 11775.46
697.2210, 13639.61
698.3770, 15238.72
699.5330, 16831.82
700.6880, 18560.90
701.8440, 20275.95
702.9990, 21935.98
704.1550, 23136.98
705.3100, 23617.96
706.4650, 24291.91
707.6190, 23915.84
708.7740, 23450.74
709.9290, 22000.62
711.0830, 20665.46
712.2370, 18566.29
713.3910, 16613.08
714.5450, 14502.83
715.6980, 12898.57
716.8520, 10959.27
718.0050, 9488.943
719.1580, 8264.586
720.3110, 7087.195
721.4640, 6369.774
722.6170, 5504.323
723.7700, 4961.837
724.9220, 4338.317
726.0740, 4232.766
727.2260, 3864.179
728.3780, 3600.558
729.5300, 3353.903
730.6810, 3264.212
731.8330, 3139.484
732.9840, 3094.602
734.1350, 3113.143
735.2860, 3141.712
736.4370, 3094.029
737.5880, 3212.725
738.7380, 3514.042
739.8880, 3762.260
741.0390, 3793.541
742.1890, 4036.402
743.3380, 4523.873
744.4880, 4808.525
745.6380, 5502.824
746.7870, 5830.446
747.9360, 6488.518
749.0850, 6759.406
750.2340, 7096.623
751.3830, 7308.322
752.5310, 7111.403
753.6800, 7092.712
754.8280, 6506.793
755.9760, 5949.822
757.1240, 5352.949
758.2720, 4692.186
759.4190, 4243.823
760.5670, 3633.376
761.7140, 3105.411
762.8610, 2676.965
764.0080, 2422.034
765.1550, 1982.536
766.3020, 1644.663
767.4480, 1588.216
768.5950, 1250.164
769.7410, 1188.422
770.8870, 1058.099
772.0330, 919.0273
773.1780, 847.9873
774.3240, 727.0332
775.4690, 698.4072
776.6140, 560.1230
777.7590, 505.6162
778.9040, 416.9375
780.0490, 370.0996
781.1940, 244.9707
782.3380, 169.7812
783.4820, 92.52148
784.6260, 6.180664
785.7700, 1.725586
786.9140, 26.84375
788.0580, 69.54688
789.2010, 47.40430
790.3450, 197.4053
791.4880, 48.62891
792.6310, 135.9980
793.7730, 146.5586
794.9160, 44.31738
796.0590, 64.78027
797.2010, 82.21680
798.3430, 52.37891
799.4850, 80.68945
800.6270, 143.1650
801.7690, 157.8379
802.9100, 107.7168
804.0520, 197.7754
805.1930, 31.05859
806.3340, 159.4824
807.4750, 24.11230
808.6160, 37.87793
809.7560, 121.7852
810.8970, 64.87988
812.0370, 99.12988
813.1770, 91.55469
814.3170, 50.37012
815.4570, 51.55273
816.5960, 8.213867
817.7360, 27.20605
818.8750, 27.08984
820.0140, 129.8672
821.1530, 327.5615
822.2920, 187.1865
823.4310, 307.7344
824.5690, 281.2158
825.7070, 269.6348
826.8460, 400.9990
827.9840, 630.3145
829.1220, 583.5791
830.2590, 512.7900
831.3970, 765.9336
832.5340, 725.0137
833.6710, 695.0273
834.8080, 904.9736
835.9450, 786.8545
837.0820, 1015.671
838.2190, 1103.420
839.3550, 819.1055
840.4910, 1154.725
841.6270, 845.2793
842.7630, 981.7676
843.8990, 784.1934
845.0350, 841.3740
846.1700, 767.8496
847.3060, 883.0811
848.4410, 1098.250
849.5760, 911.3555
850.7100, 901.3975
851.8450, 703.3760
852.9800, 737.2930
854.1140, 685.1465
855.2480, 879.9375
856.3820, 743.6680
857.5160, 800.3350
858.6500, 630.9395
859.7830, 702.4834
860.9170, 759.9648
862.0500, 671.3867
863.1830, 658.7461
864.3160, 434.0449
865.4480, 572.2842
866.5810, 462.4619
867.7130, 390.5303
868.8460, 462.6377
869.9780, 297.6348
871.1100, 255.5713
872.2410, 309.4424
873.3730, 217.2529
874.5050, 308.0000
875.6360, 146.6836
876.7670, 135.2988
877.8980, 61.15625
879.0290, 110.2666
880.1590, 95.61621
881.2900, 41.89355
882.4200, 21.09180
883.5500, 0.7929690
884.6800, 68.23535
885.8100, 41.18848
886.9400, 146.9375
888.0690, 122.2246
889.1990, 13.66211
890.3280, 141.1885
891.4570, 139.1260
892.5860, 27.37305
893.7140, 53.45703
894.8430, 189.3955
895.9710, 94.51172
897.1000, 11.24316
898.2280, 42.92090
899.3560, 0.5234380
900.4830, 15.95215
901.6110, 33.51172
902.7380, 60.16406
903.8660, 8.919922
904.9930, 20.74121
906.1200, 72.35449
907.2460, 165.3828
908.3730, 142.3516
909.5000, 12.25977
910.6260, 249.0967
911.7520, 150.8779
912.8780, 332.6006
914.0040, 427.2695
915.1290, 434.8857
916.2550, 395.4502
917.3800, 421.9629
918.5050, 520.7578
919.6300, 635.0762
920.7550, 666.1016
921.8800, 672.7568
923.0040, 725.5303
924.1290, 858.5400
925.2530, 841.8594
926.3770, 926.6846
927.5010, 1126.776
928.6250, 1104.315
929.7480, 1178.129
930.8720, 1184.300
931.9950, 1240.063
933.1180, 1512.748
934.2410, 1419.254
935.3640, 1518.938
936.4860, 1445.657
937.6090, 1694.418
938.7310, 1716.293
939.8530, 1838.488
940.9750, 1774.124
942.0970, 2041.682
943.2180, 1962.722
944.3400, 2013.887
945.4610, 2048.778
946.5820, 2321.254
947.7030, 2241.582
948.8240, 2577.389
949.9450, 2350.789
951.0650, 2829.128
952.1860, 2917.231
953.3060, 3155.318
954.4260, 3408.416
955.5460, 3393.936
956.6650, 3531.189
957.7850, 3767.457
958.9040, 3934.589
960.0230, 4210.590
961.1420, 4340.564
962.2610, 4565.826
963.3800, 4757.074
964.4990, 4991.344
965.6170, 4932.637
966.7350, 5084.919
967.8530, 5139.186
968.9710, 5575.438
970.0890, 5528.689
971.2070, 5508.678
972.3240, 5578.066
973.4410, 5489.487
974.5580, 5453.714
975.6750, 5408.979
976.7920, 5369.281
977.9090, 5394.572
979.0250, 5344.887
980.1410, 5246.240
981.2580, 5248.657
982.3740, 5095.096
983.4890, 5066.963
984.6050, 5139.062
985.7200, 4993.561
986.8360, 5048.073
987.9510, 5103.578
989.0660, 4938.103
990.1810, 5064.639
991.2950, 5049.170
992.4100, 4985.701
993.5240, 4920.254
994.6390, 4846.809
995.7530, 5051.393
996.8660, 5062.994
997.9800, 5089.589
999.0940, 5123.193
1000.207, 5201.791
1001.320, 5161.387
1002.433, 5007.978
1003.546, 4966.563
1004.659, 5050.927
1005.772, 5153.112
1006.884, 5205.523
1007.996, 5239.458
1009.108, 5293.955
1010.220, 5297.441
1011.332, 5313.840
1012.444, 5406.663
1013.555, 5522.874
1014.666, 5311.930
1015.777, 5458.332
1016.888, 5514.420
1017.999, 5733.068
1019.110, 5773.873
1020.220, 5718.361
1021.331, 5689.358
1022.441, 5672.894
1023.551, 5668.352
1024.661, 5613.945
1025.770, 5571.506
1026.880, 5406.074
1027.989, 5444.434
1029.098, 5325.584
1030.207, 5256.549
1031.316, 5438.993
1032.425, 5238.877
1033.533, 5432.199
1034.642, 5303.045
1035.750, 5214.223
1036.858, 5379.932
1037.966, 5582.027
1039.073, 5592.942
1040.181, 5799.396
1041.288, 6001.553
1042.396, 6091.715
1043.503, 6449.664
1044.610, 6621.262
1045.716, 6746.436
1046.823, 7115.248
1047.929, 7403.270
1049.036, 7667.112
1050.142, 8167.969
1051.248, 8618.846
1052.353, 8783.740
1053.459, 8948.660
1054.564, 9293.623
1055.670, 9648.633
1056.775, 9958.691
1057.880, 9900.815
1058.985, 10223.00
1060.089, 10510.28
1061.194, 10293.62
1062.298, 10485.04
1063.402, 10369.54
1064.506, 10751.11
1065.610, 10329.71
1066.713, 10208.38
1067.817, 10391.10
1068.920, 9891.906
1070.023, 9933.791
1071.126, 9961.763
1072.229, 9983.814
1073.332, 9785.967
1074.435, 9805.177
1075.537, 9844.476
1076.639, 10113.83
1077.741, 10281.24
1078.843, 10382.10
1079.945, 10731.66
1081.046, 10778.29
1082.148, 11267.00
1083.249, 11492.77
1084.350, 11457.61
1085.451, 11634.48
1086.551, 11623.40
1087.652, 11539.35
1088.752, 11251.39
1089.853, 10623.40
1090.953, 10380.12
1092.053, 9427.257
1093.152, 9114.892
1094.252, 8324.191
1095.351, 7577.061
1096.451, 7315.760
1097.550, 6849.676
1098.649, 6283.523
1099.748, 5863.922
1100.846, 5468.215
1101.945, 4901.352
1103.043, 4530.809
1104.141, 4321.703
1105.239, 3834.264
1106.337, 3509.984
1107.434, 3269.359
1108.532, 2996.301
1109.629, 2869.842
1110.726, 2716.658
1111.823, 2653.846
1112.920, 2347.602
1114.017, 2303.237
1115.113, 2055.440
1116.210, 2040.612
1117.306, 1813.088
1118.402, 1743.984
1119.498, 1751.707
1120.593, 1748.611
1121.689, 1673.031
1122.784, 1583.110
1123.879, 1541.852
1124.974, 1371.884
1126.069, 1309.906
1127.164, 1163.702
1128.259, 1042.600
1129.353, 926.2344
1130.447, 768.3457
1131.541, 753.2158
1132.635, 617.0781
1133.729, 659.7598
1134.822, 547.4502
1135.916, 475.1533
1137.009, 476.8691
1138.102, 476.5977
1139.195, 432.8779
1140.288, 376.0928
1141.380, 359.8584
1142.473, 314.6396
1143.565, 229.4365
1144.657, 147.2773
1145.749, 77.13281
1146.841, 57.40820
1147.932, 61.90234
1149.024, 52.81836
1150.115, 115.7588
1151.206, 136.7178
1152.297, 92.69727
1153.388, 189.7373
1154.479, 120.8320
1155.569, 133.9531
1156.659, 66.13281
1157.750, 26.32617
1158.839, 97.53809
1159.929, 20.21484
1161.019, 61.09863
1162.108, 82.45605
1163.198, 119.8330
1164.287, 100.2275
1165.376, 259.6416
1166.465, 241.0771
1167.553, 117.5391
1168.642, 106.3877
1169.730, 208.5371
1170.818, 389.9268
1171.906, 444.9365
1172.994, 4.941406
1174.082, 197.1689
1175.170, 138.0146
1176.257, 68.14062
1177.344, 362.0342
1178.431, 14.36426
1179.518, 273.7705
1180.605, 296.6523
1181.691, 440.9307
1182.778, 322.3242
1183.864, 284.9248
1184.950, 234.5000
1186.036, 382.2520
1187.122, 344.7480
1188.207, 435.3799
1189.292, 409.0156
1190.378, 161.6553
1191.463, 272.2979
1192.548, 145.9443
1193.632, 405.5928
1194.717, 289.2451
1195.801, 398.8975
1196.886, 281.5518
1197.970, 238.2070
1199.054, 69.99414
1200.137, 359.1602
1201.221, 514.7480
1202.305, 543.9551
1203.388, 68.25977
1204.471, 244.5547
1205.554, 159.5654
1206.637, 63.84473
1207.719, 331.9121
1208.802, 70.35449
1209.884, 191.9023
1210.966, 188.8740
1212.048, 307.2520
1213.130, 69.13672
1214.212, 127.7256
1215.293, 55.30762
1216.374, 98.88477
1217.456, 34.54492
1218.536, 30.99707
1219.617, 63.53320
1220.698, 24.93457
1221.778, 33.57324
1222.859, 164.9268
1223.939, 11.52637
1225.019, 1.125977
1226.099, 128.7422
1227.178, 130.4443
1228.258, 3.793945
1229.337, 24.01465
1230.417, 56.22559
1231.496, 31.57520
1232.574, 31.58887
1233.653, 56.24805
1234.732, 81.12891
1235.810, 82.06543
1236.888, 78.93750
1237.966, 162.0625
1239.044, 52.83496
1240.122, 93.27832
1241.199, 161.4424
1242.277, 248.7178
1243.354, 86.14648
1244.431, 141.6279
1245.508, 60.21387
1246.585, 15.99316
1247.661, 53.39160
1248.738, 61.69824
1249.814, 67.06348
1250.890, 24.89355
1251.966, 32.22852
1253.042, 20.33105
1254.117, 64.59180
1255.193, 17.41699
1256.268, 90.60059
1257.343, 43.38379
1258.418, 155.1328
1259.493, 2.957031
1260.567, 76.74512
1261.642, 82.51953
1262.716, 167.2783
1263.790, 169.0264
1264.864, 297.7617
1265.938, 138.4854
1267.011, 259.1963
1268.085, 311.8926
1269.158, 391.5791
1270.231, 291.2520
1271.304, 293.9102
1272.377, 301.5576
1273.450, 277.1914
1274.522, 352.2705
1275.594, 386.0186
1276.666, 482.0117
1277.738, 524.5898
1278.810, 550.1533
1279.882, 624.7031
1280.953, 531.2383
1282.025, 514.7578
1283.096, 586.2617
1284.167, 662.7490
1285.238, 539.2197
1286.308, 741.6719
