##NAMES=Elbaite
##RRUFFID=R060562
##IDEAL CHEMISTRY=Na(Al_1.5_Li_1.5_)Al_6_(Si_6_O_18_)(BO_3_)_3_(OH)_3_OH
##LOCALITY=unknown
##OWNER=RRUFF
##SOURCE=Gemological Institute of America
##DESCRIPTION=Blue colored polished fragment
##STATUS=The identification of this mineral has been confirmed by X-ray diffraction and chemical analysis
##URL=rruff.info/R060562
##MEASURED CHEMISTRY=(Na_0.68_Ca_0.20_[box]_0.12_)(Li_1.20_Al_1.12_Fe^2+^_0.50_Mn_0.18_)Al_6_(BO_3_)_3_[Si_6_O_18_]((OH)_0.80_F_0.20_)_4_
##PIN_ID=L01792
##ORIENTATION=Laser parallel to -a* (-1 0 0). Fiducial mark perpendicular to laser is parallel to c [0 0 1]
118.1340, 0.0000000E+00
119.3650, 12.40527
120.5960, 84.42480
121.8270, 124.5498
123.0580, 155.5371
124.2880, 314.6875
125.5190, 97.80371
126.7490, 98.26562
127.9790, 90.79980
129.2090, 179.4463
130.4390, 94.60449
131.6680, 79.70215
132.8980, 39.67090
134.1270, 47.58105
135.3560, 3.859375
136.5850, 24.09180
137.8140, 26.51758
139.0430, 90.49512
140.2710, 0.8505860
141.5000, 91.53320
142.7280, 40.26270
143.9560, 149.1729
145.1840, 166.1436
146.4120, 347.1260
147.6390, 413.0820
148.8670, 499.9697
150.0940, 460.7568
151.3210, 712.4072
152.5490, 725.8906
153.7750, 880.1768
155.0020, 1066.238
156.2290, 1190.031
157.4550, 1224.502
158.6810, 1449.601
159.9080, 1419.282
161.1340, 1421.512
162.3590, 1261.262
163.5850, 1186.579
164.8110, 1096.239
166.0360, 924.4346
167.2610, 860.0898
168.4860, 746.2002
169.7110, 626.7627
170.9360, 625.7793
172.1610, 468.2480
173.3850, 340.1748
174.6100, 282.5537
175.8340, 344.3711
177.0580, 398.6152
178.2820, 499.2764
179.5050, 413.3428
180.7290, 547.8076
181.9520, 559.6602
183.1760, 598.8926
184.3990, 812.4980
185.6220, 992.4697
186.8450, 1215.799
188.0670, 1450.480
189.2900, 1658.512
190.5120, 2125.891
191.7340, 2250.563
192.9560, 2786.349
194.1780, 2958.238
195.4000, 3489.221
196.6220, 3980.272
197.8430, 4323.409
199.0640, 4979.643
200.2860, 5678.920
201.5070, 6097.294
202.7270, 6418.804
203.9480, 6813.421
205.1690, 7380.199
206.3890, 7803.145
207.6090, 8615.264
208.8290, 9272.560
210.0490, 9953.034
211.2690, 10999.69
212.4890, 12115.54
213.7080, 13184.60
214.9280, 14489.91
216.1470, 15874.46
217.3660, 17162.34
218.5850, 18891.48
219.8030, 20338.88
221.0220, 21942.57
222.2400, 23244.59
223.4590, 24582.87
224.6770, 25873.47
225.8950, 25875.44
227.1120, 26147.73
228.3300, 25686.32
229.5480, 25320.10
230.7650, 24898.04
231.9820, 24315.15
233.1990, 23472.42
234.4160, 22548.85
235.6330, 22096.45
236.8490, 21538.22
238.0660, 21227.15
239.2820, 20829.24
240.4980, 20327.95
241.7140, 19989.92
242.9300, 19372.51
244.1460, 18516.25
245.3610, 17995.16
246.5770, 17025.24
247.7920, 15862.47
249.0070, 14829.87
250.2220, 13700.42
251.4370, 13002.14
252.6510, 11939.01
253.8660, 11295.05
255.0800, 10660.23
256.2940, 9972.578
257.5080, 9722.079
258.7220, 9129.563
259.9360, 9034.777
261.1490, 8176.953
262.3630, 7745.381
263.5760, 7098.021
264.7890, 6954.057
266.0020, 6629.829
267.2150, 6532.578
268.4270, 6208.278
269.6400, 6126.746
270.8520, 5746.268
272.0640, 5679.766
273.2760, 5359.480
274.4880, 5403.932
275.7000, 4978.753
276.9120, 4701.256
278.1230, 4141.363
279.3340, 3971.379
280.5450, 3599.712
281.7560, 3268.197
282.9670, 2942.396
284.1780, 2596.235
285.3880, 2225.152
286.5980, 1972.061
287.8090, 1678.254
289.0190, 1456.605
290.2290, 1318.162
291.4380, 905.9219
292.6480, 831.8789
293.8570, 633.0312
295.0670, 576.3730
296.2760, 404.9004
297.4850, 507.6094
298.6930, 538.4980
299.9020, 811.5605
301.1110, 729.7969
302.3190, 849.2012
303.5270, 1080.771
304.7350, 1165.506
305.9430, 1358.400
307.1510, 1542.477
308.3580, 1592.227
309.5660, 1743.740
310.7730, 1743.258
311.9800, 2011.156
313.1870, 2178.334
314.3940, 2411.771
315.6010, 2797.270
316.8070, 2919.152
318.0130, 2964.873
319.2200, 3032.545
320.4260, 2830.285
321.6310, 2555.301
322.8370, 2363.314
324.0430, 2203.703
325.2480, 2012.492
326.4540, 1863.104
327.6590, 1931.961
328.8640, 1973.717
330.0680, 2045.582
331.2730, 2113.609
332.4780, 2242.922
333.6820, 2292.607
334.8860, 2380.922
336.0900, 2317.746
337.2940, 2413.145
338.4980, 2743.609
339.7010, 2954.234
340.9050, 2924.969
342.1080, 3228.818
343.3110, 3378.781
344.5140, 3242.855
345.7170, 3703.041
346.9200, 3767.342
348.1220, 3915.754
349.3240, 4083.277
350.5270, 4360.721
351.7290, 4880.658
352.9310, 5079.516
354.1320, 5586.482
355.3340, 6091.559
356.5350, 6946.742
357.7370, 7841.037
358.9380, 9153.439
360.1390, 10658.95
361.3400, 12519.56
362.5400, 14526.28
363.7410, 16532.10
364.9410, 19006.03
366.1410, 21909.05
367.3410, 24319.18
368.5410, 27604.41
369.7410, 31533.73
370.9400, 36105.15
372.1400, 40461.67
373.3390, 43778.28
374.5380, 45862.99
375.7370, 45665.79
376.9360, 43731.67
378.1350, 40487.67
379.3330, 35758.75
380.5310, 31615.92
381.7300, 27528.18
382.9280, 23685.54
384.1260, 20731.98
385.3230, 18194.51
386.5210, 16228.14
387.7180, 14999.86
388.9160, 13678.66
390.1130, 12788.56
391.3100, 12065.54
392.5060, 11723.62
393.7030, 11516.77
394.9000, 11733.03
396.0960, 11798.34
397.2920, 12406.74
398.4880, 12751.21
399.6840, 13318.27
400.8800, 14032.78
402.0750, 14641.02
403.2710, 15457.57
404.4660, 16426.87
405.6610, 17495.81
406.8560, 18179.07
408.0510, 18911.68
409.2450, 19146.95
410.4400, 18776.59
411.6340, 17906.31
412.8280, 16860.78
414.0220, 15226.77
415.2160, 13369.61
416.4100, 11429.62
417.6030, 10153.68
418.7970, 8385.875
419.9900, 7048.178
421.1830, 6006.590
422.3760, 5065.113
423.5690, 4379.748
424.7610, 3837.352
425.9540, 3174.223
427.1460, 2936.354
428.3380, 2354.445
429.5300, 2277.641
430.7220, 1926.938
431.9140, 1606.350
433.1050, 1411.865
434.2970, 1241.479
435.4880, 1195.191
436.6790, 1053.004
437.8700, 956.9121
439.0610, 733.9180
440.2510, 881.0215
441.4420, 634.2207
442.6320, 454.5117
443.8220, 528.9004
445.0120, 311.3809
446.2020, 393.9570
447.3910, 120.6230
448.5810, 280.3809
449.7700, 41.76953
450.9600, 23.84180
452.1490, 120.8320
453.3370, 76.22656
454.5260, 44.62695
455.7150, 98.40625
456.9030, 167.1309
458.0910, 96.82812
459.2800, 101.4727
460.4670, 43.06641
461.6550, 87.58984
462.8430, 34.05859
464.0300, 110.4590
465.2180, 149.8145
466.4050, 132.1426
467.5920, 158.6484
468.7790, 5.710938
469.9650, 108.9102
471.1520, 168.0664
472.3380, 79.21094
473.5250, 267.3027
474.7110, 58.42578
475.8970, 253.4902
477.0820, 26.58203
478.2680, 229.6074
479.4540, 17.35156
480.6390, 19.61328
481.8240, 70.48828
483.0090, 95.66602
484.1940, 187.9199
485.3780, 353.2539
486.5630, 668.6602
487.7470, 580.1406
488.9320, 955.7012
490.1160, 1134.334
491.3000, 1166.041
492.4830, 1469.822
493.6670, 1499.676
494.8500, 1629.602
496.0340, 1870.604
497.2170, 1951.676
498.4000, 2029.818
499.5820, 2211.035
500.7650, 2339.322
501.9480, 2539.680
503.1300, 2543.107
504.3120, 2743.604
505.4940, 2703.168
506.6760, 2741.803
507.8580, 2883.506
509.0390, 2809.279
510.2210, 2937.121
511.4020, 2899.055
512.5830, 2912.061
513.7640, 2866.156
514.9450, 2655.326
516.1250, 2466.564
517.3060, 2335.877
518.4860, 1998.295
519.6660, 1846.781
520.8460, 1581.342
522.0260, 1393.965
523.2060, 1181.729
524.3850, 932.6289
525.5650, 944.6035
526.7440, 521.6758
527.9230, 575.8105
529.1020, 528.0410
530.2810, 355.3418
531.4590, 319.7891
532.6380, 288.5391
533.8160, 186.9922
534.9940, 204.7227
536.1720, 82.53711
537.3500, 130.5254
538.5270, 7.546875
539.7050, 68.45508
540.8820, 31.70312
542.0590, 44.05273
543.2360, 75.73633
544.4130, 99.34180
545.5900, 31.92969
546.7660, 42.09180
547.9430, 17.10156
549.1190, 11.69727
550.2950, 40.66016
551.4710, 24.99609
552.6470, 103.2988
553.8220, 35.60938
554.9980, 22.89453
556.1730, 131.8496
557.3480, 2.666016
558.5230, 266.5332
559.6980, 155.4531
560.8730, 161.4512
562.0470, 114.4980
563.2220, 292.6016
564.3960, 148.7559
565.5700, 11.95898
566.7440, 347.1953
567.9170, 72.47656
569.0910, 331.8027
570.2640, 453.1719
571.4380, 459.5879
572.6110, 480.0449
573.7840, 424.5547
574.9570, 445.1055
576.1290, 381.6973
577.3020, 626.3320
578.4740, 624.0039
579.6460, 799.7168
580.8180, 806.4668
581.9900, 842.2559
583.1620, 862.0840
584.3330, 718.9473
585.5040, 871.8457
586.6760, 1006.783
587.8470, 815.7539
589.0180, 1066.760
590.1880, 1263.799
591.3590, 1070.852
592.5290, 984.4199
593.7000, 1165.410
594.8700, 1125.584
596.0400, 1084.570
597.2090, 1176.461
598.3790, 1166.273
599.5490, 1070.203
600.7180, 1233.920
601.8870, 1340.975
603.0560, 1256.244
604.2250, 1349.639
605.3940, 1371.652
606.5620, 1444.369
607.7300, 1390.605
608.8990, 1437.602
610.0670, 1339.934
611.2350, 1423.176
612.4020, 1516.676
613.5700, 1454.213
614.7370, 1660.736
615.9050, 1715.127
617.0720, 1839.287
618.2390, 2191.965
619.4060, 2617.275
620.5720, 2842.154
621.7390, 3307.109
622.9050, 3913.049
624.0710, 4547.014
625.2370, 5467.008
626.4030, 5991.025
627.5690, 6958.072
628.7340, 7918.141
629.9000, 8551.234
631.0650, 9624.355
632.2300, 10526.51
633.3950, 11262.70
634.5600, 11634.90
635.7240, 11327.14
636.8890, 11157.39
638.0530, 10566.67
639.2170, 9881.965
640.3810, 9261.281
641.5450, 8635.619
642.7080, 8009.625
643.8720, 7392.348
645.0350, 6910.742
646.1980, 6632.152
647.3610, 6357.578
648.5240, 6359.023
649.6870, 6066.484
650.8490, 6030.906
652.0120, 6002.232
653.1740, 5938.914
654.3360, 5974.367
655.4980, 5904.902
656.6600, 5734.766
657.8210, 5475.574
658.9830, 5847.195
660.1440, 5361.504
661.3050, 5541.373
662.4660, 5358.809
663.6270, 5074.994
664.7870, 4904.535
665.9480, 4663.191
667.1080, 4594.439
668.2680, 4007.438
669.4280, 3930.277
670.5880, 3474.301
671.7480, 3282.693
672.9070, 3190.902
674.0670, 2866.021
675.2260, 2836.115
676.3850, 2798.041
677.5440, 2662.211
678.7030, 2769.703
679.8610, 2695.627
681.0200, 2728.713
682.1780, 2886.516
683.3360, 2757.646
684.4940, 3108.193
685.6520, 3249.195
686.8090, 3693.576
687.9670, 4080.213
689.1240, 4477.764
690.2810, 4863.129
691.4380, 5660.379
692.5950, 6344.451
693.7520, 7348.275
694.9080, 8198.633
696.0650, 9426.391
697.2210, 10730.91
698.3770, 12089.90
699.5330, 13818.03
700.6880, 15319.15
701.8440, 16226.57
702.9990, 17525.21
704.1550, 18628.02
705.3100, 19702.51
706.4650, 19910.11
707.6190, 19961.30
708.7740, 19501.62
709.9290, 18942.63
711.0830, 17831.91
712.2370, 16248.02
713.3910, 14782.52
714.5450, 12901.74
715.6980, 11040.95
716.8520, 9477.137
718.0050, 8291.297
719.1580, 6992.434
720.3110, 6111.551
721.4640, 5293.648
722.6170, 4558.725
723.7700, 4247.777
724.9220, 3816.809
726.0740, 3562.818
727.2260, 3485.803
728.3780, 3318.812
729.5300, 3224.750
730.6810, 3239.670
731.8330, 3218.572
732.9840, 3100.725
734.1350, 3007.965
735.2860, 3150.875
736.4370, 3383.621
737.5880, 3543.471
738.7380, 3417.311
739.8880, 3469.688
741.0390, 3542.500
742.1890, 3405.828
743.3380, 3693.607
744.4880, 3632.205
745.6380, 3619.467
746.7870, 3615.062
747.9360, 3714.834
749.0850, 3519.578
750.2340, 3596.369
751.3830, 3506.289
752.5310, 3181.914
753.6800, 3267.664
754.8280, 2985.398
755.9760, 2656.156
757.1240, 2409.887
758.2720, 2290.641
759.4190, 2033.168
760.5670, 1741.051
761.7140, 1627.713
762.8610, 1668.338
764.0080, 1367.934
765.1550, 1188.500
766.3020, 1136.031
767.4480, 935.5312
768.5950, 846.9980
769.7410, 755.0625
770.8870, 620.9824
772.0330, 573.0664
773.1780, 455.3379
774.3240, 524.6348
775.4690, 548.8984
776.6140, 684.1270
777.7590, 594.3223
778.9040, 264.4824
780.0490, 671.6055
781.1940, 304.6953
782.3380, 453.7500
783.4820, 321.7656
784.6260, 352.7500
785.7700, 463.6953
786.9140, 284.6035
788.0580, 25.52344
789.2010, 122.2598
790.3450, 13.00586
791.4880, 57.64648
792.6310, 254.2422
793.7730, 44.80078
794.9160, 61.70117
796.0590, 106.6855
797.2010, 68.02539
798.3430, 179.3105
799.4850, 214.4434
800.6270, 194.3887
801.7690, 27.48438
802.9100, 42.71094
804.0520, 140.9922
805.1930, 48.34766
806.3340, 50.20898
807.4750, 240.2949
808.6160, 119.0039
809.7560, 20.85352
810.8970, 19.79102
812.0370, 19.82227
813.1770, 176.9375
814.3170, 133.2266
815.4570, 202.6270
816.5960, 146.2012
817.7360, 61.90820
818.8750, 127.7188
820.0140, 207.6543
821.1530, 11.74805
822.2920, 141.8965
823.4310, 62.17578
824.5690, 8.457031
825.7070, 77.02539
826.8460, 56.55078
827.9840, 48.04297
829.1220, 56.26562
830.2590, 35.92773
831.3970, 37.32227
832.5340, 22.32422
833.6710, 19.05469
834.8080, 129.1465
835.9450, 54.69141
837.0820, 114.3691
838.2190, 90.38672
839.3550, 75.35938
840.4910, 133.0938
841.6270, 33.16602
842.7630, 152.0078
843.8990, 206.8086
845.0350, 230.5762
846.1700, 104.3047
847.3060, 214.9922
848.4410, 30.64844
849.5760, 141.2480
850.7100, 436.8105
851.8450, 195.3379
852.9800, 353.8320
854.1140, 264.2910
855.2480, 212.7148
856.3820, 303.1035
857.5160, 253.4590
858.6500, 472.7812
859.7830, 225.0703
860.9170, 346.3223
862.0500, 394.5449
863.1830, 230.7324
864.3160, 170.8848
865.4480, 395.0059
866.5810, 269.0938
867.7130, 317.1504
868.8460, 120.1738
869.9780, 11.83789
871.1100, 158.0938
872.2410, 59.99414
873.3730, 318.8516
874.5050, 213.6797
875.6360, 83.47656
876.7670, 358.2344
877.8980, 56.03711
879.0290, 338.6172
880.1590, 100.2402
881.2900, 198.8262
882.4200, 51.38281
883.5500, 168.9004
884.6800, 290.3887
885.8100, 134.8457
886.9400, 268.2715
888.0690, 124.6660
889.1990, 340.0391
890.3280, 178.3789
891.4570, 135.6914
892.5860, 157.9707
893.7140, 131.2207
894.8430, 32.43945
895.9710, 92.62305
897.1000, 188.7754
898.2280, 334.9004
899.3560, 204.0137
900.4830, 195.1211
901.6110, 345.2090
902.7380, 115.2676
903.8660, 224.3066
904.9930, 67.67969
906.1200, 152.2715
907.2460, 8.798828
908.3730, 190.0898
909.5000, 166.9551
910.6260, 202.7930
911.7520, 313.6035
912.8780, 350.3906
914.0040, 249.1523
915.1290, 329.8887
916.2550, 318.6016
917.3800, 256.2852
918.5050, 337.9512
919.6300, 218.5918
920.7550, 199.2090
921.8800, 360.8203
923.0040, 194.4062
924.1290, 553.0273
925.2530, 348.7344
926.3770, 537.0840
927.5010, 401.6523
928.6250, 421.1445
929.7480, 665.3301
930.8720, 672.5703
931.9950, 659.0039
933.1180, 612.7461
934.2410, 754.9199
935.3640, 670.5117
936.4860, 603.3594
937.6090, 670.8379
938.7310, 776.2363
939.8530, 921.0332
940.9750, 958.0742
942.0970, 1059.275
943.2180, 925.2891
944.3400, 1070.920
945.4610, 1120.723
946.5820, 1169.605
947.7030, 1263.525
948.8240, 1310.752
949.9450, 1479.449
951.0650, 1478.967
952.1860, 1659.057
953.3060, 1840.469
954.4260, 1862.795
955.5460, 2073.146
956.6650, 2259.875
957.7850, 2262.482
958.9040, 2467.141
960.0230, 2515.285
961.1420, 2829.250
962.2610, 2977.836
963.3800, 3027.270
964.4990, 3039.898
965.6170, 3129.121
966.7350, 2881.404
967.8530, 3093.986
968.9710, 2961.840
970.0890, 3223.725
971.2070, 3130.455
972.3240, 3031.182
973.4410, 2806.594
974.5580, 3006.779
975.6750, 2972.783
976.7920, 2773.254
977.9090, 2702.453
979.0250, 2935.893
980.1410, 2884.348
981.2580, 2821.088
982.3740, 2819.557
983.4890, 2819.184
984.6050, 2714.410
985.7200, 2703.904
986.8360, 2784.387
987.9510, 2823.895
989.0660, 2916.410
990.1810, 2906.936
991.2950, 3027.469
992.4100, 3077.012
993.5240, 3178.566
994.6390, 3089.127
995.7530, 3220.699
996.8660, 3287.281
997.9800, 3437.926
999.0940, 3509.529
1000.207, 3672.195
1001.320, 3526.883
1002.433, 3636.582
1003.546, 3528.035
1004.659, 3815.391
1005.772, 3613.066
1006.884, 3656.910
1007.996, 3968.670
1009.108, 4012.461
1010.220, 3914.721
1011.332, 3926.539
1012.444, 4061.844
1013.555, 4158.689
1014.666, 4214.234
1015.777, 4369.109
1016.888, 4247.174
1017.999, 4306.078
1019.110, 4568.000
1020.220, 4522.879
1021.331, 4468.828
1022.441, 4508.195
1023.551, 4515.178
1024.661, 4438.178
1025.770, 4303.186
1026.880, 4448.217
1027.989, 4466.258
1029.098, 4170.512
1030.207, 4214.400
1031.316, 4116.432
1032.425, 3986.816
1033.533, 4021.191
1034.642, 4189.742
1035.750, 4035.977
1036.858, 4118.668
1037.966, 4184.938
1039.073, 4083.596
1040.181, 4211.863
1041.288, 4375.039
1042.396, 4263.426
1043.503, 4325.848
1044.610, 4361.295
1045.716, 4324.783
1046.823, 4329.289
1047.929, 4412.816
1049.036, 4526.365
1050.142, 4707.930
1051.248, 4744.875
1052.353, 5046.492
1053.459, 5185.129
1054.564, 5391.111
1055.670, 5742.787
1056.775, 5779.488
1057.880, 5688.459
1058.985, 5817.229
1060.089, 6380.047
1061.194, 6122.664
1062.298, 6319.762
1063.402, 6150.094
1064.506, 6504.410
1065.610, 6358.393
1066.713, 6631.408
1067.817, 6369.656
1068.920, 6499.957
1070.023, 6485.188
1071.126, 6851.371
1072.229, 6776.689
1073.332, 6719.367
1074.435, 7289.854
1075.537, 7290.285
1076.639, 7367.818
1077.741, 8151.428
1078.843, 8106.080
1079.945, 8897.730
1081.046, 9325.477
1082.148, 9641.908
1083.249, 10074.81
1084.350, 10551.82
1085.451, 10602.90
1086.551, 10761.16
1087.652, 10984.42
1088.752, 10590.95
1089.853, 10312.30
1090.953, 10156.73
1092.053, 9854.205
1093.152, 9414.723
1094.252, 8964.215
1095.351, 8681.789
1096.451, 8094.387
1097.550, 7618.012
1098.649, 7189.672
1099.748, 6651.363
1100.846, 6363.729
1101.945, 5921.279
1103.043, 5678.293
1104.141, 5144.141
1105.239, 4897.010
1106.337, 4461.902
1107.434, 4362.820
1108.532, 3744.762
1109.629, 3699.730
1110.726, 3344.721
1111.823, 3253.730
1112.920, 2907.758
1114.017, 2796.812
1115.113, 2946.883
1116.210, 2856.980
1117.306, 2945.102
1118.402, 3028.242
1119.498, 3030.398
1120.593, 2964.578
1121.689, 2851.775
1122.784, 2697.990
1123.879, 2661.225
1124.974, 2231.477
1126.069, 2011.752
1127.164, 1518.041
1128.259, 1438.541
1129.353, 1290.566
1130.447, 1275.914
1131.541, 1020.275
1132.635, 918.1895
1133.729, 752.5879
1134.822, 775.0059
1135.916, 817.4395
1137.009, 804.9062
1138.102, 684.3887
1139.195, 490.8926
1140.288, 441.8262
1141.380, 305.3633
1142.473, 300.9199
1143.565, 311.7051
1144.657, 415.1035
1145.749, 438.7305
1146.841, 312.3770
1147.932, 416.0371
1149.024, 145.7168
1150.115, 95.41406
1151.206, 229.1250
1152.297, 84.85547
1153.388, 65.40039
1154.479, 282.3438
1155.569, 104.1055
1156.659, 88.88086
1157.750, 71.67383
1158.839, 78.48047
1159.929, 34.83008
1161.019, 148.1406
1162.108, 44.00195
1163.198, 105.1406
1164.287, 142.6934
1165.376, 54.88086
1166.465, 193.4355
1167.553, 78.73828
1168.642, 28.07812
1169.730, 37.90625
1170.818, 38.23438
1171.906, 141.3418
1172.994, 43.79688
1174.082, 7.412109
1175.170, 42.32617
1176.257, 56.86133
1177.344, 132.7891
1178.431, 102.8965
1179.518, 7.673828
1180.605, 116.6328
1181.691, 11.39844
1182.778, 97.75977
1183.864, 129.7461
1184.950, 79.25781
1186.036, 14.71484
1187.122, 85.79102
1188.207, 4.214844
1189.292, 129.7832
1190.378, 165.7949
1191.463, 63.18359
1192.548, 139.1816
1193.632, 33.23438
1194.717, 72.29492
1195.801, 105.6230
1196.886, 76.21875
1197.970, 0.1542970
1199.054, 23.90820
1200.137, 85.02539
1201.221, 174.0332
1202.305, 98.82812
1203.388, 1.304688
1204.471, 59.83008
1205.554, 128.0156
1206.637, 26.86719
1207.719, 104.7227
1208.802, 54.62695
1209.884, 87.50586
1210.966, 29.32422
1212.048, 3.843750
1213.130, 28.98438
1214.212, 48.36914
1215.293, 235.6562
1216.374, 13.50391
1217.456, 14.32617
1218.536, 148.8438
1219.617, 77.90820
1220.698, 112.6602
1221.778, 160.4121
1222.859, 132.1660
1223.939, 6.076172
1225.019, 174.6680
1226.099, 67.41211
1227.178, 176.1582
1228.258, 225.9023
1229.337, 142.6484
1230.417, 34.60547
1231.496, 131.1152
1232.574, 187.8340
1233.653, 80.55273
1234.732, 178.2715
1235.810, 151.9902
1236.888, 159.7031
1237.966, 216.8164
1239.044, 174.1270
1240.122, 269.8359
1241.199, 194.5664
1242.277, 158.2930
1243.354, 158.0195
1244.431, 154.9023
1245.508, 130.7344
1246.585, 199.1855
1247.661, 121.9043
1248.738, 112.6211
1249.814, 159.3340
1250.890, 197.0430
1251.966, 177.3301
1253.042, 155.6230
1254.117, 164.1523
1255.193, 53.84961
1256.268, 65.54297
1257.343, 31.23438
1258.418, 162.0820
1259.493, 52.49805
1260.567, 78.07422
1261.642, 14.35352
1262.716, 263.1914
1263.790, 271.7305
1264.864, 153.2695
1265.938, 259.7988
1267.011, 171.3281
1268.085, 290.8516
1269.158, 40.62891
1270.231, 352.8477
1271.304, 236.3164
1272.377, 193.7832
1273.450, 346.2441
1274.522, 352.7012
1275.594, 185.1523
1276.666, 180.5977
1277.738, 245.0391
1278.810, 96.47266
1279.882, 221.9043
1280.953, 255.3281
1282.025, 177.7480
1283.096, 261.6855
1284.167, 212.0957
1285.238, 210.4980
1286.308, 114.8945
1287.379, 129.1660
1288.449, 180.6719
1289.519, 120.0527
1290.589, 90.42578
