##NAMES=Elbaite
##RRUFFID=R060562
##IDEAL CHEMISTRY=Na(Al_1.5_Li_1.5_)Al_6_(Si_6_O_18_)(BO_3_)_3_(OH)_3_OH
##LOCALITY=unknown
##OWNER=RRUFF
##SOURCE=Gemological Institute of America
##DESCRIPTION=Blue colored polished fragment
##STATUS=The identification of this mineral has been confirmed by X-ray diffraction and chemical analysis
##URL=rruff.info/R060562
##MEASURED CHEMISTRY=(Na_0.68_Ca_0.20_[box]_0.12_)(Li_1.20_Al_1.12_Fe^2+^_0.50_Mn_0.18_)Al_6_(BO_3_)_3_[Si_6_O_18_]((OH)_0.80_F_0.20_)_4_
##PIN_ID=M00501
##ORIENTATION=Laser parallel to c* (0 0 1). Fiducial mark perpendicular to laser is parallel to -a [-1 0 0]
118.1340, 0.0000000E+00
119.3650, 13.09668
120.5960, 69.00293
121.8270, 592.9297
123.0580, 1311.635
124.2880, 2027.020
125.5190, 2235.025
126.7490, 2581.778
127.9790, 3440.826
129.2090, 4163.455
130.4390, 4503.127
131.6680, 4637.236
132.8980, 4431.453
134.1270, 4157.635
135.3560, 3991.828
136.5850, 3316.384
137.8140, 2880.760
139.0430, 2688.414
140.2710, 2250.080
141.5000, 1295.702
142.7280, 974.4961
143.9560, 573.8896
145.1840, 644.4541
146.4120, 558.1533
147.6390, 601.1582
148.8670, 583.5801
150.0940, 934.7451
151.3210, 1195.559
152.5490, 1381.463
153.7750, 1335.394
155.0020, 1452.657
156.2290, 1244.937
157.4550, 1164.233
158.6810, 970.8379
159.9080, 939.3184
161.1340, 799.3848
162.3590, 855.2793
163.5850, 832.2090
164.8110, 978.3613
166.0360, 842.8994
167.2610, 669.9697
168.4860, 566.7031
169.7110, 672.2119
170.9360, 500.6025
172.1610, 382.9648
173.3850, 173.3867
174.6100, 0.9423830
175.8340, 86.69824
177.0580, 121.7139
178.2820, 157.0430
179.5050, 140.7344
180.7290, 24.16211
181.9520, 77.39355
183.1760, 233.4434
184.3990, 544.0264
185.6220, 780.1758
186.8450, 880.9229
188.0670, 1297.300
189.2900, 1532.335
190.5120, 1821.205
191.7340, 2466.204
192.9560, 3112.604
194.1780, 3734.931
195.4000, 4247.468
196.6220, 4620.788
197.8430, 4882.020
199.0640, 5017.559
200.2860, 5359.346
201.5070, 5316.652
202.7270, 5493.004
203.9480, 5188.836
205.1690, 4753.993
206.3890, 4487.465
207.6090, 4724.238
208.8290, 4992.307
210.0490, 5401.659
211.2690, 5901.281
212.4890, 6746.164
213.7080, 7538.289
214.9280, 8619.646
216.1470, 9913.229
217.3660, 11285.03
218.5850, 13020.02
219.8030, 14577.22
221.0220, 16247.61
222.2400, 17358.18
223.4590, 18550.93
224.6770, 19346.86
225.8950, 19580.96
227.1120, 19542.25
228.3300, 19482.70
229.5480, 18655.30
230.7650, 18426.00
231.9820, 18139.80
233.1990, 17570.69
234.4160, 17485.68
235.6330, 17038.77
236.8490, 16907.96
238.0660, 16746.25
239.2820, 16839.65
240.4980, 16680.16
241.7140, 15669.76
242.9300, 14620.48
244.1460, 13075.30
245.3610, 11640.24
246.5770, 10032.28
247.7920, 8484.441
249.0070, 6993.711
250.2220, 5568.094
251.4370, 4372.589
252.6510, 3385.200
253.8660, 2602.928
255.0800, 1799.769
256.2940, 1404.729
257.5080, 1708.805
258.7220, 952.1982
259.9360, 1775.310
261.1490, 245.7402
262.3630, 470.7090
263.5760, 617.1768
264.7890, 798.8574
266.0020, 794.2002
267.2150, 889.1377
268.4270, 914.0801
269.6400, 889.8193
270.8520, 857.1621
272.0640, 741.2568
273.2760, 564.1475
274.4880, 518.8457
275.7000, 112.6133
276.9120, 116.6680
278.1230, 93.22949
279.3340, 15.67871
280.5450, 49.56445
281.7560, 55.95215
282.9670, 243.4727
284.1780, 482.1143
285.3880, 490.8555
286.5980, 324.6768
287.8090, 264.5664
289.0190, 429.5117
290.2290, 332.5078
291.4380, 407.5498
292.6480, 241.6270
293.8570, 248.7451
295.0670, 219.8994
296.2760, 306.0781
297.4850, 177.2920
298.6930, 194.5410
299.9020, 333.8262
301.1110, 518.1230
302.3190, 720.3750
303.5270, 919.2598
304.7350, 1169.613
305.9430, 1402.606
307.1510, 1664.529
308.3580, 1992.390
309.5660, 2323.199
310.7730, 2510.965
311.9800, 2723.694
313.1870, 3047.394
314.3940, 3218.570
315.6010, 3494.220
316.8070, 3741.376
318.0130, 4074.017
319.2200, 4542.654
320.4260, 5021.236
321.6310, 5478.879
322.8370, 6031.530
324.0430, 6550.195
325.2480, 6994.873
326.4540, 7183.246
327.6590, 7452.989
328.8640, 7751.838
330.0680, 7761.738
331.2730, 7894.734
332.4780, 7858.877
333.6820, 7873.156
334.8860, 7788.640
336.0900, 7724.037
337.2940, 7679.811
338.4980, 7718.902
339.7010, 7612.234
340.9050, 7831.934
342.1080, 7938.231
343.3110, 8191.618
344.5140, 8191.066
345.7170, 8389.586
346.9200, 8279.210
348.1220, 8400.944
349.3240, 8282.783
350.5270, 8356.724
351.7290, 8386.771
352.9310, 8468.919
354.1320, 8908.165
355.3340, 9174.520
356.5350, 9734.967
357.7370, 10446.51
358.9380, 11092.16
360.1390, 11622.91
361.3400, 12561.75
362.5400, 13570.69
363.7410, 14749.72
364.9410, 15993.85
366.1410, 17585.08
367.3410, 19176.39
368.5410, 21462.81
369.7410, 24056.32
370.9400, 26831.92
372.1400, 30224.60
373.3390, 33545.39
374.5380, 36432.26
375.7370, 38289.23
376.9360, 38320.29
378.1350, 37239.43
379.3330, 34858.68
380.5310, 31641.00
381.7300, 28211.43
382.9280, 25124.94
384.1260, 22259.54
385.3230, 19292.24
386.5210, 17285.02
387.7180, 15104.90
388.9160, 13664.86
390.1130, 12414.92
391.3100, 11583.06
392.5060, 10578.30
393.7030, 9978.620
394.9000, 9454.030
396.0960, 8985.330
397.2920, 8775.120
398.4880, 8618.797
399.6840, 8697.562
400.8800, 8999.415
402.0750, 9249.387
403.2710, 9801.505
404.4660, 10024.78
405.6610, 10461.21
406.8560, 10548.86
408.0510, 10956.75
409.2450, 10645.54
410.4400, 10370.92
411.6340, 9574.573
412.8280, 8752.830
414.0220, 7869.773
415.2160, 7159.922
416.4100, 6327.502
417.6030, 5509.351
418.7970, 4774.150
419.9900, 4401.768
421.1830, 3806.080
422.3760, 3568.546
423.5690, 3077.596
424.7610, 2937.914
425.9540, 2774.586
427.1460, 2461.866
428.3380, 2263.227
429.5300, 2389.666
430.7220, 2181.184
431.9140, 1921.781
433.1050, 2231.459
434.2970, 2131.216
435.4880, 1914.051
436.6790, 2135.963
437.8700, 1977.956
439.0610, 2051.028
440.2510, 2217.179
441.4420, 1985.408
442.6320, 2224.717
443.8220, 2126.104
445.0120, 2187.570
446.2020, 2237.117
447.3910, 2191.781
448.5810, 2157.449
449.7700, 2168.235
450.9600, 2155.104
452.1490, 2135.053
453.3370, 2182.087
454.5260, 2272.201
455.7150, 2368.398
456.9030, 2583.680
458.0910, 2770.045
459.2800, 2996.491
460.4670, 3251.023
461.6550, 3494.639
462.8430, 3903.340
464.0300, 3814.126
465.2180, 4303.999
466.4050, 4284.956
467.5920, 4524.000
468.7790, 4597.131
469.9650, 4552.593
471.1520, 4777.766
472.3380, 4533.020
473.5250, 4694.295
474.7110, 4534.825
475.8970, 4603.975
477.0820, 4597.451
478.2680, 4472.311
479.4540, 4449.730
480.6390, 4379.843
481.8240, 4134.697
483.0090, 4285.023
484.1940, 4231.736
485.3780, 4146.813
486.5630, 3838.801
487.7470, 3953.473
488.9320, 4026.050
490.1160, 3714.717
491.3000, 3750.471
492.4830, 3960.312
493.6670, 3911.239
494.8500, 4040.252
496.0340, 4119.352
497.2170, 4178.535
498.4000, 4295.805
499.5820, 4311.160
500.7650, 4384.598
501.9480, 4438.119
503.1300, 4383.724
504.3120, 4395.412
505.4940, 4289.182
506.6760, 4397.033
507.8580, 4535.968
509.0390, 4388.983
510.2210, 4415.078
511.4020, 4067.256
512.5830, 3913.511
513.7640, 3728.844
514.9450, 3519.259
516.1250, 3279.749
517.3060, 3016.318
518.4860, 2793.967
519.6660, 2485.689
520.8460, 2316.488
522.0260, 2192.364
523.2060, 2163.316
524.3850, 1999.342
525.5650, 2096.442
526.7440, 1891.618
527.9230, 2124.866
529.1020, 2150.188
530.2810, 2250.582
531.4590, 2200.049
532.6380, 2535.586
533.8160, 2688.193
534.9940, 2957.874
536.1720, 2951.622
537.3500, 3212.440
538.5270, 3323.329
539.7050, 3515.285
540.8820, 3443.309
542.0590, 3573.399
543.2360, 3749.439
544.4130, 3750.975
545.5900, 4001.805
546.7660, 3901.997
547.9430, 4055.728
549.1190, 3995.129
550.2950, 3988.808
551.4710, 4281.570
552.6470, 4147.955
553.8220, 4307.812
554.9980, 4144.841
556.1730, 4053.170
557.3480, 4022.792
558.5230, 3735.676
559.6980, 3575.772
560.8730, 3589.070
562.0470, 3216.423
563.2220, 2982.875
564.3960, 2873.382
565.5700, 2805.965
566.7440, 2508.608
567.9170, 2121.311
569.0910, 2316.060
570.2640, 2135.854
571.4380, 2291.694
572.6110, 1886.577
573.7840, 2020.506
574.9570, 1925.478
576.1290, 2028.493
577.3020, 1924.551
578.4740, 1948.649
579.6460, 1977.789
580.8180, 1806.969
581.9900, 1716.189
583.1620, 1790.449
584.3330, 1767.747
585.5040, 1695.084
586.6760, 1445.460
587.8470, 1578.874
589.0180, 1352.325
590.1880, 1382.816
591.3590, 1213.348
592.5290, 1052.924
593.7000, 1088.542
594.8700, 817.2002
596.0400, 800.9043
597.2090, 740.6504
598.3790, 814.4404
599.5490, 701.2773
600.7180, 818.1885
601.8870, 725.1797
603.0560, 394.2451
604.2250, 530.3809
605.3940, 503.6201
606.5620, 204.9414
607.7300, 83.33301
608.8990, 130.8066
610.0670, 101.6025
611.2350, 341.9443
612.4020, 89.34961
613.5700, 283.6914
614.7370, 461.0684
615.9050, 402.5859
617.0720, 658.2217
618.2390, 628.1201
619.4060, 521.2783
620.5720, 687.6045
621.7390, 504.2158
622.9050, 460.0068
624.0710, 302.9854
625.2370, 289.0840
626.4030, 21.25391
627.5690, 14.61523
628.7340, 177.5205
629.9000, 503.4795
631.0650, 672.4648
632.2300, 920.4844
633.3950, 1074.558
634.5600, 1352.658
635.7240, 1517.775
636.8890, 1767.929
638.0530, 1744.096
639.2170, 1949.275
640.3810, 1936.464
641.5450, 1751.660
642.7080, 1695.863
643.8720, 1530.072
645.0350, 1335.287
646.1980, 1292.504
647.3610, 1312.721
648.5240, 1198.938
649.6870, 1327.454
650.8490, 1314.369
652.0120, 1612.581
653.1740, 1652.789
654.3360, 1912.993
655.4980, 2124.191
656.6600, 2193.386
657.8210, 2237.572
658.9830, 2134.752
660.1440, 2228.926
661.3050, 1965.089
662.4660, 2027.243
663.6270, 1568.387
664.7870, 1429.521
665.9480, 1356.645
667.1080, 932.7539
668.2680, 930.8506
669.4280, 744.9355
670.5880, 649.0049
671.7480, 623.0596
672.9070, 587.1084
674.0670, 587.2109
675.2260, 600.1270
676.3850, 598.1143
677.5440, 512.0850
678.7030, 433.0361
679.8610, 257.9658
681.0200, 175.8770
682.1780, 0.2333980
683.3360, 100.4297
684.4940, 133.7656
685.6520, 168.2607
686.8090, 141.9326
687.9670, 51.77246
689.1240, 225.7324
690.2810, 156.9072
691.4380, 1.265625
692.5950, 190.2744
693.7520, 264.7803
694.9080, 527.2510
696.0650, 771.6875
697.2210, 1025.087
698.3770, 1377.447
699.5330, 1683.768
700.6880, 2029.049
701.8440, 2366.257
702.9990, 2701.484
704.1550, 3084.637
705.3100, 3513.746
706.4650, 3961.811
707.6190, 4482.830
708.7740, 5078.545
709.9290, 5719.733
711.0830, 6454.615
712.2370, 7305.450
713.3910, 8183.238
714.5450, 9484.977
715.6980, 10821.67
716.8520, 12391.31
718.0050, 14255.90
719.1580, 16448.44
720.3110, 18978.93
721.4640, 22027.37
722.6170, 24834.76
723.7700, 28616.28
724.9220, 31773.90
726.0740, 35630.39
727.2260, 39222.79
728.3780, 41186.79
729.5300, 42501.28
730.6810, 42518.78
731.8330, 41132.26
732.9840, 39065.25
734.1350, 36239.86
735.2860, 33290.07
736.4370, 30084.79
737.5880, 27499.16
738.7380, 24879.54
739.8880, 22690.26
741.0390, 20816.24
742.1890, 18900.19
743.3380, 17069.51
744.4880, 15776.37
745.6380, 14206.20
746.7870, 12715.10
747.9360, 11683.35
749.0850, 10422.57
750.2340, 9526.543
751.3830, 8772.747
752.5310, 7949.553
753.6800, 7236.727
754.8280, 6774.354
755.9760, 6304.353
757.1240, 5741.416
758.2720, 5315.722
759.4190, 4921.426
760.5670, 4364.867
761.7140, 4012.666
762.8610, 3501.247
764.0080, 3192.221
765.1550, 2845.812
766.3020, 2566.730
767.4480, 2269.741
768.5950, 1846.968
769.7410, 1660.139
770.8870, 1655.666
772.0330, 1287.617
773.1780, 1237.079
774.3240, 883.9658
775.4690, 761.3105
776.6140, 763.1670
777.7590, 739.3086
778.9040, 667.3105
780.0490, 698.6309
781.1940, 619.8184
782.3380, 747.7197
783.4820, 752.6602
784.6260, 827.6621
785.7700, 850.3223
786.9140, 899.9072
788.0580, 939.4121
789.2010, 1129.840
790.3450, 1284.188
791.4880, 1335.457
792.6310, 1599.646
793.7730, 1706.759
794.9160, 1894.791
796.0590, 2284.745
797.2010, 2435.619
798.3430, 2693.412
799.4850, 3006.127
800.6270, 3440.761
801.7690, 3663.625
802.9100, 4040.791
804.0520, 4173.184
805.1930, 4326.499
806.3340, 4484.732
807.4750, 4437.887
808.6160, 4420.198
809.7560, 4166.951
810.8970, 4112.863
812.0370, 3932.693
813.1770, 3604.443
814.3170, 3383.112
815.4570, 2923.700
816.5960, 2614.207
817.7360, 2268.634
818.8750, 2154.979
820.0140, 1713.360
821.1530, 1533.231
822.2920, 1344.793
823.4310, 1407.976
824.5690, 1156.602
825.7070, 1282.682
826.8460, 1545.645
827.9840, 1633.733
829.1220, 1801.404
830.2590, 2085.831
831.3970, 2313.323
832.5340, 2437.740
833.6710, 2637.084
834.8080, 2717.962
835.9450, 2701.547
837.0820, 2794.668
838.2190, 2706.714
839.3550, 2601.686
840.4910, 2364.583
841.6270, 2025.406
842.7630, 1857.154
843.8990, 1679.830
845.0350, 1535.431
846.1700, 1323.956
847.3060, 1218.408
848.4410, 983.7852
849.5760, 782.0879
850.7100, 933.3164
851.8450, 763.4727
852.9800, 681.5537
854.1140, 660.5605
855.2480, 788.4932
856.3820, 745.3516
857.5160, 729.1367
858.6500, 702.8477
859.7830, 603.4854
860.9170, 570.0469
862.0500, 588.5312
863.1830, 596.9404
864.3160, 442.2734
865.4480, 311.5244
866.5810, 174.6904
867.7130, 289.7607
868.8460, 223.7441
869.9780, 151.6367
871.1100, 181.4297
872.2410, 133.1299
873.3730, 83.73047
874.5050, 51.77539
875.6360, 74.44336
876.7670, 48.28711
877.8980, 49.29199
879.0290, 168.4580
880.1590, 98.84570
881.2900, 52.41992
882.4200, 103.1562
883.5500, 238.0781
884.6800, 243.2588
885.8100, 187.6729
886.9400, 225.2344
888.0690, 204.0205
889.1990, 166.9746
890.3280, 153.0264
891.4570, 117.1846
892.5860, 77.36133
893.7140, 225.5400
894.8430, 117.8281
895.9710, 165.1221
897.1000, 51.49316
898.2280, 6.893555
899.3560, 170.3379
900.4830, 97.91504
901.6110, 31.65234
902.7380, 61.52051
903.8660, 65.45801
904.9930, 12.34082
906.1200, 75.88379
907.2460, 22.73535
908.3730, 169.2803
909.5000, 8.260742
910.6260, 194.0791
911.7520, 244.4961
912.8780, 395.5918
914.0040, 408.7373
915.1290, 462.8164
916.2550, 412.8291
917.3800, 371.7861
918.5050, 581.4902
919.6300, 546.3232
920.7550, 719.2461
921.8800, 682.0625
923.0040, 1002.765
924.1290, 1120.419
925.2530, 1175.033
926.3770, 1183.610
927.5010, 1293.161
928.6250, 1523.683
929.7480, 1624.156
930.8720, 1773.764
931.9950, 1894.955
933.1180, 2048.295
934.2410, 2150.582
935.3640, 2309.816
936.4860, 2509.030
937.6090, 2637.213
938.7310, 2811.347
939.8530, 2972.435
940.9750, 3088.494
942.0970, 3247.526
943.2180, 3392.062
944.3400, 3489.738
945.4610, 3664.382
946.5820, 3693.263
947.7030, 3764.093
948.8240, 3875.879
949.9450, 3954.635
951.0650, 3977.338
952.1860, 4030.989
953.3060, 4046.597
954.4260, 4154.164
955.5460, 4297.712
956.6650, 4327.294
957.7850, 4422.894
958.9040, 4453.521
960.0230, 4541.168
961.1420, 4611.701
962.2610, 4717.553
963.3800, 4758.300
964.4990, 4822.035
965.6170, 4886.721
966.7350, 5100.359
967.8530, 5057.947
968.9710, 5176.486
970.0890, 5130.977
971.2070, 5490.420
972.3240, 5553.814
973.4410, 5431.162
974.5580, 5408.461
975.6750, 5421.231
976.7920, 5270.918
977.9090, 5387.077
979.0250, 5288.189
980.1410, 5168.256
981.2580, 5134.277
982.3740, 4991.254
983.4890, 4887.184
984.6050, 5045.071
985.7200, 4727.913
986.8360, 4816.711
987.9510, 4772.464
989.0660, 4629.175
990.1810, 4712.842
991.2950, 4630.465
992.4100, 4620.047
993.5240, 4548.588
994.6390, 4590.764
995.7530, 4618.014
996.8660, 4709.169
997.9800, 4630.314
999.0940, 4716.770
1000.207, 4812.635
1001.320, 4986.393
1002.433, 4952.072
1003.546, 5199.160
1004.659, 5322.527
1005.772, 5271.185
1006.884, 5440.250
1007.996, 5668.569
1009.108, 5656.772
1010.220, 5966.547
1011.332, 6240.959
1012.444, 6349.307
1013.555, 6758.180
1014.666, 6689.428
1015.777, 7103.602
1016.888, 7365.605
1017.999, 7386.160
1019.110, 7680.412
1020.220, 7870.184
1021.331, 8055.629
1022.441, 7991.444
1023.551, 8349.621
1024.661, 8290.717
1025.770, 8593.103
1026.880, 8449.025
1027.989, 8625.688
1029.098, 8689.146
1030.207, 8762.671
1031.316, 9128.359
1032.425, 9305.886
1033.533, 9594.405
1034.642, 9941.282
1035.750, 10281.36
1036.858, 10746.70
1037.966, 11317.73
1039.073, 11819.67
1040.181, 12348.16
1041.288, 12907.72
1042.396, 13860.12
1043.503, 14998.11
1044.610, 15866.70
1045.716, 16779.40
1046.823, 18004.86
1047.929, 19086.96
1049.036, 20561.43
1050.142, 21841.87
1051.248, 23472.42
1052.353, 25370.33
1053.459, 27373.13
1054.564, 29264.62
1055.670, 31205.76
1056.775, 33072.35
1057.880, 34968.85
1058.985, 36797.23
1060.089, 38481.85
1061.194, 39163.07
1062.298, 39898.39
1063.402, 39727.04
1064.506, 38937.80
1065.610, 37897.86
1066.713, 36188.79
1067.817, 34104.92
1068.920, 31405.09
1070.023, 29194.06
1071.126, 26232.67
1072.229, 23988.01
1073.332, 21305.17
1074.435, 19310.02
1075.537, 17132.57
1076.639, 15507.86
1077.741, 13600.37
1078.843, 12453.61
1079.945, 11182.76
1081.046, 10102.00
1082.148, 9132.217
1083.249, 8400.479
1084.350, 7693.479
1085.451, 7194.518
1086.551, 6722.590
1087.652, 6313.849
1088.752, 5934.200
1089.853, 5670.851
1090.953, 5342.033
1092.053, 5031.881
1093.152, 4934.482
1094.252, 4551.545
1095.351, 4399.617
1096.451, 4358.422
1097.550, 4112.213
1098.649, 3997.994
1099.748, 3889.764
1100.846, 3770.522
1101.945, 3557.271
1103.043, 3311.010
1104.141, 3170.736
1105.239, 3001.454
1106.337, 2954.162
1107.434, 2671.860
1108.532, 2694.551
1109.629, 2570.229
1110.726, 2450.900
1111.823, 2276.562
1112.920, 2206.217
1114.017, 2112.862
1115.113, 2167.499
1116.210, 1981.129
1117.306, 2027.750
1118.402, 2019.364
1119.498, 1967.970
1120.593, 1753.568
1121.689, 1754.161
1122.784, 1673.746
1123.879, 1615.324
1124.974, 1623.896
1126.069, 1407.461
1127.164, 1408.021
1128.259, 1313.576
1129.353, 1287.128
1130.447, 1255.574
1131.541, 1290.219
1132.635, 1200.764
1133.729, 1140.315
1134.822, 1121.868
1135.916, 1314.426
1137.009, 1390.990
1138.102, 1316.561
1139.195, 1380.139
1140.288, 1325.731
1141.380, 1498.363
1142.473, 1381.043
1143.565, 1555.764
1144.657, 1393.525
1145.749, 1414.357
1146.841, 1162.244
1147.932, 927.1709
1149.024, 875.1533
1150.115, 879.2236
1151.206, 619.3857
1152.297, 492.6240
1153.388, 507.9492
1154.479, 418.3525
1155.569, 407.8271
1156.659, 273.3672
1157.750, 351.9639
1158.839, 268.6074
1159.929, 298.3350
1161.019, 294.1191
1162.108, 191.9697
1163.198, 115.8613
1164.287, 33.77734
1165.376, 155.7627
1166.465, 156.7969
1167.553, 62.86328
1168.642, 67.96777
1169.730, 19.91602
1170.818, 84.20898
1171.906, 115.6250
1172.994, 16.50000
1174.082, 56.62891
1175.170, 144.2178
1176.257, 94.86426
1177.344, 26.95117
1178.431, 2.962891
1179.518, 10.88379
1180.605, 54.81543
1181.691, 20.77637
1182.778, 49.14062
1183.864, 49.37598
1184.950, 56.79004
1186.036, 63.86133
1187.122, 42.97168
1188.207, 72.11035
1189.292, 85.29395
1190.378, 120.5283
1191.463, 113.8350
1192.548, 32.20801
1193.632, 37.60742
1194.717, 0.2460940
1195.801, 93.47461
1196.886, 2.971680
1197.970, 7.482422
1199.054, 126.0098
1200.137, 90.61230
1201.221, 16.27246
1202.305, 29.95215
1203.388, 92.65820
1204.471, 87.42383
1205.554, 33.24609
1206.637, 78.09570
1207.719, 31.99805
1208.802, 76.92773
1209.884, 55.08887
1210.966, 26.89746
1212.048, 75.90918
1213.130, 19.02734
1214.212, 203.9590
1215.293, 24.09375
1216.374, 23.16406
1217.456, 14.75391
1218.536, 85.32031
1219.617, 32.56250
1220.698, 19.45117
1221.778, 168.3408
1222.859, 48.76953
1223.939, 39.91309
1225.019, 34.91113
1226.099, 104.7334
1227.178, 109.4756
1228.258, 142.1289
1229.337, 126.2275
1230.417, 157.0654
1231.496, 133.9062
1232.574, 161.7510
1233.653, 191.5947
1234.732, 185.4375
1235.810, 216.2773
1236.888, 352.1328
1237.966, 104.9893
1239.044, 174.8506
1240.122, 273.7119
1241.199, 357.5713
1242.277, 230.4434
1243.354, 276.3145
1244.431, 213.1826
1245.508, 332.0508
1246.585, 257.9170
1247.661, 267.7832
1248.738, 342.6514
1249.814, 384.5195
1250.890, 317.3887
1251.966, 250.2559
1253.042, 431.1211
1254.117, 462.9863
1255.193, 412.8496
1256.268, 571.7109
1257.343, 392.5723
1258.418, 466.4326
1259.493, 401.2910
1260.567, 505.1484
1261.642, 512.0049
1262.716, 459.8613
1263.790, 534.7148
1264.864, 677.5693
1265.938, 530.4219
1267.011, 682.2734
1268.085, 562.1240
1269.158, 863.9736
1270.231, 750.8223
1271.304, 743.6680
1272.377, 835.5137
1273.450, 1054.355
1274.522, 869.1934
1275.594, 920.0303
1276.666, 767.8613
1277.738, 969.6895
1278.810, 986.5127
1279.882, 891.3320
1280.953, 1001.146
1282.025, 966.9541
1283.096, 918.7559
1284.167, 891.5498
1285.238, 993.3369
1286.308, 1001.116
1287.379, 1137.888
1288.449, 1033.651
1289.519, 1060.405
1290.589, 1051.151
