##NAMES=Elbaite
##RRUFFID=R050260
##IDEAL CHEMISTRY=Na(Al_1.5_Li_1.5_)Al_6_(Si_6_O_18_)(BO_3_)_3_(OH)_3_OH
##LOCALITY=Minas Gerais, Brazil
##OWNER=RRUFF
##SOURCE=Marcus Origlieri
##DESCRIPTION=Greenish-gray prismatic single crystal
##STATUS=The identification of this mineral has been confirmed by X-ray diffraction and chemical analysis
##URL=rruff.info/R050260
##MEASURED CHEMISTRY=(Na_0.76_[box]_0.17_Ca_0.07_)_Σ=1_(Al_1.67_Li_0.97_Mn_0.36_)_Σ=3_Al_6.00_(B_1.00_O_3_)_3_Si_6.00_O_18_((OH)_3.40_F_0.60_)_Σ=4_; B assumed by stoichiometry; OH estimated by charge balance
##PIN_ID=L01093
##ORIENTATION=Laser parallel to c* (0 0 1). Fiducial mark perpendicular to laser is parallel to -a [-1 0 0]
118.1340, 0.0000000E+00
119.3650, 200.4375
120.5960, 43.46777
121.8270, 107.6152
123.0580, 568.7188
124.2880, 945.7139
125.5190, 790.1436
126.7490, 772.1396
127.9790, 1032.998
129.2090, 1077.588
130.4390, 1377.334
131.6680, 1528.307
132.8980, 1346.869
134.1270, 1077.796
135.3560, 941.4121
136.5850, 788.2500
137.8140, 766.1738
139.0430, 607.8369
140.2710, 685.7393
141.5000, 334.3604
142.7280, 14.02637
143.9560, 9.946289
145.1840, 0.9599610
146.4120, 163.1572
147.6390, 396.2939
148.8670, 549.9658
150.0940, 863.3389
151.3210, 1058.962
152.5490, 1477.308
153.7750, 1313.354
155.0020, 1305.086
156.2290, 1262.474
157.4550, 1070.484
158.6810, 1012.089
159.9080, 912.2617
161.1340, 798.9785
162.3590, 836.2725
163.5850, 936.9463
164.8110, 1002.415
166.0360, 714.2559
167.2610, 528.4580
168.4860, 378.0195
169.7110, 219.9316
170.9360, 157.1680
172.1610, 23.02539
173.3850, 107.3926
174.6100, 143.1787
175.8340, 247.6328
177.0580, 265.7490
178.2820, 217.5225
179.5050, 89.95117
180.7290, 16.96875
181.9520, 48.76172
183.1760, 113.8604
184.3990, 225.8350
185.6220, 475.1670
186.8450, 666.8555
188.0670, 834.2334
189.2900, 1038.712
190.5120, 1203.079
191.7340, 1354.162
192.9560, 1548.436
194.1780, 1620.916
195.4000, 1883.607
196.6220, 2131.506
197.8430, 2081.613
199.0640, 2371.919
200.2860, 2790.424
201.5070, 2928.123
202.7270, 3038.019
203.9480, 3049.100
205.1690, 3189.320
206.3890, 3245.938
207.6090, 3633.884
208.8290, 4412.268
210.0490, 5273.290
211.2690, 6219.807
212.4890, 7498.527
213.7080, 8589.453
214.9280, 9993.590
216.1470, 11512.94
217.3660, 13042.50
218.5850, 14582.28
219.8030, 15756.12
221.0220, 16725.88
222.2400, 17082.61
223.4590, 17093.54
224.6770, 16750.71
225.8950, 15506.13
227.1120, 14278.81
228.3300, 12823.76
229.5480, 11656.97
230.7650, 10703.46
231.9820, 9640.211
233.1990, 8935.238
234.4160, 8416.533
235.6330, 8200.102
236.8490, 7825.938
238.0660, 7687.035
239.2820, 7529.588
240.4980, 7282.137
241.7140, 7239.918
242.9300, 6924.070
244.1460, 6549.488
245.3610, 6400.168
246.5770, 5718.109
247.7920, 5352.312
249.0070, 4647.777
250.2220, 4096.502
251.4370, 3771.488
252.6510, 3299.730
253.8660, 2693.234
255.0800, 2327.996
256.2940, 1953.014
257.5080, 2094.289
258.7220, 1916.258
259.9360, 1610.975
261.1490, 1852.645
262.3630, 1166.943
263.5760, 789.5000
264.7890, 924.3887
266.0020, 1130.842
267.2150, 1169.652
268.4270, 1290.727
269.6400, 1109.010
270.8520, 1514.469
272.0640, 1271.055
273.2760, 1471.764
274.4880, 1357.596
275.7000, 1551.561
276.9120, 1402.574
278.1230, 1488.543
279.3340, 1256.627
280.5450, 1224.793
281.7560, 1038.057
282.9670, 1012.438
284.1780, 909.9492
285.3880, 801.6016
286.5980, 626.4043
287.8090, 530.4238
289.0190, 337.8418
290.2290, 234.4023
291.4380, 170.5410
292.6480, 79.21680
293.8570, 108.3926
295.0670, 286.7012
296.2760, 270.8711
297.4850, 383.8398
298.6930, 412.6211
299.9020, 10.22461
301.1110, 38.61133
302.3190, 300.2129
303.5270, 306.2500
304.7350, 545.4961
305.9430, 747.9492
307.1510, 827.6074
308.3580, 1138.471
309.5660, 1170.533
310.7730, 1167.789
311.9800, 1456.242
313.1870, 1589.885
314.3940, 1796.723
315.6010, 1890.764
316.8070, 2238.996
318.0130, 2447.352
319.2200, 2673.922
320.4260, 3239.203
321.6310, 3591.422
322.8370, 3931.217
324.0430, 4494.191
325.2480, 4712.059
326.4540, 5286.818
327.6590, 5793.443
328.8640, 5905.787
330.0680, 6286.402
331.2730, 6392.270
332.4780, 6585.428
333.6820, 6576.836
334.8860, 6722.488
336.0900, 6701.492
337.2940, 6363.496
338.4980, 6602.850
339.7010, 6336.469
340.9050, 6196.328
342.1080, 6123.406
343.3110, 6060.695
344.5140, 5979.176
345.7170, 5983.824
346.9200, 5923.648
348.1220, 5707.643
349.3240, 5883.807
350.5270, 5740.143
351.7290, 5830.629
352.9310, 5827.217
354.1320, 6120.855
355.3340, 6505.664
356.5350, 6596.643
357.7370, 7148.789
358.9380, 7749.115
360.1390, 8338.604
361.3400, 8860.266
362.5400, 9823.096
363.7410, 10782.09
364.9410, 11797.26
366.1410, 13281.60
367.3410, 14699.11
368.5410, 16617.79
369.7410, 18318.63
370.9400, 20233.65
372.1400, 22566.83
373.3390, 24180.18
374.5380, 26381.70
375.7370, 27211.38
376.9360, 27330.22
378.1350, 26644.23
379.3330, 25187.41
380.5310, 23211.74
381.7300, 20834.23
382.9280, 18539.89
384.1260, 16109.70
385.3230, 14159.68
386.5210, 12335.80
387.7180, 11392.09
388.9160, 10230.54
390.1130, 9254.135
391.3100, 8621.887
392.5060, 7913.793
393.7030, 7551.852
394.9000, 7116.061
396.0960, 6882.426
397.2920, 6803.939
398.4880, 6646.646
399.6840, 6568.518
400.8800, 6708.543
402.0750, 6760.801
403.2710, 6833.271
404.4660, 6927.932
405.6610, 7100.840
406.8560, 7106.988
408.0510, 6976.352
409.2450, 6888.400
410.4400, 6631.824
411.6340, 6451.879
412.8280, 5986.115
414.0220, 5693.510
415.2160, 5003.064
416.4100, 4255.773
417.6030, 3701.645
418.7970, 3067.672
419.9900, 2668.855
421.1830, 2309.197
422.3760, 1969.697
423.5690, 1676.012
424.7610, 1399.336
425.9540, 1219.135
427.1460, 1043.930
428.3380, 906.5430
429.5300, 855.7812
430.7220, 789.5742
431.9140, 815.3203
433.1050, 747.2266
434.2970, 852.2949
435.4880, 890.5293
436.6790, 871.1367
437.8700, 915.5000
439.0610, 970.1719
440.2510, 1278.564
441.4420, 1217.916
442.6320, 1154.592
443.8220, 1511.795
445.0120, 1632.941
446.2020, 1266.564
447.3910, 1342.336
448.5810, 1171.260
449.7700, 1090.334
450.9600, 1171.557
452.1490, 1267.928
453.3370, 1189.445
454.5260, 1209.105
455.7150, 1202.916
456.9030, 1186.230
458.0910, 907.2441
459.2800, 1219.484
460.4670, 1161.529
461.6550, 1232.254
462.8430, 1492.545
464.0300, 1564.666
465.2180, 1682.195
466.4050, 1788.469
467.5920, 1811.219
468.7790, 1941.697
469.9650, 2165.875
471.1520, 2096.719
472.3380, 2122.115
473.5250, 2198.082
474.7110, 2112.031
475.8970, 2161.576
477.0820, 2185.100
478.2680, 2226.113
479.4540, 2175.027
480.6390, 2066.793
481.8240, 2006.346
483.0090, 1928.477
484.1940, 1765.115
485.3780, 2076.900
486.5630, 1991.043
487.7470, 2018.594
488.9320, 1971.252
490.1160, 1954.016
491.3000, 2038.891
492.4830, 2256.867
493.6670, 2303.951
494.8500, 2261.141
496.0340, 2275.434
497.2170, 2352.832
498.4000, 2431.383
499.5820, 2794.936
500.7650, 2712.643
501.9480, 3005.451
503.1300, 3209.359
504.3120, 3223.371
505.4940, 3433.492
506.6760, 3303.713
507.8580, 3580.053
509.0390, 3792.488
510.2210, 3625.027
511.4020, 3607.664
512.5830, 3455.395
513.7640, 3490.215
514.9450, 3447.133
516.1250, 3432.141
517.3060, 3078.236
518.4860, 3131.422
519.6660, 2928.699
520.8460, 2828.059
522.0260, 2868.508
523.2060, 2706.041
524.3850, 2769.660
525.5650, 2713.361
526.7440, 2727.148
527.9230, 2936.016
529.1020, 3168.963
530.2810, 3378.992
531.4590, 3704.102
532.6380, 3663.287
533.8160, 3871.553
534.9940, 4093.898
536.1720, 4457.322
537.3500, 4589.543
538.5270, 4609.141
539.7050, 4938.172
540.8820, 4751.719
542.0590, 4780.637
543.2360, 5184.129
544.4130, 5164.707
545.5900, 4984.080
546.7660, 5200.328
547.9430, 5174.301
549.1190, 5113.752
550.2950, 5123.391
551.4710, 5111.736
552.6470, 4728.590
553.8220, 4664.516
554.9980, 4392.051
556.1730, 4181.639
557.3480, 4019.270
558.5230, 3782.955
559.6980, 3506.684
560.8730, 3199.459
562.0470, 3068.281
563.2220, 2761.145
564.3960, 2653.055
565.5700, 2327.006
566.7440, 2186.996
567.9170, 1824.025
569.0910, 1902.098
570.2640, 1750.207
571.4380, 1587.355
572.6110, 1499.539
573.7840, 1427.758
574.9570, 1286.010
576.1290, 1199.295
577.3020, 1251.615
578.4740, 996.9688
579.6460, 1265.361
580.8180, 1034.805
581.9900, 1030.299
583.1620, 960.8535
584.3330, 842.9531
585.5040, 734.1211
586.6760, 701.7930
587.8470, 690.4883
589.0180, 670.2090
590.1880, 548.9512
591.3590, 385.7129
592.5290, 649.4941
593.7000, 248.2930
594.8700, 334.1094
596.0400, 371.9453
597.2090, 17.79297
598.3790, 49.34375
599.5490, 57.50781
600.7180, 52.62891
601.8870, 39.90234
603.0560, 45.95312
604.2250, 57.14258
605.3940, 16.35938
606.5620, 35.41406
607.7300, 126.8086
608.8990, 358.0957
610.0670, 54.55859
611.2350, 111.0508
612.4020, 345.6035
613.5700, 264.3340
614.7370, 429.2031
615.9050, 263.2832
617.0720, 223.4512
618.2390, 156.7031
619.4060, 321.0469
620.5720, 125.5469
621.7390, 306.1172
622.9050, 242.8477
624.0710, 126.7207
625.2370, 106.6738
626.4030, 1.316406
627.5690, 120.2773
628.7340, 141.2852
629.9000, 202.3125
631.0650, 358.4297
632.2300, 471.5781
633.3950, 580.7480
634.5600, 719.9336
635.7240, 687.1172
636.8890, 999.3398
638.0530, 969.6211
639.2170, 1019.926
640.3810, 1264.275
641.5450, 910.5879
642.7080, 1177.918
643.8720, 909.5879
645.0350, 665.6641
646.1980, 636.0664
647.3610, 577.2617
648.5240, 607.7637
649.6870, 524.9355
650.8490, 568.2773
652.0120, 580.8574
653.1740, 641.5996
654.3360, 674.8809
655.4980, 725.9805
656.6600, 830.0566
657.8210, 598.1035
658.9830, 725.1211
660.1440, 899.1094
661.3050, 924.0684
662.4660, 637.9941
663.6270, 645.8887
664.7870, 642.7520
665.9480, 771.5801
667.1080, 611.3750
668.2680, 497.1367
669.4280, 495.8633
670.5880, 524.5547
671.7480, 338.2090
672.9070, 362.8281
674.0670, 318.7734
675.2260, 447.9355
676.3850, 213.4219
677.5440, 303.4570
678.7030, 8.371094
679.8610, 143.1367
681.0200, 173.0879
682.1780, 148.6094
683.3360, 98.66211
684.4940, 3.646484
685.6520, 229.9629
686.8090, 174.5879
687.9670, 131.4434
689.1240, 115.5039
690.2810, 171.7637
691.4380, 70.74219
692.5950, 123.1387
693.7520, 366.4453
694.9080, 468.7051
696.0650, 638.9141
697.2210, 828.2637
698.3770, 1057.025
699.5330, 1236.246
700.6880, 1567.256
701.8440, 1893.215
702.9990, 2107.121
704.1550, 2635.977
705.3100, 2941.777
706.4650, 3375.525
707.6190, 3969.223
708.7740, 4623.861
709.9290, 5333.449
711.0830, 6196.980
712.2370, 7191.459
713.3910, 8240.885
714.5450, 9755.254
715.6980, 11310.56
716.8520, 13224.49
718.0050, 15400.87
719.1580, 17743.16
720.3110, 20490.25
721.4640, 23335.28
722.6170, 26531.25
723.7700, 29487.15
724.9220, 32090.01
726.0740, 34336.79
727.2260, 36559.53
728.3780, 37514.20
729.5300, 37135.81
730.6810, 35804.37
731.8330, 33295.86
732.9840, 30196.29
734.1350, 27397.66
735.2860, 23722.97
736.4370, 20643.59
737.5880, 17863.50
738.7380, 15362.62
739.8880, 13340.02
741.0390, 11805.82
742.1890, 10320.16
743.3380, 9196.793
744.4880, 8314.150
745.6380, 7514.102
746.7870, 7031.773
747.9360, 6833.541
749.0850, 6420.422
750.2340, 6128.562
751.3830, 5895.139
752.5310, 5817.738
753.6800, 5533.023
754.8280, 5654.514
755.9760, 5454.355
757.1240, 5446.551
758.2720, 5103.822
759.4190, 4860.461
760.5670, 4490.070
761.7140, 4234.699
762.8610, 3811.473
764.0080, 3421.918
765.1550, 3071.131
766.3020, 2803.707
767.4480, 2440.586
768.5950, 2187.559
769.7410, 1837.701
770.8870, 1628.928
772.0330, 1300.502
773.1780, 970.7344
774.3240, 733.8633
775.4690, 818.6895
776.6140, 610.5371
777.7590, 395.0703
778.9040, 600.0039
780.0490, 501.2949
781.1940, 344.8164
782.3380, 249.3848
783.4820, 290.1875
784.6260, 151.9160
785.7700, 365.5449
786.9140, 241.1113
788.0580, 384.5957
789.2010, 564.0137
790.3450, 512.3730
791.4880, 384.6680
792.6310, 539.9004
793.7730, 708.0703
794.9160, 557.1758
796.0590, 678.2207
797.2010, 871.2051
798.3430, 747.1270
799.4850, 1035.988
800.6270, 1137.787
801.7690, 1453.525
802.9100, 1418.973
804.0520, 1334.820
805.1930, 1264.375
806.3340, 1038.871
807.4750, 764.3066
808.6160, 733.6816
809.7560, 635.0000
810.8970, 375.2539
812.0370, 263.4453
813.1770, 241.5625
814.3170, 205.8926
815.4570, 253.8496
816.5960, 94.37500
817.7360, 107.3750
818.8750, 286.9961
820.0140, 397.0488
821.1530, 311.0273
822.2920, 279.2168
823.4310, 473.5391
824.5690, 604.1465
825.7070, 479.2793
826.8460, 883.2402
827.9840, 938.4980
829.1220, 1135.254
830.2590, 1611.938
831.3970, 1674.441
832.5340, 1925.768
833.6710, 2131.047
834.8080, 2202.990
835.9450, 2585.889
837.0820, 2651.738
838.2190, 2594.547
839.3550, 3095.309
840.4910, 2337.025
841.6270, 2049.695
842.7630, 1870.324
843.8990, 1875.908
845.0350, 1542.449
846.1700, 1426.943
847.3060, 1405.396
848.4410, 1325.807
849.5760, 1094.170
850.7100, 1046.492
851.8450, 826.7734
852.9800, 929.0117
854.1140, 1020.207
855.2480, 1151.359
856.3820, 949.4707
857.5160, 1008.539
858.6500, 1187.568
859.7830, 946.5566
860.9170, 1085.504
862.0500, 914.4102
863.1830, 951.2734
864.3160, 861.0996
865.4480, 861.8828
866.5810, 806.6309
867.7130, 613.3379
868.8460, 379.0039
869.9780, 550.6309
871.1100, 479.2227
872.2410, 190.7715
873.3730, 293.2852
874.5050, 375.7715
875.6360, 312.2207
876.7670, 395.6484
877.8980, 584.0508
879.0290, 415.5391
880.1590, 415.4102
881.2900, 213.1270
882.4200, 194.4238
883.5500, 149.7188
884.6800, 91.06445
885.8100, 150.3809
886.9400, 158.6934
888.0690, 95.05469
889.1990, 0.5527340
890.3280, 173.1133
891.4570, 114.3691
892.5860, 59.55469
893.7140, 62.13867
894.8430, 2.833984
895.9710, 30.54883
897.1000, 30.75195
898.2280, 1.074219
899.3560, 78.60742
900.4830, 4.685547
901.6110, 172.0410
902.7380, 66.89062
903.8660, 324.8281
904.9930, 137.9902
906.1200, 77.27539
907.2460, 68.65625
908.3730, 9.876953
909.5000, 176.6387
910.6260, 237.2969
911.7520, 112.1289
912.8780, 109.0684
914.0040, 86.86523
915.1290, 93.21680
916.2550, 117.6094
917.3800, 53.95508
918.5050, 234.0020
919.6300, 257.5898
920.7550, 423.3711
921.8800, 342.8027
923.0040, 462.5156
924.1290, 522.0234
925.2530, 560.6406
926.3770, 704.2363
927.5010, 879.6758
928.6250, 729.2559
929.7480, 743.8535
930.8720, 1092.432
931.9950, 1252.990
933.1180, 1203.523
934.2410, 1463.107
935.3640, 1398.711
936.4860, 1755.340
937.6090, 1517.943
938.7310, 1429.529
939.8530, 1616.098
940.9750, 1918.646
942.0970, 1919.174
943.2180, 2003.682
944.3400, 2002.170
945.4610, 2024.656
946.5820, 2043.762
947.7030, 2325.609
948.8240, 2171.092
949.9450, 2122.004
951.0650, 2247.721
952.1860, 2086.002
953.3060, 2174.771
954.4260, 2460.121
955.5460, 2387.711
956.6650, 2486.822
957.7850, 2657.750
958.9040, 2496.543
960.0230, 2598.414
961.1420, 2661.350
962.2610, 2655.373
963.3800, 2768.471
964.4990, 2653.588
965.6170, 2805.711
966.7350, 2821.820
967.8530, 2861.918
968.9710, 3074.000
970.0890, 3129.074
971.2070, 3049.146
972.3240, 3256.205
973.4410, 3321.279
974.5580, 3140.342
975.6750, 3149.395
976.7920, 3156.434
977.9090, 2965.461
979.0250, 3433.479
980.1410, 3258.484
981.2580, 3262.480
982.3740, 3172.465
983.4890, 3288.438
984.6050, 3177.402
985.7200, 3301.357
986.8360, 3056.303
987.9510, 2946.236
989.0660, 3083.164
990.1810, 3091.078
991.2950, 3075.984
992.4100, 3125.881
993.5240, 2859.771
994.6390, 2925.652
995.7530, 2828.525
996.8660, 2529.389
997.9800, 2935.246
999.0940, 2731.094
1000.207, 2841.932
1001.320, 2969.766
1002.433, 3024.590
1003.546, 2991.406
1004.659, 3067.217
1005.772, 3036.021
1006.884, 3425.439
1007.996, 3234.230
1009.108, 3588.016
1010.220, 3538.793
1011.332, 3653.564
1012.444, 3868.330
1013.555, 3848.088
1014.666, 4310.844
1015.777, 4426.391
1016.888, 4792.859
1017.999, 4878.982
1019.110, 4915.574
1020.220, 5096.715
1021.331, 5406.926
1022.441, 5655.703
1023.551, 5787.783
1024.661, 5942.625
1025.770, 6032.180
1026.880, 6152.459
1027.989, 6124.887
1029.098, 6289.008
1030.207, 6293.502
1031.316, 6447.494
1032.425, 6738.842
1033.533, 6844.469
1034.642, 7427.186
1035.750, 7715.674
1036.858, 8036.266
1037.966, 8489.670
1039.073, 8820.711
1040.181, 9558.613
1041.288, 9955.107
1042.396, 10667.88
1043.503, 11155.70
1044.610, 11800.77
1045.716, 12661.75
1046.823, 13378.99
1047.929, 14347.77
1049.036, 15553.46
1050.142, 16590.54
1051.248, 17736.50
1052.353, 19113.17
1053.459, 20798.80
1054.564, 22031.82
1055.670, 23610.52
1056.775, 24844.03
1057.880, 26355.28
1058.985, 27167.27
1060.089, 28303.73
1061.194, 28987.47
1062.298, 29574.38
1063.402, 29832.89
1064.506, 29069.77
1065.610, 28019.71
1066.713, 26889.52
1067.817, 25590.71
1068.920, 23871.12
1070.023, 22012.13
1071.126, 20128.90
1072.229, 18278.16
1073.332, 16530.01
1074.435, 15204.78
1075.537, 13573.60
1076.639, 12268.55
1077.741, 11000.07
1078.843, 9638.000
1079.945, 8941.109
1081.046, 7990.828
1082.148, 7099.562
1083.249, 6564.375
1084.350, 5827.174
1085.451, 5461.189
1086.551, 4839.055
1087.652, 4465.213
1088.752, 4035.781
1089.853, 3989.770
1090.953, 3518.012
1092.053, 3422.924
1093.152, 3218.797
1094.252, 3010.635
1095.351, 3018.504
1096.451, 2819.373
1097.550, 2475.236
1098.649, 2570.098
1099.748, 2658.957
1100.846, 2424.814
1101.945, 2269.668
1103.043, 2308.340
1104.141, 2203.188
1105.239, 1958.162
1106.337, 1918.006
1107.434, 1863.844
1108.532, 1704.682
1109.629, 1772.518
1110.726, 1674.348
1111.823, 1435.180
1112.920, 1331.004
1114.017, 1536.828
1115.113, 1586.648
1116.210, 1492.467
1117.306, 1473.283
1118.402, 1586.096
1119.498, 1545.908
1120.593, 1679.717
1121.689, 1635.523
1122.784, 1383.328
1123.879, 1574.129
1124.974, 1348.930
1126.069, 1282.727
1127.164, 1517.521
1128.259, 1443.314
1129.353, 1109.104
1130.447, 1152.889
1131.541, 795.6777
1132.635, 1069.461
1133.729, 744.2422
1134.822, 933.0215
1135.916, 875.7988
1137.009, 812.5703
1138.102, 993.3457
1139.195, 740.1191
1140.288, 694.8887
1141.380, 796.6543
1142.473, 788.4219
1143.565, 675.1855
1144.657, 411.9473
1145.749, 479.7070
1146.841, 325.4648
1147.932, 308.2207
1149.024, 392.9766
1150.115, 287.7324
1151.206, 325.4922
1152.297, 118.2500
1153.388, 20.01172
1154.479, 73.77344
1155.569, 299.5469
1156.659, 329.3789
1157.750, 304.4805
1158.839, 149.1270
1159.929, 175.0332
1161.019, 70.94727
1162.108, 33.87891
1163.198, 21.18164
1164.287, 121.2441
1165.376, 75.67773
1166.465, 83.13477
1167.553, 6.419922
1168.642, 14.33008
1169.730, 76.33203
1170.818, 150.3770
1171.906, 120.4551
1172.994, 103.7188
1174.082, 120.1055
1175.170, 104.4121
1176.257, 98.06641
1177.344, 85.33789
1178.431, 58.64258
1179.518, 0.9511720
1180.605, 192.2852
1181.691, 100.6230
1182.778, 57.97852
1183.864, 126.6719
1184.950, 19.39453
1186.036, 74.86719
1187.122, 7.875000
1188.207, 1.628906
1189.292, 16.39453
1190.378, 56.17578
1191.463, 28.22656
1192.548, 157.8398
1193.632, 4.777344
1194.717, 26.27148
1195.801, 16.31836
1196.886, 249.6406
1197.970, 159.7422
1199.054, 146.9395
1200.137, 8.775391
1201.221, 82.48242
1202.305, 3.187500
1203.388, 40.88086
1204.471, 138.5703
1205.554, 50.25586
1206.637, 17.93750
1207.719, 50.38672
1208.802, 26.25195
1209.884, 59.11719
1210.966, 36.52734
1212.048, 131.9707
1213.130, 123.5039
1214.212, 4.027344
1215.293, 22.42773
1216.374, 63.87695
1217.456, 88.67773
1218.536, 31.29297
1219.617, 36.06250
1220.698, 41.58789
1221.778, 54.72461
1222.859, 197.0352
1223.939, 66.65625
1225.019, 98.61914
1226.099, 255.8965
1227.178, 212.1699
1228.258, 136.4590
1229.337, 242.7441
1230.417, 143.0430
1231.496, 265.3633
1232.574, 31.32227
1233.653, 122.9629
1234.732, 83.75391
1235.810, 250.4688
1236.888, 366.7012
1237.966, 68.93555
1239.044, 157.1680
1240.122, 356.4180
1241.199, 246.6641
1242.277, 303.9082
1243.354, 196.1602
1244.431, 355.4121
1245.508, 279.2266
1246.585, 225.8984
1247.661, 262.1406
1248.738, 255.3789
1249.814, 333.6094
1250.890, 215.8398
1251.966, 269.0664
1253.042, 96.29102
1254.117, 188.5137
1255.193, 270.7305
1256.268, 421.9434
1257.343, 460.1562
1258.418, 131.3652
1259.493, 547.5703
1260.567, 269.7715
1261.642, 419.9727
1262.716, 216.1680
1263.790, 216.3633
1264.864, 170.5566
1265.938, 100.3848
1267.011, 351.9316
1268.085, 69.11523
1269.158, 236.2949
1270.231, 290.4746
1271.304, 248.6504
1272.377, 243.8262
1273.450, 423.9980
1274.522, 405.1680
1275.594, 277.3340
1276.666, 124.5000
1277.738, 318.6621
1278.810, 291.8203
1279.882, 446.9766
1280.953, 469.1289
1282.025, 344.2793
1283.096, 355.3320
1284.167, 386.4746
1285.238, 343.6133
1286.308, 400.7500
