##NAMES=Elbaite
##RRUFFID=R060631
##IDEAL CHEMISTRY=Na(Al_1.5_Li_1.5_)Al_6_(Si_6_O_18_)(BO_3_)_3_(OH)_3_OH
##LOCALITY=unknown
##OWNER=RRUFF
##SOURCE=Gemological Institute of America
##DESCRIPTION=Pink polished fragment
##STATUS=The identification of this mineral is confirmed by single-crystal X-ray diffraction and chemical analysis.
##URL=rruff.info/R060631
##MEASURED CHEMISTRY=(Na_0.55_Ca_0.34_[box]_0.11_)(Li_1.53_Al_1.30_Mn_0.14_Fe^2+^_0.03_)Al_6.00_(BO_3_)_3_[Si_6.00_O_18_]((OH)_0.82_F_0.18_)_4_
##PIN_ID=L01326
##ORIENTATION=Laser parallel to -c* (0 0 -1). Fiducial mark perpendicular to laser is parallel to b [0 1 0]
113.2080, 0.0000000E+00
114.4400, 152.8848
115.6710, 3.218750
116.9030, 103.8643
118.1340, 420.8350
119.3650, 445.2783
120.5960, 755.9766
121.8270, 1120.242
123.0580, 1521.875
124.2880, 1511.660
125.5190, 1633.020
126.7490, 2165.262
127.9790, 2251.823
129.2090, 2558.339
130.4390, 2783.134
131.6680, 2842.102
132.8980, 2881.033
134.1270, 2568.121
135.3560, 2368.084
136.5850, 2077.647
137.8140, 1812.751
139.0430, 1617.164
140.2710, 1316.651
141.5000, 937.4658
142.7280, 1200.026
143.9560, 1249.868
145.1840, 1317.517
146.4120, 1427.770
147.6390, 1653.150
148.8670, 1862.879
150.0940, 1890.113
151.3210, 1869.857
152.5490, 1804.117
153.7750, 1664.891
155.0020, 1483.175
156.2290, 1271.955
157.4550, 1356.217
158.6810, 629.9883
159.9080, 477.4668
161.1340, 476.1777
162.3590, 298.1338
163.5850, 392.3301
164.8110, 157.7451
166.0360, 193.3418
167.2610, 4.909180
168.4860, 115.0000
169.7110, 16.91699
170.9360, 193.6465
172.1610, 201.1748
173.3850, 204.4922
174.6100, 258.0381
175.8340, 196.4434
177.0580, 193.0781
178.2820, 131.4570
179.5050, 51.41992
180.7290, 8.557617
181.9520, 75.96582
183.1760, 205.6475
184.3990, 509.6113
185.6220, 738.8594
186.8450, 906.4297
188.0670, 1281.421
189.2900, 1335.825
190.5120, 2041.624
191.7340, 2192.793
192.9560, 2395.309
194.1780, 2712.143
195.4000, 2992.271
196.6220, 3149.662
197.8430, 3491.300
199.0640, 3831.168
200.2860, 4137.248
201.5070, 4285.508
202.7270, 4290.900
203.9480, 4173.697
205.1690, 4217.486
206.3890, 4208.210
207.6090, 4902.933
208.8290, 5382.914
210.0490, 6183.039
211.2690, 7138.285
212.4890, 8260.629
213.7080, 9291.975
214.9280, 10295.27
216.1470, 11946.29
217.3660, 13393.96
218.5850, 15220.35
219.8030, 16724.67
221.0220, 18008.14
222.2400, 18635.85
223.4590, 18831.81
224.6770, 18407.03
225.8950, 17463.51
227.1120, 16149.24
228.3300, 14953.23
229.5480, 13909.49
230.7650, 13115.01
231.9820, 12503.80
233.1990, 12163.84
234.4160, 11488.14
235.6330, 11788.69
236.8490, 11309.62
238.0660, 11427.56
239.2820, 10956.88
240.4980, 10827.45
241.7140, 10779.29
242.9300, 10300.38
244.1460, 10225.72
245.3610, 9382.111
246.5770, 8217.199
247.7920, 7595.324
249.0070, 6644.707
250.2220, 5704.355
251.4370, 4959.260
252.6510, 4321.424
253.8660, 3675.852
255.0800, 3165.537
256.2940, 3218.482
257.5080, 2678.959
258.7220, 3079.156
259.9360, 2106.035
261.1490, 1380.332
262.3630, 1063.797
263.5760, 1097.350
264.7890, 1064.893
266.0020, 982.3750
267.2150, 870.7676
268.4270, 921.0254
269.6400, 987.1270
270.8520, 893.0801
272.0640, 860.8945
273.2760, 1148.559
274.4880, 1105.018
275.7000, 1135.184
276.9120, 952.0723
278.1230, 978.7402
279.3340, 1077.242
280.5450, 1052.621
281.7560, 1042.916
282.9670, 954.1230
284.1780, 994.2012
285.3880, 1077.105
286.5980, 1010.648
287.8090, 748.8516
289.0190, 677.2070
290.2290, 438.7578
291.4380, 172.7129
292.6480, 29.47656
293.8570, 99.57812
295.0670, 383.4766
296.2760, 391.2070
297.4850, 584.7656
298.6930, 343.1895
299.9020, 326.4414
301.1110, 241.5195
302.3190, 150.5820
303.5270, 291.3652
304.7350, 652.1836
305.9430, 847.8750
307.1510, 1218.977
308.3580, 1479.088
309.5660, 2013.260
310.7730, 1927.988
311.9800, 2143.582
313.1870, 2375.162
314.3940, 2281.643
315.6010, 2559.119
316.8070, 2903.330
318.0130, 3206.889
319.2200, 3352.059
320.4260, 3594.688
321.6310, 4266.996
322.8370, 4748.340
324.0430, 5308.383
325.2480, 5609.324
326.4540, 6192.807
327.6590, 6240.303
328.8640, 6762.711
330.0680, 6812.348
331.2730, 6607.227
332.4780, 6740.355
333.6820, 6457.693
334.8860, 6037.281
336.0900, 5987.109
337.2940, 5717.193
338.4980, 5455.523
339.7010, 5355.029
340.9050, 5070.742
342.1080, 4847.635
343.3110, 5092.705
344.5140, 4899.969
345.7170, 4983.406
346.9200, 5100.018
348.1220, 5051.803
349.3240, 5304.752
350.5270, 5214.756
351.7290, 5786.781
352.9310, 5896.910
354.1320, 6273.217
355.3340, 6765.707
356.5350, 7314.373
357.7370, 7957.223
358.9380, 8659.244
360.1390, 9640.453
361.3400, 10596.85
362.5400, 11546.42
363.7410, 12617.18
364.9410, 14078.13
366.1410, 15488.27
367.3410, 17004.60
368.5410, 18691.12
369.7410, 20563.82
370.9400, 22573.70
372.1400, 24550.78
373.3390, 26572.04
374.5380, 28286.48
375.7370, 29436.12
376.9360, 30181.92
378.1350, 29714.92
379.3330, 28304.11
380.5310, 26332.47
381.7300, 23627.01
382.9280, 21261.73
384.1260, 18628.64
385.3230, 16289.73
386.5210, 14507.99
387.7180, 12872.43
388.9160, 11513.05
390.1130, 10661.84
391.3100, 9883.812
392.5060, 9467.959
393.7030, 9042.277
394.9000, 8855.773
396.0960, 8785.441
397.2920, 8688.285
398.4880, 8594.297
399.6840, 8866.480
400.8800, 8923.840
402.0750, 9044.367
403.2710, 9377.098
404.4660, 9663.020
405.6610, 9707.199
406.8560, 9732.688
408.0510, 9643.748
409.2450, 9318.904
410.4400, 9086.809
411.6340, 8341.441
412.8280, 7651.330
414.0220, 6835.469
415.2160, 6009.777
416.4100, 5013.273
417.6030, 4462.932
418.7970, 3507.748
419.9900, 3033.727
421.1830, 2138.871
422.3760, 1802.180
423.5690, 1473.650
424.7610, 1176.291
425.9540, 995.4473
427.1460, 846.7500
428.3380, 759.2129
429.5300, 754.5234
430.7220, 776.0078
431.9140, 867.6641
433.1050, 802.4980
434.2970, 937.7812
435.4880, 832.7070
436.6790, 1152.803
437.8700, 1184.221
439.0610, 1283.785
440.2510, 1460.342
441.4420, 1286.232
442.6320, 1580.748
443.8220, 1520.980
445.0120, 1535.709
446.2020, 1728.551
447.3910, 1597.574
448.5810, 1453.777
449.7700, 1565.162
450.9600, 1454.730
452.1490, 1419.488
453.3370, 1318.430
454.5260, 1334.570
455.7150, 1295.904
456.9030, 1388.469
458.0910, 1403.623
459.2800, 1584.221
460.4670, 1513.475
461.6550, 1638.799
462.8430, 1711.266
464.0300, 1936.846
465.2180, 1753.637
466.4050, 2022.756
467.5920, 2112.227
468.7790, 2319.049
469.9650, 2343.244
471.1520, 2187.955
472.3380, 2230.980
473.5250, 1892.547
474.7110, 1957.729
475.8970, 1796.762
477.0820, 1771.916
478.2680, 1763.236
479.4540, 1818.568
480.6390, 1694.084
481.8240, 1695.816
483.0090, 1564.281
484.1940, 1615.562
485.3780, 1459.734
486.5630, 1512.236
487.7470, 1558.697
488.9320, 1526.299
490.1160, 1687.043
491.3000, 1497.203
492.4830, 1386.227
493.6670, 1354.395
494.8500, 1470.697
496.0340, 1486.143
497.2170, 1692.727
498.4000, 1833.705
499.5820, 2158.305
500.7650, 2278.311
501.9480, 2469.453
503.1300, 2812.764
504.3120, 3105.254
505.4940, 3128.920
506.6760, 3522.748
507.8580, 3804.752
509.0390, 3941.959
510.2210, 3963.322
511.4020, 4359.861
512.5830, 4338.559
513.7640, 4398.416
514.9450, 4501.410
516.1250, 4340.568
517.3060, 4395.865
518.4860, 4259.295
519.6660, 3984.852
520.8460, 3904.531
522.0260, 3768.330
523.2060, 3660.244
524.3850, 3703.535
525.5650, 3738.422
526.7440, 3917.682
527.9230, 4181.051
529.1020, 4516.537
530.2810, 4901.133
531.4590, 5202.836
532.6380, 5632.648
533.8160, 6058.572
534.9940, 6506.613
536.1720, 6832.047
537.3500, 7193.117
538.5270, 7376.594
539.7050, 7630.238
540.8820, 7694.049
542.0590, 7785.018
543.2360, 7758.205
544.4130, 7779.359
545.5900, 8061.367
546.7660, 7953.135
547.9430, 8001.365
549.1190, 8037.455
550.2950, 7832.188
551.4710, 8000.928
552.6470, 7772.504
553.8220, 7122.395
554.9980, 6961.113
556.1730, 6617.504
557.3480, 6151.043
558.5230, 6000.652
559.6980, 5372.328
560.8730, 4848.072
562.0470, 4566.885
563.2220, 4207.764
564.3960, 3509.707
565.5700, 3381.711
566.7440, 3119.092
567.9170, 4194.912
569.0910, 2622.102
570.2640, 3187.352
571.4380, 2400.662
572.6110, 1739.025
573.7840, 1468.447
574.9570, 1380.922
576.1290, 1070.449
577.3020, 1192.025
578.4740, 1167.658
579.6460, 1338.344
580.8180, 1262.115
581.9900, 1022.973
583.1620, 948.9434
584.3330, 1112.990
585.5040, 1147.109
586.6760, 1134.297
587.8470, 1077.504
589.0180, 1081.764
590.1880, 962.0586
591.3590, 830.3906
592.5290, 632.7598
593.7000, 935.1602
594.8700, 778.5918
596.0400, 669.0566
597.2090, 357.5488
598.3790, 399.0723
599.5490, 422.6211
600.7180, 262.1934
601.8870, 256.7930
603.0560, 134.4121
604.2250, 46.86133
605.3940, 70.28906
606.5620, 120.6406
607.7300, 97.02344
608.8990, 146.4277
610.0670, 212.8809
611.2350, 338.4043
612.4020, 218.0566
613.5700, 282.7891
614.7370, 308.6309
615.9050, 134.5996
617.0720, 315.6191
618.2390, 288.7695
619.4060, 349.0469
620.5720, 305.0430
621.7390, 48.96680
622.9050, 109.5918
624.0710, 7.208984
625.2370, 154.1582
626.4030, 50.47461
627.5690, 153.8574
628.7340, 69.17578
629.9000, 203.5098
631.0650, 30.83398
632.2300, 295.1406
633.3950, 391.4668
634.5600, 393.7871
635.7240, 428.0996
636.8890, 806.4355
638.0530, 779.7578
639.2170, 861.5938
640.3810, 1181.344
641.5450, 1039.711
642.7080, 1068.277
643.8720, 1200.078
645.0350, 1143.572
646.1980, 1114.770
647.3610, 880.0117
648.5240, 838.2148
649.6870, 829.7773
650.8490, 730.3887
652.0120, 874.4707
653.1740, 791.9668
654.3360, 787.1328
655.4980, 823.8516
656.6600, 760.4219
657.8210, 887.6230
658.9830, 855.0020
660.1440, 761.3906
661.3050, 836.5234
662.4660, 820.2344
663.6270, 839.9023
664.7870, 760.5234
665.9480, 740.3984
667.1080, 1005.627
668.2680, 675.1074
669.4280, 773.5391
670.5880, 826.9219
671.7480, 1123.252
672.9070, 1289.332
674.0670, 1176.951
675.2260, 673.3262
676.3850, 641.6055
677.5440, 758.9551
678.7030, 639.9004
679.8610, 526.0059
681.0200, 348.8242
682.1780, 244.0938
683.3360, 55.94922
684.4940, 34.70703
685.6520, 243.2793
686.8090, 383.5156
687.9670, 168.9902
689.1240, 410.7930
690.2810, 358.8242
691.4380, 304.2695
692.5950, 193.5586
693.7520, 139.2559
694.9080, 181.1895
696.0650, 109.0020
697.2210, 507.8203
698.3770, 646.4082
699.5330, 642.9316
700.6880, 1033.365
701.8440, 1415.719
702.9990, 1557.988
704.1550, 1815.174
705.3100, 2234.277
706.4650, 2555.297
707.6190, 3074.229
708.7740, 3976.451
709.9290, 4392.094
711.0830, 5108.891
712.2370, 5709.480
713.3910, 6736.984
714.5450, 7638.396
715.6980, 8976.723
716.8520, 10636.96
718.0050, 12566.11
719.1580, 14647.16
720.3110, 17332.13
721.4640, 20213.00
722.6170, 23724.79
723.7700, 27585.48
724.9220, 31559.07
726.0740, 35448.57
727.2260, 39266.99
728.3780, 42650.29
729.5300, 44278.52
730.6810, 44801.64
731.8330, 44382.66
732.9840, 42210.59
734.1350, 38908.42
735.2860, 35159.15
736.4370, 31312.79
737.5880, 27853.33
738.7380, 24405.77
739.8880, 21629.10
741.0390, 19232.35
742.1890, 16982.49
743.3380, 15110.53
744.4880, 13658.99
745.6380, 12244.28
746.7870, 11148.35
747.9360, 9991.145
749.0850, 8954.660
750.2340, 7962.725
751.3830, 7365.537
752.5310, 7007.867
753.6800, 6207.645
754.8280, 5900.627
755.9760, 5351.551
757.1240, 4995.574
758.2720, 4735.221
759.4190, 4425.355
760.5670, 4004.924
761.7140, 3789.812
762.8610, 3413.848
764.0080, 3025.660
765.1550, 2611.584
766.3020, 2411.457
767.4480, 2093.986
768.5950, 1787.146
769.7410, 1636.781
770.8870, 1370.586
772.0330, 986.9922
773.1780, 952.9004
774.3240, 593.0625
775.4690, 518.9863
776.6140, 397.9062
777.7590, 311.1797
778.9040, 342.4141
780.0490, 71.39258
781.1940, 24.42578
782.3380, 12.00000
783.4820, 106.5586
784.6260, 1.207031
785.7700, 80.97852
786.9140, 92.82227
788.0580, 6.464844
789.2010, 76.31641
790.3450, 64.65820
791.4880, 216.3398
792.6310, 35.34766
793.7730, 193.1777
794.9160, 264.8789
796.0590, 321.4648
797.2010, 419.9395
798.3430, 467.3145
799.4850, 652.5918
800.6270, 684.7754
801.7690, 939.8652
802.9100, 1066.861
804.0520, 928.7637
805.1930, 1225.574
806.3340, 1470.289
807.4750, 1077.914
808.6160, 733.4434
809.7560, 400.8848
810.8970, 255.2227
812.0370, 81.44727
813.1770, 19.47461
814.3170, 6.587891
815.4570, 65.88672
816.5960, 86.39844
817.7360, 52.13281
818.8750, 173.0762
820.0140, 57.31250
821.1530, 156.5723
822.2920, 26.24023
823.4310, 115.7344
824.5690, 62.76367
825.7070, 47.61133
826.8460, 169.3320
827.9840, 75.26562
829.1220, 23.34766
830.2590, 64.10938
831.3970, 213.0332
832.5340, 374.2812
833.6710, 292.3848
834.8080, 324.4199
835.9450, 669.3828
837.0820, 495.2754
838.2190, 607.0996
839.3550, 543.8555
840.4910, 507.5410
841.6270, 608.1602
842.7630, 415.7109
843.8990, 515.1934
845.0350, 219.6113
846.1700, 413.9570
847.3060, 527.2383
848.4410, 409.4551
849.5760, 419.6016
850.7100, 478.6875
851.8450, 320.7070
852.9800, 610.6660
854.1140, 789.5586
855.2480, 743.3887
856.3820, 790.1582
857.5160, 895.8633
858.6500, 1082.508
859.7830, 870.0918
860.9170, 1176.613
862.0500, 1122.074
863.1830, 1053.477
864.3160, 1191.818
865.4480, 1040.102
866.5810, 892.3281
867.7130, 1082.494
868.8460, 1065.604
869.9780, 1187.658
871.1100, 917.6543
872.2410, 864.5938
873.3730, 1054.479
874.5050, 1037.311
875.6360, 1073.086
876.7670, 991.8066
877.8980, 933.4727
879.0290, 944.0898
880.1590, 810.6523
881.2900, 876.1777
882.4200, 784.8066
883.5500, 622.1387
884.6800, 663.5820
885.8100, 530.0176
886.9400, 462.4746
888.0690, 342.9258
889.1990, 307.8652
890.3280, 316.8887
891.4570, 292.3984
892.5860, 273.9434
893.7140, 354.4980
894.8430, 89.08594
895.9710, 226.6934
897.1000, 213.3223
898.2280, 11.06641
899.3560, 49.52734
900.4830, 14.51172
901.6110, 2.021484
902.7380, 40.06641
903.8660, 36.51367
904.9930, 138.8555
906.1200, 178.8164
907.2460, 63.58008
908.3730, 61.59766
909.5000, 210.2676
910.6260, 8.775391
911.7520, 64.22656
912.8780, 108.2227
914.0040, 86.74609
915.1290, 119.6211
916.2550, 59.25000
917.3800, 139.6191
918.5050, 62.25586
919.6300, 209.1680
920.7550, 38.99023
921.8800, 258.7930
923.0040, 245.1777
924.1290, 573.4961
925.2530, 478.3320
926.3770, 683.7188
927.5010, 748.4219
928.6250, 978.5488
929.7480, 1163.768
930.8720, 1179.320
931.9950, 1428.635
933.1180, 1608.891
934.2410, 1649.346
935.3640, 1760.156
936.4860, 2004.969
937.6090, 2105.775
938.7310, 2221.598
939.8530, 2378.428
940.9750, 2540.275
942.0970, 2633.986
943.2180, 2590.979
944.3400, 2772.822
945.4610, 2869.875
946.5820, 2800.312
947.7030, 2936.965
948.8240, 2954.672
949.9450, 3097.238
951.0650, 2879.133
952.1860, 2914.863
953.3060, 2890.805
954.4260, 3006.223
955.5460, 3112.002
956.6650, 3093.777
957.7850, 2972.184
958.9040, 3046.670
960.0230, 3222.168
961.1420, 3009.855
962.2610, 3005.539
963.3800, 3174.420
964.4990, 3131.934
965.6170, 3308.682
966.7350, 3308.119
967.8530, 3441.098
968.9710, 3554.963
970.0890, 3741.971
971.2070, 3739.693
972.3240, 3528.992
973.4410, 3769.004
974.5580, 3777.020
975.6750, 3839.035
976.7920, 4015.059
977.9090, 3926.082
979.0250, 4004.105
980.1410, 3749.764
981.2580, 3836.797
982.3740, 3798.836
983.4890, 3757.875
984.6050, 3779.920
985.7200, 3718.969
986.8360, 3629.324
987.9510, 3642.084
989.0660, 3453.148
990.1810, 3404.217
991.2950, 3430.293
992.4100, 3434.377
993.5240, 3430.105
994.6390, 3576.557
995.7530, 3412.656
996.8660, 3524.766
997.9800, 3449.881
999.0940, 3752.004
1000.207, 3988.133
1001.320, 4154.273
1002.433, 4173.418
1003.546, 3954.572
1004.659, 3802.734
1005.772, 3914.906
1006.884, 3681.084
1007.996, 3964.273
1009.108, 4016.473
1010.220, 4151.680
1011.332, 4277.895
1012.444, 4495.125
1013.555, 4720.770
1014.666, 5025.605
1015.777, 5332.861
1016.888, 5581.131
1017.999, 6044.406
1019.110, 6220.693
1020.220, 6681.990
1021.331, 6761.482
1022.441, 7109.736
1023.551, 7390.545
1024.661, 7224.008
1025.770, 7698.395
1026.880, 8177.754
1027.989, 7814.115
1029.098, 7866.203
1030.207, 8456.793
1031.316, 8147.184
1032.425, 8309.975
1033.533, 8425.543
1034.642, 8691.027
1035.750, 8783.758
1036.858, 8967.652
1037.966, 9529.836
1039.073, 9950.184
1040.181, 10422.22
1041.288, 10689.21
1042.396, 11331.34
1043.503, 11813.95
1044.610, 12531.94
1045.716, 13196.18
1046.823, 13938.04
1047.929, 14687.88
1049.036, 15556.18
1050.142, 16409.35
1051.248, 17291.29
1052.353, 18327.92
1053.459, 19481.57
1054.564, 20685.37
1055.670, 22201.61
1056.775, 23634.30
1057.880, 25321.08
1058.985, 26921.03
1060.089, 28560.27
1061.194, 30421.83
1062.298, 31520.51
1063.402, 32613.62
1064.506, 33656.15
1065.610, 33913.57
1066.713, 33874.95
1067.817, 33419.35
1068.920, 32499.12
1070.023, 31246.90
1071.126, 29501.51
1072.229, 27231.88
1073.332, 25489.46
1074.435, 23069.25
1075.537, 21428.55
1076.639, 19117.99
1077.741, 17536.96
1078.843, 15816.28
1079.945, 14624.48
1081.046, 13065.34
1082.148, 11939.89
1083.249, 10550.60
1084.350, 9772.012
1085.451, 8653.549
1086.551, 7902.975
1087.652, 7274.387
1088.752, 6628.023
1089.853, 5957.748
1090.953, 5435.832
1092.053, 5028.654
1093.152, 4983.945
1094.252, 4382.326
1095.351, 4242.363
1096.451, 3874.566
1097.550, 3665.924
1098.649, 3689.822
1099.748, 3431.713
1100.846, 3339.678
1101.945, 3013.555
1103.043, 2954.420
1104.141, 2708.279
1105.239, 2686.129
1106.337, 2757.969
1107.434, 2476.801
1108.532, 2206.621
1109.629, 2416.434
1110.726, 2225.238
1111.823, 2034.029
1112.920, 1813.814
1114.017, 1882.592
1115.113, 1764.355
1116.210, 1724.111
1117.306, 1540.855
1118.402, 1538.592
1119.498, 1513.314
1120.593, 1382.027
1121.689, 1230.730
1122.784, 1287.422
1123.879, 1156.105
1124.974, 1196.775
1126.069, 1354.432
1127.164, 1258.078
1128.259, 760.7129
1129.353, 938.3379
1130.447, 848.9512
1131.541, 671.5508
1132.635, 951.1387
1133.729, 515.7148
1134.822, 622.2793
1135.916, 682.8320
1137.009, 729.3711
1138.102, 648.8984
1139.195, 511.4121
1140.288, 592.9121
1141.380, 614.3984
1142.473, 464.8750
1143.565, 572.3340
1144.657, 570.7812
1145.749, 534.2148
1146.841, 380.6328
1147.932, 366.3574
1149.024, 222.4277
1150.115, 207.8047
1151.206, 173.1660
1152.297, 41.51367
1153.388, 12.31445
1154.479, 23.90039
1155.569, 130.5762
1156.659, 12.39258
1157.750, 116.7637
1158.839, 157.9082
1159.929, 69.03125
1161.019, 237.8555
1162.108, 139.1094
1163.198, 77.94531
1164.287, 19.05859
1165.376, 130.7949
1166.465, 86.63672
1167.553, 166.4648
1168.642, 133.2812
1169.730, 126.8184
1170.818, 5.875000
1171.906, 38.66797
1172.994, 104.4512
1174.082, 44.78125
1175.170, 94.96680
1176.257, 68.29883
1177.344, 137.6270
1178.431, 61.05664
1179.518, 7.550781
1180.605, 94.08203
1181.691, 22.69531
1182.778, 121.3555
1183.864, 6.113281
1184.950, 78.08984
1186.036, 38.27344
1187.122, 112.5664
1188.207, 161.5020
1189.292, 50.56055
1190.378, 149.6875
1191.463, 89.93164
1192.548, 4.738281
1193.632, 64.63281
1194.717, 37.69336
1195.801, 36.54688
1196.886, 83.92383
1197.970, 75.37109
1199.054, 40.20508
1200.137, 23.84766
1201.221, 84.54297
1202.305, 64.32617
1203.388, 99.18945
1204.471, 38.14648
1205.554, 30.16602
1206.637, 0.2480470
1207.719, 40.37305
1208.802, 105.4355
1209.884, 106.7773
1210.966, 53.09180
1212.048, 71.52148
1213.130, 45.11133
1214.212, 186.3262
1215.293, 116.0918
1216.374, 124.4883
1217.456, 37.13867
1218.536, 258.1680
1219.617, 162.4512
1220.698, 0.7109380
1221.778, 195.9238
1222.859, 80.88672
1223.939, 39.21094
1225.019, 98.28125
1226.099, 59.32617
1227.178, 15.34375
1228.258, 235.3184
1229.337, 368.2715
1230.417, 113.2012
1231.496, 419.1035
1232.574, 288.9844
1233.653, 399.8398
1234.732, 358.6738
1235.810, 534.4844
1236.888, 471.2715
1237.966, 349.0332
1239.044, 431.7734
1240.122, 448.4922
1241.199, 383.1875
1242.277, 352.8594
1243.354, 472.5117
1244.431, 435.1387
1245.508, 392.7559
1246.585, 479.3535
1247.661, 369.9297
1248.738, 461.4863
1249.814, 514.0215
1250.890, 418.5352
1251.966, 545.0234
1253.042, 397.4922
1254.117, 405.9414
1255.193, 623.3672
1256.268, 358.7695
1257.343, 544.1523
1258.418, 415.5176
1259.493, 507.8594
1260.567, 505.1836
1261.642, 503.4805
1262.716, 762.7617
1263.790, 853.0195
1264.864, 991.2578
1265.938, 921.4766
1267.011, 899.6738
1268.085, 1045.852
1269.158, 1073.012
1270.231, 823.1504
1271.304, 1247.270
1272.377, 1047.369
1273.450, 1243.449
1274.522, 1110.510
1275.594, 1176.555
1276.666, 1162.578
1277.738, 1214.586
1278.810, 1166.572
1279.882, 1111.543
1280.953, 1270.496
1282.025, 1258.246
1283.096, 1058.227
1284.167, 1207.643
1285.238, 1023.400
1286.308, 1099.225
