##NAMES=Elbaite
##RRUFFID=R060560
##IDEAL CHEMISTRY=Na(Al_1.5_Li_1.5_)Al_6_(Si_6_O_18_)(BO_3_)_3_(OH)_3_OH
##LOCALITY=California, USA
##OWNER=RRUFF
##SOURCE=Gemological Institute of America
##DESCRIPTION=Pink fragment
##STATUS=The identification of this mineral has been confirmed by X-ray diffraction and chemical analysis
##URL=rruff.info/R060560
##MEASURED CHEMISTRY=(Na_0.56_Ca_0.12_[box]_0.32_)(Al_1.60_Li_1.40_)Al_6_(BO_3_)_3_[Si_6_O_18_](OH)_4_
##PIN_ID=L01306
##ORIENTATION=Laser parallel to c* (0 0 1). Fiducial mark perpendicular to laser is parallel to a [1 0 0]
118.1340, 0.0000000E+00
119.3650, 16.01465
120.5960, 220.0996
121.8270, 386.1055
123.0580, 432.1348
124.2880, 707.1660
125.5190, 710.9082
126.7490, 777.2998
127.9790, 886.3076
129.2090, 1148.527
130.4390, 1268.353
131.6680, 1464.973
132.8980, 1552.929
134.1270, 1516.342
135.3560, 1493.477
136.5850, 1450.125
137.8140, 1333.187
139.0430, 1322.120
140.2710, 1202.657
141.5000, 1176.637
142.7280, 1255.143
143.9560, 1327.054
145.1840, 1484.443
146.4120, 1668.211
147.6390, 1823.054
148.8670, 1982.148
150.0940, 1941.487
151.3210, 1898.957
152.5490, 1787.142
153.7750, 1651.714
155.0020, 1382.770
156.2290, 1137.465
157.4550, 797.7891
158.6810, 521.7285
159.9080, 391.2656
161.1340, 294.3818
162.3590, 93.05664
163.5850, 7.646484
164.8110, 107.8115
166.0360, 8.837891
167.2610, 52.45605
168.4860, 126.6963
169.7110, 58.41895
170.9360, 26.12988
172.1610, 29.34375
173.3850, 289.2158
174.6100, 77.74023
175.8340, 246.9111
177.0580, 110.7217
178.2820, 75.16797
179.5050, 66.24316
180.7290, 62.94531
181.9520, 34.73047
183.1760, 157.7900
184.3990, 258.2354
185.6220, 435.0684
186.8450, 545.2939
188.0670, 712.9170
189.2900, 937.9355
190.5120, 1097.355
191.7340, 1454.160
192.9560, 1625.806
194.1780, 1952.826
195.4000, 2072.684
196.6220, 2320.872
197.8430, 2542.373
199.0640, 2799.170
200.2860, 3036.078
201.5070, 3264.565
202.7270, 3449.140
203.9480, 3652.938
205.1690, 3699.934
206.3890, 3887.104
207.6090, 4238.436
208.8290, 4967.770
210.0490, 5789.900
211.2690, 6346.383
212.4890, 7420.062
213.7080, 8339.911
214.9280, 9648.741
216.1470, 10877.54
217.3660, 12191.33
218.5850, 13646.23
219.8030, 15674.05
221.0220, 16919.84
222.2400, 17922.75
223.4590, 18559.86
224.6770, 18372.25
225.8950, 17856.93
227.1120, 16490.88
228.3300, 15297.12
229.5480, 13856.67
230.7650, 12770.50
231.9820, 11620.64
233.1990, 10800.07
234.4160, 10355.81
235.6330, 10038.84
236.8490, 9540.183
238.0660, 9414.821
239.2820, 9338.763
240.4980, 9449.997
241.7140, 9273.530
242.9300, 9244.362
244.1460, 8795.494
245.3610, 8566.926
246.5770, 8060.654
247.7920, 7461.684
249.0070, 7095.012
250.2220, 6361.641
251.4370, 5720.568
252.6510, 5104.801
253.8660, 4447.329
255.0800, 3737.159
256.2940, 3574.287
257.5080, 3336.714
258.7220, 2930.135
259.9360, 3192.456
261.1490, 2436.773
262.3630, 2173.386
263.5760, 2082.292
264.7890, 2141.096
266.0020, 2169.567
267.2150, 2348.372
268.4270, 2533.358
269.6400, 2552.439
270.8520, 2919.566
272.0640, 3053.693
273.2760, 3010.783
274.4880, 3341.840
275.7000, 3311.873
276.9120, 3329.812
278.1230, 3316.643
279.3340, 3263.327
280.5450, 3155.888
281.7560, 3067.374
282.9670, 2933.723
284.1780, 2766.297
285.3880, 2589.795
286.5980, 2377.221
287.8090, 2096.141
289.0190, 1879.758
290.2290, 1440.164
291.4380, 1007.493
292.6480, 530.4150
293.8570, 163.0479
295.0670, 72.62109
296.2760, 172.4170
297.4850, 373.3223
298.6930, 306.0078
299.9020, 313.4697
301.1110, 43.71094
302.3190, 134.2881
303.5270, 522.5254
304.7350, 708.9990
305.9430, 1145.709
307.1510, 1621.597
308.3580, 1998.554
309.5660, 2391.293
310.7730, 2578.799
311.9800, 2794.513
313.1870, 2831.477
314.3940, 3009.762
315.6010, 3105.614
316.8070, 3361.969
318.0130, 3602.336
319.2200, 3894.919
320.4260, 4214.717
321.6310, 4595.217
322.8370, 5027.706
324.0430, 5693.031
325.2480, 6198.547
326.4540, 6737.930
327.6590, 7155.731
328.8640, 7431.789
330.0680, 7394.130
331.2730, 7541.740
332.4780, 7243.617
333.6820, 7234.758
334.8860, 6882.156
336.0900, 6340.894
337.2940, 5825.877
338.4980, 5673.148
339.7010, 5156.697
340.9050, 4886.486
342.1080, 4877.569
343.3110, 4627.881
344.5140, 4506.438
345.7170, 4513.213
346.9200, 4449.211
348.1220, 4416.420
349.3240, 4661.829
350.5270, 4853.465
351.7290, 5046.299
352.9310, 5389.314
354.1320, 5929.446
355.3340, 6431.742
356.5350, 7013.240
357.7370, 7758.937
358.9380, 8857.835
360.1390, 9649.932
361.3400, 11043.23
362.5400, 12243.73
363.7410, 13286.43
364.9410, 14729.33
366.1410, 16388.44
367.3410, 17817.75
368.5410, 19759.26
369.7410, 21318.98
370.9400, 23039.90
372.1400, 24566.02
373.3390, 26589.34
374.5380, 28032.88
375.7370, 29016.62
376.9360, 29468.58
378.1350, 29391.74
379.3330, 28306.16
380.5310, 26347.76
381.7300, 24409.57
382.9280, 21748.57
384.1260, 19788.77
385.3230, 17308.16
386.5210, 15244.73
387.7180, 13617.51
388.9160, 12495.46
390.1130, 11200.60
391.3100, 10640.94
392.5060, 9851.452
393.7030, 9743.158
394.9000, 9515.044
396.0960, 9231.117
397.2920, 9179.369
398.4880, 9612.806
399.6840, 9539.424
400.8800, 9933.222
402.0750, 10149.20
403.2710, 10415.36
404.4660, 10581.71
405.6610, 10852.25
406.8560, 11026.00
408.0510, 11043.99
409.2450, 10514.25
410.4400, 10516.79
411.6340, 9987.588
412.8280, 9114.604
414.0220, 8481.867
415.2160, 7612.328
416.4100, 6692.973
417.6030, 5554.801
418.7970, 4720.811
419.9900, 3834.004
421.1830, 3078.379
422.3760, 2156.941
423.5690, 1665.688
424.7610, 1285.623
425.9540, 1041.743
427.1460, 543.0518
428.3380, 371.5469
429.5300, 262.2334
430.7220, 165.1055
431.9140, 223.1689
433.1050, 367.4268
434.2970, 264.8789
435.4880, 404.5254
436.6790, 308.3691
437.8700, 833.4092
439.0610, 901.0791
440.2510, 719.6279
441.4420, 1260.164
442.6320, 1495.565
443.8220, 1444.028
445.0120, 1795.929
446.2020, 1946.344
447.3910, 2016.953
448.5810, 2124.754
449.7700, 2135.748
450.9600, 2189.932
452.1490, 2049.323
453.3370, 2169.939
454.5260, 2019.805
455.7150, 1942.890
456.9030, 2059.201
458.0910, 1928.754
459.2800, 2014.501
460.4670, 1913.027
461.6550, 1686.188
462.8430, 1555.617
464.0300, 1506.787
465.2180, 1780.519
466.4050, 1503.096
467.5920, 1474.429
468.7790, 1597.290
469.9650, 1433.490
471.1520, 1504.039
472.3380, 1640.566
473.5250, 1494.252
474.7110, 1447.524
475.8970, 1309.130
477.0820, 1366.062
478.2680, 1367.088
479.4540, 1222.039
480.6390, 1291.807
481.8240, 1424.131
483.0090, 1197.598
484.1940, 1501.986
485.3780, 1430.027
486.5630, 1486.527
487.7470, 1579.000
488.9320, 1289.713
490.1160, 1531.004
491.3000, 1477.541
492.4830, 1531.978
493.6670, 1673.801
494.8500, 1760.765
496.0340, 2035.869
497.2170, 2207.117
498.4000, 2551.501
499.5820, 2273.023
500.7650, 2668.686
501.9480, 2980.483
503.1300, 3212.416
504.3120, 3649.487
505.4940, 4041.689
506.6760, 4237.025
507.8580, 4800.498
509.0390, 5010.104
510.2210, 5256.840
511.4020, 5706.706
512.5830, 5971.700
513.7640, 6309.820
514.9450, 6530.572
516.1250, 6930.891
517.3060, 6918.317
518.4860, 7083.324
519.6660, 7026.139
520.8460, 6820.189
522.0260, 6534.162
523.2060, 6753.154
524.3850, 6417.357
525.5650, 6378.674
526.7440, 6554.104
527.9230, 6707.645
529.1020, 6833.299
530.2810, 7085.060
531.4590, 7713.931
532.6380, 8169.909
533.8160, 8582.992
534.9940, 9314.188
536.1720, 9740.505
537.3500, 10319.96
538.5270, 10765.56
539.7050, 11007.37
540.8820, 11010.37
542.0590, 11259.56
543.2360, 11159.04
544.4130, 11023.52
545.5900, 10924.91
546.7660, 10611.26
547.9430, 10419.45
549.1190, 10326.63
550.2950, 10159.32
551.4710, 10009.28
552.6470, 9843.274
553.8220, 9635.338
554.9980, 9401.229
556.1730, 9100.652
557.3480, 8747.764
558.5230, 8220.954
559.6980, 7833.229
560.8730, 7252.600
562.0470, 6757.047
563.2220, 6232.574
564.3960, 5839.184
565.5700, 5257.868
566.7440, 4833.629
567.9170, 4266.467
569.0910, 3913.383
570.2640, 3372.376
571.4380, 3065.447
572.6110, 2702.597
573.7840, 2481.821
574.9570, 2093.118
576.1290, 1995.481
577.3020, 1616.909
578.4740, 1393.399
579.6460, 1218.945
580.8180, 1259.548
581.9900, 1091.212
583.1620, 972.9521
584.3330, 896.7646
585.5040, 795.6445
586.6760, 655.5732
587.8470, 636.3555
589.0180, 665.5625
590.1880, 539.6221
591.3590, 500.7227
592.5290, 379.8613
593.7000, 352.0391
594.8700, 270.2529
596.0400, 212.5029
597.2090, 290.7861
598.3790, 225.1016
599.5490, 126.4473
600.7180, 14.17773
601.8870, 117.2158
603.0560, 137.6367
604.2250, 67.08301
605.3940, 33.44824
606.5620, 85.97363
607.7300, 96.51562
608.8990, 167.0791
610.0670, 78.69434
611.2350, 187.3301
612.4020, 317.0312
613.5700, 255.8584
614.7370, 260.7861
615.9050, 240.8203
617.0720, 200.9521
618.2390, 562.1709
619.4060, 168.6436
620.5720, 347.1934
621.7390, 295.9023
622.9050, 140.7500
624.0710, 376.6680
625.2370, 80.76758
626.4030, 163.9160
627.5690, 37.15332
628.7340, 57.42578
629.9000, 0.7441410
631.0650, 128.9141
632.2300, 75.42480
633.3950, 84.18066
634.5600, 77.80664
635.7240, 126.4336
636.8890, 198.0723
638.0530, 337.7080
639.2170, 439.3477
640.3810, 393.0107
641.5450, 482.6748
642.7080, 503.3320
643.8720, 751.0293
645.0350, 776.6602
646.1980, 751.2773
647.3610, 613.6807
648.5240, 479.6055
649.6870, 434.5361
650.8490, 328.2627
652.0120, 299.6094
653.1740, 192.1035
654.3360, 98.57227
655.4980, 30.00879
656.6600, 89.38574
657.8210, 48.72461
658.9830, 2.991211
660.1440, 57.78711
661.3050, 195.3105
662.4660, 74.37793
663.6270, 170.3916
664.7870, 323.3721
665.9480, 249.3193
667.1080, 378.2314
668.2680, 365.1064
669.4280, 577.9463
670.5880, 682.7480
671.7480, 689.5127
672.9070, 752.2373
674.0670, 716.4053
675.2260, 875.0488
676.3850, 948.7930
677.5440, 924.9434
678.7030, 942.2900
679.8610, 805.9131
681.0200, 575.7031
682.1780, 618.7451
683.3360, 455.9453
684.4940, 261.6592
685.6520, 163.6094
686.8090, 41.08105
687.9670, 13.37012
689.1240, 130.9512
690.2810, 123.8232
691.4380, 94.49805
692.5950, 87.95117
693.7520, 14.41113
694.9080, 192.2451
696.0650, 455.6016
697.2210, 472.8936
698.3770, 729.6514
699.5330, 760.8965
700.6880, 931.9580
701.8440, 1330.837
702.9990, 1511.462
704.1550, 1842.053
705.3100, 2126.888
706.4650, 2651.217
707.6190, 2988.710
708.7740, 3626.351
709.9290, 4057.373
711.0830, 4890.504
712.2370, 5644.422
713.3910, 6483.867
714.5450, 7742.156
715.6980, 8950.899
716.8520, 10301.84
718.0050, 12166.46
719.1580, 14116.53
720.3110, 16668.49
721.4640, 19502.36
722.6170, 22985.15
723.7700, 26373.86
724.9220, 30798.46
726.0740, 35102.99
727.2260, 39876.43
728.3780, 43576.76
729.5300, 46857.01
730.6810, 49038.18
731.8330, 49435.24
732.9840, 48558.23
734.1350, 46607.11
735.2860, 42954.89
736.4370, 39077.60
737.5880, 34554.20
738.7380, 30171.71
739.8880, 26377.56
741.0390, 23182.88
742.1890, 20276.11
743.3380, 17973.23
744.4880, 15687.90
745.6380, 14026.36
746.7870, 12641.17
747.9360, 11241.56
749.0850, 10031.69
750.2340, 9382.562
751.3830, 8497.523
752.5310, 7733.404
753.6800, 7169.771
754.8280, 6642.155
755.9760, 6196.728
757.1240, 5902.552
758.2720, 5669.521
759.4190, 5409.743
760.5670, 4858.475
761.7140, 4596.125
762.8610, 4116.920
764.0080, 3852.234
765.1550, 3534.270
766.3020, 3237.382
767.4480, 2884.344
768.5950, 2599.283
769.7410, 2317.957
770.8870, 2028.274
772.0330, 1747.900
773.1780, 1422.564
774.3240, 1064.563
775.4690, 914.5850
776.6140, 815.3936
777.7590, 771.1123
778.9040, 733.4160
780.0490, 661.5537
781.1940, 449.7998
782.3380, 537.2686
783.4820, 471.7295
784.6260, 374.5664
785.7700, 424.5195
786.9140, 424.1680
788.0580, 483.7168
789.2010, 506.1738
790.3450, 622.5391
791.4880, 714.8154
792.6310, 810.4951
793.7730, 930.3535
794.9160, 906.7139
796.0590, 1134.238
797.2010, 1162.984
798.3430, 1180.522
799.4850, 1375.172
800.6270, 1516.827
801.7690, 1709.300
802.9100, 1639.684
804.0520, 1722.980
805.1930, 1525.189
806.3340, 1291.311
807.4750, 1071.345
808.6160, 848.2920
809.7560, 687.1523
810.8970, 431.9248
812.0370, 172.6055
813.1770, 35.16504
814.3170, 8.436523
815.4570, 204.2188
816.5960, 178.2861
817.7360, 182.6221
818.8750, 236.2305
820.0140, 129.1377
821.1530, 155.2852
822.2920, 177.3262
823.4310, 157.4072
824.5690, 81.40625
825.7070, 79.37988
826.8460, 68.05566
827.9840, 4.798828
829.1220, 12.88477
830.2590, 95.93848
831.3970, 53.99219
832.5340, 129.5049
833.6710, 196.3057
834.8080, 231.0156
835.9450, 64.63770
837.0820, 191.1514
838.2190, 197.5742
839.3550, 132.9082
840.4910, 204.1465
841.6270, 176.2969
842.7630, 129.3574
843.8990, 112.3252
845.0350, 96.19531
846.1700, 66.50879
847.3060, 54.64062
848.4410, 58.20996
849.5760, 77.67676
850.7100, 149.0479
851.8450, 183.7803
852.9800, 158.5312
854.1140, 307.6465
855.2480, 418.6875
856.3820, 488.0605
857.5160, 488.5645
858.6500, 626.4014
859.7830, 642.1709
860.9170, 671.8740
862.0500, 874.5098
863.1830, 843.0791
864.3160, 922.5830
865.4480, 1034.022
866.5810, 895.3965
867.7130, 988.7070
868.8460, 1084.953
869.9780, 1030.136
871.1100, 1331.255
872.2410, 1283.312
873.3730, 1460.307
874.5050, 1468.240
875.6360, 1373.113
876.7670, 1507.930
877.8980, 1628.685
879.0290, 1572.381
880.1590, 1514.018
881.2900, 1423.604
882.4200, 1506.149
883.5500, 1457.657
884.6800, 1233.143
885.8100, 1321.590
886.9400, 1211.021
888.0690, 1017.466
889.1990, 959.9111
890.3280, 1037.360
891.4570, 888.8105
892.5860, 966.2520
893.7140, 738.7725
894.8430, 641.2812
895.9710, 616.8184
897.1000, 410.3770
898.2280, 384.9199
899.3560, 309.5029
900.4830, 279.0684
901.6110, 279.6357
902.7380, 270.1699
903.8660, 148.6768
904.9930, 36.14258
906.1200, 75.55273
907.2460, 113.0635
908.3730, 1.783203
909.5000, 85.56543
910.6260, 38.56543
911.7520, 61.36035
912.8780, 145.3623
914.0040, 53.47559
915.1290, 42.34668
916.2550, 127.1162
917.3800, 192.5586
918.5050, 170.5332
919.6300, 310.2539
920.7550, 241.1689
921.8800, 288.5361
923.0040, 346.8574
924.1290, 418.5029
925.2530, 515.1396
926.3770, 649.7744
927.5010, 799.3906
928.6250, 830.9961
929.7480, 1032.595
930.8720, 1171.163
931.9950, 1163.710
933.1180, 1184.271
934.2410, 1474.844
935.3640, 1593.388
936.4860, 1432.941
937.6090, 1902.502
938.7310, 1814.043
939.8530, 1869.586
940.9750, 1955.096
942.0970, 2059.615
943.2180, 2249.119
944.3400, 2295.602
945.4610, 2269.080
946.5820, 2477.091
947.7030, 2804.552
948.8240, 2377.841
949.9450, 3004.652
951.0650, 2544.199
952.1860, 2362.408
953.3060, 2547.375
954.4260, 2437.031
955.5460, 2417.460
956.6650, 2556.353
957.7850, 2483.946
958.9040, 2447.922
960.0230, 2574.967
961.1420, 2531.462
962.2610, 2580.400
963.3800, 2541.959
964.4990, 2781.230
965.6170, 2710.197
966.7350, 3022.003
967.8530, 2956.007
968.9710, 2897.005
970.0890, 2860.453
971.2070, 3283.332
972.3240, 3223.313
973.4410, 3310.394
974.5580, 3549.643
975.6750, 3558.842
976.7920, 3660.713
977.9090, 3710.004
979.0250, 3870.045
980.1410, 3723.855
981.2580, 3843.194
982.3740, 3773.343
983.4890, 3854.619
984.6050, 3837.281
985.7200, 3825.009
986.8360, 3770.194
987.9510, 3863.103
989.0660, 3718.234
990.1810, 3521.834
991.2950, 3501.454
992.4100, 3411.794
993.5240, 3323.688
994.6390, 3354.302
995.7530, 3405.912
996.8660, 3382.242
997.9800, 3316.127
999.0940, 3303.734
1000.207, 3395.340
1001.320, 3431.943
1002.433, 3547.549
1003.546, 3641.154
1004.659, 3459.758
1005.772, 3483.361
1006.884, 3271.966
1007.996, 3604.570
1009.108, 3591.174
1010.220, 3754.778
1011.332, 3589.384
1012.444, 3771.990
1013.555, 4009.599
1014.666, 4145.209
1015.777, 4392.648
1016.888, 4593.061
1017.999, 4868.044
1019.110, 5060.658
1020.220, 5331.277
1021.331, 5645.896
1022.441, 6009.517
1023.551, 6187.139
1024.661, 6466.764
1025.770, 6597.416
1026.880, 7160.041
1027.989, 7213.693
1029.098, 7513.322
1030.207, 7660.125
1031.316, 7909.755
1032.425, 8224.546
1033.533, 8381.476
1034.642, 8533.248
1035.750, 8836.000
1036.858, 9098.884
1037.966, 9284.488
1039.073, 9491.883
1040.181, 9697.984
1041.288, 10095.65
1042.396, 10608.51
1043.503, 11021.24
1044.610, 11511.91
1045.716, 12110.82
1046.823, 12573.67
1047.929, 13111.09
1049.036, 13799.31
1050.142, 14551.81
1051.248, 15350.66
1052.353, 15995.77
1053.459, 17148.81
1054.564, 18180.94
1055.670, 19287.81
1056.775, 20641.42
1057.880, 21885.55
1058.985, 23270.09
1060.089, 24716.73
1061.194, 26356.80
1062.298, 28060.18
1063.402, 29996.46
1064.506, 30822.90
1065.610, 32145.60
1066.713, 33012.79
1067.817, 33708.94
1068.920, 33995.05
1070.023, 33556.48
1071.126, 32528.78
1072.229, 31559.23
1073.332, 30290.33
1074.435, 28604.28
1075.537, 26458.85
1076.639, 24716.51
1077.741, 22869.78
1078.843, 20843.91
1079.945, 19095.77
1081.046, 17467.70
1082.148, 15868.38
1083.249, 14305.49
1084.350, 12716.30
1085.451, 11529.46
1086.551, 10320.62
1087.652, 9176.002
1088.752, 8496.482
1089.853, 7663.439
1090.953, 6820.119
1092.053, 6060.542
1093.152, 5714.426
1094.252, 5207.293
1095.351, 4984.467
1096.451, 4659.539
1097.550, 4331.699
1098.649, 4162.698
1099.748, 3855.718
1100.846, 3689.986
1101.945, 3557.749
1103.043, 3331.527
1104.141, 3187.621
1105.239, 3204.251
1106.337, 2969.869
1107.434, 2729.031
1108.532, 2525.645
1109.629, 2603.254
1110.726, 2400.266
1111.823, 2477.875
1112.920, 2235.486
1114.017, 2064.052
1115.113, 2147.708
1116.210, 2096.573
1117.306, 1787.194
1118.402, 1608.812
1119.498, 1558.958
1120.593, 1525.678
1121.689, 1518.275
1122.784, 1495.242
1123.879, 1257.924
1124.974, 1398.480
1126.069, 1239.026
1127.164, 1110.557
1128.259, 1195.073
1129.353, 1095.577
1130.447, 1048.477
1131.541, 975.9512
1132.635, 914.9932
1133.729, 884.9355
1134.822, 816.6680
1135.916, 822.0859
1137.009, 800.4893
1138.102, 759.8770
1139.195, 836.2490
1140.288, 804.6084
1141.380, 662.9512
1142.473, 568.2773
1143.565, 618.5889
1144.657, 637.8857
1145.749, 683.1650
1146.841, 463.4287
1147.932, 501.6768
1149.024, 462.9092
1150.115, 302.1240
1151.206, 404.3223
1152.297, 322.5039
1153.388, 237.6689
1154.479, 151.8184
1155.569, 134.8789
1156.659, 116.7529
1157.750, 128.1582
1158.839, 120.2383
1159.929, 144.2979
1161.019, 87.34961
1162.108, 190.3643
1163.198, 93.37012
1164.287, 26.64453
1165.376, 45.69043
1166.465, 55.22168
1167.553, 18.11328
1168.642, 3.015625
1169.730, 21.16895
1170.818, 1.348633
1171.906, 44.45117
1172.994, 10.25488
1174.082, 40.04395
1175.170, 29.63965
1176.257, 5.599609
1177.344, 21.35742
1178.431, 22.87305
1179.518, 3.127930
1180.605, 50.52832
1181.691, 161.7393
1182.778, 118.1826
1183.864, 139.7129
1184.950, 127.3467
1186.036, 71.07617
1187.122, 17.87598
1188.207, 41.29492
1189.292, 126.6084
1190.378, 63.60156
1191.463, 69.66016
1192.548, 41.78906
1193.632, 22.02539
1194.717, 10.04395
1195.801, 76.42871
1196.886, 19.74609
1197.970, 2.110352
1199.054, 112.5117
1200.137, 133.0098
1201.221, 34.61523
1202.305, 116.1074
1203.388, 66.96191
1204.471, 138.8242
1205.554, 36.72266
1206.637, 21.67969
1207.719, 78.68750
1208.802, 155.7773
1209.884, 120.0117
1210.966, 108.7764
1212.048, 14.51562
1213.130, 7.222656
1214.212, 18.11035
1215.293, 115.5059
1216.374, 35.90332
1217.456, 10.62402
1218.536, 180.8887
1219.617, 27.54004
1220.698, 89.74902
1221.778, 18.00879
1222.859, 72.23047
1223.939, 89.42285
1225.019, 24.41406
1226.099, 57.68750
1227.178, 41.75684
1228.258, 81.79492
1229.337, 84.80273
1230.417, 7.219727
1231.496, 145.7041
1232.574, 140.5996
1233.653, 66.46777
1234.732, 176.3037
1235.810, 195.1191
1236.888, 47.91016
1237.966, 196.6729
1239.044, 280.4092
1240.122, 81.11914
1241.199, 204.7969
1242.277, 185.4482
1243.354, 26.07129
1244.431, 166.6572
1245.508, 117.2148
1246.585, 210.7412
1247.661, 261.2422
1248.738, 46.71484
1249.814, 147.1543
1250.890, 184.5664
1251.966, 17.95020
1253.042, 146.2930
1254.117, 173.6064
1255.193, 230.8936
1256.268, 232.1523
1257.343, 293.3848
1258.418, 312.5889
1259.493, 71.76758
1260.567, 210.9141
1261.642, 159.0332
1262.716, 88.12598
1263.790, 173.1895
1264.864, 335.2266
1265.938, 308.2354
1267.011, 483.2178
1268.085, 415.1748
1269.158, 402.1035
1270.231, 281.0078
1271.304, 407.8857
1272.377, 403.7373
1273.450, 387.5635
1274.522, 407.3633
1275.594, 424.1367
1276.666, 405.8857
1277.738, 414.7285
1278.810, 433.3066
1279.882, 417.9785
1280.953, 445.6260
1282.025, 483.2471
1283.096, 485.2539
1284.167, 525.8154
1285.238, 514.9619
1286.308, 566.4570
1287.379, 575.9551
1288.449, 548.4023
1289.519, 543.8516
1290.589, 394.0996
1291.659, 394.5000
1292.729, 343.7139
1293.798, 458.6553
