##NAMES=Elbaite
##RRUFFID=R060560
##IDEAL CHEMISTRY=Na(Al_1.5_Li_1.5_)Al_6_(Si_6_O_18_)(BO_3_)_3_(OH)_3_OH
##LOCALITY=California, USA
##OWNER=RRUFF
##SOURCE=Gemological Institute of America
##DESCRIPTION=Pink fragment
##STATUS=The identification of this mineral has been confirmed by X-ray diffraction and chemical analysis
##URL=rruff.info/R060560
##MEASURED CHEMISTRY=(Na_0.56_Ca_0.12_[box]_0.32_)(Al_1.60_Li_1.40_)Al_6_(BO_3_)_3_[Si_6_O_18_](OH)_4_
##PIN_ID=L01799
##ORIENTATION=Laser parallel to -a* (-1 0 0). Fiducial mark perpendicular to laser is parallel to -c [0 0 -1]
118.1340, 0.0000000E+00
119.3650, 153.3779
120.5960, 27.53809
121.8270, 142.8926
123.0580, 105.7900
124.2880, 211.2900
125.5190, 29.86523
126.7490, 48.96289
127.9790, 29.97656
129.2090, 40.85059
130.4390, 221.8398
131.6680, 412.8945
132.8980, 274.9766
134.1270, 375.0176
135.3560, 330.9453
136.5850, 580.6738
137.8140, 524.1123
139.0430, 851.7754
140.2710, 920.6191
141.5000, 921.8340
142.7280, 926.5342
143.9560, 914.6172
145.1840, 895.9990
146.4120, 797.6201
147.6390, 1025.427
148.8670, 1085.369
150.0940, 1055.396
151.3210, 1056.932
152.5490, 945.5195
153.7750, 801.5254
155.0020, 776.4355
156.2290, 515.1855
157.4550, 366.7041
158.6810, 41.92871
159.9080, 46.18359
161.1340, 85.67383
162.3590, 172.5752
163.5850, 13.08496
164.8110, 161.2803
166.0360, 78.99121
167.2610, 179.1963
168.4860, 229.8965
169.7110, 257.1045
170.9360, 261.8320
172.1610, 338.0928
173.3850, 293.1064
174.6100, 200.2764
175.8340, 239.1875
177.0580, 234.6143
178.2820, 232.6445
179.5050, 161.9277
180.7290, 151.7773
181.9520, 109.0654
183.1760, 53.77246
184.3990, 236.8887
185.6220, 170.3994
186.8450, 214.2881
188.0670, 542.5469
189.2900, 728.1611
190.5120, 963.1230
191.7340, 1147.352
192.9560, 1355.598
194.1780, 1930.861
195.4000, 2161.157
196.6220, 2570.511
197.8430, 2870.957
199.0640, 3438.512
200.2860, 4039.185
201.5070, 4555.988
202.7270, 4902.930
203.9480, 5235.014
205.1690, 5938.246
206.3890, 6458.635
207.6090, 7475.184
208.8290, 8553.896
210.0490, 9734.546
211.2690, 11139.48
212.4890, 12660.05
213.7080, 14340.40
214.9280, 16139.92
216.1470, 18175.71
217.3660, 20207.87
218.5850, 22360.47
219.8030, 24635.52
221.0220, 26254.04
222.2400, 27561.05
223.4590, 27827.47
224.6770, 27425.43
225.8950, 26401.08
227.1120, 25192.19
228.3300, 22995.82
229.5480, 20933.86
230.7650, 19347.08
231.9820, 17965.31
233.1990, 16926.86
234.4160, 16160.40
235.6330, 15755.04
236.8490, 15648.78
238.0660, 15753.61
239.2820, 15764.56
240.4980, 15602.60
241.7140, 16164.75
242.9300, 16517.00
244.1460, 16423.35
245.3610, 16462.81
246.5770, 16648.37
247.7920, 16311.03
249.0070, 15890.79
250.2220, 15220.65
251.4370, 14543.62
252.6510, 13440.68
253.8660, 12650.84
255.0800, 11750.11
256.2940, 11350.47
257.5080, 11006.93
258.7220, 10433.70
259.9360, 10528.14
261.1490, 9690.895
262.3630, 9439.742
263.5760, 9235.688
264.7890, 9247.480
266.0020, 9205.066
267.2150, 9227.559
268.4270, 9506.250
269.6400, 9361.473
270.8520, 9332.090
272.0640, 9373.953
273.2760, 9059.281
274.4880, 8958.938
275.7000, 8734.887
276.9120, 8051.121
278.1230, 7575.625
279.3340, 6831.391
280.5450, 6191.410
281.7560, 5640.672
282.9670, 4925.174
284.1780, 4248.902
285.3880, 3831.836
286.5980, 3329.844
287.8090, 2914.721
289.0190, 2463.508
290.2290, 2248.148
291.4380, 1943.990
292.6480, 1729.023
293.8570, 1541.457
295.0670, 1132.650
296.2760, 1197.234
297.4850, 1046.990
298.6930, 864.9180
299.9020, 1107.012
301.1110, 991.2656
302.3190, 997.6777
303.5270, 1365.244
304.7350, 1470.963
305.9430, 1479.301
307.1510, 1879.061
308.3580, 1986.752
309.5660, 2523.059
310.7730, 2635.516
311.9800, 2862.879
313.1870, 3477.678
314.3940, 3572.047
315.6010, 3557.766
316.8070, 3617.795
318.0130, 3382.287
319.2200, 3391.789
320.4260, 3228.607
321.6310, 3200.797
322.8370, 3176.215
324.0430, 3037.551
325.2480, 3201.053
326.4540, 3091.432
327.6590, 3181.324
328.8640, 3437.676
330.0680, 3298.740
331.2730, 3430.258
332.4780, 3384.229
333.6820, 3456.293
334.8860, 3456.303
336.0900, 3358.053
337.2940, 3320.020
338.4980, 3521.883
339.7010, 3612.201
340.9050, 3796.406
342.1080, 4001.703
343.3110, 4182.068
344.5140, 4383.346
345.7170, 4673.842
346.9200, 4748.422
348.1220, 5090.088
349.3240, 5368.836
350.5270, 5877.670
351.7290, 5912.586
352.9310, 6369.586
354.1320, 6754.670
355.3340, 7521.834
356.5350, 8122.080
357.7370, 8952.406
358.9380, 9878.814
360.1390, 11311.30
361.3400, 12793.87
362.5400, 14819.51
363.7410, 17124.23
364.9410, 19647.03
366.1410, 22471.89
367.3410, 25286.82
368.5410, 28799.83
369.7410, 31663.90
370.9400, 34877.02
372.1400, 37480.22
373.3390, 39136.47
374.5380, 39364.88
375.7370, 39793.14
376.9360, 37022.56
378.1350, 34548.04
379.3330, 30885.58
380.5310, 27491.17
381.7300, 24228.81
382.9280, 21335.51
384.1260, 19024.27
385.3230, 16959.43
386.5210, 15333.95
387.7180, 14088.87
388.9160, 13018.85
390.1130, 12427.88
391.3100, 11953.97
392.5060, 11724.11
393.7030, 11758.31
394.9000, 11721.57
396.0960, 11971.87
397.2920, 12027.24
398.4880, 12409.66
399.6840, 12553.14
400.8800, 13061.67
402.0750, 13351.26
403.2710, 13547.90
404.4660, 13430.60
405.6610, 13820.35
406.8560, 13799.17
408.0510, 13610.04
409.2450, 12857.99
410.4400, 12466.05
411.6340, 11436.20
412.8280, 10600.45
414.0220, 9742.801
415.2160, 8726.242
416.4100, 7879.781
417.6030, 6896.402
418.7970, 5856.131
419.9900, 5036.938
421.1830, 4111.832
422.3760, 3354.814
423.5690, 2948.883
424.7610, 2497.033
425.9540, 2149.270
427.1460, 1822.447
428.3380, 1489.990
429.5300, 1278.473
430.7220, 1238.037
431.9140, 1054.553
433.1050, 836.4062
434.2970, 715.2129
435.4880, 509.0957
436.6790, 368.0566
437.8700, 486.0957
439.0610, 337.2109
440.2510, 572.4023
441.4420, 298.6699
442.6320, 451.0137
443.8220, 158.4277
445.0120, 450.9199
446.2020, 346.4844
447.3910, 381.1191
448.5810, 204.8281
449.7700, 187.6113
450.9600, 160.4688
452.1490, 45.41211
453.3370, 10.42578
454.5260, 27.20117
455.7150, 74.41211
456.9030, 62.29492
458.0910, 185.1562
459.2800, 168.0508
460.4670, 153.9727
461.6550, 220.9141
462.8430, 161.9043
464.0300, 197.9219
465.2180, 235.9824
466.4050, 250.1016
467.5920, 136.2910
468.7790, 190.4941
469.9650, 178.7402
471.1520, 277.0234
472.3380, 361.3887
473.5250, 477.8750
474.7110, 355.5371
475.8970, 208.3184
477.0820, 187.1523
478.2680, 291.0312
479.4540, 366.9980
480.6390, 198.0938
481.8240, 128.2363
483.0090, 55.60156
484.1940, 23.50586
485.3780, 62.41406
486.5630, 213.3906
487.7470, 483.4277
488.9320, 438.5234
490.1160, 591.6777
491.3000, 710.8887
492.4830, 1103.160
493.6670, 993.4902
494.8500, 1377.877
496.0340, 1599.322
497.2170, 1659.822
498.4000, 1982.379
499.5820, 2305.996
500.7650, 2520.668
501.9480, 2852.396
503.1300, 3147.180
504.3120, 3206.021
505.4940, 3639.918
506.6760, 3755.869
507.8580, 4231.873
509.0390, 4391.938
510.2210, 4552.055
511.4020, 4952.227
512.5830, 5140.451
513.7640, 5263.734
514.9450, 5349.064
516.1250, 5643.457
517.3060, 5376.902
518.4860, 5547.402
519.6660, 5271.959
520.8460, 5336.576
522.0260, 4955.244
523.2060, 4438.971
524.3850, 4202.773
525.5650, 3957.670
526.7440, 3745.674
527.9230, 3558.061
529.1020, 3285.068
530.2810, 3243.408
531.4590, 2966.822
532.6380, 2859.373
533.8160, 2978.980
534.9940, 3044.738
536.1720, 3044.633
537.3500, 2924.660
538.5270, 2976.768
539.7050, 2885.012
540.8820, 2545.359
542.0590, 2539.811
543.2360, 2374.367
544.4130, 2345.992
545.5900, 2221.750
546.7660, 1931.629
547.9430, 1680.660
549.1190, 1655.850
550.2950, 1639.135
551.4710, 1416.518
552.6470, 1526.000
553.8220, 1296.541
554.9980, 1335.182
556.1730, 1048.883
557.3480, 931.6582
558.5230, 841.5117
559.6980, 926.4180
560.8730, 1007.387
562.0470, 875.4355
563.2220, 792.5859
564.3960, 733.8418
565.5700, 574.1895
566.7440, 524.6523
567.9170, 532.1699
569.0910, 742.7402
570.2640, 525.3652
571.4380, 669.0391
572.6110, 594.7559
573.7840, 477.5215
574.9570, 698.3809
576.1290, 615.2793
577.3020, 552.2598
578.4740, 788.2891
579.6460, 853.3711
580.8180, 767.4902
581.9900, 762.6484
583.1620, 951.8418
584.3330, 928.0723
585.5040, 775.3359
586.6760, 972.6367
587.8470, 860.9707
589.0180, 982.3320
590.1880, 1069.729
591.3590, 1074.152
592.5290, 1049.855
593.7000, 921.0820
594.8700, 883.5742
596.0400, 984.3262
597.2090, 902.8047
598.3790, 664.8691
599.5490, 954.7480
600.7180, 724.4648
601.8870, 957.8770
603.0560, 695.8184
604.2250, 674.8086
605.3940, 647.9629
606.5620, 594.0352
607.7300, 668.3281
608.8990, 810.5938
610.0670, 753.1191
611.2350, 519.2637
612.4020, 882.0801
613.5700, 588.3184
614.7370, 779.2305
615.9050, 922.8164
617.0720, 806.4336
618.2390, 1033.230
619.4060, 1174.410
620.5720, 1111.494
621.7390, 1397.805
622.9050, 1591.779
624.0710, 1812.992
625.2370, 2109.322
626.4030, 2616.656
627.5690, 2850.027
628.7340, 3356.430
629.9000, 3697.865
631.0650, 4455.338
632.2300, 5187.840
633.3950, 5642.373
634.5600, 5994.939
635.7240, 6786.539
636.8890, 7069.168
638.0530, 7453.828
639.2170, 8084.518
640.3810, 8075.234
641.5450, 8212.980
642.7080, 7887.754
643.8720, 7503.549
645.0350, 7329.375
646.1980, 6936.223
647.3610, 6593.100
648.5240, 6287.998
649.6870, 6099.922
650.8490, 5802.871
652.0120, 5696.844
653.1740, 5046.838
654.3360, 4813.855
655.4980, 4807.793
656.6600, 4312.902
657.8210, 4307.980
658.9830, 3817.291
660.1440, 3623.012
661.3050, 3411.658
662.4660, 2943.260
663.6270, 2584.285
664.7870, 2281.518
665.9480, 2070.326
667.1080, 1731.500
668.2680, 1663.338
669.4280, 1434.572
670.5880, 1217.129
671.7480, 1287.354
672.9070, 1253.486
674.0670, 1328.129
675.2260, 1209.322
676.3850, 1127.139
677.5440, 1345.479
678.7030, 1098.145
679.8610, 1220.117
681.0200, 1265.621
682.1780, 1111.984
683.3360, 1185.188
684.4940, 1355.174
685.6520, 1605.023
686.8090, 1696.475
687.9670, 1982.883
689.1240, 2257.133
690.2810, 2749.539
691.4380, 3110.656
692.5950, 3438.992
693.7520, 4062.971
694.9080, 4558.547
696.0650, 5154.688
697.2210, 6034.582
698.3770, 7029.555
699.5330, 8106.697
700.6880, 9533.457
701.8440, 10856.82
702.9990, 12519.98
704.1550, 13976.03
705.3100, 15373.79
706.4650, 17013.12
707.6190, 18495.73
708.7740, 19154.18
709.9290, 20224.64
711.0830, 20354.92
712.2370, 20532.70
713.3910, 19668.03
714.5450, 18583.63
715.6980, 17253.95
716.8520, 15804.17
718.0050, 14396.20
719.1580, 12871.10
720.3110, 11224.27
721.4640, 9745.176
722.6170, 8744.881
723.7700, 8012.863
724.9220, 7172.775
726.0740, 6423.637
727.2260, 5842.971
728.3780, 5467.627
729.5300, 4987.885
730.6810, 4901.100
731.8330, 4792.277
732.9840, 4701.414
734.1350, 4829.520
735.2860, 4989.598
736.4370, 4803.660
737.5880, 5092.703
738.7380, 5181.754
739.8880, 5627.807
741.0390, 6104.861
742.1890, 6463.928
743.3380, 6756.535
744.4880, 7049.715
745.6380, 7227.170
746.7870, 7315.285
747.9360, 7535.395
749.0850, 7290.514
750.2340, 7171.633
751.3830, 6985.775
752.5310, 6502.965
753.6800, 5978.227
754.8280, 5306.529
755.9760, 4718.842
757.1240, 4448.154
758.2720, 4007.496
759.4190, 3718.881
760.5670, 3250.268
761.7140, 2913.047
762.8610, 2689.373
764.0080, 2442.672
765.1550, 2243.078
766.3020, 1984.266
767.4480, 1727.516
768.5950, 1547.215
769.7410, 1432.242
770.8870, 1330.219
772.0330, 1214.338
773.1780, 1232.842
774.3240, 1131.652
775.4690, 1042.967
776.6140, 1094.666
777.7590, 1020.309
778.9040, 1027.895
780.0490, 951.4258
781.1940, 1037.900
782.3380, 775.3164
783.4820, 757.6719
784.6260, 571.9746
785.7700, 655.2148
786.9140, 380.3965
788.0580, 576.5215
789.2010, 523.5859
790.3450, 370.5879
791.4880, 394.5332
792.6310, 143.4199
793.7730, 289.2363
794.9160, 397.9883
796.0590, 261.6816
797.2010, 100.3105
798.3430, 210.8633
799.4850, 222.3477
800.6270, 5.236328
801.7690, 70.93164
802.9100, 110.7715
804.0520, 258.7773
805.1930, 93.03125
806.3340, 66.44727
807.4750, 8.988281
808.6160, 223.6816
809.7560, 112.4160
810.8970, 276.5664
812.0370, 236.8066
813.1770, 214.2871
814.3170, 14.99609
815.4570, 226.8281
816.5960, 119.8965
817.7360, 96.14453
818.8750, 125.5566
820.0140, 22.84570
821.1530, 214.8555
822.2920, 180.7891
823.4310, 301.9316
824.5690, 317.3535
825.7070, 92.05664
826.8460, 94.92773
827.9840, 99.96289
829.1220, 35.83008
830.2590, 89.47461
831.3970, 41.05469
832.5340, 29.50977
833.6710, 26.21094
834.8080, 136.9629
835.9450, 17.05078
837.0820, 57.96680
838.2190, 116.1328
839.3550, 161.5508
840.4910, 97.01172
841.6270, 188.7168
842.7630, 37.36523
843.8990, 74.35156
845.0350, 28.24805
846.1700, 78.04492
847.3060, 171.7559
848.4410, 123.3848
849.5760, 126.0645
850.7100, 240.3047
851.8450, 80.39453
852.9800, 21.75391
854.1140, 27.46094
855.2480, 184.9082
856.3820, 288.8652
857.5160, 342.1875
858.6500, 193.4902
859.7830, 305.4570
860.9170, 312.9004
862.0500, 315.9355
863.1830, 464.4121
864.3160, 344.6973
865.4480, 490.6973
866.5810, 530.5664
867.7130, 618.8906
868.8460, 602.0352
869.9780, 617.5645
871.1100, 738.2168
872.2410, 800.5156
873.3730, 771.2637
874.5050, 862.3105
875.6360, 785.4883
876.7670, 782.2129
877.8980, 770.8770
879.0290, 636.4805
880.1590, 735.0254
881.2900, 581.5059
882.4200, 613.9258
883.5500, 729.2852
884.6800, 686.5820
885.8100, 619.8203
886.9400, 589.9961
888.0690, 607.1094
889.1990, 786.1621
890.3280, 781.1543
891.4570, 828.4629
892.5860, 791.6191
893.7140, 831.7559
894.8430, 584.5020
895.9710, 500.1875
897.1000, 307.8125
898.2280, 503.3711
899.3560, 398.8691
900.4830, 360.3145
901.6110, 413.6953
902.7380, 369.0195
903.8660, 247.2812
904.9930, 434.4785
906.1200, 418.6270
907.2460, 341.7227
908.3730, 234.8105
909.5000, 394.8320
910.6260, 250.8008
911.7520, 465.7539
912.8780, 418.6484
914.0040, 560.4863
915.1290, 545.2676
916.2550, 481.0371
917.3800, 494.7520
918.5050, 517.4082
919.6300, 669.0156
920.7550, 567.5703
921.8800, 483.0918
923.0040, 582.5586
924.1290, 771.9883
925.2530, 880.3652
926.3770, 699.7070
927.5010, 843.0078
928.6250, 826.3691
929.7480, 869.5645
930.8720, 1046.758
931.9950, 986.7090
933.1180, 1111.244
934.2410, 1105.822
935.3640, 1221.418
936.4860, 1075.588
937.6090, 1280.520
938.7310, 1268.836
939.8530, 1371.758
940.9750, 1406.977
942.0970, 1479.770
943.2180, 1392.199
944.3400, 1493.943
945.4610, 1806.748
946.5820, 2003.020
947.7030, 2266.717
948.8240, 2047.752
949.9450, 2155.225
951.0650, 2027.340
952.1860, 2127.109
953.3060, 2319.314
954.4260, 2682.619
955.5460, 3209.051
956.6650, 2940.676
957.7850, 2994.400
958.9040, 2898.516
960.0230, 3328.678
961.1420, 3450.963
962.2610, 3576.051
963.3800, 4056.809
964.4990, 4072.475
965.6170, 4372.879
966.7350, 4261.641
967.8530, 4503.803
968.9710, 4744.178
970.0890, 4721.449
971.2070, 4580.508
972.3240, 4986.928
973.4410, 4954.736
974.5580, 5062.703
975.6750, 5160.740
976.7920, 5582.043
977.9090, 5357.717
979.0250, 5498.102
980.1410, 5232.605
981.2580, 5293.055
982.3740, 5273.650
983.4890, 5223.711
984.6050, 5212.172
985.7200, 5102.336
986.8360, 5194.746
987.9510, 5218.215
989.0660, 5357.830
990.1810, 5260.523
991.2950, 5262.996
992.4100, 5130.547
993.5240, 5159.332
994.6390, 5245.807
995.7530, 5264.307
996.8660, 5182.818
997.9800, 5149.812
999.0940, 5129.031
1000.207, 5024.445
1001.320, 5069.447
1002.433, 4960.447
1003.546, 4917.451
1004.659, 4813.451
1005.772, 4588.459
1006.884, 4711.467
1007.996, 4490.475
1009.108, 4404.482
1010.220, 4487.490
1011.332, 4496.500
1012.444, 4393.514
1013.555, 4389.129
1014.666, 4289.561
1015.777, 4274.598
1016.888, 4125.633
1017.999, 4125.674
1019.110, 4141.719
1020.220, 4208.766
1021.331, 4301.814
1022.441, 4242.867
1023.551, 4349.924
1024.661, 4371.984
1025.770, 4249.051
1026.880, 4181.117
1027.989, 4173.191
1029.098, 3864.072
1030.207, 4108.156
1031.316, 3780.852
1032.425, 3780.951
1033.533, 3812.133
1034.642, 3919.082
1035.750, 3555.199
1036.858, 3863.703
1037.966, 3628.223
1039.073, 3689.059
1040.181, 3707.439
1041.288, 3972.309
1042.396, 3952.859
1043.503, 3918.428
1044.610, 4180.801
1045.716, 4200.988
1046.823, 4461.180
1047.929, 4687.379
1049.036, 4495.270
1050.142, 4831.199
1051.248, 4746.426
1052.353, 4794.354
1053.459, 5396.643
1054.564, 5415.695
1055.670, 5721.957
1056.775, 5859.625
1057.880, 5843.900
1058.985, 6046.754
1060.089, 6129.094
1061.194, 6385.316
1062.298, 6415.051
1063.402, 6434.375
1064.506, 6741.213
1065.610, 6825.402
1066.713, 7123.762
1067.817, 6973.688
1068.920, 7125.428
1070.023, 7186.848
1071.126, 7134.318
1072.229, 7322.852
1073.332, 7383.488
1074.435, 7250.266
1075.537, 7466.195
1076.639, 7571.912
1077.741, 7480.910
1078.843, 7739.773
1079.945, 7720.277
1081.046, 7770.551
1082.148, 7904.738
1083.249, 7947.965
1084.350, 8033.484
1085.451, 8007.883
1086.551, 8166.441
1087.652, 8167.012
1088.752, 8440.943
1089.853, 8369.695
1090.953, 8187.775
1092.053, 8531.277
1093.152, 8358.285
1094.252, 8018.357
1095.351, 8075.488
1096.451, 7739.680
1097.550, 7287.902
1098.649, 7272.180
1099.748, 6953.484
1100.846, 6712.363
1101.945, 6490.012
1103.043, 6018.779
1104.141, 5847.564
1105.239, 5641.840
1106.337, 5165.396
1107.434, 4991.025
1108.532, 4796.715
1109.629, 4622.488
1110.726, 4413.967
1111.823, 4060.789
1112.920, 3951.635
1114.017, 3776.469
1115.113, 3906.383
1116.210, 3636.314
1117.306, 4242.471
1118.402, 4304.480
1119.498, 4387.602
1120.593, 4202.689
1121.689, 3988.803
1122.784, 4151.332
1123.879, 3878.479
1124.974, 3568.686
1126.069, 3171.855
1127.164, 2738.033
1128.259, 2303.221
1129.353, 2089.422
1130.447, 1960.627
1131.541, 1974.543
1132.635, 1743.768
1133.729, 1574.996
1134.822, 1426.814
1135.916, 1297.748
1137.009, 1192.619
1138.102, 1187.266
1139.195, 1039.527
1140.288, 1149.799
1141.380, 1137.117
1142.473, 945.7070
1143.565, 1064.752
1144.657, 961.0449
1145.749, 705.9023
1146.841, 570.2637
1147.932, 789.5723
1149.024, 547.0273
1150.115, 667.3457
1151.206, 388.8555
1152.297, 354.1855
1153.388, 197.5195
1154.479, 226.8574
1155.569, 243.1992
1156.659, 275.5430
1157.750, 135.8926
1158.839, 169.2461
1159.929, 38.39453
1161.019, 104.9570
1162.108, 7.314453
1163.198, 112.7617
1164.287, 67.78125
1165.376, 44.56250
1166.465, 197.9141
1167.553, 22.73242
1168.642, 32.61719
1169.730, 75.02734
1170.818, 41.69727
1171.906, 223.3770
1172.994, 2.851563
1174.082, 14.92773
1175.170, 216.7070
1176.257, 98.41211
1177.344, 67.53125
1178.431, 113.6543
1179.518, 194.2207
1180.605, 20.19141
1181.691, 17.83398
1182.778, 18.14453
1183.864, 26.12695
1184.950, 94.12305
1186.036, 43.83789
1187.122, 85.19922
1188.207, 162.7188
1189.292, 85.36133
1190.378, 41.48242
1191.463, 72.62695
1192.548, 143.0859
1193.632, 41.93359
1194.717, 94.32227
1195.801, 98.63086
1196.886, 97.00586
1197.970, 25.09570
1199.054, 119.4746
1200.137, 53.10352
1201.221, 100.6523
1202.305, 188.5703
1203.388, 66.11719
1204.471, 36.66016
1205.554, 15.20117
1206.637, 25.17188
1207.719, 27.59570
1208.802, 23.97852
1209.884, 14.51953
1210.966, 24.91992
1212.048, 82.34961
1213.130, 131.7715
1214.212, 25.23047
1215.293, 71.64062
1216.374, 51.04297
1217.456, 114.6719
1218.536, 31.94336
1219.617, 77.39844
1220.698, 77.26562
1221.778, 128.9980
1222.859, 232.1758
1223.939, 124.5078
1225.019, 193.6602
1226.099, 291.7988
1227.178, 216.0020
1228.258, 187.1191
1229.337, 206.2246
1230.417, 28.33398
1231.496, 9.580078
1232.574, 280.4707
1233.653, 19.49219
1234.732, 73.50000
1235.810, 218.4414
1236.888, 149.3711
1237.966, 234.2852
1239.044, 218.2168
1240.122, 35.86523
1241.199, 198.9941
1242.277, 158.9004
1243.354, 33.44531
1244.431, 281.3359
1245.508, 251.2266
1246.585, 11.99414
1247.661, 273.8672
1248.738, 122.5801
1249.814, 207.2715
1250.890, 345.9609
1251.966, 32.00977
1253.042, 221.6367
1254.117, 20.24414
1255.193, 277.8164
1256.268, 503.3691
1257.343, 201.9043
1258.418, 319.4199
1259.493, 382.9180
1260.567, 3.601563
1261.642, 182.8262
1262.716, 344.2344
1263.790, 63.62305
1264.864, 189.9883
1265.938, 36.33398
1267.011, 250.6426
1268.085, 209.9355
1269.158, 213.2070
1270.231, 148.4590
1271.304, 85.69531
1272.377, 65.47656
1273.450, 199.0879
1274.522, 6.253906
1275.594, 149.3672
1276.666, 164.4590
1277.738, 131.5332
1278.810, 270.5840
1279.882, 122.6172
1280.953, 224.6309
1282.025, 368.6191
1283.096, 299.5879
1284.167, 306.5371
1285.238, 263.4668
1286.308, 173.3750
1287.379, 212.8125
1288.449, 179.1289
1289.519, 228.1719
1290.589, 182.9961
1291.659, 152.7949
1292.729, 152.5762
