##NAMES=Elbaite
##RRUFFID=R060560
##IDEAL CHEMISTRY=Na(Al_1.5_Li_1.5_)Al_6_(Si_6_O_18_)(BO_3_)_3_(OH)_3_OH
##LOCALITY=California, USA
##OWNER=RRUFF
##SOURCE=Gemological Institute of America
##DESCRIPTION=Pink fragment
##STATUS=The identification of this mineral has been confirmed by X-ray diffraction and chemical analysis
##URL=rruff.info/R060560
##MEASURED CHEMISTRY=(Na_0.56_Ca_0.12_[box]_0.32_)(Al_1.60_Li_1.40_)Al_6_(BO_3_)_3_[Si_6_O_18_](OH)_4_
##PIN_ID=L01799
##ORIENTATION=Laser parallel to -a* (-1 0 0). Fiducial mark perpendicular to laser is parallel to -c [0 0 -1]
118.1340, 0.0000000E+00
119.3650, 232.8818
120.5960, 3.778320
121.8270, 60.11230
123.0580, 286.4365
124.2880, 554.3818
125.5190, 350.5430
126.7490, 368.8359
127.9790, 451.1709
129.2090, 759.9258
130.4390, 988.3350
131.6680, 923.5801
132.8980, 920.7559
134.1270, 1011.411
135.3560, 1029.863
136.5850, 1159.360
137.8140, 1096.729
139.0430, 1255.604
140.2710, 1426.477
141.5000, 1196.589
142.7280, 1237.211
143.9560, 1397.072
145.1840, 1283.477
146.4120, 1602.997
147.6390, 2093.375
148.8670, 1872.652
150.0940, 2111.263
151.3210, 2253.867
152.5490, 2126.914
153.7750, 1653.391
155.0020, 1401.286
156.2290, 1249.585
157.4550, 969.2705
158.6810, 598.3262
159.9080, 318.7412
161.1340, 231.5107
162.3590, 245.6445
163.5850, 269.0430
164.8110, 137.4727
166.0360, 105.1016
167.2610, 23.06836
168.4860, 55.05078
169.7110, 4.148438
170.9360, 100.5137
172.1610, 97.95117
173.3850, 135.7617
174.6100, 102.3398
175.8340, 78.25000
177.0580, 113.9688
178.2820, 26.51172
179.5050, 79.81250
180.7290, 6.6405997E-02
181.9520, 12.85352
183.1760, 101.4316
184.3990, 152.9219
185.6220, 258.6250
186.8450, 517.5352
188.0670, 598.6641
189.2900, 858.0117
190.5120, 1046.576
191.7340, 1239.359
192.9560, 1535.285
194.1780, 1733.350
195.4000, 1947.568
196.6220, 2209.936
197.8430, 2323.453
199.0640, 2615.117
200.2860, 2883.918
201.5070, 3056.588
202.7270, 3225.455
203.9480, 3498.709
205.1690, 3592.656
206.3890, 3856.801
207.6090, 4373.951
208.8290, 4954.988
210.0490, 5841.611
211.2690, 6637.348
212.4890, 7623.729
213.7080, 8775.172
214.9280, 9956.271
216.1470, 11277.45
217.3660, 12842.62
218.5850, 13974.85
219.8030, 15368.12
221.0220, 16586.34
222.2400, 16875.61
223.4590, 16894.96
224.6770, 16453.45
225.8950, 15598.11
227.1120, 14451.02
228.3300, 13255.15
229.5480, 11953.48
230.7650, 11081.99
231.9820, 10454.66
233.1990, 9424.496
234.4160, 9290.490
235.6330, 9110.648
236.8490, 8767.965
238.0660, 8761.441
239.2820, 8620.078
240.4980, 8543.877
241.7140, 8461.836
242.9300, 8328.957
244.1460, 8192.244
245.3610, 7928.691
246.5770, 7491.307
247.7920, 6835.088
249.0070, 6408.039
250.2220, 5801.164
251.4370, 5346.465
252.6510, 4908.945
253.8660, 4442.615
255.0800, 4131.463
256.2940, 3730.498
257.5080, 3982.715
258.7220, 3604.656
259.9360, 3359.633
261.1490, 3352.475
262.3630, 2792.430
263.5760, 2792.572
264.7890, 2706.129
266.0020, 2981.557
267.2150, 2986.861
268.4270, 3082.428
269.6400, 3330.273
270.8520, 3494.225
272.0640, 3588.262
273.2760, 3918.367
274.4880, 3906.537
275.7000, 3989.771
276.9120, 4022.070
278.1230, 3654.402
279.3340, 3692.744
280.5450, 3541.092
281.7560, 3168.463
282.9670, 2920.879
284.1780, 2637.348
285.3880, 2685.213
286.5980, 2185.605
287.8090, 1656.283
289.0190, 1801.549
290.2290, 1207.842
291.4380, 950.6055
292.6480, 626.0078
293.8570, 170.1738
295.0670, 179.3379
296.2760, 309.4297
297.4850, 182.0957
298.6930, 223.6348
299.9020, 158.0625
301.1110, 113.3613
302.3190, 120.4727
303.5270, 335.4531
304.7350, 899.5859
305.9430, 1153.865
307.1510, 1314.291
308.3580, 1642.861
309.5660, 1930.574
310.7730, 2143.299
311.9800, 2179.809
313.1870, 2608.834
314.3940, 2631.365
315.6010, 2863.738
316.8070, 3404.164
318.0130, 3707.312
319.2200, 3818.113
320.4260, 4456.756
321.6310, 4881.182
322.8370, 5286.891
324.0430, 5966.395
325.2480, 6315.758
326.4540, 6695.766
327.6590, 7423.387
328.8640, 7613.266
330.0680, 7691.279
331.2730, 7757.428
332.4780, 7601.008
333.6820, 7340.225
334.8860, 7161.410
336.0900, 6821.119
337.2940, 6387.475
338.4980, 6062.445
339.7010, 5542.145
340.9050, 5052.346
342.1080, 4871.678
343.3110, 4624.145
344.5140, 4295.738
345.7170, 4620.461
346.9200, 4712.318
348.1220, 4535.303
349.3240, 4792.418
350.5270, 4980.660
351.7290, 5154.033
352.9310, 5485.441
354.1320, 6244.871
355.3340, 6729.363
356.5350, 7508.988
357.7370, 8439.742
358.9380, 9356.629
360.1390, 10731.65
361.3400, 12132.80
362.5400, 13716.09
363.7410, 15590.50
364.9410, 17646.05
366.1410, 19905.74
367.3410, 22306.56
368.5410, 24915.51
369.7410, 27464.61
370.9400, 29908.83
372.1400, 32238.19
373.3390, 33257.69
374.5380, 34098.34
375.7370, 33596.16
376.9360, 32526.17
378.1350, 30820.41
379.3330, 27716.89
380.5310, 25652.59
381.7300, 22478.53
382.9280, 20157.69
384.1260, 18049.06
385.3230, 15756.61
386.5210, 14350.30
387.7180, 13099.13
388.9160, 12007.09
390.1130, 11006.18
391.3100, 10469.40
392.5060, 10190.75
393.7030, 9858.246
394.9000, 9711.867
396.0960, 9877.625
397.2920, 9775.520
398.4880, 10091.54
399.6840, 10115.71
400.8800, 10572.00
402.0750, 10780.43
403.2710, 10967.00
404.4660, 11035.41
405.6610, 10999.54
406.8560, 10904.50
408.0510, 10470.61
409.2450, 10262.85
410.4400, 9652.244
411.6340, 8646.781
412.8280, 8047.465
414.0220, 6986.293
415.2160, 6338.262
416.4100, 5012.377
417.6030, 4127.639
418.7970, 3257.043
419.9900, 2527.590
421.1830, 1898.924
422.3760, 1350.117
423.5690, 900.1016
424.7610, 539.2305
425.9540, 233.5039
427.1460, 56.92383
428.3380, 158.5117
429.5300, 331.8398
430.7220, 233.1211
431.9140, 303.3223
433.1050, 216.4629
434.2970, 201.5117
435.4880, 119.4707
436.6790, 124.6914
437.8700, 196.0039
439.0610, 402.4668
440.2510, 453.8262
441.4420, 759.9648
442.6320, 764.5547
443.8220, 874.0781
445.0120, 1219.490
446.2020, 1366.863
447.3910, 1508.385
448.5810, 1641.057
449.7700, 1686.879
450.9600, 1705.850
452.1490, 1744.092
453.3370, 1547.240
454.5260, 1669.658
455.7150, 1626.230
456.9030, 1432.973
458.0910, 1654.891
459.2800, 1409.969
460.4670, 1029.197
461.6550, 1061.607
462.8430, 825.1660
464.0300, 732.9062
465.2180, 617.8184
466.4050, 486.7480
467.5920, 245.1621
468.7790, 253.5820
469.9650, 226.1543
471.1520, 28.87891
472.3380, 61.74609
473.5250, 196.7578
474.7110, 15.86523
475.8970, 154.7969
477.0820, 237.4023
478.2680, 40.92969
479.4540, 45.32422
480.6390, 10.41016
481.8240, 148.7168
483.0090, 157.2578
484.1940, 61.37305
485.3780, 417.6289
486.5630, 640.0215
487.7470, 992.5547
488.9320, 938.2246
490.1160, 1242.027
491.3000, 1416.973
492.4830, 1478.051
493.6670, 1845.266
494.8500, 2053.617
496.0340, 2031.104
497.2170, 2498.725
498.4000, 2537.484
499.5820, 2827.375
500.7650, 3034.402
501.9480, 3356.564
503.1300, 3686.859
504.3120, 4062.287
505.4940, 4394.570
506.6760, 4856.543
507.8580, 5095.369
509.0390, 5487.324
510.2210, 5834.414
511.4020, 6356.633
512.5830, 6669.980
513.7640, 6865.457
514.9450, 6899.062
516.1250, 7362.600
517.3060, 7288.859
518.4860, 7150.320
519.6660, 7375.674
520.8460, 6846.189
522.0260, 6658.393
523.2060, 6137.047
524.3850, 5644.764
525.5650, 5609.836
526.7440, 5484.207
527.9230, 5457.188
529.1020, 5414.592
530.2810, 5653.188
531.4590, 5925.971
532.6380, 6029.938
533.8160, 6467.152
534.9940, 6868.572
536.1720, 7090.264
537.3500, 7324.209
538.5270, 7496.334
539.7050, 7269.689
540.8820, 7325.299
542.0590, 7200.125
543.2360, 7174.193
544.4130, 6453.457
545.5900, 6183.930
546.7660, 5717.551
547.9430, 5460.324
549.1190, 5182.320
550.2950, 4935.445
551.4710, 4305.682
552.6470, 4263.049
553.8220, 3969.525
554.9980, 3412.115
556.1730, 3381.816
557.3480, 3044.615
558.5230, 2653.512
559.6980, 2477.506
560.8730, 2261.594
562.0470, 2123.777
563.2220, 1838.059
564.3960, 1569.434
565.5700, 1492.904
566.7440, 1648.467
567.9170, 1487.125
569.0910, 1448.869
570.2640, 1385.389
571.4380, 1184.557
572.6110, 1323.621
573.7840, 1232.129
574.9570, 1054.010
576.1290, 1295.543
577.3020, 1188.916
578.4740, 1146.424
579.6460, 1155.016
580.8180, 1221.688
581.9900, 1244.494
583.1620, 1237.406
584.3330, 1118.434
585.5040, 1098.561
586.6760, 945.7832
587.8470, 1052.076
589.0180, 991.4434
590.1880, 1070.881
591.3590, 968.3887
592.5290, 1023.969
593.7000, 960.5625
594.8700, 778.3301
596.0400, 811.1113
597.2090, 751.9590
598.3790, 616.8691
599.5490, 620.8438
600.7180, 611.8789
601.8870, 310.9785
603.0560, 408.1367
604.2250, 380.3555
605.3940, 560.6289
606.5620, 416.9629
607.7300, 415.3516
608.8990, 385.7949
610.0670, 398.2930
611.2350, 227.8418
612.4020, 336.4453
613.5700, 399.0957
614.7370, 351.7969
615.9050, 482.2500
617.0720, 642.2422
618.2390, 659.4492
619.4060, 648.5957
620.5720, 809.6934
621.7390, 808.6426
622.9050, 1072.041
624.0710, 1406.105
625.2370, 1570.213
626.4030, 1673.361
627.5690, 1933.031
628.7340, 1988.775
629.9000, 2261.043
631.0650, 2520.348
632.2300, 2567.691
633.3950, 3034.074
634.5600, 3304.492
635.7240, 3480.947
636.8890, 3436.438
638.0530, 3509.965
639.2170, 3258.535
640.3810, 3438.133
641.5450, 3323.762
642.7080, 2691.420
643.8720, 2580.105
645.0350, 2277.812
646.1980, 1760.547
647.3610, 1692.305
648.5240, 1364.088
649.6870, 1057.889
650.8490, 899.7109
652.0120, 688.5508
653.1740, 531.4102
654.3360, 314.7480
655.4980, 55.82227
656.6600, 66.96484
657.8210, 280.1504
658.9830, 365.8633
660.1440, 401.5859
661.3050, 355.0977
662.4660, 377.0488
663.6270, 318.4805
664.7870, 302.1152
665.9480, 173.1641
667.1080, 48.24414
668.2680, 200.1211
669.4280, 454.5137
670.5880, 397.5273
671.7480, 907.7324
672.9070, 1336.826
674.0670, 1380.404
675.2260, 1479.717
676.3850, 1581.877
677.5440, 1503.275
678.7030, 1460.305
679.8610, 1404.689
681.0200, 1196.891
682.1780, 1065.727
683.3360, 921.6406
684.4940, 733.9570
685.6520, 1040.664
686.8090, 760.8457
687.9670, 1250.383
689.1240, 1247.717
690.2810, 1416.904
691.4380, 1760.410
692.5950, 2048.236
693.7520, 2497.320
694.9080, 2965.887
696.0650, 3676.023
697.2210, 4302.113
698.3770, 5233.027
699.5330, 6254.893
700.6880, 7276.895
701.8440, 8671.953
702.9990, 9962.893
704.1550, 11402.03
705.3100, 13117.42
706.4650, 14576.59
707.6190, 15902.42
708.7740, 16895.96
709.9290, 17665.68
711.0830, 17998.90
712.2370, 17815.91
713.3910, 17407.18
714.5450, 16423.09
715.6980, 15542.50
716.8520, 14137.22
718.0050, 12762.92
719.1580, 11444.95
720.3110, 10213.92
721.4640, 9011.820
722.6170, 8089.660
723.7700, 7122.434
724.9220, 6568.141
726.0740, 6030.779
727.2260, 5930.350
728.3780, 5484.854
729.5300, 5710.287
730.6810, 5426.650
731.8330, 5776.943
732.9840, 5824.166
734.1350, 6337.316
735.2860, 6758.393
736.4370, 7579.398
737.5880, 8350.324
738.7380, 9210.182
739.8880, 10249.96
741.0390, 11407.67
742.1890, 12872.30
743.3380, 14024.85
744.4880, 15430.32
745.6380, 16518.72
746.7870, 17495.04
747.9360, 18296.28
749.0850, 18952.44
750.2340, 19015.52
751.3830, 18832.52
752.5310, 17947.44
753.6800, 17145.27
754.8280, 16260.03
755.9760, 15045.72
757.1240, 14205.36
758.2720, 13154.92
759.4190, 12374.40
760.5670, 11698.80
761.7140, 10947.14
762.8610, 10201.38
764.0080, 9626.543
765.1550, 9207.621
766.3020, 8695.605
767.4480, 8435.105
768.5950, 8083.984
769.7410, 7972.242
770.8870, 7904.029
772.0330, 7817.049
773.1780, 7757.643
774.3240, 7712.037
775.4690, 7919.312
776.6140, 7729.209
777.7590, 7506.896
778.9040, 7319.035
780.0490, 6616.434
781.1940, 5966.480
782.3380, 5043.393
783.4820, 4571.117
784.6260, 3837.893
785.7700, 3148.891
786.9140, 2706.260
788.0580, 2293.531
789.2010, 2164.711
790.3450, 1592.797
791.4880, 1283.787
792.6310, 1349.684
793.7730, 1059.682
794.9160, 896.9961
796.0590, 440.1309
797.2010, 491.4004
798.3430, 364.5352
799.4850, 110.0020
800.6270, 109.0078
801.7690, 79.94727
802.9100, 0.4765630
804.0520, 31.53906
805.1930, 246.6191
806.3340, 111.5254
807.4750, 105.6758
808.6160, 93.07422
809.7560, 330.7070
810.8970, 163.7031
812.0370, 446.9746
813.1770, 365.6680
814.3170, 83.74219
815.4570, 286.0488
816.5960, 372.6914
817.7360, 243.7168
818.8750, 335.0566
820.0140, 162.7578
821.1530, 234.7266
822.2920, 11.99609
823.4310, 13.45508
824.5690, 292.0977
825.7070, 90.92969
826.8460, 233.8125
827.9840, 63.58008
829.1220, 229.2012
830.2590, 210.7070
831.3970, 194.0938
832.5340, 370.3652
833.6710, 533.5391
834.8080, 383.6250
835.9450, 473.6133
837.0820, 405.5156
838.2190, 346.3223
839.3550, 353.0332
840.4910, 323.6484
841.6270, 404.1621
842.7630, 308.7070
843.8990, 484.9102
845.0350, 195.1445
846.1700, 180.2695
847.3060, 207.2793
848.4410, 333.1777
849.5760, 130.9844
850.7100, 281.6680
851.8450, 253.2520
852.9800, 222.7344
854.1140, 437.1094
855.2480, 598.3984
856.3820, 763.6074
857.5160, 826.0742
858.6500, 971.3770
859.7830, 932.7441
860.9170, 1043.629
862.0500, 1187.434
863.1830, 927.1602
864.3160, 1113.805
865.4480, 1207.373
866.5810, 1298.863
867.7130, 1473.271
868.8460, 1608.604
869.9780, 1501.861
871.1100, 1566.037
872.2410, 1753.139
873.3730, 1750.160
874.5050, 1908.107
875.6360, 2133.980
876.7670, 2153.775
877.8980, 2143.500
879.0290, 2027.145
880.1590, 2053.496
881.2900, 2009.215
882.4200, 1989.639
883.5500, 2014.990
884.6800, 1928.268
885.8100, 1597.473
886.9400, 1566.607
888.0690, 1479.668
889.1990, 1550.658
890.3280, 1429.576
891.4570, 1366.438
892.5860, 1135.234
893.7140, 946.9785
894.8430, 1351.652
895.9710, 1286.258
897.1000, 753.7988
898.2280, 988.2676
899.3560, 698.6699
900.4830, 806.0703
901.6110, 592.4102
902.7380, 348.7070
903.8660, 472.9785
904.9930, 359.1836
906.1200, 232.3789
907.2460, 367.5215
908.3730, 227.5938
909.5000, 237.6484
910.6260, 237.6328
911.7520, 47.54297
912.8780, 404.3809
914.0040, 374.1621
915.1290, 344.8984
916.2550, 403.6094
917.3800, 411.2598
918.5050, 430.8633
919.6300, 393.4238
920.7550, 314.9258
921.8800, 723.3633
923.0040, 623.7441
924.1290, 795.0918
925.2530, 756.3906
926.3770, 813.6309
927.5010, 939.8359
928.6250, 1028.986
929.7480, 1194.137
930.8720, 1338.266
931.9950, 1071.834
933.1180, 1445.316
934.2410, 1297.463
935.3640, 1498.918
936.4860, 1628.986
937.6090, 1637.574
938.7310, 1612.727
939.8530, 1778.324
940.9750, 1908.402
942.0970, 1970.398
943.2180, 2075.062
944.3400, 2143.393
945.4610, 2149.074
946.5820, 2140.223
947.7030, 2066.586
948.8240, 2160.062
949.9450, 2233.299
951.0650, 2072.871
952.1860, 2145.041
953.3060, 2112.404
954.4260, 2116.104
955.5460, 2240.686
956.6650, 2337.852
957.7850, 2060.582
958.9040, 2212.795
960.0230, 2017.613
961.1420, 2189.584
962.2610, 2267.656
963.3800, 2336.955
964.4990, 2395.006
965.6170, 2484.771
966.7350, 2445.277
967.8530, 2615.160
968.9710, 2706.031
970.0890, 2696.020
971.2070, 3007.619
972.3240, 3131.789
973.4410, 3230.467
974.5580, 3262.211
975.6750, 3199.705
976.7920, 3118.879
977.9090, 3226.219
979.0250, 3537.832
980.1410, 3580.674
981.2580, 3500.297
982.3740, 3758.406
983.4890, 3528.020
984.6050, 3570.916
985.7200, 3683.072
986.8360, 3442.898
987.9510, 3752.369
989.0660, 3535.809
990.1810, 3639.850
991.2950, 3581.889
992.4100, 3635.928
993.5240, 3263.967
994.6390, 3650.004
995.7530, 3493.043
996.8660, 3224.080
997.9800, 3506.119
999.0940, 3563.158
1000.207, 3248.195
1001.320, 3603.238
1002.433, 3367.281
1003.546, 3410.324
1004.659, 3560.367
1005.772, 3431.416
1006.884, 3593.463
1007.996, 3556.516
1009.108, 3720.568
1010.220, 3428.625
1011.332, 3723.688
1012.444, 3827.750
1013.555, 4106.820
1014.666, 4219.893
1015.777, 4350.969
1016.888, 4150.053
1017.999, 4580.139
1019.110, 4531.232
1020.220, 4813.332
1021.331, 5114.436
1022.441, 5368.547
1023.551, 5417.662
1024.661, 5607.680
1025.770, 5801.568
1026.880, 5906.174
1027.989, 6332.188
1029.098, 6191.502
1030.207, 6595.963
1031.316, 6780.131
1032.425, 6889.469
1033.533, 7251.164
1034.642, 7457.531
1035.750, 7848.354
1036.858, 8183.178
1037.966, 8638.324
1039.073, 8907.223
1040.181, 9697.615
1041.288, 10085.38
1042.396, 10730.82
1043.503, 11547.82
1044.610, 12456.08
1045.716, 13255.26
1046.823, 14217.45
1047.929, 15049.94
1049.036, 16312.61
1050.142, 17343.25
1051.248, 19183.36
1052.353, 19881.59
1053.459, 20726.17
1054.564, 21746.18
1055.670, 22333.61
1056.775, 23489.07
1057.880, 24194.52
1058.985, 24365.27
1060.089, 24909.07
1061.194, 24796.69
1062.298, 24895.37
1063.402, 24830.34
1064.506, 23975.32
1065.610, 23607.01
1066.713, 23040.31
1067.817, 22566.16
1068.920, 21683.95
1070.023, 21072.69
1071.126, 19997.24
1072.229, 19291.09
1073.332, 18513.77
1074.435, 17987.56
1075.537, 17181.21
1076.639, 16552.40
1077.741, 15435.43
1078.843, 15151.81
1079.945, 14607.33
1081.046, 13493.82
1082.148, 12766.45
1083.249, 12187.00
1084.350, 11794.15
1085.451, 11063.75
1086.551, 10430.27
1087.652, 9829.684
1088.752, 9523.125
1089.853, 9191.367
1090.953, 8526.195
1092.053, 7763.359
1093.152, 7614.637
1094.252, 7188.377
1095.351, 6956.701
1096.451, 6447.857
1097.550, 5911.305
1098.649, 5573.367
1099.748, 5214.180
1100.846, 4896.121
1101.945, 4663.973
1103.043, 4245.104
1104.141, 4044.275
1105.239, 3786.225
1106.337, 3398.715
1107.434, 3273.508
1108.532, 3242.645
1109.629, 3010.721
1110.726, 3006.533
1111.823, 2531.531
1112.920, 2489.357
1114.017, 2269.373
1115.113, 2496.227
1116.210, 2091.230
1117.306, 1978.650
1118.402, 2144.848
1119.498, 1861.873
1120.593, 1893.580
1121.689, 1693.475
1122.784, 1720.438
1123.879, 1741.012
1124.974, 1723.279
1126.069, 1598.211
1127.164, 1541.797
1128.259, 1114.285
1129.353, 1248.334
1130.447, 1166.211
1131.541, 879.0723
1132.635, 908.1953
1133.729, 815.6660
1134.822, 799.8926
1135.916, 794.7344
1137.009, 710.5703
1138.102, 732.3984
1139.195, 659.2246
1140.288, 544.0449
1141.380, 738.8574
1142.473, 515.6641
1143.565, 588.4043
1144.657, 655.2598
1145.749, 532.0488
1146.841, 503.8320
1147.932, 326.6055
1149.024, 306.3730
1150.115, 217.1348
1151.206, 268.8867
1152.297, 206.6328
1153.388, 187.3711
1154.479, 113.1035
1155.569, 63.17383
1156.659, 58.48047
1157.750, 93.01172
1158.839, 104.8164
1159.929, 15.43555
1161.019, 0.9550780
1162.108, 212.6406
1163.198, 22.22852
1164.287, 262.1973
1165.376, 33.75586
1166.465, 117.3398
1167.553, 188.9844
1168.642, 122.2734
1169.730, 249.4805
1170.818, 90.36523
1171.906, 151.7031
1172.994, 215.2344
1174.082, 14.28906
1175.170, 159.6445
1176.257, 57.42969
1177.344, 23.53125
1178.431, 100.6543
1179.518, 135.8398
1180.605, 3.103516
1181.691, 71.38672
1182.778, 56.71875
1183.864, 12.90820
1184.950, 46.51953
1186.036, 76.11914
1187.122, 99.29492
1188.207, 12.77539
1189.292, 11.71680
1190.378, 68.80664
1191.463, 49.61523
1192.548, 111.9785
1193.632, 4.349609
1194.717, 98.34180
1195.801, 140.1074
1196.886, 68.96680
1197.970, 19.11523
1199.054, 41.17773
1200.137, 66.24219
1201.221, 121.1621
1202.305, 63.26953
1203.388, 129.2656
1204.471, 134.2500
1205.554, 10.78125
1206.637, 72.14844
1207.719, 235.0625
1208.802, 83.95703
1209.884, 74.83398
1210.966, 6.689453
1212.048, 168.4883
1213.130, 21.78906
1214.212, 3.863281
1215.293, 191.5254
1216.374, 60.04688
1217.456, 7.644531
1218.536, 117.2871
1219.617, 3.3202998E-02
1220.698, 8.177734
1221.778, 27.65039
1222.859, 26.46094
1223.939, 1.087891
1225.019, 41.42383
1226.099, 10.54102
1227.178, 6.464844
1228.258, 71.34570
1229.337, 136.1992
1230.417, 106.8848
1231.496, 129.8223
1232.574, 63.59375
1233.653, 56.33594
1234.732, 21.05078
1235.810, 11.72266
1236.888, 209.3809
1237.966, 71.01367
1239.044, 86.61719
1240.122, 197.1895
1241.199, 107.7363
1242.277, 243.2559
1243.354, 110.7461
1244.431, 248.2109
1245.508, 27.64453
1246.585, 12.95703
1247.661, 25.38086
1248.738, 121.6758
1249.814, 16.94727
1250.890, 196.1699
1251.966, 139.3652
1253.042, 43.53320
1254.117, 64.66797
1255.193, 143.7695
1256.268, 139.8477
1257.343, 95.89453
1258.418, 113.9141
1259.493, 153.9043
1260.567, 197.8652
1261.642, 92.80078
1262.716, 295.7090
1263.790, 164.5879
1264.864, 242.8906
1265.938, 254.2656
1267.011, 268.0645
1268.085, 302.8379
1269.158, 190.5820
1270.231, 229.3008
1271.304, 282.9922
1272.377, 444.6562
1273.450, 296.2930
1274.522, 241.9062
1275.594, 390.4902
1276.666, 247.0508
1277.738, 331.5840
1278.810, 489.0898
1279.882, 378.5703
1280.953, 371.0215
1282.025, 343.4512
1283.096, 312.8516
1284.167, 446.2285
1285.238, 365.6836
1286.308, 368.2480
1287.379, 511.2090
1288.449, 327.4824
1289.519, 225.5684
1290.589, 345.4922
1291.659, 359.6914
1292.729, 401.7031
