##NAMES=Elbaite
##RRUFFID=R060003
##IDEAL CHEMISTRY=Na(Al_1.5_Li_1.5_)Al_6_(Si_6_O_18_)(BO_3_)_3_(OH)_3_OH
##LOCALITY=Mount Begbie, Revelstoke, British Columbia, Canada
##OWNER=RRUFF
##SOURCE=Bob Downs
##DESCRIPTION=Pink crystal associated with trilithionite, R060004
##STATUS=The identification of this mineral has been confirmed by X-ray diffraction and chemical analysis
##URL=rruff.info/R060003
##MEASURED CHEMISTRY=(Na_0.58_[box]_0.42_)(Al_1.69_Li_1.27_Mn_0.04_)Al_6_(BO_3_)_3_[Si_6_O_18_](OH)_4_
##PIN_ID=M00450
##ORIENTATION=Laser parallel to -c* (0 0 -1). Fiducial mark perpendicular to laser is parallel to -a [-1 0 0]
167.2610, 0.0000000E+00
168.4860, 16.85742
169.7110, 45.23730
170.9360, 43.35645
172.1610, 184.5361
173.3850, 74.64941
174.6100, 141.5439
175.8340, 106.8926
177.0580, 54.90820
178.2820, 27.58398
179.5050, 10.70898
180.7290, 49.45117
181.9520, 47.01367
183.1760, 131.2266
184.3990, 276.0254
185.6220, 349.2656
186.8450, 460.7852
188.0670, 623.9883
189.2900, 657.0371
190.5120, 775.6426
191.7340, 927.6738
192.9560, 985.0195
194.1780, 1243.582
195.4000, 1381.279
196.6220, 1315.047
197.8430, 1187.824
199.0640, 1597.602
200.2860, 1485.639
201.5070, 1685.391
202.7270, 1674.754
203.9480, 1732.723
205.1690, 1797.262
206.3890, 1753.334
207.6090, 1997.898
208.8290, 2338.934
210.0490, 2710.418
211.2690, 3151.344
212.4890, 3715.699
213.7080, 4349.477
214.9280, 5080.674
216.1470, 5879.281
217.3660, 6824.293
218.5850, 7809.709
219.8030, 8430.523
221.0220, 9257.730
222.2400, 9205.328
223.4590, 9192.312
224.6770, 8940.680
225.8950, 7798.426
227.1120, 7087.543
228.3300, 6528.029
229.5480, 5750.885
230.7650, 5115.824
231.9820, 4501.635
233.1990, 4679.695
234.4160, 4208.059
235.6330, 4175.662
236.8490, 4181.645
238.0660, 4181.994
239.2820, 4329.711
240.4980, 4162.715
241.7140, 4154.775
242.9300, 4182.900
244.1460, 4030.104
245.3610, 4018.385
246.5770, 3820.758
247.7920, 3622.275
249.0070, 3265.945
250.2220, 3014.266
251.4370, 2514.809
252.6510, 2350.027
253.8660, 2082.453
255.0800, 1690.090
256.2940, 1634.953
257.5080, 1596.035
258.7220, 1802.350
259.9360, 1956.895
261.1490, 1606.672
262.3630, 1272.680
263.5760, 1635.924
264.7890, 1746.396
266.0020, 1940.105
267.2150, 1770.043
268.4270, 2096.215
269.6400, 2238.615
270.8520, 2226.246
272.0640, 2427.104
273.2760, 2214.188
274.4880, 2336.492
275.7000, 2372.012
276.9120, 2300.754
278.1230, 2036.713
279.3340, 1905.885
280.5450, 1822.273
281.7560, 1798.877
282.9670, 1713.691
284.1780, 1607.721
285.3880, 1465.680
286.5980, 1222.408
287.8090, 1089.068
289.0190, 787.9395
290.2290, 543.0176
291.4380, 230.3008
292.6480, 61.59570
293.8570, 72.50781
295.0670, 242.6074
296.2760, 236.5059
297.4850, 317.2012
298.6930, 314.7383
299.9020, 245.0410
301.1110, 95.01172
302.3190, 54.07812
303.5270, 104.3535
304.7350, 738.7598
305.9430, 728.2480
307.1510, 906.8535
308.3580, 1131.646
309.5660, 1136.631
310.7730, 1238.803
311.9800, 1379.168
313.1870, 1419.082
314.3940, 1433.447
315.6010, 1359.084
316.8070, 1558.881
318.0130, 1641.820
319.2200, 1880.893
320.4260, 1922.619
321.6310, 2477.732
322.8370, 2583.934
324.0430, 3161.752
325.2480, 3165.465
326.4540, 3658.936
327.6590, 3920.730
328.8640, 3708.830
330.0680, 4114.248
331.2730, 4213.996
332.4780, 4097.039
333.6820, 3826.387
334.8860, 3493.043
336.0900, 3424.982
337.2940, 3156.230
338.4980, 3130.805
339.7010, 2789.672
340.9050, 2693.840
342.1080, 2523.244
343.3110, 2174.879
344.5140, 2354.758
345.7170, 2235.863
346.9200, 2291.184
348.1220, 2464.678
349.3240, 2345.365
350.5270, 2503.270
351.7290, 2759.340
352.9310, 3214.582
354.1320, 3188.988
355.3340, 3493.555
356.5350, 4142.281
357.7370, 4428.160
358.9380, 4692.197
360.1390, 5305.389
361.3400, 6083.729
362.5400, 6675.221
363.7410, 7359.861
364.9410, 7883.648
366.1410, 8764.582
367.3410, 9471.658
368.5410, 10185.87
369.7410, 10976.23
370.9400, 12033.73
372.1400, 12810.36
373.3390, 13768.13
374.5380, 15163.04
375.7370, 14578.07
376.9360, 14840.14
378.1350, 14281.22
379.3330, 13606.38
380.5310, 12803.67
381.7300, 11619.09
382.9280, 10398.64
384.1260, 9827.318
385.3230, 8564.121
386.5210, 7477.055
387.7180, 6980.113
388.9160, 6397.295
390.1130, 5745.609
391.3100, 5653.047
392.5060, 5360.605
393.7030, 5260.295
394.9000, 5122.105
396.0960, 4975.043
397.2920, 5084.104
398.4880, 5337.289
399.6840, 5468.594
400.8800, 5468.027
402.0750, 5616.584
403.2710, 5786.262
404.4660, 5932.068
405.6610, 6044.004
406.8560, 5945.260
408.0510, 5807.701
409.2450, 5630.555
410.4400, 5178.971
411.6340, 4965.510
412.8280, 4415.162
414.0220, 4161.932
415.2160, 3632.816
416.4100, 3070.814
417.6030, 2512.926
418.7970, 1977.145
419.9900, 1556.477
421.1830, 1189.086
422.3760, 792.4648
423.5690, 658.1211
424.7610, 542.8848
425.9540, 423.7539
427.1460, 322.0410
428.3380, 84.18945
429.5300, 97.98828
430.7220, 157.2695
431.9140, 14.34570
433.1050, 271.1367
434.2970, 98.71875
435.4880, 244.4023
436.6790, 430.1816
437.8700, 372.3047
439.0610, 459.8867
440.2510, 766.7266
441.4420, 771.3633
442.6320, 905.1523
443.8220, 1136.070
445.0120, 1214.398
446.2020, 1266.930
447.3910, 1323.215
448.5810, 1375.270
449.7700, 1309.074
450.9600, 1272.969
452.1490, 1269.955
453.3370, 1190.025
454.5260, 1237.188
455.7150, 1104.861
456.9030, 1048.799
458.0910, 853.2910
459.2800, 799.9062
460.4670, 644.3496
461.6550, 654.7363
462.8430, 559.8730
464.0300, 602.9707
465.2180, 724.1914
466.4050, 499.5352
467.5920, 415.1504
468.7790, 582.4590
469.9650, 472.6777
471.1520, 520.1152
472.3380, 473.9707
473.5250, 522.2812
474.7110, 574.4258
475.8970, 411.8965
477.0820, 411.6367
478.2680, 425.6152
479.4540, 560.6152
480.6390, 359.7793
481.8240, 596.6582
483.0090, 453.8809
484.1940, 718.1699
485.3780, 502.3438
486.5630, 683.5703
487.7470, 814.4004
488.9320, 655.5391
490.1160, 787.7754
491.3000, 886.3008
492.4830, 848.1738
493.6670, 936.8965
494.8500, 888.4277
496.0340, 1059.617
497.2170, 1158.291
498.4000, 1239.037
499.5820, 1570.854
500.7650, 1540.736
501.9480, 1876.688
503.1300, 1868.922
504.3120, 2083.010
505.4940, 2451.164
506.6760, 2551.379
507.8580, 2955.660
509.0390, 3121.006
510.2210, 3361.412
511.4020, 3620.562
512.5830, 3984.418
513.7640, 4007.014
514.9450, 4197.670
516.1250, 4277.383
517.3060, 4686.152
518.4860, 4556.982
519.6660, 4617.594
520.8460, 4428.533
522.0260, 4415.529
523.2060, 4194.580
524.3850, 3932.684
525.5650, 4027.842
526.7440, 3941.051
527.9230, 3993.314
529.1020, 4194.627
530.2810, 4534.990
531.4590, 4670.406
532.6380, 5089.867
533.8160, 5410.391
534.9940, 5631.990
536.1720, 5807.656
537.3500, 6148.463
538.5270, 6403.355
539.7050, 6645.348
540.8820, 6598.432
542.0590, 6730.453
543.2360, 6749.746
544.4130, 6674.180
545.5900, 6613.355
546.7660, 6626.500
547.9430, 6646.430
549.1190, 6414.172
550.2950, 6460.963
551.4710, 6423.963
552.6470, 6132.609
553.8220, 5947.619
554.9980, 5508.229
556.1730, 5332.363
557.3480, 4925.557
558.5230, 4773.793
559.6980, 4220.072
560.8730, 3968.398
562.0470, 3808.762
563.2220, 3454.154
564.3960, 3129.586
565.5700, 2885.072
566.7440, 2607.916
567.9170, 2334.131
569.0910, 2150.707
570.2640, 1951.438
571.4380, 1738.076
572.6110, 1630.746
573.7840, 1560.314
574.9570, 1293.029
576.1290, 1360.766
577.3020, 897.5195
578.4740, 1144.295
579.6460, 1103.090
580.8180, 779.9219
581.9900, 751.7910
583.1620, 796.7031
584.3330, 591.6562
585.5040, 527.6484
586.6760, 456.5176
587.8470, 486.6777
589.0180, 368.7109
590.1880, 242.7520
591.3590, 372.8027
592.5290, 389.8633
593.7000, 503.9316
594.8700, 448.1582
596.0400, 440.0898
597.2090, 305.1797
598.3790, 296.2715
599.5490, 209.3691
600.7180, 35.46680
601.8870, 117.5645
603.0560, 43.66406
604.2250, 324.7598
605.3940, 59.85547
606.5620, 145.9473
607.7300, 54.03711
608.8990, 10.88086
610.0670, 81.83008
611.2350, 24.84375
612.4020, 139.9004
613.5700, 248.0547
614.7370, 118.3594
615.9050, 190.7539
617.0720, 242.2773
618.2390, 173.9512
619.4060, 289.7520
620.5720, 371.7324
621.7390, 279.9414
622.9050, 316.3262
624.0710, 72.91211
625.2370, 67.57617
626.4030, 135.3223
627.5690, 108.1836
628.7340, 93.14453
629.9000, 132.7969
631.0650, 22.27734
632.2300, 113.3965
633.3950, 103.3730
634.5600, 75.12305
635.7240, 92.86523
636.8890, 141.5820
638.0530, 341.2832
639.2170, 207.9727
640.3810, 285.7305
641.5450, 226.3906
642.7080, 124.4062
643.8720, 197.0605
645.0350, 208.6543
646.1980, 257.2207
647.3610, 182.8105
648.5240, 286.3340
649.6870, 403.8340
650.8490, 261.5527
652.0120, 554.2734
653.1740, 223.0391
654.3360, 413.4277
655.4980, 223.7852
656.6600, 376.1152
657.8210, 353.4121
658.9830, 129.6777
660.1440, 340.9004
661.3050, 358.0938
662.4660, 391.2559
663.6270, 538.3828
664.7870, 578.4746
665.9480, 660.5312
667.1080, 594.5547
668.2680, 491.5430
669.4280, 382.4961
670.5880, 463.7363
671.7480, 460.6152
672.9070, 475.8906
674.0670, 567.1035
675.2260, 528.4531
676.3850, 647.1895
677.5440, 364.9922
678.7030, 543.3594
679.8610, 518.5332
681.0200, 204.2988
682.1780, 353.5488
683.3360, 304.3516
684.4940, 207.3535
685.6520, 178.6719
686.8090, 234.4629
687.9670, 357.2090
689.1240, 439.2559
690.2810, 307.7461
691.4380, 277.6836
692.5950, 442.3555
693.7520, 302.3184
694.9080, 570.8984
696.0650, 648.5410
697.2210, 812.9492
698.3770, 914.6113
699.5330, 964.2695
700.6880, 1116.576
701.8440, 1079.236
702.9990, 1275.734
704.1550, 1708.271
705.3100, 1687.475
706.4650, 2052.684
707.6190, 2161.785
708.7740, 2328.375
709.9290, 2759.609
711.0830, 3198.092
712.2370, 3759.568
713.3910, 4248.793
714.5450, 4682.797
715.6980, 5504.527
716.8520, 6297.869
718.0050, 7133.467
719.1580, 8580.000
720.3110, 9803.895
721.4640, 11565.29
722.6170, 13469.62
723.7700, 15514.09
724.9220, 18031.28
726.0740, 20243.39
727.2260, 22471.45
728.3780, 24079.42
729.5300, 24909.34
730.6810, 24871.18
731.8330, 24393.94
732.9840, 22674.65
734.1350, 20784.27
735.2860, 18655.82
736.4370, 16255.30
737.5880, 14466.72
738.7380, 12729.06
739.8880, 11151.09
741.0390, 9904.287
742.1890, 8809.250
743.3380, 7760.299
744.4880, 7267.268
745.6380, 6490.172
746.7870, 6097.844
747.9360, 5649.859
749.0850, 5148.002
750.2340, 5038.957
751.3830, 4791.529
752.5310, 4363.680
753.6800, 4159.023
754.8280, 4032.072
755.9760, 3843.879
757.1240, 3748.471
758.2720, 3658.074
759.4190, 3298.531
760.5670, 3239.547
761.7140, 2753.254
762.8610, 2644.158
764.0080, 2279.688
765.1550, 2141.918
766.3020, 2089.500
767.4480, 1806.162
768.5950, 1564.584
769.7410, 1251.920
770.8870, 1088.777
772.0330, 922.2363
773.1780, 914.5977
774.3240, 734.0527
775.4690, 514.7715
776.6140, 487.0410
777.7590, 362.3301
778.9040, 459.8223
780.0490, 296.5137
781.1940, 378.9590
782.3380, 481.4512
783.4820, 549.1797
784.6260, 384.3711
785.7700, 480.9473
786.9140, 441.3301
788.0580, 203.8242
789.2010, 336.4492
790.3450, 320.7930
791.4880, 451.0703
792.6310, 518.2871
793.7730, 480.4062
794.9160, 513.2168
796.0590, 440.5723
797.2010, 502.8145
798.3430, 550.7246
799.4850, 666.5742
800.6270, 748.3652
801.7690, 651.0938
802.9100, 839.7617
804.0520, 579.3672
805.1930, 532.9141
806.3340, 689.3984
807.4750, 348.8262
808.6160, 484.1875
809.7560, 122.4883
810.8970, 0.7089840
812.0370, 35.81250
813.1770, 249.1855
814.3170, 60.43555
815.4570, 86.83203
816.5960, 69.39062
817.7360, 144.1016
818.8750, 137.8398
820.0140, 243.9297
821.1530, 185.2617
822.2920, 138.5586
823.4310, 91.61133
824.5690, 2.365234
825.7070, 137.4766
826.8460, 54.51367
827.9840, 70.69727
829.1220, 116.6211
830.2590, 4.017578
831.3970, 55.99219
832.5340, 4.496094
833.6710, 31.70508
834.8080, 120.9160
835.9450, 14.05273
837.0820, 131.0957
838.2190, 185.0684
839.3550, 101.9746
840.4910, 26.18750
841.6270, 212.5352
842.7630, 202.1992
843.8990, 104.8008
845.0350, 293.3320
846.1700, 26.80469
847.3060, 60.19727
848.4410, 270.5137
849.5760, 313.7734
850.7100, 349.9805
851.8450, 431.3711
852.9800, 233.2344
854.1140, 431.2793
855.2480, 410.2715
856.3820, 286.2168
857.5160, 419.1055
858.6500, 621.9453
859.7830, 333.7344
860.9170, 506.4727
862.0500, 587.1621
863.1830, 491.8027
864.3160, 799.3965
865.4480, 677.9434
866.5810, 820.4395
867.7130, 622.8887
868.8460, 660.2930
869.9780, 976.6504
871.1100, 562.9609
872.2410, 822.2246
873.3730, 1110.443
874.5050, 1127.617
875.6360, 1002.746
876.7670, 977.8320
877.8980, 988.8730
879.0290, 1036.873
880.1590, 992.8301
881.2900, 921.7402
882.4200, 865.6113
883.5500, 739.4414
884.6800, 787.2461
885.8100, 634.0352
886.9400, 547.8047
888.0690, 662.5742
889.1990, 715.3770
890.3280, 491.1934
891.4570, 336.0293
892.5860, 519.9004
893.7140, 319.7891
894.8430, 382.7227
895.9710, 257.7441
897.1000, 252.8125
898.2280, 192.9355
899.3560, 317.0547
900.4830, 134.1719
901.6110, 148.3281
902.7380, 296.4902
903.8660, 94.65625
904.9930, 75.21875
906.1200, 79.86133
907.2460, 78.94727
908.3730, 85.94531
909.5000, 104.1035
910.6260, 1.142578
911.7520, 29.86719
912.8780, 30.12500
914.0040, 0.9902340
915.1290, 105.8945
916.2550, 97.40820
917.3800, 119.9609
918.5050, 396.1191
919.6300, 159.9688
920.7550, 51.73438
921.8800, 82.51562
923.0040, 277.2578
924.1290, 227.7363
925.2530, 412.2031
926.3770, 522.6113
927.5010, 475.3379
928.6250, 567.0352
929.7480, 690.7012
930.8720, 379.3359
931.9950, 619.9395
933.1180, 946.5176
934.2410, 698.0645
935.3640, 810.5859
936.4860, 823.0801
937.6090, 974.5605
938.7310, 1073.033
939.8530, 1331.512
940.9750, 1116.961
942.0970, 1014.404
943.2180, 1251.496
944.3400, 1158.885
945.4610, 1249.846
946.5820, 1064.801
947.7030, 1281.557
948.8240, 1277.861
949.9450, 1310.039
951.0650, 1299.584
952.1860, 1253.260
953.3060, 1422.273
954.4260, 1280.738
955.5460, 1446.586
956.6650, 1401.162
957.7850, 1381.379
958.9040, 1395.041
960.0230, 1388.174
961.1420, 1340.934
962.2610, 1448.682
963.3800, 1387.912
964.4990, 1457.379
965.6170, 1295.486
966.7350, 1267.902
967.8530, 1391.188
968.9710, 1593.656
970.0890, 1630.889
971.2070, 1521.932
972.3240, 1565.318
973.4410, 1608.277
974.5580, 1817.334
975.6750, 1989.279
976.7920, 1952.490
977.9090, 1750.627
979.0250, 1648.801
980.1410, 1921.418
981.2580, 2131.320
982.3740, 2019.908
983.4890, 2007.430
984.6050, 1950.129
985.7200, 1931.039
986.8360, 2067.150
987.9510, 1929.576
989.0660, 1730.672
990.1810, 2124.766
991.2950, 2078.416
992.4100, 1864.496
993.5240, 1863.572
994.6390, 1660.424
995.7530, 1943.486
996.8660, 1857.545
997.9800, 1792.598
999.0940, 1696.648
1000.207, 1564.693
1001.320, 1781.732
1002.433, 1767.766
1003.546, 1759.799
1004.659, 2037.822
1005.772, 1544.844
1006.884, 1978.859
1007.996, 1740.873
1009.108, 1982.879
1010.220, 1911.885
1011.332, 1871.885
1012.444, 1950.881
1013.555, 2003.873
1014.666, 2294.863
1015.777, 2544.848
1016.888, 2463.828
1017.999, 2398.006
1019.110, 2813.980
1020.220, 2756.043
1021.331, 2701.010
1022.441, 3247.973
1023.551, 3198.107
1024.661, 3266.062
1025.770, 3347.742
1026.880, 3635.689
1027.989, 3647.625
1029.098, 3535.258
1030.207, 3968.492
1031.316, 3969.195
1032.425, 4496.598
1033.533, 4342.553
1034.642, 4234.859
1035.750, 4442.146
1036.858, 4487.361
1037.966, 4788.283
1039.073, 4626.965
1040.181, 4853.578
1041.288, 4886.561
1042.396, 5054.646
1043.503, 5539.242
1044.610, 5508.725
1045.716, 5927.799
1046.823, 5957.240
1047.929, 6348.158
1049.036, 6654.727
1050.142, 6988.238
1051.248, 7384.793
1052.353, 7953.463
1053.459, 8391.707
1054.564, 8780.055
1055.670, 9373.979
1056.775, 10126.75
1057.880, 10917.56
1058.985, 11535.36
1060.089, 12430.33
1061.194, 12861.63
1062.298, 13666.33
1063.402, 14856.02
1064.506, 15382.70
1065.610, 15898.46
1066.713, 16377.46
1067.817, 16794.82
1068.920, 16668.37
1070.023, 16123.56
1071.126, 15966.49
1072.229, 15504.29
1073.332, 14508.91
1074.435, 13669.41
1075.537, 12572.33
1076.639, 11764.89
1077.741, 10425.56
1078.843, 9657.176
1079.945, 8888.273
1081.046, 7884.990
1082.148, 7156.426
1083.249, 6224.928
1084.350, 5654.467
1085.451, 5221.354
1086.551, 4586.881
1087.652, 4076.092
1088.752, 3684.586
1089.853, 3288.043
1090.953, 3109.041
1092.053, 2828.080
1093.152, 2662.129
1094.252, 2401.396
1095.351, 2294.445
1096.451, 2155.070
1097.550, 2027.262
1098.649, 1943.393
1099.748, 1860.932
1100.846, 1783.008
1101.945, 1702.693
1103.043, 1587.887
1104.141, 1543.055
1105.239, 1519.688
1106.337, 1471.301
1107.434, 1868.562
1108.532, 2281.168
1109.629, 2065.340
1110.726, 1107.738
1111.823, 1326.992
1112.920, 1024.105
1114.017, 1228.773
1115.113, 1123.277
1116.210, 1129.387
1117.306, 1022.527
1118.402, 1031.980
1119.498, 1114.023
1120.593, 911.1953
1121.689, 911.8320
1122.784, 959.9297
1123.879, 1000.910
1124.974, 1020.871
1126.069, 1004.188
1127.164, 765.7773
1128.259, 867.1992
1129.353, 823.0938
1130.447, 605.6016
1131.541, 600.4570
1132.635, 416.3750
1133.729, 655.2422
1134.822, 415.1406
1135.916, 493.9180
1137.009, 406.9023
1138.102, 477.6484
1139.195, 456.3711
1140.288, 338.1094
1141.380, 485.0469
1142.473, 418.7188
1143.565, 433.3633
1144.657, 556.9961
1145.749, 245.6055
1146.841, 238.1953
1147.932, 447.7695
1149.024, 156.3164
1150.115, 218.8477
1151.206, 184.4375
1152.297, 247.9258
1153.388, 240.3906
1154.479, 47.16016
1155.569, 217.3359
1156.659, 37.71094
1157.750, 226.0625
1158.839, 300.3906
1159.929, 67.30078
1161.019, 83.94531
1162.108, 58.16797
1163.198, 7.636719
1164.287, 209.5234
1165.376, 102.3359
1166.465, 1.777344
1167.553, 134.1875
1168.642, 7.191406
1169.730, 14.16797
1170.818, 63.30469
1171.906, 223.7500
1172.994, 42.94922
1174.082, 71.18750
1175.170, 181.5078
1176.257, 194.8125
1177.344, 21.74219
1178.431, 83.62500
1179.518, 75.86328
1180.605, 58.39453
1181.691, 145.0195
1182.778, 23.23828
1183.864, 288.4688
1184.950, 17.32031
1186.036, 232.8477
1187.122, 24.00000
1188.207, 186.9023
1189.292, 134.9375
1190.378, 175.9141
1191.463, 96.74219
1192.548, 254.5430
1193.632, 309.3242
1194.717, 248.7500
1195.801, 215.8125
1196.886, 158.5273
1197.970, 67.21484
1199.054, 27.87109
1200.137, 27.48047
1201.221, 38.91016
1202.305, 100.3984
1203.388, 235.0156
1204.471, 47.58984
1205.554, 155.7344
1206.637, 248.0391
1207.719, 97.68359
1208.802, 222.5000
1209.884, 113.6641
1210.966, 204.8008
1212.048, 53.90625
1213.130, 44.98828
1214.212, 46.03906
1215.293, 210.0586
1216.374, 70.05078
1217.456, 157.0156
1218.536, 108.9531
1219.617, 68.13672
1220.698, 474.6914
1221.778, 284.2227
1222.859, 867.2695
1223.939, 188.5039
1225.019, 252.2266
1226.099, 133.0742
1227.178, 327.5078
1228.258, 241.5117
1229.337, 244.0391
1230.417, 47.45703
1231.496, 49.02344
1232.574, 202.3320
1233.653, 273.8047
1234.732, 126.1680
1235.810, 127.4961
1236.888, 211.7930
1237.966, 130.1445
1239.044, 5.386719
1240.122, 174.5859
1241.199, 207.7578
1242.277, 453.8945
1243.354, 104.0156
1244.431, 142.0938
1245.508, 232.1523
1246.585, 185.8008
1247.661, 142.0820
1248.738, 379.9375
1249.814, 200.7695
1250.890, 84.57031
1251.966, 210.3438
1253.042, 328.0859
1254.117, 289.8047
1255.193, 352.5000
1256.268, 223.1719
1257.343, 108.8125
1258.418, 325.4297
1259.493, 79.01953
1260.567, 269.5820
1261.642, 209.1172
1262.716, 217.6250
1263.790, 205.1094
1264.864, 350.5664
1265.938, 174.0039
1267.011, 249.4102
1268.085, 286.7969
1269.158, 217.1562
1270.231, 164.4961
1271.304, 240.8086
1272.377, 231.0938
1273.450, 247.5039
1274.522, 260.8281
1275.594, 319.8164
1276.666, 303.0117
1277.738, 405.1836
1278.810, 537.1289
1279.882, 200.2539
1280.953, 333.2617
1282.025, 236.3398
1283.096, 529.3945
1284.167, 190.2500
1285.238, 232.2578
1286.308, 326.5234
1287.379, 448.4961
1288.449, 220.4492
1289.519, 357.6836
1290.589, 352.0391
1291.659, 303.9883
1292.729, 497.7539
1293.798, 271.5547
1294.868, 184.2344
1295.937, 104.9727
1297.006, 496.3867
1298.075, 329.2188
1299.143, 154.0898
1300.212, 492.1562
1301.280, 283.8242
1302.348, 210.7812
1303.416, 177.8984
1304.484, 209.3672
1305.552, 371.6133
1306.620, 71.37109
1307.687, 522.3672
1308.754, 140.8984
1309.821, 555.4805
1310.888, 335.5703
1311.955, 184.2344
1313.021, 290.7656
1314.088, 196.7227
1315.154, 317.2188
1316.220, 449.6641
1317.286, 675.8359
1318.352, 182.2266
1319.417, 520.4141
1320.483, 281.2500
1321.548, 427.6602
1322.613, 197.0547
1323.678, 280.4336
1324.743, 216.7031
1325.807, 453.7148
1326.872, 272.3281
1327.936, 95.73438
1329.000, 496.4688
1330.064, 633.4492
1331.128, 380.5391
1332.191, 430.7812
1333.255, 447.1211
