##NAMES=Elbaite
##RRUFFID=R050119
##IDEAL CHEMISTRY=Na(Al_1.5_Li_1.5_)Al_6_(Si_6_O_18_)(BO_3_)_3_(OH)_3_OH
##LOCALITY=Cruziero mine, San Jose, Minas Gerais, Brazil
##OWNER=RRUFF
##SOURCE=Carlos and Paulo Vasconcelos
##DESCRIPTION=Red fragment
##STATUS=The identification of this mineral has been confirmed by X-ray diffraction and chemical analysis
##URL=rruff.info/R050119
##MEASURED CHEMISTRY=(Na_0.90_Ca_0.10_)(Al_0.56_Li_0.38_Mn_0.06_)_3_Al_6_(BO_3_)_3_(Si_0.89_B_0.11_)_6_O_18_(OH)_4_
##PIN_ID=L00105
##ORIENTATION=Laser parallel to c* (0 0 1). Fiducial mark perpendicular to laser is parallel to b [0 1 0]
91.284, 0.000
92.678, 38.173
94.071, 6.757
95.465, 18.283
96.858, 150.401
98.251, 126.372
99.644, 232.337
101.036, 330.909
102.428, 343.128
103.820, 388.660
105.212, 596.816
106.604, 717.134
107.995, 879.250
109.387, 1152.852
110.777, 1597.684
112.168, 2033.536
113.559, 2340.992
114.949, 2110.939
116.339, 2181.085
117.729, 2321.550
119.119, 2262.699
120.508, 2214.465
121.897, 2226.707
123.286, 2259.318
124.675, 2382.217
126.063, 2385.404
127.452, 2388.623
128.840, 2432.041
130.228, 2435.555
131.615, 2386.342
133.003, 2375.250
134.390, 2331.684
135.777, 2305.894
137.164, 2194.192
138.550, 2156.753
139.937, 1999.391
141.323, 1752.107
142.709, 1665.594
144.094, 1341.889
145.480, 1320.495
146.865, 1159.142
148.250, 1117.416
149.635, 1115.352
151.019, 1092.975
152.403, 940.311
153.788, 1027.383
155.171, 804.211
156.555, 830.812
157.939, 757.200
159.322, 623.392
160.705, 459.397
162.088, 435.232
163.470, 460.908
164.853, 296.433
166.235, 251.815
167.617, 167.065
168.998, 192.189
170.380, 137.200
171.761, 152.101
173.142, 16.896
174.523, 51.595
175.904, 86.200
177.284, 49.266
178.664, 4.779
180.044, 80.330
181.424, 95.908
182.803, 91.509
184.183, 52.873
185.562, 117.241
186.940, 71.599
188.319, 75.947
189.698, 170.430
191.076, 54.759
192.454, 374.717
193.831, 427.132
195.209, 465.938
196.586, 530.717
197.963, 712.884
199.340, 710.187
200.717, 788.444
202.093, 789.109
203.470, 800.488
204.846, 941.917
206.221, 956.165
207.597, 1036.861
208.972, 1116.490
210.347, 1208.102
211.722, 1349.756
213.097, 1511.450
214.472, 1943.182
215.846, 2194.948
217.220, 2676.743
218.594, 3008.543
219.967, 3550.296
221.341, 3852.064
222.714, 4203.867
224.087, 4215.699
225.460, 4377.562
226.832, 3959.447
228.204, 3531.342
229.577, 3353.245
230.948, 3115.155
232.320, 2667.072
233.692, 2428.998
235.063, 2440.936
236.434, 2472.881
237.805, 2414.838
239.175, 2366.804
240.545, 2388.777
241.916, 2490.764
243.286, 2412.760
244.655, 2381.556
246.025, 2356.782
247.394, 2178.807
248.763, 1980.843
250.132, 1812.888
251.501, 1604.942
252.869, 1357.006
254.237, 1029.079
255.605, 891.162
256.973, 793.501
258.340, 675.889
259.708, 568.271
261.075, 411.266
262.442, 284.467
263.808, 297.841
265.175, 311.356
266.541, 284.991
267.907, 378.729
269.273, 452.555
270.639, 236.452
272.004, 300.413
273.369, 334.428
274.734, 258.490
276.099, 282.594
277.463, 176.734
278.828, 320.903
280.192, 175.089
281.556, 219.289
282.919, 153.505
284.283, 247.730
285.646, 81.966
287.009, 186.205
288.372, 260.449
289.734, 214.698
291.097, 158.950
292.459, 6.795
293.821, 92.554
295.183, 188.349
296.544, 234.196
297.905, 220.115
299.266, 296.124
300.627, 232.276
301.988, 218.570
303.348, 194.888
304.709, 131.215
306.069, 97.563
307.428, 86.067
308.788, 199.688
310.147, 243.309
311.507, 346.909
312.865, 310.517
314.224, 344.115
315.583, 417.709
316.941, 431.296
318.299, 504.872
319.657, 589.405
321.015, 631.986
322.372, 795.526
323.729, 879.066
325.086, 1012.595
326.443, 1296.115
327.800, 1369.624
329.156, 1433.125
330.512, 1646.615
331.868, 1580.095
333.224, 1713.567
334.579, 1687.030
335.935, 1640.489
337.290, 1603.940
338.645, 1497.386
339.999, 1480.826
341.354, 1402.880
342.708, 1466.221
344.062, 1236.829
345.416, 1406.635
346.769, 1286.643
348.123, 1320.053
349.476, 1413.457
350.829, 1416.856
352.182, 1450.248
353.534, 1503.633
354.887, 1597.012
356.239, 1790.358
357.591, 1763.530
358.942, 2076.462
360.294, 2239.128
361.645, 2291.581
362.996, 2473.900
364.347, 2816.229
365.698, 3038.566
367.048, 3360.911
368.398, 3533.264
369.748, 3925.627
371.098, 4208.004
372.448, 4750.393
373.797, 5232.794
375.146, 5815.207
376.495, 6247.627
377.844, 6730.090
379.192, 7002.561
380.540, 6655.043
381.889, 6197.531
383.236, 5660.027
384.584, 5012.535
385.932, 4325.043
387.279, 3867.559
388.626, 3390.078
389.973, 2942.600
391.319, 2585.125
392.666, 2467.654
394.012, 2230.187
395.358, 2232.722
396.704, 2095.260
398.049, 2167.801
399.394, 2110.343
400.740, 2152.889
402.084, 2285.438
403.429, 2417.988
404.774, 2510.541
406.118, 2556.916
407.462, 2625.650
408.806, 2558.210
410.150, 2550.768
411.493, 2463.329
412.836, 2325.891
414.179, 2138.453
415.522, 2011.017
416.865, 1743.580
418.207, 1516.145
419.549, 1278.710
420.891, 1054.327
422.233, 903.844
423.575, 696.407
424.916, 598.967
426.257, 581.521
427.598, 464.071
428.939, 386.615
430.279, 349.150
431.619, 301.680
432.959, 394.201
434.299, 356.714
435.639, 499.218
436.978, 481.713
438.318, 454.198
439.657, 586.676
440.996, 729.143
442.334, 711.601
443.673, 744.047
445.011, 826.483
446.349, 769.149
447.687, 1041.479
449.024, 783.883
450.361, 996.557
451.699, 799.469
453.036, 842.452
454.372, 862.127
455.709, 706.419
457.045, 846.881
458.381, 742.532
459.717, 710.189
461.053, 651.426
462.388, 637.548
463.724, 663.828
465.059, 563.392
466.394, 609.934
467.728, 637.839
469.063, 700.699
470.397, 678.392
471.731, 701.542
473.065, 670.314
474.398, 675.201
475.732, 730.592
477.065, 695.258
478.398, 768.606
479.731, 651.699
481.063, 734.699
482.396, 797.606
483.728, 543.081
485.060, 895.552
486.391, 708.601
487.723, 661.346
489.054, 753.874
490.385, 606.100
491.716, 688.237
493.047, 761.030
494.377, 563.313
495.708, 656.215
497.038, 788.981
498.368, 751.572
499.697, 723.902
501.027, 776.451
502.356, 899.041
503.685, 1021.942
505.014, 1094.685
506.342, 1117.515
507.671, 1240.017
508.999, 1442.273
510.327, 1414.492
511.655, 1426.696
512.982, 1508.964
514.310, 1481.215
515.637, 1563.515
516.964, 1585.775
518.291, 1578.025
519.617, 1560.284
520.944, 1672.820
522.270, 1425.276
523.596, 1228.447
524.921, 1410.735
526.247, 1313.559
527.572, 1316.050
528.897, 1379.161
530.222, 1633.681
531.547, 1546.909
532.871, 1680.764
534.196, 1704.633
535.520, 2007.552
536.844, 2048.146
538.167, 2321.222
539.491, 2345.104
540.814, 2387.640
542.137, 2370.505
543.460, 2493.836
544.783, 2506.438
546.105, 2452.787
547.427, 2520.834
548.749, 2332.955
550.071, 2245.062
551.393, 2227.152
552.714, 2239.228
554.035, 2281.285
555.356, 2213.326
556.677, 1995.351
557.998, 2247.357
559.318, 1789.344
560.638, 1921.312
561.958, 1833.260
563.278, 1655.188
564.597, 1527.097
565.917, 1508.984
567.236, 1370.853
568.555, 1312.700
569.874, 1204.526
571.192, 1166.332
572.511, 938.116
573.829, 809.879
575.147, 871.620
576.464, 673.339
577.782, 745.036
579.099, 556.712
580.416, 678.364
581.733, 439.993
583.050, 541.602
584.366, 463.186
585.683, 484.750
586.999, 346.293
588.315, 377.816
589.630, 439.318
590.946, 350.799
592.261, 272.257
593.576, 343.694
594.891, 385.107
596.206, 326.500
597.520, 307.878
598.834, 339.233
600.148, 380.568
601.462, 281.879
602.776, 213.163
604.089, 144.426
605.402, 235.661
606.715, 216.875
608.028, 138.063
609.341, 79.225
610.653, 60.361
611.965, 21.467
613.277, 12.558
614.589, 36.347
615.901, 5.242
617.212, 24.101
618.523, 47.063
619.834, 171.425
621.145, 160.250
622.456, 188.872
623.766, 77.036
625.076, 65.080
626.386, 37.110
627.696, 71.162
629.006, 10.388
630.315, 87.992
631.624, 25.845
632.933, 33.684
634.242, 21.980
635.551, 0.186
636.859, 21.430
638.167, 42.739
639.475, 64.203
640.783, 34.129
642.090, 166.994
643.398, 28.442
644.705, 99.584
646.012, 150.422
647.318, 220.914
648.625, 241.104
649.931, 81.494
651.237, 202.039
652.543, 53.160
653.849, 83.934
655.155, 125.030
656.460, 186.073
657.765, 141.640
659.070, 132.963
660.375, 70.483
661.679, 110.375
662.984, 92.783
664.288, 173.377
665.592, 258.648
666.895, 272.344
668.199, 470.156
669.502, 290.833
670.805, 326.849
672.108, 304.483
673.411, 445.206
674.713, 365.746
676.016, 330.104
677.318, 250.867
678.620, 273.487
679.921, 105.877
681.223, 316.012
682.524, 206.135
683.825, 287.896
685.126, 138.243
686.427, 27.816
687.727, 107.820
689.028, 48.119
690.328, 47.412
691.628, 176.893
692.927, 73.021
694.227, 136.237
695.526, 50.554
696.825, 270.150
698.124, 189.395
699.423, 89.083
700.721, 247.748
702.020, 327.303
703.318, 486.356
704.616, 564.599
705.913, 453.585
707.211, 542.305
708.508, 791.137
709.805, 849.455
711.102, 1137.507
712.399, 1076.175
713.695, 1464.158
714.992, 1732.041
716.288, 1819.879
717.584, 2357.670
718.879, 2485.416
720.175, 3273.119
721.470, 3810.774
722.765, 4808.387
724.060, 5675.951
725.355, 6563.473
726.649, 8210.949
727.944, 9348.378
729.238, 10305.764
730.532, 11363.105
731.825, 11160.400
733.119, 11517.648
734.412, 10334.852
735.705, 9202.009
736.998, 8309.123
738.291, 7176.340
739.584, 6243.377
740.876, 5441.173
742.168, 4628.676
743.460, 4036.281
744.752, 3573.904
746.043, 3171.266
747.334, 2888.660
748.626, 2465.751
749.916, 2302.916
751.207, 2220.194
752.498, 2159.097
753.788, 1956.315
755.078, 1883.859
756.368, 1910.349
757.658, 1656.745
758.947, 1664.095
760.237, 1530.233
761.526, 1577.439
762.815, 1513.639
764.104, 1259.961
765.392, 1287.062
766.680, 1022.510
767.969, 808.309
769.257, 963.513
770.544, 666.390
771.832, 601.113
773.119, 614.632
774.406, 309.719
775.693, 444.185
776.980, 298.951
778.267, 161.850
779.553, 121.696
780.839, 62.219
782.125, 156.926
783.411, 176.916
784.697, 151.390
785.982, 30.183
787.267, 22.803
788.552, 74.854
789.837, 47.571
791.122, 71.546
792.406, 135.715
793.690, 89.919
794.974, 44.154
796.258, 145.763
797.542, 60.316
798.825, 124.231
800.108, 188.388
801.391, 262.705
802.674, 347.267
803.957, 271.860
805.239, 225.742
806.522, 80.075
807.804, 153.729
809.085, 67.459
810.367, 71.303
811.649, 54.654
812.930, 19.089
814.211, 87.265
815.492, 35.980
816.772, 19.335
818.053, 122.557
819.333, 213.940
820.613, 30.314
821.893, 96.726
823.173, 143.216
824.452, 69.876
825.732, 96.604
827.011, 36.527
828.290, 59.634
829.568, 47.312
830.847, 15.658
832.125, 21.711
833.403, 19.066
834.681, 102.794
835.959, 144.521
837.236, 12.471
838.514, 29.847
839.791, 191.481
841.068, 71.657
842.345, 13.062
843.621, 213.784
844.898, 154.436
846.174, 15.981
847.450, 159.792
848.726, 68.936
850.001, 51.453
851.277, 123.129
852.552, 14.416
853.827, 235.180
855.102, 16.618
856.376, 118.342
857.651, 310.129
858.925, 111.880
860.199, 163.618
861.473, 125.316
862.746, 236.974
864.020, 288.595
865.293, 130.177
866.566, 281.741
867.839, 423.271
869.112, 354.766
870.384, 426.294
871.656, 317.788
872.928, 549.248
874.200, 370.756
875.472, 612.227
876.744, 563.668
878.015, 425.082
879.286, 646.461
880.557, 347.808
881.828, 469.123
883.098, 530.407
884.369, 441.662
885.639, 342.884
886.909, 434.102
888.178, 285.287
889.448, 296.440
890.717, 247.564
891.987, 278.653
893.256, 109.709
894.524, 120.774
895.793, 108.242
897.061, 92.800
898.330, 143.760
899.598, 124.687
900.865, 185.578
902.133, 156.435
903.401, 117.258
904.668, 31.935
905.935, 108.817
907.202, 19.563
908.468, 260.282
909.735, 270.967
911.001, 31.626
912.267, 252.243
913.533, 42.833
914.799, 283.408
916.064, 163.951
917.330, 15.515
918.595, 324.978
919.860, 135.439
921.124, 255.870
922.389, 316.274
923.653, 316.667
924.918, 327.035
926.182, 337.384
927.445, 187.416
928.709, 587.752
929.972, 347.851
931.236, 657.445
932.499, 566.887
933.761, 696.053
935.024, 615.620
936.286, 705.281
937.549, 814.810
938.811, 823.722
940.073, 844.566
941.334, 910.141
942.596, 921.610
943.857, 989.977
945.118, 979.387
946.379, 998.578
947.640, 1017.506
948.900, 1136.900
950.161, 1015.911
951.421, 1185.165
952.681, 1064.661
953.940, 1224.443
955.200, 1054.463
956.459, 1044.225
957.719, 1093.773
958.978, 1112.684
960.236, 1161.877
961.495, 1260.686
962.753, 889.484
964.012, 1213.697
965.270, 1002.096
966.527, 1144.232
967.785, 1282.727
969.043, 901.064
970.300, 1309.939
971.557, 1254.082
972.814, 1189.732
974.071, 1331.211
975.327, 1139.762
976.583, 1442.916
977.840, 1274.389
979.095, 1252.715
980.351, 1341.328
981.607, 1435.902
982.862, 1184.008
984.117, 1540.773
985.372, 1317.133
986.627, 1405.680
987.882, 1354.178
989.136, 1230.971
990.390, 1439.426
991.644, 1208.283
992.898, 1246.637
994.152, 1345.102
995.405, 1214.033
996.659, 1433.498
997.912, 1041.500
999.165, 1200.232
1000.417, 1334.588
1001.670, 1292.848
1002.922, 1441.395
1004.174, 1300.305
1005.426, 1219.299
1006.678, 1338.197
1007.930, 1197.045
1009.181, 1336.654
1010.432, 1372.463
1011.683, 1291.873
1012.934, 1570.832
1014.185, 1390.426
1015.435, 1629.529
1016.685, 1553.758
1017.935, 1713.289
1019.185, 1853.291
1020.435, 1788.895
1021.684, 1828.598
1022.934, 2148.215
1024.183, 2116.949
1025.432, 2246.057
1026.680, 2376.562
1027.929, 2337.211
1029.177, 2376.729
1030.425, 2346.617
1031.673, 2476.295
1032.921, 2766.537
1034.169, 2326.879
1035.416, 2586.092
1036.663, 2382.137
1037.911, 2661.844
1039.157, 2571.465
1040.404, 2671.473
1041.650, 2820.398
1042.897, 2859.582
1044.143, 2899.562
1045.389, 3027.623
1046.634, 3158.078
1047.880, 3216.779
1049.125, 3436.184
1050.371, 3435.195
1051.615, 3854.207
1052.860, 3783.141
1054.105, 4206.451
1055.349, 4722.621
1056.593, 4688.342
1057.837, 5038.979
1059.081, 5587.355
1060.325, 5787.252
1061.568, 6365.002
1062.812, 6754.369
1064.055, 7097.906
1065.298, 7906.232
1066.540, 7690.283
1067.783, 8267.562
1069.025, 8265.824
1070.267, 8284.236
1071.509, 8112.859
1072.751, 7502.424
1073.993, 7121.023
1075.234, 6829.203
1076.475, 5767.590
1077.716, 5555.355
1078.957, 4883.707
1080.198, 4162.195
1081.438, 4070.240
1082.679, 3258.486
1083.919, 3176.863
1085.159, 2794.848
1086.398, 2512.857
1087.638, 2520.875
1088.877, 2038.795
1090.116, 1858.049
1091.355, 1675.926
1092.594, 1604.760
1093.833, 1562.975
1095.071, 1300.768
1096.309, 949.115
1097.547, 1336.896
1098.785, 974.666
1100.023, 943.295
1101.260, 1071.051
1102.498, 639.113
1103.735, 1036.850
1104.972, 954.572
1106.208, 743.201
1107.445, 930.906
1108.681, 668.605
1109.918, 736.293
1111.154, 763.975
1112.389, 721.777
1113.625, 760.236
1114.860, 657.918
1116.096, 425.721
1117.331, 673.916
1118.566, 521.602
1119.800, 669.738
1121.035, 597.467
1122.269, 705.197
1123.503, 1043.393
1124.737, 751.180
1125.971, 519.010
1127.205, 756.787
1128.438, 254.551
1129.671, 573.213
1130.904, 390.939
1132.137, 158.561
1133.370, 507.100
1134.602, 364.598
1135.834, 302.270
1137.066, 729.756
1138.298, 227.227
1139.530, 545.316
1140.762, 352.697
1141.993, 190.055
1143.224, 598.316
1144.455, 115.564
1145.686, 462.768
1146.917, 440.299
1148.147, 127.447
1149.377, 545.238
1150.607, 342.260
1151.837, 99.248
1153.067, 427.109
1154.296, 104.008
1155.526, 221.164
1156.755, 218.850
1157.984, 94.389
1159.213, 122.627
1160.441, 190.703
1161.670, 147.355
1162.898, 354.797
1164.126, 67.307
1165.354, 199.244
1166.581, 96.168
1167.809, 237.355
1169.036, 159.021
1170.263, 176.504
1171.490, 287.188
1172.717, 289.213
1173.943, 5.381
1175.170, 1.506
1176.396, 177.941
1177.622, 83.996
1178.848, 130.008
1180.073, 26.354
1181.299, 12.283
1182.524, 228.174
1183.749, 85.660
1184.974, 100.123
1186.199, 115.961
1187.423, 41.654
1188.648, 237.301
1189.872, 204.107
1191.096, 160.324
1192.320, 305.592
1193.543, 8.779
1194.767, 116.623
1195.990, 34.520
1197.213, 69.850
1198.436, 125.135
1199.659, 111.469
1200.881, 53.326
1202.104, 341.809
1203.326, 92.451
1204.548, 17.436
1205.770, 387.539
1206.991, 22.637
1208.213, 237.521
1209.434, 72.516
1210.655, 62.672
1211.876, 332.076
1213.096, 62.961
1214.317, 201.689
1215.537, 366.312
1216.757, 150.875
1217.977, 215.391
1219.197, 39.797
1220.417, 224.162
1221.636, 318.455
1222.855, 263.176
1224.074, 327.369
1225.293, 261.549
1226.512, 229.740
1227.731, 593.785
1228.949, 277.945
1230.167, 242.254
1231.385, 636.164
1232.603, 320.986
1233.820, 314.793
1235.038, 348.184
1236.255, 51.852
1237.472, 484.748
1238.689, 97.383
1239.906, 240.924
1241.122, 531.445
1242.338, 198.486
1243.555, 365.510
1244.771, 402.514
1245.986, 129.496
1247.202, 426.459
1248.417, 263.404
1249.633, 440.332
1250.848, 507.240
1252.063, 124.123
1253.277, 410.988
1254.492, 387.830
1255.706, 414.648
1256.920, 651.439
1258.134, 318.020
1259.348, 164.760
1260.562, 700.805
1261.775, 327.484
1262.988, 233.785
1264.201, 720.414
1265.414, 246.457
1266.627, 542.078
1267.839, 457.711
1269.052, 254.227
1270.264, 739.631
1271.476, 354.543
1272.688, 461.039
1273.899, 775.660
1275.111, 141.012
1276.322, 628.930
1277.533, 361.734
1278.744, 115.881
1279.955, 634.570
1281.165, 265.557
1282.376, 348.740
1283.586, 631.008
1284.796, 163.590
1286.006, 476.980
1287.215, 478.910
1288.425, 92.639
1289.634, 299.402
1290.843, 428.906
1292.052, 209.707
1293.261, 421.477
1294.469, 127.246
1295.678, 333.561
1296.886, 665.111
1298.094, 66.629
1299.302, 270.191
1300.509, 182.461
1301.717, 54.654
1302.924, 444.836
1304.131, 187.322
1305.338, 0.094
1306.545, 611.998
1307.752, 64.682
1308.958, 7.025
1310.164, 479.775
1311.370, 160.096
1312.576, 491.045
1313.782, 393.133
1314.987, 24.729
1316.193, 465.498
1317.398, 207.203
1318.603, 289.391
1319.807, 499.387
1321.012, 171.156
1322.216, 482.436
1323.421, 381.994
1324.625, 161.674
1325.829, 401.420
1327.032, 262.029
1328.236, 171.289
1329.439, 411.434
1330.642, 219.141
1331.845, 359.367
1333.048, 287.395
1334.251, 7.551
1335.453, 576.328
1336.656, 137.029
1337.858, 195.014
1339.060, 704.822
1340.261, 26.420
1341.463, 364.914
1342.664, 423.311
1343.866, 20.797
1345.067, 391.285
1346.267, 357.619
1347.468, 80.814
1348.669, 470.090
1349.869, 500.889
1351.069, 196.850
1352.269, 476.420
1353.469, 205.217
1354.668, 655.451
1355.868, 473.877
1357.067, 182.422
1358.266, 442.008
1359.465, 392.188
1360.664, 285.459
1361.862, 481.621
1363.061, 305.008
1364.259, 413.760
1365.457, 444.596
1366.655, 127.979
1367.852, 576.059
1369.050, 242.514
1370.247, 31.301
1371.444, 603.203
1372.641, 219.529
1373.838, 175.854
1375.035, 443.508
1376.231, 84.295
1377.427, 431.559
1378.623, 230.770
1379.819, 106.072
1381.015, 367.607
1382.211, 241.502
1383.406, 0.352
1384.601, 0.000
##END=



