##NAMES=Enstatite
##RRUFFID=R050644
##IDEAL CHEMISTRY=MgSiO_3_
##LOCALITY=Morogoro, Tanzania
##OWNER=RRUFF
##SOURCE=Jibamitra Ganguly
##DESCRIPTION=Light brown crystal fragment
##STATUS=The identification of this mineral has been confirmed by X-ray diffraction and chemical analysis
##URL=rruff.info/R050644
##MEASURED CHEMISTRY=(Mg_0.90_Fe_0.10_)SiO_3_
##PIN_ID=L00720
##ORIENTATION=Laser parallel to c* (0 0 1). Fiducial mark perpendicular to laser is parallel to -a [-1 0 0]
51.43100, 0.0000000E+00
52.67100, 25.86615
53.91000, 30.37738
55.14900, 39.08862
56.38700, 36.91010
57.62600, 68.71890
58.86400, 70.01483
60.10300, 30.41736
61.34100, 22.13849
62.57900, 0.1152950
63.81700, 11.73438
65.05400, 16.49625
66.29200, 20.25198
67.52900, 54.92444
68.76700, 141.9679
70.00400, 294.8212
71.24100, 556.4318
72.47700, 854.7472
73.71400, 1119.717
74.95100, 2050.295
76.18700, 3480.442
77.42300, 4373.122
78.65900, 3993.303
79.89500, 3296.959
81.13100, 3515.064
82.36700, 2686.445
83.60200, 3075.543
84.83700, 1576.884
86.07200, 912.6045
87.30800, 600.6925
88.54200, 525.1335
89.77700, 482.9065
91.01200, 475.9849
92.24600, 475.3453
93.48000, 461.9691
94.71400, 448.8428
95.94800, 443.9554
97.18200, 492.2979
98.41600, 570.8621
99.64900, 538.6408
100.8830, 537.6284
102.1160, 570.8190
103.3490, 710.2078
104.5820, 768.7900
105.8150, 971.5623
107.0470, 1109.519
108.2800, 1107.659
109.5120, 892.9757
110.7440, 820.4690
111.9760, 823.1398
113.2080, 760.9897
114.4400, 713.0195
115.6710, 584.2263
116.9030, 513.6069
118.1340, 531.1571
119.3650, 488.8733
120.5960, 586.7522
121.8270, 625.7902
123.0580, 636.9836
124.2880, 590.3306
125.5190, 697.8008
126.7490, 764.3081
127.9790, 864.8491
129.2090, 838.4209
130.4390, 928.0210
131.6680, 995.6482
132.8980, 1095.306
134.1270, 1135.020
135.3560, 965.8009
136.5850, 962.6541
137.8140, 876.5823
139.0430, 814.5887
140.2710, 809.6755
141.5000, 809.8451
142.7280, 777.0981
143.9560, 807.4360
145.1840, 841.8594
146.4120, 817.3691
147.6390, 803.9658
148.8670, 791.6497
150.0940, 788.4210
151.3210, 739.2795
152.5490, 695.6406
153.7750, 644.2441
155.0020, 548.3799
156.2290, 505.5873
157.4550, 386.8815
158.6810, 294.2620
159.9080, 277.7281
161.1340, 300.2798
162.3590, 296.9159
163.5850, 253.6365
164.8110, 205.4407
166.0360, 186.3279
167.2610, 154.2976
168.4860, 134.1073
169.7110, 148.5361
170.9360, 121.8857
172.1610, 96.36963
173.3850, 128.9883
174.6100, 93.72498
175.8340, 131.5844
177.0580, 62.54895
178.2820, 71.59375
179.5050, 99.70837
180.7290, 138.8920
181.9520, 121.1443
183.1760, 146.4650
184.3990, 143.8533
185.6220, 174.3085
186.8450, 162.8304
188.0670, 197.4181
189.2900, 214.0712
190.5120, 283.7888
191.7340, 326.5703
192.9560, 434.4153
194.1780, 450.3231
195.4000, 474.2966
196.6220, 548.3396
197.8430, 541.4648
199.0640, 634.7583
200.2860, 697.0256
201.5070, 723.2534
202.7270, 732.4712
203.9480, 740.5908
205.1690, 782.7595
206.3890, 778.9436
207.6090, 761.8998
208.8290, 689.2422
210.0490, 634.2859
211.2690, 543.2666
212.4890, 581.5205
213.7080, 655.9949
214.9280, 626.2262
216.1470, 648.5789
217.3660, 750.0532
218.5850, 742.6409
219.8030, 774.3372
221.0220, 989.1416
222.2400, 1220.046
223.4590, 1560.042
224.6770, 1987.133
225.8950, 2484.317
227.1120, 2969.585
228.3300, 3358.936
229.5480, 3950.366
230.7650, 4519.875
231.9820, 4850.459
233.1990, 5197.117
234.4160, 5334.848
235.6330, 5582.649
236.8490, 6203.522
238.0660, 5957.462
239.2820, 5126.468
240.4980, 3887.542
241.7140, 2806.680
242.9300, 1875.882
244.1460, 1346.145
245.3610, 990.4712
246.5770, 815.8579
247.7920, 727.3041
249.0070, 645.8098
250.2220, 716.3730
251.4370, 729.9941
252.6510, 872.6714
253.8660, 866.4045
255.0800, 928.1924
256.2940, 944.0342
257.5080, 938.1436
258.7220, 937.3613
259.9360, 934.8770
261.1490, 927.9274
262.3630, 957.0283
263.5760, 1049.179
264.7890, 1120.378
266.0020, 1215.625
267.2150, 1355.919
268.4270, 1422.260
269.6400, 1464.647
270.8520, 1607.080
272.0640, 1668.557
273.2760, 1732.078
274.4880, 1759.644
275.7000, 1687.255
276.9120, 1505.910
278.1230, 1224.609
279.3340, 889.3533
280.5450, 586.1409
281.7560, 417.9724
282.9670, 323.8473
284.1780, 298.9883
285.3880, 317.8303
286.5980, 343.2352
287.8090, 415.7925
289.0190, 556.5969
290.2290, 684.3921
291.4380, 780.3378
292.6480, 943.1077
293.8570, 1046.710
295.0670, 1080.616
296.2760, 1234.991
297.4850, 1286.358
298.6930, 1377.655
299.9020, 1397.645
301.1110, 1372.846
302.3190, 1175.357
303.5270, 999.9038
304.7350, 901.4858
305.9430, 928.1029
307.1510, 934.7549
308.3580, 1017.441
309.5660, 1313.162
310.7730, 1487.916
311.9800, 1748.703
313.1870, 1954.523
314.3940, 2280.376
315.6010, 2689.260
316.8070, 2935.177
318.0130, 3394.123
319.2200, 3713.099
320.4260, 4048.105
321.6310, 4564.140
322.8370, 4663.203
324.0430, 4891.293
325.2480, 5242.412
326.4540, 5687.559
327.6590, 6312.731
328.8640, 7177.932
330.0680, 8302.159
331.2730, 9320.411
332.4780, 10340.69
333.6820, 11434.99
334.8860, 12318.32
336.0900, 13247.68
337.2940, 14213.66
338.4980, 14771.06
339.7010, 15135.26
340.9050, 15198.38
342.1080, 14595.75
343.3110, 13255.11
344.5140, 11503.50
345.7170, 9558.633
346.9200, 7765.201
348.1220, 6292.742
349.3240, 4960.552
350.5270, 4101.282
351.7290, 3450.569
352.9310, 2893.924
354.1320, 2392.515
355.3340, 2118.258
356.5350, 1880.809
357.7370, 1674.396
358.9380, 1465.316
360.1390, 1377.852
361.3400, 1239.422
362.5400, 1116.677
363.7410, 1002.847
364.9410, 981.5167
366.1410, 985.8740
367.3410, 951.4700
368.5410, 976.2924
369.7410, 995.4362
370.9400, 1039.811
372.1400, 1079.070
373.3390, 1152.352
374.5380, 1206.659
375.7370, 1327.988
376.9360, 1405.340
378.1350, 1401.714
379.3330, 1379.110
380.5310, 1429.528
381.7300, 1341.967
382.9280, 1293.428
384.1260, 1109.910
385.3230, 1055.411
386.5210, 950.9336
387.7180, 738.4761
388.9160, 683.0381
390.1130, 564.6195
391.3100, 619.2202
392.5060, 597.8398
393.7030, 596.4780
394.9000, 591.1348
396.0960, 599.8098
397.2920, 536.5027
398.4880, 590.2133
399.6840, 579.9412
400.8800, 515.6864
402.0750, 453.4487
403.2710, 450.2277
404.4660, 452.0232
405.6610, 440.8348
406.8560, 426.6628
408.0510, 398.5063
409.2450, 387.2996
410.4400, 348.2401
411.6340, 352.1299
412.8280, 347.0343
414.0220, 327.9535
415.2160, 299.8875
416.4100, 324.8351
417.6030, 237.7966
418.7970, 264.7720
419.9900, 176.7606
421.1830, 103.7626
422.3760, 73.77747
423.5690, 11.80505
424.7610, 35.84509
425.9540, 39.89734
427.1460, 11.03833
428.3380, 53.96558
429.5300, 100.8998
430.7220, 101.8625
431.9140, 47.85498
433.1050, 65.85376
434.2970, 66.86719
435.4880, 61.89661
436.6790, 56.94019
437.8700, 60.99646
439.0610, 6.8115003E-02
440.2510, 66.13159
441.4420, 63.21387
442.6320, 15.31433
443.8220, 39.41260
445.0120, 28.48071
446.2020, 19.38245
447.3910, 49.29211
448.5810, 91.21008
449.7700, 116.1357
450.9600, 109.0691
452.1490, 175.0098
453.3370, 132.9576
454.5260, 164.9127
455.7150, 241.8744
456.9030, 198.8429
458.0910, 269.8179
459.2800, 241.7992
460.4670, 197.7864
461.6550, 333.7798
462.8430, 280.7786
464.0300, 338.7831
465.2180, 339.7930
466.4050, 395.8081
467.5920, 362.8284
468.7790, 377.8535
469.9650, 405.8832
471.1520, 354.9175
472.3380, 407.9563
473.5250, 259.9991
474.7110, 231.0461
475.8970, 120.0973
477.0820, 119.1519
478.2680, 60.21021
479.4540, 7.271851
480.6390, 52.32959
481.8240, 5.390259
483.0090, 8.445190
484.1940, 13.50500
485.3780, 63.47119
486.5630, 62.47803
487.7470, 39.51733
488.9320, 62.58667
490.1160, 43.58191
491.3000, 46.84070
492.4830, 44.01746
493.6670, 52.22363
494.8500, 51.99890
496.0340, 54.72925
497.2170, 56.03748
498.4000, 34.38818
499.5820, 33.77185
500.7650, 21.17639
501.9480, 13.49597
503.1300, 30.03772
504.3120, 6.510010
505.4940, 4.003906
506.6760, 11.51770
507.8580, 12.94812
509.0390, 35.40088
510.2210, 18.84949
511.4020, 8.286987
512.5830, 52.27124
513.7640, 85.13086
514.9450, 143.5525
516.1250, 164.9724
517.3060, 229.3906
518.4860, 228.8064
519.6660, 288.2366
520.8460, 314.6658
522.0260, 378.1064
523.2060, 345.5610
524.3850, 422.0254
525.5650, 475.4893
526.7440, 518.9565
527.9230, 612.4268
529.1020, 781.9058
530.2810, 868.3923
531.4590, 924.8928
532.6380, 1205.408
533.8160, 1185.920
534.9940, 1403.438
536.1720, 1509.953
537.3500, 1584.485
538.5270, 1574.025
539.7050, 1523.571
540.8820, 1444.112
542.0590, 1300.662
543.2360, 1155.217
544.4130, 907.7793
545.5900, 858.3447
546.7660, 782.9141
547.9430, 754.4871
549.1190, 662.0547
550.2950, 682.6206
551.4710, 678.1921
552.6470, 540.7581
553.8220, 564.3181
554.9980, 502.8765
556.1730, 523.4304
557.3480, 469.9790
558.5230, 414.5232
559.6980, 397.0610
560.8730, 390.5925
562.0470, 372.1174
563.2220, 363.6357
564.3960, 426.1475
565.5700, 372.6523
566.7440, 435.1504
567.9170, 375.6416
569.0910, 373.9026
570.2640, 443.4983
571.4380, 406.5667
572.6110, 427.5176
573.7840, 496.2559
574.9570, 472.0378
576.1290, 474.7034
577.3020, 441.5779
578.4740, 458.6536
579.6460, 395.4575
580.8180, 376.8252
581.9900, 315.2329
583.1620, 362.7419
584.3330, 302.5894
585.5040, 318.2559
586.6760, 392.6431
587.8470, 397.0244
589.0180, 315.3997
590.1880, 313.7688
591.3590, 326.1316
592.5290, 307.4883
593.7000, 349.8386
594.8700, 351.1821
596.0400, 338.5195
597.2090, 318.8501
598.3790, 339.1743
599.5490, 312.4917
600.7180, 295.8025
601.8870, 399.1064
603.0560, 308.4036
604.2250, 370.6938
605.3940, 338.9771
606.5620, 325.2537
607.7300, 433.5229
608.8990, 439.7852
610.0670, 420.0405
611.2350, 457.2886
612.4020, 448.5293
613.5700, 435.7629
614.7370, 488.9888
615.9050, 492.2078
617.0720, 580.4192
618.2390, 658.6230
619.4060, 569.8193
620.5720, 658.4128
621.7390, 702.5945
622.9050, 780.9927
624.0710, 799.4863
625.2370, 824.7598
626.4030, 875.0466
627.5690, 906.4856
628.7340, 955.5547
629.9000, 1015.272
631.0650, 1072.501
632.2300, 1172.021
633.3950, 1274.294
634.5600, 1269.614
635.7240, 1471.281
636.8890, 1507.826
638.0530, 1714.124
639.2170, 1842.552
640.3810, 2082.696
641.5450, 2343.763
642.7080, 2602.290
643.8720, 2906.373
645.0350, 3447.229
646.1980, 3889.344
647.3610, 4562.698
648.5240, 5318.583
649.6870, 6449.477
650.8490, 7714.646
652.0120, 9140.191
653.1740, 10861.03
654.3360, 12894.20
655.4980, 14743.24
656.6600, 16773.25
657.8210, 18597.27
658.9830, 20000.99
660.1440, 21241.19
661.3050, 21985.37
662.4660, 21818.12
663.6270, 21258.88
664.7870, 19713.21
665.9480, 18295.47
667.1080, 16654.79
668.2680, 15453.34
669.4280, 14868.81
670.5880, 14807.68
671.7480, 15575.79
672.9070, 16614.74
674.0670, 18701.89
675.2260, 20379.12
676.3850, 23269.57
677.5440, 25531.24
678.7030, 27936.44
679.8610, 30454.35
681.0200, 31594.19
682.1780, 32749.04
683.3360, 32748.87
684.4940, 31666.36
685.6520, 29265.19
686.8090, 26114.96
687.9670, 22333.82
689.1240, 18668.25
690.2810, 15315.61
691.4380, 12322.45
692.5950, 10109.29
693.7520, 8227.834
694.9080, 6643.863
696.0650, 5636.780
697.2210, 4772.824
698.3770, 3953.622
699.5330, 3482.413
700.6880, 2991.198
701.8440, 2608.975
702.9990, 2296.745
704.1550, 2047.508
705.3100, 1905.265
706.4650, 1676.014
707.6190, 1554.757
708.7740, 1337.494
709.9290, 1249.234
711.0830, 1204.987
712.2370, 1081.754
713.3910, 897.5229
714.5450, 886.2981
715.6980, 809.0798
716.8520, 807.8677
718.0050, 708.6602
719.1580, 709.4587
720.3110, 667.2520
721.4640, 555.0530
722.6170, 568.8613
723.7700, 539.6670
724.9220, 507.4756
726.0740, 466.2781
727.2260, 406.0742
728.3780, 372.8652
729.5300, 338.6499
730.6810, 371.4290
731.8330, 311.2021
732.9840, 334.9702
734.1350, 262.7327
735.2860, 258.4895
736.4370, 227.2407
737.5880, 264.9866
738.7380, 252.7273
739.8880, 188.4626
741.0390, 210.1929
742.1890, 163.9180
743.3380, 189.6484
744.4880, 136.3635
745.6380, 124.0740
746.7870, 151.7793
747.9360, 188.4800
749.0850, 121.1758
750.2340, 93.86719
751.3830, 98.55420
752.5310, 130.2363
753.6800, 90.91431
754.8280, 135.5876
755.9760, 146.2573
757.1240, 79.92236
758.2720, 115.5835
759.4190, 90.04907
760.5670, 79.90088
761.7140, 72.55811
762.8610, 68.21582
764.0080, 57.87866
765.1550, 11.44019
766.3020, 35.24146
767.4480, 24.93506
768.5950, 62.64453
769.7410, 12.36841
770.8870, 0.8977050
772.0330, 28.16089
773.1780, 26.56860
774.3240, 2.685791
775.4690, 28.06567
776.6140, 57.83496
777.7590, 29.38184
778.9040, 33.60938
780.0490, 42.14771
781.1940, 6.914307
782.3380, 54.68774
783.4820, 19.46948
784.6260, 0.2570800
785.7700, 24.04541
786.9140, 11.83667
788.0580, 16.62500
789.2010, 22.41479
790.3450, 2.791016
791.4880, 14.99268
792.6310, 24.77271
793.7730, 42.55078
794.9160, 28.32715
796.0590, 51.89795
797.2010, 9.842773
798.3430, 43.42041
799.4850, 53.71338
800.6270, 37.04102
801.7690, 3.605957
802.9100, 12.75293
804.0520, 14.12524
805.1930, 35.51123
806.3340, 34.92090
807.4750, 59.35376
808.6160, 63.82178
809.7560, 21.67334
810.8970, 31.83203
812.0370, 0.6423340
813.1770, 71.88721
814.3170, 42.45630
815.4570, 35.05005
816.5960, 29.33594
817.7360, 47.27734
818.8750, 30.91626
820.0140, 48.57227
821.1530, 26.25366
822.2920, 32.94922
823.4310, 32.47754
824.5690, 13.60986
825.7070, 11.11694
826.8460, 44.84863
827.9840, 7.398682
829.1220, 24.64795
830.2590, 16.10010
831.3970, 6.854004
832.5340, 3.607910
833.6710, 8.361328
834.8080, 36.88525
835.9450, 17.63281
837.0820, 41.38745
838.2190, 6.643799
839.3550, 22.90308
840.4910, 18.16626
841.6270, 60.43286
842.7630, 92.70337
843.8990, 123.9780
845.0350, 57.25684
846.1700, 130.5400
847.3060, 178.8271
848.4410, 166.1194
849.5760, 245.4158
850.7100, 236.7170
851.8450, 295.0227
852.9800, 293.3333
854.1140, 343.6484
855.2480, 324.9688
856.3820, 350.2942
857.5160, 356.6245
858.6500, 332.3020
859.7830, 303.3008
860.9170, 286.6470
862.0500, 246.9983
863.1830, 223.3550
864.3160, 201.2942
865.4480, 142.0854
866.5810, 153.4595
867.7130, 135.8394
868.8460, 102.2251
869.9780, 131.6172
871.1100, 153.0156
872.2410, 48.42017
873.3730, 38.83154
874.5050, 43.24976
875.6360, 23.67432
876.7670, 84.10620
877.8980, 18.54492
879.0290, 0.9902340
880.1590, 87.44287
881.2900, 67.90259
882.4200, 48.36963
883.5500, 85.84473
884.6800, 97.32715
885.8100, 105.8171
886.9400, 101.3149
888.0690, 100.8210
889.1990, 74.33472
890.3280, 100.8567
891.4570, 91.05786
892.5860, 90.55566
893.7140, 100.4727
894.8430, 100.0283
895.9710, 110.5925
897.1000, 135.1658
898.2280, 153.7476
899.3560, 167.3379
900.4830, 119.9377
901.6110, 170.6504
902.7380, 169.1919
903.8660, 127.5967
904.9930, 183.2322
906.1200, 137.3425
907.2460, 168.8228
908.3730, 204.7356
909.5000, 227.2749
910.6260, 261.6287
911.7520, 307.1853
912.8780, 320.0383
914.0040, 409.0269
915.1290, 431.7966
916.2550, 500.5269
917.3800, 611.7004
918.5050, 638.4575
919.6300, 665.0740
920.7550, 778.9912
921.8800, 887.7207
923.0040, 977.2378
924.1290, 1214.898
925.2530, 1334.665
926.3770, 1571.565
927.5010, 1784.279
928.6250, 2057.143
929.7480, 2330.043
930.8720, 2685.955
931.9950, 2958.159
933.1180, 3253.910
934.2410, 3415.697
935.3640, 3456.919
936.4860, 3619.153
937.6090, 3562.803
938.7310, 3363.533
939.8530, 3223.227
940.9750, 2934.705
942.0970, 2565.268
943.2180, 2366.455
944.3400, 2083.418
945.4610, 1827.555
946.5820, 1545.491
947.7030, 1457.376
948.8240, 1314.048
949.9450, 1196.515
951.0650, 1152.467
952.1860, 1085.721
953.3060, 970.0564
954.4260, 894.3994
955.5460, 873.7778
956.6650, 893.5193
957.7850, 824.9199
958.9040, 839.4180
960.0230, 895.8271
961.1420, 824.6799
962.2610, 792.6216
963.3800, 844.1021
964.4990, 799.6086
965.6170, 850.4316
966.7350, 904.7842
967.8530, 942.2646
968.9710, 958.6340
970.0890, 1013.263
971.2070, 1019.909
972.3240, 1021.577
973.4410, 1180.262
974.5580, 1266.967
975.6750, 1262.690
976.7920, 1343.439
977.9090, 1499.210
979.0250, 1624.010
980.1410, 1756.934
981.2580, 1830.684
982.3740, 2059.559
983.4890, 2233.456
984.6050, 2420.375
985.7200, 2758.317
986.8360, 2987.275
987.9510, 3376.258
989.0660, 3837.259
990.1810, 4358.277
991.2950, 4952.315
992.4100, 5812.372
993.5240, 6752.444
994.6390, 8012.536
995.7530, 9473.645
996.8660, 11428.77
997.9800, 13438.91
999.0940, 16298.07
1000.207, 20006.25
1001.320, 24619.44
1002.433, 30130.66
1003.546, 36463.89
1004.659, 43535.13
1005.772, 50511.41
1006.884, 56172.70
1007.996, 60132.00
1009.108, 62547.32
1010.220, 62307.66
1011.332, 59665.02
1012.444, 54230.40
1013.555, 47083.78
1014.666, 39336.19
1015.777, 32709.61
1016.888, 27289.05
1017.999, 23099.51
1019.110, 20142.98
1020.220, 18315.47
1021.331, 16627.98
1022.441, 15522.50
1023.551, 14618.04
1024.661, 14081.60
1025.770, 13636.17
1026.880, 13274.75
1027.989, 12791.36
1029.098, 12080.98
1030.207, 11622.61
1031.316, 11017.26
1032.425, 10256.93
1033.533, 9304.606
1034.642, 8451.300
1035.750, 7649.019
1036.858, 6877.753
1037.966, 6086.504
1039.073, 5469.271
1040.181, 4803.056
1041.288, 4326.859
1042.396, 3909.690
1043.503, 3428.537
1044.610, 2973.405
1045.716, 2713.289
1046.823, 2542.186
1047.929, 2201.111
1049.036, 1949.063
1050.142, 1777.030
1051.248, 1530.467
1052.353, 1476.467
1053.459, 1278.876
1054.564, 1211.908
1055.670, 1115.955
1056.775, 1047.017
1057.880, 976.3169
1058.985, 919.3550
1060.089, 846.6362
1061.194, 787.9290
1062.298, 704.4382
1063.402, 670.7217
1064.506, 613.9463
1065.610, 569.4082
1066.713, 544.8950
1067.817, 480.5049
1068.920, 519.7651
1070.023, 489.0703
1071.126, 454.4700
1072.229, 451.1819
1073.332, 413.2249
1074.435, 400.9556
1075.537, 351.3042
1076.639, 320.8406
1077.741, 302.2434
1078.843, 265.7178
1079.945, 264.9583
1081.046, 257.1836
1082.148, 246.0791
1083.249, 231.7124
1084.350, 195.1328
1085.451, 189.8315
1086.551, 123.6472
1087.652, 208.2793
1088.752, 186.1353
1089.853, 172.0112
1090.953, 114.9124
1092.053, 128.3198
1093.152, 119.3687
1094.252, 150.0911
1095.351, 122.8032
1096.451, 160.8743
1097.550, 156.9382
1098.649, 113.0530
1099.748, 181.5840
1100.846, 175.7900
1101.945, 165.6096
1103.043, 173.5955
1104.141, 161.3945
1105.239, 127.3215
1106.337, 135.9971
1107.434, 113.0320
1108.532, 126.9290
1109.629, 84.82031
1110.726, 157.5229
1111.823, 98.41748
1112.920, 191.6245
1114.017, 180.9338
1115.113, 121.6741
1116.210, 124.9902
1117.306, 111.8420
1118.402, 174.8232
1119.498, 125.4619
1120.593, 71.46387
1121.689, 180.7595
1122.784, 138.0195
1123.879, 148.4155
1124.974, 164.3687
1126.069, 189.4172
1127.164, 184.2778
1128.259, 135.3970
1129.353, 133.3105
1130.447, 136.4490
1131.541, 126.3838
1132.635, 163.6384
1133.729, 132.8767
1134.822, 159.9182
1135.916, 149.0569
1137.009, 143.8853
1138.102, 141.8833
1139.195, 144.7566
1140.288, 130.8052
1141.380, 158.6426
1142.473, 153.6670
1143.565, 166.9673
1144.657, 68.96729
1145.749, 73.89771
1146.841, 11.82983
1147.932, 114.9504
1149.024, 79.77637
1150.115, 83.72021
1151.206, 57.71924
1152.297, 59.53784
1153.388, 41.42163
1154.479, 102.4062
1155.569, 34.21631
1156.659, 72.20728
1157.750, 28.07983
1158.839, 43.88013
1159.929, 29.67700
1161.019, 82.54980
1162.108, 58.33911
1163.198, 66.12451
1164.287, 20.90601
1165.376, 69.68311
1166.465, 58.45532
1167.553, 65.22339
1168.642, 6.986816
1169.730, 55.74512
1170.818, 30.49854
1171.906, 73.25000
1172.994, 79.51562
1174.082, 45.73755
1175.170, 83.47266
1176.257, 62.20215
1177.344, 23.93921
1178.431, 35.76196
1179.518, 18.47778
1180.605, 66.18188
1181.691, 32.93994
1182.778, 101.7363
1183.864, 30.59424
1184.950, 57.05469
1186.036, 79.71509
1187.122, 9.349121
1188.207, 37.97559
1189.292, 39.40601
1190.378, 22.81543
1191.463, 33.17285
1192.548, 29.46680
1193.632, 0.9453130
1194.717, 6.565918
1195.801, 36.93188
1196.886, 36.45923
1197.970, 5.016357
1199.054, 48.41284
1200.137, 24.83276
1201.221, 7.242920
1202.305, 14.33594
1203.388, 48.04297
1204.471, 33.58813
1205.554, 58.25073
1206.637, 10.10229
1207.719, 23.61719
1208.802, 13.83154
1209.884, 4.927979
1210.966, 51.70630
1212.048, 28.51489
1213.130, 13.31958
1214.212, 4.178711
1215.293, 19.96094
1216.374, 10.06812
1217.456, 68.83911
1218.536, 7.801514
1219.617, 13.21753
1220.698, 54.74976
1221.778, 69.19971
1222.859, 38.15601
1223.939, 33.92065
1225.019, 17.03638
1226.099, 22.18311
1227.178, 53.36377
1228.258, 13.40454
1229.337, 11.84399
1230.417, 6.122314
1231.496, 0.5727540
1232.574, 28.24463
1233.653, 1.900879
1234.732, 38.53320
1235.810, 5.150635
1236.888, 28.74561
1237.966, 13.67554
1239.044, 2.870605
1240.122, 25.60767
