##NAMES=Enstatite
##RRUFFID=R070418
##IDEAL CHEMISTRY=MgSiO_3_
##LOCALITY=India
##OWNER=RRUFF
##SOURCE=Michael Scott
##DESCRIPTION=Brown translucent fragments
##STATUS=The identification of this mineral has been confirmed by X-ray diffraction and chemical analysis
##URL=rruff.info/R070418
##MEASURED CHEMISTRY=(Mg_0.86_Fe_0.14_)_Î£=1_Si_1.00_O_3_; trace amounts of Al, Ca, Mn
##PIN_ID=L01297
##ORIENTATION=Laser parallel to c* (0 0 1). Fiducial mark perpendicular to laser is parallel to a [1 0 0]
41.80000, 0.0000000E+00
43.05200, 18.23279
44.30500, 1.470886
45.55700, 4.765137
46.80900, 10.82825
48.06100, 5.148682
49.31300, 24.33502
50.56400, 9.387726
51.81600, 20.74002
53.06700, 25.32507
54.31800, 31.96069
55.56800, 31.94568
56.81900, 40.53094
58.06900, 51.53000
59.31900, 39.88080
60.56900, 36.45850
61.81900, 26.12567
63.06900, 38.77893
64.31800, 43.64178
65.56700, 45.04895
66.81600, 81.13647
68.06500, 80.83130
69.31300, 97.23648
70.56200, 101.1140
71.81000, 85.65781
73.05800, 77.30792
74.30500, 73.06360
75.55300, 62.92444
76.80000, 68.89014
78.04800, 63.96002
79.29500, 57.13351
80.54100, 44.40884
81.78800, 35.78345
83.03400, 23.25415
84.28100, 14.81772
85.52700, 7.994720
86.77200, 6.790070
88.01800, 4.968414
89.26300, 11.06705
90.50900, 20.08878
91.75400, 29.03802
92.99900, 26.92053
94.24300, 17.73981
95.48800, 36.49625
96.73200, 28.18988
97.97600, 13.82068
99.22000, 7.611298
100.4630, 3.105957
101.7070, 15.66327
102.9500, 59.28323
104.1930, 122.9666
105.4360, 152.7148
106.6790, 191.5290
107.9210, 244.4089
109.1640, 182.3541
110.4060, 180.3640
111.6480, 202.4382
112.8890, 222.5761
114.1310, 263.7770
115.3720, 265.0407
116.6130, 309.3650
117.8540, 288.7433
119.0950, 326.1729
120.3360, 318.6504
121.5760, 330.1731
122.8160, 343.7382
124.0560, 374.3429
125.2960, 367.9856
126.5350, 403.6645
127.7750, 401.3783
129.0140, 460.1237
130.2530, 505.8970
131.4920, 548.6976
132.7300, 537.5262
133.9690, 581.3837
135.2070, 581.2726
136.4450, 600.1920
137.6830, 665.1375
138.9210, 706.0986
140.1580, 741.0642
141.3950, 785.0208
142.6330, 826.9683
143.8690, 819.9067
145.1060, 842.8654
146.3430, 830.8648
147.5790, 781.9048
148.8150, 757.9857
150.0510, 669.1075
151.2870, 622.2700
152.5220, 579.4732
153.7580, 499.7170
154.9930, 513.0013
156.2280, 432.3260
157.4620, 412.6911
158.6970, 417.0963
159.9310, 379.5416
161.1660, 397.0266
162.4000, 364.5516
163.6330, 367.1210
164.8670, 343.7482
166.1000, 297.4193
167.3340, 307.1517
168.5670, 287.9476
169.8000, 293.7934
171.0320, 256.6797
172.2650, 255.6033
173.4970, 253.5637
174.7290, 237.5607
175.9610, 224.5941
177.1930, 226.6638
178.4240, 216.3410
179.6550, 222.8054
180.8870, 228.3483
182.1170, 241.3021
183.3480, 252.5505
184.5790, 269.8341
185.8090, 293.1526
187.0390, 285.5057
188.2690, 286.8933
189.4990, 310.3152
190.7290, 323.6918
191.9580, 347.0725
193.1870, 377.4482
194.4160, 385.8145
195.6450, 368.1678
196.8740, 419.5072
198.1020, 442.8345
199.3310, 509.1415
200.5590, 543.4358
201.7870, 588.7231
203.0140, 628.9916
204.2420, 669.2417
205.4690, 670.4871
206.6960, 704.7301
207.9230, 685.9775
209.1500, 627.2314
210.3760, 712.4337
211.6030, 717.7033
212.8290, 691.9333
214.0550, 765.0905
215.2810, 776.2532
216.5060, 807.3475
217.7320, 834.4025
218.9570, 900.6016
220.1820, 1009.633
221.4070, 1071.791
222.6320, 1216.999
223.8560, 1350.214
225.0800, 1578.529
226.3040, 1820.879
227.5280, 2188.254
228.7520, 2579.611
229.9760, 3090.958
231.1990, 3838.206
232.4220, 4604.363
233.6450, 5433.411
234.8680, 5807.762
236.0910, 5663.382
237.3130, 5013.766
238.5350, 4097.733
239.7570, 3235.282
240.9790, 2412.108
242.2010, 1800.651
243.4220, 1444.155
244.6430, 1086.318
245.8640, 988.5186
247.0850, 938.3948
248.3060, 859.2988
249.5270, 882.2307
250.7470, 939.1897
251.9670, 961.1761
253.1870, 968.1895
254.4070, 957.2293
255.6260, 947.2955
256.8460, 914.3880
258.0650, 945.5063
259.2840, 948.6503
260.5030, 896.8196
261.7220, 925.0141
262.9400, 926.2333
264.1580, 928.4775
265.3760, 1069.746
266.5940, 1172.039
267.8120, 1353.356
269.0290, 1434.696
270.2470, 1593.061
271.4640, 1782.449
272.6810, 1791.861
273.8980, 1760.297
275.1140, 1454.755
276.3310, 1264.237
277.5470, 1014.742
278.7630, 740.2700
279.9790, 633.8210
281.1940, 495.3950
282.4100, 453.9917
283.6250, 440.3645
284.8400, 397.8730
286.0550, 430.9620
287.2700, 445.6490
288.4850, 568.6586
289.6990, 643.7258
290.9130, 794.3750
292.1270, 897.0332
293.3410, 1028.484
294.5540, 1142.305
295.7680, 1252.685
296.9810, 1256.550
298.1940, 1231.437
299.4070, 1199.345
300.6200, 1112.275
301.8320, 1004.226
303.0450, 878.1971
304.2570, 894.1892
305.4690, 826.2024
306.6800, 896.2358
307.8920, 1017.289
309.1030, 1058.363
310.3150, 1304.457
311.5260, 1544.571
312.7360, 1832.704
313.9470, 2164.857
315.1580, 2520.028
316.3680, 3025.219
317.5780, 3349.427
318.7880, 3458.654
319.9980, 3557.900
321.2070, 3572.165
322.4170, 3571.447
323.6260, 3629.746
324.8350, 3786.064
326.0430, 3986.400
327.2520, 4188.752
328.4610, 4586.123
329.6690, 5031.510
330.8770, 5570.915
332.0850, 6321.335
333.2920, 7159.774
334.5000, 8221.230
335.7070, 9346.700
336.9140, 10531.19
338.1210, 11495.69
339.3280, 12033.22
340.5350, 12100.76
341.7410, 11450.32
342.9470, 10314.09
344.1540, 8785.678
345.3590, 7399.617
346.5650, 6132.907
347.7710, 5060.639
348.9760, 4285.791
350.1810, 3539.809
351.3860, 2981.648
352.5910, 2585.421
353.7950, 2238.539
355.0000, 1985.474
356.2040, 1691.786
357.4080, 1593.417
358.6120, 1437.097
359.8150, 1297.304
361.0190, 1212.037
362.2220, 1108.060
363.4250, 1038.040
364.6280, 1002.684
365.8310, 946.4608
367.0340, 918.4734
368.2360, 920.4548
369.4380, 959.9467
370.6400, 1001.914
371.8420, 1045.897
373.0440, 1132.896
374.2450, 1223.911
375.4470, 1272.940
376.6480, 1430.987
377.8490, 1490.050
379.0490, 1566.131
380.2500, 1515.232
381.4500, 1416.352
382.6510, 1243.493
383.8510, 1101.656
385.0500, 956.8428
386.2500, 835.1964
387.4500, 737.0250
388.6490, 630.5356
389.8480, 584.8107
391.0470, 520.1033
392.2460, 482.4097
393.4440, 504.7299
394.6430, 419.0635
395.8410, 411.4106
397.0390, 431.7714
398.2370, 346.1455
399.4340, 371.5328
400.6320, 364.9332
401.8290, 305.3467
403.0260, 230.7729
404.2230, 252.2119
405.4200, 225.6636
406.6170, 229.1277
407.8130, 238.6042
409.0090, 204.0930
410.2050, 183.5938
411.4010, 197.1066
412.5970, 198.6313
413.7920, 173.1678
414.9880, 192.7159
416.1830, 115.2756
417.3780, 119.8467
418.5730, 99.42908
419.7670, 50.02258
420.9620, 59.62732
422.1560, 67.24280
423.3500, 7.869263
424.5440, 4.506348
425.7380, 8.153931
426.9310, 27.18811
428.1240, 29.52759
429.3180, 17.86584
430.5110, 7.801147
431.7030, 13.52185
432.8960, 37.83875
434.0890, 28.15894
435.2810, 27.47852
436.4730, 42.79785
437.6650, 10.87646
438.8570, 18.44006
440.0480, 13.24670
441.2390, 4.942383
442.4310, 7.646973
443.6220, 3.360229
444.8120, 11.08203
446.0030, 31.81226
447.1940, 78.55103
448.3840, 35.29810
449.5740, 62.05334
450.7640, 130.8168
451.9540, 140.5883
453.1430, 105.3677
454.3330, 197.1548
455.5220, 161.9496
456.7110, 170.7520
457.9000, 210.5618
459.0890, 206.3790
460.2770, 190.2034
461.4650, 215.0349
462.6540, 215.8737
463.8420, 259.7192
465.0290, 254.5715
466.2170, 349.4305
467.4050, 389.2963
468.5920, 406.1685
469.7790, 447.0471
470.9660, 370.9321
472.1530, 335.8231
473.3390, 301.7202
474.5250, 209.6234
475.7120, 186.5327
476.8980, 82.44751
478.0840, 61.36816
479.2690, 54.29443
480.4550, 45.22607
481.6400, 24.16321
482.8250, 22.10608
484.0100, 12.05408
485.1950, 14.99329
486.3800, 20.95288
487.5640, 1.903687
488.7480, 22.14392
489.9320, 11.20093
491.1160, 35.26343
492.3000, 66.34192
493.4840, 45.45459
494.6670, 43.58936
495.8500, 48.74573
497.0330, 44.92676
498.2160, 50.65222
499.3990, 38.34985
500.5810, 55.59082
501.7630, 46.85498
502.9460, 38.13416
504.1280, 42.42920
505.3090, 35.73364
506.4910, 40.05750
507.6720, 36.40332
508.8540, 22.75989
510.0350, 21.12830
511.2160, 4.495850
512.3960, 32.12256
513.5770, 64.76465
514.7570, 80.52795
515.9380, 113.8121
517.1180, 115.7550
518.2970, 162.4379
519.4770, 186.1248
520.6570, 190.8352
521.8360, 228.5607
523.0150, 252.2924
524.1940, 285.0437
525.3730, 340.8032
526.5510, 387.5696
527.7300, 419.3461
528.9080, 438.1238
530.0860, 530.9116
531.2640, 661.7056
532.4420, 830.5092
533.6200, 988.3196
534.7970, 1215.135
535.9740, 1481.951
537.1510, 1560.785
538.3280, 1596.625
539.5050, 1496.472
540.6810, 1302.319
541.8580, 1047.165
543.0340, 968.0127
544.2100, 823.8602
545.3860, 718.7079
546.5610, 675.5549
547.7370, 632.4019
548.9120, 591.2482
550.0870, 636.0940
551.2620, 541.9390
552.4370, 540.7833
553.6120, 445.6266
554.7860, 451.4690
555.9600, 368.3145
557.1340, 338.1589
558.3080, 329.0056
559.4820, 341.8508
560.6560, 317.4366
561.8290, 319.5371
563.0020, 296.3781
564.1750, 255.2173
565.3480, 245.0548
566.5210, 307.8905
567.6930, 349.7245
568.8660, 336.8030
570.0380, 334.7662
571.2100, 325.1698
572.3820, 329.9957
573.5530, 385.5193
574.7250, 355.0059
575.8960, 383.9312
577.0670, 370.6163
578.2380, 334.0316
579.4090, 323.8450
580.5800, 306.1198
581.7500, 258.9288
582.9210, 304.7355
584.0910, 290.5402
585.2610, 244.3419
586.4300, 256.1414
587.6000, 234.9385
588.7690, 243.7329
589.9390, 224.5249
591.1080, 255.3140
592.2770, 244.5095
593.4450, 245.8840
594.6140, 245.6646
595.7820, 236.4420
596.9500, 241.2167
598.1190, 230.9880
599.2860, 240.7563
600.4540, 260.5215
601.6220, 266.2832
602.7890, 264.0416
603.9560, 274.7966
605.1230, 258.5481
606.2900, 233.2961
607.4570, 330.0406
608.6230, 254.7815
609.7890, 327.5186
610.9560, 294.2520
612.1220, 289.9814
613.2870, 305.7073
614.4530, 357.4290
615.6180, 398.1467
616.7840, 416.8605
617.9490, 427.5703
619.1140, 450.2759
620.2790, 472.9773
621.4430, 507.6747
622.6080, 529.4268
623.7720, 598.1155
624.9360, 665.7998
626.1000, 657.2859
627.2640, 716.9614
628.4270, 736.5214
629.5910, 742.8704
630.7540, 854.6113
631.9170, 842.1937
633.0800, 900.5098
634.2430, 940.3215
635.4050, 1074.261
636.5680, 1107.816
637.7300, 1258.359
638.8920, 1332.632
640.0540, 1545.164
641.2150, 1655.514
642.3770, 1847.380
643.5380, 2048.596
644.7000, 2372.623
645.8610, 2592.897
647.0210, 3078.872
648.1820, 3516.354
649.3430, 4030.830
650.5030, 4792.236
651.6630, 5789.593
652.8230, 6923.022
653.9830, 8172.736
655.1430, 9711.472
656.3020, 11472.00
657.4620, 13466.10
658.6210, 15425.90
659.7800, 17256.49
660.9390, 18314.87
662.0970, 18580.40
663.2560, 17586.99
664.4140, 16415.95
665.5720, 14603.60
666.7300, 13293.06
667.8880, 12123.60
669.0460, 11491.13
670.2030, 11354.65
671.3600, 11740.15
672.5180, 12306.92
673.6740, 13555.33
674.8310, 15114.84
675.9880, 17196.19
677.1440, 19686.07
678.3010, 22412.82
679.4570, 25027.31
680.6130, 27451.78
681.7690, 28740.27
682.9240, 28783.80
684.0800, 27781.26
685.2350, 24980.71
686.3900, 22299.16
687.5450, 18834.59
688.7000, 15445.03
689.8540, 12442.46
691.0090, 10221.88
692.1630, 8266.293
693.3170, 6885.702
694.4710, 5772.879
695.6250, 4860.286
696.7780, 4108.258
697.9320, 3521.643
699.0850, 2973.021
700.2380, 2611.393
701.3910, 2376.760
702.5440, 2048.119
703.6970, 1826.473
704.8490, 1648.820
706.0010, 1507.162
707.1530, 1349.497
708.3050, 1245.830
709.4570, 1131.161
710.6090, 1042.490
711.7600, 945.8115
712.9110, 882.1292
714.0620, 786.4478
715.2130, 763.7646
716.3640, 681.0802
717.5150, 624.3978
718.6650, 573.7095
719.8150, 529.0793
720.9650, 512.3214
722.1150, 467.6187
723.2650, 442.9102
724.4150, 419.1960
725.5640, 380.4763
726.7130, 393.7507
727.8630, 330.0195
729.0110, 307.2828
730.1600, 328.5404
731.3090, 308.7925
732.4570, 282.0389
733.6060, 256.2799
734.7540, 237.5155
735.9020, 215.7456
737.0490, 238.9702
738.1970, 267.1897
739.3440, 203.4037
740.4920, 165.6124
741.6390, 167.8158
742.7860, 186.0142
743.9320, 136.2074
745.0790, 147.3954
746.2250, 148.5782
747.3720, 128.7563
748.5180, 119.9292
749.6640, 133.0972
750.8100, 105.2603
751.9550, 79.41858
753.1010, 123.5719
754.2460, 99.72058
755.3910, 90.86462
756.5360, 79.00378
757.6810, 57.13843
758.8250, 57.64844
759.9700, 28.39404
761.1140, 45.51428
762.2580, 53.63013
763.4020, 33.74170
764.5460, 47.85474
765.6900, 16.96350
766.8330, 12.06775
767.9760, 18.17212
769.1200, 9.275757
770.2620, 32.38245
771.4050, 11.50415
772.5480, 9.670654
773.6900, 10.76721
774.8330, 5.090454
775.9750, 6.947998
777.1170, 0.1951900
778.2590, 14.66016
779.4000, 31.51685
780.5420, 13.38562
781.6830, 47.25867
782.8240, 3.847290
783.9650, 3.957397
785.1060, 34.92700
786.2470, 5.826416
787.3870, 20.72888
788.5280, 12.64197
789.6680, 37.56763
790.8080, 26.52161
791.9480, 10.49792
793.0870, 24.48816
794.2270, 17.49902
795.3660, 4.473267
796.5060, 74.56042
797.6450, 39.64014
798.7830, 9.747314
799.9220, 59.86646
801.0610, 18.02295
802.1990, 13.19519
803.3370, 27.37988
804.4750, 21.41577
805.6130, 29.79004
806.7510, 13.01599
807.8890, 30.25330
809.0260, 18.51001
810.1630, 12.78027
811.3000, 16.93933
812.4370, 62.34204
813.5740, 22.65845
814.7110, 20.98865
815.8470, 9.668213
816.9830, 40.32446
818.1190, 0.9804690
819.2550, 1.364868
820.3910, 20.28821
821.5270, 26.94104
822.6620, 29.59375
823.7970, 21.24658
824.9330, 55.89966
826.0670, 43.55310
827.2020, 22.20691
828.3370, 44.86108
829.4710, 8.515991
830.6060, 19.82825
831.7400, 0.8201900
832.8740, 17.53076
834.0080, 29.11304
835.1410, 35.75806
836.2750, 9.404419
837.4080, 27.05225
838.5410, 23.25366
839.6740, 26.35278
840.8070, 28.00562
841.9400, 28.66040
843.0730, 22.31714
844.2050, 69.97583
845.3370, 74.63696
846.4690, 68.30029
847.6010, 55.96606
848.7330, 95.63440
849.8640, 77.30554
850.9960, 95.97925
852.1270, 111.6559
853.2580, 78.33533
854.3890, 90.01782
855.5200, 161.7032
856.6500, 186.3918
857.7810, 138.0836
858.9110, 176.7788
860.0410, 167.4774
861.1710, 159.1794
862.3010, 173.8851
863.4310, 161.5945
864.5600, 143.3076
865.6900, 132.0248
866.8190, 78.74585
867.9480, 103.4709
869.0770, 75.20032
870.2050, 40.93384
871.3340, 68.67188
872.4620, 70.41431
873.5900, 42.16125
874.7180, 18.91272
875.8460, 99.66919
876.9740, 43.43042
878.1010, 51.19641
879.2290, 64.96753
880.3560, 43.74377
881.4830, 27.52515
882.6100, 39.31189
883.7370, 116.1040
884.8630, 32.90161
885.9900, 79.70471
887.1160, 89.51343
888.2420, 71.32788
889.3680, 97.14819
890.4940, 108.9744
891.6200, 135.8066
892.7450, 97.64502
893.8700, 99.48938
894.9960, 84.34021
896.1210, 86.13818
897.2460, 87.47766
898.3700, 93.31079
899.4950, 105.7485
900.6190, 121.6318
901.7430, 153.3043
902.8670, 178.8561
903.9910, 116.5945
905.1150, 133.0918
906.2390, 157.0098
907.3620, 133.6313
908.4850, 218.2120
909.6080, 209.8525
910.7310, 229.7076
911.8540, 231.4777
912.9770, 277.6903
914.0990, 268.0566
915.2210, 310.4020
916.3440, 387.8917
917.4660, 425.3025
918.5870, 370.8446
919.7090, 470.4176
920.8310, 489.6851
921.9520, 599.7444
923.0730, 626.9570
924.1940, 738.6755
925.3150, 782.9012
926.4360, 951.8600
927.5560, 1156.805
928.6770, 1318.958
929.7970, 1512.562
930.9170, 1717.479
932.0370, 1882.615
933.1570, 2162.979
934.2760, 2391.186
935.3960, 2511.369
936.5150, 2608.155
937.6340, 2636.477
938.7530, 2591.644
939.8720, 2533.913
940.9910, 2383.205
942.1090, 2222.517
943.2280, 2032.866
944.3460, 1954.946
945.4640, 1832.406
946.5820, 1663.790
947.6990, 1441.349
948.8170, 1311.379
949.9340, 1247.554
951.0520, 1073.018
952.1690, 1036.495
953.2860, 943.9698
954.4030, 990.4159
955.5190, 837.9380
956.6360, 829.4790
957.7520, 873.0374
958.8680, 812.6104
959.9840, 774.1975
961.1000, 752.8079
962.2160, 736.7452
963.3310, 734.2322
964.4470, 738.7322
965.5620, 754.1138
966.6770, 758.9587
967.7920, 780.4819
968.9060, 811.2244
970.0210, 882.9812
971.1360, 947.7523
972.2500, 974.5396
973.3640, 999.3411
974.4780, 1076.157
975.5920, 1200.988
976.7050, 1223.840
977.8190, 1352.712
978.9320, 1429.604
980.0450, 1501.518
981.1580, 1668.452
982.2710, 1825.401
983.3840, 2003.369
984.4970, 2206.351
985.6090, 2515.349
986.7210, 2819.362
987.8330, 3143.391
988.9450, 3590.435
990.0570, 4212.494
991.1690, 4917.566
992.2800, 5700.652
993.3920, 6715.754
994.5030, 7849.867
995.6140, 9467.995
996.7250, 11172.14
997.8350, 13550.29
998.9460, 16307.46
1000.056, 19590.64
1001.167, 23390.84
1002.277, 28748.05
1003.387, 34212.27
1004.496, 40615.51
1005.606, 47125.77
1006.715, 52377.03
1007.825, 55286.31
1008.934, 55081.60
1010.043, 51725.91
1011.152, 45461.23
1012.260, 39093.56
1013.369, 32749.91
1014.477, 27314.27
1015.586, 22819.65
1016.694, 19449.04
1017.802, 16898.44
1018.909, 15047.86
1020.017, 13484.29
1021.124, 12219.73
1022.232, 11093.18
1023.339, 10250.65
1024.446, 9614.132
1025.553, 8937.627
1026.659, 8348.134
1027.766, 8110.655
1028.872, 7570.188
1029.979, 7022.735
1031.085, 6557.296
1032.191, 6035.869
1033.296, 5596.455
1034.402, 5042.052
1035.507, 4566.665
1036.613, 4259.291
1037.718, 3783.932
1038.823, 3476.587
1039.928, 3163.255
1041.032, 2817.937
1042.137, 2581.633
1043.241, 2345.344
1044.346, 2042.072
1045.450, 1897.818
1046.554, 1733.580
1047.657, 1546.361
1048.761, 1409.167
1049.864, 1324.992
1050.968, 1208.845
1052.071, 1112.712
1053.174, 1017.593
1054.277, 951.4990
1055.379, 874.4215
1056.482, 773.5491
1057.584, 744.3274
1058.687, 668.3954
1059.789, 686.1775
1060.891, 581.2000
1061.992, 504.3539
1063.094, 535.1033
1064.196, 472.9963
1065.297, 423.1327
1066.398, 411.4868
1067.499, 387.7506
1068.600, 365.3055
1069.701, 358.8276
1070.801, 339.5123
1071.902, 312.5481
1073.002, 259.1776
1074.102, 248.4504
1075.202, 225.5878
1076.302, 236.6356
1077.402, 228.0348
1078.501, 229.9182
1079.600, 194.2032
1080.700, 184.0923
1081.799, 174.3989
1082.898, 183.1841
1083.996, 178.5808
1085.095, 158.2181
1086.193, 184.6631
1087.292, 127.2124
1088.390, 124.8623
1089.488, 136.3000
1090.586, 122.9604
1091.683, 109.6217
1092.781, 141.3091
1093.878, 150.7979
1094.975, 113.6897
1096.073, 132.4780
1097.169, 138.5266
1098.266, 123.3640
1099.363, 107.4482
1100.459, 149.4427
1101.556, 147.1040
1102.652, 148.7833
1103.748, 134.8418
1104.844, 145.4915
1105.940, 95.23157
1107.035, 142.2369
1108.131, 136.1902
1109.226, 72.13086
1110.321, 139.1295
1111.416, 110.7382
1112.511, 126.5210
1113.605, 110.5654
1114.700, 115.1060
1115.794, 122.7549
1116.889, 169.9209
1117.983, 152.6833
1119.077, 122.6710
1120.170, 165.6682
1121.264, 128.3380
1122.357, 152.0536
1123.451, 147.7561
1124.544, 117.3094
1125.637, 100.8983
1126.730, 116.4858
1127.823, 108.1262
1128.915, 110.7648
1130.008, 135.3851
1131.100, 125.9785
1132.192, 83.54053
1133.284, 104.1718
1134.376, 76.77991
1135.467, 130.4360
1136.559, 104.0399
1137.650, 101.6046
1138.742, 35.48230
1139.833, 56.09534
1140.924, 53.66040
1142.014, 57.32214
1143.105, 57.84961
1144.195, 57.70215
1145.286, 47.26599
1146.376, 55.96411
1147.466, 49.57690
1148.556, 54.06018
1149.646, 69.80872
1150.735, 60.36829
1151.825, 68.92688
1152.914, 65.48413
1154.003, 61.95117
1155.092, 56.80200
1156.181, 48.27637
1157.270, 44.82788
1158.358, 23.37744
1159.447, 30.95557
1160.535, 50.50110
1161.623, 44.04443
1162.711, 30.58533
1163.799, 63.12366
1164.886, 47.65955
1165.974, 23.19263
1167.061, 59.72290
1168.148, 39.25024
1169.235, 5.774536
1170.322, 21.29565
1171.409, 29.81335
1172.496, 18.32764
1173.582, 52.83850
1174.669, 27.34570
1175.755, 24.86646
1176.841, 24.36584
1177.927, 9.503174
1179.012, 11.05029
1180.098, 2.838989
1181.183, 3.321045
1182.269, 20.79858
1183.354, 14.27100
1184.439, 6.925659
1185.524, 25.20117
1186.608, 23.34167
1187.693, 16.90100
1188.777, 36.47424
1189.862, 15.07190
1190.946, 20.42517
1192.030, 35.19214
1193.113, 43.83472
1194.197, 13.50720
1195.281, 7.805786
1196.364, 18.88831
1197.447, 32.60059
1198.530, 20.33887
1199.613, 3.096802
1200.696, 20.86609
1201.779, 25.65625
1202.861, 34.47021
1203.944, 19.68689
1205.026, 25.13379
1206.108, 7.009155
1207.190, 11.90027
1208.271, 50.80957
1209.353, 24.75818
1210.435, 1.668335
1211.516, 7.656860
1212.597, 46.47729
1213.678, 31.47827
1214.759, 22.42505
1215.840, 10.62854
1216.920, 11.28857
1218.001, 9.804688
1219.081, 5.918579
1220.161, 8.948975
1221.241, 9.804810
1222.321, 24.35120
1223.401, 33.46375
1224.480, 10.73108
1225.560, 9.051392
1226.639, 44.17896
1227.718, 8.449829
1228.797, 4.257202
1229.876, 10.05139
1230.955, 19.61646
