##NAMES=Enstatite
##RRUFFID=R070418
##IDEAL CHEMISTRY=MgSiO_3_
##LOCALITY=India
##OWNER=RRUFF
##SOURCE=Michael Scott
##DESCRIPTION=Brown translucent fragments
##STATUS=The identification of this mineral has been confirmed by X-ray diffraction and chemical analysis
##URL=rruff.info/R070418
##MEASURED CHEMISTRY=(Mg_0.86_Fe_0.14_)_Î£=1_Si_1.00_O_3_; trace amounts of Al, Ca, Mn
##PIN_ID=L00897
##ORIENTATION=Laser parallel to b* (0 1 0). Fiducial mark perpendicular to laser is parallel to c [0 0 1]
41.80000, 0.0000000E+00
43.05200, 1.824982
44.30500, 5.4687999E-02
45.55700, 4.971924
46.80900, 17.56036
48.06100, 18.65195
49.31300, 33.77112
50.56400, 30.65878
51.81600, 38.77197
53.06700, 38.35187
54.31800, 40.15048
55.56800, 65.93048
56.81900, 67.58130
58.06900, 73.69046
59.31900, 88.76196
60.56900, 73.57224
61.81900, 90.36832
63.06900, 99.35303
64.31800, 114.9333
65.56700, 142.1298
66.81600, 145.9816
68.06500, 187.2783
69.31300, 187.0585
70.56200, 171.8444
71.81000, 171.2158
73.05800, 154.9337
74.30500, 142.8066
75.55300, 116.8356
76.80000, 121.0224
78.04800, 112.3675
79.29500, 87.87134
80.54100, 80.53293
81.78800, 58.34967
83.03400, 34.31772
84.28100, 25.43213
85.52700, 5.687836
86.77200, 0.9209290
88.01800, 14.39987
89.26300, 21.75424
90.50900, 32.98944
91.75400, 30.11340
92.99900, 35.13547
94.24300, 46.06161
95.48800, 29.89276
96.73200, 43.62881
97.97600, 23.26968
99.22000, 11.81522
100.4630, 5.265381
101.7070, 16.37982
102.9500, 72.12036
104.1930, 102.9569
105.4360, 149.8933
106.6790, 215.9359
107.9210, 238.5891
109.1640, 309.3533
110.4060, 289.7267
111.6480, 282.2079
112.8890, 276.7953
114.1310, 319.4875
115.3720, 400.2832
116.6130, 430.1815
117.8540, 435.1787
119.0950, 450.2678
120.3360, 470.4423
121.5760, 477.6954
122.8160, 539.0207
124.0560, 543.4120
125.2960, 575.8643
126.5350, 587.3745
127.7750, 618.9409
129.0140, 616.5570
130.2530, 690.2164
131.4920, 761.9148
132.7300, 748.6534
133.9690, 796.4316
135.2070, 771.2516
136.4450, 844.1108
137.6830, 904.9999
138.9210, 1010.903
140.1580, 1070.798
141.3950, 1056.673
142.6330, 1112.529
143.8690, 1168.375
145.1060, 1128.240
146.3430, 1148.160
147.5790, 1185.143
148.8150, 1141.189
150.0510, 1075.297
151.2870, 1018.468
152.5220, 964.7021
153.7580, 922.2312
154.9930, 877.3589
156.2280, 852.7812
157.4620, 824.2661
158.6970, 797.8137
159.9310, 792.4231
161.1660, 717.0950
162.4000, 759.8285
163.6330, 785.6240
164.8670, 743.4917
166.1000, 707.4462
167.3340, 669.5172
168.5670, 662.7444
169.8000, 600.1038
171.0320, 565.6001
172.2650, 581.2200
173.4970, 603.9159
174.7290, 603.6665
175.9610, 575.4717
177.1930, 559.3292
178.4240, 605.2385
179.6550, 654.2000
180.8870, 681.2134
182.1170, 771.2783
183.3480, 807.7635
184.5790, 955.5620
185.8090, 920.7805
187.0390, 1043.050
188.2690, 1117.369
189.4990, 1147.739
190.7290, 1229.374
191.9580, 1279.972
193.1870, 1253.525
194.4160, 1270.045
195.6450, 1209.533
196.8740, 1144.976
198.1020, 1154.371
199.3310, 1054.722
200.5590, 1036.031
201.7870, 947.2849
203.0140, 1059.456
204.2420, 956.6147
205.4690, 962.7123
206.6960, 922.7788
207.9230, 932.8500
209.1500, 917.8699
210.3760, 916.6052
211.6030, 977.0153
212.8290, 942.0374
214.0550, 1004.981
215.2810, 1056.801
216.5060, 1074.571
217.7320, 1119.257
218.9570, 1203.887
220.1820, 1377.617
221.4070, 1442.371
222.6320, 1691.167
223.8560, 1835.915
225.0800, 2131.799
226.3040, 2461.735
227.5280, 2822.595
228.7520, 3304.508
229.9760, 3813.302
231.1990, 4317.823
232.4220, 4981.305
233.6450, 5628.213
234.8680, 6000.975
236.0910, 6083.130
237.3130, 5995.063
238.5350, 5354.524
239.7570, 4603.394
240.9790, 3683.176
242.2010, 2937.496
243.4220, 2164.053
244.6430, 1701.965
245.8640, 1385.370
247.0850, 1172.707
248.3060, 1081.460
249.5270, 1094.416
250.7470, 1007.417
251.9670, 928.4603
253.1870, 978.5479
254.4070, 963.6780
255.6260, 939.8506
256.8460, 949.0652
258.0650, 890.3213
259.2840, 941.6193
260.5030, 944.9572
261.7220, 845.3359
262.9400, 865.7549
264.1580, 873.2134
265.3760, 879.7109
266.5940, 1030.248
267.8120, 1109.823
269.0290, 1255.437
270.2470, 1260.089
271.4640, 1326.779
272.6810, 1366.507
273.8980, 1404.272
275.1140, 1286.075
276.3310, 1178.915
277.5470, 1071.793
278.7630, 844.7078
279.9790, 680.6594
281.1940, 647.6481
282.4100, 561.6736
283.6250, 510.7358
284.8400, 552.8345
286.0550, 599.6755
287.2700, 595.8478
288.4850, 675.7549
289.6990, 765.8057
290.9130, 910.5592
292.1270, 989.0443
293.3410, 1137.705
294.5540, 1344.377
295.7680, 1359.785
296.9810, 1428.234
298.1940, 1353.030
299.4070, 1381.107
300.6200, 1361.324
301.8320, 1243.096
303.0450, 1070.730
304.2570, 1056.397
305.4690, 965.3152
306.6800, 1019.048
307.8920, 974.8140
309.1030, 960.6118
310.3150, 1145.442
311.5260, 1339.304
312.7360, 1564.198
313.9470, 1737.122
315.1580, 1916.077
316.3680, 2362.062
317.5780, 2651.076
318.7880, 2864.119
319.9980, 3022.190
321.2070, 3293.290
322.4170, 3445.417
323.6260, 3713.573
324.8350, 4009.756
326.0430, 4175.966
327.2520, 4713.204
328.4610, 5305.469
329.6690, 5771.763
330.8770, 6675.081
332.0850, 7465.426
333.2920, 8405.799
334.5000, 9469.196
335.7070, 10650.62
336.9140, 11995.07
338.1210, 12979.55
339.3280, 13808.05
340.5350, 13979.58
341.7410, 13654.13
342.9470, 12821.71
344.1540, 11480.32
345.3590, 9967.959
346.5650, 8390.624
347.7710, 7058.355
348.9760, 5909.738
350.1810, 4854.285
351.3860, 4114.724
352.5910, 3544.526
353.7950, 3133.932
355.0000, 2661.568
356.2040, 2355.075
357.4080, 2070.779
358.6120, 1862.424
359.8150, 1723.611
361.0190, 1602.747
362.2220, 1524.982
363.4250, 1486.048
364.6280, 1338.403
365.8310, 1352.524
367.0340, 1300.674
368.2360, 1304.853
369.4380, 1244.061
370.6400, 1259.297
371.8420, 1291.562
373.0440, 1418.855
374.2450, 1513.177
375.4470, 1612.528
376.6480, 1667.910
377.8490, 1824.323
379.0490, 1950.769
380.2500, 2079.249
381.4500, 2044.765
382.6510, 2135.320
383.8510, 2075.915
385.0500, 1934.548
386.2500, 1851.219
387.4500, 1672.931
388.6490, 1688.679
389.8480, 1585.465
391.0470, 1595.283
392.2460, 1561.129
393.4440, 1578.001
394.6430, 1557.899
395.8410, 1528.778
397.0390, 1509.425
398.2370, 1455.738
399.4340, 1418.733
400.6320, 1360.752
401.8290, 1268.795
403.0260, 1322.862
404.2230, 1168.953
405.4200, 1179.066
406.6170, 1045.203
407.8130, 1118.364
409.0090, 998.5464
410.2050, 1134.752
411.4010, 1140.980
412.5970, 1091.231
413.7920, 1094.504
414.9880, 1013.798
416.1830, 995.1157
417.3780, 769.4541
418.5730, 676.8142
419.7670, 508.1956
420.9620, 458.5984
422.1560, 373.0222
423.3500, 258.4668
424.5440, 274.9321
425.7380, 99.41821
426.9310, 93.92456
428.1240, 13.45093
429.3180, 47.00244
430.5110, 17.54688
431.7030, 65.88452
432.8960, 47.32178
434.0890, 79.75854
435.2810, 110.2083
436.4730, 93.68579
437.6650, 74.18408
438.8570, 67.69482
440.0480, 67.21533
441.2390, 127.7461
442.4310, 37.31470
443.6220, 77.88159
444.8120, 3.464600
446.0030, 44.96655
447.1940, 40.41528
448.3840, 4.118652
449.5740, 69.36060
450.7640, 97.85718
451.9540, 216.3706
453.1430, 154.9006
454.3330, 240.4475
455.5220, 227.0110
456.7110, 244.5906
457.9000, 260.1865
459.0890, 173.7986
460.2770, 114.4265
461.4650, 183.0703
462.6540, 167.7297
463.8420, 184.4048
465.0290, 176.0950
466.2170, 202.8005
467.4050, 229.5212
468.5920, 245.2568
469.7790, 218.0073
470.9660, 239.7725
472.1530, 189.5525
473.3390, 216.3467
474.5250, 219.1553
475.7120, 177.9780
476.8980, 139.8149
478.0840, 65.66577
479.2690, 79.45142
480.4550, 80.40918
481.6400, 108.3047
482.8250, 107.0823
484.0100, 101.9722
485.1950, 104.0720
486.3800, 83.02100
487.5640, 54.99634
488.7480, 50.98999
489.9320, 16.94971
491.1160, 1.060791
492.3000, 38.90308
493.4840, 35.86646
494.6670, 59.84351
495.8500, 69.84204
497.0330, 106.8540
498.2160, 103.6511
499.3990, 105.9968
500.5810, 104.0403
501.7630, 95.28491
502.9460, 93.48193
504.1280, 41.70752
505.3090, 28.06909
506.4910, 42.13916
507.6720, 40.65283
508.8540, 123.4553
510.0350, 165.2749
511.2160, 251.1282
512.3960, 288.0061
513.5770, 374.8970
514.7570, 529.8032
515.9380, 562.7371
517.1180, 648.6943
518.2970, 783.6733
519.4770, 757.6667
520.6570, 753.6770
521.8360, 752.6990
523.0150, 812.7446
524.1940, 812.8130
525.3730, 882.8979
526.5510, 862.0039
527.7300, 831.1201
528.9080, 878.2529
530.0860, 883.3989
531.2640, 1016.552
532.4420, 1137.712
533.6200, 1218.882
534.7970, 1415.069
535.9740, 1598.268
537.1510, 1791.478
538.3280, 1834.692
539.5050, 1793.929
540.6810, 1646.171
541.8580, 1425.421
543.0340, 1255.675
544.2100, 1157.942
545.3860, 1027.214
546.5610, 935.4912
547.7370, 931.7727
548.9120, 824.0610
550.0870, 789.3621
551.2620, 780.6675
552.4370, 705.9771
553.6120, 702.2903
554.7860, 648.6072
555.9600, 555.9272
557.1340, 581.2510
558.3080, 491.5781
559.4820, 445.9082
560.6560, 507.2432
561.8290, 447.5806
563.0020, 546.9204
564.1750, 613.2642
565.3480, 682.6125
566.5210, 692.9636
567.6930, 878.3164
568.8660, 949.6711
570.0380, 1054.028
571.2100, 1220.681
572.3820, 1221.041
573.5530, 1245.705
574.7250, 1363.263
575.8960, 1403.157
577.0670, 1320.358
578.2380, 1265.422
579.4090, 1124.512
580.5800, 983.9043
581.7500, 857.2932
582.9210, 753.4246
584.0910, 567.2070
585.2610, 562.9375
586.4300, 521.1504
587.6000, 409.5374
588.7690, 460.9268
589.9390, 426.1003
591.1080, 352.4944
592.2770, 403.8901
593.4450, 352.2883
594.6140, 255.6880
595.7820, 316.0896
596.9500, 279.4924
598.1190, 185.8970
599.2860, 168.3027
600.4540, 157.7100
601.6220, 143.1184
602.7890, 145.5415
603.9560, 147.6460
605.1230, 159.3489
606.2900, 164.7605
607.4570, 180.1726
608.6230, 186.5854
609.7890, 207.9983
610.9560, 194.4116
612.1220, 182.8247
613.2870, 211.2380
614.4530, 285.6511
615.6180, 250.0642
616.7840, 266.4768
617.9490, 245.8889
619.1140, 319.3005
620.2790, 298.8130
621.4430, 419.8010
622.6080, 401.2102
623.7720, 449.7356
624.9360, 404.1426
626.1000, 466.5486
627.2640, 523.9299
628.4270, 582.4722
629.5910, 638.3472
630.7540, 680.6138
631.9170, 746.8323
633.0800, 838.9768
634.2430, 841.7070
635.4050, 877.6389
636.5680, 1024.245
637.7300, 1063.703
638.8920, 1238.191
640.0540, 1338.520
641.2150, 1526.689
642.3770, 1735.460
643.5380, 1926.128
644.7000, 2203.297
645.8610, 2534.633
647.0210, 3010.431
648.1820, 3453.802
649.3430, 4015.735
650.5030, 4853.499
651.6630, 5819.073
652.8230, 6830.144
653.9830, 8099.688
655.1430, 9653.101
656.3020, 11241.70
657.4620, 13053.88
658.6210, 14803.35
659.7800, 16473.35
660.9390, 17625.31
662.0970, 18069.10
663.2560, 17833.66
664.4140, 17097.78
665.5720, 15836.13
666.7300, 14389.86
667.8880, 13018.10
669.0460, 12313.80
670.2030, 11826.10
671.3600, 12091.39
672.5180, 12578.44
673.6740, 13600.01
674.8310, 15131.51
675.9880, 16867.44
677.1440, 18986.71
678.3010, 21292.67
679.4570, 23443.92
680.6130, 25557.40
681.7690, 26793.63
682.9240, 27478.39
684.0800, 27021.62
685.2350, 25577.84
686.3900, 23132.04
687.5450, 19769.65
688.7000, 16859.57
689.8540, 13814.79
691.0090, 11330.96
692.1630, 9477.129
693.3170, 7701.288
694.4710, 6288.441
695.6250, 5253.586
696.7780, 4508.728
697.9320, 3718.857
699.0850, 3221.227
700.2380, 2721.341
701.3910, 2459.446
702.5440, 2221.599
703.6970, 1952.177
704.8490, 1710.259
706.0010, 1506.333
707.1530, 1354.399
708.3050, 1329.458
709.4570, 1131.509
710.6090, 1108.560
711.7600, 924.6025
712.9110, 858.6506
714.0620, 815.6997
715.2130, 782.7571
716.3640, 683.8298
717.5150, 647.9141
718.6650, 651.0059
719.8150, 571.1040
720.9650, 558.2078
722.1150, 516.3320
723.2650, 429.4561
724.4150, 500.5889
725.5640, 428.7153
726.7130, 526.8337
727.8630, 477.9438
729.0110, 388.0481
730.1600, 385.1440
731.3090, 261.2319
732.4570, 337.3113
733.6060, 283.3823
734.7540, 297.4456
735.9020, 268.5002
737.0490, 274.5469
738.1970, 151.5854
739.3440, 236.6157
740.4920, 176.6377
741.6390, 215.6516
742.7860, 225.6575
743.9320, 117.6550
745.0790, 216.6440
746.2250, 180.6252
747.3720, 176.5979
748.5180, 188.5630
749.6640, 189.5195
750.8100, 199.4678
751.9550, 182.4080
753.1010, 159.3406
754.2460, 163.2644
755.3910, 112.1804
756.5360, 90.08838
757.6810, 37.98853
758.8250, 14.87891
759.9700, 88.75537
761.1140, 35.62402
762.2580, 98.48340
763.4020, 62.33472
764.5460, 28.82202
765.6900, 0.9863280
766.8330, 37.22461
767.9760, 4.525635
769.1200, 5.740723
770.2620, 11.97510
771.4050, 61.69067
772.5480, 11.41138
773.6900, 43.86328
774.8330, 13.15845
775.9750, 11.44897
777.1170, 43.73389
778.2590, 8.029541
779.4000, 26.31738
780.5420, 39.60889
781.6830, 64.91089
782.8240, 0.2492680
783.9650, 60.60449
785.1060, 52.00684
786.2470, 11.38892
787.3870, 72.80737
788.5280, 38.27979
789.6680, 2.211426
790.8080, 6.311523
791.9480, 52.85352
793.0870, 40.43848
794.2270, 34.05933
795.3660, 6.712646
796.5060, 16.38330
797.6450, 0.9233400
798.7830, 45.78320
799.9220, 42.52661
801.0610, 20.30518
802.1990, 40.43799
803.3370, 2.057861
804.4750, 23.78833
805.6130, 15.65845
806.7510, 26.45239
807.8890, 32.55762
809.0260, 6.342285
810.1630, 32.25562
811.3000, 15.19556
812.4370, 6.152100
813.5740, 20.87891
814.7110, 57.09473
815.8470, 39.89380
816.9830, 1.122314
818.1190, 56.85352
819.2550, 24.17480
820.3910, 7.777832
821.5270, 12.72656
822.6620, 24.67114
823.7970, 7.388184
824.9330, 30.45605
826.0670, 1.455811
827.2020, 46.36353
828.3370, 39.26758
829.4710, 42.16895
830.6060, 94.06714
831.7400, 60.96265
832.8740, 1.855225
834.0080, 80.74463
835.1410, 9.367920
836.2750, 57.51343
837.4080, 20.39282
838.5410, 2.729492
839.6740, 16.85498
840.8070, 89.01172
841.9400, 54.87695
843.0730, 114.7410
844.2050, 45.60327
845.3370, 72.46460
846.4690, 83.32471
847.6010, 43.18384
848.7330, 142.0425
849.8640, 100.9001
850.9960, 60.75684
852.1270, 108.6130
853.2580, 154.4688
854.3890, 134.3237
855.5200, 210.1785
856.6500, 199.0320
857.7810, 120.8853
858.9110, 217.7380
860.0410, 168.5903
861.1710, 219.4421
862.3010, 198.2939
863.4310, 180.1453
864.5600, 143.9968
865.6900, 106.8484
866.8190, 105.1199
867.9480, 130.5518
869.0770, 99.40405
870.2050, 142.2568
871.3340, 147.1104
872.4620, 86.96460
873.5900, 115.8196
874.7180, 124.6755
875.8460, 28.53271
876.9740, 107.3911
878.1010, 119.2507
879.2290, 108.1121
880.3560, 75.97485
881.4830, 66.83936
882.6100, 161.7058
883.7370, 144.5742
884.8630, 187.4448
885.9900, 101.3176
887.1160, 144.1929
888.2420, 94.07031
889.3680, 172.9504
890.4940, 237.8330
891.6200, 127.7185
892.7450, 185.6069
893.8700, 210.3970
894.9960, 229.7141
896.1210, 212.6123
897.2460, 170.3977
898.3700, 243.3042
899.4950, 171.2139
900.6190, 185.1509
901.7430, 198.9302
902.8670, 102.3792
903.9910, 202.4011
905.1150, 217.8489
906.2390, 240.2393
907.3620, 306.1829
908.4850, 272.5933
909.6080, 226.7581
910.7310, 200.8726
911.8540, 294.1187
912.9770, 299.3606
914.0990, 398.8530
915.2210, 343.2327
916.3440, 422.8022
917.4660, 410.8064
918.5870, 589.8457
919.7090, 582.1689
920.8310, 702.1868
921.9520, 728.6484
923.0730, 849.2849
924.1940, 981.1252
925.3150, 1028.475
926.4360, 1289.365
927.5560, 1354.398
928.6770, 1595.249
929.7970, 1786.562
930.9170, 2004.601
932.0370, 2173.105
933.1570, 2535.681
934.2760, 2762.432
935.3960, 2910.431
936.5150, 3025.864
937.6340, 3110.074
938.7530, 3084.923
939.8720, 2984.299
940.9910, 2865.210
942.1090, 2820.536
943.2280, 2547.873
944.3460, 2324.454
945.4640, 2104.531
946.5820, 1953.714
947.6990, 1749.472
948.8170, 1556.908
949.9340, 1496.640
951.0520, 1440.101
952.1690, 1336.346
953.2860, 1273.846
954.4030, 1192.845
955.5190, 1049.365
956.6360, 1087.924
957.7520, 942.4958
958.8680, 1029.670
959.9840, 985.5513
961.1000, 871.1406
962.2160, 875.7783
963.3310, 901.4326
964.4470, 869.1143
965.5620, 903.8176
966.6770, 868.5344
967.7920, 965.2634
968.9060, 914.0344
970.0210, 972.5706
971.1360, 1015.378
972.2500, 947.2146
973.3640, 1045.012
974.4780, 1125.389
975.5920, 1165.280
976.7050, 1206.189
977.8190, 1377.117
978.9320, 1405.061
980.0450, 1492.019
981.1580, 1754.998
982.2710, 1918.996
983.3840, 2106.009
984.4970, 2346.038
985.6090, 2649.083
986.7210, 2914.146
987.8330, 3270.223
988.9450, 3690.315
990.0570, 4184.423
991.1690, 4910.544
992.2800, 5759.681
993.3920, 6718.833
994.5030, 7813.000
995.6140, 9213.184
996.7250, 11134.39
997.8350, 13506.61
998.9460, 15963.84
1000.056, 19388.08
1001.167, 23336.35
1002.277, 27952.63
1003.387, 33232.93
1004.496, 38927.24
1005.606, 44481.57
1006.715, 49428.92
1007.825, 52859.27
1008.934, 53780.65
1010.043, 52756.04
1011.152, 48692.44
1012.260, 43406.86
1013.369, 37661.32
1014.477, 32022.78
1015.586, 27029.26
1016.694, 23554.75
1017.802, 20492.26
1018.909, 18223.79
1020.017, 16522.33
1021.124, 15243.88
1022.232, 14037.45
1023.339, 13188.03
1024.446, 12360.63
1025.553, 11848.24
1026.659, 11044.88
1027.766, 10669.55
1028.872, 10060.22
1029.979, 9381.082
1031.085, 8986.781
1032.191, 8357.491
1033.296, 7709.220
1034.402, 7327.134
1035.507, 6694.910
1036.613, 6020.713
1037.718, 5607.537
1038.823, 5198.571
1039.928, 4733.432
1041.032, 4136.307
1042.137, 3825.198
1043.241, 3411.121
1044.346, 3203.434
1045.450, 2833.400
1046.554, 2577.396
1047.657, 2271.412
1048.761, 2119.748
1049.864, 1962.829
1050.968, 1782.934
1052.071, 1558.057
1053.174, 1451.214
1054.277, 1348.538
1055.379, 1240.728
1056.482, 1177.655
1057.584, 1032.073
1058.687, 945.6196
1059.789, 905.9292
1060.891, 843.2144
1061.992, 780.8694
1063.094, 708.2852
1064.196, 631.0149
1065.297, 544.6890
1066.398, 622.1709
1067.499, 632.3811
1068.600, 573.8535
1069.701, 493.4287
1070.801, 470.6360
1071.902, 440.9424
1073.002, 481.6265
1074.102, 400.3713
1075.202, 395.9465
1076.302, 392.5640
1077.402, 341.5532
1078.501, 302.3047
1079.600, 288.1951
1080.700, 233.9468
1081.799, 218.7458
1082.898, 192.5833
1083.996, 174.2712
1085.095, 170.0979
1086.193, 254.7905
1087.292, 177.5088
1088.390, 204.6130
1089.488, 233.5142
1090.586, 150.3916
1091.683, 154.5703
1092.781, 161.5000
1093.878, 184.2705
1094.975, 169.6082
1096.073, 163.7344
1097.169, 205.2148
1098.266, 207.0361
1099.363, 186.6978
1100.459, 112.7197
1101.556, 143.5291
1102.652, 119.3967
1103.748, 180.7002
1104.844, 180.6416
1105.940, 167.5303
1107.035, 161.0054
1108.131, 170.7676
1109.226, 147.6877
1110.321, 192.8076
1111.416, 219.6838
1112.511, 99.02100
1113.605, 177.0610
1114.700, 162.1130
1115.794, 189.1880
1116.889, 200.5188
1117.983, 212.1204
1119.077, 252.1194
1120.170, 338.0515
1121.264, 279.0835
1122.357, 224.0403
1123.451, 298.1465
1124.544, 188.1389
1125.637, 186.2388
1126.730, 166.3350
1127.823, 156.5337
1128.915, 150.2664
1130.008, 137.1021
1131.100, 140.4192
1132.192, 125.1658
1133.284, 129.0977
1134.376, 133.2361
1135.467, 120.9104
1136.559, 135.9829
1137.650, 129.0596
1138.742, 74.36206
1139.833, 16.35620
1140.924, 101.2683
1142.014, 5.526855
1143.105, 81.38892
1144.195, 50.61890
1145.286, 64.64478
1146.376, 68.78589
1147.466, 45.63892
1148.556, 52.64575
1149.646, 63.62842
1150.735, 6.494385
1151.825, 29.36426
1152.914, 60.48364
1154.003, 23.31860
1155.092, 14.30615
1156.181, 100.2766
1157.270, 119.5117
1158.358, 0.6682130
1159.447, 29.19580
1160.535, 10.79883
1161.623, 51.00586
1162.711, 30.84399
1163.799, 52.10181
1164.886, 9.108398
1165.974, 40.70337
1167.061, 6.480713
1168.148, 42.42700
1169.235, 8.806885
1170.322, 43.96997
1171.409, 76.82446
1172.496, 15.56982
1173.582, 13.30908
1174.669, 11.95825
1175.755, 28.76343
1176.841, 15.47803
1177.927, 57.18579
1179.012, 8.106445
1180.098, 9.583496
1181.183, 21.26611
1182.269, 77.94043
1183.354, 48.60718
1184.439, 1.734619
1185.524, 36.91284
1186.608, 29.44800
1187.693, 0.8337400
1188.777, 37.23071
1189.862, 16.54370
1190.946, 14.99023
1192.030, 99.45605
1193.113, 30.86304
1194.197, 2.421631
1195.281, 64.99487
1196.364, 22.71899
1197.447, 7.913086
1198.530, 69.43652
1199.613, 21.92236
1200.696, 52.75049
1201.779, 69.46729
1202.861, 14.17554
1203.944, 8.393555
1205.026, 56.62793
1206.108, 42.86816
1207.190, 29.81543
1208.271, 86.50098
1209.353, 7.581055
1210.435, 30.64746
1211.516, 22.70093
1212.597, 20.74023
1213.678, 35.23438
1214.759, 20.75171
1215.840, 33.27686
1216.920, 95.65601
1218.001, 7.424805
1219.081, 26.48413
1220.161, 34.36255
1221.241, 22.77368
1222.321, 30.05518
1223.401, 72.86890
1224.480, 9.668945
1225.560, 35.55078
1226.639, 8.813232
1227.718, 68.89453
1228.797, 5.588379
1229.876, 63.74048
1230.955, 92.87158
