##NAMES=Enstatite
##RRUFFID=R040094
##IDEAL CHEMISTRY=MgSiO_3_
##LOCALITY=unknown
##OWNER=RRUFF
##SOURCE=University of Arizona Mineral Museum
##DESCRIPTION=Dark green massive, associated with anthophyllite
##STATUS=The identification of this mineral has been confirmed by X-ray diffraction and chemical analysis
##URL=rruff.info/R040094
##MEASURED CHEMISTRY=(Mg_0.84_Fe_0.15_)(Si_0.99_Al_0.01_)O_3_; = Enstatite :  [box](Mg_0.83_Fe_0.14_Na_0.01_Ca_0.01_)_7_(Si_0.99_Al_0.01_)_8_O_22_(OH)_2_ = Anthophyllite
##PIN_ID=M00384
##ORIENTATION=Laser parallel to c* (0 0 1). Fiducial mark perpendicular to laser is parallel to a [1 0 0]
53.716, 0.000
55.122, 39.686
56.528, 8.354
57.933, 48.317
59.338, 45.388
60.743, 45.866
62.147, 61.958
63.551, 52.053
64.955, 98.534
66.359, 88.768
67.763, 64.524
69.166, 50.720
70.569, 26.328
71.972, 3.682
73.374, 13.336
74.776, 4.656
76.178, 21.663
77.580, 6.623
78.982, 66.180
80.383, 185.989
81.784, 434.034
83.185, 632.299
84.585, 504.771
85.985, 270.440
87.385, 145.294
88.785, 94.325
90.185, 77.525
91.584, 136.886
92.983, 227.405
94.382, 213.074
95.780, 268.890
97.178, 252.844
98.576, 311.927
99.974, 323.130
101.372, 373.442
102.769, 367.854
104.166, 392.362
105.563, 429.962
106.959, 528.649
108.355, 601.421
109.751, 545.277
111.147, 534.217
112.543, 530.238
113.938, 517.338
115.333, 524.516
116.728, 528.769
118.122, 517.249
119.517, 529.492
120.911, 491.957
122.304, 518.490
123.698, 490.089
125.091, 556.757
126.484, 502.494
127.877, 501.304
129.270, 500.188
130.662, 567.145
132.054, 550.171
133.446, 575.264
134.837, 590.423
136.229, 552.645
137.620, 626.921
139.011, 629.229
140.401, 702.565
141.791, 727.923
143.181, 727.295
144.571, 718.680
145.961, 713.079
147.350, 737.469
148.739, 647.847
150.128, 643.238
151.517, 578.653
152.905, 514.096
154.293, 471.566
155.681, 430.064
157.069, 413.591
158.456, 406.148
159.843, 349.736
161.230, 345.366
162.617, 361.040
164.003, 352.752
165.389, 303.505
166.775, 282.311
168.161, 276.161
169.546, 257.055
170.931, 219.982
172.316, 207.938
173.701, 259.921
175.085, 200.933
176.469, 243.972
177.853, 191.039
179.237, 201.133
180.620, 235.254
182.003, 234.402
183.386, 266.577
184.769, 291.243
186.152, 329.007
187.534, 349.262
188.916, 412.542
190.297, 446.861
191.679, 507.213
193.060, 702.605
194.441, 749.067
195.822, 737.608
197.202, 666.222
198.583, 614.919
199.963, 531.691
201.342, 502.795
202.722, 486.459
204.101, 454.400
205.480, 449.359
206.859, 457.334
208.237, 424.325
209.616, 433.331
210.994, 401.353
212.372, 428.390
213.749, 426.442
215.126, 448.510
216.504, 454.592
217.880, 420.688
219.257, 506.799
220.633, 506.340
222.009, 560.833
223.385, 637.263
224.761, 727.651
226.136, 781.953
227.511, 896.209
228.886, 1136.435
230.261, 1331.427
231.635, 1743.395
233.009, 2151.410
234.383, 2574.445
235.757, 2902.501
237.130, 2872.487
238.504, 2719.713
239.877, 2145.576
241.249, 1582.218
242.622, 1171.014
243.994, 860.308
245.366, 642.705
246.738, 572.137
248.109, 511.604
249.480, 444.103
250.851, 481.635
252.222, 496.197
253.593, 471.790
254.963, 522.412
256.333, 481.063
257.703, 477.741
259.072, 426.447
260.442, 430.179
261.811, 418.937
263.179, 422.719
264.548, 463.643
265.916, 439.474
267.284, 495.793
268.652, 569.670
270.020, 615.007
271.387, 718.190
272.754, 795.133
274.121, 885.862
275.488, 783.847
276.854, 721.734
278.221, 540.282
279.587, 410.327
280.952, 319.106
282.318, 235.439
283.683, 232.276
285.048, 241.394
286.413, 230.530
287.777, 286.683
289.141, 260.853
290.505, 310.039
291.869, 346.242
293.233, 481.461
294.596, 515.696
295.959, 632.946
297.322, 664.211
298.684, 662.491
300.047, 666.785
301.409, 604.094
302.771, 551.416
304.132, 444.752
305.494, 455.102
306.855, 535.465
308.216, 505.007
309.576, 568.546
310.937, 627.637
312.297, 680.055
313.657, 880.486
315.016, 1000.931
316.376, 1316.390
317.735, 1470.862
319.094, 1637.347
320.453, 1756.845
321.811, 1724.357
323.170, 1813.961
324.528, 1729.498
325.885, 1822.051
327.243, 1819.602
328.600, 2068.269
329.957, 2144.408
331.314, 2346.010
332.671, 2675.201
334.027, 3057.791
335.383, 3697.779
336.739, 4249.728
338.095, 4947.080
339.450, 5595.146
340.805, 5821.422
342.160, 6067.912
343.515, 5676.494
344.869, 5015.792
346.224, 4287.426
347.578, 3582.213
348.931, 2952.898
350.285, 2371.074
351.638, 1955.819
352.991, 1673.772
354.344, 1444.534
355.696, 1263.304
357.049, 1066.082
358.401, 946.867
359.753, 864.659
361.104, 817.457
362.456, 787.262
363.807, 673.072
365.158, 663.888
366.508, 586.709
367.859, 579.535
369.209, 588.366
370.559, 540.202
371.908, 599.042
373.258, 562.887
374.607, 701.737
375.956, 706.591
377.305, 752.450
378.653, 915.312
380.002, 863.179
381.350, 961.051
382.698, 814.926
384.045, 771.808
385.392, 702.698
386.740, 603.595
388.086, 526.500
389.433, 480.635
390.779, 404.335
392.126, 403.265
393.472, 336.204
394.817, 305.152
396.163, 290.110
397.508, 303.077
398.853, 252.052
400.198, 221.036
401.542, 192.033
402.886, 146.044
404.230, 141.066
405.574, 138.102
406.918, 156.145
408.261, 150.196
409.604, 132.254
410.947, 158.318
412.290, 139.388
413.632, 114.465
414.974, 152.549
416.316, 161.638
417.658, 145.733
418.999, 60.833
420.341, 93.940
421.682, 32.051
423.022, 16.168
424.363, 61.290
425.703, 6.584
427.043, 17.546
428.383, 38.320
429.723, 28.806
431.062, 16.065
432.401, 10.936
433.740, 13.194
435.079, 22.672
436.417, 26.457
437.755, 24.409
439.093, 36.281
440.431, 20.837
441.768, 20.042
443.106, 8.925
444.443, 19.808
445.779, 25.304
447.116, 11.419
448.452, 16.538
449.788, 54.660
451.124, 63.784
452.460, 41.911
453.795, 116.042
455.130, 111.178
456.465, 96.315
457.800, 106.460
459.134, 86.606
460.468, 92.754
461.802, 93.906
463.136, 117.068
464.470, 95.242
465.803, 173.417
467.136, 143.594
468.469, 177.772
469.801, 219.952
471.134, 164.139
472.466, 150.342
473.798, 162.548
475.129, 97.772
476.461, 51.001
477.792, 13.233
479.123, 15.482
480.454, 23.734
481.784, 39.995
483.115, 15.744
484.445, 9.517
485.774, 6.783
487.104, 12.948
488.433, 4.317
489.762, 21.412
491.091, 28.152
492.420, 36.901
493.748, 42.668
495.077, 32.460
496.405, 31.264
497.732, 37.090
499.060, 47.937
500.387, 34.814
501.714, 37.707
503.041, 38.627
504.367, 49.573
505.694, 38.547
507.020, 24.549
508.346, 6.565
509.671, 2.409
510.997, 32.375
512.322, 8.349
513.647, 21.319
514.972, 76.291
516.296, 22.260
517.620, 152.228
518.944, 152.193
520.268, 154.156
521.592, 188.117
522.915, 136.077
524.238, 201.035
525.561, 203.991
526.884, 209.943
528.206, 170.899
529.528, 222.851
530.850, 274.801
532.172, 335.748
533.494, 458.692
534.815, 559.633
536.136, 654.571
537.457, 861.506
538.777, 794.439
540.098, 853.367
541.418, 720.293
542.738, 587.215
544.057, 510.134
545.377, 433.625
546.696, 370.961
548.015, 348.869
549.334, 341.774
550.652, 329.674
551.970, 293.571
553.289, 322.464
554.606, 228.353
555.924, 174.238
557.241, 199.119
558.559, 195.995
559.875, 144.867
561.192, 153.735
562.509, 191.598
563.825, 224.457
565.141, 171.311
566.457, 204.160
567.772, 150.004
569.088, 192.844
570.403, 243.678
571.718, 244.508
573.032, 281.332
574.347, 317.151
575.661, 290.965
576.975, 319.774
578.288, 295.577
579.602, 301.375
580.915, 239.167
582.228, 248.954
583.541, 229.736
584.854, 203.394
586.166, 173.164
587.478, 150.464
588.790, 129.223
590.102, 130.338
591.413, 144.024
592.724, 145.765
594.035, 165.735
595.346, 176.465
596.657, 132.306
597.967, 172.501
599.277, 121.213
600.587, 142.203
601.897, 144.653
603.206, 106.619
604.515, 156.308
605.824, 161.234
607.133, 163.912
608.442, 168.583
609.750, 171.248
611.058, 227.394
612.366, 217.451
613.673, 149.098
614.981, 199.677
616.288, 203.363
617.595, 245.991
618.902, 220.136
620.208, 223.577
621.514, 273.454
622.820, 289.056
624.126, 321.713
625.432, 367.427
626.737, 321.118
628.042, 450.794
629.347, 419.168
630.652, 477.897
631.956, 482.774
633.260, 537.951
634.564, 563.131
635.868, 548.388
637.172, 647.701
638.475, 714.771
639.778, 721.398
641.081, 900.280
642.384, 931.803
643.686, 1145.141
644.988, 1196.628
646.290, 1391.211
647.592, 1690.649
648.894, 1799.528
650.195, 2105.520
651.496, 2559.380
652.797, 3090.749
654.097, 3753.855
655.398, 4527.584
656.698, 5692.584
657.998, 6875.308
659.298, 7942.904
660.597, 9177.426
661.896, 9332.311
663.196, 9266.743
664.494, 8693.436
665.793, 7677.919
667.091, 7004.817
668.389, 6300.235
669.687, 5995.359
670.985, 5913.484
672.283, 6152.795
673.580, 6645.149
674.877, 7309.439
676.174, 8560.724
677.470, 9977.997
678.767, 11425.643
680.063, 13322.903
681.359, 14470.173
682.655, 15457.418
683.950, 15275.750
685.245, 14182.979
686.540, 12740.202
687.835, 10327.418
689.130, 8664.628
690.424, 6930.833
691.718, 5580.076
693.012, 4543.262
694.306, 3605.440
695.599, 3002.610
696.893, 2489.773
698.186, 2064.928
699.478, 1799.075
700.771, 1535.215
702.063, 1362.348
703.356, 1178.473
704.647, 1043.591
705.939, 929.701
707.231, 794.804
708.522, 783.899
709.813, 679.987
711.104, 606.067
712.394, 628.140
713.685, 491.206
714.975, 511.264
716.265, 490.315
717.554, 366.358
718.844, 415.395
720.133, 350.424
721.422, 345.445
722.711, 317.459
724.000, 259.467
725.288, 265.466
726.576, 243.459
727.864, 268.444
729.152, 274.423
730.439, 223.394
731.727, 234.358
733.014, 200.315
734.300, 220.265
735.587, 215.208
736.873, 172.145
738.160, 150.074
739.446, 185.997
740.731, 123.914
742.017, 166.823
743.302, 100.733
744.587, 127.637
745.872, 111.536
747.157, 65.430
748.441, 133.317
749.725, 123.202
751.009, 128.080
752.293, 100.956
753.576, 102.833
754.860, 94.704
756.143, 65.572
757.426, 43.436
758.708, 50.297
759.991, 15.152
761.273, 94.998
762.555, 49.839
763.837, 78.674
765.118, 6.502
766.399, 8.321
767.681, 65.129
768.961, 2.068
770.242, 30.719
771.523, 46.501
772.803, 4.278
774.083, 16.957
775.363, 24.213
776.642, 51.504
777.921, 26.217
779.201, 17.096
780.480, 17.935
781.758, 6.683
783.037, 50.005
784.315, 12.635
785.593, 58.732
786.871, 0.141
788.148, 0.562
789.426, 49.994
790.703, 3.463
791.980, 15.945
793.257, 12.554
794.533, 30.952
795.809, 8.480
797.085, 6.022
798.361, 8.577
799.637, 28.140
800.912, 1.727
802.188, 32.317
803.463, 11.923
804.737, 0.532
806.012, 31.137
807.286, 33.244
808.560, 11.368
809.834, 28.018
811.108, 26.585
812.381, 22.803
813.654, 19.199
814.927, 14.396
816.200, 41.011
817.473, 19.573
818.745, 3.835
820.017, 87.245
821.289, 31.347
822.561, 47.039
823.833, 11.577
825.104, 21.796
826.375, 9.166
827.646, 23.532
828.916, 23.895
830.187, 27.255
831.457, 6.388
832.727, 63.962
833.997, 15.309
835.266, 39.653
836.536, 19.006
837.805, 59.322
839.074, 16.647
840.342, 37.970
841.611, 35.291
842.879, 13.609
844.147, 2.925
845.415, 74.237
846.682, 28.548
847.950, 55.856
849.217, 58.163
850.484, 59.468
851.751, 111.770
853.017, 84.071
854.283, 56.370
855.550, 128.668
856.815, 128.964
858.081, 83.258
859.347, 107.551
860.612, 138.842
861.877, 127.131
863.142, 90.419
864.406, 106.707
865.670, 151.992
866.935, 83.276
868.199, 100.560
869.462, 39.842
870.726, 88.123
871.989, 92.403
873.252, 26.682
874.515, 89.960
875.778, 62.243
877.040, 68.525
878.302, 126.806
879.564, 38.087
880.826, 116.370
882.088, 47.652
883.349, 50.942
884.610, 104.232
885.871, 37.522
887.132, 60.813
888.392, 121.104
889.652, 104.403
890.913, 148.705
892.172, 139.007
893.432, 129.319
894.691, 115.630
895.951, 83.942
897.210, 102.670
898.468, 148.567
899.727, 132.885
900.985, 160.204
902.243, 177.525
903.501, 174.864
904.759, 133.203
906.017, 170.558
907.274, 210.919
908.531, 149.280
909.788, 230.644
911.044, 197.017
912.301, 188.147
913.557, 237.542
914.813, 296.943
916.069, 334.345
917.324, 302.262
918.580, 361.261
919.835, 430.666
921.090, 390.132
922.345, 435.488
923.599, 558.902
924.853, 451.795
926.108, 703.386
927.361, 697.536
928.615, 791.956
929.869, 996.326
931.122, 1043.635
932.375, 1255.961
933.628, 1404.308
934.880, 1501.951
936.133, 1636.240
937.385, 1600.376
938.637, 1664.208
939.888, 1601.033
941.140, 1526.773
942.391, 1511.455
943.642, 1392.385
944.893, 1221.753
946.144, 1170.783
947.394, 985.248
948.645, 1006.889
949.895, 843.392
951.145, 816.689
952.394, 766.668
953.644, 708.751
954.893, 740.137
956.142, 676.261
957.391, 625.492
958.639, 661.028
959.888, 618.546
961.136, 623.085
962.384, 644.695
963.631, 598.225
964.879, 608.745
966.126, 575.189
967.373, 590.754
968.620, 705.917
969.867, 614.393
971.113, 662.970
972.359, 757.460
973.606, 683.045
974.851, 801.822
976.097, 897.410
977.342, 907.953
978.588, 929.556
979.833, 968.163
981.077, 1070.775
982.322, 1156.016
983.566, 1318.637
984.810, 1544.247
986.054, 1622.876
987.298, 1852.424
988.541, 2101.068
989.785, 2439.716
991.028, 2873.370
992.271, 3419.029
993.513, 3836.685
994.756, 4896.306
995.998, 5681.979
997.240, 6995.663
998.482, 8512.358
999.724, 10269.051
1000.965, 12925.747
1002.206, 15762.507
1003.447, 19209.221
1004.688, 24055.936
1005.929, 27302.662
1007.169, 30979.385
1008.409, 30686.125
1009.649, 28522.850
1010.889, 25459.598
1012.128, 20666.340
1013.368, 17203.094
1014.607, 14109.850
1015.846, 11686.611
1017.084, 10283.377
1018.323, 8660.146
1019.561, 7836.920
1020.799, 6953.702
1022.037, 6169.485
1023.274, 5855.274
1024.512, 5451.184
1025.749, 5007.986
1026.986, 4875.795
1028.223, 4383.614
1029.460, 4323.953
1030.696, 3878.774
1031.932, 3587.516
1033.168, 3435.360
1034.404, 3095.256
1035.639, 2738.297
1036.875, 2646.138
1038.110, 2294.886
1039.345, 2142.331
1040.580, 2043.186
1041.814, 1754.264
1043.048, 1684.129
1044.282, 1439.999
1045.516, 1408.911
1046.750, 1313.838
1047.983, 1113.923
1049.217, 1113.808
1050.450, 989.238
1051.683, 893.077
1052.915, 948.972
1054.148, 802.410
1055.380, 808.483
1056.612, 714.388
1057.844, 603.694
1059.075, 672.645
1060.307, 555.559
1061.538, 559.568
1062.769, 553.459
1064.000, 442.465
1065.230, 512.447
1066.461, 453.378
1067.691, 417.344
1068.921, 411.282
1070.151, 294.227
1071.380, 409.736
1072.609, 384.685
1073.838, 242.640
1075.067, 379.630
1076.296, 346.608
1077.525, 201.266
1078.753, 264.323
1079.981, 262.307
1081.209, 242.547
1082.437, 248.541
1083.664, 213.981
1084.891, 343.067
1086.118, 223.227
1087.345, 233.386
1088.572, 257.431
1089.798, 188.493
1091.024, 217.476
1092.250, 243.552
1093.476, 217.630
1094.702, 204.156
1095.927, 189.252
1097.153, 181.462
1098.378, 233.569
1099.602, 196.255
1100.827, 279.093
1102.051, 187.227
1103.275, 182.367
1104.499, 231.258
1105.723, 209.412
1106.947, 149.653
1108.170, 105.940
1109.393, 71.103
1110.616, 253.274
1111.839, 92.446
1113.061, 98.619
1114.284, 205.962
1115.506, 125.140
1116.728, 178.377
1117.949, 184.564
1119.171, 97.751
1120.392, 143.987
1121.613, 130.239
1122.834, 115.440
1124.055, 94.765
1125.275, 77.966
1126.496, 104.273
1127.716, 101.570
1128.936, 65.771
1130.155, 149.093
1131.375, 97.295
1132.594, 104.497
1133.813, 160.005
1135.032, 91.212
1136.251, 82.417
1137.469, 52.745
1138.687, 47.950
1139.905, 123.154
1141.123, 120.870
1142.341, 17.073
1143.558, 91.350
1144.775, 1.550
1145.992, 148.750
1147.209, 84.989
1148.426, 1.814
1149.642, 87.000
1150.858, 43.193
1152.074, 63.385
1153.290, 105.575
1154.506, 19.764
1155.721, 128.952
1156.936, 52.267
1158.151, 11.451
1159.366, 75.633
1160.580, 33.969
1161.795, 25.148
1163.009, 118.330
1164.223, 35.699
1165.437, 98.872
1166.650, 55.218
1167.864, 42.387
1169.077, 66.554
1170.290, 20.152
1171.502, 61.000
1172.715, 65.150
1173.927, 18.297
1175.139, 9.558
1176.351, 68.579
1177.563, 31.287
1178.775, 18.827
1179.986, 8.008
1181.197, 1.884
1182.408, 86.220
1183.619, 29.680
1184.829, 8.598
1186.039, 28.474
1187.250, 33.805
1188.459, 38.241
1189.669, 44.285
1190.879, 19.392
1192.088, 17.429
1193.297, 16.400
1194.506, 60.620
1195.715, 5.364
1196.923, 59.356
1198.131, 33.614
1199.339, 52.419
1200.547, 14.486
1201.755, 40.433
1202.962, 33.613
1204.170, 25.278
1205.377, 61.166
1206.584, 75.949
1207.790, 10.112
1208.997, 16.713
1210.203, 23.601
1211.409, 79.418
1212.615, 30.232
1213.821, 73.042
1215.026, 49.848
1216.231, 18.347
1217.437, 63.440
1218.641, 57.223
1219.846, 34.117
1221.051, 42.893
1222.255, 35.333
1223.459, 23.415
1224.663, 60.158
1225.866, 28.101
1227.070, 56.615
1228.273, 14.671
1229.476, 26.025
1230.679, 13.718
1231.882, 15.405
1233.084, 73.087
1234.286, 76.765
1235.488, 37.559
1236.690, 66.087
1237.892, 45.726
1239.093, 2.359
1240.295, 79.986
1241.496, 20.607
1242.697, 52.247
1243.897, 12.855
1245.098, 14.459
1246.298, 104.056
1247.498, 57.650
1248.698, 1.762
1249.897, 151.838
1251.097, 28.413
1252.296, 19.144
1253.495, 81.707
1254.694, 70.265
1255.893, 91.817
1257.091, 53.363
1258.289, 13.898
1259.487, 131.426
1260.685, 38.949
1261.883, 64.462
1263.080, 59.965
1264.278, 42.462
1265.475, 39.007
1266.672, 55.482
1267.868, 22.952
1269.065, 55.415
1270.261, 27.872
1271.457, 30.321
1272.653, 58.763
1273.849, 25.198
1275.044, 103.624
1276.239, 145.038
1277.434, 8.555
1278.629, 112.840
1279.824, 63.229
1281.018, 25.610
1282.213, 103.107
1283.407, 63.475
1284.601, 4.893
1285.794, 148.241
1286.988, 4.419
1288.181, 113.909
1289.374, 78.225
1290.567, 46.540
1291.760, 150.849
1292.952, 12.906
1294.145, 90.383
1295.337, 119.686
1296.529, 66.963
1297.720, 116.235
1298.912, 103.542
1300.103, 26.803
1301.294, 156.056
1302.485, 91.302
1303.676, 21.544
1304.866, 149.779
1306.057, 57.008
1307.247, 17.231
1308.437, 113.460
1309.627, 19.672
1310.816, 170.878
1312.005, 68.078
1313.195, 4.727
1314.383, 154.346
1315.572, 84.524
1316.761, 76.696
1317.949, 146.855
1319.137, 113.493
1320.325, 84.648
1321.513, 72.882
1322.701, 40.013
1323.888, 226.090
1325.075, 204.734
1326.262, 89.153
1327.449, 250.378
1328.635, 119.905
1329.822, 0.023
1331.008, 147.915
1332.194, 67.020
1333.380, 37.121
1334.565, 180.178
1335.751, 20.222
1336.936, 141.108
1338.121, 139.194
1339.306, 68.735
1340.490, 208.870
1341.675, 109.014
1342.859, 63.550
1344.043, 123.452
1345.227, 35.522
1346.411, 132.193
1347.594, 69.221
1348.777, 77.287
1349.960, 186.261
1351.143, 59.444
1352.326, 21.425
1353.508, 123.433
1354.690, 101.497
1355.873, 146.530
1357.054, 182.595
1358.236, 49.027
1359.418, 181.533
1360.599, 154.603
1361.780, 9.673
1362.961, 192.721
1364.142, 76.277
1365.322, 107.679
1366.502, 158.685
1367.682, 62.920
1368.862, 93.758
1370.042, 155.833
1371.222, 37.553
1372.401, 144.527
1373.580, 76.489
1374.759, 54.390
1375.938, 195.388
1377.116, 74.925
1378.295, 148.969
1379.473, 274.346
1380.651, 72.057
1381.829, 154.082
1383.006, 181.057
1384.184, 26.027
1385.361, 235.347
1386.538, 115.340
1387.715, 116.277
1388.891, 192.336
1390.068, 35.207
1391.244, 26.187
1392.420, 274.212
1393.596, 1.880
1394.771, 191.981
1395.947, 179.851
1397.122, 52.718
1398.297, 186.546
1399.472, 94.976
1400.647, 68.903
1401.821, 197.673
1402.995, 29.959
1404.170, 74.540
1405.343, 211.401
1406.517, 15.199
1407.691, 130.011
1408.864, 132.817
1410.037, 65.610
1411.210, 190.225
1412.383, 106.790
1413.555, 83.535
1414.728, 103.016
1415.900, 48.503
1417.072, 86.669
1418.244, 124.361
1419.415, 99.039
1420.587, 145.712
1421.758, 102.297
1422.929, 2.031
1424.100, 178.642
1425.270, 7.355
1426.441, 111.041
1427.611, 170.613
1428.781, 68.070
1429.951, 310.735
1431.120, 457.445
1432.290, 57.200
1433.459, 190.909
1434.628, 135.687
1435.797, 16.532
1436.966, 233.265
1438.134, 102.101
1439.303, 10.926
1440.471, 251.762
1441.639, 125.383
1442.806, 101.211
1443.974, 186.048
1445.141, 27.912
1446.308, 168.788
1447.475, 164.660
1448.642, 18.520
1449.809, 207.424
1450.975, 158.333
1452.141, 103.189
1453.307, 221.100
1454.473, 84.004
1455.639, 92.858
1456.804, 250.390
1457.969, 95.273
1459.134, 190.155
1460.299, 231.064
1461.464, 125.980
1462.628, 222.930
1463.793, 159.768
1464.957, 65.767
1466.121, 240.778
1467.284, 108.804
1468.448, 82.867
1469.611, 230.964
1470.774, 114.079
1471.937, 183.850
1473.100, 218.835
1474.262, 74.029
1475.425, 171.250
1476.587, 243.492
1477.749, 28.693
1478.911, 203.979
1480.072, 82.135
1481.234, 12.468
1482.395, 255.827
1483.556, 67.211
1484.717, 120.577
1485.878, 180.019
1487.038, 34.493
1488.198, 170.013
1489.358, 230.583
1490.518, 13.200
1491.678, 196.868
1492.837, 75.589
1493.997, 38.365
1495.156, 250.195
1496.315, 101.110
