##NAMES=Enstatite
##RRUFFID=R060630
##IDEAL CHEMISTRY=MgSiO_3_
##LOCALITY=unknown
##OWNER=RRUFF
##SOURCE=Gemological Institute of America
##DESCRIPTION=Tan colored fragment
##STATUS=The identification of this mineral has been confirmed by X-ray diffraction and chemical analysis
##URL=rruff.info/R060630
##MEASURED CHEMISTRY=(Mg_0.89_Fe_0.07_Al_0.04_)_Σ=1_(Si_0.96_Al_0.04_)_Σ=1_O_3_
##PIN_ID=L01844
##ORIENTATION=Laser parallel to -b* (0 -1 0). Fiducial mark perpendicular to laser is parallel to c [0 0 1]
118.1340, 0.0000000E+00
119.3650, 23.29297
120.5960, 112.1528
121.8270, 8.482422
123.0580, 133.3955
124.2880, 146.8428
125.5190, 83.24902
126.7490, 173.7339
127.9790, 246.6191
129.2090, 485.2012
130.4390, 951.2222
131.6680, 1225.638
132.8980, 1708.294
134.1270, 2421.088
135.3560, 2808.264
136.5850, 3595.954
137.8140, 4197.470
139.0430, 4812.718
140.2710, 5364.449
141.5000, 5410.249
142.7280, 5400.590
143.9560, 4777.449
145.1840, 4514.100
146.4120, 4124.644
147.6390, 3762.578
148.8670, 3565.237
150.0940, 3493.957
151.3210, 3519.102
152.5490, 3413.611
153.7750, 3182.030
155.0020, 2792.258
156.2290, 2625.459
157.4550, 2150.898
158.6810, 1690.574
159.9080, 1337.479
161.1340, 1141.607
162.3590, 878.9497
163.5850, 800.4941
164.8110, 780.2290
166.0360, 569.1445
167.2610, 510.2285
168.4860, 379.4731
169.7110, 269.8667
170.9360, 113.3843
172.1610, 206.0034
173.3850, 59.71582
174.6100, 59.52588
175.8340, 0.5605470
177.0580, 65.53516
178.2820, 162.3867
179.5050, 152.1021
180.7290, 76.67822
181.9520, 74.11816
183.1760, 21.42676
184.3990, 6.391602
185.6220, 102.6685
186.8450, 12.38916
188.0670, 23.56055
189.2900, 116.8423
190.5120, 188.2310
191.7340, 190.7734
192.9560, 299.4453
194.1780, 408.2744
195.4000, 512.2593
196.6220, 587.3906
197.8430, 680.6572
199.0640, 824.0488
200.2860, 1004.554
201.5070, 1128.046
202.7270, 1261.283
203.9480, 1383.633
205.1690, 1478.487
206.3890, 1500.407
207.6090, 1558.368
208.8290, 1564.356
210.0490, 1510.366
211.2690, 1467.378
212.4890, 1240.456
213.7080, 1271.540
214.9280, 1153.650
216.1470, 1013.790
217.3660, 1243.959
218.5850, 1175.132
219.8030, 1143.290
221.0220, 1265.357
222.2400, 1492.160
223.4590, 1676.772
224.6770, 1872.310
225.8950, 2315.752
227.1120, 2663.220
228.3300, 3162.770
229.5480, 3743.425
230.7650, 4321.207
231.9820, 5113.176
233.1990, 5940.229
234.4160, 6800.459
235.6330, 7552.874
236.8490, 7856.506
238.0660, 7958.424
239.2820, 7513.539
240.4980, 6860.828
241.7140, 5749.201
242.9300, 4581.633
244.1460, 3462.121
245.3610, 2635.635
246.5770, 1881.178
247.7920, 1524.746
249.0070, 1021.872
250.2220, 838.9668
251.4370, 544.6172
252.6510, 359.2959
253.8660, 392.0010
255.0800, 244.7354
256.2940, 202.4980
257.5080, 285.2861
258.7220, 533.1035
259.9360, 335.9482
261.1490, 236.8193
262.3630, 167.7188
263.5760, 22.64551
264.7890, 8.767578
266.0020, 131.0293
267.2150, 49.31738
268.4270, 93.43750
269.6400, 158.7803
270.8520, 216.1016
272.0640, 280.5273
273.2760, 307.6143
274.4880, 415.7637
275.7000, 475.8340
276.9120, 539.8291
278.1230, 543.7520
279.3340, 601.2939
280.5450, 618.3496
281.7560, 674.8320
282.9670, 657.2490
284.1780, 693.9482
285.3880, 719.1338
286.5980, 822.9082
287.8090, 837.9824
289.0190, 914.0049
290.2290, 964.9766
291.4380, 993.8633
292.6480, 998.6152
293.8570, 1127.071
295.0670, 1214.964
296.2760, 1338.544
297.4850, 1324.005
298.6930, 1346.284
299.9020, 1216.563
301.1110, 1222.886
302.3190, 1292.256
303.5270, 1103.673
304.7350, 987.1348
305.9430, 1050.643
307.1510, 1044.192
308.3580, 1066.787
309.5660, 1233.981
310.7730, 1386.099
311.9800, 1593.815
313.1870, 1814.572
314.3940, 2012.366
315.6010, 2319.912
316.8070, 2495.199
318.0130, 2648.578
319.2200, 3104.088
320.4260, 3266.760
321.6310, 3593.188
322.8370, 3930.756
324.0430, 4175.456
325.2480, 4358.011
326.4540, 4728.499
327.6590, 5218.346
328.8640, 5495.692
330.0680, 5949.965
331.2730, 6203.587
332.4780, 6619.482
333.6820, 7309.885
334.8860, 7747.696
336.0900, 8429.383
337.2940, 9159.697
338.4980, 9873.293
339.7010, 10976.19
340.9050, 12071.48
342.1080, 13100.02
343.3110, 13872.75
344.5140, 14700.43
345.7170, 15482.46
346.9200, 16105.14
348.1220, 16320.34
349.3240, 16393.57
350.5270, 16023.62
351.7290, 15600.22
352.9310, 14638.87
354.1320, 13789.16
355.3340, 12702.75
356.5350, 11747.14
357.7370, 10704.63
358.9380, 9991.228
360.1390, 9200.950
361.3400, 8509.545
362.5400, 7892.434
363.7410, 7212.423
364.9410, 6603.434
366.1410, 6012.178
367.3410, 5500.230
368.5410, 5070.306
369.7410, 4744.407
370.9400, 4503.530
372.1400, 4264.681
373.3390, 4156.854
374.5380, 4020.051
375.7370, 3934.271
376.9360, 3884.516
378.1350, 3877.781
379.3330, 3824.070
380.5310, 3780.379
381.7300, 3722.710
382.9280, 3748.060
384.1260, 3690.427
385.3230, 3563.943
386.5210, 3336.217
387.7180, 3245.639
388.9160, 3147.077
390.1130, 2947.534
391.3100, 2983.008
392.5060, 2907.500
393.7030, 3121.010
394.9000, 3146.538
396.0960, 3255.083
397.2920, 3269.646
398.4880, 3411.228
399.6840, 3422.824
400.8800, 3576.440
402.0750, 3571.073
403.2710, 3652.724
404.4660, 3510.392
405.6610, 3528.076
406.8560, 3474.777
408.0510, 3485.066
409.2450, 3618.206
410.4400, 3558.942
411.6340, 3732.687
412.8280, 3783.439
414.0220, 4027.199
415.2160, 4155.969
416.4100, 4014.744
417.6030, 4103.530
418.7970, 4030.324
419.9900, 3931.127
421.1830, 3638.938
422.3760, 3315.758
423.5690, 2922.588
424.7610, 2815.431
425.9540, 2190.282
427.1460, 1933.146
428.3380, 1534.022
429.5300, 1364.910
430.7220, 1019.812
431.9140, 1205.727
433.1050, 893.6553
434.2970, 909.5977
435.4880, 1072.553
436.6790, 1068.523
437.8700, 1448.511
439.0610, 1503.515
440.2510, 1858.539
441.4420, 1975.584
442.6320, 2224.649
443.8220, 2503.736
445.0120, 2486.844
446.2020, 2546.973
447.3910, 2481.121
448.5810, 2271.290
449.7700, 1955.479
450.9600, 1714.688
452.1490, 1578.917
453.3370, 1253.166
454.5260, 1229.433
455.7150, 1115.720
456.9030, 900.0254
458.0910, 844.3496
459.2800, 755.6943
460.4670, 783.0635
461.6550, 685.4531
462.8430, 621.8721
464.0300, 401.3184
465.2180, 401.8047
466.4050, 328.3438
467.5920, 223.9629
468.7790, 195.6562
469.9650, 171.4053
471.1520, 82.20703
472.3380, 101.3076
473.5250, 156.9199
474.7110, 70.84863
475.8970, 67.80664
477.0820, 21.21191
478.2680, 30.22266
479.4540, 19.76562
480.6390, 43.22949
481.8240, 67.23145
483.0090, 35.25098
484.1940, 77.14551
485.3780, 146.3223
486.5630, 40.42969
487.7470, 26.54199
488.9320, 117.3438
490.1160, 166.7559
491.3000, 66.92578
492.4830, 115.1172
493.6670, 139.3525
494.8500, 107.6455
496.0340, 196.9785
497.2170, 201.4004
498.4000, 181.9111
499.5820, 29.50195
500.7650, 280.0957
501.9480, 52.81348
503.1300, 68.53516
504.3120, 55.25488
505.4940, 89.05273
506.6760, 45.30273
507.8580, 105.1680
509.0390, 54.25391
510.2210, 105.7334
511.4020, 102.2705
512.5830, 214.8418
513.7640, 305.4502
514.9450, 273.1279
516.1250, 233.8682
517.3060, 303.9795
518.4860, 469.4443
519.6660, 427.2969
520.8460, 471.1895
522.0260, 628.1348
523.2060, 624.0928
524.3850, 519.1104
525.5650, 596.1494
526.7440, 527.2295
527.9230, 801.3564
529.1020, 844.5098
530.2810, 773.6963
531.4590, 1104.918
532.6380, 1122.207
533.8160, 1362.508
534.9940, 1552.826
536.1720, 1756.191
537.3500, 1696.565
538.5270, 1614.950
539.7050, 1602.346
540.8820, 1439.755
542.0590, 1176.213
543.2360, 1129.682
544.4130, 1003.158
545.5900, 868.6641
546.7660, 882.1777
547.9430, 843.6992
549.1190, 766.2295
550.2950, 924.7686
551.4710, 682.3174
552.6470, 682.8721
553.8220, 752.4365
554.9980, 573.0088
556.1730, 569.5898
557.3480, 446.1768
558.5230, 372.7725
559.6980, 236.3740
560.8730, 289.9854
562.0470, 289.6035
563.2220, 333.2285
564.3960, 371.9492
565.5700, 314.4990
566.7440, 449.1455
567.9170, 425.7979
569.0910, 444.4570
570.2640, 585.1230
571.4380, 373.7959
572.6110, 604.4746
573.7840, 594.1602
574.9570, 649.8506
576.1290, 816.5479
577.3020, 671.2500
578.4740, 662.9590
579.6460, 582.6729
580.8180, 455.3916
581.9900, 661.1162
583.1620, 482.8447
584.3330, 469.5791
585.5040, 368.3184
586.6760, 395.0615
587.8470, 332.8086
589.0180, 307.5605
590.1880, 326.7061
591.3590, 261.0771
592.5290, 354.8408
593.7000, 216.6084
594.8700, 220.3789
596.0400, 273.1533
597.2090, 299.9307
598.3790, 284.6709
599.5490, 279.4941
600.7180, 271.2783
601.8870, 156.0674
603.0560, 185.8564
604.2250, 172.5996
605.3940, 296.4443
606.5620, 189.2393
607.7300, 247.0371
608.8990, 218.8350
610.0670, 374.6338
611.2350, 410.4326
612.4020, 347.2324
613.5700, 357.0312
614.7370, 470.8291
615.9050, 553.6270
617.0720, 514.4238
618.2390, 543.2158
619.4060, 612.5771
620.5720, 655.3711
621.7390, 711.0547
622.9050, 933.4600
624.0710, 997.5078
625.2370, 1141.332
626.4030, 1332.981
627.5690, 1495.769
628.7340, 1787.128
629.9000, 1936.914
631.0650, 2243.201
632.2300, 2502.479
633.3950, 2699.975
634.5600, 2995.266
635.7240, 3148.867
636.8890, 3505.190
638.0530, 3608.291
639.2170, 3826.699
640.3810, 4036.889
641.5450, 4209.645
642.7080, 4442.550
643.8720, 4595.555
645.0350, 5045.495
646.1980, 5567.170
647.3610, 6216.984
648.5240, 7099.459
649.6870, 7854.984
650.8490, 9108.465
652.0120, 10105.13
653.1740, 11204.57
654.3360, 12578.88
655.4980, 13844.15
656.6600, 15206.30
657.8210, 16264.42
658.9830, 17262.27
660.1440, 17976.34
661.3050, 18575.27
662.4660, 17938.09
663.6270, 17515.79
664.7870, 17048.57
665.9480, 16247.66
667.1080, 15483.61
668.2680, 14902.35
669.4280, 14567.77
670.5880, 14817.80
671.7480, 15174.17
672.9070, 16072.16
674.0670, 17351.84
675.2260, 18768.56
676.3850, 20999.23
677.5440, 23551.02
678.7030, 26603.67
679.8610, 30242.79
681.0200, 33442.20
682.1780, 36837.93
683.3360, 39568.54
684.4940, 41846.74
685.6520, 42722.34
686.8090, 42752.89
687.9670, 40931.45
689.1240, 38260.99
690.2810, 34676.53
691.4380, 30654.05
692.5950, 26788.55
693.7520, 22938.04
694.9080, 19757.53
696.0650, 16789.99
697.2210, 14257.45
698.3770, 12210.89
699.5330, 10705.32
700.6880, 9294.732
701.8440, 8110.133
702.9990, 7286.521
704.1550, 6315.895
705.3100, 5796.256
706.4650, 5093.603
707.6190, 4714.939
708.7740, 4170.258
709.9290, 3779.566
711.0830, 3654.859
712.2370, 3214.139
713.3910, 3048.404
714.5450, 2886.656
715.6980, 2625.896
716.8520, 2339.120
718.0050, 2234.332
719.1580, 2111.527
720.3110, 2172.711
721.4640, 1945.881
722.6170, 1803.036
723.7700, 1831.178
724.9220, 1706.305
726.0740, 1640.417
727.2260, 1505.517
728.3780, 1398.601
729.5300, 1362.672
730.6810, 1338.729
731.8330, 1317.771
732.9840, 1340.800
734.1350, 1238.814
735.2860, 1220.815
736.4370, 1218.802
737.5880, 1277.774
738.7380, 1106.732
739.8880, 1019.678
741.0390, 1058.608
742.1890, 1110.524
743.3380, 1016.426
744.4880, 973.3145
745.6380, 1031.188
746.7870, 991.0488
747.9360, 824.8955
749.0850, 966.7266
750.2340, 741.5459
751.3830, 777.3506
752.5310, 851.1416
753.6800, 582.9199
754.8280, 794.6836
755.9760, 516.4336
757.1240, 648.1777
758.2720, 520.9160
759.4190, 461.6416
760.5670, 512.3652
761.7140, 441.0928
762.8610, 353.8174
764.0080, 321.5479
765.1550, 234.3018
766.3020, 269.0527
767.4480, 228.8018
768.5950, 224.5371
769.7410, 127.3008
770.8870, 117.0703
772.0330, 136.8564
773.1780, 93.66406
774.3240, 97.48828
775.4690, 63.35059
776.6140, 48.25195
777.7590, 83.18359
778.9040, 6.111328
780.0490, 2.082031
781.1940, 44.96680
782.3380, 128.0566
783.4820, 109.2334
784.6260, 127.5020
785.7700, 133.6709
786.9140, 123.3174
788.0580, 122.8623
789.2010, 46.50488
790.3450, 59.20508
791.4880, 168.9688
792.6310, 152.8555
793.7730, 71.85352
794.9160, 33.07812
796.0590, 132.0068
797.2010, 72.19141
798.3430, 118.4453
799.4850, 61.20801
800.6270, 148.1494
801.7690, 6.612305
802.9100, 76.10938
804.0520, 106.6748
805.1930, 24.32227
806.3340, 52.01172
807.4750, 62.75391
808.6160, 180.5557
809.7560, 20.52148
810.8970, 3.585938
812.0370, 109.3730
813.1770, 94.58691
814.3170, 26.53906
815.4570, 140.4805
816.5960, 7.415039
817.7360, 125.6680
818.8750, 19.16211
820.0140, 88.98145
821.1530, 46.20508
822.2920, 205.5645
823.4310, 107.3291
824.5690, 126.0869
825.7070, 191.8369
826.8460, 265.5840
827.9840, 194.3232
829.1220, 523.0566
830.2590, 421.7852
831.3970, 650.5059
832.5340, 497.2227
833.6710, 606.9336
834.8080, 695.6387
835.9450, 893.3389
837.0820, 1034.575
838.2190, 1268.726
839.3550, 1405.411
840.4910, 1590.093
841.6270, 1793.771
842.7630, 1985.445
843.8990, 2084.115
845.0350, 2351.781
846.1700, 2295.444
847.3060, 2376.104
848.4410, 2524.760
849.5760, 2576.413
850.7100, 2345.064
851.8450, 2430.712
852.9800, 2485.356
854.1140, 2145.999
855.2480, 2053.640
856.3820, 1930.279
857.5160, 2047.916
858.6500, 1784.552
859.7830, 1775.186
860.9170, 1552.817
862.0500, 1556.448
863.1830, 1509.080
864.3160, 1395.711
865.4480, 1298.342
866.5810, 1228.971
867.7130, 1170.121
868.8460, 1220.230
869.9780, 1090.859
871.1100, 1136.489
872.2410, 1098.122
873.3730, 1014.585
874.5050, 940.3867
875.6360, 884.0205
876.7670, 849.7549
877.8980, 950.2910
879.0290, 834.9277
880.1590, 807.5771
881.2900, 851.2393
882.4200, 713.9023
883.5500, 861.5693
884.6800, 479.2520
885.8100, 746.9551
886.9400, 870.6787
888.0690, 691.4062
889.1990, 785.1523
890.3280, 882.9023
891.4570, 669.6553
892.5860, 916.4541
893.7140, 988.2871
894.8430, 990.1250
895.9710, 976.9678
897.1000, 1018.812
898.2280, 932.6621
899.3560, 936.5332
900.4830, 904.4072
901.6110, 924.2881
902.7380, 914.1709
903.8660, 949.8174
904.9930, 1041.948
906.1200, 1056.844
907.2460, 1054.743
908.3730, 1145.654
909.5000, 1090.567
910.6260, 1345.487
911.7520, 1351.351
912.8780, 1284.134
914.0040, 1426.072
915.1290, 1440.402
916.2550, 1520.516
917.3800, 1525.701
918.5050, 1660.685
919.6300, 1657.860
920.7550, 1991.921
921.8800, 1980.611
923.0040, 1972.998
924.1290, 2364.438
925.2530, 2385.700
926.3770, 2680.193
927.5010, 2800.830
928.6250, 3052.535
929.7480, 3364.377
930.8720, 3455.260
931.9950, 3473.466
933.1180, 3723.486
934.2410, 4045.682
935.3640, 3816.012
936.4860, 4004.479
937.6090, 3954.900
938.7310, 4007.031
939.8530, 4014.304
940.9750, 4043.814
942.0970, 3922.672
943.2180, 3926.352
944.3400, 3744.846
945.4610, 3818.176
946.5820, 3740.822
947.7030, 3664.470
948.8240, 3528.164
949.9450, 3567.760
951.0650, 3427.494
952.1860, 3440.768
953.3060, 3324.766
954.4260, 2931.442
955.5460, 2924.258
956.6650, 2767.482
957.7850, 2468.649
958.9040, 2330.535
960.0230, 2224.443
961.1420, 2067.710
962.2610, 1880.662
963.3800, 1664.658
964.4990, 1585.677
965.6170, 1621.716
966.7350, 1452.772
967.8530, 1414.851
968.9710, 1448.948
970.0890, 1373.065
971.2070, 1318.204
972.3240, 1560.359
973.4410, 1409.536
974.5580, 1836.774
975.6750, 1547.083
976.7920, 1879.360
977.9090, 1926.657
979.0250, 2171.974
980.1410, 2458.308
981.2580, 2835.676
982.3740, 3209.062
983.4890, 3548.469
984.6050, 4146.893
985.7200, 4779.339
986.8360, 5642.801
987.9510, 6651.285
989.0660, 7690.846
990.1810, 8924.434
991.2950, 10285.86
992.4100, 11816.43
993.5240, 13592.01
994.6390, 15607.62
995.7530, 17862.24
996.8660, 20149.07
997.9800, 22813.83
999.0940, 25513.52
1000.207, 28202.28
1001.320, 31330.00
1002.433, 33617.74
1003.546, 36487.50
1004.659, 39523.62
1005.772, 41868.41
1006.884, 43836.26
1007.996, 45072.07
1009.108, 45802.91
1010.220, 45585.95
1011.332, 44345.81
1012.444, 42198.71
1013.555, 40094.96
1014.666, 36499.87
1015.777, 33536.07
1016.888, 30099.30
1017.999, 27571.38
1019.110, 25004.32
1020.220, 22424.23
1021.331, 20787.58
1022.441, 19106.26
1023.551, 17641.47
1024.661, 16726.75
1025.770, 15839.60
1026.880, 15000.62
1027.989, 14195.19
1029.098, 13557.46
1030.207, 13478.65
1031.316, 12905.17
1032.425, 12383.19
1033.533, 12086.51
1034.642, 11161.05
1035.750, 10917.24
1036.858, 9991.451
1037.966, 9207.893
1039.073, 8540.344
1040.181, 7743.402
1041.288, 7194.405
1042.396, 6444.818
1043.503, 5874.295
1044.610, 5487.082
1045.716, 4800.820
1046.823, 4467.221
1047.929, 3953.920
1049.036, 3449.444
1050.142, 3190.991
1051.248, 3131.956
1052.353, 2651.572
1053.459, 2594.168
1054.564, 2322.721
1055.670, 2101.974
1056.775, 1922.058
1057.880, 1688.167
1058.985, 1541.401
1060.089, 1353.816
1061.194, 1265.987
1062.298, 1153.611
1063.402, 1045.023
1064.506, 874.7412
1065.610, 819.3330
1066.713, 919.1875
1067.817, 672.5684
1068.920, 617.5029
1070.023, 539.2305
1071.126, 397.9912
1072.229, 454.5879
1073.332, 431.8936
1074.435, 327.7842
1075.537, 325.5498
1076.639, 179.7373
1077.741, 248.6152
1078.843, 265.3857
1079.945, 197.1807
1081.046, 251.9658
1082.148, 160.3438
1083.249, 62.67969
1084.350, 85.34668
1085.451, 222.1748
1086.551, 41.15234
1087.652, 24.86719
1088.752, 210.7852
1089.853, 26.78320
1090.953, 236.3311
1092.053, 113.6006
1093.152, 27.95117
1094.252, 47.83789
1095.351, 93.16309
1096.451, 145.5273
1097.550, 153.7549
1098.649, 143.2080
1099.748, 119.6113
1100.846, 99.59180
1101.945, 101.9219
1103.043, 29.80957
1104.141, 111.1758
1105.239, 97.93848
1106.337, 119.1777
1107.434, 3.290039
1108.532, 162.7100
1109.629, 242.1533
1110.726, 24.77734
1111.823, 97.08887
1112.920, 186.4922
1114.017, 48.96191
1115.113, 79.84277
1116.210, 180.1230
1117.306, 163.3936
1118.402, 43.07031
1119.498, 125.3193
1120.593, 182.6523
1121.689, 294.3857
1122.784, 80.60645
1123.879, 146.8135
1124.974, 123.0273
1126.069, 121.2305
1127.164, 32.44336
1128.259, 3.041992
1129.353, 6.100586
1130.447, 67.55664
1131.541, 20.00293
1132.635, 156.2471
1133.729, 123.3359
1134.822, 41.41016
1135.916, 6.529297
1137.009, 114.5117
1138.102, 42.53809
1139.195, 122.5498
1140.288, 74.54590
1141.380, 19.52637
1142.473, 77.48926
1143.565, 82.50195
1144.657, 47.56543
1145.749, 40.61035
1146.841, 14.24707
1147.932, 11.08398
1149.024, 55.09863
1150.115, 67.22852
1151.206, 65.59082
1152.297, 11.15332
1153.388, 59.20312
1154.479, 56.39062
1155.569, 42.96289
1156.659, 153.4844
1157.750, 107.0361
1158.839, 2.333008
1159.929, 68.67676
1161.019, 93.99902
1162.108, 22.43750
1163.198, 53.28223
1164.287, 80.94238
1165.376, 33.14746
1166.465, 186.5771
1167.553, 166.7373
1168.642, 72.19238
1169.730, 75.30957
1170.818, 79.42383
1171.906, 5.261719
1172.994, 100.7764
1174.082, 89.79102
1175.170, 22.78320
1176.257, 37.74805
1177.344, 3.687500
1178.431, 127.4062
1179.518, 75.60449
1180.605, 42.87988
1181.691, 26.78320
1182.778, 115.4180
1183.864, 22.97070
1184.950, 179.5879
1186.036, 61.87793
1187.122, 61.58203
1188.207, 70.01270
1189.292, 166.4160
1190.378, 137.7930
1191.463, 52.85547
1192.548, 10.57812
1193.632, 59.64746
1194.717, 169.1572
1195.801, 21.09863
1196.886, 74.09961
1197.970, 32.18750
1199.054, 24.34375
1200.137, 19.56055
1201.221, 19.26953
1202.305, 86.82031
1203.388, 6.449219
1204.471, 49.97266
1205.554, 70.52734
1206.637, 36.99414
1207.719, 1.421875
1208.802, 12.20410
1209.884, 27.89062
1210.966, 103.3525
1212.048, 221.5625
1213.130, 40.95996
1214.212, 135.0996
1215.293, 98.83594
1216.374, 25.27930
1217.456, 137.3057
1218.536, 89.29785
1219.617, 256.2559
1220.698, 4.871094
1221.778, 53.74023
1222.859, 206.5713
1223.939, 34.03125
1225.019, 45.21387
1226.099, 50.45703
1227.178, 127.0889
1228.258, 267.6855
1229.337, 94.25000
1230.417, 85.77832
1231.496, 249.5732
1232.574, 111.0332
1233.653, 355.4561
1234.732, 127.8477
1235.810, 104.7959
1236.888, 181.4443
1237.966, 83.85352
1239.044, 199.7715
1240.122, 155.9082
1241.199, 284.0088
1242.277, 5.078125
1243.354, 190.2451
1244.431, 97.22070
1245.508, 234.1592
1246.585, 448.0664
1247.661, 133.9404
1248.738, 277.7783
1249.814, 213.1006
1250.890, 18.87402
1251.966, 293.5947
1253.042, 273.2812
1254.117, 232.9355
1255.193, 63.55957
1256.268, 228.1406
1257.343, 153.6895
1258.418, 393.0156
1259.493, 161.4004
1260.567, 160.8516
1261.642, 206.2070
1262.716, 345.5967
1263.790, 265.9727
1264.864, 312.2871
1265.938, 363.2363
1267.011, 337.5000
1268.085, 305.6895
1269.158, 363.8916
1270.231, 315.0596
1271.304, 384.0234
1272.377, 228.3213
1273.450, 422.4004
1274.522, 227.1045
1275.594, 436.1328
1276.666, 350.8652
1277.738, 252.5439
1278.810, 215.3564
1279.882, 450.3047
1280.953, 356.3604
1282.025, 439.8691
1283.096, 251.0234
1284.167, 235.6426
1285.238, 409.1641
1286.308, 411.1074
1287.379, 358.8711
1288.449, 318.0625
1289.519, 333.5391
1290.589, 183.0840
1291.659, 269.2891
1292.729, 481.9688
1293.798, 332.3457
1294.868, 152.4805
1295.937, 340.9453
1297.006, 136.3809
