##NAMES=Enstatite
##RRUFFID=R060744
##IDEAL CHEMISTRY=MgSiO_3_
##LOCALITY=Orissa, India
##OWNER=RRUFF
##SOURCE=Herb Obodda
##DESCRIPTION=Brown transparent fragment
##STATUS=The identification of this mineral has been confirmed by X-ray diffraction and chemical analysis
##URL=rruff.info/R060744
##MEASURED CHEMISTRY=(Mg_0.85_Fe^2+^_0.13_Fe^3+^_0.01_Mn_0.01_)_Σ=1_(Si_0.99_Al_0.01_)_Σ=1_O_3_; trace amounts of Ca; Fe^2+^ and Fe^3+^ splitted by charge balance
##PIN_ID=L01935
##ORIENTATION=Laser parallel to -a* (-1 0 0). Fiducial mark perpendicular to laser is parallel to -b [0 -1 0]
113.2080, 0.0000000E+00
114.4400, 14.64600
115.6710, 473.1758
116.9030, 1617.174
118.1340, 3225.198
119.3650, 5214.226
120.5960, 7595.311
121.8270, 11132.40
123.0580, 15741.53
124.2880, 22244.04
125.5190, 29214.43
126.7490, 34957.09
127.9790, 36808.41
129.2090, 34031.34
130.4390, 29279.43
131.6680, 24253.43
132.8980, 19688.84
134.1270, 15242.58
135.3560, 11481.94
136.5850, 8661.760
137.8140, 6532.763
139.0430, 5067.142
140.2710, 4030.290
141.5000, 3091.087
142.7280, 2294.452
143.9560, 1602.596
145.1840, 1118.703
146.4120, 601.4844
147.6390, 366.4268
148.8670, 72.58936
150.0940, 33.91797
151.3210, 27.59326
152.5490, 92.06445
153.7750, 93.26807
155.0020, 138.8643
156.2290, 186.9336
157.4550, 152.6763
158.6810, 131.4946
159.9080, 119.2612
161.1340, 81.71777
162.3590, 118.4795
163.5850, 247.0425
164.8110, 270.8491
166.0360, 401.1587
167.2610, 371.2419
168.4860, 299.5764
169.7110, 363.3718
170.9360, 383.6577
172.1610, 411.4609
173.3850, 419.8064
174.6100, 453.7083
175.8340, 483.1638
177.0580, 485.0811
178.2820, 507.5090
179.5050, 510.2883
180.7290, 641.8826
181.9520, 711.0039
183.1760, 842.5928
184.3990, 1057.096
185.6220, 1235.286
186.8450, 1220.737
188.0670, 1214.917
189.2900, 1244.730
190.5120, 1134.748
191.7340, 1265.226
192.9560, 1100.369
194.1780, 1042.652
195.4000, 1095.984
196.6220, 1150.006
197.8430, 1122.173
199.0640, 1067.580
200.2860, 1062.969
201.5070, 968.2273
202.7270, 760.6008
203.9480, 550.1399
205.1690, 319.8269
206.3890, 193.5879
207.6090, 36.33057
208.8290, 34.03198
210.0490, 131.4736
211.2690, 126.9443
212.4890, 43.37280
213.7080, 117.7827
214.9280, 98.18140
216.1470, 107.5735
217.3660, 43.03662
218.5850, 156.6455
219.8030, 220.2485
221.0220, 485.8325
222.2400, 777.3770
223.4590, 1020.867
224.6770, 1421.298
225.8950, 1879.668
227.1120, 2425.980
228.3300, 2992.231
229.5480, 3854.419
230.7650, 4792.560
231.9820, 5326.657
233.1990, 5655.676
234.4160, 5301.459
235.6330, 4409.820
236.8490, 3657.861
238.0660, 2799.575
239.2820, 1949.079
240.4980, 1309.481
241.7140, 881.8394
242.9300, 585.1504
244.1460, 250.4138
245.3610, 35.62988
246.5770, 25.20117
247.7920, 164.0789
249.0070, 170.0037
250.2220, 162.9749
251.4370, 198.9929
252.6510, 153.1294
253.8660, 189.5757
255.0800, 130.4526
256.2940, 4.760498
257.5080, 25.47778
258.7220, 17.64258
259.9360, 41.37378
261.1490, 44.96655
262.3630, 104.7871
263.5760, 148.8691
264.7890, 186.7463
266.0020, 284.1084
267.2150, 351.7568
268.4270, 326.5667
269.6400, 369.4351
270.8520, 353.2319
272.0640, 345.8699
273.2760, 215.3325
274.4880, 134.6016
275.7000, 136.6631
276.9120, 43.51562
278.1230, 64.13452
279.3340, 49.32275
280.5450, 87.95386
281.7560, 121.9246
282.9670, 145.3757
284.1780, 318.5020
285.3880, 433.4075
286.5980, 541.0850
287.8090, 751.5474
289.0190, 894.8086
290.2290, 946.8784
291.4380, 1218.765
292.6480, 1328.474
293.8570, 1517.990
295.0670, 1530.296
296.2760, 1591.384
297.4850, 1488.818
298.6930, 1487.604
299.9020, 1432.044
301.1110, 1385.282
302.3190, 1331.990
303.5270, 1343.129
304.7350, 1305.643
305.9430, 1426.500
307.1510, 1473.039
308.3580, 1607.243
309.5660, 1822.856
310.7730, 1963.875
311.9800, 2231.592
313.1870, 2628.161
314.3940, 2899.642
315.6010, 3358.037
316.8070, 3985.349
318.0130, 4462.578
319.2200, 5348.728
320.4260, 6259.800
321.6310, 7398.795
322.8370, 8845.715
324.0430, 10545.56
325.2480, 12642.21
326.4540, 15163.47
327.6590, 18282.25
328.8640, 22052.59
330.0680, 26721.50
331.2730, 32160.16
332.4780, 37732.61
333.6820, 43855.93
334.8860, 49802.15
336.0900, 54671.36
337.2940, 56356.45
338.4980, 56074.77
339.7010, 53657.99
340.9050, 49131.94
342.1080, 43737.62
343.3110, 37387.73
344.5140, 31968.16
345.7170, 26779.59
346.9200, 22457.63
348.1220, 19196.33
349.3240, 16203.59
350.5270, 13968.62
351.7290, 12237.30
352.9310, 10721.92
354.1320, 9428.195
355.3340, 8414.078
356.5350, 7478.697
357.7370, 6793.141
358.9380, 6038.281
360.1390, 5663.200
361.3400, 5202.446
362.5400, 4757.198
363.7410, 4500.432
364.9410, 4160.372
366.1410, 3959.496
367.3410, 3839.077
368.5410, 3666.625
369.7410, 3509.140
370.9400, 3546.623
372.1400, 3426.074
373.3390, 3440.493
374.5380, 3289.883
375.7370, 3339.240
376.9360, 3310.568
378.1350, 3329.865
379.3330, 3458.134
380.5310, 3401.375
381.7300, 3556.591
382.9280, 3797.782
384.1260, 4114.950
385.3230, 4536.097
386.5210, 5129.219
387.7180, 5748.209
388.9160, 6500.521
390.1130, 7211.998
391.3100, 8245.881
392.5060, 9106.090
393.7030, 9845.969
394.9000, 10481.34
396.0960, 10917.25
397.2920, 11223.95
398.4880, 11375.40
399.6840, 11378.01
400.8800, 11198.59
402.0750, 10913.94
403.2710, 10364.07
404.4660, 9910.410
405.6610, 9533.653
406.8560, 9116.432
408.0510, 8701.244
409.2450, 8220.846
410.4400, 7759.132
411.6340, 7596.091
412.8280, 6977.597
414.0220, 6643.426
415.2160, 6357.941
416.4100, 5909.204
417.6030, 5622.055
418.7970, 5421.464
419.9900, 4993.732
421.1830, 4652.060
422.3760, 4507.150
423.5690, 4236.364
424.7610, 4101.100
425.9540, 4226.970
427.1460, 4445.493
428.3380, 4835.949
429.5300, 5397.776
430.7220, 6026.351
431.9140, 6753.733
433.1050, 7744.106
434.2970, 8740.433
435.4880, 9687.714
436.6790, 9803.947
437.8700, 9486.138
439.0610, 8591.283
440.2510, 7476.383
441.4420, 6292.451
442.6320, 5008.496
443.8220, 4011.521
445.0120, 3180.535
446.2020, 2654.548
447.3910, 2242.557
448.5810, 1915.557
449.7700, 1605.548
450.9600, 1531.528
452.1490, 1388.477
453.3370, 1244.399
454.5260, 1115.297
455.7150, 1028.688
456.9030, 956.0232
458.0910, 907.8530
459.2800, 886.6609
460.4670, 889.4480
461.6550, 857.2139
462.8430, 776.9595
464.0300, 734.6851
465.2180, 669.3914
466.4050, 618.0781
467.5920, 571.7458
468.7790, 600.3960
469.9650, 537.0300
471.1520, 376.6501
472.3380, 215.2581
473.5250, 192.8557
474.7110, 184.4451
475.8970, 102.0264
477.0820, 91.59985
478.2680, 79.16675
479.4540, 85.72607
480.6390, 16.27954
481.8240, 5.824219
483.0090, 25.36035
484.1940, 38.89014
485.3780, 20.58057
486.5630, 26.93774
487.7470, 8.998291
488.9320, 96.03711
490.1160, 15.56567
491.3000, 9.086182
492.4830, 84.59912
493.6670, 52.13062
494.8500, 101.6560
496.0340, 83.16870
497.2170, 77.64087
498.4000, 87.03784
499.5820, 146.3699
500.7650, 152.6816
501.9480, 145.9580
503.1300, 129.2039
504.3120, 101.4106
505.4940, 75.59424
506.6760, 5.766357
507.8580, 42.92017
509.0390, 78.93018
510.2210, 78.79858
511.4020, 162.6777
512.5830, 276.7959
513.7640, 441.5269
514.9450, 498.4961
516.1250, 619.4998
517.3060, 695.5310
518.4860, 808.5852
519.6660, 875.6719
520.8460, 1044.769
522.0260, 1031.881
523.2060, 1055.016
524.3850, 1016.176
525.5650, 1009.356
526.7440, 1190.560
527.9230, 1123.784
529.1020, 1354.031
530.2810, 1501.296
531.4590, 1689.590
532.6380, 2032.945
533.8160, 2236.375
534.9940, 2375.918
536.1720, 2343.569
537.3500, 2190.324
538.5270, 1910.188
539.7050, 1816.159
540.8820, 1567.236
542.0590, 1440.417
543.2360, 1347.665
544.4130, 1288.976
545.5900, 1236.346
546.7660, 1218.763
547.9430, 1138.235
549.1190, 1130.745
550.2950, 852.2878
551.4710, 749.8604
552.6470, 616.4514
553.8220, 523.0601
554.9980, 441.6855
556.1730, 356.3333
557.3480, 334.9980
558.5230, 282.6809
559.6980, 239.4036
560.8730, 186.1663
562.0470, 195.9688
563.2220, 166.8293
564.3960, 130.7437
565.5700, 167.7161
566.7440, 94.73975
567.9170, 94.80957
569.0910, 230.9226
570.2640, 174.0618
571.4380, 202.2207
572.6110, 161.3960
573.7840, 213.5840
574.9570, 205.7847
576.1290, 166.9985
577.3020, 134.2249
578.4740, 209.4648
579.6460, 184.7180
580.8180, 208.9849
581.9900, 270.2651
583.1620, 191.5596
584.3330, 200.8677
585.5040, 239.1899
586.6760, 233.5259
587.8470, 207.8760
589.0180, 196.2402
590.1880, 224.6182
591.3590, 226.0100
592.5290, 90.41602
593.7000, 130.8359
594.8700, 172.2703
596.0400, 257.7185
597.2090, 194.1812
598.3790, 199.6584
599.5490, 188.1501
600.7180, 162.6565
601.8870, 199.1772
603.0560, 174.2317
604.2250, 167.2629
605.3940, 152.8281
606.5620, 133.4080
607.7300, 104.0029
608.8990, 191.6128
610.0670, 240.2380
611.2350, 232.8782
612.4020, 292.5334
613.5700, 182.2041
614.7370, 300.8896
615.9050, 292.5903
617.0720, 369.2979
618.2390, 383.9924
619.4060, 491.6655
620.5720, 534.3965
621.7390, 653.8677
622.9050, 687.3127
624.0710, 718.8828
625.2370, 854.2441
626.4030, 921.3276
627.5690, 1076.995
628.7340, 1139.619
629.9000, 1199.627
631.0650, 1257.442
632.2300, 1399.477
633.3950, 1518.666
634.5600, 1754.027
635.7240, 1962.671
636.8890, 2264.204
638.0530, 2513.784
639.2170, 2833.915
640.3810, 3185.155
641.5450, 3820.729
642.7080, 4399.087
643.8720, 5023.899
645.0350, 5908.245
646.1980, 7062.097
647.3610, 8341.182
648.5240, 9943.380
649.6870, 12143.96
650.8490, 14733.87
652.0120, 17704.36
653.1740, 21421.43
654.3360, 25322.83
655.4980, 29766.06
656.6600, 34411.74
657.8210, 37929.31
658.9830, 39518.98
660.1440, 39764.56
661.3050, 38119.06
662.4660, 34925.46
663.6270, 31805.40
664.7870, 28629.91
665.9480, 26020.46
667.1080, 24552.15
668.2680, 23327.44
669.4280, 23517.37
670.5880, 24624.84
671.7480, 26498.58
672.9070, 29427.54
674.0670, 32779.22
675.2260, 37475.84
676.3850, 41720.70
677.5440, 46307.06
678.7030, 49752.20
679.8610, 51917.67
681.0200, 51783.78
682.1780, 49640.12
683.3360, 45267.52
684.4940, 39712.74
685.6520, 34276.17
686.8090, 28622.76
687.9670, 23720.72
689.1240, 19653.61
690.2810, 16176.57
691.4380, 13267.96
692.5950, 11100.68
693.7520, 9352.077
694.9080, 8028.651
696.0650, 6890.044
697.2210, 5933.438
698.3770, 5252.088
699.5330, 4729.481
700.6880, 4174.873
701.8440, 3784.264
702.9990, 3423.654
704.1550, 3028.042
705.3100, 2792.430
706.4650, 2456.815
707.6190, 2338.198
708.7740, 2092.579
709.9290, 1894.957
711.0830, 1694.333
712.2370, 1626.706
713.3910, 1540.076
714.5450, 1394.444
715.6980, 1237.809
716.8520, 1265.171
718.0050, 1105.530
719.1580, 1030.887
720.3110, 1021.240
721.4640, 967.5903
722.6170, 853.9370
723.7700, 874.2805
724.9220, 803.6211
726.0740, 750.9578
727.2260, 660.2915
728.3780, 738.6213
729.5300, 694.9482
730.6810, 704.2710
731.8330, 710.5898
732.9840, 634.9053
734.1350, 568.2170
735.2860, 644.5249
736.4370, 543.8289
737.5880, 564.1287
738.7380, 549.4243
739.8880, 486.7163
741.0390, 487.0037
742.1890, 549.2871
743.3380, 496.5662
744.4880, 522.8408
745.6380, 475.1113
746.7870, 477.3772
747.9360, 446.6384
749.0850, 532.8950
750.2340, 468.1472
751.3830, 480.3948
752.5310, 373.6375
753.6800, 305.8755
754.8280, 243.1086
755.9760, 195.3369
757.1240, 142.5605
758.2720, 134.7795
759.4190, 190.9939
760.5670, 118.2046
761.7140, 104.4121
762.8610, 2.384521
764.0080, 70.80566
765.1550, 81.99512
766.3020, 69.17993
767.4480, 62.36084
768.5950, 48.44482
769.7410, 33.28467
770.8870, 6.847900
772.0330, 77.98535
773.1780, 29.12524
774.3240, 27.27905
775.4690, 8.559082
776.6140, 13.59790
777.7590, 19.23853
778.9040, 13.06836
780.0490, 0.1130370
781.1940, 18.30981
782.3380, 19.47583
783.4820, 6.268066
784.6260, 11.93384
785.7700, 24.87207
786.9140, 45.69946
788.0580, 18.56421
789.2010, 91.45312
790.3450, 84.40405
791.4880, 89.41284
792.6310, 102.5435
793.7730, 77.62158
794.9160, 59.81470
796.0590, 93.05322
797.2010, 11.35449
798.3430, 26.67578
799.4850, 57.02441
800.6270, 65.41675
801.7690, 42.85669
802.9100, 59.43433
804.0520, 45.79932
805.1930, 55.40918
806.3340, 34.00806
807.4750, 26.63696
808.6160, 31.29248
809.7560, 34.97607
810.8970, 30.69019
812.0370, 12.43140
813.1770, 0.8090820
814.3170, 17.03760
815.4570, 22.73926
816.5960, 9.461426
817.7360, 39.34497
818.8750, 27.18213
820.0140, 11.95703
821.1530, 25.90942
822.2920, 9.201172
823.4310, 32.69409
824.5690, 3.614990
825.7070, 2.546875
826.8460, 4.489502
827.9840, 24.55664
829.1220, 0.4003910
830.2590, 52.63379
831.3970, 17.33569
832.5340, 53.67896
833.6710, 67.69043
834.8080, 38.30151
835.9450, 43.68188
837.0820, 55.66235
838.2190, 138.6396
839.3550, 201.6147
840.4910, 220.5867
841.6270, 247.5559
842.7630, 288.5227
843.8990, 378.5051
845.0350, 476.4492
846.1700, 599.4092
847.3060, 712.3672
848.4410, 843.3235
849.5760, 1223.278
850.7100, 1395.230
851.8450, 1763.182
852.9800, 2005.132
854.1140, 2353.081
855.2480, 2729.029
856.3820, 3020.975
857.5160, 3034.921
858.6500, 3145.866
859.7830, 3088.811
860.9170, 2909.755
862.0500, 2840.698
863.1830, 2658.641
864.3160, 2530.584
865.4480, 2166.527
866.5810, 1917.471
867.7130, 1637.414
868.8460, 1442.357
869.9780, 1363.301
871.1100, 1207.245
872.2410, 1009.190
873.3730, 939.1357
874.5050, 823.0818
875.6360, 642.0291
876.7670, 545.9773
877.8980, 556.9265
879.0290, 498.8770
880.1590, 459.8291
881.2900, 382.7822
882.4200, 348.7373
883.5500, 340.9309
884.6800, 324.6521
885.8100, 349.6123
886.9400, 337.5742
888.0690, 341.1226
889.1990, 272.5046
890.3280, 308.4731
891.4570, 258.4441
892.5860, 279.4177
893.7140, 252.3938
894.8430, 225.3723
895.9710, 290.3540
897.1000, 199.3384
898.2280, 261.3259
899.3560, 268.6118
900.4830, 215.6057
901.6110, 255.6030
902.7380, 139.6035
903.8660, 162.6077
904.9930, 146.1260
906.1200, 179.5913
907.2460, 163.3267
908.3730, 178.3469
909.5000, 233.3713
910.6260, 188.4004
911.7520, 156.3184
912.8780, 85.28271
914.0040, 208.6047
915.1290, 141.2722
916.2550, 206.6548
917.3800, 194.7075
918.5050, 266.9983
919.6300, 321.0261
920.7550, 278.9392
921.8800, 306.8799
923.0040, 473.5110
924.1290, 525.8552
925.2530, 537.6357
926.3770, 591.8613
927.5010, 589.7783
928.6250, 642.8818
929.7480, 774.5591
930.8720, 811.3750
931.9950, 880.1245
933.1180, 994.9995
934.2410, 1003.992
935.3640, 1041.106
936.4860, 1095.718
937.6090, 1081.778
938.7310, 1173.829
939.8530, 1232.763
940.9750, 1143.144
942.0970, 1032.907
943.2180, 1005.183
944.3400, 956.1997
945.4610, 937.0217
946.5820, 946.1594
947.7030, 900.3882
948.8240, 818.3782
949.9450, 816.9106
951.0650, 713.6909
952.1860, 646.1660
953.3060, 594.0342
954.4260, 595.7046
955.5460, 534.3423
956.6650, 485.1641
957.7850, 529.8054
958.9040, 565.3262
960.0230, 498.4883
961.1420, 460.7554
962.2610, 430.9731
963.3800, 339.7966
964.4990, 398.3096
965.6170, 345.1694
966.7350, 444.8643
967.8530, 351.7585
968.9710, 342.6792
970.0890, 412.3572
971.2070, 380.3118
972.3240, 437.2947
973.4410, 338.2949
974.5580, 489.3118
975.6750, 507.3452
976.7920, 558.3953
977.9090, 476.4634
979.0250, 564.5571
980.1410, 679.6760
981.2580, 771.8235
982.3740, 888.9944
983.4890, 993.1921
984.6050, 1071.420
985.7200, 1314.678
986.8360, 1530.954
987.9510, 1733.249
989.0660, 2127.561
990.1810, 2351.894
991.2950, 2815.244
992.4100, 3350.618
993.5240, 4031.019
994.6390, 4658.436
995.7530, 5393.872
996.8660, 6228.325
997.9800, 7053.796
999.0940, 7954.284
1000.207, 9021.790
1001.320, 10222.32
1002.433, 11186.86
1003.546, 12474.42
1004.659, 13530.00
1005.772, 14543.60
1006.884, 15328.21
1007.996, 15727.84
1009.108, 15619.49
1010.220, 15744.15
1011.332, 15528.83
1012.444, 15491.52
1013.555, 15354.23
1014.666, 15188.96
1015.777, 15172.71
1016.888, 15004.47
1017.999, 14966.25
1019.110, 14815.04
1020.220, 14466.85
1021.331, 14140.68
1022.441, 13591.53
1023.551, 13174.39
1024.661, 12658.27
1025.770, 12287.16
1026.880, 11631.07
1027.989, 11175.00
1029.098, 10387.94
1030.207, 9727.897
1031.316, 8936.872
1032.425, 8149.862
1033.533, 7288.874
1034.642, 6458.901
1035.750, 5808.943
1036.858, 5127.655
1037.966, 4629.078
1039.073, 4033.185
1040.181, 3607.320
1041.288, 3237.472
1042.396, 2957.642
1043.503, 2630.203
1044.610, 2258.026
1045.716, 2133.247
1046.823, 1877.485
1047.929, 1722.747
1049.036, 1476.032
1050.142, 1273.335
1051.248, 1215.655
1052.353, 1237.000
1053.459, 1063.364
1054.564, 943.7451
1055.670, 948.2090
1056.775, 858.9739
1057.880, 741.7461
1058.985, 728.2500
1060.089, 664.0767
1061.194, 551.0542
1062.298, 559.7300
1063.402, 567.2654
1064.506, 584.0005
1065.610, 445.8477
1066.713, 515.3672
1067.817, 381.0217
1068.920, 432.3291
1070.023, 361.4177
1071.126, 404.0295
1072.229, 399.1575
1073.332, 343.4517
1074.435, 339.5701
1075.537, 295.2268
1076.639, 316.4214
1077.741, 408.2402
1078.843, 313.2808
1079.945, 340.7104
1081.046, 307.4128
1082.148, 249.7644
1083.249, 292.2590
1084.350, 197.6667
1085.451, 298.3467
1086.551, 230.1340
1087.652, 376.6760
1088.752, 323.0400
1089.853, 239.7852
1090.953, 260.8970
1092.053, 330.5930
1093.152, 313.0332
1094.252, 254.8887
1095.351, 296.9102
1096.451, 261.9819
1097.550, 333.7434
1098.649, 244.3718
1099.748, 377.0847
1100.846, 290.8684
1101.945, 311.2861
1103.043, 352.1602
1104.141, 373.2151
1105.239, 343.8657
1106.337, 348.4172
1107.434, 350.9124
1108.532, 313.3760
1109.629, 320.2715
1110.726, 336.6816
1111.823, 306.0815
1112.920, 346.2266
1114.017, 504.1724
1115.113, 464.9700
1116.210, 502.6008
1117.306, 621.1035
1118.402, 639.9209
1119.498, 767.7078
1120.593, 777.4358
1121.689, 923.7241
1122.784, 1037.312
1123.879, 918.5051
1124.974, 750.0171
1126.069, 597.7974
1127.164, 505.3357
1128.259, 397.1008
1129.353, 369.6401
1130.447, 328.1987
1131.541, 405.3398
1132.635, 377.9282
1133.729, 287.2375
1134.822, 316.8259
1135.916, 280.2239
1137.009, 220.8447
1138.102, 244.2578
1139.195, 232.6516
1140.288, 193.0432
1141.380, 273.4326
1142.473, 224.8713
1143.565, 213.2776
1144.657, 170.7053
1145.749, 211.1255
1146.841, 147.5586
1147.932, 142.9326
1149.024, 189.3501
1150.115, 145.7175
1151.206, 160.2517
1152.297, 198.6118
1153.388, 148.9683
1154.479, 145.4055
1155.569, 229.7534
1156.659, 157.0972
1157.750, 168.4363
1158.839, 149.7705
1159.929, 155.1626
1161.019, 205.4875
1162.108, 183.9050
1163.198, 209.2412
1164.287, 185.5278
1165.376, 217.8311
1166.465, 189.1282
1167.553, 163.4192
1168.642, 94.70410
1169.730, 235.9829
1170.818, 72.25439
1171.906, 167.5195
1172.994, 126.7776
1174.082, 189.0283
1175.170, 95.27197
1176.257, 98.50781
1177.344, 70.73633
1178.431, 92.95679
1179.518, 156.1692
1180.605, 113.3733
1181.691, 112.5688
1182.778, 110.7559
1183.864, 35.93384
1184.950, 24.10327
1186.036, 12.31494
1187.122, 44.53540
1188.207, 43.41699
1189.292, 32.68921
1190.378, 5.233887
1191.463, 8.170410
1192.548, 27.87744
1193.632, 32.08618
1194.717, 17.96484
1195.801, 97.90991
1196.886, 59.67700
1197.970, 28.80151
1199.054, 5.956055
1200.137, 33.12891
1201.221, 24.33521
1202.305, 5.429443
1203.388, 80.54443
1204.471, 28.73926
1205.554, 68.08325
1206.637, 21.51831
1207.719, 4.847412
1208.802, 39.17847
1209.884, 3.573730
1210.966, 31.81641
1212.048, 25.35107
1213.130, 6.079102
1214.212, 24.50757
1215.293, 43.96777
1216.374, 60.63940
1217.456, 12.64258
1218.536, 43.89673
1219.617, 7.133545
1220.698, 46.65088
1221.778, 11.51489
1222.859, 34.33984
1223.939, 40.23950
1225.019, 42.18701
1226.099, 5.816650
1227.178, 15.79541
1228.258, 26.75293
1229.337, 21.77319
1230.417, 19.25366
1231.496, 76.62476
1232.574, 17.48535
1233.653, 21.67627
1234.732, 37.12061
1235.810, 56.89795
1236.888, 72.65576
1237.966, 82.39502
1239.044, 23.11621
1240.122, 8.185547
1241.199, 7.523438
1242.277, 18.89722
1243.354, 0.6867680
1244.431, 12.42651
1245.508, 25.24927
1246.585, 22.78369
1247.661, 36.63647
1248.738, 40.03467
1249.814, 47.41187
1250.890, 17.76782
1251.966, 74.13721
1253.042, 0.4470210
1254.117, 4.277588
1255.193, 45.96069
1256.268, 90.17676
1257.343, 49.37305
1258.418, 91.54785
1259.493, 87.70312
1260.567, 27.83862
1261.642, 81.94946
1262.716, 23.04004
1263.790, 83.10376
1264.864, 132.1470
1265.938, 76.17139
1267.011, 126.2122
1268.085, 137.2783
1269.158, 162.2441
1270.231, 155.6621
1271.304, 121.1194
1272.377, 129.0400
1273.450, 123.9417
1274.522, 125.8337
1275.594, 122.8247
1276.666, 155.6821
1277.738, 126.5205
1278.810, 164.3394
1279.882, 98.13916
1280.953, 163.9333
1282.025, 170.6934
1283.096, 120.4341
1284.167, 203.1553
1285.238, 194.8569
1286.308, 216.5398
1287.379, 163.2034
1288.449, 128.8479
