##NAMES=Enstatite
##RRUFFID=R060630
##IDEAL CHEMISTRY=MgSiO_3_
##LOCALITY=unknown
##OWNER=RRUFF
##SOURCE=Gemological Institute of America
##DESCRIPTION=Tan colored fragment
##STATUS=The identification of this mineral has been confirmed by X-ray diffraction and chemical analysis
##URL=rruff.info/R060630
##MEASURED CHEMISTRY=(Mg_0.89_Fe_0.07_Al_0.04_)_Σ=1_(Si_0.96_Al_0.04_)_Σ=1_O_3_
##PIN_ID=L01005
##ORIENTATION=Laser parallel to c* (0 0 1). Fiducial mark perpendicular to laser is parallel to a [1 0 0]
118.1340, 0.0000000E+00
119.3650, 21.61816
120.5960, 21.10840
121.8270, 247.7461
123.0580, 437.8359
124.2880, 253.5684
125.5190, 7.528320
126.7490, 71.14746
127.9790, 48.06836
129.2090, 180.5752
130.4390, 275.7676
131.6680, 297.1846
132.8980, 220.5361
134.1270, 349.5811
135.3560, 214.1162
136.5850, 463.9932
137.8140, 531.3730
139.0430, 882.2393
140.2710, 743.3477
141.5000, 681.5029
142.7280, 588.5605
143.9560, 578.4043
145.1840, 740.9404
146.4120, 890.0967
147.6390, 968.8174
148.8670, 1063.053
150.0940, 1113.764
151.3210, 1604.918
152.5490, 1548.489
153.7750, 1476.452
155.0020, 1496.265
156.2290, 1331.566
157.4550, 1205.631
158.6810, 1305.701
159.9080, 1121.702
161.1340, 1152.651
162.3590, 1278.572
163.5850, 1343.477
164.8110, 1425.384
166.0360, 1477.303
167.2610, 1236.251
168.4860, 1272.235
169.7110, 1097.268
170.9360, 1051.356
172.1610, 795.5127
173.3850, 708.7471
174.6100, 604.0674
175.8340, 569.4795
177.0580, 526.9873
178.2820, 540.5947
179.5050, 568.3047
180.7290, 555.1211
181.9520, 672.0469
183.1760, 744.0830
184.3990, 816.2334
185.6220, 1086.501
186.8450, 1322.886
188.0670, 1457.390
189.2900, 1767.013
190.5120, 2284.363
191.7340, 2321.020
192.9560, 2814.801
194.1780, 3281.396
195.4000, 3523.518
196.6220, 3884.729
197.8430, 4165.593
199.0640, 4141.554
200.2860, 4447.623
201.5070, 4525.801
202.7270, 4352.093
203.9480, 3716.502
205.1690, 3345.029
206.3890, 2897.676
207.6090, 2666.443
208.8290, 2199.334
210.0490, 2110.348
211.2690, 1760.482
212.4890, 1606.737
213.7080, 1525.113
214.9280, 1346.611
216.1470, 1222.226
217.3660, 1210.960
218.5850, 1131.812
219.8030, 1257.780
221.0220, 1374.866
222.2400, 1549.074
223.4590, 1643.417
224.6770, 1806.910
225.8950, 2131.541
227.1120, 2407.319
228.3300, 2732.278
229.5480, 3359.363
230.7650, 3693.551
231.9820, 4324.849
233.1990, 4835.250
234.4160, 5460.757
235.6330, 5863.367
236.8490, 6742.086
238.0660, 7027.909
239.2820, 7306.837
240.4980, 7178.871
241.7140, 6775.018
242.9300, 6037.268
244.1460, 5022.621
245.3610, 3995.078
246.5770, 3252.639
247.7920, 2480.301
249.0070, 1901.065
250.2220, 1375.932
251.4370, 990.8994
252.6510, 814.9697
253.8660, 646.1406
255.0800, 455.4102
256.2940, 278.7822
257.5080, 723.2529
258.7220, 373.8623
259.9360, 1049.492
261.1490, 172.2617
262.3630, 118.8740
263.5760, 78.92773
264.7890, 105.5947
266.0020, 255.8516
267.2150, 271.3418
268.4270, 272.5303
269.6400, 290.7646
270.8520, 255.9717
272.0640, 168.4932
273.2760, 96.57422
274.4880, 92.83105
275.7000, 63.48047
276.9120, 210.3076
278.1230, 256.3027
279.3340, 174.4570
280.5450, 282.7607
281.7560, 370.2090
282.9670, 495.7959
284.1780, 560.5137
285.3880, 796.3545
286.5980, 796.3145
287.8090, 1005.387
289.0190, 1069.570
290.2290, 1033.858
291.4380, 1029.250
292.6480, 1139.742
293.8570, 1293.331
295.0670, 1165.017
296.2760, 1380.795
297.4850, 1468.665
298.6930, 1503.624
299.9020, 1687.671
301.1110, 1809.803
302.3190, 1444.007
303.5270, 1456.278
304.7350, 1413.612
305.9430, 1284.015
307.1510, 1428.483
308.3580, 1452.017
309.5660, 1561.067
310.7730, 1730.977
311.9800, 1865.022
313.1870, 2116.825
314.3940, 2280.696
315.6010, 2528.635
316.8070, 2875.641
318.0130, 3275.711
319.2200, 3624.811
320.4260, 4010.097
321.6310, 4439.426
322.8370, 4850.870
324.0430, 5281.406
325.2480, 5490.068
326.4540, 5560.865
327.6590, 5589.770
328.8640, 5821.604
330.0680, 6004.877
331.2730, 5967.094
332.4780, 6358.408
333.6820, 6491.202
334.8860, 6994.424
336.0900, 7360.578
337.2940, 8005.357
338.4980, 8424.791
339.7010, 9089.122
340.9050, 9604.397
342.1080, 10265.71
343.3110, 10933.10
344.5140, 11706.56
345.7170, 12264.09
346.9200, 12667.68
348.1220, 13245.35
349.3240, 13173.09
350.5270, 13343.90
351.7290, 13224.77
352.9310, 12639.71
354.1320, 12070.72
355.3340, 11526.80
356.5350, 10671.94
357.7370, 9984.158
358.9380, 9200.434
360.1390, 8455.781
361.3400, 7707.691
362.5400, 7162.170
363.7410, 6572.713
364.9410, 6144.320
366.1410, 5729.994
367.3410, 5276.731
368.5410, 5174.533
369.7410, 4677.398
370.9400, 4524.326
372.1400, 4239.318
373.3390, 4280.371
374.5380, 4239.488
375.7370, 4273.667
376.9360, 4336.906
378.1350, 4469.210
379.3330, 4688.573
380.5310, 5091.998
381.7300, 5298.485
382.9280, 5742.031
384.1260, 6119.639
385.3230, 6319.309
386.5210, 6636.036
387.7180, 6768.826
388.9160, 6755.676
390.1130, 6794.583
391.3100, 6698.551
392.5060, 6569.577
393.7030, 6787.663
394.9000, 6829.806
396.0960, 7005.007
397.2920, 7050.266
398.4880, 7353.582
399.6840, 7531.955
400.8800, 7526.385
402.0750, 7549.871
403.2710, 7632.410
404.4660, 7645.008
405.6610, 7786.658
406.8560, 7443.577
408.0510, 7470.062
409.2450, 7368.625
410.4400, 6978.770
411.6340, 7303.296
412.8280, 7031.859
414.0220, 7297.646
415.2160, 7413.168
416.4100, 7307.707
417.6030, 7338.197
418.7970, 7263.598
419.9900, 7256.064
421.1830, 6650.598
422.3760, 6365.195
423.5690, 5805.859
424.7610, 5524.588
425.9540, 4619.379
427.1460, 3868.234
428.3380, 3137.150
429.5300, 2526.129
430.7220, 1863.168
431.9140, 1441.266
433.1050, 1124.426
434.2970, 694.6445
435.4880, 598.9219
436.6790, 530.2578
437.8700, 469.6523
439.0610, 340.1055
440.2510, 286.6133
441.4420, 230.7695
442.6320, 203.8008
443.8220, 161.4785
445.0120, 58.21094
446.2020, 46.99805
447.3910, 150.8398
448.5810, 171.7363
449.7700, 284.6875
450.9600, 408.6914
452.1490, 300.7500
453.3370, 173.8613
454.5260, 408.0234
455.7150, 326.2383
456.9030, 407.7148
458.0910, 392.0352
459.2800, 360.4043
460.4670, 349.8262
461.6550, 354.2969
462.8430, 74.16602
464.0300, 157.7305
465.2180, 29.40430
466.4050, 11.39062
467.5920, 187.4961
468.7790, 46.30469
469.9650, 91.73438
471.1520, 35.59961
472.3380, 75.85742
473.5250, 12.24609
474.7110, 69.64844
475.8970, 17.12891
477.0820, 85.11523
478.2680, 82.46484
479.4540, 44.80664
480.6390, 127.9199
481.8240, 62.09570
483.0090, 120.2207
484.1940, 85.38672
485.3780, 148.5898
486.5630, 216.8301
487.7470, 277.1074
488.9320, 235.5762
490.1160, 215.8496
491.3000, 102.3145
492.4830, 129.8164
493.6670, 27.35352
494.8500, 134.9863
496.0340, 125.6660
497.2170, 69.41016
498.4000, 19.24023
499.5820, 45.10742
500.7650, 53.09180
501.9480, 17.11914
503.1300, 15.80859
504.3120, 209.2910
505.4940, 196.4355
506.6760, 400.6191
507.8580, 574.8789
509.0390, 716.1738
510.2210, 903.5137
511.4020, 959.9258
512.5830, 1136.432
513.7640, 1210.014
514.9450, 1415.672
516.1250, 1489.438
517.3060, 1827.254
518.4860, 2128.158
519.6660, 2136.121
520.8460, 2215.180
522.0260, 2277.279
523.2060, 2292.469
524.3850, 2241.729
525.5650, 2334.041
526.7440, 2148.393
527.9230, 2227.803
529.1020, 2175.238
530.2810, 2000.775
531.4590, 2417.367
532.6380, 2391.023
533.8160, 2340.699
534.9940, 2371.416
536.1720, 2183.150
537.3500, 2334.908
538.5270, 2282.686
539.7050, 2125.480
540.8820, 1888.293
542.0590, 1787.125
543.2360, 1588.973
544.4130, 1496.520
545.5900, 1470.182
546.7660, 1379.617
547.9430, 1368.527
549.1190, 1416.467
550.2950, 1142.434
551.4710, 1252.426
552.6470, 1401.477
553.8220, 1142.582
554.9980, 1228.746
556.1730, 1099.969
557.3480, 1323.246
558.5230, 1246.559
559.6980, 1055.891
560.8730, 1077.234
562.0470, 1132.584
563.2220, 932.9414
564.3960, 1211.305
565.5700, 1285.676
566.7440, 1213.051
567.9170, 1528.432
569.0910, 1823.816
570.2640, 1893.205
571.4380, 2182.598
572.6110, 2734.992
573.7840, 2756.391
574.9570, 3118.791
576.1290, 3527.191
577.3020, 3532.594
578.4740, 3589.994
579.6460, 3448.396
580.8180, 3081.799
581.9900, 2839.197
583.1620, 2325.598
584.3330, 2030.992
585.5040, 1550.389
586.6760, 1152.777
587.8470, 1104.164
589.0180, 822.5469
590.1880, 726.9238
591.3590, 585.2969
592.5290, 666.6641
593.7000, 471.0234
594.8700, 553.3770
596.0400, 439.7246
597.2090, 62.06445
598.3790, 206.3906
599.5490, 135.7090
600.7180, 117.0215
601.8870, 114.3184
603.0560, 114.3906
604.2250, 3.193359
605.3940, 141.0371
606.5620, 58.99219
607.7300, 177.0156
608.8990, 224.1699
610.0670, 106.4785
611.2350, 164.8867
612.4020, 3.771484
613.5700, 138.9746
614.7370, 74.66602
615.9050, 16.56055
617.0720, 22.34180
618.2390, 61.73438
619.4060, 7.199219
620.5720, 61.98242
621.7390, 2.7344000E-02
622.9050, 162.9883
624.0710, 221.9316
625.2370, 193.8594
626.4030, 404.7695
627.5690, 304.7227
628.7340, 546.9473
629.9000, 526.8633
631.0650, 894.9668
632.2300, 991.7832
633.3950, 1098.578
634.5600, 1370.898
635.7240, 1519.467
636.8890, 1745.727
638.0530, 1905.332
639.2170, 1978.637
640.3810, 2110.359
641.5450, 2359.783
642.7080, 2382.965
643.8720, 2563.527
645.0350, 2646.803
646.1980, 2984.275
647.3610, 3233.941
648.5240, 3597.719
649.6870, 3970.391
650.8490, 4523.607
652.0120, 5307.633
653.1740, 5763.730
654.3360, 6615.680
655.4980, 7195.518
656.6600, 7703.848
657.8210, 8368.703
658.9830, 9080.090
660.1440, 9641.207
661.3050, 9700.834
662.4660, 9837.082
663.6270, 9713.508
664.7870, 9590.070
665.9480, 9197.137
667.1080, 8798.877
668.2680, 8378.355
669.4280, 8277.576
670.5880, 8097.539
671.7480, 8452.926
672.9070, 8593.840
674.0670, 9029.861
675.2260, 9887.715
676.3850, 10988.52
677.5440, 12151.49
678.7030, 13286.03
679.8610, 14652.57
681.0200, 16189.47
682.1780, 18034.83
683.3360, 19353.04
684.4940, 20636.21
685.6520, 21801.32
686.8090, 21974.39
687.9670, 21528.40
689.1240, 20895.37
690.2810, 19482.29
691.4380, 17581.14
692.5950, 15774.96
693.7520, 13607.72
694.9080, 11999.43
696.0650, 10228.09
697.2210, 8636.689
698.3770, 7326.238
699.5330, 6336.738
700.6880, 5364.182
701.8440, 4743.574
702.9990, 4378.912
704.1550, 3920.197
705.3100, 3447.428
706.4650, 3262.602
707.6190, 2788.725
708.7740, 2612.793
709.9290, 2482.811
711.0830, 2090.770
712.2370, 2096.674
713.3910, 2096.525
714.5450, 1743.322
715.6980, 2075.066
716.8520, 1850.754
718.0050, 1693.387
719.1580, 1528.965
720.3110, 1393.488
721.4640, 1576.957
722.6170, 1334.371
723.7700, 1273.730
724.9220, 1394.035
726.0740, 1052.283
727.2260, 1249.479
728.3780, 1258.617
729.5300, 1208.699
730.6810, 1086.730
731.8330, 1180.701
732.9840, 1141.619
734.1350, 970.4824
735.2860, 1121.291
736.4370, 896.8340
737.5880, 983.5332
738.7380, 959.1758
739.8880, 883.7656
741.0390, 643.2969
742.1890, 795.4258
743.3380, 688.6230
744.4880, 691.1680
745.6380, 733.1641
746.7870, 580.0332
747.9360, 683.8047
749.0850, 705.7227
750.2340, 775.0059
751.3830, 731.2012
752.5310, 747.0195
753.6800, 602.5293
754.8280, 687.2090
755.9760, 579.0859
757.1240, 477.3047
758.2720, 554.4941
759.4190, 523.5996
760.5670, 426.2500
761.7140, 420.9375
762.8610, 372.4316
764.0080, 388.1797
765.1550, 270.7324
766.3020, 216.2383
767.4480, 163.1953
768.5950, 135.5039
769.7410, 300.5801
770.8870, 339.2402
772.0330, 127.0645
773.1780, 58.44727
774.3240, 17.38281
775.4690, 104.0469
776.6140, 172.9102
777.7590, 220.5000
778.9040, 50.42578
780.0490, 56.00391
781.1940, 182.9316
782.3380, 46.91016
783.4820, 75.58594
784.6260, 86.34766
785.7700, 105.5879
786.9140, 24.46875
788.0580, 68.72656
789.2010, 179.0410
790.3450, 102.5332
791.4880, 102.1660
792.6310, 229.9316
793.7730, 16.90039
794.9160, 154.9570
796.0590, 54.17383
797.2010, 195.4980
798.3430, 1.001953
799.4850, 186.5762
800.6270, 96.32227
801.7690, 53.19336
802.9100, 0.1621090
804.0520, 77.20117
805.1930, 108.6504
806.3340, 249.5410
807.4750, 72.92773
808.6160, 114.4160
809.7560, 144.9707
810.8970, 18.67969
812.0370, 129.6035
813.1770, 126.8496
814.3170, 94.05859
815.4570, 157.2305
816.5960, 143.9277
817.7360, 72.47070
818.8750, 155.5371
820.0140, 207.5703
821.1530, 178.5723
822.2920, 227.5449
823.4310, 235.4844
824.5690, 305.3984
825.7070, 331.2812
826.8460, 491.1367
827.9840, 568.9648
829.1220, 609.3125
830.2590, 477.5332
831.3970, 654.2754
832.5340, 719.9961
833.6710, 671.6875
834.8080, 777.3516
835.9450, 946.9941
837.0820, 970.6113
838.2190, 866.2012
839.3550, 955.7715
840.4910, 1119.318
841.6270, 1272.840
842.7630, 1321.832
843.8990, 1403.041
845.0350, 1415.279
846.1700, 1447.713
847.3060, 1455.131
848.4410, 1442.514
849.5760, 1426.900
850.7100, 1315.258
851.8450, 1294.594
852.9800, 1197.914
854.1140, 1309.215
855.2480, 891.4980
856.3820, 1051.764
857.5160, 864.0137
858.6500, 798.2480
859.7830, 639.4668
860.9170, 717.6680
862.0500, 701.8574
863.1830, 755.0312
864.3160, 696.5195
865.4480, 500.3359
866.5810, 578.4688
867.7130, 418.5898
868.8460, 397.6992
869.9780, 488.7988
871.1100, 551.8809
872.2410, 541.9570
873.3730, 433.0234
874.5050, 337.0801
875.6360, 452.1289
876.7670, 511.1660
877.8980, 433.1973
879.0290, 383.2617
880.1590, 410.6914
881.2900, 398.4668
882.4200, 407.6133
883.5500, 506.8145
884.6800, 483.0938
885.8100, 527.8691
886.9400, 585.4336
888.0690, 619.1465
889.1990, 644.5703
890.3280, 712.6211
891.4570, 730.4805
892.5860, 816.9531
893.7140, 875.4316
894.8430, 887.9473
895.9710, 894.4941
897.1000, 894.0508
898.2280, 854.6562
899.3560, 785.2812
900.4830, 818.8633
901.6110, 864.1230
902.7380, 908.8535
903.8660, 971.4629
904.9930, 1133.863
906.1200, 1090.547
907.2460, 1079.262
908.3730, 1223.436
909.5000, 1125.357
910.6260, 1214.619
911.7520, 1239.477
912.8780, 1450.695
914.0040, 1563.533
915.1290, 1697.469
916.2550, 1923.732
917.3800, 2041.096
918.5050, 2188.232
919.6300, 2347.166
920.7550, 2546.893
921.8800, 2829.539
923.0040, 2891.275
924.1290, 3145.447
925.2530, 3439.797
926.3770, 3923.057
927.5010, 4215.449
928.6250, 4456.934
929.7480, 4870.912
930.8720, 5172.346
931.9950, 5372.246
933.1180, 5340.412
934.2410, 5449.088
935.3640, 5282.129
936.4860, 5362.002
937.6090, 4946.725
938.7310, 4872.971
939.8530, 4647.543
940.9750, 4404.359
942.0970, 4565.453
943.2180, 4234.785
944.3400, 3821.701
945.4610, 3878.098
946.5820, 3634.379
947.7030, 3565.809
948.8240, 3581.271
949.9450, 3517.549
951.0650, 3247.244
952.1860, 3130.934
953.3060, 3151.242
954.4260, 3049.090
955.5460, 2708.062
956.6650, 2620.084
957.7850, 2375.141
958.9040, 2278.234
960.0230, 2137.365
961.1420, 1853.529
962.2610, 1885.729
963.3800, 1566.961
964.4990, 1459.229
965.6170, 1134.531
966.7350, 1174.908
967.8530, 1275.320
968.9710, 1093.797
970.0890, 1024.309
971.2070, 1101.895
972.3240, 1165.516
973.4410, 1236.186
974.5580, 1005.887
975.6750, 1331.625
976.7920, 1342.404
977.9090, 1505.219
979.0250, 1730.072
980.1410, 1878.963
981.2580, 2103.891
982.3740, 2323.857
983.4890, 2697.863
984.6050, 3009.906
985.7200, 3541.988
986.8360, 4122.109
987.9510, 4587.270
989.0660, 5325.469
990.1810, 6074.709
991.2950, 7270.992
992.4100, 8188.316
993.5240, 9405.688
994.6390, 10907.09
995.7530, 12196.54
996.8660, 13937.02
997.9800, 15644.54
999.0940, 17693.11
1000.207, 19447.74
1001.320, 21372.41
1002.433, 23659.12
1003.546, 25582.89
1004.659, 27318.68
1005.772, 29292.50
1006.884, 31067.37
1007.996, 31964.27
1009.108, 32892.23
1010.220, 33165.21
1011.332, 33201.77
1012.444, 33099.45
1013.555, 32230.25
1014.666, 30796.70
1015.777, 29451.89
1016.888, 27980.29
1017.999, 26652.71
1019.110, 25480.75
1020.220, 24104.40
1021.331, 23336.79
1022.441, 22364.23
1023.551, 21526.71
1024.661, 21048.23
1025.770, 21078.32
1026.880, 20952.13
1027.989, 20963.79
1029.098, 20660.45
1030.207, 21055.14
1031.316, 20751.04
1032.425, 20326.16
1033.533, 20190.80
1034.642, 19703.64
1035.750, 19206.79
1036.858, 18698.18
1037.966, 17557.20
1039.073, 16526.08
1040.181, 15448.47
1041.288, 14433.59
1042.396, 13320.66
1043.503, 12354.21
1044.610, 11307.72
1045.716, 10533.68
1046.823, 9730.223
1047.929, 9145.234
1049.036, 8363.703
1050.142, 7808.395
1051.248, 7181.848
1052.353, 6426.271
1053.459, 5975.123
1054.564, 5599.109
1055.670, 5057.074
1056.775, 4690.248
1057.880, 4378.328
1058.985, 3872.506
1060.089, 3520.762
1061.194, 3164.037
1062.298, 2849.953
1063.402, 2554.303
1064.506, 2347.330
1065.610, 2228.330
1066.713, 2026.742
1067.817, 2060.807
1068.920, 1892.566
1070.023, 1749.486
1071.126, 1517.279
1072.229, 1476.922
1073.332, 1249.305
1074.435, 1184.234
1075.537, 1194.639
1076.639, 1173.234
1077.741, 656.3379
1078.843, 689.7129
1079.945, 579.4668
1081.046, 755.9043
1082.148, 440.6289
1083.249, 722.1602
1084.350, 483.9180
1085.451, 624.1465
1086.551, 444.6992
1087.652, 419.6035
1088.752, 481.2246
1089.853, 429.1875
1090.953, 525.9141
1092.053, 357.7266
1093.152, 357.3789
1094.252, 461.0664
1095.351, 305.0371
1096.451, 232.7402
1097.550, 333.5137
1098.649, 372.3535
1099.748, 250.4355
1100.846, 252.5059
1101.945, 265.6602
1103.043, 254.9883
1104.141, 187.7852
1105.239, 329.6348
1106.337, 250.4570
1107.434, 215.2910
1108.532, 127.8770
1109.629, 324.7695
1110.726, 397.6758
1111.823, 334.4473
1112.920, 347.7324
1114.017, 240.4316
1115.113, 401.3320
1116.210, 371.8633
1117.306, 380.7812
1118.402, 429.7051
1119.498, 526.7891
1120.593, 793.1953
1121.689, 588.1406
1122.784, 689.4414
1123.879, 753.4004
1124.974, 608.2598
1126.069, 550.2285
1127.164, 362.3086
1128.259, 313.1465
1129.353, 314.9004
1130.447, 236.8848
1131.541, 63.07812
1132.635, 135.4688
1133.729, 265.4648
1134.822, 1.679688
1135.916, 40.81641
1137.009, 224.9219
1138.102, 250.9199
1139.195, 54.00586
1140.288, 112.6973
1141.380, 108.8730
1142.473, 9.349609
1143.565, 41.80664
1144.657, 70.19727
1145.749, 18.95312
1146.841, 172.5312
1147.932, 9.626953
1149.024, 78.66797
1150.115, 117.5664
1151.206, 141.4980
1152.297, 235.4004
1153.388, 294.3516
1154.479, 57.42969
1155.569, 86.33984
1156.659, 55.75195
1157.750, 10.86914
1158.839, 137.9961
1159.929, 22.81641
1161.019, 55.62305
1162.108, 198.4082
1163.198, 119.7070
1164.287, 157.1328
1165.376, 76.49609
1166.465, 9.947266
1167.553, 16.18945
1168.642, 80.51172
1169.730, 66.97070
1170.818, 122.4258
1171.906, 122.9883
1172.994, 62.92969
1174.082, 196.6250
1175.170, 1.171875
1176.257, 93.74609
1177.344, 125.4414
1178.431, 29.64844
1179.518, 33.82227
1180.605, 156.3223
1181.691, 8.318359
1182.778, 41.05078
1183.864, 115.9492
1184.950, 187.7734
1186.036, 138.1660
1187.122, 20.35156
1188.207, 133.6113
1189.292, 71.49609
1190.378, 167.3613
1191.463, 69.29102
1192.548, 25.11523
1193.632, 68.91797
1194.717, 37.29883
1195.801, 2.570313
1196.886, 133.6504
1197.970, 25.93164
1199.054, 70.50977
1200.137, 20.97070
1201.221, 138.5781
1202.305, 30.24023
1203.388, 41.03711
1204.471, 78.72461
1205.554, 73.45117
1206.637, 68.41211
1207.719, 58.35547
1208.802, 288.6230
1209.884, 44.57227
1210.966, 141.4941
1212.048, 67.38477
1213.130, 25.24805
1214.212, 75.06836
1215.293, 14.86133
1216.374, 30.60742
1217.456, 63.31445
1218.536, 4.007813
1219.617, 62.83984
1220.698, 34.19336
1221.778, 112.7383
1222.859, 190.2500
1223.939, 154.7344
1225.019, 93.18555
1226.099, 215.6055
1227.178, 152.9961
1228.258, 91.64453
1229.337, 91.60547
1230.417, 45.17969
1231.496, 85.95312
1232.574, 78.95508
1233.653, 302.0352
1234.732, 29.99414
1235.810, 328.8984
1236.888, 237.7715
1237.966, 69.61523
1239.044, 181.4199
1240.122, 182.1895
1241.199, 123.9258
1242.277, 317.6289
1243.354, 74.29883
1244.431, 214.9316
1245.508, 86.52539
1246.585, 363.0859
1247.661, 354.6094
1248.738, 172.0996
1249.814, 59.55469
1250.890, 258.9648
1251.966, 65.33984
1253.042, 277.6699
1254.117, 51.96289
1255.193, 227.2070
1256.268, 194.4160
1257.343, 318.5898
1258.418, 103.7305
1259.493, 364.8320
1260.567, 23.10352
1261.642, 132.8730
1262.716, 391.8105
1263.790, 177.7148
1264.864, 198.5527
1265.938, 207.3848
1267.011, 454.1797
1268.085, 215.0410
1269.158, 111.7656
1270.231, 196.4512
1271.304, 43.09766
1272.377, 202.5488
1273.450, 241.0996
1274.522, 177.1992
1275.594, 133.3828
1276.666, 67.81836
1277.738, 456.0566
1278.810, 86.26172
1279.882, 398.5645
1280.953, 101.8340
1282.025, 240.0586
1283.096, 209.2500
1284.167, 447.6738
1285.238, 354.7949
1286.308, 307.3320
1287.379, 301.1602
1288.449, 290.1367
1289.519, 319.1172
1290.589, 206.0625
1291.659, 351.8301
1292.729, 53.38867
1293.798, 212.4219
1294.868, 301.4629
1295.937, 178.1973
1297.006, 188.5176
