##NAMES=Enstatite
##RRUFFID=R070418
##IDEAL CHEMISTRY=MgSiO_3_
##LOCALITY=India
##OWNER=RRUFF
##SOURCE=Michael Scott
##DESCRIPTION=Brown translucent fragments
##STATUS=The identification of this mineral has been confirmed by X-ray diffraction and chemical analysis
##URL=rruff.info/R070418
##MEASURED CHEMISTRY=(Mg_0.86_Fe_0.14_)_Î£=1_Si_1.00_O_3_; trace amounts of Al, Ca, Mn
##PIN_ID=L01848
##ORIENTATION=Laser parallel to a* (1 0 0). Fiducial mark perpendicular to laser is parallel to b [0 1 0]
115.3720, 0.0000000E+00
116.6130, 13.44531
117.8540, 152.7773
119.0950, 551.8042
120.3360, 971.0059
121.5760, 1681.569
122.8160, 2733.561
124.0560, 4126.314
125.2960, 5940.397
126.5350, 7954.886
127.7750, 10364.36
129.0140, 11969.46
130.2530, 12160.97
131.4920, 10735.10
132.7300, 8275.627
133.9690, 5926.994
135.2070, 4238.292
136.4450, 3092.723
137.6830, 2432.200
138.9210, 2031.097
140.1580, 1841.806
141.3950, 1482.081
142.6330, 1498.174
143.8690, 1191.320
145.1060, 1006.903
146.3430, 1058.878
147.5790, 1019.054
148.8150, 906.5244
150.0510, 850.2412
151.2870, 856.2925
152.5220, 521.9834
153.7580, 290.8857
154.9930, 191.4307
156.2280, 58.34180
157.4620, 41.75928
158.6970, 53.46533
159.9310, 1.464355
161.1660, 292.8433
162.4000, 511.4062
163.6330, 1069.932
164.8670, 1586.422
166.1000, 1659.265
167.3340, 1186.749
168.5670, 806.9033
169.8000, 518.7593
171.0320, 304.3423
172.2650, 112.7080
173.4970, 85.79443
174.7290, 38.27783
175.9610, 53.50684
177.1930, 77.12402
178.4240, 183.6245
179.6550, 299.0010
180.8870, 288.2588
182.1170, 457.4038
183.3480, 680.4414
184.5790, 906.3765
185.8090, 1187.213
187.0390, 1557.815
188.2690, 2102.386
189.4990, 2587.540
190.7290, 2823.482
191.9580, 2705.180
193.1870, 2479.487
194.4160, 2158.667
195.6450, 2017.383
196.8740, 1819.434
198.1020, 1671.363
199.3310, 1670.354
200.5590, 1747.646
201.7870, 1597.551
203.0140, 1512.610
204.2420, 927.8198
205.4690, 494.1724
206.6960, 150.6621
207.9230, 31.71533
209.1500, 77.96729
210.3760, 81.10107
211.6030, 9.868652
212.8290, 5.7617001E-02
214.0550, 65.10791
215.2810, 177.3599
216.5060, 227.6934
217.7320, 388.1040
218.9570, 641.5845
220.1820, 992.7954
221.4070, 1353.728
222.6320, 1969.397
223.8560, 2587.129
225.0800, 3268.920
226.3040, 4207.786
227.5280, 5144.740
228.7520, 6542.842
229.9760, 8204.033
231.1990, 10138.33
232.4220, 12531.87
233.6450, 14212.73
234.8680, 15457.81
236.0910, 15937.98
237.3130, 14375.21
238.5350, 12344.45
239.7570, 9888.688
240.9790, 7634.909
242.2010, 5920.111
243.4220, 4342.298
244.6430, 3211.468
245.8640, 2341.624
247.0850, 1628.764
248.3060, 1196.889
249.5270, 808.9985
250.7470, 569.0933
251.9670, 333.1729
253.1870, 197.2373
254.4070, 87.28662
255.6260, 58.32129
256.8460, 4.659180
258.0650, 513.3452
259.2840, 238.6997
260.5030, 219.6309
261.7220, 22.21143
262.9400, 115.5547
264.1580, 274.9658
265.3760, 352.2910
266.5940, 303.8901
267.8120, 156.9399
269.0290, 214.5317
270.2470, 262.7764
271.4640, 218.7583
272.6810, 190.5215
273.8980, 172.1069
275.1140, 144.5469
276.3310, 168.8672
277.5470, 137.1021
278.7630, 10.26465
279.9790, 41.39893
281.1940, 4.154297
282.4100, 78.70166
283.6250, 36.81543
284.8400, 285.9517
286.0550, 356.1255
287.2700, 511.3179
288.4850, 786.5229
289.6990, 1026.738
290.9130, 1296.959
292.1270, 1576.172
293.3410, 2050.372
294.5540, 2411.573
295.7680, 2775.773
296.9810, 3121.974
298.1940, 3269.170
299.4070, 2945.360
300.6200, 2913.523
301.8320, 2896.646
303.0450, 2758.716
304.2570, 2747.729
305.4690, 2905.211
306.6800, 3073.078
307.8920, 3252.944
309.1030, 3163.624
310.3150, 3427.155
311.5260, 3653.626
312.7360, 3942.063
313.9470, 4588.473
315.1580, 4963.854
316.3680, 5752.209
317.5780, 6399.538
318.7880, 6875.843
319.9980, 7154.125
321.2070, 7203.985
322.4170, 7266.585
323.6260, 7487.809
324.8350, 8046.014
326.0430, 8847.209
327.2520, 10255.39
328.4610, 12509.56
329.6690, 13696.72
330.8770, 16544.86
332.0850, 19409.98
333.2920, 23536.05
334.5000, 28132.10
335.7070, 33167.13
336.9140, 38099.77
338.1210, 42307.29
339.3280, 46068.11
340.5350, 47552.99
341.7410, 44696.63
342.9470, 40955.51
344.1540, 35950.02
345.3590, 30428.41
346.5650, 25727.24
347.7710, 21353.79
348.9760, 18041.35
350.1810, 15239.44
351.3860, 13009.47
352.5910, 11672.96
353.7950, 10337.70
355.0000, 9594.033
356.2040, 8914.668
357.4080, 8220.622
358.6120, 7465.320
359.8150, 6989.815
361.0190, 6330.345
362.2220, 5855.568
363.4250, 5415.785
364.6280, 5135.000
365.8310, 5021.058
367.0340, 5105.411
368.2360, 5098.609
369.4380, 5391.801
370.6400, 5630.988
371.8420, 5985.167
373.0440, 6373.343
374.2450, 7141.511
375.4470, 7612.671
376.6480, 8210.824
377.8490, 8398.970
379.0490, 8372.104
380.2500, 8083.228
381.4500, 7807.340
382.6510, 7613.440
383.8510, 7483.529
385.0500, 7701.609
386.2500, 8031.674
387.4500, 8754.729
388.6490, 9585.771
389.8480, 10749.80
391.0470, 12191.83
392.2460, 13498.84
393.4440, 15129.83
394.6430, 16797.82
395.8410, 18028.79
397.0390, 19171.75
398.2370, 20091.71
399.4340, 20061.65
400.6320, 19967.58
401.8290, 19677.12
403.0260, 18720.02
404.2230, 17700.92
405.4200, 17001.80
406.6170, 15790.61
407.8130, 15085.57
409.0090, 14004.55
410.2050, 13165.62
411.4010, 12516.66
412.5970, 11676.84
413.7920, 11092.30
414.9880, 10465.64
416.1830, 9666.626
417.3780, 9098.271
418.5730, 8640.953
419.7670, 8039.243
420.9620, 7269.885
422.1560, 6300.394
423.3500, 5367.517
424.5440, 4771.708
425.7380, 3892.459
426.9310, 3307.044
428.1240, 2907.240
429.3180, 2746.881
430.5110, 2640.503
431.7030, 2542.107
432.8960, 2763.691
434.0890, 3012.257
435.2810, 3086.804
436.4730, 3586.331
437.6650, 3953.840
438.8570, 4008.331
440.0480, 3975.800
441.2390, 3744.250
442.4310, 3355.682
443.6220, 2814.094
444.8120, 2253.486
446.0030, 1653.860
447.1940, 1396.213
448.3840, 1074.549
449.5740, 1003.868
450.7640, 857.1675
451.9540, 757.4492
453.1430, 833.7129
454.3330, 861.9595
455.5220, 753.1885
456.7110, 880.4014
457.9000, 1003.609
459.0890, 981.4209
460.2770, 1117.047
461.4650, 1023.302
462.6540, 1084.535
463.8420, 1043.069
465.0290, 1020.333
466.2170, 869.8452
467.4050, 893.1680
468.5920, 701.8511
469.7790, 424.4390
470.9660, 455.3242
472.1530, 309.1460
473.3390, 326.4775
474.5250, 348.6987
475.7120, 212.6440
476.8980, 205.5718
478.0840, 1.517578
479.2690, 45.34326
480.4550, 39.17725
481.6400, 94.01660
482.8250, 41.69629
484.0100, 3.383301
485.1950, 26.49512
486.3800, 36.62061
487.5640, 100.8115
488.7480, 108.3130
489.9320, 215.9102
491.1160, 168.6558
492.3000, 177.5283
493.4840, 129.5063
494.6670, 89.56494
495.8500, 100.6870
497.0330, 86.86523
498.2160, 95.08691
499.3990, 40.09912
500.5810, 28.50342
501.7630, 88.29639
502.9460, 83.13574
504.1280, 157.9829
505.3090, 234.8906
506.4910, 296.8564
507.6720, 684.8594
508.8540, 825.8799
510.0350, 1173.951
511.2160, 1573.061
512.3960, 2062.195
513.5770, 2673.373
514.7570, 3230.582
515.9380, 4010.847
517.1180, 4607.115
518.2970, 5209.433
519.4770, 5505.759
520.6570, 5879.087
521.8360, 6197.453
523.0150, 5959.808
524.1940, 6025.162
525.3730, 6384.532
526.5510, 5221.889
527.7300, 4674.238
528.9080, 4167.579
530.0860, 3884.908
531.2640, 3870.226
532.4420, 3692.529
533.6200, 4091.821
534.7970, 4482.100
535.9740, 5019.366
537.1510, 5350.618
538.3280, 5530.857
539.5050, 5394.085
540.6810, 5208.298
541.8580, 5146.497
543.0340, 4887.684
544.2100, 4914.869
545.3860, 4687.043
546.5610, 4780.201
547.7370, 4829.348
548.9120, 4553.486
550.0870, 4418.651
551.2620, 3922.887
552.4370, 3255.210
553.6120, 2814.609
554.7860, 2429.049
555.9600, 1832.540
557.1340, 1523.099
558.3080, 1296.713
559.4820, 1011.375
560.6560, 982.0811
561.8290, 853.8242
563.0020, 687.6104
564.1750, 673.4336
565.3480, 673.2588
566.5210, 633.0957
567.6930, 685.9326
568.8660, 736.7568
570.0380, 630.5742
571.2100, 716.3750
572.3820, 666.1611
573.5530, 611.9307
574.7250, 636.6855
575.8960, 685.4238
577.0670, 527.1484
578.2380, 651.8545
579.4090, 438.5459
580.5800, 342.2197
581.7500, 388.8799
582.9210, 347.5225
584.0910, 398.1484
585.2610, 333.7598
586.4300, 433.3535
587.6000, 378.9316
588.7690, 326.4932
589.9390, 353.0381
591.1080, 339.5674
592.2770, 359.0791
593.4450, 319.5752
594.6140, 254.0537
595.7820, 192.5156
596.9500, 175.0264
598.1190, 148.8604
599.2860, 137.8018
600.4540, 143.1953
601.6220, 126.5713
602.7890, 127.9277
603.9560, 67.26758
605.1230, 12.58691
606.2900, 66.87402
607.4570, 93.14160
608.6230, 15.61230
609.7890, 52.59082
610.9560, 19.23047
612.1220, 31.90039
613.2870, 77.00586
614.4530, 94.09082
615.6180, 190.1553
616.7840, 222.2031
617.9490, 342.2324
619.1140, 544.1543
620.2790, 502.0674
621.4430, 627.8193
622.6080, 830.9443
623.7720, 932.7461
624.9360, 1061.572
626.1000, 1309.954
627.2640, 1250.831
628.4270, 1178.589
629.5910, 1119.133
630.7540, 868.3447
631.9170, 900.0830
633.0800, 889.8594
634.2430, 903.4424
635.4050, 1028.764
636.5680, 1081.057
637.7300, 1211.517
638.8920, 1498.305
640.0540, 1721.315
641.2150, 1917.377
642.3770, 2269.975
643.5380, 2697.779
644.7000, 2989.088
645.8610, 3680.550
647.0210, 4248.901
648.1820, 4807.840
649.3430, 5687.668
650.5030, 6710.405
651.6630, 8028.938
652.8230, 9495.967
653.9830, 11421.86
655.1430, 13483.72
656.3020, 15902.28
657.4620, 18774.64
658.6210, 21427.29
659.7800, 23913.37
660.9390, 25689.94
662.0970, 26144.44
663.2560, 25003.82
664.4140, 23209.79
665.5720, 20724.33
666.7300, 18119.71
667.8880, 16348.80
669.0460, 14917.99
670.2030, 14231.21
671.3600, 14101.35
672.5180, 14352.46
673.6740, 15408.62
674.8310, 16898.68
675.9880, 18793.71
677.1440, 21905.72
678.3010, 24490.70
679.4570, 26509.65
680.6130, 28954.57
681.7690, 30619.47
682.9240, 31200.35
684.0800, 30380.19
685.2350, 27700.01
686.3900, 24605.80
687.5450, 21033.56
688.7000, 17220.31
689.8540, 14284.02
691.0090, 11713.70
692.1630, 9410.361
693.3170, 7740.989
694.4710, 6490.590
695.6250, 5449.164
696.7780, 4397.708
697.9320, 3812.224
699.0850, 3353.710
700.2380, 2943.168
701.3910, 2504.595
702.5440, 2132.992
703.6970, 2127.359
704.8490, 1780.696
706.0010, 1543.004
707.1530, 1319.281
708.3050, 1150.890
709.4570, 1049.824
710.6090, 955.9326
711.7600, 911.0898
712.9110, 828.7520
714.0620, 805.3145
715.2130, 717.3809
716.3640, 690.4199
717.5150, 657.4277
718.6650, 499.4062
719.8150, 966.3564
720.9650, 1236.277
722.1150, 1535.168
723.2650, 1364.030
724.4150, 484.8623
725.5640, 443.6660
726.7130, 440.4404
727.8630, 559.1865
729.0110, 459.9043
730.1600, 587.5938
731.3090, 594.2549
732.4570, 726.8857
733.6060, 819.4902
734.7540, 862.9102
735.9020, 896.6123
737.0490, 1003.121
738.1970, 1075.553
739.3440, 1192.979
740.4920, 1118.305
741.6390, 1292.610
742.7860, 1280.568
743.9320, 1250.756
745.0790, 1471.654
746.2250, 1673.699
747.3720, 1824.339
748.5180, 2028.030
749.6640, 2260.383
750.8100, 2362.753
751.9550, 2309.573
753.1010, 2007.459
754.2460, 1585.578
755.3910, 1292.672
756.5360, 878.7412
757.6810, 730.8018
758.8250, 497.8447
759.9700, 392.8691
761.1140, 285.9102
762.2580, 234.9326
763.4020, 213.9473
764.5460, 101.9590
765.6900, 35.04785
766.8330, 84.91504
767.9760, 44.89551
769.1200, 92.91602
770.2620, 50.02832
771.4050, 46.99121
772.5480, 34.97852
773.6900, 13.99805
774.8330, 3.034180
775.9750, 160.0850
777.1170, 268.2275
778.2590, 82.53711
779.4000, 156.9170
780.5420, 34.42285
781.6830, 229.9922
782.8240, 217.7275
783.9650, 137.6230
785.1060, 68.63574
786.2470, 195.7275
787.3870, 147.9639
788.5280, 97.32129
789.6680, 172.7686
790.8080, 123.3477
791.9480, 220.0322
793.0870, 25.86914
794.2270, 199.7568
795.3660, 46.78613
796.5060, 23.87500
797.6450, 161.0098
798.7830, 41.73828
799.9220, 18.53320
801.0610, 77.84277
802.1990, 9.776367
803.3370, 31.37207
804.4750, 6.047852
805.6130, 63.50391
806.7510, 39.04004
807.8890, 47.56055
809.0260, 123.0654
810.1630, 22.55957
811.3000, 49.03711
812.4370, 77.50391
813.5740, 74.95703
814.7110, 57.39941
815.8470, 66.94434
816.9830, 43.24707
818.1190, 66.65430
819.2550, 87.05176
820.3910, 109.0146
821.5270, 92.81445
822.6620, 149.1816
823.7970, 25.53809
824.9330, 81.88770
826.0670, 187.2285
827.2020, 103.5596
828.3370, 231.8848
829.4710, 201.2012
830.6060, 225.5117
831.7400, 201.8154
832.8740, 150.1133
834.0080, 239.4062
835.1410, 208.6934
836.2750, 236.9756
837.4080, 405.2529
838.5410, 300.5264
839.6740, 357.7959
840.8070, 533.0625
841.9400, 514.3242
843.0730, 647.5859
844.2050, 659.8418
845.3370, 743.0967
846.4690, 872.3486
847.6010, 877.6006
848.7330, 1223.851
849.8640, 1355.099
850.9960, 1516.347
852.1270, 1872.596
853.2580, 2253.842
854.3890, 2600.092
855.5200, 2971.342
856.6500, 3272.591
857.7810, 3496.843
858.9110, 3689.095
860.0410, 3698.350
861.1710, 3582.607
862.3010, 3479.866
863.4310, 3198.129
864.5600, 2908.395
865.6900, 2611.664
866.8190, 2346.937
867.9480, 2026.215
869.0770, 1871.497
870.2050, 1599.782
871.3340, 1470.075
872.4620, 1225.372
873.5900, 1109.105
874.7180, 1061.985
875.8460, 933.3018
876.9740, 924.6250
878.1010, 938.9570
879.2290, 805.2979
880.3560, 1118.654
881.4830, 856.2471
882.6100, 870.4082
883.7370, 593.8125
884.8630, 718.2295
885.9900, 745.6709
887.1160, 501.1357
888.2420, 888.6172
889.3680, 751.1094
890.4940, 981.6260
891.6200, 999.1523
892.7450, 1099.690
893.8700, 1152.239
894.9960, 1226.800
896.1210, 1264.953
897.2460, 1340.957
898.3700, 1282.554
899.4950, 1324.165
900.6190, 1249.578
901.7430, 1198.195
902.8670, 1613.578
903.9910, 1215.556
905.1150, 1232.543
906.2390, 803.9189
907.3620, 920.0596
908.4850, 996.0098
909.6080, 990.3320
910.7310, 979.3984
911.8540, 995.9854
912.9770, 874.2051
914.0990, 1045.466
915.2210, 989.1250
916.3440, 1168.545
917.4660, 1301.765
918.5870, 1493.834
919.7090, 1638.034
920.8310, 2109.651
921.9520, 2391.385
923.0730, 2907.213
924.1940, 3377.329
925.3150, 3825.824
926.4360, 4192.528
927.5560, 4332.309
928.6770, 4628.402
929.7970, 4638.724
930.9170, 4793.734
932.0370, 4782.749
933.1570, 4964.714
934.2760, 4735.043
935.3960, 4818.504
936.5150, 4960.412
937.6340, 4860.807
938.7530, 4876.357
939.8720, 4512.221
940.9910, 4295.018
942.1090, 4098.816
943.2280, 3753.751
944.3460, 3482.746
945.4640, 3388.740
946.5820, 2952.876
947.6990, 2573.055
948.8170, 2369.296
949.9340, 2184.582
951.0520, 2037.912
952.1690, 1711.277
953.2860, 1552.680
954.4030, 1459.125
955.5190, 1400.634
956.6360, 1371.189
957.7520, 1109.814
958.8680, 1054.485
959.9840, 881.1992
961.1000, 839.9717
962.2160, 907.7959
963.3310, 774.6904
964.4470, 747.6504
965.5620, 569.6738
966.6770, 755.7549
967.7920, 590.8799
968.9060, 548.0537
970.0210, 697.2900
971.1360, 621.5664
972.2500, 565.8809
973.3640, 539.2402
974.4780, 541.6367
975.5920, 601.6836
976.7050, 766.5469
977.8190, 790.0615
978.9320, 922.6143
980.0450, 1031.975
981.1580, 1092.836
982.2710, 1358.505
983.3840, 1500.214
984.4970, 1668.960
985.6090, 2130.746
986.7210, 2310.351
987.8330, 2610.433
988.9450, 2996.334
990.0570, 3462.275
991.1690, 4010.256
992.2800, 4559.274
993.3920, 5525.331
994.5030, 6588.428
995.6140, 7728.563
996.7250, 9107.738
997.8350, 10677.95
998.9460, 12439.20
1000.056, 14612.49
1001.167, 16746.82
1002.277, 19116.19
1003.387, 21592.60
1004.496, 23909.05
1005.606, 26793.53
1006.715, 29219.05
1007.825, 31026.62
1008.934, 32415.22
1010.043, 32521.86
1011.152, 32255.54
1012.260, 31922.26
1013.369, 31093.52
1014.477, 30988.29
1015.586, 30881.13
1016.694, 31342.00
1017.802, 31505.02
1018.909, 32293.97
1020.017, 32222.07
1021.124, 32411.08
1022.232, 32505.14
1023.339, 32351.93
1024.446, 32272.06
1025.553, 31956.23
1026.659, 31591.45
1027.766, 30974.72
1028.872, 30332.98
1029.979, 29238.30
1031.085, 27789.66
1032.191, 26363.63
1033.296, 24547.77
1034.402, 22098.24
1035.507, 20509.77
1036.613, 18446.34
1037.718, 16563.95
1038.823, 15016.59
1039.928, 13339.30
1041.032, 12150.07
1042.137, 10755.90
1043.241, 9459.778
1044.346, 8817.710
1045.450, 7685.731
1046.554, 6903.871
1047.657, 6178.080
1048.761, 5747.377
1049.864, 5335.734
1050.968, 4658.193
1052.071, 4514.302
1053.174, 4195.949
1054.277, 3762.658
1055.379, 3422.465
1056.482, 3141.749
1057.584, 2921.026
1058.687, 2581.084
1059.789, 2412.574
1060.891, 2093.014
1061.992, 1778.493
1063.094, 1725.271
1064.196, 1482.806
1065.297, 1360.637
1066.398, 1182.918
1067.499, 1161.566
1068.600, 979.8340
1069.701, 924.6553
1070.801, 947.5742
1071.902, 1024.783
1073.002, 846.9814
1074.102, 1106.968
1075.202, 704.2178
1076.302, 852.3027
1077.402, 675.1406
1078.501, 676.0254
1079.600, 808.6543
1080.700, 799.0225
1081.799, 880.0059
1082.898, 854.4209
1083.996, 837.6484
1085.095, 594.6445
1086.193, 706.9150
1087.292, 574.7256
1088.390, 610.1670
1089.488, 533.9355
1090.586, 647.4893
1091.683, 375.7363
1092.781, 519.9668
1093.878, 322.2041
1094.975, 448.5996
1096.073, 343.1982
1097.169, 478.0684
1098.266, 341.0205
1099.363, 498.2695
1100.459, 395.8916
1101.556, 345.0605
1102.652, 252.4590
1103.748, 295.8076
1104.844, 276.2168
1105.940, 341.4951
1107.035, 339.0195
1108.131, 489.3174
1109.226, 280.9307
1110.321, 498.2471
1111.416, 379.5723
1112.511, 309.1074
1113.605, 532.4883
1114.700, 394.8711
1115.794, 571.2295
1116.889, 391.5947
1117.983, 474.9668
1119.077, 342.3457
1120.170, 424.7324
1121.264, 350.1572
1122.357, 480.5547
1123.451, 446.9570
1124.544, 380.3652
1125.637, 404.7783
1126.730, 340.1963
1127.823, 267.6182
1128.915, 250.0439
1130.008, 343.4736
1131.100, 268.9062
1132.192, 241.3428
1133.284, 132.7812
1134.376, 149.2227
1135.467, 273.6660
1136.559, 233.1113
1137.650, 51.55762
1138.742, 177.0059
1139.833, 79.45410
1140.924, 56.90332
1142.014, 45.35352
1143.105, 70.80273
1144.195, 33.74707
1145.286, 51.30469
1146.376, 125.1260
1147.466, 57.55566
1148.556, 9.015625
1149.646, 26.40918
1150.735, 79.16895
1151.825, 47.77051
1152.914, 53.61426
1154.003, 88.00391
1155.092, 41.34863
1156.181, 36.69727
1157.270, 83.04199
1158.358, 6.382813
1159.447, 94.71680
1160.535, 74.04688
1161.623, 92.37207
1162.711, 27.30859
1163.799, 31.00293
1164.886, 71.28809
1165.974, 162.5732
1167.061, 54.85156
1168.148, 71.12109
1169.235, 81.38477
1170.322, 115.6387
1171.409, 187.8867
1172.496, 180.4443
1173.582, 67.35254
1174.669, 171.5713
1175.755, 93.78027
1176.841, 22.97852
1177.927, 147.1660
1179.012, 108.3408
1180.098, 57.50488
1181.183, 96.65527
1182.269, 58.20703
1183.354, 41.88281
1184.439, 168.9580
1185.524, 54.01855
1186.608, 16.93457
1187.693, 29.92090
1188.777, 49.05273
1189.862, 90.98926
1190.946, 39.10645
1192.030, 53.27148
1193.113, 150.4941
1194.197, 94.82812
1195.281, 14.24121
1196.364, 125.6973
1197.447, 61.74902
1198.530, 114.8271
1199.613, 73.50000
1200.696, 36.75098
1201.779, 44.02148
1202.861, 57.85742
1203.944, 36.76270
1205.026, 150.7305
1206.108, 50.81934
1207.190, 108.9766
1208.271, 76.23633
1209.353, 9.418945
1210.435, 48.96582
1211.516, 6.577148
1212.597, 19.07715
1213.678, 68.53809
1214.759, 182.9727
1215.840, 28.38379
1216.920, 47.24219
1218.001, 8.054688
1219.081, 75.69336
1220.161, 29.46484
1221.241, 39.58496
1222.321, 31.33203
1223.401, 1.680664
1224.480, 63.36133
1225.560, 49.49219
1226.639, 36.70605
1227.718, 20.99512
1228.797, 53.64746
1229.876, 20.25293
1230.955, 37.19141
1232.033, 130.2891
1233.112, 146.7393
1234.190, 57.16309
1235.268, 203.5498
1236.346, 117.9092
1237.424, 373.2402
1238.501, 110.5439
1239.579, 283.8184
1240.656, 205.0654
1241.733, 135.2852
1242.811, 175.4756
1243.888, 178.6396
1244.964, 221.7754
1246.041, 247.8828
1247.117, 351.9648
1248.194, 225.0176
1249.270, 329.0430
1250.346, 188.0400
1251.422, 241.0098
1252.498, 216.9512
1253.573, 304.8730
1254.649, 278.7783
1255.724, 298.6553
1256.800, 295.5117
1257.875, 391.3389
1258.950, 283.1367
1260.024, 371.9150
1261.099, 481.6641
1262.173, 674.3857
1263.248, 394.0791
1264.322, 541.0127
1265.396, 574.3389
1266.470, 523.9902
1267.544, 657.5742
1268.617, 651.1279
1269.691, 549.6543
1270.764, 711.1514
1271.837, 595.6191
1272.910, 720.0586
1273.983, 653.9570
1275.056, 818.3662
1276.129, 655.7197
1277.201, 715.0439
1278.273, 591.2256
1279.346, 504.4922
1280.418, 456.6230
1281.489, 621.8457
1282.561, 763.7979
1283.633, 577.3262
1284.704, 1195.620
1285.776, 475.7178
1286.847, 436.7832
1287.918, 891.8213
1288.989, 721.8301
1290.059, 737.8105
1291.130, 552.7627
1292.200, 855.1084
1293.271, 865.2920
1294.341, 812.1572
