##NAMES=Enstatite
##RRUFFID=R050644
##IDEAL CHEMISTRY=MgSiO_3_
##LOCALITY=Morogoro, Tanzania
##OWNER=RRUFF
##SOURCE=Jibamitra Ganguly
##DESCRIPTION=Light brown crystal fragment
##STATUS=The identification of this mineral has been confirmed by X-ray diffraction and chemical analysis
##URL=rruff.info/R050644
##MEASURED CHEMISTRY=(Mg_0.90_Fe_0.10_)SiO_3_
##PIN_ID=L01041
##ORIENTATION=Laser parallel to -a* (-1 0 0). Fiducial mark perpendicular to laser is parallel to -b [0 -1 0]
113.2080, 0.0000000E+00
114.4400, 11.20117
115.6710, 118.1348
116.9030, 231.4297
118.1340, 730.9473
119.3650, 1438.900
120.5960, 2548.951
121.8270, 3409.426
123.0580, 4539.096
124.2880, 6004.049
125.5190, 8825.721
126.7490, 11865.19
127.9790, 14529.18
129.2090, 15485.73
130.4390, 14292.82
131.6680, 12503.60
132.8980, 10629.20
134.1270, 8771.652
135.3560, 7332.070
136.5850, 6197.465
137.8140, 5736.678
139.0430, 5288.055
140.2710, 4864.545
141.5000, 4394.090
142.7280, 3692.580
143.9560, 3291.441
145.1840, 2796.449
146.4120, 2401.557
147.6390, 1886.154
148.8670, 1626.027
150.0940, 1152.088
151.3210, 760.1387
152.5490, 706.1094
153.7750, 546.1074
155.0020, 357.1836
156.2290, 287.7715
157.4550, 300.6895
158.6810, 244.2910
159.9080, 95.60742
161.1340, 140.1680
162.3590, 64.69922
163.5850, 167.5137
164.8110, 72.75586
166.0360, 43.80469
167.2610, 15.88867
168.4860, 25.95312
169.7110, 38.70703
170.9360, 15.25391
172.1610, 36.47852
173.3850, 2.261719
174.6100, 1.029297
175.8340, 124.3496
177.0580, 116.7070
178.2820, 216.0957
179.5050, 104.4844
180.7290, 1.136719
181.9520, 108.9102
183.1760, 392.0527
184.3990, 263.8086
185.6220, 278.4941
186.8450, 387.1562
188.0670, 410.5156
189.2900, 510.3691
190.5120, 561.5605
191.7340, 712.8203
192.9560, 786.6113
194.1780, 725.3066
195.4000, 666.1953
196.6220, 733.4375
197.8430, 903.2598
199.0640, 817.9023
200.2860, 913.1895
201.5070, 806.5762
202.7270, 712.9746
203.9480, 559.6895
205.1690, 458.6973
206.3890, 338.7812
207.6090, 187.9395
208.8290, 3.832031
210.0490, 36.93750
211.2690, 55.26953
212.4890, 113.6367
213.7080, 225.9590
214.9280, 42.43945
216.1470, 92.17188
217.3660, 36.23047
218.5850, 147.5430
219.8030, 65.72070
221.0220, 145.9316
222.2400, 285.1816
223.4590, 504.5039
224.6770, 484.8633
225.8950, 801.2617
227.1120, 1178.699
228.3300, 1183.170
229.5480, 1556.662
230.7650, 1889.172
231.9820, 2508.838
233.1990, 2788.648
234.4160, 2687.484
235.6330, 2691.303
236.8490, 2059.041
238.0660, 1693.646
239.2820, 1353.211
240.4980, 1006.783
241.7140, 730.3711
242.9300, 496.0723
244.1460, 245.5918
245.3610, 152.2246
246.5770, 35.87109
247.7920, 25.46289
249.0070, 27.21094
250.2220, 61.89648
251.4370, 224.4004
252.6510, 75.68555
253.8660, 84.98828
255.0800, 52.68555
256.2940, 40.19922
257.5080, 52.14648
258.7220, 321.0605
259.9360, 60.26562
261.1490, 134.8477
262.3630, 77.65234
263.5760, 78.30078
264.7890, 3.812500
266.0020, 67.72266
267.2150, 111.9355
268.4270, 17.62695
269.6400, 81.95508
270.8520, 128.6621
272.0640, 202.4609
273.2760, 42.32617
274.4880, 35.78516
275.7000, 151.0820
276.9120, 232.9258
278.1230, 112.7441
279.3340, 49.46094
280.5450, 79.30469
281.7560, 4.044922
282.9670, 121.2539
284.1780, 16.64648
285.3880, 22.09766
286.5980, 160.3516
287.8090, 173.5938
289.0190, 266.0391
290.2290, 257.9980
291.4380, 418.8789
292.6480, 443.5215
293.8570, 495.1836
295.0670, 543.8359
296.2760, 577.4746
297.4850, 567.0938
298.6930, 562.6973
299.9020, 492.2852
301.1110, 655.8535
302.3190, 544.4043
303.5270, 323.9336
304.7350, 120.4414
305.9430, 403.9277
307.1510, 328.3496
308.3580, 359.2969
309.5660, 432.4434
310.7730, 493.4570
311.9800, 614.7285
313.1870, 653.1484
314.3940, 878.0898
315.6010, 1035.016
316.8070, 1155.723
318.0130, 1197.451
319.2200, 1499.889
320.4260, 1683.189
321.6310, 1942.381
322.8370, 2528.971
324.0430, 3080.014
325.2480, 3940.969
326.4540, 4745.230
327.6590, 5991.113
328.8640, 7429.785
330.0680, 9046.383
331.2730, 11003.69
332.4780, 13307.84
333.6820, 15853.29
334.8860, 18580.72
336.0900, 21064.15
337.2940, 23289.60
338.4980, 23922.01
339.7010, 23329.38
340.9050, 21600.05
342.1080, 19281.47
343.3110, 16863.77
344.5140, 13964.96
345.7170, 11289.11
346.9200, 9298.273
348.1220, 7521.414
349.3240, 6312.562
350.5270, 5346.004
351.7290, 4436.188
352.9310, 4089.234
354.1320, 3646.020
355.3340, 3031.787
356.5350, 2681.154
357.7370, 2468.822
358.9380, 2230.895
360.1390, 2111.893
361.3400, 2006.600
362.5400, 1633.412
363.7410, 1605.627
364.9410, 1466.939
366.1410, 1512.605
367.3410, 1357.838
368.5410, 1365.074
369.7410, 1396.316
370.9400, 1425.562
372.1400, 1382.814
373.3390, 1409.066
374.5380, 1460.324
375.7370, 1610.590
376.9360, 1500.855
378.1350, 1718.125
379.3330, 1457.398
380.5310, 1456.672
381.7300, 1575.951
382.9280, 1588.234
384.1260, 1636.523
385.3230, 1783.814
386.5210, 1889.111
387.7180, 2037.410
388.9160, 2369.715
390.1130, 3013.025
391.3100, 3454.301
392.5060, 3943.502
393.7030, 4290.520
394.9000, 4486.523
396.0960, 4823.801
397.2920, 5050.150
398.4880, 4938.979
399.6840, 5066.844
400.8800, 4860.404
402.0750, 4499.301
403.2710, 4548.668
404.4660, 4579.773
405.6610, 4129.812
406.8560, 4021.166
408.0510, 4037.504
409.2450, 4385.506
410.4400, 3998.615
411.6340, 4084.008
412.8280, 3994.520
414.0220, 4084.727
415.2160, 3931.100
416.4100, 3821.033
417.6030, 3500.594
418.7970, 3444.617
419.9900, 3002.957
421.1830, 2718.289
422.3760, 2479.590
423.5690, 2093.895
424.7610, 1839.629
425.9540, 1677.527
427.1460, 1625.135
428.3380, 1624.688
429.5300, 1584.859
430.7220, 1771.777
431.9140, 1949.889
433.1050, 2286.674
434.2970, 2594.760
435.4880, 3043.020
436.6790, 3578.002
437.8700, 3843.260
439.0610, 3890.715
440.2510, 4002.766
441.4420, 3590.016
442.6320, 3067.324
443.8220, 2594.570
445.0120, 1999.814
446.2020, 1762.059
447.3910, 1240.301
448.5810, 1178.225
449.7700, 792.4629
450.9600, 574.6992
452.1490, 604.9473
453.3370, 532.1953
454.5260, 436.9160
455.7150, 569.6953
456.9030, 323.9551
458.0910, 416.2227
459.2800, 416.5059
460.4670, 356.7930
461.6550, 435.0957
462.8430, 320.4043
464.0300, 184.7188
465.2180, 179.0645
466.4050, 80.43750
467.5920, 42.86719
468.7790, 379.2988
469.9650, 279.7344
471.1520, 183.1738
472.3380, 280.6172
473.5250, 42.94141
474.7110, 6.517578
475.8970, 300.9023
477.0820, 169.3223
478.2680, 321.7500
479.4540, 32.82031
480.6390, 23.59570
481.8240, 68.01367
483.0090, 2.564453
484.1940, 5.859375
485.3780, 22.28711
486.5630, 153.7188
487.7470, 63.15430
488.9320, 47.59570
490.1160, 196.9551
491.3000, 34.60742
492.4830, 186.2715
493.6670, 36.97461
494.8500, 50.76953
496.0340, 235.4648
497.2170, 20.27930
498.4000, 58.97852
499.5820, 102.2441
500.7650, 174.5176
501.9480, 167.8691
503.1300, 249.2500
504.3120, 214.6895
505.4940, 26.15625
506.6760, 159.6289
507.8580, 224.1094
509.0390, 59.61719
510.2210, 437.1660
511.4020, 364.7285
512.5830, 202.2969
513.7640, 362.8711
514.9450, 488.4707
516.1250, 625.0762
517.3060, 370.6875
518.4860, 526.3457
519.6660, 391.0312
520.8460, 486.7246
522.0260, 613.4238
523.2060, 450.1309
524.3850, 520.8438
525.5650, 650.5703
526.7440, 573.3105
527.9230, 568.0547
529.1020, 606.8066
530.2810, 473.5645
531.4590, 642.3262
532.6380, 884.0977
533.8160, 909.8770
534.9940, 862.7129
536.1720, 1081.596
537.3500, 675.4883
538.5270, 793.4531
539.7050, 823.4961
540.8820, 647.5762
542.0590, 681.6641
543.2360, 694.7773
544.4130, 603.9062
545.5900, 402.0430
546.7660, 548.2031
547.9430, 736.4336
549.1190, 554.7070
550.2950, 540.0039
551.4710, 332.3184
552.6470, 250.6523
553.8220, 313.9883
554.9980, 313.3496
556.1730, 387.7148
557.3480, 60.08789
558.5230, 48.46680
559.6980, 23.85547
560.8730, 130.2715
562.0470, 214.6973
563.2220, 207.1250
564.3960, 101.4395
565.5700, 253.9824
566.7440, 112.4121
567.9170, 195.1367
569.0910, 183.2676
570.2640, 235.6992
571.4380, 51.16211
572.6110, 299.6309
573.7840, 23.10352
574.9570, 123.4160
576.1290, 216.0059
577.3020, 153.5664
578.4740, 77.79297
579.6460, 57.15625
580.8180, 175.5234
581.9900, 73.89258
583.1620, 1.726563
584.3330, 235.6562
585.5040, 268.0430
586.6760, 217.4355
587.8470, 164.8320
589.0180, 145.2363
590.1880, 48.64648
591.3590, 160.0605
592.5290, 123.4824
593.7000, 188.9062
594.8700, 125.3379
596.0400, 262.7754
597.2090, 141.2148
598.3790, 106.6621
599.5490, 151.1113
600.7180, 181.5664
601.8870, 129.0273
603.0560, 176.4922
604.2250, 141.9609
605.3940, 60.43359
606.5620, 146.9141
607.7300, 195.3945
608.8990, 197.8867
610.0670, 146.3809
611.2350, 349.8789
612.4020, 97.38086
613.5700, 439.8867
614.7370, 347.6875
615.9050, 375.6426
617.0720, 362.1621
618.2390, 151.7188
619.4060, 516.2461
620.5720, 321.7402
621.7390, 579.2949
622.9050, 745.8496
624.0710, 431.1328
625.2370, 784.6250
626.4030, 797.2148
627.5690, 743.8105
628.7340, 919.4082
629.9000, 921.0098
631.0650, 1204.645
632.2300, 1220.281
633.3950, 1134.305
634.5600, 1257.980
635.7240, 1270.748
636.8890, 1414.375
638.0530, 1643.982
639.2170, 1602.623
640.3810, 1694.266
641.5450, 1902.914
642.7080, 2128.975
643.8720, 2224.725
645.0350, 2627.717
646.1980, 2711.689
647.3610, 3440.354
648.5240, 3925.975
649.6870, 4466.045
650.8490, 5321.900
652.0120, 6429.613
653.1740, 7678.291
654.3360, 9121.311
655.4980, 10779.01
656.6600, 12376.69
657.8210, 14213.14
658.9830, 15173.89
660.1440, 15511.46
661.3050, 15775.15
662.4660, 15078.09
663.6270, 13603.79
664.7870, 12083.12
665.9480, 11078.27
667.1080, 10110.95
668.2680, 9451.859
669.4280, 8707.539
670.5880, 8868.223
671.7480, 9209.900
672.9070, 10114.58
674.0670, 11250.59
675.2260, 12289.06
676.3850, 14103.92
677.5440, 15630.60
678.7030, 17548.28
679.8610, 19085.95
681.0200, 19957.66
682.1780, 20159.53
683.3360, 19408.80
684.4940, 18049.60
685.6520, 16036.20
686.8090, 13769.21
687.9670, 11426.05
689.1240, 9312.629
690.2810, 7770.262
691.4380, 6361.209
692.5950, 5124.846
693.7520, 4400.477
694.9080, 3563.104
696.0650, 3068.721
697.2210, 2662.336
698.3770, 2516.941
699.5330, 2143.580
700.6880, 2018.400
701.8440, 1675.006
702.9990, 1493.604
704.1550, 1263.799
705.3100, 1378.383
706.4650, 1198.963
707.6190, 1104.240
708.7740, 1117.807
709.9290, 921.3652
711.0830, 828.9180
712.2370, 853.4609
713.3910, 830.0000
714.5450, 787.7109
715.6980, 752.2383
716.8520, 576.0332
718.0050, 498.5469
719.1580, 581.0547
720.3110, 627.5547
721.4640, 627.0488
722.6170, 700.4785
723.7700, 422.9609
724.9220, 747.4375
726.0740, 680.9043
727.2260, 500.3672
728.3780, 715.8242
729.5300, 507.2734
730.6810, 387.7168
731.8330, 433.1523
732.9840, 653.5820
734.1350, 571.0059
735.2860, 692.4219
736.4370, 483.8301
737.5880, 287.2324
738.7380, 303.6289
739.8880, 446.0176
741.0390, 380.3984
742.1890, 339.7715
743.3380, 513.1387
744.4880, 429.5000
745.6380, 279.8516
746.7870, 348.1191
747.9360, 341.4551
749.0850, 440.7871
750.2340, 467.1094
751.3830, 400.2031
752.5310, 334.7305
753.6800, 212.0469
754.8280, 207.3516
755.9760, 57.65234
757.1240, 337.0742
758.2720, 245.4961
759.4190, 439.2109
760.5670, 416.3906
761.7140, 129.6953
762.8610, 273.9609
764.0080, 333.2188
765.1550, 96.69141
766.3020, 352.1250
767.4480, 297.4336
768.5950, 207.6602
769.7410, 134.9297
770.8870, 7.539063
772.0330, 70.97266
773.1780, 220.1328
774.3240, 230.4297
775.4690, 126.7188
776.6140, 251.0078
777.7590, 113.4648
778.9040, 155.5547
780.0490, 35.08203
781.1940, 45.86328
782.3380, 22.55078
783.4820, 102.7109
784.6260, 187.8359
785.7700, 59.03906
786.9140, 113.7891
788.0580, 1.199219
789.2010, 85.16406
790.3450, 126.1211
791.4880, 48.92969
792.6310, 91.96875
793.7730, 171.8594
794.9160, 135.2656
796.0590, 44.47656
797.2010, 6.265625
798.3430, 114.9883
799.4850, 35.69531
800.6270, 94.40234
801.7690, 5.910156
802.9100, 3.246094
804.0520, 172.3984
805.1930, 46.02734
806.3340, 207.6484
807.4750, 136.2617
808.6160, 141.8633
809.7560, 150.4609
810.8970, 96.95312
812.0370, 104.4414
813.1770, 56.99609
814.3170, 154.4180
815.4570, 124.1641
816.5960, 210.1641
817.7360, 90.48438
818.8750, 32.20703
820.0140, 6.933594
821.1530, 66.31641
822.2920, 44.44141
823.4310, 51.25000
824.5690, 1.105469
825.7070, 45.12109
826.8460, 174.1016
827.9840, 19.45703
829.1220, 160.2461
830.2590, 211.2812
831.3970, 141.3047
832.5340, 170.3164
833.6710, 281.3281
834.8080, 337.3359
835.9450, 101.8906
837.0820, 55.88281
838.2190, 210.8672
839.3550, 369.8359
840.4910, 516.8008
841.6270, 273.7812
842.7630, 211.7578
843.8990, 571.7227
845.0350, 421.7266
846.1700, 547.7227
847.3060, 804.7070
848.4410, 952.6836
849.5760, 1178.656
850.7100, 1364.617
851.8450, 1367.598
852.9800, 1424.570
854.1140, 1524.473
855.2480, 1655.570
856.3820, 1643.562
857.5160, 1574.539
858.6500, 1572.516
859.7830, 1297.477
860.9170, 1254.434
862.0500, 1163.383
863.1830, 893.3242
864.3160, 747.2617
865.4480, 822.1836
866.5810, 664.1016
867.7130, 702.0156
868.8460, 505.9219
869.9780, 238.8164
871.1100, 264.7070
872.2410, 350.5859
873.3730, 391.4648
874.5050, 187.3359
875.6360, 564.1992
876.7670, 220.0508
877.8980, 332.9023
879.0290, 209.7422
880.1590, 200.5820
881.2900, 263.4102
882.4200, 3.757813
883.5500, 343.0820
884.6800, 163.9180
885.8100, 221.7461
886.9400, 134.5625
888.0690, 168.3750
889.1990, 130.1758
890.3280, 256.9766
891.4570, 211.7656
892.5860, 71.51172
893.7140, 67.28906
894.8430, 61.93750
895.9710, 183.7930
897.1000, 70.44531
898.2280, 106.2734
899.3560, 180.9766
900.4830, 47.67969
901.6110, 54.37109
902.7380, 81.05078
903.8660, 114.7305
904.9930, 128.4297
906.1200, 18.11719
907.2460, 132.1289
908.3730, 305.7578
909.5000, 132.4336
910.6260, 313.1016
911.7520, 252.7695
912.8780, 135.4258
914.0040, 248.0781
915.1290, 72.73438
916.2550, 216.9648
917.3800, 59.50391
918.5050, 60.11719
919.6300, 118.1172
920.7550, 102.7344
921.8800, 41.39453
923.0040, 222.6094
924.1290, 259.0312
925.2530, 552.5938
926.3770, 304.1953
927.5010, 699.4492
928.6250, 555.0195
929.7480, 112.6133
930.8720, 390.4297
931.9950, 480.9492
933.1180, 486.6406
934.2410, 483.2148
935.3640, 503.9727
936.4860, 484.1289
937.6090, 493.0977
938.7310, 476.2383
939.8530, 494.8477
940.9750, 398.2266
942.0970, 356.0469
943.2180, 348.4766
944.3400, 208.1133
945.4610, 160.7539
946.5820, 112.5625
947.7030, 420.9062
948.8240, 191.3828
949.9450, 339.0547
951.0650, 416.7109
952.1860, 194.3867
953.3060, 131.0078
954.4260, 179.4609
955.5460, 66.63281
956.6650, 177.0234
957.7850, 85.74609
958.9040, 100.0547
960.0230, 256.5391
961.1420, 255.2812
962.2610, 17.02344
963.3800, 98.64844
964.4990, 231.0156
965.6170, 118.6758
966.7350, 229.3984
967.8530, 174.0586
968.9710, 98.86719
970.0890, 96.47266
971.2070, 232.1680
972.3240, 342.5859
973.4410, 139.6211
974.5580, 270.2422
975.6750, 169.8672
976.7920, 357.4883
977.9090, 399.1641
979.0250, 335.7812
980.1410, 444.3945
981.2580, 311.0078
982.3740, 484.6406
983.4890, 431.2656
984.6050, 518.8945
985.7200, 570.5508
986.8360, 601.1992
987.9510, 683.8477
989.0660, 747.4961
990.1810, 707.1406
991.2950, 837.3789
992.4100, 887.4258
993.5240, 1080.078
994.6390, 1217.477
995.7530, 1267.379
996.8660, 1576.059
997.9800, 1667.965
999.0940, 1860.641
1000.207, 2285.520
1001.320, 2628.211
1002.433, 2652.027
1003.546, 3341.707
1004.659, 3626.754
1005.772, 4183.434
1006.884, 4593.105
1007.996, 4936.262
1009.108, 5208.949
1010.220, 5529.852
1011.332, 5079.523
1012.444, 5001.605
1013.555, 5019.574
1014.666, 4968.266
1015.777, 5048.340
1016.888, 5155.484
1017.999, 4944.328
1019.110, 5406.008
1020.220, 5562.680
1021.331, 5595.352
1022.441, 5558.016
1023.551, 5669.703
1024.661, 5633.402
1025.770, 6146.254
1026.880, 5943.863
1027.989, 5949.789
1029.098, 5750.746
1030.207, 5584.793
1031.316, 5091.535
1032.425, 4832.242
1033.533, 4346.941
1034.642, 4214.414
1035.750, 3725.250
1036.858, 3125.848
1037.966, 2711.480
1039.073, 2600.148
1040.181, 2237.496
1041.288, 1584.773
1042.396, 1967.953
1043.503, 1344.199
1044.610, 1283.984
1045.716, 1116.988
1046.823, 1050.445
1047.929, 1093.891
1049.036, 713.4141
1050.142, 910.0273
1051.248, 717.8477
1052.353, 684.3477
1053.459, 692.8203
1054.564, 738.7109
1055.670, 537.9609
1056.775, 818.1289
1057.880, 645.9883
1058.985, 585.4102
1060.089, 700.8242
1061.194, 554.5156
1062.298, 638.9336
1063.402, 756.9414
1064.506, 379.6406
1065.610, 673.4531
1066.713, 149.0859
1067.817, 505.3047
1068.920, 567.9297
1070.023, 548.3203
1071.126, 566.3672
1072.229, 502.5547
1073.332, 363.8945
1074.435, 596.4766
1075.537, 418.8047
1076.639, 547.3555
1077.741, 366.8320
1078.843, 337.2734
1079.945, 404.0000
1081.046, 420.6250
1082.148, 453.7383
1083.249, 662.7578
1084.350, 519.1797
1085.451, 532.8867
1086.551, 538.4102
1087.652, 400.4570
1088.752, 487.4961
1089.853, 511.3555
1090.953, 324.3438
1092.053, 322.9727
1093.152, 227.7578
1094.252, 408.8438
1095.351, 325.8125
1096.451, 211.5664
1097.550, 411.1914
1098.649, 109.3633
1099.748, 311.0703
1100.846, 46.56641
1101.945, 195.2578
1103.043, 118.1523
1104.141, 303.2148
1105.239, 29.48438
1106.337, 266.9141
1107.434, 214.4609
1108.532, 172.6562
1109.629, 119.0117
1110.726, 289.1641
1111.823, 281.7148
1112.920, 181.7188
1114.017, 510.8320
1115.113, 320.8867
1116.210, 637.1328
1117.306, 630.6211
1118.402, 755.0859
1119.498, 597.2148
1120.593, 918.8789
1121.689, 753.2305
1122.784, 590.6406
1123.879, 387.4414
1124.974, 301.9219
1126.069, 213.4297
1127.164, 401.4648
1128.259, 259.9023
1129.353, 115.5664
1130.447, 398.0273
1131.541, 131.5586
1132.635, 483.7656
1133.729, 146.7578
1134.822, 228.9414
1135.916, 92.54688
1137.009, 347.5117
1138.102, 217.7109
1139.195, 73.92969
1140.288, 378.2773
1141.380, 136.9023
1142.473, 277.6719
1143.565, 100.3477
1144.657, 126.0898
1145.749, 398.0469
1146.841, 27.12891
1147.932, 73.78125
1149.024, 159.0078
1150.115, 606.1367
1151.206, 425.6055
1152.297, 301.7148
1153.388, 317.5508
1154.479, 206.0586
1155.569, 209.2070
1156.659, 194.7422
1157.750, 285.0508
1158.839, 149.3906
1159.929, 19.16016
1161.019, 93.31641
1162.108, 16.64844
1163.198, 375.0625
1164.287, 265.7578
1165.376, 349.2109
1166.465, 154.8516
1167.553, 316.3281
1168.642, 69.40234
1169.730, 418.9453
1170.818, 15.91406
1171.906, 92.89062
1172.994, 117.6797
1174.082, 99.38672
1175.170, 207.6836
1176.257, 154.0469
1177.344, 44.46484
1178.431, 48.27734
1179.518, 240.3047
1180.605, 415.5234
1181.691, 168.5938
1182.778, 309.8945
1183.864, 45.89062
1184.950, 181.2344
1186.036, 59.91406
1187.122, 128.7930
1188.207, 202.6328
1189.292, 65.42969
1190.378, 66.18750
1191.463, 239.9062
1192.548, 65.58203
1193.632, 161.2227
1194.717, 27.05078
1195.801, 219.5977
1196.886, 459.1133
1197.970, 117.6211
1199.054, 126.9453
1200.137, 72.36328
1201.221, 154.2031
1202.305, 128.3242
1203.388, 88.50391
1204.471, 386.9453
1205.554, 135.9531
1206.637, 327.0234
1207.719, 51.95703
1208.802, 54.84766
1209.884, 23.68750
1210.966, 60.52344
1212.048, 5.121094
1213.130, 157.9609
1214.212, 63.66406
1215.293, 230.2188
1216.374, 270.7266
1217.456, 146.2031
1218.536, 145.6289
1219.617, 18.01562
1220.698, 14.92188
1221.778, 29.36719
1222.859, 20.40234
1223.939, 12.55469
1225.019, 64.66016
1226.099, 53.71484
1227.178, 229.7969
1228.258, 93.96484
1229.337, 201.8477
1230.417, 397.7422
1231.496, 158.4492
1232.574, 33.25781
1233.653, 91.00391
1234.732, 278.7383
1235.810, 232.0117
1236.888, 200.6641
1237.966, 297.0312
1239.044, 237.6211
1240.122, 327.7617
1241.199, 181.2539
1242.277, 65.70312
1243.354, 43.89844
1244.431, 53.41797
1245.508, 233.6875
1246.585, 67.08594
1247.661, 169.0469
1248.738, 244.1367
1249.814, 111.1836
1250.890, 180.1836
1251.966, 159.9727
1253.042, 10.93750
1254.117, 131.9180
1255.193, 78.72266
1256.268, 2.484375
1257.343, 70.81250
1258.418, 64.79297
1259.493, 105.3359
1260.567, 42.07812
1261.642, 154.1719
1262.716, 198.5625
1263.790, 145.7812
1264.864, 455.3320
1265.938, 184.2305
1267.011, 121.4570
1268.085, 41.21094
1269.158, 72.41797
1270.231, 238.4766
1271.304, 196.8047
1272.377, 19.21875
1273.450, 188.3008
1274.522, 9.121094
1275.594, 152.6875
1276.666, 1.941406
1277.738, 126.7930
1278.810, 46.28125
1279.882, 188.9023
1280.953, 40.48828
1282.025, 86.02344
1283.096, 27.48047
1284.167, 22.42969
1285.238, 166.7188
1286.308, 32.61719
1287.379, 164.5781
1288.449, 129.3672
1289.519, 283.7852
1290.589, 204.5000
1291.659, 94.54297
1292.729, 285.0078
1293.798, 68.94141
1294.868, 381.0234
