##NAMES=Enstatite
##RRUFFID=R050644
##IDEAL CHEMISTRY=MgSiO_3_
##LOCALITY=Morogoro, Tanzania
##OWNER=RRUFF
##SOURCE=Jibamitra Ganguly
##DESCRIPTION=Light brown crystal fragment
##STATUS=The identification of this mineral has been confirmed by X-ray diffraction and chemical analysis
##URL=rruff.info/R050644
##MEASURED CHEMISTRY=(Mg_0.90_Fe_0.10_)SiO_3_
##PIN_ID=L01041
##ORIENTATION=Laser parallel to -a* (-1 0 0). Fiducial mark perpendicular to laser is parallel to -b [0 -1 0]
113.2080, 0.0000000E+00
114.4400, 169.7002
115.6710, 17.84082
116.9030, 99.25977
118.1340, 212.7305
119.3650, 30.68262
120.5960, 127.0361
121.8270, 143.8887
123.0580, 149.4785
124.2880, 229.8359
125.5190, 253.2119
126.7490, 405.0010
127.9790, 564.5215
129.2090, 771.2627
130.4390, 1045.408
131.6680, 1328.825
132.8980, 1730.072
134.1270, 2107.049
135.3560, 2793.543
136.5850, 3364.372
137.8140, 4105.383
139.0430, 4806.451
140.2710, 5139.473
141.5000, 4809.363
142.7280, 4305.049
143.9560, 3730.475
145.1840, 3227.584
146.4120, 2964.334
147.6390, 2395.679
148.8670, 2228.655
150.0940, 1883.188
151.3210, 1625.756
152.5490, 1402.624
153.7750, 1088.979
155.0020, 1167.597
156.2290, 832.4590
157.4550, 847.5557
158.6810, 677.8525
159.9080, 530.3447
161.1340, 743.0273
162.3590, 593.9014
163.5850, 472.9688
164.8110, 493.2266
166.0360, 440.6719
167.2610, 381.3018
168.4860, 481.1230
169.7110, 379.1396
170.9360, 266.3535
172.1610, 374.7656
173.3850, 472.3711
174.6100, 491.1650
175.8340, 478.1436
177.0580, 513.2998
178.2820, 413.6289
179.5050, 552.1240
180.7290, 687.7822
181.9520, 909.5957
183.1760, 1128.205
184.3990, 1356.242
185.6220, 1735.453
186.8450, 1873.750
188.0670, 1987.053
189.2900, 2006.014
190.5120, 1979.158
191.7340, 2005.334
192.9560, 1737.203
194.1780, 1596.744
195.4000, 1394.756
196.6220, 1238.477
197.8430, 1067.285
199.0640, 903.8828
200.2860, 810.8574
201.5070, 730.9277
202.7270, 651.0977
203.9480, 631.3672
205.1690, 364.7344
206.3890, 341.1992
207.6090, 225.7617
208.8290, 201.4238
210.0490, 152.2305
211.2690, 298.2578
212.4890, 323.3770
213.7080, 235.5879
214.9280, 173.8965
216.1470, 231.3047
217.3660, 407.8008
218.5850, 439.3828
219.8030, 586.1035
221.0220, 654.0938
222.2400, 852.1914
223.4590, 888.4805
224.6770, 1230.906
225.8950, 1535.545
227.1120, 2046.293
228.3300, 2422.271
229.5480, 2828.387
230.7650, 3439.555
231.9820, 3921.777
233.1990, 4188.053
234.4160, 4125.410
235.6330, 3626.887
236.8490, 3048.414
238.0660, 2384.006
239.2820, 1912.646
240.4980, 1420.336
241.7140, 1079.074
242.9300, 785.5098
244.1460, 531.6914
245.3610, 388.5703
246.5770, 369.4941
247.7920, 277.9102
249.0070, 113.4727
250.2220, 154.5293
251.4370, 78.62695
252.6510, 17.23242
253.8660, 43.04883
255.0800, 35.17383
256.2940, 60.43555
257.5080, 44.10547
258.7220, 149.0547
259.9360, 17.49023
261.1490, 66.33203
262.3630, 74.66602
263.5760, 130.9824
264.7890, 177.3164
266.0020, 103.3418
267.2150, 144.3711
268.4270, 33.15430
269.6400, 147.7012
270.8520, 32.94922
272.0640, 34.20117
273.2760, 34.82617
274.4880, 25.98047
275.7000, 189.3730
276.9120, 11.13281
278.1230, 293.4980
279.3340, 161.2598
280.5450, 262.1406
281.7560, 7.134766
282.9670, 41.76367
284.1780, 170.4355
285.3880, 272.7305
286.5980, 331.1172
287.8090, 338.5957
289.0190, 550.1562
290.2290, 782.7969
291.4380, 767.5195
292.6480, 1315.314
293.8570, 1555.184
295.0670, 1698.119
296.2760, 1826.125
297.4850, 1528.189
298.6930, 1174.312
299.9020, 1410.490
301.1110, 1252.721
302.3190, 1241.002
303.5270, 991.3398
304.7350, 988.7246
305.9430, 1116.246
307.1510, 1086.869
308.3580, 1263.406
309.5660, 1618.988
310.7730, 1941.639
311.9800, 2356.332
313.1870, 2500.070
314.3940, 2943.850
315.6010, 3348.125
316.8070, 3560.004
318.0130, 3731.922
319.2200, 3541.895
320.4260, 3409.910
321.6310, 3341.986
322.8370, 3316.102
324.0430, 3501.256
325.2480, 3964.879
326.4540, 4333.164
327.6590, 5353.250
328.8640, 6348.543
330.0680, 7814.854
331.2730, 9726.773
332.4780, 11247.19
333.6820, 13248.96
334.8860, 15138.90
336.0900, 17041.05
337.2940, 17775.68
338.4980, 17796.02
339.7010, 16769.80
340.9050, 15148.41
342.1080, 13560.52
343.3110, 11446.14
344.5140, 9606.633
345.7170, 7802.143
346.9200, 6665.688
348.1220, 5697.256
349.3240, 4515.855
350.5270, 3831.482
351.7290, 3438.137
352.9310, 2726.211
354.1320, 2597.256
355.3340, 2179.676
356.5350, 1933.438
357.7370, 1926.221
358.9380, 1691.027
360.1390, 1758.219
361.3400, 1810.072
362.5400, 1691.947
363.7410, 1644.844
364.9410, 1696.762
366.1410, 1747.701
367.3410, 1878.658
368.5410, 1978.637
369.7410, 2262.633
370.9400, 2459.645
372.1400, 2576.672
373.3390, 3023.719
374.5380, 3193.781
375.7370, 3652.855
376.9360, 3607.947
378.1350, 3815.053
379.3330, 3688.172
380.5310, 3827.307
381.7300, 3695.453
382.9280, 3597.615
384.1260, 3789.789
385.3230, 4277.975
386.5210, 4688.174
387.7180, 5199.387
388.9160, 6000.613
390.1130, 6593.846
391.3100, 7394.094
392.5060, 8475.352
393.7030, 9125.623
394.9000, 9586.906
396.0960, 9834.197
397.2920, 9565.188
398.4880, 9357.557
399.6840, 9083.875
400.8800, 8446.215
402.0750, 7973.555
403.2710, 7676.910
404.4660, 7181.303
405.6610, 6833.051
406.8560, 6731.549
408.0510, 6379.043
409.2450, 6209.688
410.4400, 5928.289
411.6340, 5971.371
412.8280, 5753.268
414.0220, 5409.244
415.2160, 5257.887
416.4100, 4745.812
417.6030, 4481.496
418.7970, 4035.668
419.9900, 3284.391
421.1830, 2811.924
422.3760, 2303.684
423.5690, 1896.461
424.7610, 1677.254
425.9540, 1239.062
427.1460, 905.8867
428.3380, 870.7246
429.5300, 747.5801
430.7220, 541.4492
431.9140, 503.3301
433.1050, 556.2246
434.2970, 359.1309
435.4880, 263.0488
436.6790, 467.9766
437.8700, 337.9199
439.0610, 236.8730
440.2510, 115.8359
441.4420, 203.8086
442.6320, 353.7910
443.8220, 330.7852
445.0120, 168.7871
446.2020, 45.68945
447.3910, 321.7070
448.5810, 106.4062
449.7700, 88.43555
450.9600, 171.4902
452.1490, 288.4199
453.3370, 68.26172
454.5260, 80.20312
455.7150, 348.1543
456.9030, 184.1113
458.0910, 2.781250
459.2800, 335.8184
460.4670, 197.7754
461.6550, 91.69922
462.8430, 104.0117
464.0300, 59.70508
465.2180, 72.63086
466.4050, 178.4512
467.5920, 115.2266
468.7790, 125.3242
469.9650, 52.49609
471.1520, 132.2871
472.3380, 75.07227
473.5250, 127.3066
474.7110, 95.39844
475.8970, 54.88867
477.0820, 41.96289
478.2680, 147.3652
479.4540, 18.78516
480.6390, 135.7637
481.8240, 36.68750
483.0090, 118.1797
484.1940, 91.75195
485.3780, 14.33789
486.5630, 154.0449
487.7470, 144.0879
488.9320, 205.6152
490.1160, 177.2227
491.3000, 213.6758
492.4830, 174.6367
493.6670, 138.5781
494.8500, 58.02539
496.0340, 31.53125
497.2170, 20.13086
498.4000, 207.2383
499.5820, 100.6289
500.7650, 232.4766
501.9480, 25.40234
503.1300, 300.7734
504.3120, 403.1426
505.4940, 294.5254
506.6760, 322.9062
507.8580, 475.2871
509.0390, 608.6855
510.2210, 937.0801
511.4020, 912.4688
512.5830, 1064.859
513.7640, 1246.244
514.9450, 1696.686
516.1250, 1780.191
517.3060, 2189.697
518.4860, 2464.201
519.6660, 2756.697
520.8460, 2997.189
522.0260, 3032.676
523.2060, 3190.180
524.3850, 2790.676
525.5650, 2504.170
526.7440, 2542.656
527.9230, 2118.156
529.1020, 2144.648
530.2810, 2372.139
531.4590, 2060.623
532.6380, 2284.113
533.8160, 2356.643
534.9940, 2356.164
536.1720, 2603.676
537.3500, 2455.182
538.5270, 2091.684
539.7050, 2108.178
540.8820, 2006.674
542.0590, 1885.162
543.2360, 1809.650
544.4130, 2039.158
545.5900, 1925.662
546.7660, 1830.189
547.9430, 2017.717
549.1190, 1709.244
550.2950, 1408.777
551.4710, 1503.328
552.6470, 1165.883
553.8220, 965.4473
554.9980, 697.0039
556.1730, 877.5723
557.3480, 583.1465
558.5230, 657.7148
559.6980, 514.2715
560.8730, 183.8184
562.0470, 381.3535
563.2220, 518.8789
564.3960, 211.3926
565.5700, 394.8945
566.7440, 457.3828
567.9170, 528.8613
569.0910, 332.3301
570.2640, 556.7832
571.4380, 519.2266
572.6110, 676.6562
573.7840, 683.0742
574.9570, 797.4766
576.1290, 688.8633
577.3020, 720.2402
578.4740, 487.5996
579.6460, 447.9473
580.8180, 362.2793
581.9900, 379.5977
583.1620, 303.9004
584.3330, 396.1895
585.5040, 373.4629
586.6760, 80.72266
587.8470, 266.9570
589.0180, 46.17773
590.1880, 465.2891
591.3590, 436.3281
592.5290, 267.4863
593.7000, 21.37109
594.8700, 144.7109
596.0400, 155.7773
597.2090, 305.8320
598.3790, 82.86914
599.5490, 8.433594
600.7180, 166.4023
601.8870, 11.35742
603.0560, 26.26953
604.2250, 17.14062
605.3940, 37.96875
606.5620, 77.80664
607.7300, 27.53906
608.8990, 158.8496
610.0670, 160.5176
611.2350, 178.3984
612.4020, 162.0898
613.5700, 124.2363
614.7370, 398.7969
615.9050, 114.3496
617.0720, 89.70898
618.2390, 379.0137
619.4060, 222.9746
620.5720, 329.1484
621.7390, 112.6230
622.9050, 432.6738
624.0710, 498.9141
625.2370, 646.0195
626.4030, 590.2754
627.5690, 448.6797
628.7340, 638.9980
629.9000, 574.3750
631.0650, 678.6816
632.2300, 657.0273
633.3950, 853.3594
634.5600, 918.9961
635.7240, 887.9043
636.8890, 989.8496
638.0530, 1081.217
639.2170, 1144.146
640.3810, 1217.475
641.5450, 1090.629
642.7080, 1324.334
643.8720, 1370.527
645.0350, 1430.797
646.1980, 1686.957
647.3610, 1674.029
648.5240, 2226.746
649.6870, 2469.857
650.8490, 2845.344
652.0120, 3527.189
653.1740, 4164.293
654.3360, 4786.439
655.4980, 5758.568
656.6600, 6253.678
657.8210, 6917.668
658.9830, 7451.814
660.1440, 7640.137
661.3050, 7191.305
662.4660, 6591.072
663.6270, 5993.973
664.7870, 5432.137
665.9480, 4466.035
667.1080, 4327.113
668.2680, 3914.055
669.4280, 3867.566
670.5880, 3802.400
671.7480, 3827.682
672.9070, 4304.105
674.0670, 4645.828
675.2260, 4867.531
676.3850, 5757.275
677.5440, 6584.498
678.7030, 7043.533
679.8610, 7371.754
681.0200, 7465.543
682.1780, 7535.408
683.3360, 6963.113
684.4940, 6620.652
685.6520, 5556.182
686.8090, 4983.680
687.9670, 3859.176
689.1240, 3243.631
690.2810, 2798.061
691.4380, 2043.471
692.5950, 1664.857
693.7520, 1681.225
694.9080, 1478.664
696.0650, 1059.695
697.2210, 1112.996
698.3770, 771.3848
699.5330, 676.6367
700.6880, 609.8730
701.8440, 724.0840
702.9990, 786.2734
704.1550, 527.4395
705.3100, 707.5859
706.4650, 739.7090
707.6190, 494.8086
708.7740, 327.8887
709.9290, 576.9473
711.0830, 613.9805
712.2370, 686.9941
713.3910, 712.7715
714.5450, 682.4336
715.6980, 637.9004
716.8520, 561.8281
718.0050, 501.7324
719.1580, 490.2754
720.3110, 446.4590
721.4640, 466.3164
722.6170, 475.1367
723.7700, 446.9336
724.9220, 466.0684
726.0740, 458.9512
727.2260, 491.3066
728.3780, 455.1621
729.5300, 507.8867
730.6810, 499.6191
731.8330, 375.3301
732.9840, 578.1152
734.1350, 411.7852
735.2860, 460.4336
736.4370, 373.0645
737.5880, 486.9648
738.7380, 385.4824
739.8880, 246.0586
741.0390, 325.6523
742.1890, 337.8418
743.3380, 552.6836
744.4880, 323.2285
745.6380, 397.8613
746.7870, 449.9805
747.9360, 305.4629
749.0850, 297.9648
750.2340, 326.4727
751.3830, 314.9609
752.5310, 317.5977
753.6800, 243.0918
754.8280, 27.56445
755.9760, 17.15039
757.1240, 88.27930
758.2720, 213.7383
759.4190, 470.1934
760.5670, 348.6309
761.7140, 190.0762
762.8610, 162.4570
764.0080, 372.9199
765.1550, 227.2949
766.3020, 29.34375
767.4480, 143.9648
768.5950, 173.7461
769.7410, 213.4199
770.8870, 185.5703
772.0330, 75.70117
773.1780, 152.8184
774.3240, 180.9180
775.4690, 34.02344
776.6140, 60.87695
777.7590, 135.1582
778.9040, 236.1758
780.0490, 26.17969
781.1940, 215.1680
782.3380, 37.85938
783.4820, 382.0605
784.6260, 18.96484
785.7700, 47.15430
786.9140, 319.6738
788.0580, 56.48633
789.2010, 24.28320
790.3450, 124.0547
791.4880, 201.1875
792.6310, 233.5664
793.7730, 4.902344
794.9160, 132.3477
796.0590, 88.78125
797.2010, 51.19922
798.3430, 72.59766
799.4850, 58.01953
800.6270, 232.3125
801.7690, 56.62500
802.9100, 114.9258
804.0520, 50.78906
805.1930, 93.44531
806.3340, 9.667969
807.4750, 107.8711
808.6160, 41.94141
809.7560, 140.7930
810.8970, 252.2578
812.0370, 140.2930
813.1770, 99.32031
814.3170, 11.33594
815.4570, 27.33594
816.5960, 5.320313
817.7360, 64.28906
818.8750, 12.75781
820.0140, 106.8281
821.1530, 192.0312
822.2920, 122.1172
823.4310, 225.6445
824.5690, 95.40234
825.7070, 244.1523
826.8460, 419.8945
827.9840, 168.6250
829.1220, 299.3477
830.2590, 143.0625
831.3970, 69.76562
832.5340, 60.53906
833.6710, 292.1133
834.8080, 61.75781
835.9450, 436.3945
837.0820, 99.02344
838.2190, 158.6445
839.3550, 421.2656
840.4910, 152.8750
841.6270, 233.4805
842.7630, 448.0820
843.8990, 379.7031
845.0350, 384.3203
846.1700, 564.9297
847.3060, 683.5312
848.4410, 821.1289
849.5760, 948.7227
850.7100, 1052.305
851.8450, 1165.699
852.9800, 1368.465
854.1140, 1307.043
855.2480, 1298.613
856.3820, 1237.184
857.5160, 882.7500
858.6500, 1041.309
859.7830, 629.8672
860.9170, 526.4180
862.0500, 454.9648
863.1830, 647.5156
864.3160, 570.0586
865.4480, 493.6133
866.5810, 358.1562
867.7130, 291.7031
868.8460, 343.2383
869.9780, 469.7969
871.1100, 172.3555
872.2410, 221.9102
873.3730, 344.4609
874.5050, 38.01562
875.6360, 308.5781
876.7670, 165.1406
877.8980, 186.7109
879.0290, 22.29297
880.1590, 71.88281
881.2900, 105.4805
882.4200, 102.1016
883.5500, 78.72656
884.6800, 194.3594
885.8100, 219.3086
886.9400, 222.1367
888.0690, 329.2422
889.1990, 251.9180
890.3280, 204.5977
891.4570, 272.1133
892.5860, 264.4414
893.7140, 69.85156
894.8430, 283.5430
895.9710, 132.2305
897.1000, 39.93359
898.2280, 406.6406
899.3560, 242.0352
900.4830, 280.7852
901.6110, 348.5312
902.7380, 286.3477
903.8660, 334.0938
904.9930, 372.9023
906.1200, 68.64844
907.2460, 214.3984
908.3730, 457.8320
909.5000, 239.5820
910.6260, 532.3555
911.7520, 467.3398
912.8780, 437.4453
914.0040, 793.2109
915.1290, 825.0039
916.2550, 976.9453
917.3800, 914.7461
918.5050, 1523.457
919.6300, 1561.262
920.7550, 1997.141
921.8800, 2558.367
923.0040, 2448.184
924.1290, 2818.613
925.2530, 2980.672
926.3770, 2945.461
927.5010, 2983.195
928.6250, 2721.941
929.7480, 2708.695
930.8720, 2463.570
931.9950, 2434.289
933.1180, 2686.820
934.2410, 2507.492
935.3640, 2484.578
936.4860, 2306.523
937.6090, 2240.188
938.7310, 1846.105
939.8530, 1848.828
940.9750, 1371.684
942.0970, 1397.957
943.2180, 1373.898
944.3400, 892.3984
945.4610, 903.7461
946.5820, 917.7852
947.7030, 788.8320
948.8240, 605.8359
949.9450, 594.3477
951.0650, 507.0352
952.1860, 214.5391
953.3060, 63.51562
954.4260, 210.4102
955.5460, 317.4727
956.6650, 342.7070
957.7850, 359.9453
958.9040, 130.2148
960.0230, 446.4727
961.1420, 423.7656
962.2610, 185.0664
963.3800, 236.3828
964.4990, 463.7070
965.6170, 259.0508
966.7350, 512.3789
967.8530, 246.0352
968.9710, 158.4102
970.0890, 317.6797
971.2070, 316.0703
972.3240, 203.4727
973.4410, 471.8594
974.5580, 259.2852
975.6750, 108.7109
976.7920, 521.0859
977.9090, 552.7969
979.0250, 398.2930
980.1410, 792.8008
981.2580, 604.3242
982.3740, 800.8516
983.4890, 1056.625
984.6050, 1462.191
985.7200, 1701.863
986.8360, 1707.461
987.9510, 1790.254
989.0660, 1151.469
990.1810, 1559.355
991.2950, 1744.984
992.4100, 1503.625
993.5240, 1959.621
994.6390, 2688.270
995.7530, 2497.930
996.8660, 3216.789
997.9800, 3652.477
999.0940, 4412.395
1000.207, 4983.090
1001.320, 5773.797
1002.433, 6840.508
1003.546, 7896.223
1004.659, 9016.945
1005.772, 10429.26
1006.884, 11346.99
1007.996, 12227.74
1009.108, 12595.69
1010.220, 12505.45
1011.332, 12273.21
1012.444, 12339.97
1013.555, 12066.06
1014.666, 11828.85
1015.777, 12127.64
1016.888, 12181.68
1017.999, 12852.11
1019.110, 13362.91
1020.220, 13899.74
1021.331, 14630.05
1022.441, 15244.20
1023.551, 16062.04
1024.661, 16593.88
1025.770, 17206.75
1026.880, 17645.17
1027.989, 17924.66
1029.098, 17806.55
1030.207, 17196.16
1031.316, 16436.60
1032.425, 15536.75
1033.533, 14415.00
1034.642, 12997.05
1035.750, 11954.01
1036.858, 10628.54
1037.966, 9703.555
1039.073, 8523.875
1040.181, 7276.961
1041.288, 6587.805
1042.396, 5922.898
1043.503, 4888.203
1044.610, 4408.477
1045.716, 3740.703
1046.823, 3694.211
1047.929, 3054.512
1049.036, 2709.109
1050.142, 2466.801
1051.248, 2327.230
1052.353, 2259.496
1053.459, 2059.660
1054.564, 1849.879
1055.670, 1801.070
1056.775, 1583.715
1057.880, 1522.547
1058.985, 1637.094
1060.089, 1473.207
1061.194, 965.0586
1062.298, 761.2305
1063.402, 997.2344
1064.506, 1081.285
1065.610, 823.2500
1066.713, 742.5547
1067.817, 665.0273
1068.920, 852.8008
1070.023, 529.1133
1071.126, 462.3008
1072.229, 678.7969
1073.332, 461.6211
1074.435, 649.9258
1075.537, 425.2305
1076.639, 431.3633
1077.741, 550.1992
1078.843, 465.7656
1079.945, 654.5977
1081.046, 458.0664
1082.148, 415.0156
1083.249, 981.3281
1084.350, 929.4023
1085.451, 896.3633
1086.551, 810.0508
1087.652, 657.8594
1088.752, 422.1562
1089.853, 217.4688
1090.953, 242.0312
1092.053, 216.5781
1093.152, 291.3242
1094.252, 299.7188
1095.351, 262.8633
1096.451, 74.59766
1097.550, 350.1875
1098.649, 24.89844
1099.748, 165.5156
1100.846, 173.7344
1101.945, 243.3906
1103.043, 110.3320
1104.141, 166.5078
1105.239, 32.67969
1106.337, 178.4570
1107.434, 244.5820
1108.532, 30.29688
1109.629, 132.3320
1110.726, 182.4961
1111.823, 247.0938
1112.920, 117.9414
1114.017, 246.9141
1115.113, 20.87109
1116.210, 79.55078
1117.306, 67.46094
1118.402, 124.3594
1119.498, 43.34375
1120.593, 261.2617
1121.689, 31.09375
1122.784, 290.8984
1123.879, 165.6836
1124.974, 14.82422
1126.069, 204.9570
1127.164, 305.4414
1128.259, 60.35156
1129.353, 115.3516
1130.447, 55.08594
1131.541, 145.7266
1132.635, 142.3438
1133.729, 240.9414
1134.822, 270.5117
1135.916, 221.0664
1137.009, 2.933594
1138.102, 231.1562
1139.195, 139.3984
1140.288, 74.85547
1141.380, 291.7031
1142.473, 223.7070
1143.565, 332.0898
1144.657, 44.30469
1145.749, 155.6719
1146.841, 65.78125
1147.932, 77.47266
1149.024, 25.29688
1150.115, 298.8906
1151.206, 136.0547
1152.297, 22.69141
1153.388, 66.28906
1154.479, 26.88672
1155.569, 25.08203
1156.659, 156.3477
1157.750, 28.44922
1158.839, 21.38672
1159.929, 191.2969
1161.019, 33.82422
1162.108, 30.33203
1163.198, 136.5547
1164.287, 96.11719
1165.376, 147.0859
1166.465, 220.6992
1167.553, 55.66797
1168.642, 215.6172
1169.730, 122.1953
1170.818, 265.4297
1171.906, 15.10156
1172.994, 308.8477
1174.082, 29.75000
1175.170, 151.3672
1176.257, 4.679688
1177.344, 14.93359
1178.431, 154.5586
1179.518, 84.74609
1180.605, 64.91016
1181.691, 135.1172
1182.778, 180.5234
1183.864, 118.1523
1184.950, 55.81641
1186.036, 235.0859
1187.122, 107.2617
1188.207, 61.17188
1189.292, 132.0508
1190.378, 21.89062
1191.463, 74.68750
1192.548, 30.44922
1193.632, 25.83203
1194.717, 10.17578
1195.801, 66.42188
1196.886, 268.9766
1197.970, 63.50000
1199.054, 116.9375
1200.137, 310.3398
1201.221, 35.70703
1202.305, 183.0312
1203.388, 14.37891
1204.471, 264.6172
1205.554, 404.8281
1206.637, 55.00000
1207.719, 109.0938
1208.802, 182.1445
1209.884, 118.1562
1210.966, 10.80859
1212.048, 88.10547
1213.130, 285.3047
1214.212, 3.855469
1215.293, 177.0781
1216.374, 22.54688
1217.456, 46.87500
1218.536, 6.382813
1219.617, 10.04688
1220.698, 23.57812
1221.778, 261.3672
1222.859, 57.64062
1223.939, 221.1289
1225.019, 54.31641
1226.099, 134.4609
1227.178, 10.43359
1228.258, 135.6055
1229.337, 155.5391
1230.417, 406.5039
1231.496, 143.4258
1232.574, 74.31641
1233.653, 256.1562
1234.732, 98.96484
1235.810, 302.7617
1236.888, 315.4922
1237.966, 284.0586
1239.044, 16.78125
1240.122, 82.87500
1241.199, 108.6250
1242.277, 3.910156
1243.354, 253.4883
1244.431, 316.8477
1245.508, 18.05469
1246.585, 37.80078
1247.661, 314.2930
1248.738, 153.8086
1249.814, 70.12891
1250.890, 277.1914
1251.966, 302.9609
1253.042, 255.7461
1254.117, 162.9102
1255.193, 159.4805
1256.268, 71.36328
1257.343, 29.19922
1258.418, 25.80859
1259.493, 233.5586
1260.567, 427.0469
1261.642, 403.7227
1262.716, 436.2773
1263.790, 440.9766
1264.864, 310.5508
1265.938, 140.0938
1267.011, 111.0078
1268.085, 70.66016
1269.158, 337.0820
1270.231, 154.2617
1271.304, 110.6094
1272.377, 536.9219
1273.450, 59.19922
1274.522, 244.0742
1275.594, 196.2773
1276.666, 336.4375
1277.738, 345.7344
1278.810, 278.5742
1279.882, 324.8633
1280.953, 127.0430
1282.025, 14.53906
1283.096, 55.83594
1284.167, 12.96484
1285.238, 193.8750
1286.308, 211.6523
1287.379, 369.8516
1288.449, 244.9883
1289.519, 309.6719
1290.589, 80.60547
1291.659, 300.6875
1292.729, 266.0312
1293.798, 151.2891
1294.868, 340.7188
