##NAMES=Enstatite
##RRUFFID=R060744
##IDEAL CHEMISTRY=MgSiO_3_
##LOCALITY=Orissa, India
##OWNER=RRUFF
##SOURCE=Herb Obodda
##DESCRIPTION=Brown transparent fragment
##STATUS=The identification of this mineral has been confirmed by X-ray diffraction and chemical analysis
##URL=rruff.info/R060744
##MEASURED CHEMISTRY=(Mg_0.85_Fe^2+^_0.13_Fe^3+^_0.01_Mn_0.01_)_Σ=1_(Si_0.99_Al_0.01_)_Σ=1_O_3_; trace amounts of Ca; Fe^2+^ and Fe^3+^ splitted by charge balance
##PIN_ID=L01935
##ORIENTATION=Laser parallel to -a* (-1 0 0). Fiducial mark perpendicular to laser is parallel to -b [0 -1 0]
113.2080, 0.0000000E+00
114.4400, 6.169434
115.6710, 37.02588
116.9030, 508.6167
118.1340, 1074.971
119.3650, 1995.737
120.5960, 3199.763
121.8270, 4974.984
123.0580, 7431.864
124.2880, 10667.60
125.5190, 14404.51
126.7490, 18000.59
127.9790, 20086.22
129.2090, 19787.00
130.4390, 17880.99
131.6680, 14989.13
132.8980, 11843.85
134.1270, 8984.638
135.3560, 6649.722
136.5850, 4995.272
137.8140, 3982.711
139.0430, 3325.652
140.2710, 2797.471
141.5000, 2380.087
142.7280, 2125.855
143.9560, 1971.030
145.1840, 1587.154
146.4120, 1466.177
147.6390, 1104.113
148.8670, 772.7456
150.0940, 620.6479
151.3210, 554.5537
152.5490, 265.8237
153.7750, 183.1206
155.0020, 113.2305
156.2290, 47.05322
157.4550, 18.75537
158.6810, 105.2622
159.9080, 282.3452
161.1340, 636.3403
162.3590, 1032.631
163.5850, 1340.296
164.8110, 1115.308
166.0360, 744.7104
167.2610, 444.5479
168.4860, 315.8638
169.7110, 155.6992
170.9360, 47.91357
172.1610, 168.9453
173.3850, 126.3613
174.6100, 188.1377
175.8340, 84.25146
177.0580, 8.683594
178.2820, 88.60645
179.5050, 240.5718
180.7290, 409.2915
181.9520, 716.7583
183.1760, 979.3936
184.3990, 1406.189
185.6220, 1713.566
186.8450, 2121.448
188.0670, 2365.729
189.2900, 2554.012
190.5120, 2532.350
191.7340, 2228.367
192.9560, 2019.549
194.1780, 1926.699
195.4000, 1747.639
196.6220, 1414.143
197.8430, 1394.949
199.0640, 1207.001
200.2860, 1241.285
201.5070, 1046.789
202.7270, 857.4893
203.9480, 491.3726
205.1690, 131.4307
206.3890, 66.65332
207.6090, 58.97070
208.8290, 50.46875
210.0490, 17.83789
211.2690, 10.09473
212.4890, 244.7456
213.7080, 343.6782
214.9280, 603.6968
216.1470, 829.7397
217.3660, 1093.725
218.5850, 1529.706
219.8030, 1997.759
221.0220, 2675.429
222.2400, 3395.088
223.4590, 4420.354
224.6770, 5472.666
225.8950, 6775.008
227.1120, 8490.361
228.3300, 10500.72
229.5480, 12689.10
230.7650, 14951.53
231.9820, 16901.04
233.1990, 17945.64
234.4160, 17057.27
235.6330, 15530.81
236.8490, 13247.40
238.0660, 11007.00
239.2820, 8632.587
240.4980, 6625.180
241.7140, 4989.771
242.9300, 3624.364
244.1460, 2568.957
245.3610, 1939.549
246.5770, 1355.143
247.7920, 907.7368
249.0070, 635.3320
250.2220, 558.9282
251.4370, 114.5249
252.6510, 136.1235
253.8660, 96.72363
255.0800, 52.67480
256.2940, 164.8994
257.5080, 17.70898
258.7220, 307.8057
259.9360, 109.2559
261.1490, 211.4868
262.3630, 337.9990
263.5760, 256.4219
264.7890, 419.0635
266.0020, 333.1816
267.2150, 268.9058
268.4270, 225.3364
269.6400, 217.5474
270.8520, 208.6050
272.0640, 114.5615
273.2760, 180.4360
274.4880, 86.28760
275.7000, 6.144531
276.9120, 65.00342
278.1230, 101.1104
279.3340, 171.2236
280.5450, 336.3320
281.7560, 523.3940
282.9670, 544.4380
284.1780, 737.4326
285.3880, 1004.370
286.5980, 1281.252
287.8090, 1569.078
289.0190, 1866.685
290.2290, 2195.011
291.4380, 2751.227
292.6480, 3061.408
293.8570, 3374.556
295.0670, 3536.666
296.2760, 3552.731
297.4850, 3476.730
298.6930, 3324.639
299.9020, 3331.956
301.1110, 3176.144
302.3190, 3258.985
303.5270, 3319.202
304.7350, 3312.614
305.9430, 3398.838
307.1510, 3400.675
308.3580, 3451.206
309.5660, 3675.960
310.7730, 3898.351
311.9800, 4284.472
313.1870, 4658.792
314.3940, 5236.067
315.6010, 5874.298
316.8070, 6415.161
318.0130, 7071.583
319.2200, 7077.604
320.4260, 7629.022
321.6310, 8352.464
322.8370, 9553.136
324.0430, 10961.21
325.2480, 12597.28
326.4540, 14910.37
327.6590, 17772.47
328.8640, 21196.53
330.0680, 25798.47
331.2730, 30741.32
332.4780, 36197.06
333.6820, 42175.34
334.8860, 48333.16
336.0900, 53168.51
337.2940, 56118.54
338.4980, 56622.25
339.7010, 54760.72
340.9050, 50310.00
342.1080, 45160.27
343.3110, 39366.54
344.5140, 33554.78
345.7170, 27847.80
346.9200, 23524.04
348.1220, 20011.62
349.3240, 17214.21
350.5270, 15232.82
351.7290, 13825.83
352.9310, 12569.05
354.1320, 11422.15
355.3340, 10433.22
356.5350, 9600.118
357.7370, 8667.485
358.9380, 8045.852
360.1390, 7349.211
361.3400, 6780.574
362.5400, 6541.939
363.7410, 6355.309
364.9410, 6219.681
366.1410, 6245.056
367.3410, 6423.045
368.5410, 6880.813
369.7410, 7107.197
370.9400, 7680.583
372.1400, 8250.974
373.3390, 8579.366
374.5380, 9045.760
375.7370, 8951.159
376.9360, 9122.559
378.1350, 8867.963
379.3330, 8760.368
380.5310, 8640.775
381.7300, 8596.187
382.9280, 8750.601
384.1260, 9294.016
385.3230, 9854.436
386.5210, 10730.86
387.7180, 11682.28
388.9160, 12912.71
390.1130, 14168.14
391.3100, 15804.57
392.5060, 17218.01
393.7030, 18308.45
394.9000, 19539.88
396.0960, 20074.46
397.2920, 20245.69
398.4880, 20166.66
399.6840, 19802.91
400.8800, 18965.83
402.0750, 18365.28
403.2710, 17436.75
404.4660, 16519.52
405.6610, 15633.81
406.8560, 14727.06
408.0510, 14316.29
409.2450, 13445.17
410.4400, 12807.28
411.6340, 11868.25
412.8280, 11401.79
414.0220, 10700.64
415.2160, 10054.88
416.4100, 9341.851
417.6030, 8634.514
418.7970, 7808.915
419.9900, 6694.178
421.1830, 5838.581
422.3760, 4925.972
423.5690, 4341.553
424.7610, 3877.830
425.9540, 3456.092
427.1460, 3294.339
428.3380, 3363.574
429.5300, 3434.793
430.7220, 3913.000
431.9140, 4040.193
433.1050, 4600.376
434.2970, 5218.545
435.4880, 5612.704
436.6790, 5934.854
437.8700, 5641.992
439.0610, 5460.121
440.2510, 4813.241
441.4420, 4230.350
442.6320, 3356.450
443.8220, 2661.541
445.0120, 2123.624
446.2020, 1821.703
447.3910, 1491.777
448.5810, 1286.844
449.7700, 1254.904
450.9600, 1200.960
452.1490, 1204.012
453.3370, 1214.980
454.5260, 1212.700
455.7150, 1260.154
456.9030, 1267.196
458.0910, 1243.236
459.2800, 1302.348
460.4670, 1408.391
461.6550, 1258.459
462.8430, 1204.247
464.0300, 992.4756
465.2180, 820.9434
466.4050, 715.3926
467.5920, 581.8228
468.7790, 504.7373
469.9650, 440.1494
471.1520, 364.4468
472.3380, 391.7593
473.5250, 319.4380
474.7110, 248.5435
475.8970, 203.6440
477.0820, 157.6719
478.2680, 163.8428
479.4540, 161.9463
480.6390, 196.0923
481.8240, 166.5771
483.0090, 232.2852
484.1940, 89.41211
485.3780, 69.54688
486.5630, 38.31152
487.7470, 0.8046880
488.9320, 23.08447
490.1160, 76.97900
491.3000, 19.09912
492.4830, 125.7998
493.6670, 141.7568
494.8500, 223.7495
496.0340, 54.80273
497.2170, 103.8354
498.4000, 77.86865
499.5820, 93.90039
500.7650, 35.04980
501.9480, 145.0435
503.1300, 242.1094
504.3120, 465.2451
505.4940, 746.4453
506.6760, 1016.709
507.8580, 1541.999
509.0390, 1961.343
510.2210, 2621.745
511.4020, 3389.166
512.5830, 4161.625
513.7640, 4995.136
514.9450, 5658.667
516.1250, 6184.267
517.3060, 6413.919
518.4860, 6677.590
519.6660, 6521.289
520.8460, 6319.018
522.0260, 6137.753
523.2060, 5545.512
524.3850, 5177.281
525.5650, 4622.058
526.7440, 4237.837
527.9230, 3950.636
529.1020, 3988.450
530.2810, 4216.270
531.4590, 4544.095
532.6380, 4754.925
533.8160, 5577.758
534.9940, 5979.596
536.1720, 6086.437
537.3500, 6111.281
538.5270, 5896.138
539.7050, 5725.006
540.8820, 5852.899
542.0590, 5623.864
543.2360, 5452.835
544.4130, 5415.838
545.5900, 5185.844
546.7660, 4884.925
547.9430, 4438.116
549.1190, 3947.445
550.2950, 3354.899
551.4710, 2865.518
552.6470, 2443.267
553.8220, 2080.132
554.9980, 1634.094
556.1730, 1398.157
557.3480, 1232.325
558.5230, 1243.567
559.6980, 1102.899
560.8730, 1025.295
562.0470, 1035.079
563.2220, 991.2363
564.3960, 1092.756
565.5700, 1162.287
566.7440, 1313.818
567.9170, 1406.352
569.0910, 1584.884
570.2640, 1768.416
571.4380, 1906.950
572.6110, 1807.483
573.7840, 1745.017
574.9570, 1639.550
576.1290, 1542.083
577.3020, 1276.616
578.4740, 1108.148
579.6460, 981.1772
580.8180, 846.4170
581.9900, 785.7422
583.1620, 679.2725
584.3330, 719.8018
585.5040, 643.3291
586.6760, 582.8564
587.8470, 639.3823
589.0180, 538.9053
590.1880, 560.4282
591.3590, 400.9492
592.5290, 481.4678
593.7000, 313.9844
594.8700, 205.4990
596.0400, 156.0112
597.2090, 72.52148
598.3790, 70.02881
599.5490, 35.53369
600.7180, 132.0342
601.8870, 89.33008
603.0560, 62.97412
604.2250, 34.47021
605.3940, 56.09033
606.5620, 182.6982
607.7300, 108.4199
608.8990, 151.2158
610.0670, 117.1099
611.2350, 83.08447
612.4020, 83.01562
613.5700, 10.77832
614.7370, 31.33594
615.9050, 60.51367
617.0720, 111.3574
618.2390, 167.1963
619.4060, 151.0298
620.5720, 231.8574
621.7390, 269.6797
622.9050, 300.4956
624.0710, 387.8237
625.2370, 453.1094
626.4030, 558.9067
627.5690, 694.7520
628.7340, 822.8008
629.9000, 905.2002
631.0650, 951.8989
632.2300, 1052.741
633.3950, 1225.498
634.5600, 1259.300
635.7240, 1508.310
636.8890, 1716.550
638.0530, 2122.959
639.2170, 2268.475
640.3810, 2726.516
641.5450, 3093.082
642.7080, 3828.580
643.8720, 4442.041
645.0350, 5335.028
646.1980, 6353.798
647.3610, 7382.759
648.5240, 9050.225
649.6870, 10892.43
650.8490, 13312.20
652.0120, 16306.67
653.1740, 20539.77
654.3360, 23238.13
655.4980, 27270.42
656.6600, 30825.44
657.8210, 35001.12
658.9830, 37324.12
660.1440, 37513.88
661.3050, 35481.40
662.4660, 32818.92
663.6270, 29891.75
664.7870, 26821.17
665.9480, 24298.59
667.1080, 22409.77
668.2680, 21416.39
669.4280, 21170.75
670.5880, 21538.33
671.7480, 23198.64
672.9070, 25611.93
674.0670, 28533.20
675.2260, 32323.46
676.3850, 38179.68
677.5440, 40176.90
678.7030, 43566.09
679.8610, 45715.36
681.0200, 46299.06
682.1780, 44815.18
683.3360, 41453.29
684.4940, 37217.36
685.6520, 31773.11
686.8090, 26658.28
687.9670, 22057.91
689.1240, 18731.01
690.2810, 15193.15
691.4380, 13722.34
692.5950, 10225.32
693.7520, 8937.206
694.9080, 7772.419
696.0650, 6356.449
697.2210, 5523.780
698.3770, 4857.700
699.5330, 4398.442
700.6880, 3848.154
701.8440, 3343.836
702.9990, 3136.487
704.1550, 2793.107
705.3100, 2571.697
706.4650, 2352.256
707.6190, 2139.784
708.7740, 1892.281
709.9290, 1830.748
711.0830, 1744.183
712.2370, 1541.587
713.3910, 1483.961
714.5450, 1301.303
715.6980, 1339.616
716.8520, 1356.896
718.0050, 1299.146
719.1580, 1290.851
720.3110, 1269.473
721.4640, 1211.710
722.6170, 1210.836
723.7700, 1203.931
724.9220, 1150.995
726.0740, 1157.028
727.2260, 1191.031
728.3780, 1178.003
729.5300, 1281.943
730.6810, 1333.975
731.8330, 1364.734
732.9840, 1518.583
734.1350, 1636.401
735.2860, 1750.188
736.4370, 1754.945
737.5880, 1882.672
738.7380, 1898.294
739.8880, 1901.959
741.0390, 1940.595
742.1890, 2083.497
743.3380, 2142.958
744.4880, 2378.162
745.6380, 2618.355
746.7870, 3102.149
747.9360, 3401.202
749.0850, 3379.340
750.2340, 3250.561
751.3830, 2815.736
752.5310, 2351.517
753.6800, 1806.840
754.8280, 1514.141
755.9760, 1144.416
757.1240, 904.6660
758.2720, 715.8906
759.4190, 617.0898
760.5670, 419.2651
761.7140, 222.4146
762.8610, 331.5396
764.0080, 156.6396
765.1550, 115.7158
766.3020, 164.7827
767.4480, 16.83203
768.5950, 9.152832
769.7410, 21.17188
770.8870, 67.74658
772.0330, 21.32422
773.1780, 22.58252
774.3240, 68.51221
775.4690, 9.564453
776.6140, 37.33350
777.7590, 73.77686
778.9040, 98.94873
780.0490, 194.2207
781.1940, 194.6455
782.3380, 172.2222
783.4820, 169.9375
784.6260, 30.79004
785.7700, 135.7056
786.9140, 148.7388
788.0580, 15.89648
789.2010, 76.10742
790.3450, 135.4019
791.4880, 13.81104
792.6310, 205.2700
793.7730, 138.8774
794.9160, 23.59912
796.0590, 46.37207
797.2010, 60.20801
798.3430, 38.88770
799.4850, 44.03760
800.6270, 3.020020
801.7690, 122.9619
802.9100, 57.92578
804.0520, 30.12793
805.1930, 23.22705
806.3340, 111.6323
807.4750, 6.475098
808.6160, 190.2949
809.7560, 94.09912
810.8970, 103.8877
812.0370, 20.66064
813.1770, 15.41992
814.3170, 36.16357
815.4570, 45.89307
816.5960, 20.39111
817.7360, 77.70264
818.8750, 9.928223
820.0140, 33.54590
821.1530, 48.15186
822.2920, 38.25439
823.4310, 79.69141
824.5690, 57.17969
825.7070, 82.20410
826.8460, 72.28223
827.9840, 32.90186
829.1220, 32.89209
830.2590, 28.79395
831.3970, 13.87793
832.5340, 61.56299
833.6710, 21.27979
834.8080, 5.866211
835.9450, 87.24951
837.0820, 102.5020
838.2190, 115.7490
839.3550, 165.9897
840.4910, 218.2256
841.6270, 362.4565
842.7630, 408.6821
843.8990, 383.9048
845.0350, 469.1230
846.1700, 717.3379
847.3060, 848.5498
848.4410, 1103.760
849.5760, 1360.030
850.7100, 1524.172
851.8450, 1966.376
852.9800, 2262.579
854.1140, 2670.781
855.2480, 2907.982
856.3820, 3183.184
857.5160, 3358.386
858.6500, 3349.589
859.7830, 3353.792
860.9170, 3356.997
862.0500, 2981.204
863.1830, 2727.413
864.3160, 2601.624
865.4480, 2297.839
866.5810, 2126.057
867.7130, 1845.277
868.8460, 1702.503
869.9780, 1420.732
871.1100, 1264.966
872.2410, 1073.205
873.3730, 1068.450
874.5050, 984.6992
875.6360, 851.9570
876.7670, 770.2197
877.8980, 755.4902
879.0290, 707.7900
880.1590, 588.0986
881.2900, 704.4365
882.4200, 656.8369
883.5500, 593.2812
884.6800, 785.7812
885.8100, 611.3271
886.9400, 694.9131
888.0690, 810.5371
889.1990, 964.1758
890.3280, 903.8408
891.4570, 944.5156
892.5860, 1035.203
893.7140, 1164.900
894.8430, 1320.611
895.9710, 1296.333
897.1000, 1291.066
898.2280, 1361.814
899.3560, 1183.574
900.4830, 1221.347
901.6110, 1031.133
902.7380, 955.9326
903.8660, 882.6377
904.9930, 771.8242
906.1200, 767.3154
907.2460, 713.9209
908.3730, 790.5254
909.5000, 729.8271
910.6260, 846.5527
911.7520, 742.0811
912.8780, 951.1836
914.0040, 1030.809
915.1290, 1125.918
916.2550, 1263.117
917.3800, 1460.144
918.5050, 1658.097
919.6300, 2005.060
920.7550, 2272.844
921.8800, 2707.136
923.0040, 3252.705
924.1290, 3568.723
925.2530, 3886.067
926.3770, 4318.795
927.5010, 4464.272
928.6250, 4659.846
929.7480, 4861.715
930.8720, 4951.945
931.9950, 5099.873
933.1180, 5420.102
934.2410, 5586.596
935.3640, 5651.133
936.4860, 5667.044
937.6090, 5584.239
938.7310, 5425.047
939.8530, 5193.150
940.9750, 4928.849
942.0970, 4551.858
943.2180, 4261.658
944.3400, 3984.767
945.4610, 3532.930
946.5820, 3361.156
947.7030, 3021.437
948.8240, 2642.752
949.9450, 2501.133
951.0650, 2102.551
952.1860, 1976.934
953.3060, 1861.935
954.4260, 1665.560
955.5460, 1639.233
956.6650, 1521.976
957.7850, 1407.079
958.9040, 1387.785
960.0230, 1272.062
961.1420, 1155.952
962.2610, 1115.677
963.3800, 1102.702
964.4990, 998.8145
965.6170, 1079.069
966.7350, 972.0156
967.8530, 908.1689
968.9710, 894.0322
970.0890, 722.3486
971.2070, 879.8535
972.3240, 1020.419
973.4410, 987.0273
974.5580, 973.6787
975.6750, 1127.395
976.7920, 1179.154
977.9090, 1388.987
979.0250, 1522.862
980.1410, 1759.781
981.2580, 1867.742
982.3740, 2139.760
983.4890, 2243.822
984.6050, 2656.927
985.7200, 2984.073
986.8360, 3477.272
987.9510, 4023.514
989.0660, 4708.799
990.1810, 5486.128
991.2950, 6355.502
992.4100, 7432.920
993.5240, 8716.383
994.6390, 10287.88
995.7530, 12172.43
996.8660, 14136.01
997.9800, 16362.65
999.0940, 19197.32
1000.207, 21984.04
1001.320, 25290.81
1002.433, 28975.63
1003.546, 33015.48
1004.659, 36827.36
1005.772, 40118.30
1006.884, 42587.28
1007.996, 43980.30
1009.108, 43913.36
1010.220, 42705.46
1011.332, 41375.60
1012.444, 39845.77
1013.555, 39081.01
1014.666, 38225.27
1015.777, 37698.58
1016.888, 37288.93
1017.999, 37471.32
1019.110, 37172.77
1020.220, 36687.22
1021.331, 35926.73
1022.441, 35728.28
1023.551, 35144.86
1024.661, 34581.49
1025.770, 33956.15
1026.880, 33055.86
1027.989, 31967.59
1029.098, 30694.63
1030.207, 29134.20
1031.316, 27491.05
1032.425, 25495.94
1033.533, 23334.86
1034.642, 21504.81
1035.750, 19508.81
1036.858, 17517.84
1037.966, 15945.91
1039.073, 14397.04
1040.181, 13023.23
1041.288, 11708.46
1042.396, 10467.74
1043.503, 9327.060
1044.610, 8309.418
1045.716, 7627.832
1046.823, 6934.285
1047.929, 6289.805
1049.036, 5769.398
1050.142, 5122.271
1051.248, 4763.203
1052.353, 4348.376
1053.459, 4241.350
1054.564, 3898.793
1055.670, 3427.097
1056.775, 3286.338
1057.880, 2888.354
1058.985, 2720.012
1060.089, 2359.581
1061.194, 2069.244
1062.298, 1948.197
1063.402, 1703.706
1064.506, 1520.582
1065.610, 1486.491
1066.713, 1281.762
1067.817, 1185.615
1068.920, 1233.275
1070.023, 1017.129
1071.126, 1049.508
1072.229, 923.0703
1073.332, 728.6357
1074.435, 744.9170
1075.537, 755.1963
1076.639, 650.0908
1077.741, 632.1348
1078.843, 527.9883
1079.945, 457.6885
1081.046, 453.2803
1082.148, 421.7607
1083.249, 382.9697
1084.350, 458.6445
1085.451, 361.2998
1086.551, 425.0488
1087.652, 482.7842
1088.752, 430.4922
1089.853, 408.3857
1090.953, 464.7627
1092.053, 317.9805
1093.152, 384.5049
1094.252, 408.1045
1095.351, 269.2744
1096.451, 375.4805
1097.550, 411.5439
1098.649, 459.3604
1099.748, 445.5342
1100.846, 480.4814
1101.945, 474.4365
1103.043, 326.8174
1104.141, 436.8711
1105.239, 362.1533
1106.337, 306.2646
1107.434, 474.3848
1108.532, 387.9238
1109.629, 405.8848
1110.726, 252.1094
1111.823, 247.2197
1112.920, 457.4727
1114.017, 357.6406
1115.113, 355.1172
1116.210, 367.2256
1117.306, 353.4023
1118.402, 326.4971
1119.498, 352.0127
1120.593, 359.9639
1121.689, 401.9336
1122.784, 409.1035
1123.879, 469.9219
1124.974, 489.1807
1126.069, 321.0693
1127.164, 484.1885
1128.259, 481.4473
1129.353, 341.1836
1130.447, 430.7627
1131.541, 356.0098
1132.635, 327.8047
1133.729, 376.7803
1134.822, 315.3438
1135.916, 332.4590
1137.009, 273.7520
1138.102, 185.4287
1139.195, 236.8838
1140.288, 301.4707
1141.380, 186.1182
1142.473, 313.0498
1143.565, 360.9473
1144.657, 192.4531
1145.749, 63.55273
1146.841, 118.2754
1147.932, 42.01953
1149.024, 166.7607
1150.115, 111.4189
1151.206, 147.0723
1152.297, 182.6963
1153.388, 95.30762
1154.479, 174.8975
1155.569, 52.55469
1156.659, 45.21680
1157.750, 126.7959
1158.839, 204.0938
1159.929, 3.461914
1161.019, 29.65918
1162.108, 16.79883
1163.198, 144.9600
1164.287, 47.08105
1165.376, 141.1816
1166.465, 219.2627
1167.553, 125.3242
1168.642, 128.3643
1169.730, 174.4473
1170.818, 169.4434
1171.906, 232.6787
1172.994, 210.7539
1174.082, 213.0010
1175.170, 169.4648
1176.257, 203.9492
1177.344, 167.2549
1178.431, 200.8115
1179.518, 103.6191
1180.605, 27.40137
1181.691, 41.15332
1182.778, 9.878906
1183.864, 130.8672
1184.950, 0.5332030
1186.036, 46.16406
1187.122, 37.23633
1188.207, 9.688477
1189.292, 21.82031
1190.378, 33.60254
1191.463, 58.81738
1192.548, 49.58203
1193.632, 6.050781
1194.717, 10.52734
1195.801, 151.9062
1196.886, 27.48047
1197.970, 98.19727
1199.054, 204.0908
1200.137, 173.0088
1201.221, 163.3623
1202.305, 20.85156
1203.388, 82.40527
1204.471, 43.84961
1205.554, 106.8896
1206.637, 81.38965
1207.719, 34.09180
1208.802, 77.03516
1209.884, 24.97754
1210.966, 76.90820
1212.048, 74.25000
1213.130, 62.48926
1214.212, 48.81445
1215.293, 95.20801
1216.374, 94.71777
1217.456, 2.658203
1218.536, 75.03125
1219.617, 74.17090
1220.698, 50.67383
1221.778, 19.38574
1222.859, 81.47949
1223.939, 176.5957
1225.019, 72.55566
1226.099, 72.05176
1227.178, 84.08496
1228.258, 43.47461
1229.337, 12.85547
1230.417, 136.3838
1231.496, 49.35254
1232.574, 102.8076
1233.653, 13.08301
1234.732, 91.94043
1235.810, 116.9111
1236.888, 26.97852
1237.966, 75.84766
1239.044, 54.38184
1240.122, 111.2783
1241.199, 131.8867
1242.277, 112.4443
1243.354, 9.948242
1244.431, 92.37500
1245.508, 140.8242
1246.585, 129.2275
1247.661, 35.68359
1248.738, 141.0557
1249.814, 115.2012
1250.890, 182.5420
1251.966, 67.00293
1253.042, 220.9805
1254.117, 145.0264
1255.193, 177.9014
1256.268, 151.7246
1257.343, 133.4951
1258.418, 93.21191
1259.493, 103.8682
1260.567, 137.4678
1261.642, 93.01367
1262.716, 186.4990
1263.790, 284.9307
1264.864, 155.3145
1265.938, 134.6445
1267.011, 255.9180
1268.085, 324.1406
1269.158, 275.3164
1270.231, 259.5732
1271.304, 190.5156
1272.377, 197.5371
1273.450, 117.5059
1274.522, 157.9629
1275.594, 234.3369
1276.666, 227.1406
1277.738, 226.0771
1278.810, 244.1260
1279.882, 242.7725
1280.953, 247.5557
1282.025, 247.6631
1283.096, 250.4014
1284.167, 231.9092
1285.238, 227.6836
1286.308, 244.6797
1287.379, 308.3027
1288.449, 288.5371
