##NAMES=Enstatite
##RRUFFID=R040094
##IDEAL CHEMISTRY=MgSiO_3_
##LOCALITY=unknown
##OWNER=RRUFF
##SOURCE=University of Arizona Mineral Museum
##DESCRIPTION=Dark green massive, associated with anthophyllite
##STATUS=The identification of this mineral has been confirmed by X-ray diffraction and chemical analysis
##URL=rruff.info/R040094
##MEASURED CHEMISTRY=(Mg_0.84_Fe_0.15_)(Si_0.99_Al_0.01_)O_3_; = Enstatite :  [box](Mg_0.83_Fe_0.14_Na_0.01_Ca_0.01_)_7_(Si_0.99_Al_0.01_)_8_O_22_(OH)_2_ = Anthophyllite
##PIN_ID=M00323
##ORIENTATION=Laser parallel to a* (1 0 0). Fiducial mark perpendicular to laser is parallel to -b [0 -1 0]
138.345, 0.000
139.726, 3.217
141.107, 98.479
142.488, 163.992
143.868, 414.143
145.248, 460.673
146.629, 663.758
148.008, 750.780
149.388, 799.098
150.768, 904.592
152.147, 865.188
153.526, 919.862
154.905, 790.827
156.284, 605.199
157.662, 513.088
159.040, 423.777
160.418, 369.604
161.796, 209.901
163.174, 143.953
164.551, 161.063
165.929, 78.269
167.306, 175.359
168.683, 174.229
170.059, 92.408
171.436, 80.930
172.812, 91.503
174.188, 54.183
175.564, 112.716
176.939, 76.955
178.315, 10.715
179.690, 168.105
181.065, 90.162
182.440, 144.629
183.814, 181.170
185.188, 264.299
186.563, 505.704
187.937, 601.545
189.310, 989.958
190.684, 1340.057
192.057, 1926.943
193.430, 2281.705
194.803, 2332.442
196.176, 2161.358
197.549, 1891.141
198.921, 1678.419
200.293, 1463.390
201.665, 1250.568
203.037, 1083.604
204.408, 903.726
205.779, 878.419
207.150, 820.230
208.521, 862.778
209.892, 837.419
211.262, 696.433
212.633, 725.275
214.003, 615.631
215.373, 624.525
216.742, 558.576
218.112, 455.079
219.481, 513.519
220.850, 567.014
222.219, 659.880
223.588, 616.107
224.956, 821.667
226.324, 786.533
227.692, 1027.682
229.060, 1228.096
230.428, 1576.759
231.795, 2166.627
233.162, 2742.672
234.529, 3696.869
235.896, 4637.201
237.263, 5719.647
238.629, 6512.167
239.995, 6254.734
241.361, 5717.312
242.727, 4489.883
244.093, 3474.448
245.458, 2605.002
246.823, 1864.232
248.188, 1275.049
249.553, 849.531
250.917, 610.972
252.282, 449.360
253.646, 362.680
255.010, 225.904
256.374, 139.005
257.737, 138.959
259.101, 76.756
260.464, 47.386
261.827, 4.847
263.189, 34.162
264.552, 68.651
265.914, 13.571
267.276, 54.796
268.638, 121.698
270.000, 108.902
271.362, 163.198
272.723, 227.586
274.084, 204.064
275.445, 176.632
276.806, 89.302
278.166, 63.111
279.526, 35.103
280.887, 79.307
282.246, 68.232
283.606, 49.483
284.966, 79.413
286.325, 142.955
287.684, 275.049
289.043, 301.666
290.402, 483.936
291.760, 607.928
293.118, 885.732
294.477, 1045.397
295.834, 1434.114
297.192, 1718.151
298.550, 1918.022
299.907, 2162.002
301.264, 2288.192
302.621, 2286.621
303.978, 2124.882
305.334, 2019.427
306.690, 1941.987
308.046, 1869.204
309.402, 1890.260
310.758, 2026.362
312.113, 2302.004
313.469, 2715.553
314.824, 3103.993
316.179, 3740.116
317.533, 4497.277
318.888, 5430.704
320.242, 5840.867
321.596, 6400.088
322.950, 6498.980
324.304, 6277.624
325.657, 6175.746
327.010, 5903.665
328.363, 5991.382
329.716, 6298.755
331.069, 6725.701
332.421, 7793.219
333.774, 9029.865
335.126, 11305.501
336.478, 13491.338
337.829, 16895.932
339.181, 20480.500
340.532, 23854.539
341.883, 26927.119
343.234, 27890.623
344.585, 28022.924
345.935, 25745.537
347.285, 22857.879
348.635, 19730.131
349.985, 16002.776
351.335, 13634.955
352.684, 11096.996
354.034, 9498.896
355.383, 8010.664
356.731, 6932.303
358.080, 6283.789
359.429, 5555.081
360.777, 5143.126
362.125, 4758.900
363.473, 4456.351
364.820, 4288.439
366.168, 4080.161
367.515, 4037.428
368.862, 3806.044
370.209, 3908.562
371.556, 3991.708
372.902, 4150.267
374.249, 4476.003
375.595, 4701.677
376.940, 5164.778
378.286, 5530.897
379.632, 5892.498
380.977, 6176.240
382.322, 6250.475
383.667, 6285.163
385.012, 6260.369
386.356, 6305.373
387.700, 6531.220
389.044, 6916.899
390.388, 7603.564
391.732, 8300.331
393.075, 9767.058
394.419, 11173.749
395.762, 12640.397
397.105, 14357.006
398.447, 15483.574
399.790, 17060.100
401.132, 17476.578
402.474, 17953.020
403.816, 17779.418
405.158, 16895.768
406.499, 16392.080
407.841, 15238.351
409.182, 14364.573
410.523, 13350.753
411.864, 12376.166
413.204, 11570.545
414.544, 10413.865
415.884, 9856.438
417.224, 8967.410
418.564, 8356.854
419.904, 7466.297
421.243, 6934.218
422.582, 6361.165
423.921, 5445.096
425.260, 5005.557
426.598, 4420.938
427.937, 3802.809
429.275, 3347.126
430.613, 2777.275
431.951, 2422.263
433.288, 2088.875
434.625, 1898.526
435.963, 1677.645
437.300, 1447.520
438.636, 1510.187
439.973, 1277.592
441.309, 1268.856
442.646, 1156.540
443.981, 1006.175
445.317, 853.332
446.653, 601.297
447.988, 548.773
449.323, 411.922
450.658, 366.015
451.993, 380.738
453.328, 301.597
454.662, 373.683
455.996, 339.103
457.331, 354.832
458.664, 327.492
459.998, 327.300
461.331, 290.172
462.665, 302.280
463.998, 291.071
465.330, 228.077
466.663, 186.268
467.996, 221.824
469.328, 207.097
470.660, 140.189
471.992, 189.027
473.323, 145.765
474.655, 105.272
475.986, 113.644
477.317, 52.952
478.648, 5.813
479.979, 8.652
481.309, 50.449
482.640, 46.515
483.970, 34.540
485.300, 69.496
486.629, 63.393
487.959, 59.240
489.288, 25.036
490.617, 136.780
491.946, 4.536
493.275, 14.075
494.603, 140.628
495.932, 24.117
497.260, 150.542
498.588, 130.910
499.916, 85.217
501.243, 154.466
502.571, 136.665
503.898, 199.809
505.225, 150.903
506.552, 208.947
507.878, 255.943
509.205, 324.891
510.531, 532.791
511.857, 600.646
513.183, 808.457
514.508, 892.224
515.834, 1231.947
517.159, 1559.627
518.484, 1889.265
519.809, 2447.859
521.133, 3005.415
522.458, 3626.930
523.782, 4272.406
525.106, 4954.846
526.430, 4953.739
527.754, 5044.619
529.077, 4661.959
530.400, 4275.271
531.723, 3739.559
533.046, 3565.823
534.369, 3363.070
535.692, 3464.296
537.014, 3717.506
538.336, 4099.700
539.658, 4487.878
540.980, 4411.045
542.301, 4176.200
543.623, 3877.338
544.944, 3511.459
546.265, 3362.562
547.585, 3381.646
548.906, 3663.711
550.226, 3784.750
551.547, 3836.765
552.867, 3762.755
554.186, 3224.722
555.506, 2905.663
556.825, 2325.582
558.145, 1903.475
559.464, 1690.345
560.783, 1337.190
562.101, 1216.013
563.420, 1071.811
564.738, 900.585
566.056, 921.336
567.374, 906.064
568.692, 728.769
570.009, 642.450
571.326, 755.112
572.643, 773.758
573.960, 954.392
575.277, 900.019
576.594, 1000.643
577.910, 751.273
579.226, 674.907
580.542, 650.553
581.858, 573.215
583.173, 558.900
584.489, 449.604
585.804, 422.351
587.119, 302.126
588.434, 390.941
589.748, 278.813
591.063, 312.738
592.377, 214.731
593.691, 256.806
595.005, 225.959
596.318, 154.183
597.632, 138.451
598.945, 121.756
600.258, 83.090
601.571, 64.462
602.884, 48.840
604.196, 65.224
605.508, 19.611
606.821, 53.993
608.132, 21.094
609.444, 55.307
610.756, 14.525
612.067, 70.939
613.378, 73.635
614.689, 56.955
616.000, 55.029
617.311, 16.478
618.621, 17.062
619.931, 9.314
621.241, 92.088
622.551, 9.719
623.861, 117.456
625.170, 14.315
626.479, 72.211
627.788, 101.939
629.097, 146.283
630.406, 158.979
631.714, 200.078
633.023, 229.135
634.331, 235.800
635.639, 283.421
636.946, 359.028
638.254, 404.234
639.561, 413.396
640.868, 481.851
642.175, 595.522
643.482, 700.868
644.789, 834.150
646.095, 1006.868
647.401, 1125.247
648.707, 1379.355
650.013, 1739.984
651.319, 1929.169
652.624, 2397.398
653.929, 2952.453
655.234, 3490.723
656.539, 4474.849
657.844, 5466.776
659.148, 6895.985
660.453, 8336.115
661.757, 9576.501
663.061, 10846.676
664.364, 11057.206
665.668, 10757.809
666.971, 9928.693
668.274, 8709.953
669.577, 7911.117
670.880, 7052.263
672.183, 6633.390
673.485, 6624.500
674.787, 6435.593
676.089, 7016.669
677.391, 7377.728
678.693, 8068.770
679.994, 9259.796
681.296, 10000.806
682.597, 11391.797
683.898, 11972.773
685.198, 12433.735
686.499, 12174.678
687.799, 11025.608
689.099, 9806.521
690.399, 8307.415
691.699, 6748.297
692.998, 5558.162
694.298, 4381.013
695.597, 3601.848
696.896, 2980.667
698.195, 2379.471
699.493, 2092.260
700.792, 1697.033
702.090, 1553.792
703.388, 1267.535
704.686, 1151.264
705.984, 1050.976
707.281, 915.675
708.578, 866.359
709.876, 674.027
711.172, 736.682
712.469, 602.322
713.766, 474.948
715.062, 525.559
716.358, 509.156
717.654, 446.740
718.950, 400.310
720.246, 393.865
721.541, 346.769
722.836, 324.935
724.131, 308.450
725.426, 314.951
726.721, 332.439
728.015, 365.914
729.310, 356.707
730.604, 355.825
731.898, 354.261
733.191, 291.684
734.485, 293.094
735.778, 317.491
737.071, 277.875
738.364, 348.246
739.657, 300.604
740.950, 372.948
742.242, 325.280
743.535, 317.597
744.827, 389.902
746.118, 215.192
747.410, 373.469
748.702, 296.686
749.993, 436.934
751.284, 451.167
752.575, 459.110
753.866, 535.981
755.156, 509.774
756.447, 444.397
757.737, 463.933
759.027, 397.323
760.316, 260.917
761.606, 287.240
762.896, 205.698
764.185, 118.430
765.474, 124.949
766.763, 87.838
768.051, 25.647
769.340, 42.691
770.628, 14.394
771.916, 93.075
773.204, 27.493
774.492, 20.017
775.780, 44.269
777.067, 17.349
778.354, 52.746
779.641, 34.439
780.928, 81.605
782.215, 48.605
783.501, 30.533
784.787, 66.312
786.073, 44.101
787.359, 127.765
788.645, 55.419
789.930, 10.116
791.216, 37.833
792.501, 81.580
793.786, 151.379
795.071, 125.269
796.355, 16.237
797.640, 42.224
798.924, 75.245
800.208, 67.315
801.492, 66.430
802.775, 18.589
804.059, 14.231
805.342, 32.950
806.625, 54.843
807.908, 7.635
809.191, 46.421
810.474, 85.204
811.756, 68.986
813.038, 57.768
814.320, 56.548
815.602, 83.327
816.884, 72.105
818.165, 15.881
819.446, 75.654
820.727, 55.424
822.008, 18.190
823.289, 57.951
824.569, 57.708
825.850, 61.459
827.130, 70.207
828.410, 56.201
829.690, 65.689
830.969, 34.424
832.249, 48.156
833.528, 48.884
834.807, 19.608
836.086, 62.330
837.364, 71.048
838.643, 110.764
839.921, 89.476
841.199, 120.187
842.477, 123.895
843.755, 95.600
845.033, 219.303
846.310, 231.005
847.587, 281.067
848.864, 461.402
850.141, 383.099
851.418, 446.794
852.694, 503.488
853.971, 609.181
855.247, 934.874
856.523, 910.565
857.798, 1178.256
859.074, 1327.947
860.349, 1387.638
861.624, 1458.329
862.899, 1519.019
864.174, 1424.710
865.449, 1409.401
866.723, 1206.093
867.998, 1137.786
869.272, 1025.479
870.545, 835.173
871.819, 791.869
873.093, 683.566
874.366, 572.265
875.639, 532.965
876.912, 435.667
878.185, 453.371
879.458, 342.078
880.730, 409.786
882.002, 338.498
883.274, 259.214
884.546, 279.932
885.818, 274.654
887.090, 291.378
888.361, 256.106
889.632, 300.838
890.903, 285.574
892.174, 272.313
893.444, 355.056
894.715, 379.803
895.985, 373.556
897.255, 431.314
898.525, 450.076
899.795, 407.854
901.064, 499.646
902.334, 462.448
903.603, 453.274
904.872, 487.118
906.140, 438.969
907.409, 517.829
908.677, 530.697
909.946, 530.578
911.214, 523.471
912.482, 577.375
913.749, 624.296
915.017, 643.230
916.284, 738.177
917.551, 897.077
918.818, 927.045
920.085, 1105.896
921.352, 1330.308
922.618, 1567.176
923.884, 1967.848
925.150, 2269.769
926.416, 2913.820
927.682, 3442.400
928.947, 3798.551
930.213, 4291.489
931.478, 4522.350
932.743, 4523.356
934.008, 4771.480
935.272, 4530.713
936.537, 4702.054
937.801, 4738.268
939.065, 4728.900
940.329, 4854.337
941.593, 4510.369
942.856, 4605.076
944.119, 4305.248
945.383, 4074.773
946.646, 3885.966
947.908, 3427.869
949.171, 3148.484
950.433, 2944.672
951.696, 2527.912
952.958, 2347.717
954.220, 2084.641
955.481, 1832.413
956.743, 1759.819
958.004, 1575.927
959.265, 1487.642
960.526, 1375.997
961.787, 1270.734
963.048, 1296.545
964.308, 1149.383
965.569, 1152.238
966.829, 1118.111
968.089, 973.002
969.348, 975.911
970.608, 931.719
971.867, 848.674
973.126, 917.649
974.385, 765.562
975.644, 938.574
976.903, 921.603
978.161, 934.651
979.420, 1081.719
980.678, 1015.806
981.936, 1184.910
983.193, 1297.032
984.451, 1249.173
985.708, 1507.331
986.966, 1613.505
988.223, 1755.698
989.479, 2080.907
990.736, 2174.135
991.993, 2513.379
993.249, 2836.642
994.505, 3265.921
995.761, 3899.217
997.017, 4457.532
998.272, 5193.865
999.528, 6271.216
1000.783, 7041.584
1002.038, 8701.977
1003.293, 9842.384
1004.548, 11562.812
1005.802, 13873.255
1007.057, 15323.717
1008.311, 18444.195
1009.565, 20794.689
1010.818, 22625.209
1012.072, 24225.736
1013.326, 24636.293
1014.579, 23966.863
1015.832, 23967.449
1017.085, 22738.061
1018.338, 23178.684
1019.590, 22539.334
1020.842, 23170.002
1022.095, 23800.695
1023.347, 23851.402
1024.599, 24042.131
1025.850, 24592.877
1027.102, 23953.635
1028.353, 25124.418
1029.604, 23985.225
1030.855, 24106.051
1032.106, 24226.891
1033.356, 22938.123
1034.607, 22689.004
1035.857, 21519.895
1037.107, 19470.807
1038.357, 18681.742
1039.607, 16402.855
1040.856, 14923.822
1042.106, 13564.806
1043.355, 12035.809
1044.604, 10796.828
1045.852, 9808.179
1047.101, 8659.246
1048.350, 7620.386
1049.598, 6773.890
1050.846, 6037.266
1052.094, 5647.135
1053.342, 4984.334
1054.589, 4676.666
1055.837, 4179.872
1057.084, 3907.483
1058.331, 3494.860
1059.578, 3251.829
1060.824, 2851.825
1062.071, 2610.631
1063.317, 2332.236
1064.563, 2154.354
1065.809, 1937.417
1067.055, 1743.365
1068.301, 1609.329
1069.546, 1475.854
1070.791, 1357.890
1072.036, 1269.979
1073.281, 1170.092
1074.526, 1057.682
1075.771, 970.328
1077.015, 942.906
1078.259, 924.876
1079.503, 821.086
1080.747, 824.753
1081.991, 732.919
1083.234, 723.385
1084.478, 718.969
1085.721, 673.784
1086.964, 708.299
1088.206, 755.683
1089.449, 657.556
1090.691, 785.874
1091.934, 786.135
1093.176, 812.114
1094.418, 930.114
1095.659, 966.331
1096.901, 1033.479
1098.142, 1096.140
1099.384, 1070.544
1100.625, 1094.379
1101.865, 1127.796
1103.106, 1034.099
1104.347, 895.352
1105.587, 784.658
1106.827, 726.166
1108.067, 567.379
1109.307, 524.698
1110.546, 514.942
1111.786, 430.260
1113.025, 389.875
1114.264, 417.343
1115.503, 380.625
1116.742, 361.191
1117.980, 309.418
1119.219, 309.856
1120.457, 332.783
1121.695, 190.758
1122.933, 286.201
1124.171, 255.749
1125.408, 187.202
1126.645, 247.671
1127.883, 237.589
1129.120, 254.049
1130.356, 274.530
1131.593, 260.903
1132.829, 225.350
1134.066, 218.609
1135.302, 217.869
1136.538, 243.129
1137.773, 211.391
1139.009, 249.652
1140.244, 202.915
1141.480, 195.468
1142.715, 172.438
1143.950, 159.823
1145.184, 130.084
1146.419, 126.495
1147.653, 101.758
1148.887, 148.552
1150.121, 138.447
1151.355, 114.786
1152.589, 67.068
1153.822, 85.351
1155.056, 115.600
1156.289, 105.995
1157.522, 71.238
1158.755, 110.638
1159.987, 111.340
1161.220, 73.825
1162.452, 6.298
1163.684, 26.650
1164.916, 33.064
1166.148, 76.382
1167.379, 52.786
1168.611, 17.153
1169.842, 92.026
1171.073, 70.337
1172.304, 35.904
1173.534, 56.655
1174.765, 29.083
1175.995, 68.423
1177.225, 3.106
1178.455, 55.296
1179.685, 59.677
1180.915, 18.306
1182.144, 56.865
1183.374, 31.344
1184.603, 24.623
1185.832, 67.840
1187.060, 8.671
1188.289, 59.605
1189.518, 13.878
1190.746, 29.513
1191.974, 44.674
1193.202, 11.168
1194.430, 5.598
1195.657, 0.197
1196.884, 46.992
1198.112, 43.777
1199.339, 17.498
1200.566, 70.367
1201.792, 55.447
1203.019, 15.499
1204.245, 8.547
1205.471, 1.351
1206.697, 12.991
1207.923, 12.465
1209.149, 8.220
1210.374, 20.430
1211.600, 11.526
1212.825, 9.643
1214.050, 38.723
1215.275, 38.005
1216.499, 59.243
1217.724, 2.504
1218.948, 1.088
1220.172, 4.277
1221.396, 10.730
1222.620, 10.204
1223.843, 71.702
1225.067, 13.257
1226.290, 31.839
1227.513, 33.631
1228.736, 2.997
1229.959, 16.656
1231.181, 1.342
1232.404, 33.950
1233.626, 61.774
1234.848, 5.570
1236.070, 44.768
1237.291, 39.049
1238.513, 14.087
1239.734, 0.211
1240.955, 48.301
1242.177, 22.375
1243.397, 62.571
1244.618, 37.589
1245.838, 32.658
1247.059, 4.771
1248.279, 16.921
1249.499, 3.881
1250.719, 26.342
1251.938, 52.394
1253.158, 60.886
1254.377, 82.794
1255.596, 60.444
1256.815, 10.073
1258.034, 65.679
1259.253, 11.736
1260.471, 40.823
1261.689, 80.453
1262.907, 36.973
1264.125, 98.473
1265.343, 48.957
1266.561, 13.579
1267.778, 23.856
1268.995, 53.269
1270.212, 44.656
1271.429, 54.023
1272.646, 53.371
1273.862, 29.698
1275.079, 56.999
1276.295, 55.278
1277.511, 80.535
1278.727, 63.758
1279.943, 494.955
1281.158, 354.130
1282.373, 454.280
1283.589, 137.398
1284.804, 122.495
1286.019, 131.564
1287.233, 191.610
1288.448, 159.630
1289.662, 86.626
1290.876, 122.661
1292.090, 81.604
1293.304, 117.520
1294.518, 46.410
1295.731, 42.268
1296.944, 100.098
1298.158, 113.902
1299.371, 113.682
1300.583, 163.435
1301.796, 87.163
1303.008, 131.865
1304.221, 85.543
1305.433, 55.197
1306.645, 70.826
1307.856, 72.431
1309.068, 96.011
1310.280, 80.568
1311.491, 103.101
1312.702, 7.609
1313.913, 90.085
1315.124, 48.538
1316.334, 101.965
1317.545, 65.369
1318.755, 54.750
1319.965, 77.106
1321.175, 91.440
1322.385, 23.752
1323.594, 125.034
1324.804, 81.296
1326.013, 43.534
1327.222, 124.375
1328.431, 70.566
1329.639, 95.732
1330.848, 108.876
1332.056, 68.997
1333.265, 90.930
1334.473, 90.004
1335.680, 59.055
1336.888, 113.083
1338.096, 112.088
1339.303, 51.756
1340.510, 95.701
1341.717, 93.571
1342.924, 84.070
1344.131, 72.694
1345.337, 31.820
1346.544, 123.612
1347.750, 105.267
1348.956, 101.044
1350.162, 172.412
1351.367, 53.010
1352.573, 103.012
1353.778, 99.983
1354.983, 60.141
1356.188, 84.496
1357.393, 84.222
1358.598, 73.224
1359.802, 107.227
1361.007, 86.209
1362.211, 74.793
1363.415, 144.160
1364.619, 93.389
1365.822, 130.236
1367.026, 165.324
1368.229, 127.677
1369.432, 139.117
1370.635, 107.162
1371.838, 77.985
1373.041, 168.361
1374.243, 101.260
1375.446, 138.874
1376.648, 177.398
1377.850, 99.670
1379.052, 62.252
1380.253, 91.986
1381.455, 97.257
1382.656, 168.101
1383.857, 86.024
1385.058, 87.235
1386.259, 172.447
1387.459, 153.490
1388.660, 139.935
1389.860, 212.054
1391.060, 209.475
1392.260, 201.839
1393.460, 253.609
1394.660, 150.311
1395.859, 141.523
1397.059, 90.009
1398.258, 90.423
1399.457, 102.003
1400.655, 101.647
1401.854, 105.710
1403.052, 88.303
1404.251, 57.352
1405.449, 35.500
1406.647, 131.955
1407.845, 121.371
1409.042, 99.748
1410.240, 142.086
1411.437, 91.236
1412.634, 102.303
1413.831, 93.083
1415.028, 95.105
1416.224, 102.185
1417.421, 113.079
1418.617, 96.461
1419.813, 114.673
1421.009, 99.203
1422.205, 80.080
1423.401, 155.802
1424.596, 72.919
1425.791, 133.540
1426.986, 71.895
1428.181, 78.302
1429.376, 161.432
1430.571, 72.216
1431.765, 86.970
1432.960, 63.843
1434.154, 21.240
1435.348, 154.322
1436.541, 117.050
1437.735, 37.477
1438.929, 120.849
1440.122, 68.808
1441.315, 81.177
1442.508, 120.043
1443.701, 44.307
1444.893, 71.809
1446.086, 102.644
1447.278, 89.515
1448.470, 66.487
1449.662, 96.554
1450.854, 149.674
1452.046, 126.640
1453.237, 133.688
1454.428, 47.846
1455.619, 112.745
1456.810, 86.872
1458.001, 113.987
1459.192, 91.087
1460.382, 55.320
1461.573, 146.628
1462.763, 66.015
1463.953, 101.408
1465.143, 147.785
1466.332, 111.164
1467.522, 63.516
1468.711, 97.618
1469.900, 80.885
1471.089, 97.105
1472.278, 121.105
1473.467, 108.931
1474.655, 155.601
1475.843, 111.722
1477.032, 92.893
1478.220, 107.073
1479.407, 77.301
1480.595, 79.555
1481.783, 110.829
1482.970, 12.946
1484.157, 47.296
1485.344, 134.715
1486.531, 70.175
1487.718, 121.688
1488.904, 86.240
1490.090, 54.823
1491.277, 95.434
1492.463, 27.074
1493.648, 61.750
1494.834, 167.458
1496.020, 21.196
1497.205, 98.953
1498.390, 96.730
1499.575, 48.539
1500.760, 100.388
1501.945, 94.286
1503.129, 16.243
1504.314, 98.266
1505.498, 65.357
1506.682, 28.527
1507.866, 76.779
1509.049, 13.893
1510.233, 35.516
1511.416, 0.010
1512.600, 89.598
1513.783, 92.292
1514.966, 66.108
1516.148, 67.065
1517.331, 79.180
1518.513, 90.471
1519.695, 57.009
1520.878, 108.308
1522.059, 15.547
1523.241, 0.523
1524.423, 104.738
1525.604, 27.704
1526.785, 31.427
1527.967, 141.828
1529.147, 0.000
##END=



