##NAMES=Enstatite
##RRUFFID=R060744
##IDEAL CHEMISTRY=MgSiO_3_
##LOCALITY=Orissa, India
##OWNER=RRUFF
##SOURCE=Herb Obodda
##DESCRIPTION=Brown transparent fragment
##STATUS=The identification of this mineral has been confirmed by X-ray diffraction and chemical analysis
##URL=rruff.info/R060744
##MEASURED CHEMISTRY=(Mg_0.85_Fe^2+^_0.13_Fe^3+^_0.01_Mn_0.01_)_Σ=1_(Si_0.99_Al_0.01_)_Σ=1_O_3_; trace amounts of Ca; Fe^2+^ and Fe^3+^ splitted by charge balance
##PIN_ID=L01127
##ORIENTATION=Laser parallel to -b* (0 -1 0). Fiducial mark perpendicular to laser is parallel to -c [0 0 -1]
113.2080, 0.0000000E+00
114.4400, 1.552734
115.6710, 706.4771
116.9030, 2089.801
118.1340, 3939.902
119.3650, 6145.714
120.5960, 8967.599
121.8270, 12444.34
123.0580, 17107.96
124.2880, 23722.74
125.5190, 29884.05
126.7490, 34958.06
127.9790, 37102.23
129.2090, 34778.28
130.4390, 30475.63
131.6680, 25379.08
132.8980, 20405.17
134.1270, 15656.88
135.3560, 11601.92
136.5850, 9022.940
137.8140, 7013.079
139.0430, 5422.610
140.2710, 4295.117
141.5000, 3388.084
142.7280, 2735.951
143.9560, 1995.808
145.1840, 1388.757
146.4120, 921.6372
147.6390, 507.5317
148.8670, 254.7188
150.0940, 86.62891
151.3210, 13.79224
152.5490, 223.2771
153.7750, 185.6011
155.0020, 120.1897
156.2290, 162.8948
157.4550, 267.5815
158.6810, 142.2908
159.9080, 274.7156
161.1340, 59.95776
162.3590, 78.24829
163.5850, 28.37378
164.8110, 122.5901
166.0360, 155.4075
167.2610, 256.8843
168.4860, 212.7888
169.7110, 285.6191
170.9360, 286.4661
172.1610, 281.3928
173.3850, 227.4553
174.6100, 361.6963
175.8340, 417.1416
177.0580, 287.8210
178.2820, 389.5632
179.5050, 459.5708
180.7290, 694.4087
181.9520, 804.3809
183.1760, 1031.160
184.3990, 1282.155
185.6220, 1347.184
186.8450, 1549.169
188.0670, 1530.299
189.2900, 1579.243
190.5120, 1495.368
191.7340, 1407.284
192.9560, 1445.322
194.1780, 1554.689
195.4000, 1547.732
196.6220, 1490.713
197.8430, 1540.167
199.0640, 1529.761
200.2860, 1420.746
201.5070, 1393.812
202.7270, 1159.057
203.9480, 863.7435
205.1690, 584.4108
206.3890, 522.8326
207.6090, 314.5940
208.8290, 199.8530
210.0490, 128.0268
211.2690, 134.0059
212.4890, 72.33826
213.7080, 43.13586
214.9280, 135.3546
216.1470, 203.9788
217.3660, 286.9724
218.5850, 224.3152
219.8030, 476.9778
221.0220, 666.9129
222.2400, 881.0812
223.4590, 1234.449
224.6770, 1646.997
225.8950, 2088.700
227.1120, 2570.534
228.3300, 3075.479
229.5480, 3891.524
230.7650, 4710.659
231.9820, 5221.871
233.1990, 5525.089
234.4160, 5246.227
235.6330, 4520.181
236.8490, 3742.866
238.0660, 2850.346
239.2820, 2044.729
240.4980, 1405.152
241.7140, 716.6868
242.9300, 441.3045
244.1460, 248.9839
245.3610, 23.27710
246.5770, 198.4791
247.7920, 258.6235
249.0070, 262.7137
250.2220, 287.7499
251.4370, 300.7739
252.6510, 220.4385
253.8660, 233.6666
255.0800, 281.7888
256.2940, 248.5262
257.5080, 195.4468
258.7220, 108.7461
259.9360, 86.15121
261.1490, 30.27045
262.3630, 77.94099
263.5760, 107.8242
264.7890, 165.0462
266.0020, 184.0767
267.2150, 214.1845
268.4270, 214.3405
269.6400, 222.5160
270.8520, 210.5466
272.0640, 116.3112
273.2760, 54.15497
274.4880, 90.96999
275.7000, 238.6341
276.9120, 383.0856
278.1230, 340.0502
279.3340, 432.1683
280.5450, 508.3809
281.7560, 413.5600
282.9670, 454.7304
284.1780, 475.2456
285.3880, 300.6894
286.5980, 551.3549
287.8090, 561.8231
289.0190, 711.1031
290.2290, 1021.208
291.4380, 1165.154
292.6480, 1319.942
293.8570, 1403.544
295.0670, 1447.223
296.2760, 1475.080
297.4850, 1418.714
298.6930, 1383.743
299.9020, 1269.067
301.1110, 1296.898
302.3190, 1395.460
303.5270, 1234.555
304.7350, 1272.319
305.9430, 1385.109
307.1510, 1449.552
308.3580, 1537.483
309.5660, 1870.911
310.7730, 2016.192
311.9800, 2283.095
313.1870, 2583.767
314.3940, 2973.288
315.6010, 3580.726
316.8070, 4111.083
318.0130, 4760.363
319.2200, 5591.575
320.4260, 6662.716
321.6310, 7983.790
322.8370, 9532.800
324.0430, 11623.69
325.2480, 13816.25
326.4540, 16624.20
327.6590, 20152.43
328.8640, 24460.35
330.0680, 28977.81
331.2730, 34458.55
332.4780, 40057.19
333.6820, 46459.91
334.8860, 51863.80
336.0900, 55789.83
337.2940, 57857.94
338.4980, 57402.19
339.7010, 54837.83
340.9050, 50506.48
342.1080, 45175.04
343.3110, 39058.52
344.5140, 33292.57
345.7170, 28050.49
346.9200, 23472.76
348.1220, 19870.11
349.3240, 16954.53
350.5270, 14708.24
351.7290, 12903.18
352.9310, 11539.27
354.1320, 10257.02
355.3340, 8818.813
356.5350, 7832.189
357.7370, 7248.557
358.9380, 6487.372
360.1390, 6157.430
361.3400, 5469.641
362.5400, 5192.727
363.7410, 4811.802
364.9410, 4501.324
366.1410, 4251.757
367.3410, 4123.143
368.5410, 4183.505
369.7410, 3851.677
370.9400, 3878.865
372.1400, 3738.069
373.3390, 3791.289
374.5380, 3751.526
375.7370, 3726.778
376.9360, 3650.044
378.1350, 3803.324
379.3330, 3721.623
380.5310, 3869.934
381.7300, 3991.265
382.9280, 4181.615
384.1260, 4574.983
385.3230, 5091.367
386.5210, 5690.691
387.7180, 6430.573
388.9160, 7086.850
390.1130, 8102.190
391.3100, 8876.632
392.5060, 9778.397
393.7030, 10652.01
394.9000, 11318.15
396.0960, 11755.52
397.2920, 12138.32
398.4880, 12182.65
399.6840, 12139.56
400.8800, 11862.78
402.0750, 11587.47
403.2710, 11100.80
404.4660, 10611.52
405.6610, 10259.33
406.8560, 9650.392
408.0510, 9312.528
409.2450, 8768.604
410.4400, 8382.052
411.6340, 7777.164
412.8280, 7595.022
414.0220, 6934.860
415.2160, 6594.096
416.4100, 6307.624
417.6030, 5868.859
418.7970, 5441.742
419.9900, 5188.042
421.1830, 4805.584
422.3760, 4510.789
423.5690, 4391.805
424.7610, 4377.237
425.9540, 4458.268
427.1460, 4749.942
428.3380, 5026.898
429.5300, 5674.405
430.7220, 6477.085
431.9140, 7241.805
433.1050, 8078.780
434.2970, 9170.394
435.4880, 9657.545
436.6790, 9900.281
437.8700, 9743.305
439.0610, 8788.391
440.2510, 7632.437
441.4420, 6258.354
442.6320, 5161.156
443.8220, 4142.500
445.0120, 3301.956
446.2020, 2624.843
447.3910, 2162.121
448.5810, 1803.571
449.7700, 1606.569
450.9600, 1389.643
452.1490, 1243.716
453.3370, 1098.771
454.5260, 973.8036
455.7150, 992.8185
456.9030, 891.8354
458.0910, 815.8152
459.2800, 794.7785
460.4670, 656.7250
461.6550, 624.8318
462.8430, 562.7462
464.0300, 598.6454
465.2180, 506.5293
466.4050, 451.4604
467.5920, 412.3145
468.7790, 286.1558
469.9650, 286.9856
471.1520, 202.8076
472.3380, 161.6221
473.5250, 56.43013
474.7110, 19.77680
475.8970, 6.970840
477.0820, 32.19913
478.2680, 37.66189
479.4540, 9.297794
480.6390, 15.15047
481.8240, 74.40882
483.0090, 12.96964
484.1940, 82.66668
485.3780, 57.37676
486.5630, 23.83739
487.7470, 34.97032
488.9320, 144.8371
490.1160, 35.16635
491.3000, 104.8584
492.4830, 99.00044
493.6670, 2.723412
494.8500, 40.36837
496.0340, 41.07469
497.2170, 65.33704
498.4000, 36.64642
499.5820, 74.16256
500.7650, 11.17352
501.9480, 34.64497
503.1300, 25.31685
504.3120, 26.86874
505.4940, 73.32462
506.6760, 132.6751
507.8580, 146.0344
509.0390, 103.0474
510.2210, 112.0827
511.4020, 81.84999
512.5830, 127.8171
513.7640, 111.8192
514.9450, 209.8550
516.1250, 468.9204
517.3060, 558.0009
518.4860, 670.1146
519.6660, 864.2606
520.8460, 883.4413
522.0260, 949.6532
523.2060, 925.8708
524.3850, 926.1156
525.5650, 895.3714
526.7440, 982.6324
527.9230, 1172.923
529.1020, 1298.246
530.2810, 1515.610
531.4590, 1640.033
532.6380, 1974.562
533.8160, 2339.228
534.9940, 2348.080
536.1720, 2378.110
537.3500, 2090.323
538.5270, 1934.732
539.7050, 1653.311
540.8820, 1541.058
542.0590, 1429.984
543.2360, 1158.080
544.4130, 1182.328
545.5900, 1062.700
546.7660, 1196.188
547.9430, 1154.769
549.1190, 827.4301
550.2950, 823.1722
551.4710, 744.9866
552.6470, 646.8684
553.8220, 428.8133
554.9980, 234.8190
556.1730, 342.8885
557.3480, 186.0199
558.5230, 176.2163
559.6980, 203.4983
560.8730, 4.147278
562.0470, 26.26514
563.2220, 90.73422
564.3960, 90.25714
565.5700, 122.8361
566.7440, 85.47229
567.9170, 101.1586
569.0910, 7.105072
570.2640, 118.6774
571.4380, 130.5058
572.6110, 24.36304
573.7840, 23.24817
574.9570, 80.15604
576.1290, 138.0793
577.3020, 159.0144
578.4740, 204.9617
579.6460, 101.9173
580.8180, 249.8811
581.9900, 143.8544
583.1620, 90.83704
584.3330, 164.8297
585.5040, 213.8332
586.6760, 237.8489
587.8470, 177.8724
589.0180, 149.9078
590.1880, 162.9544
591.3590, 153.0100
592.5290, 196.0724
593.7000, 257.1439
594.8700, 155.2214
596.0400, 190.0583
597.2090, 35.40189
598.3790, 141.5022
599.5490, 127.6126
600.7180, 97.72830
601.8870, 16.85248
603.0560, 189.9835
604.2250, 151.1211
605.3940, 164.2670
606.5620, 33.42004
607.7300, 49.58047
608.8990, 150.7466
610.0670, 110.8714
611.2350, 190.1587
612.4020, 223.9403
613.5700, 281.5848
614.7370, 288.4547
615.9050, 298.0311
617.0720, 294.3074
618.2390, 419.2538
619.4060, 398.5182
620.5720, 513.9669
621.7390, 572.6698
622.9050, 646.2155
624.0710, 618.6384
625.2370, 718.2346
626.4030, 781.9863
627.5690, 866.8428
628.7340, 1004.769
629.9000, 1125.635
631.0650, 1125.953
632.2300, 1402.033
633.3950, 1603.276
634.5600, 1650.461
635.7240, 1936.441
636.8890, 2323.632
638.0530, 2518.445
639.2170, 2945.942
640.3810, 3465.226
641.5450, 3877.752
642.7080, 4425.604
643.8720, 5385.059
645.0350, 6339.185
646.1980, 7427.810
647.3610, 9015.336
648.5240, 10724.56
649.6870, 12996.89
650.8490, 16070.78
652.0120, 19430.70
653.1740, 22985.64
654.3360, 27281.41
655.4980, 31727.17
656.6600, 36209.88
657.8210, 39705.48
658.9830, 41438.05
660.1440, 41771.26
661.3050, 40045.92
662.4660, 37226.71
663.6270, 33900.10
664.7870, 30525.99
665.9480, 28106.83
667.1080, 25849.98
668.2680, 25194.76
669.4280, 25311.95
670.5880, 26666.93
671.7480, 28612.39
672.9070, 31986.30
674.0670, 35709.90
675.2260, 39919.08
676.3850, 44513.66
677.5440, 48324.48
678.7030, 51915.30
679.8610, 53670.70
681.0200, 53526.01
682.1780, 51279.36
683.3360, 47491.43
684.4940, 41759.59
685.6520, 35942.86
686.8090, 30293.80
687.9670, 25060.68
689.1240, 20699.55
690.2810, 17267.59
691.4380, 14150.51
692.5950, 11777.11
693.7520, 10161.14
694.9080, 8453.646
696.0650, 7099.312
697.2210, 6229.231
698.3770, 5569.196
699.5330, 4949.109
700.6880, 4221.058
701.8440, 3951.956
702.9990, 3440.847
704.1550, 3226.729
705.3100, 2688.602
706.4650, 2653.469
707.6190, 2429.328
708.7740, 2257.947
709.9290, 1972.787
711.0830, 1905.619
712.2370, 1681.442
713.3910, 1572.255
714.5450, 1401.058
715.6980, 1231.850
716.8520, 1290.636
718.0050, 1291.411
719.1580, 1155.176
720.3110, 951.9308
721.4640, 895.6765
722.6170, 901.4122
723.7700, 866.1380
724.9220, 732.8516
726.0740, 767.5568
727.2260, 683.7831
728.3780, 659.9376
729.5300, 632.6126
730.6810, 575.2772
731.8330, 644.9310
732.9840, 523.5750
734.1350, 671.2088
735.2860, 565.8324
736.4370, 360.4253
737.5880, 328.0273
738.7380, 358.6185
739.8880, 341.2001
741.0390, 439.5959
742.1890, 495.1565
743.3380, 410.7069
744.4880, 367.2459
745.6380, 242.7129
746.7870, 323.2308
747.9360, 273.7399
749.0850, 268.2373
750.2340, 262.7248
751.3830, 218.6615
752.5310, 196.5939
753.6800, 137.1388
754.8280, 114.6185
755.9760, 47.10289
757.1240, 7.330063
758.2720, 68.13785
759.4190, 23.31427
760.5670, 29.75955
761.7140, 96.81902
762.8610, 15.57652
764.0080, 100.8961
765.1550, 64.66971
766.3020, 87.30460
767.4480, 28.55006
768.5950, 111.1725
769.7410, 27.92441
770.8870, 26.26128
772.0330, 37.59190
773.1780, 58.40648
774.3240, 92.47939
775.4690, 27.58093
776.6140, 7.369453
777.7590, 2.644356
778.9040, 8.304214
780.0490, 61.74175
781.1940, 2.743828
782.3380, 0.7740020
783.4820, 18.55204
784.6260, 50.12784
785.7700, 29.38539
786.9140, 39.89476
788.0580, 9.591949
789.2010, 48.87992
790.3450, 65.98432
791.4880, 2.877090
792.6310, 54.56463
793.7730, 13.94641
794.9160, 12.40636
796.0590, 7.079475
797.2010, 29.60043
798.3430, 17.37479
799.4850, 68.32809
800.6270, 47.35941
801.7690, 1.898895
802.9100, 47.13472
804.0520, 39.90820
805.1930, 38.47263
806.3340, 30.35328
807.4750, 40.27470
808.6160, 19.24521
809.7560, 39.75086
810.8970, 53.86219
812.0370, 28.31826
813.1770, 2.188744
814.3170, 61.31177
815.4570, 24.37063
816.5960, 20.54973
817.7360, 7.979923
818.8750, 13.58891
820.0140, 39.54034
821.1530, 27.06156
822.2920, 13.62164
823.4310, 12.28207
824.5690, 3.662338
825.7070, 11.58272
826.8460, 47.13112
827.9840, 20.64168
829.1220, 14.83149
830.2590, 24.74327
831.3970, 19.85676
832.5340, 19.59914
833.6710, 72.42218
834.8080, 8.435051
835.9450, 104.4330
837.0820, 34.42339
838.2190, 171.4073
839.3550, 153.3857
840.4910, 244.3585
841.6270, 227.3257
842.7630, 330.2865
843.8990, 514.2425
845.0350, 654.1940
846.1700, 670.1436
847.3060, 894.0878
848.4410, 1137.029
849.5760, 1447.964
850.7100, 1861.897
851.8450, 2215.827
852.9800, 2490.752
854.1140, 2944.677
855.2480, 3184.596
856.3820, 3335.512
857.5160, 3582.427
858.6500, 3666.339
859.7830, 3906.248
860.9170, 3640.967
862.0500, 3099.062
863.1830, 3071.967
864.3160, 2729.869
865.4480, 2534.771
866.5810, 2169.672
867.7130, 2055.572
868.8460, 1721.470
869.9780, 1503.369
871.1100, 1429.269
872.2410, 1184.167
873.3730, 1011.064
874.5050, 853.9631
875.6360, 629.8625
876.7670, 638.7610
877.8980, 647.6626
879.0290, 643.5643
880.1590, 467.4673
881.2900, 358.3714
882.4200, 321.2777
883.5500, 367.1863
884.6800, 301.0953
885.8100, 309.8737
886.9400, 382.9329
888.0690, 260.8548
889.1990, 296.7801
890.3280, 212.7060
891.4570, 140.6353
892.5860, 168.5681
893.7140, 246.8874
894.8430, 309.8253
895.9710, 318.9513
897.1000, 151.1437
898.2280, 348.0915
899.3560, 62.86705
900.4830, 55.49910
901.6110, 214.4562
902.7380, 55.58227
903.8660, 52.08508
904.9930, 40.01263
906.1200, 135.9428
907.2460, 198.6859
908.3730, 24.62268
909.5000, 89.86481
910.6260, 64.80645
911.7520, 81.33459
912.8780, 116.0173
914.0040, 137.1206
915.1290, 147.1115
916.2550, 184.1982
917.3800, 226.3195
918.5050, 327.5430
919.6300, 436.5178
920.7550, 433.7565
921.8800, 470.3226
923.0040, 504.9915
924.1290, 660.6218
925.2530, 530.4532
926.3770, 736.3137
927.5010, 764.3380
928.6250, 927.4189
929.7480, 978.5784
930.8720, 1154.884
931.9950, 1098.254
933.1180, 1231.069
934.2410, 1276.460
935.3640, 1389.760
936.4860, 1437.505
937.6090, 1326.771
938.7310, 1445.144
939.8530, 1419.465
940.9750, 1213.968
942.0970, 1283.108
943.2180, 1272.520
944.3400, 1197.483
945.4610, 987.0309
946.5820, 922.9052
947.7030, 858.2528
948.8240, 705.2376
949.9450, 876.0381
951.0650, 696.8299
952.1860, 635.1594
953.3060, 513.5284
954.4260, 599.8716
955.5460, 515.5499
956.6650, 597.1765
957.7850, 512.7661
958.9040, 451.6992
960.0230, 327.7680
961.1420, 399.8437
962.2610, 314.8080
963.3800, 464.9460
964.4990, 320.4556
965.6170, 224.5711
966.7350, 233.2528
967.8530, 291.8054
968.9710, 298.1177
970.0890, 402.4081
971.2070, 254.7641
972.3240, 119.9727
973.4410, 240.3727
974.5580, 289.7940
975.6750, 329.2524
976.7920, 386.7393
977.9090, 459.8688
979.0250, 550.5378
980.1410, 595.3795
981.2580, 778.0045
982.3740, 798.6718
983.4890, 935.3656
984.6050, 935.0970
985.7200, 1226.860
986.8360, 1470.647
987.9510, 1713.458
989.0660, 2041.290
990.1810, 2478.143
991.2950, 3058.017
992.4100, 3612.912
993.5240, 4301.391
994.6390, 5069.442
995.7530, 5878.772
996.8660, 6805.794
997.9800, 7815.863
999.0940, 8835.954
1000.207, 10044.06
1001.320, 11221.19
1002.433, 12643.34
1003.546, 13812.52
1004.659, 15103.72
1005.772, 16076.93
1006.884, 17043.17
1007.996, 17475.44
1009.108, 17536.72
1010.220, 17662.02
1011.332, 17534.34
1012.444, 17243.69
1013.555, 17014.05
1014.666, 16777.44
1015.777, 16822.85
1016.888, 16748.28
1017.999, 16386.71
1019.110, 16244.60
1020.220, 15623.09
1021.331, 15441.59
1022.441, 14816.12
1023.551, 14245.66
1024.661, 13588.23
1025.770, 12953.81
1026.880, 12633.42
1027.989, 11684.05
1029.098, 11102.21
1030.207, 10340.88
1031.316, 9485.583
1032.425, 8479.298
1033.533, 7570.034
1034.642, 7041.924
1035.750, 6223.835
1036.858, 5402.205
1037.966, 4731.060
1039.073, 4091.928
1040.181, 3704.809
1041.288, 3366.719
1042.396, 2736.600
1043.503, 2451.761
1044.610, 2139.990
1045.716, 1810.357
1046.823, 1761.606
1047.929, 1443.689
1049.036, 1363.001
1050.142, 1268.132
1051.248, 1126.800
1052.353, 919.2087
1053.459, 933.0148
1054.564, 668.0254
1055.670, 587.5388
1056.775, 659.4221
1057.880, 519.9017
1058.985, 496.7170
1060.089, 474.6646
1061.194, 286.8189
1062.298, 385.0519
1063.402, 270.0393
1064.506, 214.0949
1065.610, 265.4040
1066.713, 178.5927
1067.817, 198.8463
1068.920, 284.2325
1070.023, 182.3796
1071.126, 146.7699
1072.229, 19.41637
1073.332, 178.0660
1074.435, 87.92136
1075.537, 117.5047
1076.639, 108.1418
1077.741, 91.13461
1078.843, 61.74438
1079.945, 24.53424
1081.046, 23.09279
1082.148, 5.283981
1083.249, 16.37318
1084.350, 7.644531
1085.451, 30.40869
1086.551, 14.57265
1087.652, 222.3150
1088.752, 97.39801
1089.853, 166.5928
1090.953, 213.8171
1092.053, 21.54018
1093.152, 198.5985
1094.252, 178.6615
1095.351, 145.5060
1096.451, 175.5568
1097.550, 182.4386
1098.649, 178.4371
1099.748, 212.8477
1100.846, 220.7950
1101.945, 221.2307
1103.043, 269.5739
1104.141, 231.3242
1105.239, 268.3323
1106.337, 288.0416
1107.434, 217.1843
1108.532, 147.2886
1109.629, 219.4169
1110.726, 221.2224
1111.823, 227.0930
1112.920, 313.0100
1114.017, 107.4357
1115.113, 295.1005
1116.210, 364.2147
1117.306, 185.1209
1118.402, 205.3515
1119.498, 216.4541
1120.593, 163.0517
1121.689, 188.6910
1122.784, 278.2167
1123.879, 250.9952
1124.974, 285.8963
1126.069, 316.8613
1127.164, 111.5097
1128.259, 238.1714
1129.353, 216.6036
1130.447, 317.9424
1131.541, 217.2484
1132.635, 297.1824
1133.729, 200.5658
1134.822, 259.8399
1135.916, 154.4030
1137.009, 312.1634
1138.102, 285.8661
1139.195, 297.6107
1140.288, 359.3083
1141.380, 251.7195
1142.473, 284.3794
1143.565, 117.3438
1144.657, 211.4924
1145.749, 174.7862
1146.841, 54.22604
1147.932, 134.4184
1149.024, 130.5769
1150.115, 28.70358
1151.206, 101.2625
1152.297, 87.03840
1153.388, 70.96893
1154.479, 205.8538
1155.569, 37.15099
1156.659, 142.8359
1157.750, 289.6505
1158.839, 55.45871
1159.929, 9.181320
1161.019, 249.9577
1162.108, 99.96407
1163.198, 193.0864
1164.287, 110.2368
1165.376, 50.68280
1166.465, 53.06571
1167.553, 77.68936
1168.642, 197.6574
1169.730, 168.9606
1170.818, 139.8042
1171.906, 139.9419
1172.994, 83.63731
1174.082, 54.78762
1175.170, 45.40655
1176.257, 29.88680
1177.344, 58.15295
1178.431, 23.99224
1179.518, 66.03123
1180.605, 144.0954
1181.691, 10.05441
1182.778, 9.020359
1183.864, 56.62275
1184.950, 10.30013
1186.036, 24.78074
1187.122, 24.43383
1188.207, 47.37019
1189.292, 66.67036
1190.378, 47.77423
1191.463, 10.58776
1192.548, 11.18810
1193.632, 34.36407
1194.717, 13.92815
1195.801, 54.93388
1196.886, 1.090599
1197.970, 31.26855
1199.054, 25.67793
1200.137, 43.96634
1201.221, 17.66223
1202.305, 2.906620
1203.388, 32.10648
1204.471, 42.94093
1205.554, 42.49250
1206.637, 19.78432
1207.719, 4.582066
1208.802, 35.27744
1209.884, 4.071735
1210.966, 39.00112
1212.048, 96.16707
1213.130, 87.80181
1214.212, 24.60038
1215.293, 349.9106
1216.374, 580.8827
1217.456, 35.64664
1218.536, 102.9417
1219.617, 1.378105
1220.698, 4.287626
1221.778, 80.30955
1222.859, 40.29387
1223.939, 21.31671
1225.019, 81.19529
1226.099, 100.2040
1227.178, 3.890682
1228.258, 67.18733
1229.337, 22.67711
1230.417, 76.87933
1231.496, 84.14865
1232.574, 104.5818
1233.653, 125.6612
1234.732, 68.15440
1235.810, 133.5546
1236.888, 16.92542
1237.966, 4.171926
1239.044, 53.63882
1240.122, 21.40441
1241.199, 3.544809
1242.277, 19.33722
1243.354, 3.588367
1244.431, 13.46707
1245.508, 14.03950
1246.585, 2.638947
1247.661, 36.01353
1248.738, 50.26398
1249.814, 130.6964
1250.890, 117.2570
1251.966, 140.8736
1253.042, 83.86735
1254.117, 67.84377
1255.193, 19.29184
1256.268, 103.2304
1257.343, 14.03940
1258.418, 35.46059
1259.493, 164.2829
1260.567, 168.0115
1261.642, 56.36716
1262.716, 139.6555
1263.790, 160.8804
1264.864, 94.04375
1265.938, 68.14175
1267.011, 72.60304
1268.085, 65.13663
1269.158, 68.03349
1270.231, 99.86295
1271.304, 93.62906
1272.377, 137.5152
1273.450, 140.1973
1274.522, 102.7709
1275.594, 82.36021
1276.666, 110.8030
1277.738, 112.6306
1278.810, 43.52072
1279.882, 140.3609
1280.953, 180.1656
1282.025, 136.4300
1283.096, 140.4874
1284.167, 71.48340
1285.238, 173.4005
1286.308, 27.26875
1287.379, 129.1828
1288.449, 50.91527
