##NAMES=Enstatite
##RRUFFID=R050644
##IDEAL CHEMISTRY=MgSiO_3_
##LOCALITY=Morogoro, Tanzania
##OWNER=RRUFF
##SOURCE=Jibamitra Ganguly
##DESCRIPTION=Light brown crystal fragment
##STATUS=The identification of this mineral has been confirmed by X-ray diffraction and chemical analysis
##URL=rruff.info/R050644
##MEASURED CHEMISTRY=(Mg_0.90_Fe_0.10_)SiO_3_
##PIN_ID=L01052
##ORIENTATION=Laser parallel to b* (0 1 0). Fiducial mark perpendicular to laser is parallel to c [0 0 1]
113.2080, 0.0000000E+00
114.4400, 225.0674
115.6710, 6.022461
116.9030, 118.8594
118.1340, 93.46777
119.3650, 447.2656
120.5960, 1122.961
121.8270, 1400.176
123.0580, 1742.069
124.2880, 2027.404
125.5190, 2565.988
126.7490, 3134.861
127.9790, 3269.867
129.2090, 3094.799
130.4390, 2984.998
131.6680, 3035.043
132.8980, 3240.619
134.1270, 3249.927
135.3560, 3150.549
136.5850, 2657.946
137.8140, 2250.406
139.0430, 1740.826
140.2710, 1453.026
141.5000, 1341.185
142.7280, 1621.521
143.9560, 1514.867
145.1840, 1537.363
146.4120, 1572.521
147.6390, 1617.846
148.8670, 1529.120
150.0940, 1342.384
151.3210, 1339.387
152.5490, 1133.515
153.7750, 1112.788
155.0020, 746.2891
156.2290, 699.0176
157.4550, 617.9570
158.6810, 550.0967
159.9080, 437.4287
161.1340, 304.9424
162.3590, 188.6250
163.5850, 253.8467
164.8110, 178.8301
166.0360, 174.9424
167.2610, 99.17090
168.4860, 76.08691
169.7110, 159.9424
170.9360, 17.51270
172.1610, 77.85059
173.3850, 206.0645
174.6100, 129.8525
175.8340, 26.09961
177.0580, 25.91797
178.2820, 16.59863
179.5050, 118.1504
180.7290, 66.42285
181.9520, 59.88379
183.1760, 72.08008
184.3990, 115.8320
185.6220, 115.1504
186.8450, 22.98828
188.0670, 38.25195
189.2900, 238.6094
190.5120, 214.0898
191.7340, 492.6855
192.9560, 444.3926
194.1780, 408.2070
195.4000, 554.1152
196.6220, 432.1152
197.8430, 467.1914
199.0640, 611.3418
200.2860, 430.5586
201.5070, 525.8379
202.7270, 389.1621
203.9480, 434.5176
205.1690, 287.9023
206.3890, 284.3086
207.6090, 216.7402
208.8290, 275.1992
210.0490, 299.6816
211.2690, 203.1875
212.4890, 140.7129
213.7080, 187.3594
214.9280, 289.7988
216.1470, 261.2871
217.3660, 294.5801
218.5850, 330.8398
219.8030, 477.0312
221.0220, 503.1738
222.2400, 599.2656
223.4590, 994.3047
224.6770, 1195.488
225.8950, 1650.836
227.1120, 2066.311
228.3300, 2052.951
229.5480, 2372.783
230.7650, 2703.715
231.9820, 2777.799
233.1990, 2929.084
234.4160, 2845.559
235.6330, 2744.055
236.8490, 2608.629
238.0660, 2734.398
239.2820, 2258.359
240.4980, 1988.395
241.7140, 1371.482
242.9300, 876.5938
244.1460, 781.7207
245.3610, 577.8633
246.5770, 297.0117
247.7920, 291.1699
249.0070, 295.3340
250.2220, 430.5059
251.4370, 379.6855
252.6510, 336.8711
253.8660, 336.0605
255.0800, 343.2559
256.2940, 440.4570
257.5080, 692.6641
258.7220, 687.8730
259.9360, 684.5586
261.1490, 205.8613
262.3630, 552.1523
263.5760, 485.4316
264.7890, 492.7461
266.0020, 698.3711
267.2150, 628.0117
268.4270, 460.6387
269.6400, 739.2422
270.8520, 739.8105
272.0640, 567.3418
273.2760, 487.8340
274.4880, 673.2754
275.7000, 488.6348
276.9120, 582.9043
278.1230, 455.0801
279.3340, 510.1758
280.5450, 316.2090
281.7560, 293.1836
282.9670, 267.1113
284.1780, 333.9844
285.3880, 310.7559
286.5980, 309.2090
287.8090, 375.2773
289.0190, 375.7402
290.2290, 499.8848
291.4380, 740.8965
292.6480, 818.7051
293.8570, 859.4336
295.0670, 778.0801
296.2760, 808.6035
297.4850, 860.1504
298.6930, 1013.734
299.9020, 1138.350
301.1110, 1096.188
302.3190, 958.6797
303.5270, 939.3945
304.7350, 991.1387
305.9430, 771.9121
307.1510, 1007.611
308.3580, 1039.877
309.5660, 1223.467
310.7730, 1407.797
311.9800, 1486.158
313.1870, 1282.162
314.3940, 1786.043
315.6010, 1514.988
316.8070, 1842.406
318.0130, 1937.223
319.2200, 2242.172
320.4260, 2272.660
321.6310, 2625.248
322.8370, 2989.012
324.0430, 3256.521
325.2480, 3360.812
326.4540, 4039.229
327.6590, 4793.479
328.8640, 5667.107
330.0680, 6551.443
331.2730, 7675.703
332.4780, 8710.531
333.6820, 9732.754
334.8860, 10401.46
336.0900, 11192.49
337.2940, 11530.74
338.4980, 11721.28
339.7010, 11670.07
340.9050, 11304.68
342.1080, 10872.57
343.3110, 10218.16
344.5140, 9163.508
345.7170, 8126.299
346.9200, 6926.656
348.1220, 5658.115
349.3240, 4723.730
350.5270, 3979.631
351.7290, 3632.035
352.9310, 2936.881
354.1320, 2628.795
355.3340, 2343.256
356.5350, 2224.721
357.7370, 1835.059
358.9380, 1872.928
360.1390, 1751.883
361.3400, 1451.684
362.5400, 1257.490
363.7410, 1143.008
364.9410, 1035.285
366.1410, 1132.004
367.3410, 1066.627
368.5410, 1055.205
369.7410, 1257.201
370.9400, 1306.799
372.1400, 1338.410
373.3390, 1647.408
374.5380, 1631.273
375.7370, 1625.092
376.9360, 1637.617
378.1350, 1667.139
379.3330, 1738.660
380.5310, 1558.178
381.7300, 1605.693
382.9280, 1385.203
384.1260, 1374.709
385.3230, 1202.211
386.5210, 1654.707
387.7180, 1315.195
388.9160, 1473.680
390.1130, 1565.156
391.3100, 1510.627
392.5060, 1668.092
393.7030, 1702.551
394.9000, 1901.004
396.0960, 1948.445
397.2920, 2129.883
398.4880, 1884.314
399.6840, 2021.738
400.8800, 2006.152
402.0750, 2056.559
403.2710, 1964.961
404.4660, 1878.340
405.6610, 1986.709
406.8560, 1944.072
408.0510, 1875.428
409.2450, 1782.768
410.4400, 1952.094
411.6340, 1998.408
412.8280, 1838.391
414.0220, 1912.918
415.2160, 1723.447
416.4100, 1710.764
417.6030, 1702.221
418.7970, 1355.775
419.9900, 1275.990
421.1830, 1123.238
422.3760, 1133.018
423.5690, 829.9863
424.7610, 821.4473
425.9540, 519.5938
427.1460, 384.7305
428.3380, 511.2246
429.5300, 537.3359
430.7220, 587.6406
431.9140, 757.7246
433.1050, 602.7969
434.2970, 660.8574
435.4880, 787.9160
436.6790, 921.9980
437.8700, 880.0312
439.0610, 815.0566
440.2510, 875.0723
441.4420, 789.0801
442.6320, 709.0762
443.8220, 820.1992
445.0120, 845.4590
446.2020, 537.4277
447.3910, 619.3887
448.5810, 597.4492
449.7700, 379.9785
450.9600, 380.4043
452.1490, 257.9355
453.3370, 372.2441
454.5260, 278.5273
455.7150, 280.4160
456.9030, 341.2969
458.0910, 121.1699
459.2800, 302.5410
460.4670, 381.4023
461.6550, 292.8379
462.8430, 251.7754
464.0300, 304.1738
465.2180, 396.1152
466.4050, 325.5449
467.5920, 300.4824
468.7790, 260.2363
469.9650, 309.3027
471.1520, 289.6875
472.3380, 113.1719
473.5250, 243.1582
474.7110, 133.2656
475.8970, 102.7207
477.0820, 16.78711
478.2680, 116.8828
479.4540, 44.94922
480.6390, 59.24219
481.8240, 30.49805
483.0090, 58.80273
484.1940, 110.1738
485.3780, 120.6133
486.5630, 43.84961
487.7470, 58.70898
488.9320, 48.70117
490.1160, 67.91016
491.3000, 117.5586
492.4830, 153.2949
493.6670, 46.88086
494.8500, 214.9336
496.0340, 169.1035
497.2170, 813.1543
498.4000, 492.1855
499.5820, 498.7988
500.7650, 148.7637
501.9480, 101.8398
503.1300, 66.99609
504.3120, 146.2207
505.4940, 61.55078
506.6760, 76.04297
507.8580, 46.37500
509.0390, 38.13672
510.2210, 44.62305
511.4020, 173.0762
512.5830, 44.51562
513.7640, 267.9375
514.9450, 176.3574
516.1250, 208.7832
517.3060, 221.2031
518.4860, 302.6035
519.6660, 350.9824
520.8460, 318.3574
522.0260, 329.7090
523.2060, 473.0371
524.3850, 465.3457
525.5650, 408.6289
526.7440, 465.9023
527.9230, 689.1523
529.1020, 515.3789
530.2810, 784.5840
531.4590, 776.7988
532.6380, 783.9883
533.8160, 925.1543
534.9940, 885.2988
536.1720, 863.4180
537.3500, 887.5117
538.5270, 917.5762
539.7050, 894.6191
540.8820, 994.6367
542.0590, 927.6309
543.2360, 640.5996
544.4130, 776.5449
545.5900, 589.4648
546.7660, 514.3574
547.9430, 547.2227
549.1190, 572.0625
550.2950, 370.8750
551.4710, 552.6602
552.6470, 373.4199
553.8220, 145.1543
554.9980, 251.8555
556.1730, 248.5273
557.3480, 296.1680
558.5230, 259.7812
559.6980, 233.3633
560.8730, 335.9199
562.0470, 301.4434
563.2220, 170.9395
564.3960, 123.4043
565.5700, 241.8340
566.7440, 338.2305
567.9170, 317.6016
569.0910, 225.9395
570.2640, 322.2480
571.4380, 265.5254
572.6110, 335.7754
573.7840, 341.9922
574.9570, 317.1816
576.1290, 315.3457
577.3020, 308.4746
578.4740, 381.5762
579.6460, 354.6484
580.8180, 472.6914
581.9900, 419.7031
583.1620, 418.6836
584.3330, 287.6348
585.5040, 252.5547
586.6760, 368.4414
587.8470, 374.3008
589.0180, 293.1270
590.1880, 178.9219
591.3590, 201.7773
592.5290, 174.3828
593.7000, 225.1895
594.8700, 229.8418
596.0400, 404.6855
597.2090, 464.4844
598.3790, 384.0410
599.5490, 200.0586
600.7180, 351.5469
601.8870, 191.0859
603.0560, 328.8672
604.2250, 210.8867
605.3940, 323.1309
606.5620, 207.4492
607.7300, 407.0195
608.8990, 43.96680
610.0670, 297.1680
611.2350, 222.7988
612.4020, 202.2949
613.5700, 425.9844
614.7370, 305.3359
615.9050, 401.9609
617.0720, 569.1934
618.2390, 620.9883
619.4060, 507.4609
620.5720, 682.6816
621.7390, 717.9785
622.9050, 778.8809
624.0710, 882.4297
625.2370, 841.8984
626.4030, 845.4980
627.5690, 1174.641
628.7340, 1063.396
629.9000, 1176.645
631.0650, 988.4023
632.2300, 966.6230
633.3950, 1139.979
634.5600, 1130.803
635.7240, 1254.699
636.8890, 1280.197
638.0530, 1325.232
639.2170, 1460.160
640.3810, 1722.398
641.5450, 1776.809
642.7080, 2263.104
643.8720, 2424.395
645.0350, 2951.873
646.1980, 3175.391
647.3610, 3601.887
648.5240, 4327.506
649.6870, 5199.789
650.8490, 5994.355
652.0120, 7227.980
653.1740, 8245.369
654.3360, 9861.928
655.4980, 10894.23
656.6600, 11865.52
657.8210, 12623.81
658.9830, 13450.26
660.1440, 13343.25
661.3050, 13679.43
662.4660, 13440.11
663.6270, 12841.36
664.7870, 12146.30
665.9480, 11335.12
667.1080, 10476.76
668.2680, 9890.836
669.4280, 9641.746
670.5880, 9831.309
671.7480, 10449.95
672.9070, 11091.82
674.0670, 12212.55
675.2260, 13978.09
676.3850, 15432.38
677.5440, 16915.62
678.7030, 18171.35
679.8610, 19156.62
681.0200, 19621.16
682.1780, 19490.13
683.3360, 18811.53
684.4940, 17968.59
685.6520, 16795.59
686.8090, 15079.72
687.9670, 13165.66
689.1240, 10771.56
690.2810, 9139.680
691.4380, 7482.846
692.5950, 6062.650
693.7520, 4974.102
694.9080, 4144.598
696.0650, 3561.043
697.2210, 2802.652
698.3770, 2509.072
699.5330, 2213.668
700.6880, 1763.234
701.8440, 1751.727
702.9990, 1375.637
704.1550, 1197.311
705.3100, 1263.447
706.4650, 1044.850
707.6190, 940.2207
708.7740, 850.1875
709.9290, 704.4902
711.0830, 718.5527
712.2370, 643.5508
713.3910, 448.0000
714.5450, 584.1738
715.6980, 495.3105
716.8520, 442.3848
718.0050, 472.4609
719.1580, 443.5059
720.3110, 540.5215
721.4640, 642.5059
722.6170, 434.4570
723.7700, 481.2441
724.9220, 286.8516
726.0740, 342.7070
727.2260, 285.5332
728.3780, 264.2129
729.5300, 233.3848
730.6810, 409.6191
731.8330, 409.7051
732.9840, 295.9746
734.1350, 198.2324
735.2860, 199.8379
736.4370, 348.4141
737.5880, 300.9609
738.7380, 443.9688
739.8880, 34.45703
741.0390, 157.3535
742.1890, 91.76953
743.3380, 11.68359
744.4880, 335.0156
745.6380, 169.8340
746.7870, 70.10938
747.9360, 234.5625
749.0850, 122.6641
750.2340, 144.4199
751.3830, 76.94141
752.5310, 144.1191
753.6800, 60.95312
754.8280, 229.9980
755.9760, 16.04492
757.1240, 33.13281
758.2720, 160.7539
759.4190, 67.61328
760.5670, 95.46680
761.7140, 214.3047
762.8610, 66.86133
764.0080, 193.9336
765.1550, 113.7383
766.3020, 120.4414
767.4480, 73.25586
768.5950, 117.0742
769.7410, 16.48242
770.8870, 71.90039
772.0330, 120.3496
773.1780, 17.09961
774.3240, 109.4199
775.4690, 41.96680
776.6140, 58.32227
777.7590, 133.3535
778.9040, 0.1367190
780.0490, 32.71094
781.1940, 15.38281
782.3380, 19.50977
783.4820, 92.67773
784.6260, 31.13086
785.7700, 27.01172
786.9140, 98.14844
788.0580, 33.26758
789.2010, 15.64062
790.3450, 38.46875
791.4880, 58.51367
792.6310, 109.6445
793.7730, 60.79492
794.9160, 3.994141
796.0590, 9.751953
797.2010, 54.51562
798.3430, 54.15820
799.4850, 164.8066
800.6270, 16.43359
801.7690, 81.03516
802.9100, 42.38477
804.0520, 133.1445
805.1930, 17.65234
806.3340, 47.13672
807.4750, 123.4004
808.6160, 91.97070
809.7560, 24.32227
810.8970, 50.65234
812.0370, 83.96094
813.1770, 194.2500
814.3170, 143.5215
815.4570, 8.777344
816.5960, 106.0078
817.7360, 33.22266
818.8750, 10.58008
820.0140, 47.58789
821.1530, 117.7363
822.2920, 224.8730
823.4310, 79.99023
824.5690, 253.0898
825.7070, 162.1758
826.8460, 52.24609
827.9840, 29.29883
829.1220, 190.3340
830.2590, 16.35547
831.3970, 348.3613
832.5340, 112.3555
833.6710, 396.3340
834.8080, 170.2988
835.9450, 17.27539
837.0820, 450.2324
838.2190, 212.1816
839.3550, 307.1133
840.4910, 281.0352
841.6270, 500.9512
842.7630, 491.8574
843.8990, 618.7500
845.0350, 593.6309
846.1700, 895.5020
847.3060, 967.3633
848.4410, 1154.215
849.5760, 1339.057
850.7100, 1547.887
851.8450, 1647.826
852.9800, 1689.518
854.1140, 1855.320
855.2480, 1952.111
856.3820, 2082.895
857.5160, 1796.666
858.6500, 1836.430
859.7830, 1686.188
860.9170, 1455.938
862.0500, 1277.676
863.1830, 1366.410
864.3160, 992.1348
865.4480, 1017.889
866.5810, 854.5391
867.7130, 548.2832
868.8460, 642.0195
869.9780, 398.7520
871.1100, 553.2559
872.2410, 565.7656
873.3730, 426.4824
874.5050, 400.2344
875.6360, 335.9805
876.7670, 364.6680
877.8980, 503.0723
879.0290, 264.2012
880.1590, 415.0781
881.2900, 317.8457
882.4200, 387.3184
883.5500, 408.3750
884.6800, 281.1348
885.8100, 359.4258
886.9400, 342.8125
888.0690, 148.3711
889.1990, 313.7734
890.3280, 358.4102
891.4570, 339.1758
892.5860, 200.6973
893.7140, 336.1777
894.8430, 464.6816
895.9710, 448.8320
897.1000, 155.1055
898.2280, 483.8809
899.3560, 481.4512
900.4830, 452.1660
901.6110, 3.449219
902.7380, 176.8555
903.8660, 197.0820
904.9930, 228.6699
906.1200, 415.6094
907.2460, 212.1289
908.3730, 291.6465
909.5000, 404.6270
910.6260, 226.9102
911.7520, 43.08594
912.8780, 444.3398
914.0040, 306.2500
915.1290, 209.5723
916.2550, 373.8887
917.3800, 426.3574
918.5050, 342.6250
919.6300, 295.1133
920.7550, 551.7422
921.8800, 688.9844
923.0040, 934.5332
924.1290, 1128.822
925.2530, 1175.609
926.3770, 1197.012
927.5010, 1245.203
928.6250, 1876.240
929.7480, 1664.396
930.8720, 1959.584
931.9950, 1914.877
933.1180, 2218.592
934.2410, 2086.104
935.3640, 2257.076
936.4860, 2098.473
937.6090, 2043.156
938.7310, 2075.934
939.8530, 1745.871
940.9750, 1583.398
942.0970, 1410.066
943.2180, 1235.066
944.3400, 1109.061
945.4610, 1007.789
946.5820, 773.6465
947.7030, 659.6621
948.8240, 749.9160
949.9450, 799.1797
951.0650, 693.2031
952.1860, 703.1172
953.3060, 563.0117
954.4260, 502.4473
955.5460, 492.4414
956.6650, 600.7461
957.7850, 454.0781
958.9040, 437.2676
960.0230, 340.6191
961.1420, 364.0000
962.2610, 412.1504
963.3800, 310.2227
964.4990, 467.6387
965.6170, 399.6934
966.7350, 485.1309
967.8530, 243.5898
968.9710, 193.0566
970.0890, 439.7246
971.2070, 384.9199
972.3240, 656.4453
973.4410, 517.9824
974.5580, 580.5371
975.6750, 374.1348
976.7920, 639.7734
977.9090, 752.4512
979.0250, 809.1699
980.1410, 991.9023
981.2580, 1028.643
982.3740, 1144.135
983.4890, 1149.158
984.6050, 1338.934
985.7200, 1422.734
986.8360, 1673.115
987.9510, 1950.578
989.0660, 2288.199
990.1810, 2665.043
991.2950, 3096.896
992.4100, 3586.762
993.5240, 4140.641
994.6390, 5023.527
995.7530, 5773.426
996.8660, 7057.336
997.9800, 8429.258
999.0940, 10226.91
1000.207, 12452.85
1001.320, 15559.80
1002.433, 18954.77
1003.546, 22319.74
1004.659, 25605.72
1005.772, 28519.71
1006.884, 30836.72
1007.996, 31692.80
1009.108, 32175.82
1010.220, 31450.99
1011.332, 30028.06
1012.444, 27149.13
1013.555, 24438.46
1014.666, 21143.55
1015.777, 18159.79
1016.888, 15711.90
1017.999, 13724.02
1019.110, 12427.15
1020.220, 11466.49
1021.331, 10780.11
1022.441, 10494.97
1023.551, 9901.699
1024.661, 9453.135
1025.770, 9436.672
1026.880, 9175.176
1027.989, 8936.471
1029.098, 8624.387
1030.207, 8026.156
1031.316, 7563.756
1032.425, 7014.953
1033.533, 6470.398
1034.642, 5879.852
1035.750, 5258.605
1036.858, 4816.117
1037.966, 3936.635
1039.073, 3796.291
1040.181, 3117.652
1041.288, 2925.279
1042.396, 2628.955
1043.503, 2515.639
1044.610, 1853.369
1045.716, 1800.203
1046.823, 1531.180
1047.929, 1501.975
1049.036, 1026.781
1050.142, 1102.443
1051.248, 1064.486
1052.353, 983.3516
1053.459, 1189.477
1054.564, 789.3672
1055.670, 745.2637
1056.775, 802.1660
1057.880, 613.4238
1058.985, 451.3457
1060.089, 517.5547
1061.194, 579.8770
1062.298, 329.2969
1063.402, 609.6113
1064.506, 447.9531
1065.610, 546.1855
1066.713, 423.6250
1067.817, 459.8086
1068.920, 298.9766
1070.023, 407.3652
1071.126, 315.4531
1072.229, 317.9160
1073.332, 195.9238
1074.435, 401.3398
1075.537, 119.7207
1076.639, 328.1484
1077.741, 336.3438
1078.843, 351.4980
1079.945, 378.0957
1081.046, 397.5508
1082.148, 408.5918
1083.249, 456.7012
1084.350, 400.8613
1085.451, 434.6953
1086.551, 372.1836
1087.652, 334.3477
1088.752, 435.5117
1089.853, 267.7773
1090.953, 337.5742
1092.053, 142.2324
1093.152, 324.8750
1094.252, 230.1895
1095.351, 122.5039
1096.451, 280.6523
1097.550, 383.8867
1098.649, 70.02734
1099.748, 212.0977
1100.846, 112.4492
1101.945, 110.4102
1103.043, 72.83984
1104.141, 152.9727
1105.239, 213.0547
1106.337, 6.992188
1107.434, 176.2812
1108.532, 307.2383
1109.629, 164.7930
1110.726, 308.0117
1111.823, 348.1289
1112.920, 290.1680
1114.017, 181.1953
1115.113, 132.2188
1116.210, 546.2305
1117.306, 421.7812
1118.402, 382.7812
1119.498, 624.7695
1120.593, 487.7500
1121.689, 403.7227
1122.784, 378.6836
1123.879, 378.8828
1124.974, 436.8242
1126.069, 161.7578
1127.164, 365.6797
1128.259, 314.5977
1129.353, 150.5039
1130.447, 130.6016
1131.541, 156.2109
1132.635, 168.0195
1133.729, 371.8125
1134.822, 344.6953
1135.916, 154.3672
1137.009, 158.1289
1138.102, 105.8828
1139.195, 161.3789
1140.288, 204.2617
1141.380, 97.10938
1142.473, 77.45312
1143.565, 203.0039
1144.657, 33.45703
1145.749, 248.0508
1146.841, 57.54297
1147.932, 142.0508
1149.024, 259.5195
1150.115, 154.9727
1151.206, 48.41016
1152.297, 1.835938
1153.388, 1.753906
1154.479, 31.10156
1155.569, 54.97656
1156.659, 33.30859
1157.750, 48.62500
1158.839, 182.2031
1159.929, 89.18750
1161.019, 14.02344
1162.108, 60.22656
1163.198, 21.93359
1164.287, 206.2031
1165.376, 200.3164
1166.465, 53.49609
1167.553, 224.5820
1168.642, 233.6484
1169.730, 118.2930
1170.818, 48.66406
1171.906, 160.3125
1172.994, 199.2773
1174.082, 143.4531
1175.170, 210.1484
1176.257, 121.0586
1177.344, 90.94531
1178.431, 146.8164
1179.518, 188.6680
1180.605, 12.50000
1181.691, 17.71094
1182.778, 168.0273
1183.864, 90.75000
1184.950, 255.4492
1186.036, 244.1250
1187.122, 239.0742
1188.207, 73.42578
1189.292, 217.0430
1190.378, 95.64062
1191.463, 75.21875
1192.548, 61.77344
1193.632, 94.30078
1194.717, 90.80859
1195.801, 119.2930
1196.886, 75.75391
1197.970, 139.1914
1199.054, 8.609375
1200.137, 93.98438
1201.221, 304.3359
1202.305, 82.67188
1203.388, 178.0234
1204.471, 97.14062
1205.554, 23.71875
1206.637, 230.6328
1207.719, 13.27734
1208.802, 180.1484
1209.884, 69.00000
1210.966, 142.8281
1212.048, 212.2578
1213.130, 340.0430
1214.212, 199.8008
1215.293, 286.5352
1216.374, 245.2461
1217.456, 197.9375
1218.536, 232.6094
1219.617, 153.2539
1220.698, 145.8789
1221.778, 228.4766
1222.859, 21.94922
1223.939, 141.5703
1225.019, 141.0586
1226.099, 301.5273
1227.178, 159.9766
1228.258, 290.3945
1229.337, 22.79297
1230.417, 131.1523
1231.496, 179.4883
1232.574, 49.38672
1233.653, 167.8477
1234.732, 256.0586
1235.810, 50.24609
1236.888, 81.59375
1237.966, 60.45703
1239.044, 54.01562
1240.122, 64.64453
1241.199, 160.1758
1242.277, 258.9727
1243.354, 373.7461
1244.431, 204.5000
1245.508, 252.2266
1246.585, 7.066406
1247.661, 438.7773
1248.738, 211.4102
1249.814, 446.0234
1250.890, 387.6094
1251.966, 349.1719
1253.042, 117.7148
1254.117, 216.2305
1255.193, 377.7305
1256.268, 194.2070
1257.343, 415.6562
1258.418, 265.0938
1259.493, 275.5039
1260.567, 294.1719
1261.642, 212.8164
1262.716, 423.8789
1263.790, 269.2070
1264.864, 287.5078
1265.938, 583.7969
1267.011, 554.0664
1268.085, 601.2500
1269.158, 269.4883
1270.231, 560.6992
1271.304, 411.7617
1272.377, 372.9102
1273.450, 579.0586
1274.522, 341.9219
1275.594, 306.0352
1276.666, 134.9844
1277.738, 179.8125
1278.810, 365.1133
1279.882, 239.1523
1280.953, 346.9648
1282.025, 200.4961
1283.096, 541.8047
1284.167, 286.2383
1285.238, 299.9844
1286.308, 307.6211
1287.379, 66.29297
1288.449, 85.81641
1289.519, 341.4141
1290.589, 12.78125
1291.659, 142.6953
1292.729, 230.1836
1293.798, 212.8242
1294.868, 101.4492
