##NAMES=Enstatite
##RRUFFID=R040094
##IDEAL CHEMISTRY=MgSiO_3_
##LOCALITY=unknown
##OWNER=RRUFF
##SOURCE=University of Arizona Mineral Museum
##DESCRIPTION=Dark green massive, associated with anthophyllite
##STATUS=The identification of this mineral has been confirmed by X-ray diffraction and chemical analysis
##URL=rruff.info/R040094
##MEASURED CHEMISTRY=(Mg_0.84_Fe_0.15_)(Si_0.99_Al_0.01_)O_3_; = Enstatite :  [box](Mg_0.83_Fe_0.14_Na_0.01_Ca_0.01_)_7_(Si_0.99_Al_0.01_)_8_O_22_(OH)_2_ = Anthophyllite
##PIN_ID=M00323
##ORIENTATION=Laser parallel to a* (1 0 0). Fiducial mark perpendicular to laser is parallel to -b [0 -1 0]
124.522, 0.000
125.905, 105.099
127.288, 601.408
128.671, 1099.842
130.053, 2016.743
131.436, 3181.373
132.818, 4241.115
134.200, 4842.506
135.582, 4487.640
136.963, 3690.806
138.345, 2562.915
139.726, 1772.508
141.107, 1279.278
142.488, 934.600
143.868, 736.324
145.248, 441.170
146.629, 289.886
148.008, 162.967
149.388, 101.625
150.768, 16.563
152.147, 31.746
153.526, 4.560
154.905, 5.511
156.284, 14.370
157.662, 4.743
159.040, 46.535
160.418, 123.731
161.796, 299.695
163.174, 316.438
164.551, 381.057
165.929, 313.283
167.306, 293.229
168.683, 439.135
170.059, 401.429
171.436, 339.849
172.812, 240.401
174.188, 142.255
175.564, 39.852
176.939, 34.977
178.315, 7.731
179.690, 36.218
181.065, 39.443
182.440, 62.548
183.814, 85.969
185.188, 53.192
186.563, 2.987
187.937, 72.157
189.310, 122.215
190.684, 293.099
192.057, 432.476
193.430, 472.327
194.803, 561.346
196.176, 494.349
197.549, 423.791
198.921, 474.636
200.293, 387.330
201.665, 381.017
203.037, 390.330
204.408, 446.962
205.779, 407.157
207.150, 404.897
208.521, 380.836
209.892, 254.674
211.262, 322.732
212.633, 193.345
214.003, 182.256
215.373, 111.416
216.742, 137.778
218.112, 163.313
219.481, 150.004
220.850, 293.797
222.219, 372.635
223.588, 460.482
224.956, 598.343
226.324, 705.232
227.692, 977.145
229.060, 1066.063
230.428, 1532.973
231.795, 1955.841
233.162, 2537.623
234.529, 3319.261
235.896, 3961.693
237.263, 4653.870
238.629, 4757.888
239.995, 4530.805
241.361, 3937.647
242.727, 3270.411
244.093, 2578.079
245.458, 1944.628
246.823, 1545.049
248.188, 1063.338
249.553, 791.484
250.917, 588.475
252.282, 380.289
253.646, 304.920
255.010, 191.391
256.374, 78.741
257.737, 139.994
259.101, 5.174
260.464, 29.715
261.827, 78.672
263.189, 5.698
264.552, 6.210
265.914, 9.149
267.276, 88.828
268.638, 13.462
270.000, 97.822
271.362, 79.281
272.723, 60.868
274.084, 114.608
275.445, 6.590
276.806, 16.795
278.166, 62.179
279.526, 49.771
280.887, 42.625
282.246, 27.728
283.606, 37.022
284.966, 22.524
286.325, 51.791
287.684, 65.958
289.043, 141.972
290.402, 200.373
291.760, 245.689
293.118, 327.988
294.477, 403.917
295.834, 548.404
297.192, 696.364
298.550, 844.841
299.907, 854.783
301.264, 935.208
302.621, 877.007
303.978, 884.158
305.334, 895.688
306.690, 898.704
308.046, 959.315
309.402, 1024.557
310.758, 1026.741
312.113, 1017.807
313.469, 951.388
314.824, 1011.758
316.179, 1091.972
317.533, 1163.967
318.888, 1328.163
320.242, 1455.740
321.596, 1514.961
322.950, 1530.374
324.304, 1719.169
325.657, 1806.276
327.010, 1867.228
328.363, 2063.345
329.716, 2330.650
331.069, 2672.851
332.421, 3163.065
333.774, 4017.782
335.126, 4847.821
336.478, 6164.253
337.829, 7751.758
339.181, 9149.055
340.532, 11186.272
341.883, 12111.517
343.234, 12584.831
344.585, 12357.672
345.935, 11228.947
347.285, 9758.376
348.635, 8299.330
349.985, 6823.637
351.335, 5769.204
352.684, 4767.914
354.034, 4225.520
355.383, 3653.450
356.731, 3407.090
358.080, 3165.792
359.429, 2902.966
360.777, 2713.516
362.125, 2514.698
363.473, 2318.211
364.820, 2137.376
366.168, 2008.336
367.515, 1778.091
368.862, 1825.557
370.209, 1705.915
371.556, 1709.020
372.902, 1817.035
374.249, 1877.598
375.595, 2087.862
376.940, 2313.981
378.286, 2363.850
379.632, 2521.259
380.977, 2444.091
382.322, 2411.694
383.667, 2245.893
385.012, 2107.730
386.356, 2051.955
387.700, 1893.725
389.044, 2035.912
390.388, 2134.835
391.732, 2302.718
393.075, 2679.562
394.419, 2948.366
395.762, 3325.132
397.105, 3664.859
398.447, 3944.548
399.790, 4255.200
401.132, 4300.815
402.474, 4476.397
403.816, 4411.941
405.158, 4325.452
406.499, 4169.925
407.841, 3903.415
409.182, 3882.822
410.523, 3606.193
411.864, 3504.393
413.204, 3375.587
414.544, 3065.887
415.884, 3060.729
417.224, 2855.605
418.564, 2855.887
419.904, 2655.177
421.243, 2613.969
422.582, 2414.330
423.921, 2079.666
425.260, 1928.520
426.598, 1608.137
427.937, 1322.829
429.275, 1178.377
430.613, 1051.854
431.951, 995.178
433.288, 937.732
434.625, 1034.753
435.963, 1043.267
437.300, 1141.592
438.636, 1476.162
439.973, 1551.115
441.309, 1746.871
442.646, 1708.323
443.981, 1636.726
445.317, 1393.536
446.653, 1134.383
447.988, 927.358
449.323, 738.783
450.658, 567.835
451.993, 479.131
453.328, 356.173
454.662, 356.541
455.996, 360.083
457.331, 372.500
458.664, 368.617
459.998, 386.230
461.331, 398.434
462.665, 445.802
463.998, 452.149
465.330, 514.483
466.663, 503.535
467.996, 453.667
469.328, 387.606
470.660, 310.335
471.992, 247.865
473.323, 212.150
474.655, 200.622
475.986, 167.903
477.317, 146.135
478.648, 152.320
479.979, 88.475
481.309, 63.584
482.640, 62.658
483.970, 49.711
485.300, 83.733
486.629, 63.724
487.959, 13.669
489.288, 65.562
490.617, 1.589
491.946, 53.216
493.275, 40.975
494.603, 55.688
495.932, 29.360
497.260, 58.991
498.588, 58.587
499.916, 14.153
501.243, 18.687
502.571, 8.202
503.898, 31.703
505.225, 19.194
506.552, 72.679
507.878, 162.169
509.205, 171.662
510.531, 253.141
511.857, 364.606
513.183, 456.051
514.508, 588.479
515.834, 787.887
517.159, 1065.272
518.484, 1333.633
519.809, 1547.974
521.133, 1712.301
522.458, 1697.614
523.782, 1617.917
525.106, 1544.208
526.430, 1416.489
527.754, 1274.758
529.077, 1153.017
530.400, 989.267
531.723, 972.507
533.046, 826.743
534.369, 832.972
535.692, 937.200
537.014, 1029.427
538.336, 1214.659
539.658, 1316.892
540.980, 1365.126
542.301, 1376.362
543.623, 1336.592
544.944, 1419.813
546.265, 1427.025
547.585, 1371.224
548.906, 1388.409
550.226, 1340.577
551.547, 1290.728
552.867, 1055.862
554.186, 886.979
555.506, 715.079
556.825, 581.162
558.145, 474.396
559.464, 407.280
560.783, 327.315
562.101, 306.333
563.420, 289.336
564.738, 255.322
566.056, 195.293
567.374, 243.247
568.692, 251.186
570.009, 169.109
571.326, 296.017
572.643, 303.915
573.960, 188.805
575.277, 187.690
576.594, 161.574
577.910, 169.464
579.226, 104.355
580.542, 168.261
581.858, 161.194
583.173, 363.166
584.489, 316.537
585.804, 636.170
587.119, 147.202
588.434, 565.238
589.748, 144.296
591.063, 133.398
592.377, 64.537
593.691, 101.707
595.005, 100.923
596.318, 135.156
597.632, 87.411
598.945, 89.696
600.258, 40.010
601.571, 46.347
602.884, 59.705
604.196, 41.085
605.508, 18.516
606.821, 22.120
608.132, 39.730
609.444, 1.644
610.756, 19.928
612.067, 44.824
613.378, 15.545
614.689, 73.214
616.000, 31.992
617.311, 58.790
618.621, 26.419
619.931, 10.865
621.241, 34.081
622.551, 2.462
623.861, 37.177
625.170, 7.821
626.479, 40.793
627.788, 81.447
629.097, 119.908
630.406, 133.218
631.714, 139.690
633.023, 150.488
634.331, 185.584
635.639, 191.975
636.946, 320.457
638.254, 296.709
639.561, 325.957
640.868, 359.724
642.175, 512.003
643.482, 524.186
644.789, 564.689
646.095, 753.398
647.401, 853.490
648.707, 1048.215
650.013, 1179.098
651.319, 1413.773
652.624, 1756.511
653.929, 2074.161
655.234, 2616.921
656.539, 3320.736
657.844, 3966.314
659.148, 5069.146
660.453, 5990.915
661.757, 7249.576
663.061, 7789.328
664.364, 7839.168
665.668, 7560.285
666.971, 6706.887
668.274, 5985.518
669.577, 5347.375
670.880, 4976.614
672.183, 4496.258
673.485, 4485.152
674.787, 4588.012
676.089, 4952.026
677.391, 5446.798
678.693, 6402.466
679.994, 7214.814
681.296, 8386.114
682.597, 9507.026
683.898, 10097.851
685.198, 10648.664
686.499, 10029.392
687.799, 9260.151
689.099, 7870.861
690.399, 6647.554
691.699, 5359.239
692.998, 4335.917
694.298, 3497.586
695.597, 2842.249
696.896, 2368.904
698.195, 1931.551
699.493, 1660.190
700.792, 1368.821
702.090, 1240.445
703.388, 987.061
704.686, 909.669
705.984, 831.270
707.281, 726.863
708.578, 688.448
709.876, 568.026
711.172, 596.597
712.469, 530.160
713.766, 427.716
715.062, 406.265
716.358, 416.806
717.654, 351.341
718.950, 326.868
720.246, 341.388
721.541, 280.902
722.836, 321.358
724.131, 321.857
725.426, 284.350
726.721, 251.702
728.015, 268.181
729.310, 297.654
730.604, 259.095
731.898, 300.533
733.191, 348.865
734.485, 279.231
735.778, 358.326
737.071, 364.690
738.364, 449.026
739.657, 494.445
740.950, 525.856
742.242, 510.261
743.535, 527.541
744.827, 546.931
746.118, 530.199
747.410, 610.422
748.702, 663.356
749.993, 817.444
751.284, 967.528
752.575, 1102.753
753.866, 1070.777
755.156, 942.808
756.447, 787.629
757.737, 627.474
759.027, 454.372
760.316, 352.189
761.606, 261.410
762.896, 163.521
764.185, 125.996
765.474, 73.774
766.763, 101.785
768.051, 40.022
769.340, 29.298
770.628, 56.199
771.916, 4.081
773.204, 7.524
774.492, 48.351
775.780, 1.022
777.067, 12.460
778.354, 6.032
779.641, 48.271
780.928, 19.742
782.215, 49.100
783.501, 51.334
784.787, 0.452
786.073, 58.524
787.359, 64.618
788.645, 2.726
789.930, 9.845
791.216, 45.979
792.501, 7.856
793.786, 31.315
795.071, 89.510
796.355, 66.757
797.640, 63.045
798.924, 0.372
800.208, 22.293
801.492, 8.957
802.775, 10.384
804.059, 19.264
805.342, 67.911
806.625, 60.557
807.908, 50.203
809.191, 55.849
810.474, 39.494
811.756, 54.138
813.038, 9.783
814.320, 10.425
815.602, 49.066
816.884, 14.706
818.165, 53.345
819.446, 6.016
820.727, 4.612
822.008, 8.767
823.289, 33.841
824.569, 16.556
825.850, 5.971
827.130, 16.601
828.410, 22.169
829.690, 5.731
830.969, 9.714
832.249, 8.173
833.528, 2.644
834.807, 2.126
836.086, 6.382
837.364, 10.884
838.643, 10.891
839.921, 28.874
841.199, 17.362
842.477, 27.846
843.755, 45.327
845.033, 73.804
846.310, 52.279
847.587, 59.749
848.864, 147.216
850.141, 155.679
851.418, 269.140
852.694, 242.597
853.971, 290.052
855.247, 398.503
856.523, 498.951
857.798, 658.397
859.074, 706.839
860.349, 740.279
861.624, 767.716
862.899, 771.417
864.174, 758.583
865.449, 733.013
866.723, 662.440
867.998, 586.865
869.272, 536.288
870.545, 440.708
871.819, 391.127
873.093, 342.543
874.366, 321.958
875.639, 285.370
876.912, 263.780
878.185, 225.189
879.458, 164.596
880.730, 163.002
882.002, 181.406
883.274, 190.808
884.546, 153.210
885.818, 197.609
887.090, 198.008
888.361, 218.407
889.632, 182.809
890.903, 192.217
892.174, 174.625
893.444, 197.004
894.715, 283.444
895.985, 268.853
897.255, 297.261
898.525, 362.673
899.795, 379.083
901.064, 379.494
902.334, 393.919
903.603, 363.345
904.872, 327.774
906.140, 351.207
907.409, 237.645
908.677, 259.083
909.946, 248.524
911.214, 199.967
912.482, 258.419
913.749, 270.874
915.017, 268.333
916.284, 214.804
917.551, 253.287
918.818, 292.714
920.085, 329.208
921.352, 368.523
922.618, 402.802
923.884, 486.227
925.150, 576.653
926.416, 684.966
927.682, 766.413
928.947, 862.416
930.213, 954.241
931.478, 1032.342
932.743, 1107.426
934.008, 1169.187
935.272, 1060.243
936.537, 1210.177
937.801, 1167.005
939.065, 1221.534
940.329, 1214.694
941.593, 1151.426
942.856, 1191.778
944.119, 1183.068
945.383, 1080.328
946.646, 983.495
947.908, 886.143
949.171, 868.230
950.433, 762.563
951.696, 726.502
952.958, 608.032
954.220, 606.404
955.481, 518.839
956.743, 497.388
958.004, 498.108
959.265, 456.833
960.526, 409.551
961.787, 360.295
963.048, 369.988
964.308, 345.741
965.569, 318.508
966.829, 301.821
968.089, 282.588
969.348, 292.220
970.608, 305.997
971.867, 333.879
973.126, 272.324
974.385, 271.097
975.644, 218.863
976.903, 274.244
978.161, 350.224
979.420, 296.955
980.678, 254.718
981.936, 369.323
983.193, 382.168
984.451, 408.119
985.708, 523.389
986.966, 539.705
988.223, 538.407
989.479, 644.194
990.736, 686.991
991.993, 825.876
993.249, 906.723
994.505, 1055.624
995.761, 1254.537
997.017, 1482.455
998.272, 1799.381
999.528, 2099.312
1000.783, 2403.251
1002.038, 2965.198
1003.293, 3266.151
1004.548, 3847.110
1005.802, 4495.075
1007.057, 5012.044
1008.311, 5953.021
1009.565, 6446.001
1010.818, 7103.990
1012.072, 7393.986
1013.326, 7393.987
1014.579, 7534.065
1015.832, 7274.080
1017.085, 7224.104
1018.338, 7244.137
1019.590, 7044.176
1020.842, 7239.070
1022.095, 7374.274
1023.347, 7434.332
1024.599, 7534.396
1025.850, 7364.468
1027.102, 7344.548
1028.353, 7394.633
1029.604, 7024.726
1030.855, 7114.825
1032.106, 6869.930
1033.356, 6599.041
1034.607, 6300.156
1035.857, 5819.278
1037.107, 5349.406
1038.357, 4920.738
1039.607, 4392.373
1040.856, 3954.142
1042.106, 3558.504
1043.355, 3117.267
1044.604, 2824.436
1045.852, 2526.714
1047.101, 2278.959
1048.350, 2013.836
1049.598, 1788.038
1050.846, 1625.285
1052.094, 1486.314
1053.342, 1368.717
1054.589, 1285.502
1055.837, 1176.388
1057.084, 1081.072
1058.331, 1060.745
1059.578, 904.087
1060.824, 874.385
1062.071, 825.280
1063.317, 730.716
1064.563, 697.080
1065.809, 644.420
1067.055, 556.635
1068.301, 544.011
1069.546, 436.925
1070.791, 425.322
1072.036, 377.645
1073.281, 392.218
1074.526, 331.488
1075.771, 313.894
1077.015, 336.687
1078.259, 305.435
1079.503, 281.914
1080.747, 318.947
1081.991, 282.424
1083.234, 281.453
1084.478, 352.922
1085.721, 287.501
1086.964, 255.094
1088.206, 256.290
1089.449, 334.118
1090.691, 346.845
1091.934, 357.446
1093.176, 388.481
1094.418, 411.550
1095.659, 403.036
1096.901, 414.617
1098.142, 406.175
1099.384, 411.793
1100.625, 428.250
1101.865, 348.901
1103.106, 395.634
1104.347, 289.211
1105.587, 318.288
1106.827, 254.394
1108.067, 221.119
1109.307, 262.219
1110.546, 207.410
1111.786, 177.054
1113.025, 196.739
1114.264, 212.362
1115.503, 165.013
1116.742, 161.640
1117.980, 161.270
1119.219, 171.938
1120.457, 118.554
1121.695, 71.525
1122.933, 137.120
1124.171, 96.857
1125.408, 131.480
1126.645, 134.010
1127.883, 78.041
1129.120, 154.717
1130.356, 97.438
1131.593, 127.047
1132.829, 104.900
1134.066, 151.602
1135.302, 142.267
1136.538, 113.042
1137.773, 80.660
1139.009, 91.420
1140.244, 112.756
1141.480, 22.544
1142.715, 127.302
1143.950, 128.921
1145.184, 87.530
1146.419, 65.690
1147.653, 34.294
1148.887, 60.146
1150.121, 97.499
1151.355, 73.177
1152.589, 79.861
1153.822, 93.452
1155.056, 59.040
1156.289, 23.648
1157.522, 86.428
1158.755, 54.156
1159.987, 72.017
1161.220, 32.680
1162.452, 5.562
1163.684, 66.571
1164.916, 36.583
1166.148, 62.375
1167.379, 21.045
1168.611, 49.593
1169.842, 43.625
1171.073, 53.255
1172.304, 38.885
1173.534, 30.125
1174.765, 45.751
1175.995, 29.439
1177.225, 8.682
1178.455, 43.334
1179.685, 65.856
1180.915, 41.359
1182.144, 76.856
1183.374, 28.648
1184.603, 32.203
1185.832, 6.120
1187.060, 12.482
1188.289, 31.148
1189.518, 5.698
1190.746, 13.329
1191.974, 31.116
1193.202, 0.542
1194.430, 6.022
1195.657, 13.477
1196.884, 30.921
1198.112, 15.305
1199.339, 46.165
1200.566, 2.570
1201.792, 9.229
1203.019, 10.534
1204.245, 14.039
1205.471, 37.261
1206.697, 6.556
1207.923, 18.843
1209.149, 24.878
1210.374, 0.523
1211.600, 8.725
1212.825, 14.926
1214.050, 12.538
1215.275, 10.668
1216.499, 7.017
1217.724, 9.224
1218.948, 28.401
1220.172, 16.431
1221.396, 11.282
1222.620, 14.850
1223.843, 2.802
1225.067, 17.691
1226.290, 6.443
1227.513, 21.417
1228.736, 9.640
1229.959, 52.312
1231.181, 19.697
1232.404, 12.304
1233.626, 6.761
1234.848, 21.256
1236.070, 1.182
1237.291, 4.226
1238.513, 14.210
1239.734, 33.121
1240.955, 28.029
1242.177, 50.923
1243.397, 30.861
1244.618, 43.737
1245.838, 34.866
1247.059, 4.542
1248.279, 34.293
1249.499, 16.110
1250.719, 54.918
1251.938, 13.282
1253.158, 13.498
1254.377, 22.272
1255.596, 12.979
1256.815, 1.755
1258.034, 43.467
1259.253, 34.168
1260.471, 49.625
1261.689, 43.531
1262.907, 50.198
1264.125, 49.850
1265.343, 41.492
1266.561, 54.125
1267.778, 9.745
1268.995, 18.652
1270.212, 28.932
1271.429, 56.506
1272.646, 16.931
1273.862, 9.652
1275.079, 47.262
1276.295, 36.774
1277.511, 79.271
1278.727, 5.250
1279.943, 44.213
1281.158, 53.660
1282.373, 28.090
1283.589, 80.507
1284.804, 31.913
1286.019, 4.304
1287.233, 26.677
1288.448, 32.033
1289.662, 65.372
1290.876, 89.692
1292.090, 8.986
1293.304, 82.316
1294.518, 22.580
1295.731, 4.828
1296.944, 49.086
1298.158, 47.306
1299.371, 73.512
1300.583, 87.833
1301.796, 64.012
1303.008, 28.178
1304.221, 34.330
1305.433, 22.468
1306.645, 48.592
1307.856, 29.703
1309.068, 10.728
1310.280, 14.810
1311.491, 2.126
1312.702, 42.918
1313.913, 77.950
1315.124, 13.970
1316.334, 49.976
1317.545, 48.968
1318.755, 7.947
1319.965, 47.910
1321.175, 33.861
1322.385, 7.798
1323.594, 38.719
1324.804, 68.628
1326.013, 93.524
1327.222, 74.407
1328.431, 24.278
1329.639, 56.135
1330.848, 31.978
1332.056, 11.608
1333.265, 16.943
1334.473, 69.123
1335.680, 2.702
1336.888, 64.873
1338.096, 2.631
1339.303, 34.273
1340.510, 46.942
1341.717, 15.028
1342.924, 102.671
1344.131, 34.317
1345.337, 23.172
1346.544, 72.420
1347.750, 16.508
1348.956, 28.490
1350.162, 125.233
1351.367, 88.851
1352.573, 93.358
1353.778, 65.903
1354.983, 40.846
1356.188, 89.242
1357.393, 37.707
1358.598, 27.187
1359.802, 77.789
1361.007, 34.224
1362.211, 48.117
1363.415, 107.523
1364.619, 97.997
1365.822, 75.221
1367.026, 73.716
1368.229, 19.077
1369.432, 65.052
1370.635, 47.066
1371.838, 43.349
1373.041, 71.079
1374.243, 61.363
1375.446, 96.104
1376.648, 54.411
1377.850, 30.623
1379.052, 47.835
1380.253, 0.450
1381.455, 22.455
1382.656, 33.588
1383.857, 50.965
1385.058, 47.239
1386.259, 67.373
1387.459, 37.011
1388.660, 89.987
1389.860, 60.677
1391.060, 55.034
1392.260, 86.170
1393.460, 51.771
1394.660, 45.419
1395.859, 92.107
1397.059, 57.797
1398.258, 73.439
1399.457, 48.534
1400.655, 55.125
1401.854, 104.064
1403.052, 72.486
1404.251, 71.658
1405.449, 89.076
1406.647, 49.443
1407.845, 63.948
1409.042, 80.064
1410.240, 65.531
1411.437, 76.308
1412.634, 77.494
1413.831, 53.677
1415.028, 55.051
1416.224, 63.123
1417.421, 25.893
1418.617, 15.832
1419.813, 60.766
1421.009, 32.208
1422.205, 99.756
1423.401, 69.684
1424.596, 74.722
1425.791, 57.597
1426.986, 31.465
1428.181, 71.526
1429.376, 51.033
1430.571, 59.883
1431.765, 122.220
1432.960, 61.768
1434.154, 38.075
1435.348, 79.745
1436.541, 8.362
1437.735, 41.830
1438.929, 81.800
1440.122, 12.626
1441.315, 81.430
1442.508, 19.073
1443.701, 2.599
1444.893, 80.986
1446.086, 24.659
1447.278, 75.416
1448.470, 64.773
1449.662, 22.446
1450.854, 31.093
1452.046, 62.870
1453.237, 25.502
1454.428, 90.317
1455.619, 88.759
1456.810, 55.510
1458.001, 87.134
1459.192, 9.834
1460.382, 101.536
1461.573, 111.254
1462.763, 53.935
1463.953, 105.600
1465.143, 39.280
1466.332, 16.965
1467.522, 93.632
1468.711, 96.290
1469.900, 105.922
1471.089, 130.556
1472.278, 24.161
1473.467, 28.429
1474.655, 102.028
1475.843, 0.646
1477.032, 73.282
1478.220, 76.915
1479.407, 48.555
1480.595, 84.226
1481.783, 28.988
1482.970, 46.633
1484.157, 52.379
1485.344, 90.210
1486.531, 23.612
1487.718, 116.457
1488.904, 17.682
1490.090, 40.189
1491.277, 77.085
1492.463, 20.015
1493.648, 38.952
1494.834, 30.912
1496.020, 94.890
1497.205, 120.888
1498.390, 60.910
1499.575, 31.961
1500.760, 45.055
1501.945, 43.127
1503.129, 52.313
1504.314, 67.549
1505.498, 30.836
1506.682, 73.178
1507.866, 96.604
1509.049, 70.153
1510.233, 37.306
1511.416, 34.480
1512.600, 17.440
1513.783, 88.880
1514.966, 14.094
1516.148, 46.026
1517.331, 74.450
1518.513, 28.909
1519.695, 72.865
1520.878, 50.042
1522.059, 7.570
1523.241, 59.707
1524.423, 33.605
1525.604, 0.314
1526.785, 0.000
##END=



