##NAMES=Enstatite
##RRUFFID=R060744
##IDEAL CHEMISTRY=MgSiO_3_
##LOCALITY=Orissa, India
##OWNER=RRUFF
##SOURCE=Herb Obodda
##DESCRIPTION=Brown transparent fragment
##STATUS=The identification of this mineral has been confirmed by X-ray diffraction and chemical analysis
##URL=rruff.info/R060744
##MEASURED CHEMISTRY=(Mg_0.85_Fe^2+^_0.13_Fe^3+^_0.01_Mn_0.01_)_Σ=1_(Si_0.99_Al_0.01_)_Σ=1_O_3_; trace amounts of Ca; Fe^2+^ and Fe^3+^ splitted by charge balance
##PIN_ID=L01523
##ORIENTATION=Laser parallel to c* (0 0 1). Fiducial mark perpendicular to laser is parallel to -a [-1 0 0]
113.2080, 0.0000000E+00
114.4400, 212.7834
115.6710, 137.3286
116.9030, 96.52173
118.1340, 6.739014
119.3650, 21.54419
120.5960, 38.59497
121.8270, 166.3240
123.0580, 207.0303
124.2880, 203.2144
125.5190, 274.5764
126.7490, 319.9189
127.9790, 513.0737
129.2090, 580.5728
130.4390, 643.2065
131.6680, 635.0400
132.8980, 701.1162
134.1270, 809.4570
135.3560, 1096.072
136.5850, 1189.965
137.8140, 1709.134
139.0430, 2024.576
140.2710, 2280.285
141.5000, 2506.144
142.7280, 2460.372
143.9560, 2183.366
145.1840, 1924.826
146.4120, 1636.621
147.6390, 1433.741
148.8670, 1186.075
150.0940, 998.8992
151.3210, 772.9060
152.5490, 658.1680
153.7750, 521.6680
155.0020, 447.3911
156.2290, 395.3259
157.4550, 300.4617
158.6810, 251.7891
159.9080, 246.2998
161.1340, 305.9873
162.3590, 240.8452
163.5850, 262.8672
164.8110, 246.0476
166.0360, 228.3784
167.2610, 90.85522
168.4860, 1.474365
169.7110, 21.76782
170.9360, 86.96289
172.1610, 55.84595
173.3850, 88.67798
174.6100, 34.35718
175.8340, 60.12305
177.0580, 103.7605
178.2820, 229.5493
179.5050, 421.4844
180.7290, 411.5608
181.9520, 686.7734
183.1760, 762.1182
184.3990, 990.5913
185.6220, 1187.189
186.8450, 1423.882
188.0670, 1580.593
189.2900, 1724.318
190.5120, 1586.067
191.7340, 1534.855
192.9560, 1408.686
194.1780, 1323.565
195.4000, 1196.494
196.6220, 1042.475
197.8430, 867.5112
199.0640, 793.6028
200.2860, 749.7520
201.5070, 720.9585
202.7270, 628.2212
203.9480, 388.5391
205.1690, 271.9146
206.3890, 136.3584
207.6090, 197.8604
208.8290, 165.4214
210.0490, 157.0417
211.2690, 261.7214
212.4890, 285.4609
213.7080, 357.2603
214.9280, 461.1162
216.1470, 535.9905
217.3660, 664.8831
218.5850, 774.8335
219.8030, 907.8462
221.0220, 1169.919
222.2400, 1515.054
223.4590, 1881.250
224.6770, 2333.505
225.8950, 2901.821
227.1120, 3352.195
228.3300, 3986.628
229.5480, 4806.136
230.7650, 5502.741
231.9820, 6108.578
233.1990, 6543.677
234.4160, 6372.022
235.6330, 5846.568
236.8490, 5108.312
238.0660, 4167.146
239.2820, 3148.016
240.4980, 2372.922
241.7140, 1706.864
242.9300, 1105.841
244.1460, 747.8557
245.3610, 490.9053
246.5770, 355.9910
247.7920, 265.1128
249.0070, 151.2695
250.2220, 135.4617
251.4370, 85.68848
252.6510, 53.95020
253.8660, 73.24585
255.0800, 72.57544
256.2940, 138.9390
257.5080, 120.1357
258.7220, 104.1267
259.9360, 117.5830
261.1490, 72.35205
262.3630, 79.05029
263.5760, 162.9258
264.7890, 177.1953
266.0020, 266.3655
267.2150, 392.6611
268.4270, 484.0696
269.6400, 522.5818
270.8520, 593.1904
272.0640, 494.8906
273.2760, 534.6768
274.4880, 367.5413
275.7000, 323.4729
276.9120, 205.4712
278.1230, 123.5352
279.3340, 123.6638
280.5450, 34.85596
281.7560, 63.10962
282.9670, 39.42456
284.1780, 92.79883
285.3880, 202.2317
286.5980, 301.7214
287.8090, 376.2573
289.0190, 592.7668
290.2290, 725.2690
291.4380, 966.8298
292.6480, 954.4473
293.8570, 1087.120
295.0670, 1155.847
296.2760, 1154.627
297.4850, 1149.972
298.6930, 956.8540
299.9020, 1000.785
301.1110, 923.7646
302.3190, 921.7915
303.5270, 955.8645
304.7350, 1030.984
305.9430, 1135.148
307.1510, 1305.526
308.3580, 1574.608
309.5660, 1766.902
310.7730, 2100.239
311.9800, 2443.616
313.1870, 2950.034
314.3940, 3183.488
315.6010, 3514.621
316.8070, 3619.737
318.0130, 3704.029
319.2200, 3816.226
320.4260, 3901.262
321.6310, 4242.963
322.8370, 4503.702
324.0430, 4925.476
325.2480, 5368.287
326.4540, 6107.131
327.6590, 7136.009
328.8640, 8144.922
330.0680, 9472.865
331.2730, 10948.84
332.4780, 12304.85
333.6820, 13896.89
334.8860, 15489.96
336.0900, 16725.06
337.2940, 17252.19
338.4980, 17058.35
339.7010, 16113.55
340.9050, 14977.78
342.1080, 13250.03
343.3110, 11461.56
344.5140, 9802.873
345.7170, 8158.815
346.9200, 6914.183
348.1220, 5689.357
349.3240, 4810.947
350.5270, 4159.846
351.7290, 3647.928
352.9310, 3231.998
354.1320, 3019.492
355.3340, 2582.030
356.5350, 2433.502
357.7370, 2153.479
358.9380, 2015.274
360.1390, 1944.506
361.3400, 1812.198
362.5400, 1898.913
363.7410, 1866.651
364.9410, 1919.414
366.1410, 1935.200
367.3410, 2230.009
368.5410, 2301.841
369.7410, 2539.695
370.9400, 2799.573
372.1400, 3051.473
373.3390, 3305.394
374.5380, 3590.340
375.7370, 3775.305
376.9360, 3990.292
378.1350, 4172.298
379.3330, 4266.322
380.5310, 4320.365
381.7300, 4157.425
382.9280, 4242.500
384.1260, 4094.592
385.3230, 4254.701
386.5210, 4335.824
387.7180, 4423.966
388.9160, 4747.122
390.1130, 4879.293
391.3100, 5331.481
392.5060, 5398.685
393.7030, 5560.902
394.9000, 5817.136
396.0960, 5816.383
397.2920, 5667.646
398.4880, 5542.925
399.6840, 5343.217
400.8800, 5027.523
402.0750, 4787.846
403.2710, 4723.180
404.4660, 4528.543
405.6610, 4363.932
406.8560, 4152.345
408.0510, 4016.788
409.2450, 3986.259
410.4400, 3714.755
411.6340, 3621.275
412.8280, 3156.818
414.0220, 2928.385
415.2160, 2542.974
416.4100, 2191.586
417.6030, 1888.219
418.7970, 1574.874
419.9900, 1213.550
421.1830, 1016.247
422.3760, 856.9646
423.5690, 553.7021
424.7610, 533.4597
425.9540, 307.2366
427.1460, 190.0327
428.3380, 137.8479
429.5300, 149.6819
430.7220, 140.5339
431.9140, 137.4041
433.1050, 138.2925
434.2970, 112.1990
435.4880, 102.1233
436.6790, 20.06543
437.8700, 24.02466
439.0610, 70.00122
440.2510, 13.00586
441.4420, 31.99707
442.6320, 10.01636
443.8220, 35.05127
445.0120, 32.10205
446.2020, 16.16797
447.3910, 142.2488
448.5810, 145.3450
449.7700, 146.4556
450.9600, 240.5808
452.1490, 244.7202
453.3370, 175.8733
454.5260, 212.0403
455.7150, 258.2207
456.9030, 154.4143
458.0910, 127.6208
459.2800, 97.99414
460.4670, 112.2388
461.6550, 208.8972
462.8430, 33.22266
464.0300, 181.5227
465.2180, 112.1448
466.4050, 60.46777
467.5920, 245.1294
468.7790, 132.4744
469.9650, 188.9712
471.1520, 160.3367
472.3380, 137.7124
473.5250, 73.09814
474.7110, 111.4937
475.8970, 104.8984
477.0820, 114.3125
478.2680, 99.73584
479.4540, 183.1680
480.6390, 228.6094
481.8240, 212.0593
483.0090, 243.5344
484.1940, 142.0291
485.3780, 10.46777
486.5630, 84.03442
487.7470, 34.44263
488.9320, 3.923584
490.1160, 205.4048
491.3000, 94.98438
492.4830, 198.6079
493.6670, 135.3271
494.8500, 134.1077
496.0340, 188.9431
497.2170, 54.85718
498.4000, 154.7822
499.5820, 111.7749
500.7650, 90.81201
501.9480, 9.879395
503.1300, 152.0664
504.3120, 62.01953
505.4940, 287.9949
506.6760, 508.9844
507.8580, 493.0017
509.0390, 851.0525
510.2210, 1136.125
511.4020, 1262.226
512.5830, 1513.332
513.7640, 1842.463
514.9450, 1921.631
516.1250, 2173.811
517.3060, 2125.009
518.4860, 2306.222
519.6660, 2187.458
520.8460, 2265.704
522.0260, 2161.951
523.2060, 2043.219
524.3850, 1998.497
525.5650, 1804.776
526.7440, 1638.058
527.9230, 1618.343
529.1020, 1665.628
530.2810, 1701.941
531.4590, 1815.258
532.6380, 2047.590
533.8160, 2249.932
534.9940, 2378.276
536.1720, 2391.646
537.3500, 2323.017
538.5270, 2150.388
539.7050, 2049.759
540.8820, 1847.130
542.0590, 1705.502
543.2360, 1671.873
544.4130, 1538.244
545.5900, 1565.626
546.7660, 1517.007
547.9430, 1398.401
549.1190, 1353.794
550.2950, 1223.185
551.4710, 1102.573
552.6470, 1000.961
553.8220, 941.3533
554.9980, 777.7434
556.1730, 827.1311
557.3480, 771.5156
558.5230, 817.9014
559.6980, 842.2876
560.8730, 944.6699
562.0470, 1090.049
563.2220, 1228.424
564.3960, 1356.795
565.5700, 1565.163
566.7440, 1823.525
567.9170, 1984.883
569.0910, 2234.236
570.2640, 2366.584
571.4380, 2485.928
572.6110, 2565.265
573.7840, 2640.598
574.9570, 2385.924
576.1290, 2168.246
577.3020, 1829.561
578.4740, 1608.869
579.6460, 1349.171
580.8180, 1142.467
581.9900, 920.2417
583.1620, 831.5239
584.3330, 736.7988
585.5040, 709.0667
586.6760, 616.3274
587.8470, 594.5806
589.0180, 558.8259
590.1880, 509.0635
591.3590, 531.2935
592.5290, 410.5149
593.7000, 290.7280
594.8700, 312.9329
596.0400, 237.1292
597.2090, 166.3167
598.3790, 128.4949
599.5490, 71.55835
600.7180, 111.8225
601.8870, 27.97119
603.0560, 38.09644
604.2250, 104.2017
605.3940, 65.29688
606.5620, 91.37817
607.7300, 65.44922
608.8990, 132.5061
610.0670, 76.55225
611.2350, 138.5859
612.4020, 155.6086
613.5700, 108.6206
614.7370, 200.6213
615.9050, 156.6111
617.0720, 218.5896
618.2390, 241.5564
619.4060, 312.5117
620.5720, 261.5444
621.7390, 320.4761
622.9050, 424.1389
624.0710, 427.4480
625.2370, 504.4004
626.4030, 577.1060
627.5690, 660.6917
628.7340, 731.9646
629.9000, 825.5771
631.0650, 823.6562
632.2300, 843.2126
633.3950, 932.7053
634.5600, 1042.521
635.7240, 1110.730
636.8890, 1311.832
638.0530, 1389.121
639.2170, 1573.803
640.3810, 1737.611
641.5450, 1974.355
642.7080, 2315.983
643.8720, 2647.179
645.0350, 3176.640
646.1980, 3577.329
647.3610, 4190.328
648.5240, 4933.633
649.6870, 5951.103
650.8490, 7177.257
652.0120, 8493.182
653.1740, 10175.63
654.3360, 11643.91
655.4980, 13504.21
656.6600, 15140.03
657.8210, 16773.15
658.9830, 17776.16
660.1440, 18056.16
661.3050, 17372.70
662.4660, 16158.91
663.6270, 15109.93
664.7870, 13547.37
665.9480, 12615.93
667.1080, 11884.45
668.2680, 11580.84
669.4280, 11736.99
670.5880, 12488.88
671.7480, 13639.22
672.9070, 14935.52
674.0670, 16998.84
675.2260, 19118.05
676.3850, 21158.42
677.5440, 23408.67
678.7030, 25152.91
679.8610, 26321.21
681.0200, 26334.42
682.1780, 25263.60
683.3360, 23421.78
684.4940, 20771.46
685.6520, 17726.59
686.8090, 15049.75
687.9670, 12360.83
689.1240, 10194.90
690.2810, 8341.953
691.4380, 6881.980
692.5950, 5697.513
693.7520, 4829.503
694.9080, 3964.474
696.0650, 3527.427
697.2210, 2920.026
698.3770, 2651.606
699.5330, 2371.500
700.6880, 1979.373
701.8440, 1911.227
702.9990, 1575.061
704.1550, 1487.875
705.3100, 1355.670
706.4650, 1225.445
707.6190, 1190.200
708.7740, 1070.936
709.9290, 1000.652
711.0830, 918.3481
712.2370, 892.0247
713.3910, 823.6814
714.5450, 836.3184
715.6980, 737.9355
716.8520, 719.5332
718.0050, 615.1113
719.1580, 619.6694
720.3110, 608.6201
721.4640, 584.7307
722.6170, 634.2334
723.7700, 599.7166
724.9220, 610.1804
726.0740, 600.6245
727.2260, 579.0496
728.3780, 596.4548
729.5300, 583.8406
730.6810, 505.2070
731.8330, 551.5542
732.9840, 466.8821
734.1350, 441.1904
735.2860, 502.4795
736.4370, 425.7495
737.5880, 448.0002
738.7380, 483.0803
739.8880, 466.2930
741.0390, 395.0911
742.1890, 475.2258
743.3380, 477.3821
744.4880, 546.2090
745.6380, 641.3279
746.7870, 502.1001
747.9360, 592.1819
749.0850, 483.1035
750.2340, 505.1487
751.3830, 420.1758
752.5310, 417.1841
753.6800, 387.1743
754.8280, 286.1470
755.9760, 238.1016
757.1240, 170.0381
758.2720, 70.95654
759.4190, 86.85620
760.5670, 25.26196
761.7140, 4.431396
762.8610, 71.35913
764.0080, 19.13110
765.1550, 11.11816
766.3020, 16.40991
767.4480, 25.26587
768.5950, 16.92236
769.7410, 19.30493
770.8870, 12.82788
772.0330, 3.004883
773.1780, 19.27856
774.3240, 40.56836
775.4690, 44.54810
776.6140, 18.19238
777.7590, 28.52295
778.9040, 40.86841
780.0490, 62.23975
781.1940, 24.33203
782.3380, 36.11719
783.4820, 8.616455
784.6260, 62.15063
785.7700, 83.74805
786.9140, 39.41919
788.0580, 67.14014
789.2010, 26.07471
790.3450, 57.72876
791.4880, 103.5906
792.6310, 9.533691
793.7730, 34.50854
794.9160, 24.52759
796.0590, 55.58521
797.2010, 8.697266
798.3430, 41.16187
799.4850, 45.99341
800.6270, 12.19604
801.7690, 49.57202
802.9100, 22.32715
804.0520, 23.06714
805.1930, 86.79321
806.3340, 83.49365
807.4750, 0.8435060
808.6160, 41.21289
809.7560, 25.62207
810.8970, 31.93799
812.0370, 90.51367
813.1770, 10.97021
814.3170, 35.44287
815.4570, 51.90381
816.5960, 6.353516
817.7360, 19.79150
818.8750, 33.21924
820.0140, 13.63574
821.1530, 43.95703
822.2920, 64.41553
823.4310, 54.22119
824.5690, 33.10449
825.7070, 32.42090
826.8460, 35.72852
827.9840, 30.02686
829.1220, 34.68262
830.2590, 77.58398
831.3970, 65.84180
832.5340, 25.09277
833.6710, 23.66504
834.8080, 24.43750
835.9450, 22.77490
837.0820, 79.97998
838.2190, 95.17871
839.3550, 101.3701
840.4910, 143.5562
841.6270, 100.7354
842.7630, 29.90869
843.8990, 29.07617
845.0350, 71.23779
846.1700, 154.3940
847.3060, 186.5459
848.4410, 270.6929
849.5760, 272.8350
850.7100, 375.9727
851.8450, 387.1064
852.9800, 485.2363
854.1140, 515.3623
855.2480, 544.4849
856.3820, 651.6045
857.5160, 618.7202
858.6500, 603.8335
859.7830, 542.9438
860.9170, 525.1357
862.0500, 493.1572
863.1830, 468.2607
864.3160, 442.3623
865.4480, 417.4624
866.5810, 364.5610
867.7130, 346.6597
868.8460, 342.7563
869.9780, 232.8530
871.1100, 240.9482
872.2410, 264.0439
873.3730, 298.1387
874.5050, 181.2339
875.6360, 63.32959
876.7670, 150.4263
877.8980, 183.5303
879.0290, 125.6406
880.1590, 149.7515
881.2900, 153.8652
882.4200, 211.9805
883.5500, 188.0996
884.6800, 274.2202
885.8100, 179.3433
886.9400, 386.4688
888.0690, 286.5967
889.1990, 280.7266
890.3280, 345.8594
891.4570, 351.9951
892.5860, 364.1338
893.7140, 344.2759
894.8430, 344.2012
895.9710, 350.8359
897.1000, 306.8892
898.2280, 354.6445
899.3560, 319.7476
900.4830, 312.8521
901.6110, 326.3062
902.7380, 364.4692
903.8660, 294.8887
904.9930, 360.0586
906.1200, 316.3545
907.2460, 342.4287
908.3730, 384.0181
909.5000, 409.2490
910.6260, 367.1821
911.7520, 451.9048
912.8780, 542.3281
914.0040, 563.1509
915.1290, 695.2388
916.2550, 794.0254
917.3800, 849.8066
918.5050, 905.3193
919.6300, 1153.602
920.7550, 1415.570
921.8800, 1552.237
923.0040, 1648.736
924.1290, 1828.564
925.2530, 2131.647
926.3770, 2256.199
927.5010, 2499.938
928.6250, 2674.639
929.7480, 2871.187
930.8720, 3031.728
931.9950, 3251.738
933.1180, 3442.753
934.2410, 3582.247
935.3640, 3682.068
936.4860, 3696.797
937.6090, 3695.658
938.7310, 3573.138
939.8530, 3450.671
940.9750, 3246.334
942.0970, 3012.278
943.2180, 2755.485
944.3400, 2531.230
945.4610, 2270.046
946.5820, 2000.843
947.7030, 1871.734
948.8240, 1722.490
949.9450, 1622.357
951.0650, 1516.243
952.1860, 1417.881
953.3060, 1358.984
954.4260, 1262.946
955.5460, 1153.921
956.6650, 1099.408
957.7850, 993.4473
958.9040, 963.4526
960.0230, 995.5547
961.1420, 1025.676
962.2610, 943.8262
963.3800, 945.9956
964.4990, 919.6792
965.6170, 926.9043
966.7350, 908.1504
967.8530, 982.4170
968.9710, 1064.050
970.0890, 1022.710
971.2070, 1010.058
972.3240, 1110.426
973.4410, 1157.816
974.5580, 1242.227
975.6750, 1343.658
976.7920, 1455.121
977.9090, 1497.607
979.0250, 1626.132
980.1410, 1905.696
981.2580, 1959.287
982.3740, 2254.920
983.4890, 2472.575
984.6050, 2644.249
985.7200, 3029.944
986.8360, 3563.661
987.9510, 4081.400
989.0660, 4497.162
990.1810, 5240.947
991.2950, 6221.751
992.4100, 7268.601
993.5240, 8555.470
994.6390, 10074.36
995.7530, 12041.28
996.8660, 14368.23
997.9800, 17280.22
999.0940, 20623.22
1000.207, 24670.26
1001.320, 29389.36
1002.433, 34439.45
1003.546, 40146.53
1004.659, 45456.65
1005.772, 50117.79
1006.884, 52902.95
1007.996, 53581.14
1009.108, 51458.35
1010.220, 48215.57
1011.332, 43236.82
1012.444, 38047.09
1013.555, 33473.38
1014.666, 29508.69
1015.777, 26268.02
1016.888, 24164.37
1017.999, 22331.75
1019.110, 20871.13
1020.220, 19804.54
1021.331, 19010.98
1022.441, 17945.44
1023.551, 17185.90
1024.661, 16637.40
1025.770, 16072.91
1026.880, 15525.44
1027.989, 14848.93
1029.098, 14251.57
1030.207, 13416.16
1031.316, 12705.79
1032.425, 11873.45
1033.533, 10895.13
1034.642, 10219.83
1035.750, 9435.570
1036.858, 8736.338
1037.966, 7926.133
1039.073, 7308.949
1040.181, 6580.791
1041.288, 6012.822
1042.396, 5542.715
1043.503, 4976.640
1044.610, 4373.625
1045.716, 3920.894
1046.823, 3539.597
1047.929, 3343.664
1049.036, 2851.770
1050.142, 2669.978
1051.248, 2437.146
1052.353, 2204.411
1053.459, 2028.642
1054.564, 1847.289
1055.670, 1691.697
1056.775, 1598.882
1057.880, 1434.250
1058.985, 1272.822
1060.089, 1152.445
1061.194, 1102.949
1062.298, 1068.648
1063.402, 1004.792
1064.506, 909.5557
1065.610, 823.2578
1066.713, 764.9668
1067.817, 726.5176
1068.920, 646.2393
1070.023, 632.1626
1071.126, 592.9478
1072.229, 438.9077
1073.332, 370.6509
1074.435, 386.5254
1075.537, 473.3789
1076.639, 444.3325
1077.741, 361.9380
1078.843, 379.8228
1079.945, 320.0015
1081.046, 384.1558
1082.148, 336.9199
1083.249, 280.1079
1084.350, 419.3315
1085.451, 490.4512
1086.551, 415.6318
1087.652, 360.3721
1088.752, 235.9136
1089.853, 235.1787
1090.953, 163.1865
1092.053, 186.2031
1093.152, 123.6279
1094.252, 226.0776
1095.351, 151.2842
1096.451, 210.4380
1097.550, 230.7305
1098.649, 153.2866
1099.748, 124.9019
1100.846, 136.4092
1101.945, 107.1924
1103.043, 99.69775
1104.141, 121.0874
1105.239, 167.7344
1106.337, 211.2275
1107.434, 189.6733
1108.532, 94.66504
1109.629, 157.6338
1110.726, 104.1094
1111.823, 132.8662
1112.920, 160.7275
1114.017, 193.0928
1115.113, 153.5664
1116.210, 129.9526
1117.306, 184.5283
1118.402, 160.7617
1119.498, 214.8140
1120.593, 230.6821
1121.689, 178.1567
1122.784, 154.8496
1123.879, 233.3169
1124.974, 183.1323
1126.069, 227.3789
1127.164, 101.3921
1128.259, 80.93604
1129.353, 155.3574
1130.447, 93.18750
1131.541, 110.6436
1132.635, 4.624023
1133.729, 32.09229
1134.822, 63.62598
1135.916, 111.2495
1137.009, 90.69531
1138.102, 110.3662
1139.195, 76.30469
1140.288, 97.71240
1141.380, 94.35986
1142.473, 77.68262
1143.565, 109.9121
1144.657, 109.7656
1145.749, 120.3618
1146.841, 113.7104
1147.932, 125.0122
1149.024, 67.58984
1150.115, 70.79883
1151.206, 89.00342
1152.297, 50.20361
1153.388, 116.6089
1154.479, 87.88232
1155.569, 62.24512
1156.659, 110.4263
1157.750, 134.6025
1158.839, 43.77344
1159.929, 72.93799
1161.019, 69.20312
1162.108, 40.35596
1163.198, 48.20166
1164.287, 49.64307
1165.376, 42.77637
1166.465, 3.902832
1167.553, 34.02148
1168.642, 96.13281
1169.730, 44.23584
1170.818, 63.33154
1171.906, 7.518066
1172.994, 16.55859
1174.082, 51.62646
1175.170, 4.686035
1176.257, 34.26367
1177.344, 41.23633
1178.431, 52.76465
1179.518, 66.75635
1180.605, 7.737793
1181.691, 36.74023
1182.778, 12.69922
1183.864, 37.64648
1184.950, 29.41748
1186.036, 12.49365
1187.122, 66.60791
1188.207, 99.75684
1189.292, 4.029785
1190.378, 37.19775
1191.463, 57.74902
1192.548, 7.474609
1193.632, 56.81445
1194.717, 11.13086
1195.801, 36.94336
1196.886, 47.06201
1197.970, 8.470703
1199.054, 56.09717
1200.137, 15.64941
1201.221, 25.81494
1202.305, 59.31445
1203.388, 22.86621
1204.471, 119.4521
1205.554, 6.124023
1206.637, 48.17725
1207.719, 63.53809
1208.802, 97.71143
1209.884, 15.92139
1210.966, 20.88916
1212.048, 2.263184
1213.130, 33.38965
1214.212, 29.49658
1215.293, 16.41602
1216.374, 32.36621
1217.456, 40.36279
1218.536, 4.410645
1219.617, 44.50977
1220.698, 6.409180
1221.778, 56.71973
1222.859, 29.08984
1223.939, 14.12256
1225.019, 81.62500
1226.099, 39.64746
1227.178, 70.02539
1228.258, 28.67822
1229.337, 27.30762
1230.417, 26.08789
1231.496, 3.468262
1232.574, 35.04102
1233.653, 68.53857
1234.732, 34.01367
1235.810, 51.46533
1236.888, 63.89355
1237.966, 12.69922
1239.044, 26.66406
1240.122, 34.99658
1241.199, 38.82666
1242.277, 8.520020
1243.354, 47.28662
1244.431, 74.84082
1245.508, 97.94629
1246.585, 60.02930
1247.661, 146.0879
1248.738, 33.12646
1249.814, 41.13574
1250.890, 86.11768
1251.966, 54.07666
1253.042, 43.98975
1254.117, 47.87793
1255.193, 161.7183
1256.268, 3.461426
1257.343, 78.31201
1258.418, 40.93848
1259.493, 51.74463
1260.567, 102.4014
1261.642, 60.03369
1262.716, 46.59424
1263.790, 149.1729
1264.864, 73.72998
1265.938, 108.2622
1267.011, 59.77051
1268.085, 57.81982
1269.158, 118.7065
1270.231, 74.13672
1271.304, 139.5415
1272.377, 190.9238
1273.450, 188.2832
1274.522, 164.6206
1275.594, 133.9360
1276.666, 145.2280
1277.738, 85.49707
1278.810, 210.7412
1279.882, 176.9648
1280.953, 217.1670
1282.025, 119.3965
1283.096, 150.5625
1284.167, 128.7051
1285.238, 194.8286
1286.308, 174.9302
1287.379, 180.0088
1288.449, 200.1455
