##NAMES=Enstatite
##RRUFFID=R070418
##IDEAL CHEMISTRY=MgSiO_3_
##LOCALITY=India
##OWNER=RRUFF
##SOURCE=Michael Scott
##DESCRIPTION=Brown translucent fragments
##STATUS=The identification of this mineral has been confirmed by X-ray diffraction and chemical analysis
##URL=rruff.info/R070418
##MEASURED CHEMISTRY=(Mg_0.86_Fe_0.14_)_Î£=1_Si_1.00_O_3_; trace amounts of Al, Ca, Mn
##PIN_ID=L01297
##ORIENTATION=Laser parallel to c* (0 0 1). Fiducial mark perpendicular to laser is parallel to a [1 0 0]
41.80000, 0.0000000E+00
43.05200, 0.2712710
44.30500, 7.496857
45.55700, 1.604919
46.80900, 19.79346
48.06100, 22.87961
49.31300, 30.69382
50.56400, 49.07828
51.81600, 56.60086
53.06700, 67.31580
54.31800, 70.81012
55.56800, 85.24414
56.81900, 100.3372
58.06900, 126.6494
59.31900, 112.9064
60.56900, 133.3012
61.81900, 131.1036
63.06900, 126.8708
64.31800, 144.7779
65.56700, 175.3637
66.81600, 211.6779
68.06500, 241.6716
69.31300, 267.8434
70.56200, 283.5015
71.81000, 269.6490
73.05800, 254.7172
74.30500, 239.0440
75.55300, 223.6224
76.80000, 222.4468
78.04800, 238.5130
79.29500, 205.8176
80.54100, 167.3581
81.78800, 101.1307
83.03400, 103.1303
84.28100, 61.35059
85.52700, 36.78442
86.77200, 17.42325
88.01800, 12.74188
89.26300, 22.71365
90.50900, 19.51450
91.75400, 39.14139
92.99900, 41.61285
94.24300, 36.93958
95.48800, 50.12347
96.73200, 38.73828
97.97600, 58.95020
99.22000, 21.29596
100.4630, 0.5522460
101.7070, 12.51959
102.9500, 84.60675
104.1930, 84.81604
105.4360, 208.1495
106.6790, 417.6094
107.9210, 571.1971
109.1640, 472.9147
110.4060, 328.7632
111.6480, 371.7441
112.8890, 416.8584
114.1310, 509.1074
115.3720, 561.4930
116.6130, 540.0213
117.8540, 535.6957
119.0950, 569.5077
120.3360, 532.4503
121.5760, 598.5157
122.8160, 659.6965
124.0560, 743.9838
125.2960, 768.2926
126.5350, 722.8524
127.7750, 828.4222
129.0140, 898.0690
130.2530, 946.7806
131.4920, 1109.550
132.7300, 1135.378
133.9690, 1238.268
135.2070, 1375.226
136.4450, 1483.247
137.6830, 1817.319
138.9210, 2031.421
140.1580, 2223.510
141.3950, 2520.577
142.6330, 2767.616
143.8690, 3072.639
145.1060, 3240.660
146.3430, 3393.756
147.5790, 3531.951
148.8150, 3428.244
150.0510, 3238.637
151.2870, 3130.130
152.5220, 2825.386
153.7580, 2604.217
154.9930, 2495.249
156.2280, 2308.964
157.4620, 2165.051
158.6970, 2129.005
159.9310, 2030.001
161.1660, 2044.103
162.4000, 1944.308
163.6330, 1946.618
164.8670, 1879.032
166.1000, 1830.550
167.3340, 1831.172
168.5670, 1714.898
169.8000, 1685.729
171.0320, 1656.664
172.2650, 1680.703
173.4970, 1616.844
174.7290, 1705.088
175.9610, 1703.433
177.1930, 1809.880
178.4240, 1948.430
179.6550, 2114.081
180.8870, 2413.835
182.1170, 2658.690
183.3480, 3000.648
184.5790, 3416.709
185.8090, 3917.873
187.0390, 4508.142
188.2690, 5097.560
189.4990, 5446.149
190.7290, 5295.289
191.9580, 4960.439
193.1870, 4402.572
194.4160, 3809.651
195.6450, 3353.732
196.8740, 2949.786
198.1020, 2585.798
199.3310, 2300.776
200.5590, 2124.723
201.7870, 1979.640
203.0140, 1833.498
204.2420, 1655.283
205.4690, 1392.006
206.6960, 1262.719
207.9230, 1082.365
209.1500, 989.0560
210.3760, 960.7170
211.6030, 917.2927
212.8290, 909.7933
214.0550, 974.0764
215.2810, 956.2180
216.5060, 999.2085
217.7320, 1077.080
218.9570, 1218.877
220.1820, 1347.746
221.4070, 1585.707
222.6320, 1955.753
223.8560, 2441.153
225.0800, 3096.161
226.3040, 3772.577
227.5280, 4507.074
228.7520, 5456.546
229.9760, 6630.475
231.1990, 7936.690
232.4220, 9398.345
233.6450, 10688.57
234.8680, 11379.34
236.0910, 10910.72
237.3130, 9821.809
238.5350, 8056.442
239.7570, 6370.179
240.9790, 4628.093
242.2010, 3535.631
243.4220, 2495.666
244.6430, 1762.739
245.8640, 1294.854
247.0850, 985.6274
248.3060, 744.0586
249.5270, 550.0273
250.7470, 514.0718
251.9670, 457.1914
253.1870, 337.3865
254.4070, 255.6560
255.6260, 239.9998
256.8460, 194.4177
258.0650, 236.9094
259.2840, 325.4741
260.5030, 123.1116
261.7220, 79.17847
262.9400, 77.40283
264.1580, 133.5618
265.3760, 116.6621
266.5940, 156.7026
267.8120, 106.6882
269.0290, 106.6135
270.2470, 15.47803
271.4640, 5.274414
272.6810, 2.002197
273.8980, 43.33862
275.1140, 110.7488
276.3310, 232.2275
277.5470, 245.7749
278.7630, 276.3909
279.9790, 423.0757
281.1940, 467.8291
282.4100, 637.6509
283.6250, 719.5408
284.8400, 913.4993
286.0550, 1133.526
287.2700, 1404.684
288.4850, 1748.786
289.6990, 2137.019
290.9130, 2553.323
292.1270, 3090.695
293.3410, 3697.137
294.5540, 4060.648
295.7680, 4333.230
296.9810, 4449.879
298.1940, 4654.597
299.4070, 4442.374
300.6200, 4200.194
301.8320, 4047.048
303.0450, 4115.944
304.2570, 4032.908
305.4690, 4050.938
306.6800, 4381.035
307.8920, 4885.200
309.1030, 5484.431
310.3150, 6242.729
311.5260, 7153.093
312.7360, 8186.524
313.9470, 9410.019
315.1580, 10692.58
316.3680, 11822.21
317.5780, 12637.91
318.7880, 12821.68
319.9980, 12859.53
321.2070, 12710.45
322.4170, 12499.45
323.6260, 12456.54
324.8350, 12727.71
326.0430, 13963.95
327.2520, 15495.28
328.4610, 17703.68
329.6690, 20768.23
330.8770, 24263.06
332.0850, 28481.98
333.2920, 33208.98
334.5000, 38549.33
335.7070, 44071.55
336.9140, 49085.24
338.1210, 53091.91
339.3280, 54883.35
340.5350, 54311.81
341.7410, 51716.76
342.9470, 46839.43
344.1540, 41202.07
345.3590, 35313.36
346.5650, 29925.61
347.7710, 24790.52
348.9760, 20918.01
350.1810, 17681.19
351.3860, 15042.22
352.5910, 13012.63
353.7950, 11701.14
355.0000, 10323.29
356.2040, 9249.163
357.4080, 8554.087
358.6120, 7735.075
359.8150, 7249.121
361.0190, 6877.229
362.2220, 6652.398
363.4250, 6354.630
364.6280, 6341.926
365.8310, 6335.284
367.0340, 6699.706
368.2360, 6943.190
369.4380, 7257.738
370.6400, 7590.348
371.8420, 8157.019
373.0440, 9054.751
374.2450, 9857.546
375.4470, 10184.40
376.6480, 10671.33
377.8490, 11021.31
379.0490, 11428.37
380.2500, 11761.50
381.4500, 11702.71
382.6510, 12152.99
383.8510, 12609.35
385.0500, 13454.78
386.2500, 14731.30
387.4500, 16093.89
388.6490, 18109.56
389.8480, 20273.30
391.0470, 22966.13
392.2460, 25635.02
393.4440, 28310.97
394.6430, 30750.97
395.8410, 33071.04
397.0390, 34608.16
398.2370, 35474.34
399.4340, 35302.57
400.6320, 34486.84
401.8290, 33327.18
403.0260, 31704.57
404.2230, 29984.03
405.4200, 28028.53
406.6170, 25926.84
407.8130, 24242.24
409.0090, 22484.20
410.2050, 20610.72
411.4010, 19225.08
412.5970, 17718.97
413.7920, 16138.92
414.9880, 14868.68
416.1830, 13382.59
417.3780, 12189.56
418.5730, 11174.63
419.7670, 10034.76
420.9620, 9050.933
422.1560, 7932.157
423.3500, 7000.431
424.5440, 6044.752
425.7380, 5235.657
426.9310, 4392.544
428.1240, 3869.011
429.3180, 3280.526
430.5110, 2853.088
431.7030, 2694.696
432.8960, 2462.352
434.0890, 2185.053
435.2810, 2105.801
436.4730, 1967.593
437.6650, 1904.430
438.8570, 1691.313
440.0480, 1534.239
441.2390, 1344.209
442.4310, 1085.224
443.6220, 907.2808
444.8120, 734.3809
446.0030, 577.5237
447.1940, 448.7087
448.3840, 401.9363
449.5740, 411.2053
450.7640, 353.5161
451.9540, 357.8677
453.1430, 335.2598
454.3330, 409.6921
455.5220, 344.1643
456.7110, 355.6763
457.9000, 262.2271
459.0890, 198.2224
460.2770, 197.3499
461.4650, 105.9172
462.6540, 44.38184
463.8420, 68.74854
465.0290, 16.29810
466.2170, 98.24902
467.4050, 18.77490
468.5920, 45.01709
469.7790, 97.01074
470.9660, 29.73291
472.1530, 5.836182
473.3390, 52.85083
474.5250, 93.87451
475.7120, 50.24780
476.8980, 115.8967
478.0840, 90.59204
479.2690, 155.2336
480.4550, 95.44531
481.6400, 68.95508
482.8250, 86.88525
484.0100, 94.97705
485.1950, 126.0828
486.3800, 65.21411
487.5640, 76.34619
488.7480, 93.48389
489.9320, 104.6370
491.1160, 94.79077
492.3000, 86.94141
493.4840, 82.09644
494.6670, 48.24341
495.8500, 27.78491
497.0330, 4.525635
498.2160, 26.45923
499.3990, 101.4463
500.5810, 110.4951
501.7630, 97.58911
502.9460, 159.7344
504.1280, 330.9375
505.3090, 371.2041
506.4910, 596.5144
507.6720, 804.8867
508.8540, 997.3115
510.0350, 1289.784
511.2160, 1608.320
512.3960, 2123.901
513.5770, 2787.524
514.7570, 3418.191
515.9380, 4223.909
517.1180, 4999.677
518.2970, 5977.496
519.4770, 6842.358
520.6570, 7845.269
521.8360, 8705.215
523.0150, 9280.189
524.1940, 9469.203
525.3730, 9126.229
526.5510, 8637.277
527.7300, 7957.345
528.9080, 7246.423
530.0860, 7015.516
531.2640, 6612.619
532.4420, 6693.731
533.6200, 7036.853
534.7970, 7465.991
535.9740, 7984.137
537.1510, 8248.292
538.3280, 8051.454
539.5050, 7597.623
540.6810, 7625.799
541.8580, 6846.979
543.0340, 6462.166
544.2100, 6409.357
545.3860, 6499.554
546.5610, 6733.756
547.7370, 6978.959
548.9120, 6965.174
550.0870, 6424.398
551.2620, 5893.638
552.4370, 5064.890
553.6120, 4289.161
554.7860, 3648.441
555.9600, 2891.731
557.1340, 2400.024
558.3080, 2135.318
559.4820, 1783.612
560.6560, 1654.905
561.8290, 1499.197
563.0020, 1355.488
564.1750, 1236.777
565.3480, 1246.063
566.5210, 1215.348
567.6930, 1211.628
568.8660, 1143.906
570.0380, 1170.180
571.2100, 1154.450
572.3820, 1273.714
573.5530, 1345.974
574.7250, 1246.228
575.8960, 1292.477
577.0670, 1087.719
578.2380, 1084.955
579.4090, 926.1841
580.5800, 814.4053
581.7500, 732.6194
582.9210, 639.8250
584.0910, 588.0225
585.2610, 520.2114
586.4300, 447.3909
587.6000, 422.5608
588.7690, 433.7212
589.9390, 340.8708
591.1080, 307.0103
592.2770, 328.1384
593.4450, 273.2556
594.6140, 213.3608
595.7820, 168.4543
596.9500, 136.5354
598.1190, 141.6033
599.2860, 61.65820
600.4540, 97.68555
601.6220, 81.69336
602.7890, 28.67749
603.9560, 59.62134
605.1230, 3.465820
606.2900, 34.60913
607.4570, 34.17505
608.6230, 42.91797
609.7890, 6.622803
610.9560, 4.726563
612.1220, 10.13574
613.2870, 4.340332
614.4530, 9.540771
615.6180, 13.69385
616.7840, 17.20361
617.9490, 38.54883
619.1140, 63.47778
620.2790, 42.95874
621.4430, 86.58350
622.6080, 109.6301
623.7720, 140.6895
624.9360, 187.7944
626.1000, 241.7881
627.2640, 300.6721
628.4270, 269.9414
629.5910, 364.0374
630.7540, 368.0942
631.9170, 466.5881
633.0800, 519.0161
634.2430, 648.1890
635.4050, 689.2341
636.5680, 873.0303
637.7300, 1017.818
638.8920, 1109.741
640.0540, 1364.643
641.2150, 1519.751
642.3770, 1772.215
643.5380, 2107.540
644.7000, 2477.102
645.8610, 2973.065
647.0210, 3520.534
648.1820, 4119.734
649.3430, 5004.984
650.5030, 6022.808
651.6630, 7293.612
652.8230, 8723.538
653.9830, 10689.10
655.1430, 12582.17
656.3020, 14831.56
657.4620, 17032.19
658.6210, 19318.72
659.7800, 20631.71
660.9390, 21429.64
662.0970, 21525.97
663.2560, 19891.71
664.4140, 18380.18
665.5720, 16374.44
666.7300, 14617.92
667.8880, 13056.28
669.0460, 12211.66
670.2030, 11688.84
671.3600, 11601.09
672.5180, 11992.20
673.6740, 12649.54
674.8310, 13882.58
675.9880, 15184.62
677.1440, 17079.60
678.3010, 18843.55
679.4570, 20533.45
680.6130, 22029.33
681.7690, 22816.17
682.9240, 22229.97
684.0800, 21282.74
685.2350, 19302.48
686.3900, 16866.17
687.5450, 14352.84
688.7000, 12009.47
689.8540, 9953.067
691.0090, 8063.629
692.1630, 6562.155
693.3170, 5498.645
694.4710, 4701.099
695.6250, 3942.518
696.7780, 3347.902
697.9320, 2936.250
699.0850, 2602.562
700.2380, 2284.840
701.3910, 2019.525
702.5440, 1837.286
703.6970, 1619.456
704.8490, 1456.591
706.0010, 1367.690
707.1530, 1226.753
708.3050, 1156.781
709.4570, 1124.773
710.6090, 988.7296
711.7600, 926.6509
712.9110, 900.5364
714.0620, 830.3864
715.2130, 816.2014
716.3640, 714.9807
717.5150, 636.7246
718.6650, 649.4332
719.8150, 550.1066
720.9650, 532.7449
722.1150, 539.3479
723.2650, 511.9163
724.4150, 509.3022
725.5640, 531.9473
726.7130, 506.4105
727.8630, 463.8389
729.0110, 489.2328
730.1600, 475.5918
731.3090, 492.9166
732.4570, 467.2067
733.6060, 428.4624
734.7540, 400.6841
735.9020, 370.8713
737.0490, 361.0247
738.1970, 387.7380
739.3440, 370.3245
740.4920, 374.4744
741.6390, 326.7318
742.7860, 347.0906
743.9320, 361.5177
745.0790, 344.0509
746.2250, 391.2598
747.3720, 335.7556
748.5180, 353.5020
749.6640, 422.5222
750.8100, 362.1637
751.9550, 301.5955
753.1010, 238.3541
754.2460, 289.4437
755.3910, 205.7988
756.5360, 209.1753
757.6810, 205.4790
758.8250, 176.3181
759.9700, 79.43384
761.1140, 119.9512
762.2580, 63.60913
763.4020, 39.25439
764.5460, 43.88892
765.6900, 42.50146
766.8330, 51.09448
767.9760, 40.32544
769.1200, 40.79614
770.2620, 3.319336
771.4050, 44.87622
772.5480, 17.48877
773.6900, 63.14917
774.8330, 9.885010
775.9750, 71.67383
777.1170, 104.5500
778.2590, 45.53052
779.4000, 68.58350
780.5420, 99.72021
781.6830, 120.9561
782.8240, 49.30151
783.9650, 122.7183
785.1060, 88.24390
786.2470, 74.85913
787.3870, 133.5562
788.5280, 71.36499
789.6680, 59.25195
790.8080, 71.20898
791.9480, 97.24219
793.0870, 104.3638
794.2270, 110.1429
795.3660, 78.88135
796.5060, 104.2620
797.6450, 57.72974
798.7830, 34.25928
799.9220, 74.83691
801.0610, 25.51733
802.1990, 24.14868
803.3370, 13.85376
804.4750, 16.40894
805.6130, 6.653076
806.7510, 33.87744
807.8890, 8.084961
809.0260, 31.27490
810.1630, 25.55103
811.3000, 62.59277
812.4370, 6.721924
813.5740, 39.83569
814.7110, 30.93555
815.8470, 47.02222
816.9830, 58.09570
818.1190, 52.56152
819.2550, 30.20532
820.3910, 50.24268
821.5270, 18.26855
822.6620, 17.28369
823.7970, 38.28833
824.9330, 53.28296
826.0670, 74.26807
827.2020, 92.05688
828.3370, 85.21094
829.4710, 113.1699
830.6060, 129.1208
831.7400, 106.0642
832.8740, 176.0005
834.0080, 158.2197
835.1410, 161.8535
836.2750, 175.7710
837.4080, 167.6833
838.5410, 194.5906
839.6740, 214.4932
840.8070, 247.3916
841.9400, 333.2864
843.0730, 412.1777
844.2050, 451.0662
845.3370, 535.9517
846.4690, 603.8357
847.6010, 756.7178
848.7330, 917.5991
849.8640, 1167.479
850.9960, 1378.359
852.1270, 1644.239
853.2580, 1972.119
854.3890, 2224.000
855.5200, 2463.882
856.6500, 2615.766
857.7810, 2768.651
858.9110, 2788.540
860.0410, 2731.430
861.1710, 2644.325
862.3010, 2454.222
863.4310, 2242.123
864.5600, 2014.029
865.6900, 1868.939
866.8190, 1576.854
867.9480, 1368.775
869.0770, 1212.702
870.2050, 1060.635
871.3340, 945.5745
872.4620, 825.5210
873.5900, 710.4751
874.7180, 602.4438
875.8460, 551.4233
876.9740, 501.4163
878.1010, 449.4309
879.2290, 408.0361
880.3560, 397.5259
881.4830, 342.6274
882.6100, 345.7520
883.7370, 350.8979
884.8630, 289.0737
885.9900, 322.2830
887.1160, 358.5269
888.2420, 396.8027
889.3680, 413.1113
890.4940, 385.4497
891.6200, 406.8250
892.7450, 447.2241
893.8700, 420.6436
894.9960, 509.0850
896.1210, 412.0457
897.2460, 468.4365
898.3700, 491.1914
899.4950, 479.3887
900.6190, 488.7805
901.7430, 540.1912
902.8670, 496.8784
903.9910, 555.9900
905.1150, 576.1460
906.2390, 577.7295
907.3620, 682.7815
908.4850, 748.6299
909.6080, 802.6921
910.7310, 931.1785
911.8540, 1011.870
912.9770, 1213.584
914.0990, 1403.093
915.2210, 1646.246
916.3440, 1892.539
917.4660, 2359.598
918.5870, 2750.254
919.7090, 3320.407
920.8310, 4000.830
921.9520, 4853.202
923.0730, 5626.012
924.1940, 6428.846
925.3150, 6957.560
926.4360, 7451.281
927.5560, 7823.312
928.6770, 8035.540
929.7970, 8230.603
930.9170, 8220.776
932.0370, 8214.508
933.1570, 8161.310
934.2760, 8140.731
935.3960, 8237.758
936.5150, 8169.056
937.6340, 8088.585
938.7530, 7855.929
939.8720, 7538.404
940.9910, 6883.883
942.1090, 6532.575
943.2280, 5992.225
944.3460, 5458.029
945.4640, 4898.621
946.5820, 4472.529
947.6990, 4051.457
948.8170, 3616.457
949.9340, 3242.516
951.0520, 2878.621
952.1690, 2532.791
953.2860, 2298.016
954.4030, 2163.300
955.5190, 1943.637
956.6360, 1774.027
957.7520, 1714.470
958.8680, 1574.966
959.9840, 1394.513
961.1000, 1450.105
962.2160, 1367.748
963.3310, 1339.448
964.4470, 1240.191
965.5620, 1133.987
966.6770, 1075.841
967.7920, 1049.759
968.9060, 1005.729
970.0210, 1108.753
971.1360, 1035.822
972.2500, 1196.937
973.3640, 1212.100
974.4780, 1193.309
975.5920, 1274.563
976.7050, 1344.727
977.8190, 1496.234
978.9320, 1602.649
980.0450, 1770.130
981.1580, 1997.660
982.2710, 2090.242
983.3840, 2464.876
984.4970, 2714.557
985.6090, 3105.290
986.7210, 3512.069
987.8330, 3932.892
988.9450, 4556.757
990.0570, 5221.675
991.1690, 6142.635
992.2800, 7151.639
993.3920, 8389.693
994.5030, 9782.789
995.6140, 11517.94
996.7250, 13414.13
997.8350, 15557.36
998.9460, 17992.64
1000.056, 21018.97
1001.167, 24177.34
1002.277, 27681.76
1003.387, 31522.22
1004.496, 35443.72
1005.606, 39145.28
1006.715, 42532.87
1007.825, 45240.51
1008.934, 45966.19
1010.043, 46228.91
1011.152, 45821.68
1012.260, 44905.49
1013.369, 44781.43
1014.477, 44254.32
1015.586, 44284.28
1016.694, 45015.26
1017.802, 45316.28
1018.909, 45992.35
1020.017, 46713.46
1021.124, 47235.62
1022.232, 47521.22
1023.339, 47621.46
1024.446, 47176.73
1025.553, 47259.06
1026.659, 47426.43
1027.766, 46519.82
1028.872, 45345.50
1029.979, 43782.00
1031.085, 41434.56
1032.191, 39291.13
1033.296, 36256.75
1034.402, 33421.41
1035.507, 30603.12
1036.613, 27815.87
1037.718, 25341.69
1038.823, 22707.58
1039.928, 20487.52
1041.032, 18375.52
1042.137, 16515.59
1043.241, 14705.71
1044.346, 13027.90
1045.450, 11696.15
1046.554, 10374.62
1047.657, 9447.018
1048.761, 8537.490
1049.864, 7780.032
1050.968, 7112.654
1052.071, 6482.338
1053.174, 5899.104
1054.277, 5360.940
1055.379, 4852.333
1056.482, 4368.343
1057.584, 3880.394
1058.687, 3459.773
1059.789, 2997.594
1060.891, 2833.553
1061.992, 2397.215
1063.094, 2325.158
1064.196, 1967.979
1065.297, 1809.322
1066.398, 1612.809
1067.499, 1482.347
1068.600, 1353.197
1069.701, 1237.292
1070.801, 1150.262
1071.902, 1058.376
1073.002, 979.4907
1074.102, 903.0881
1075.202, 797.6914
1076.302, 703.2971
1077.402, 601.9536
1078.501, 714.4434
1079.600, 558.6721
1080.700, 587.9829
1081.799, 517.8447
1082.898, 451.3853
1083.996, 388.5786
1085.095, 359.1467
1086.193, 425.9822
1087.292, 337.2002
1088.390, 361.4963
1089.488, 265.7456
1090.586, 283.6370
1091.683, 299.5488
1092.781, 249.7856
1093.878, 274.4282
1094.975, 259.8525
1096.073, 266.4836
1097.169, 263.8315
1098.266, 170.9612
1099.363, 241.6277
1100.459, 199.8164
1101.556, 220.9143
1102.652, 300.2346
1103.748, 187.9170
1104.844, 177.4490
1105.940, 219.2759
1107.035, 217.5950
1108.131, 210.6260
1109.226, 228.2532
1110.321, 205.3196
1111.416, 171.1736
1112.511, 192.5264
1113.605, 225.2190
1114.700, 161.3306
1115.794, 151.8740
1116.889, 192.5884
1117.983, 204.2634
1119.077, 214.2668
1120.170, 180.2974
1121.264, 205.1982
1122.357, 196.2354
1123.451, 217.7773
1124.544, 199.0198
1125.637, 192.2168
1126.730, 192.8765
1127.823, 144.6099
1128.915, 192.7322
1130.008, 141.1643
1131.100, 146.7029
1132.192, 147.4805
1133.284, 145.4883
1134.376, 137.4697
1135.467, 142.6616
1136.559, 139.5327
1137.650, 150.4800
1138.742, 90.98950
1139.833, 134.9272
1140.924, 126.1072
1142.014, 36.05518
1143.105, 46.25342
1144.195, 9.560547
1145.286, 8.653564
1146.376, 72.73438
1147.466, 60.72241
1148.556, 39.74292
1149.646, 54.83716
1150.735, 38.05200
1151.825, 50.96460
1152.914, 29.93042
1154.003, 2.978027
1155.092, 14.91797
1156.181, 44.97583
1157.270, 72.88208
1158.358, 69.78687
1159.447, 18.30981
1160.535, 1.588623
1161.623, 2.515625
1162.711, 33.37671
1163.799, 61.36963
1164.886, 50.34863
1165.974, 39.23071
1167.061, 8.108643
1168.148, 26.98193
1169.235, 20.85034
1170.322, 64.71338
1171.409, 75.57031
1172.496, 51.42139
1173.582, 31.26562
1174.669, 37.10254
1175.755, 18.98608
1176.841, 8.246338
1177.927, 11.56445
1179.012, 2.366455
1180.098, 12.15845
1181.183, 28.94043
1182.269, 16.71216
1183.354, 46.47290
1184.439, 18.22217
1185.524, 42.97363
1186.608, 31.26343
1187.693, 26.57422
1188.777, 68.75244
1189.862, 19.10864
1190.946, 56.42944
1192.030, 31.86255
1193.113, 82.32471
1194.197, 45.84375
1195.281, 51.40186
1196.364, 18.00330
1197.447, 33.63171
1198.530, 40.29651
1199.613, 71.00220
1200.696, 75.76660
1201.779, 49.59290
1202.861, 63.46851
1203.944, 21.33875
1205.026, 51.30908
1206.108, 65.30688
1207.190, 16.39246
1208.271, 59.51489
1209.353, 37.54175
1210.435, 12.27283
1211.516, 59.86304
1212.597, 5.153809
1213.678, 77.51294
1214.759, 33.94739
1215.840, 52.43481
1216.920, 24.98596
1218.001, 24.58728
1219.081, 22.20984
1220.161, 14.91260
1221.241, 13.66248
1222.321, 16.53979
1223.401, 6.291016
1224.480, 33.16724
1225.560, 42.89636
1226.639, 13.06726
1227.718, 24.08215
1228.797, 47.15479
1229.876, 6.298218
1230.955, 3.491577
1232.033, 33.26587
