##NAMES=Enstatite
##RRUFFID=R060630
##IDEAL CHEMISTRY=MgSiO_3_
##LOCALITY=unknown
##OWNER=RRUFF
##SOURCE=Gemological Institute of America
##DESCRIPTION=Tan colored fragment
##STATUS=The identification of this mineral has been confirmed by X-ray diffraction and chemical analysis
##URL=rruff.info/R060630
##MEASURED CHEMISTRY=(Mg_0.89_Fe_0.07_Al_0.04_)_Σ=1_(Si_0.96_Al_0.04_)_Σ=1_O_3_
##PIN_ID=L00984
##ORIENTATION=Laser parallel to a* (1 0 0). Fiducial mark perpendicular to laser is parallel to -b [0 -1 0]
118.1340, 0.0000000E+00
119.3650, 263.5439
120.5960, 6.194336
121.8270, 93.24121
123.0580, 299.9199
124.2880, 283.6123
125.5190, 10.91895
126.7490, 66.58105
127.9790, 127.8115
129.2090, 374.8633
130.4390, 837.7168
131.6680, 1249.067
132.8980, 1765.532
134.1270, 2435.615
135.3560, 3058.920
136.5850, 3634.166
137.8140, 4638.790
139.0430, 5721.951
140.2710, 6270.123
141.5000, 6247.887
142.7280, 5902.930
143.9560, 5515.008
145.1840, 4938.943
146.4120, 4447.592
147.6390, 3916.845
148.8670, 3591.615
150.0940, 3448.836
151.3210, 3426.449
152.5490, 3161.415
153.7750, 2890.695
155.0020, 2659.548
156.2290, 2536.435
157.4550, 1778.491
158.6810, 1689.973
159.9080, 1493.742
161.1340, 1501.874
162.3590, 1457.441
163.5850, 1347.508
164.8110, 1572.130
166.0360, 1306.361
167.2610, 1331.246
168.4860, 1542.822
169.7110, 1744.129
170.9360, 1422.195
172.1610, 1151.057
173.3850, 1058.734
174.6100, 700.2578
175.8340, 373.6465
177.0580, 402.9141
178.2820, 376.0801
179.5050, 264.1602
180.7290, 57.16992
181.9520, 98.12109
183.1760, 218.0195
184.3990, 279.8828
185.6220, 448.8984
186.8450, 782.5352
188.0670, 851.3398
189.2900, 1092.145
190.5120, 1397.584
191.7340, 2041.523
192.9560, 2170.248
194.1780, 2653.781
195.4000, 3101.188
196.6220, 3219.840
197.8430, 3270.324
199.0640, 3541.701
200.2860, 3598.240
201.5070, 3534.947
202.7270, 3414.824
203.9480, 3303.867
205.1690, 2870.074
206.3890, 2724.447
207.6090, 2336.984
208.8290, 2373.680
210.0490, 2035.535
211.2690, 1809.547
212.4890, 1757.709
213.7080, 1697.018
214.9280, 1516.473
216.1470, 1478.064
217.3660, 1475.793
218.5850, 1728.658
219.8030, 1720.660
221.0220, 2075.797
222.2400, 2188.070
223.4590, 2537.482
224.6770, 3102.033
225.8950, 3745.717
227.1120, 4504.539
228.3300, 5529.492
229.5480, 6851.588
230.7650, 8172.783
231.9820, 9900.074
233.1990, 11699.46
234.4160, 13583.94
235.6330, 14581.52
236.8490, 14827.20
238.0660, 14544.02
239.2820, 13029.93
240.4980, 11692.93
241.7140, 10176.03
242.9300, 8321.223
244.1460, 6610.512
245.3610, 5350.896
246.5770, 4288.375
247.7920, 3119.951
249.0070, 2390.621
250.2220, 1964.389
251.4370, 1306.246
252.6510, 827.2031
253.8660, 563.2559
255.0800, 394.4004
256.2940, 538.6406
257.5080, 633.9746
258.7220, 566.9648
259.9360, 385.4570
261.1490, 491.5430
262.3630, 72.74609
263.5760, 286.9590
264.7890, 236.8594
266.0020, 437.9258
267.2150, 395.9629
268.4270, 296.2402
269.6400, 347.1309
270.8520, 499.7578
272.0640, 348.2793
273.2760, 323.1250
274.4880, 123.6016
275.7000, 59.48633
276.9120, 52.18750
278.1230, 93.27930
279.3340, 36.91406
280.5450, 121.7070
281.7560, 208.6465
282.9670, 185.7207
284.1780, 360.9258
285.3880, 508.2422
286.5980, 623.6641
287.8090, 835.1836
289.0190, 966.7969
290.2290, 1108.447
291.4380, 1398.285
292.6480, 1405.150
293.8570, 1667.096
295.0670, 1882.115
296.2760, 1986.209
297.4850, 2021.373
298.6930, 2221.611
299.9020, 2191.916
301.1110, 1981.283
302.3190, 1976.691
303.5270, 1894.121
304.7350, 1659.568
305.9430, 1893.037
307.1510, 1841.535
308.3580, 1757.059
309.5660, 2109.613
310.7730, 2117.203
311.9800, 2184.832
313.1870, 2354.498
314.3940, 2622.215
315.6010, 2580.990
316.8070, 2911.807
318.0130, 3082.691
319.2200, 3291.664
320.4260, 3493.725
321.6310, 3728.131
322.8370, 4022.262
324.0430, 4311.709
325.2480, 4660.227
326.4540, 5148.865
327.6590, 5345.584
328.8640, 6215.363
330.0680, 6632.215
331.2730, 7128.131
332.4780, 8121.137
333.6820, 9000.215
334.8860, 9960.348
336.0900, 10914.49
337.2940, 12310.44
338.4980, 13487.84
339.7010, 14938.23
340.9050, 16517.86
342.1080, 19143.26
343.3110, 19777.22
344.5140, 21384.26
345.7170, 22883.37
346.9200, 23535.56
348.1220, 23813.82
349.3240, 23893.14
350.5270, 23772.54
351.7290, 23105.04
352.9310, 22125.59
354.1320, 20726.62
355.3340, 19551.83
356.5350, 18108.73
357.7370, 17208.55
358.9380, 15947.43
360.1390, 14601.38
361.3400, 13541.39
362.5400, 12876.48
363.7410, 11744.62
364.9410, 11093.84
366.1410, 10362.12
367.3410, 9654.457
368.5410, 8836.871
369.7410, 8290.342
370.9400, 7931.879
372.1400, 7794.480
373.3390, 7731.146
374.5380, 7657.877
375.7370, 7549.178
376.9360, 7489.523
378.1350, 7373.443
379.3330, 7376.426
380.5310, 7320.469
381.7300, 7338.580
382.9280, 7574.752
384.1260, 7533.984
385.3230, 7511.281
386.5210, 7434.641
387.7180, 7427.613
388.9160, 7292.547
390.1130, 7348.092
391.3100, 7334.699
392.5060, 7528.438
393.7030, 7705.098
394.9000, 8028.891
396.0960, 8308.742
397.2920, 8565.658
398.4880, 9061.637
399.6840, 9291.672
400.8800, 9658.770
402.0750, 9474.303
403.2710, 9624.141
404.4660, 9023.414
405.6610, 8941.748
406.8560, 8939.846
408.0510, 8622.924
409.2450, 8827.828
410.4400, 9020.496
411.6340, 9091.771
412.8280, 9415.682
414.0220, 10021.17
415.2160, 9968.703
416.4100, 10174.20
417.6030, 10408.15
418.7970, 10020.71
419.9900, 9776.389
421.1830, 9175.477
422.3760, 8639.766
423.5690, 7546.221
424.7610, 6524.521
425.9540, 5168.023
427.1460, 4200.572
428.3380, 3306.184
429.5300, 2633.854
430.7220, 2061.588
431.9140, 1707.383
433.1050, 1511.240
434.2970, 1339.156
435.4880, 1245.135
436.6790, 1361.172
437.8700, 1447.271
439.0610, 1963.428
440.2510, 2325.646
441.4420, 2586.920
442.6320, 2891.254
443.8220, 3075.643
445.0120, 3189.092
446.2020, 3246.602
447.3910, 3030.166
448.5810, 2785.791
449.7700, 2345.473
450.9600, 2055.211
452.1490, 1801.008
453.3370, 1372.859
454.5260, 1280.211
455.7150, 934.1758
456.9030, 880.5898
458.0910, 795.2461
459.2800, 617.3828
460.4670, 605.6602
461.6550, 471.4590
462.8430, 475.9219
464.0300, 459.8809
465.2180, 433.2988
466.4050, 460.5254
467.5920, 268.1738
468.7790, 162.2266
469.9650, 337.3535
471.1520, 178.8730
472.3380, 15.37500
473.5250, 200.5820
474.7110, 62.97266
475.8970, 269.4395
477.0820, 197.8574
478.2680, 104.7793
479.4540, 100.7422
480.6390, 64.03711
481.8240, 397.9961
483.0090, 186.0801
484.1940, 390.2109
485.3780, 133.3906
486.5630, 235.6191
487.7470, 323.8965
488.9320, 218.2207
490.1160, 110.5957
491.3000, 92.01758
492.4830, 146.4844
493.6670, 5.998047
494.8500, 11.56250
496.0340, 78.82812
497.2170, 24.19727
498.4000, 5.919922
499.5820, 93.21680
500.7650, 66.99609
501.9480, 77.82031
503.1300, 36.69141
504.3120, 462.6230
505.4940, 301.6484
506.6760, 596.7988
507.8580, 571.0410
509.0390, 936.3613
510.2210, 1266.738
511.4020, 1371.201
512.5830, 1762.730
513.7640, 2134.338
514.9450, 2206.008
516.1250, 2481.787
517.3060, 2594.660
518.4860, 2824.631
519.6660, 2857.688
520.8460, 2849.814
522.0260, 3010.059
523.2060, 2726.395
524.3850, 2742.840
525.5650, 2895.359
526.7440, 2649.949
527.9230, 2516.576
529.1020, 2504.266
530.2810, 2501.033
531.4590, 2723.885
532.6380, 3119.809
533.8160, 2872.816
534.9940, 2976.877
536.1720, 3010.023
537.3500, 2958.230
538.5270, 2810.471
539.7050, 2519.744
540.8820, 2421.070
542.0590, 2099.428
543.2360, 2224.818
544.4130, 1893.236
545.5900, 2007.689
546.7660, 2068.170
547.9430, 1958.678
549.1190, 2060.238
550.2950, 1850.895
551.4710, 1760.631
552.6470, 1580.502
553.8220, 1421.492
554.9980, 1294.576
556.1730, 1166.857
557.3480, 1055.494
558.5230, 999.5449
559.6980, 845.0840
560.8730, 847.6758
562.0470, 724.3066
563.2220, 726.9785
564.3960, 885.6719
565.5700, 648.3867
566.7440, 879.1211
567.9170, 1001.877
569.0910, 1246.650
570.2640, 1496.445
571.4380, 1892.260
572.6110, 1934.092
573.7840, 2195.943
574.9570, 2469.807
576.1290, 2280.691
577.3020, 2391.590
578.4740, 2314.508
579.6460, 2054.439
580.8180, 1977.385
581.9900, 1537.348
583.1620, 1329.322
584.3330, 1245.311
585.5040, 844.3125
586.6760, 790.3262
587.8470, 568.3535
589.0180, 507.3906
590.1880, 204.4395
591.3590, 372.5000
592.5290, 308.5703
593.7000, 57.65039
594.8700, 21.74219
596.0400, 82.83203
597.2090, 16.06836
598.3790, 54.98633
599.5490, 56.05664
600.7180, 61.89062
601.8870, 138.8848
603.0560, 147.9570
604.2250, 373.1191
605.3940, 279.4766
606.5620, 239.9902
607.7300, 56.63477
608.8990, 250.3262
610.0670, 96.16016
611.2350, 5.939453
612.4020, 64.97852
613.5700, 21.95117
614.7370, 110.9551
615.9050, 42.03516
617.0720, 15.83789
618.2390, 111.6953
619.4060, 183.5527
620.5720, 60.41211
621.7390, 235.4805
622.9050, 177.3340
624.0710, 339.1875
625.2370, 457.3809
626.4030, 678.8945
627.5690, 758.7461
628.7340, 959.5938
629.9000, 1145.439
631.0650, 1486.283
632.2300, 1628.125
633.3950, 1894.963
634.5600, 2393.629
635.7240, 2500.453
636.8890, 2760.703
638.0530, 3093.621
639.2170, 3125.283
640.3810, 3369.020
641.5450, 3719.824
642.7080, 3953.623
643.8720, 3978.906
645.0350, 4307.291
646.1980, 4869.467
647.3610, 5568.881
648.5240, 6409.055
649.6870, 7435.201
650.8490, 8360.000
652.0120, 9622.873
653.1740, 10872.79
654.3360, 12039.55
655.4980, 13448.39
656.6600, 14825.27
657.8210, 16232.50
658.9830, 17090.66
660.1440, 17710.42
661.3050, 17626.40
662.4660, 17623.06
663.6270, 16944.00
664.7870, 16150.16
665.9480, 15369.95
667.1080, 14554.47
668.2680, 13858.86
669.4280, 13812.79
670.5880, 13431.19
671.7480, 13952.41
672.9070, 14180.45
674.0670, 15058.72
675.2260, 16713.01
676.3850, 18286.75
677.5440, 20466.58
678.7030, 23247.77
679.8610, 26143.38
681.0200, 29491.50
682.1780, 33002.58
683.3360, 35844.63
684.4940, 37641.30
685.6520, 38380.29
686.8090, 38366.23
687.9670, 37051.15
689.1240, 34525.03
690.2810, 31928.88
691.4380, 29322.70
692.5950, 25266.47
693.7520, 21380.21
694.9080, 18083.91
696.0650, 15616.58
697.2210, 13487.20
698.3770, 11533.79
699.5330, 10016.70
700.6880, 8622.844
701.8440, 7767.316
702.9990, 6858.742
704.1550, 6351.131
705.3100, 5831.480
706.4650, 5210.789
707.6190, 4845.445
708.7740, 4437.281
709.9290, 4126.469
711.0830, 3643.613
712.2370, 3394.717
713.3910, 3350.781
714.5450, 3011.400
715.6980, 3134.781
716.8520, 2750.723
718.0050, 2349.617
719.1580, 2487.475
720.3110, 2206.289
721.4640, 2183.061
722.6170, 2176.791
723.7700, 2106.479
724.9220, 1870.125
726.0740, 1857.730
727.2260, 1845.293
728.3780, 1764.814
729.5300, 2018.291
730.6810, 1796.729
731.8330, 1775.121
732.9840, 1851.473
734.1350, 1598.344
735.2860, 1885.611
736.4370, 1555.443
737.5880, 1614.047
738.7380, 1590.188
739.8880, 1556.199
741.0390, 1786.705
742.1890, 1573.561
743.3380, 1716.936
744.4880, 1558.855
745.6380, 1813.990
746.7870, 2156.709
747.9360, 2062.039
749.0850, 2393.307
750.2340, 2687.195
751.3830, 2684.109
752.5310, 2635.332
753.6800, 2553.387
754.8280, 2328.375
755.9760, 1876.422
757.1240, 1497.979
758.2720, 1316.504
759.4190, 1099.785
760.5670, 1065.256
761.7140, 907.6953
762.8610, 881.1016
764.0080, 565.4766
765.1550, 609.8203
766.3020, 376.1328
767.4480, 328.4160
768.5950, 452.6660
769.7410, 406.8867
770.8870, 305.0762
772.0330, 98.23633
773.1780, 238.3555
774.3240, 96.44336
775.4690, 33.32031
776.6140, 575.5156
777.7590, 49.49805
778.9040, 208.4277
780.0490, 603.3301
781.1940, 11.20312
782.3380, 118.9922
783.4820, 228.3164
784.6260, 105.8320
785.7700, 71.47461
786.9140, 25.77734
788.0580, 100.0234
789.2010, 22.94531
790.3450, 72.94336
791.4880, 8.044922
792.6310, 202.2168
793.7730, 140.5566
794.9160, 148.0352
796.0590, 116.6523
797.2010, 64.39062
798.3430, 229.2227
799.4850, 146.2344
800.6270, 232.3789
801.7690, 78.70508
802.9100, 59.12695
804.0520, 34.36719
805.1930, 41.17578
806.3340, 115.7891
807.4750, 141.5176
808.6160, 93.36719
809.7560, 156.5254
810.8970, 19.38867
812.0370, 165.5156
813.1770, 63.77539
814.3170, 26.89258
815.4570, 98.53125
816.5960, 53.84766
817.7360, 102.7070
818.8750, 999.2422
820.0140, 212.7578
821.1530, 5.257813
822.2920, 565.7266
823.4310, 72.17773
824.5690, 304.6133
825.7070, 239.0332
826.8460, 464.4336
827.9840, 563.8203
829.1220, 507.1914
830.2590, 524.5508
831.3970, 544.8906
832.5340, 831.2168
833.6710, 970.5293
834.8080, 1087.828
835.9450, 1207.113
837.0820, 1485.389
838.2190, 1586.648
839.3550, 1823.896
840.4910, 2246.135
841.6270, 2195.361
842.7630, 2405.578
843.8990, 2595.787
845.0350, 2574.982
846.1700, 2690.170
847.3060, 2669.348
848.4410, 2486.516
849.5760, 2775.676
850.7100, 2378.826
851.8450, 2472.973
852.9800, 2368.107
854.1140, 1988.238
855.2480, 2067.361
856.3820, 1856.479
857.5160, 1578.590
858.6500, 1590.695
859.7830, 1456.797
860.9170, 1247.893
862.0500, 1416.986
863.1830, 1332.074
864.3160, 1305.160
865.4480, 1280.400
866.5810, 1123.320
867.7130, 1108.396
868.8460, 1043.473
869.9780, 934.5449
871.1100, 911.6211
872.2410, 885.8145
873.3730, 842.5137
874.5050, 863.8965
875.6360, 832.0156
876.7670, 763.1660
877.8980, 809.3652
879.0290, 762.5410
880.1590, 804.9629
881.2900, 752.3945
882.4200, 758.9004
883.5500, 792.4316
884.6800, 767.0410
885.8100, 772.0488
886.9400, 754.4297
888.0690, 792.1895
889.1990, 753.9688
890.3280, 853.7949
891.4570, 1029.676
892.5860, 1022.590
893.7140, 1152.510
894.8430, 1035.508
895.9710, 1111.516
897.1000, 1151.562
898.2280, 1270.613
899.3560, 1146.699
900.4830, 1276.793
901.6110, 1119.910
902.7380, 1290.043
903.8660, 1403.203
904.9930, 1153.373
906.1200, 1345.584
907.2460, 1380.805
908.3730, 1705.174
909.5000, 1507.420
910.6260, 1663.840
911.7520, 1823.555
912.8780, 1824.938
914.0040, 1728.410
915.1290, 2289.818
916.2550, 2214.248
917.3800, 2490.201
918.5050, 2718.096
919.6300, 2811.229
920.7550, 3061.129
921.8800, 3479.273
923.0040, 3543.459
924.1290, 3534.023
925.2530, 3925.520
926.3770, 4115.406
927.5010, 4696.605
928.6250, 4803.150
929.7480, 5395.674
930.8720, 5785.840
931.9950, 5858.090
933.1180, 5954.746
934.2410, 5918.188
935.3640, 5774.963
936.4860, 5701.467
937.6090, 5641.752
938.7310, 5475.408
939.8530, 5354.336
940.9750, 5232.217
942.0970, 5074.074
943.2180, 4903.285
944.3400, 4821.674
945.4610, 4569.316
946.5820, 4506.781
947.7030, 4276.328
948.8240, 4271.434
949.9450, 3766.473
951.0650, 3739.170
952.1860, 3769.480
953.3060, 3816.297
954.4260, 3417.148
955.5460, 3418.059
956.6650, 3082.357
957.7850, 2853.342
958.9040, 2823.428
960.0230, 2300.562
961.1420, 2117.773
962.2610, 1811.027
963.3800, 1706.320
964.4990, 1340.650
965.6170, 1339.023
966.7350, 1378.434
967.8530, 1258.879
968.9710, 997.3652
970.0890, 895.8926
971.2070, 1038.459
972.3240, 1248.068
973.4410, 1009.717
974.5580, 1173.400
975.6750, 1007.471
976.7920, 1364.234
977.9090, 1303.051
979.0250, 1403.910
980.1410, 1557.805
981.2580, 2117.742
982.3740, 2126.719
983.4890, 2641.734
984.6050, 2594.787
985.7200, 3167.875
986.8360, 3764.002
987.9510, 4512.162
989.0660, 5180.375
990.1810, 5837.625
991.2950, 6787.914
992.4100, 7903.240
993.5240, 9079.604
994.6390, 10440.01
995.7530, 11877.45
996.8660, 13509.94
997.9800, 15383.46
999.0940, 16944.02
1000.207, 19202.62
1001.320, 21028.25
1002.433, 23081.92
1003.546, 25527.64
1004.659, 27441.38
1005.772, 29336.16
1006.884, 31076.99
1007.996, 32248.39
1009.108, 33028.82
1010.220, 33445.46
1011.332, 33296.63
1012.444, 32797.63
1013.555, 31729.79
1014.666, 30637.86
1015.777, 29770.96
1016.888, 28229.10
1017.999, 27191.33
1019.110, 26008.37
1020.220, 25372.79
1021.331, 24899.01
1022.441, 24288.31
1023.551, 23472.75
1024.661, 23418.70
1025.770, 22909.38
1026.880, 23065.81
1027.989, 22960.53
1029.098, 22756.40
1030.207, 22912.64
1031.316, 22790.17
1032.425, 22286.56
1033.533, 21807.25
1034.642, 21177.84
1035.750, 20647.74
1036.858, 19620.33
1037.966, 18324.03
1039.073, 17440.62
1040.181, 16003.37
1041.288, 14630.15
1042.396, 13488.81
1043.503, 12624.72
1044.610, 11815.44
1045.716, 10754.98
1046.823, 9725.203
1047.929, 8908.279
1049.036, 8072.773
1050.142, 7582.059
1051.248, 6835.420
1052.353, 6320.416
1053.459, 5994.764
1054.564, 5271.182
1055.670, 4857.078
1056.775, 4702.258
1057.880, 4417.260
1058.985, 3994.242
1060.089, 3696.113
1061.194, 3205.904
1062.298, 3062.766
1063.402, 2883.061
1064.506, 2353.645
1065.610, 2335.082
1066.713, 2269.908
1067.817, 1667.957
1068.920, 1657.332
1070.023, 1411.488
1071.126, 1192.164
1072.229, 1272.008
1073.332, 1223.498
1074.435, 1280.291
1075.537, 1158.934
1076.639, 1070.666
1077.741, 901.0977
1078.843, 783.2051
1079.945, 732.8496
1081.046, 498.3789
1082.148, 456.7734
1083.249, 251.6387
1084.350, 671.2246
1085.451, 585.2812
1086.551, 615.0391
1087.652, 381.0742
1088.752, 453.3340
1089.853, 396.0352
1090.953, 388.2793
1092.053, 572.6055
1093.152, 279.4258
1094.252, 330.5625
1095.351, 140.1738
1096.451, 290.1992
1097.550, 155.6992
1098.649, 292.7754
1099.748, 401.4590
1100.846, 286.4355
1101.945, 162.7871
1103.043, 211.0176
1104.141, 402.6816
1105.239, 162.8809
1106.337, 299.5352
1107.434, 30.37109
1108.532, 359.8555
1109.629, 189.6406
1110.726, 102.8340
1111.823, 342.2598
1112.920, 288.8613
1114.017, 332.7227
1115.113, 478.6797
1116.210, 346.2520
1117.306, 765.8125
1118.402, 583.3652
1119.498, 684.9062
1120.593, 644.0430
1121.689, 856.9414
1122.784, 931.6738
1123.879, 617.9316
1124.974, 702.4102
1126.069, 539.5410
1127.164, 465.8848
1128.259, 312.0488
1129.353, 143.4648
1130.447, 169.2910
1131.541, 243.3926
1132.635, 160.7598
1133.729, 65.60156
1134.822, 189.9316
1135.916, 78.24414
1137.009, 178.9512
1138.102, 142.4121
1139.195, 18.22656
1140.288, 23.99805
1141.380, 46.36914
1142.473, 6.794922
1143.565, 94.22266
1144.657, 30.34180
1145.749, 178.4395
1146.841, 115.8711
1147.932, 155.9219
1149.024, 65.91406
1150.115, 158.0781
1151.206, 43.82227
1152.297, 92.29688
1153.388, 202.5059
1154.479, 76.63477
1155.569, 112.6133
1156.659, 58.09570
1157.750, 205.0312
1158.839, 261.3457
1159.929, 31.06445
1161.019, 105.5527
1162.108, 457.9512
1163.198, 87.60742
1164.287, 114.8535
1165.376, 41.47656
1166.465, 4.320313
1167.553, 50.25977
1168.642, 200.9453
1169.730, 109.9238
1170.818, 165.4160
1171.906, 215.0840
1172.994, 8.910156
1174.082, 10.79297
1175.170, 212.8945
1176.257, 80.35742
1177.344, 112.0859
1178.431, 158.4941
1179.518, 5.869141
1180.605, 125.1934
1181.691, 115.5176
1182.778, 43.34570
1183.864, 170.7461
1184.950, 172.8027
1186.036, 75.82227
1187.122, 68.19727
1188.207, 79.68359
1189.292, 97.52344
1190.378, 140.7773
1191.463, 172.0059
1192.548, 180.2871
1193.632, 95.96484
1194.717, 65.59961
1195.801, 100.9668
1196.886, 24.73047
1197.970, 233.2129
1199.054, 175.6562
1200.137, 347.0547
1201.221, 142.9102
1202.305, 115.7812
1203.388, 86.01758
1204.471, 120.8789
1205.554, 130.2148
1206.637, 169.9590
1207.719, 157.2441
1208.802, 133.6133
1209.884, 284.1348
1210.966, 90.10938
1212.048, 53.70117
1213.130, 232.3750
1214.212, 86.59570
1215.293, 198.2988
1216.374, 85.14453
1217.456, 4.931641
1218.536, 157.6348
1219.617, 336.2871
1220.698, 171.1133
1221.778, 41.31055
1222.859, 67.33203
1223.939, 76.89648
1225.019, 113.0664
1226.099, 225.1797
1227.178, 128.2402
1228.258, 215.2441
1229.337, 382.1992
1230.417, 240.1230
1231.496, 75.98047
1232.574, 179.7734
1233.653, 113.5156
1234.732, 186.1953
1235.810, 401.8281
1236.888, 211.4102
1237.966, 177.5938
1239.044, 22.07031
1240.122, 184.4609
1241.199, 142.7969
1242.277, 375.0820
1243.354, 102.4141
1244.431, 236.5859
1245.508, 326.7031
1246.585, 467.7773
1247.661, 416.8008
1248.738, 412.6250
1249.814, 61.69922
1250.890, 239.5547
1251.966, 277.3555
1253.042, 158.1055
1254.117, 332.8008
1255.193, 174.4492
1256.268, 145.0391
1257.343, 165.5742
1258.418, 431.0547
1259.493, 235.4883
1260.567, 168.8633
1261.642, 351.1875
1262.716, 221.4609
1263.790, 346.6797
1264.864, 384.8477
1265.938, 241.9727
1267.011, 297.0430
1268.085, 317.0664
1269.158, 469.4844
1270.231, 239.6758
1271.304, 409.0352
1272.377, 272.6562
1273.450, 350.4258
1274.522, 383.0195
1275.594, 256.6992
1276.666, 360.3242
1277.738, 88.89844
1278.810, 446.3594
1279.882, 446.0039
1280.953, 334.2383
1282.025, 513.6719
1283.096, 248.0000
1284.167, 352.1797
1285.238, 359.8281
1286.308, 235.7305
1287.379, 313.8711
1288.449, 345.6836
1289.519, 365.3477
1290.589, 252.6250
1291.659, 260.7109
1292.729, 231.6719
1293.798, 174.4492
1294.868, 281.1289
1295.937, 292.8398
1297.006, 239.0000
