##NAMES=Enstatite
##RRUFFID=R060744
##IDEAL CHEMISTRY=MgSiO_3_
##LOCALITY=Orissa, India
##OWNER=RRUFF
##SOURCE=Herb Obodda
##DESCRIPTION=Brown transparent fragment
##STATUS=The identification of this mineral has been confirmed by X-ray diffraction and chemical analysis
##URL=rruff.info/R060744
##MEASURED CHEMISTRY=(Mg_0.85_Fe^2+^_0.13_Fe^3+^_0.01_Mn_0.01_)_Σ=1_(Si_0.99_Al_0.01_)_Σ=1_O_3_; trace amounts of Ca; Fe^2+^ and Fe^3+^ splitted by charge balance
##PIN_ID=L01127
##ORIENTATION=Laser parallel to -b* (0 -1 0). Fiducial mark perpendicular to laser is parallel to -c [0 0 -1]
113.2080, 0.0000000E+00
114.4400, 40.48828
115.6710, 56.88379
116.9030, 385.9639
118.1340, 845.9727
119.3650, 1572.518
120.5960, 2226.657
121.8270, 2989.225
123.0580, 4267.627
124.2880, 5597.469
125.5190, 7171.516
126.7490, 8312.106
127.9790, 8261.201
129.2090, 7711.982
130.4390, 6693.748
131.6680, 5706.016
132.8980, 4734.316
134.1270, 3977.773
135.3560, 3097.039
136.5850, 2872.291
137.8140, 2801.090
139.0430, 2867.080
140.2710, 2613.062
141.5000, 2696.736
142.7280, 2717.213
143.9560, 2443.295
145.1840, 2333.191
146.4120, 2298.301
147.6390, 2012.715
148.8670, 1617.514
150.0940, 1395.107
151.3210, 1106.514
152.5490, 849.8662
153.7750, 589.7803
155.0020, 446.4570
156.2290, 368.0947
157.4550, 138.4756
158.6810, 187.9971
159.9080, 101.8213
161.1340, 88.53516
162.3590, 116.1016
163.5850, 99.25195
164.8110, 85.82129
166.0360, 104.4033
167.2610, 39.09473
168.4860, 13.88477
169.7110, 14.77637
170.9360, 112.2197
172.1610, 85.09180
173.3850, 45.16504
174.6100, 43.45410
175.8340, 70.95703
177.0580, 65.34277
178.2820, 119.5273
179.5050, 136.7900
180.7290, 108.4668
181.9520, 36.13086
183.1760, 75.17188
184.3990, 122.7588
185.6220, 148.7627
186.8450, 78.69727
188.0670, 119.3418
189.2900, 65.82520
190.5120, 25.97168
191.7340, 34.45898
192.9560, 24.88965
194.1780, 78.91699
195.4000, 127.9307
196.6220, 77.84668
197.8430, 167.8721
199.0640, 117.2705
200.2860, 137.6318
201.5070, 17.07324
202.7270, 166.5723
203.9480, 43.10840
205.1690, 31.67090
206.3890, 140.7412
207.6090, 126.1348
208.8290, 167.5098
210.0490, 179.8711
211.2690, 64.22949
212.4890, 49.59473
213.7080, 38.96777
214.9280, 61.62598
216.1470, 51.05273
217.3660, 146.2588
218.5850, 254.0225
219.8030, 355.6641
221.0220, 494.5264
222.2400, 695.5303
223.4590, 922.9805
224.6770, 1148.572
225.8950, 1532.899
227.1120, 1881.447
228.3300, 2324.194
229.5480, 2870.146
230.7650, 3236.285
231.9820, 3582.567
233.1990, 3612.910
234.4160, 3240.236
235.6330, 2864.541
236.8490, 2226.890
238.0660, 1772.330
239.2820, 1276.831
240.4980, 915.3369
241.7140, 536.8271
242.9300, 412.3066
244.1460, 160.7412
245.3610, 185.1260
246.5770, 21.45996
247.7920, 51.25488
249.0070, 2.022461
250.2220, 61.15918
251.4370, 88.28906
252.6510, 86.36816
253.8660, 103.3613
255.0800, 12.26074
256.2940, 133.1035
257.5080, 110.6260
258.7220, 251.6104
259.9360, 140.9355
261.1490, 126.0264
262.3630, 83.05664
263.5760, 60.66406
264.7890, 211.6377
266.0020, 351.8525
267.2150, 388.2197
268.4270, 350.6699
269.6400, 395.1494
270.8520, 345.4180
272.0640, 387.0801
273.2760, 275.4922
274.4880, 249.8320
275.7000, 262.0645
276.9120, 186.1562
278.1230, 181.6328
279.3340, 133.9473
280.5450, 149.6631
281.7560, 169.2715
282.9670, 202.7783
284.1780, 218.1670
285.3880, 355.4365
286.5980, 501.5898
287.8090, 522.5820
289.0190, 704.1416
290.2290, 835.5381
291.4380, 750.6377
292.6480, 804.3262
293.8570, 889.7471
295.0670, 1000.139
296.2760, 910.5010
297.4850, 945.8350
298.6930, 941.1367
299.9020, 900.3623
301.1110, 917.5625
302.3190, 938.7363
303.5270, 847.8760
304.7350, 1050.990
305.9430, 996.9395
307.1510, 974.5898
308.3580, 1135.994
309.5660, 1278.277
310.7730, 1404.553
311.9800, 1568.817
313.1870, 1758.248
314.3940, 2107.453
315.6010, 2155.997
316.8070, 2466.454
318.0130, 2595.769
319.2200, 2873.303
320.4260, 3245.231
321.6310, 3619.533
322.8370, 4094.892
324.0430, 4725.553
325.2480, 5528.867
326.4540, 6508.459
327.6590, 7638.859
328.8640, 9023.173
330.0680, 10407.27
331.2730, 12163.73
332.4780, 13954.79
333.6820, 15666.52
334.8860, 17414.54
336.0900, 18543.65
337.2940, 19093.52
338.4980, 18711.18
339.7010, 17654.45
340.9050, 15973.62
342.1080, 14278.89
343.3110, 12433.77
344.5140, 10445.77
345.7170, 8701.641
346.9200, 7544.398
348.1220, 6411.072
349.3240, 5581.597
350.5270, 4899.467
351.7290, 4286.587
352.9310, 3705.288
354.1320, 3402.194
355.3340, 3390.845
356.5350, 2825.181
357.7370, 2688.650
358.9380, 2430.725
360.1390, 2265.477
361.3400, 2126.634
362.5400, 1948.559
363.7410, 1878.241
364.9410, 1803.419
366.1410, 1716.439
367.3410, 1858.536
368.5410, 1965.304
369.7410, 2014.566
370.9400, 2121.968
372.1400, 2057.819
373.3390, 2237.616
374.5380, 2572.372
375.7370, 2323.086
376.9360, 2391.756
378.1350, 2361.383
379.3330, 2150.966
380.5310, 2224.505
381.7300, 1983.001
382.9280, 1922.451
384.1260, 1979.857
385.3230, 1792.217
386.5210, 1954.533
387.7180, 2156.803
388.9160, 2334.025
390.1130, 2666.205
391.3100, 2828.591
392.5060, 3148.667
393.7030, 3226.881
394.9000, 3468.557
396.0960, 3639.397
397.2920, 3685.543
398.4880, 3650.973
399.6840, 3735.525
400.8800, 3630.302
402.0750, 3541.973
403.2710, 3322.663
404.4660, 3412.312
405.6610, 3508.891
406.8560, 3294.140
408.0510, 3326.029
409.2450, 2975.461
410.4400, 3084.830
411.6340, 2916.140
412.8280, 2802.387
414.0220, 2298.572
415.2160, 2077.696
416.4100, 1940.757
417.6030, 1899.756
418.7970, 1440.692
419.9900, 1383.567
421.1830, 1115.346
422.3760, 1162.024
423.5690, 945.3125
424.7610, 1013.637
425.9540, 1047.028
427.1460, 1052.482
428.3380, 1112.926
429.5300, 1371.324
430.7220, 1617.664
431.9140, 1732.949
433.1050, 1938.179
434.2970, 2008.354
435.4880, 2078.855
436.6790, 2066.564
437.8700, 2041.564
439.0610, 1858.534
440.2510, 1598.453
441.4420, 1322.320
442.6320, 1050.141
443.8220, 834.9092
445.0120, 682.6279
446.2020, 575.2969
447.3910, 534.9160
448.5810, 406.4873
449.7700, 628.0088
450.9600, 448.4824
452.1490, 518.9102
453.3370, 431.2910
454.5260, 469.6240
455.7150, 321.9121
456.9030, 408.1533
458.0910, 317.3545
459.2800, 463.5127
460.4670, 343.6631
461.6550, 293.7979
462.8430, 370.8828
464.0300, 347.9414
465.2180, 245.9795
466.4050, 280.9893
467.5920, 332.9883
468.7790, 229.9834
469.9650, 362.9619
471.1520, 259.9121
472.3380, 56.81152
473.5250, 43.62793
474.7110, 27.63867
475.8970, 39.02539
477.0820, 53.46582
478.2680, 63.12598
479.4540, 55.14941
480.6390, 212.6572
481.8240, 13.33594
483.0090, 114.7646
484.1940, 6.026367
485.3780, 128.3916
486.5630, 3.924805
487.7470, 114.5596
488.9320, 22.35156
490.1160, 34.25293
491.3000, 49.26953
492.4830, 60.61328
493.6670, 109.5752
494.8500, 73.84961
496.0340, 88.21875
497.2170, 98.05566
498.4000, 74.64355
499.5820, 47.88184
500.7650, 32.62305
501.9480, 49.45898
503.1300, 2.589844
504.3120, 4.445313
505.4940, 37.57812
506.6760, 88.23633
507.8580, 90.99609
509.0390, 132.6953
510.2210, 94.34766
511.4020, 69.95117
512.5830, 159.1992
513.7640, 207.0703
514.9450, 342.6055
516.1250, 337.1074
517.3060, 454.5781
518.4860, 416.0078
519.6660, 495.4023
520.8460, 501.7559
522.0260, 586.0781
523.2060, 469.3633
524.3850, 564.6094
525.5650, 554.8203
526.7440, 565.9941
527.9230, 788.1309
529.1020, 830.2324
530.2810, 872.2969
531.4590, 1298.363
532.6380, 1419.395
533.8160, 1371.393
534.9940, 1531.379
536.1720, 1362.340
537.3500, 1411.270
538.5270, 1347.166
539.7050, 1261.029
540.8820, 1111.859
542.0590, 999.6641
543.2360, 1054.434
544.4130, 968.1719
545.5900, 791.8867
546.7660, 963.5684
547.9430, 838.2207
549.1190, 694.8457
550.2950, 649.4414
551.4710, 607.0078
552.6470, 706.5449
553.8220, 306.0488
554.9980, 416.5273
556.1730, 300.9766
557.3480, 493.3984
558.5230, 347.7930
559.6980, 223.1562
560.8730, 439.4941
562.0470, 241.8086
563.2220, 451.0957
564.3960, 280.3574
565.5700, 426.5977
566.7440, 329.8125
567.9170, 205.0059
569.0910, 398.1738
570.2640, 418.3184
571.4380, 609.4434
572.6110, 372.5410
573.7840, 391.6191
574.9570, 275.6738
576.1290, 394.7090
577.3020, 498.7207
578.4740, 409.7129
579.6460, 447.6836
580.8180, 301.6348
581.9900, 368.5664
583.1620, 351.4785
584.3330, 365.3730
585.5040, 396.2500
586.6760, 231.1074
587.8470, 411.9492
589.0180, 241.7715
590.1880, 442.5801
591.3590, 310.3711
592.5290, 200.1484
593.7000, 131.9082
594.8700, 319.6543
596.0400, 102.3828
597.2090, 246.8730
598.3790, 284.5762
599.5490, 238.0391
600.7180, 346.7129
601.8870, 373.2793
603.0560, 337.5898
604.2250, 292.2266
605.3940, 273.8008
606.5620, 335.6953
607.7300, 375.9160
608.8990, 274.4219
610.0670, 314.1426
611.2350, 282.7148
612.4020, 473.7773
613.5700, 283.1855
614.7370, 133.2012
615.9050, 376.5918
617.0720, 363.2812
618.2390, 434.6562
619.4060, 512.8730
620.5720, 688.3457
621.7390, 557.2285
622.9050, 762.2480
624.0710, 503.3359
625.2370, 698.2871
626.4030, 858.5938
627.5690, 811.7598
628.7340, 960.3125
629.9000, 1003.125
631.0650, 1056.529
632.2300, 1055.480
633.3950, 1182.045
634.5600, 1192.961
635.7240, 1408.314
636.8890, 1634.613
638.0530, 1759.449
639.2170, 1943.637
640.3810, 2104.516
641.5450, 2432.564
642.7080, 2751.623
643.8720, 2983.574
645.0350, 3463.609
646.1980, 3993.516
647.3610, 4937.797
648.5240, 6044.480
649.6870, 7014.223
650.8490, 8468.527
652.0120, 10062.69
653.1740, 11525.14
654.3360, 13527.34
655.4980, 15626.21
656.6600, 17138.56
657.8210, 18710.38
658.9830, 19610.22
660.1440, 19316.08
661.3050, 18730.46
662.4660, 17395.36
663.6270, 16050.28
664.7870, 14531.21
665.9480, 13539.18
667.1080, 12886.16
668.2680, 12741.25
669.4280, 12816.28
670.5880, 13412.45
671.7480, 14918.53
672.9070, 16803.63
674.0670, 18436.75
675.2260, 20947.90
676.3850, 23402.07
677.5440, 25273.27
678.7030, 26928.50
679.8610, 27962.75
681.0200, 27150.02
682.1780, 26516.33
683.3360, 23838.66
684.4940, 21308.53
685.6520, 18328.92
686.8090, 15470.34
687.9670, 12742.26
689.1240, 10635.74
690.2810, 8683.244
691.4380, 7154.775
692.5950, 6109.344
693.7520, 4946.941
694.9080, 4369.570
696.0650, 3667.230
697.2210, 3236.926
698.3770, 2787.652
699.5330, 2599.414
700.6880, 2300.410
701.8440, 2021.240
702.9990, 1649.104
704.1550, 1470.002
705.3100, 1384.936
706.4650, 1355.906
707.6190, 1247.912
708.7740, 1208.957
709.9290, 1211.037
711.0830, 938.1582
712.2370, 988.3125
713.3910, 803.5078
714.5450, 807.7441
715.6980, 818.0176
716.8520, 797.3301
718.0050, 835.6836
719.1580, 703.0762
720.3110, 479.5098
721.4640, 462.9863
722.6170, 496.5059
723.7700, 677.0645
724.9220, 486.6680
726.0740, 556.3125
727.2260, 535.0000
728.3780, 561.7344
729.5300, 460.5098
730.6810, 416.3320
731.8330, 487.1973
732.9840, 395.1074
734.1350, 436.0645
735.2860, 592.0664
736.4370, 279.1172
737.5880, 408.2129
738.7380, 206.3594
739.8880, 401.5508
741.0390, 296.7910
742.1890, 261.0820
743.3380, 252.4199
744.4880, 293.8086
745.6380, 295.8574
746.7870, 321.7422
747.9360, 358.2852
749.0850, 311.7246
750.2340, 337.5352
751.3830, 206.2383
752.5310, 140.0117
753.6800, 144.8594
754.8280, 299.7910
755.9760, 146.8164
757.1240, 161.9141
758.2720, 29.48438
759.4190, 111.7520
760.5670, 59.15820
761.7140, 133.6406
762.8610, 171.2402
764.0080, 49.92383
765.1550, 18.72070
766.3020, 132.6035
767.4480, 35.59766
768.5950, 219.6855
769.7410, 145.1367
770.8870, 7.089844
772.0330, 148.5938
773.1780, 4.232422
774.3240, 46.23242
775.4690, 57.80078
776.6140, 60.48047
777.7590, 82.73438
778.9040, 51.12109
780.0490, 72.07031
781.1940, 47.88281
782.3380, 19.23242
783.4820, 56.56445
784.6260, 80.30273
785.7700, 132.0039
786.9140, 36.61719
788.0580, 44.18555
789.2010, 156.6934
790.3450, 191.1816
791.4880, 149.2773
792.6310, 35.13672
793.7730, 49.55469
794.9160, 9.072266
796.0590, 35.76562
797.2010, 26.26758
798.3430, 48.66016
799.4850, 43.20703
800.6270, 42.13867
801.7690, 111.1328
802.9100, 195.1953
804.0520, 24.32031
805.1930, 0.4921880
806.3340, 88.76172
807.4750, 216.9199
808.6160, 176.3926
809.7560, 84.77148
810.8970, 120.2129
812.0370, 80.72461
813.1770, 168.2988
814.3170, 118.6504
815.4570, 73.64844
816.5960, 78.42383
817.7360, 79.26367
818.8750, 99.17383
820.0140, 256.1523
821.1530, 53.80469
822.2920, 35.29297
823.4310, 138.4805
824.5690, 20.26953
825.7070, 49.04688
826.8460, 73.42969
827.9840, 134.8828
829.1220, 182.7754
830.2590, 5.996094
831.3970, 233.6543
832.5340, 211.3828
833.6710, 127.2070
834.8080, 238.1016
835.9450, 276.0664
837.0820, 9.900391
838.2190, 94.20117
839.3550, 40.36914
840.4910, 154.6094
841.6270, 283.9160
842.7630, 293.2949
843.8990, 350.7422
845.0350, 471.2617
846.1700, 300.8496
847.3060, 392.5254
848.4410, 576.2676
849.5760, 686.0820
850.7100, 924.9629
851.8450, 1314.918
852.9800, 1552.939
854.1140, 1634.031
855.2480, 1687.197
856.3820, 1953.428
857.5160, 1914.732
858.6500, 1969.105
859.7830, 1908.547
860.9170, 1853.062
862.0500, 1801.625
863.1830, 1571.297
864.3160, 1539.018
865.4480, 1394.811
866.5810, 1067.674
867.7130, 1033.605
868.8460, 920.6074
869.9780, 796.6777
871.1100, 791.8184
872.2410, 677.0312
873.3730, 367.3125
874.5050, 491.6680
875.6360, 310.0918
876.7670, 555.5898
877.8980, 398.1621
879.0290, 451.8066
880.1590, 419.5527
881.2900, 401.3672
882.4200, 109.2520
883.5500, 252.2090
884.6800, 336.2754
885.8100, 33.41016
886.9400, 321.6133
888.0690, 368.8848
889.1990, 435.2266
890.3280, 86.63672
891.4570, 312.1172
892.5860, 229.6660
893.7140, 23.71680
894.8430, 114.9668
895.9710, 248.7188
897.1000, 259.5469
898.2280, 244.4609
899.3560, 352.4395
900.4830, 166.5039
901.6110, 289.6484
902.7380, 103.8613
903.8660, 141.1523
904.9930, 317.5078
906.1200, 155.4941
907.2460, 2.009766
908.3730, 156.0273
909.5000, 201.5410
910.6260, 221.3301
911.7520, 349.1973
912.8780, 544.1348
914.0040, 238.2793
915.1290, 526.3750
916.2550, 458.5547
917.3800, 694.2500
918.5050, 511.5723
919.6300, 615.1191
920.7550, 682.8828
921.8800, 631.4395
923.0040, 864.9082
924.1290, 1146.236
925.2530, 1024.248
926.3770, 1237.898
927.5010, 1611.377
928.6250, 1716.295
929.7480, 1901.803
930.8720, 2034.934
931.9950, 2170.125
933.1180, 2422.381
934.2410, 2352.207
935.3640, 2506.600
936.4860, 2605.062
937.6090, 2401.596
938.7310, 2555.195
939.8530, 2122.857
940.9750, 2218.500
942.0970, 1803.285
943.2180, 1894.004
944.3400, 1559.904
945.4610, 1753.871
946.5820, 1413.914
947.7030, 1217.027
948.8240, 1232.223
949.9450, 1229.514
951.0650, 970.8809
952.1860, 822.3457
953.3060, 699.8867
954.4260, 897.5254
955.5460, 988.2227
956.6650, 820.4609
957.7850, 505.2871
958.9040, 751.1582
960.0230, 699.6094
961.1420, 793.6035
962.2610, 701.6523
963.3800, 553.7637
964.4990, 842.9590
965.6170, 572.2070
966.7350, 401.5059
967.8530, 486.0059
968.9710, 599.4004
970.0890, 827.8457
971.2070, 552.3418
972.3240, 1145.689
973.4410, 793.2812
974.5580, 890.9238
975.6750, 859.6113
976.7920, 1028.338
977.9090, 1067.104
979.0250, 1316.906
980.1410, 1300.836
981.2580, 1680.020
982.3740, 1637.943
983.4890, 1798.910
984.6050, 1957.930
985.7200, 2149.076
986.8360, 2559.172
987.9510, 3066.311
989.0660, 3376.609
990.1810, 3982.812
991.2950, 4442.045
992.4100, 5366.328
993.5240, 6515.629
994.6390, 7392.961
995.7530, 8804.527
996.8660, 10828.93
997.9800, 12697.35
999.0940, 15098.80
1000.207, 18172.28
1001.320, 21207.79
1002.433, 24833.32
1003.546, 29183.90
1004.659, 32549.20
1005.772, 35469.32
1006.884, 37455.00
1007.996, 37622.50
1009.108, 35853.40
1010.220, 33385.75
1011.332, 29752.44
1012.444, 26534.63
1013.555, 23263.97
1014.666, 20230.94
1015.777, 17958.44
1016.888, 16353.75
1017.999, 14950.46
1019.110, 13703.41
1020.220, 12638.52
1021.331, 11732.94
1022.441, 11082.40
1023.551, 10414.93
1024.661, 9612.602
1025.770, 9031.922
1026.880, 8410.619
1027.989, 8200.195
1029.098, 7452.969
1030.207, 7011.564
1031.316, 6900.385
1032.425, 5860.961
1033.533, 5288.369
1034.642, 4819.686
1035.750, 4380.629
1036.858, 3941.945
1037.966, 3391.070
1039.073, 3223.039
1040.181, 2853.537
1041.288, 2654.781
1042.396, 2110.311
1043.503, 2071.576
1044.610, 1736.197
1045.716, 1514.820
1046.823, 1571.066
1047.929, 1222.061
1049.036, 1132.773
1050.142, 1138.213
1051.248, 973.9258
1052.353, 1029.600
1053.459, 861.5586
1054.564, 822.8145
1055.670, 996.0957
1056.775, 796.3789
1057.880, 703.0801
1058.985, 522.1055
1060.089, 443.0371
1061.194, 586.4941
1062.298, 404.3066
1063.402, 305.4512
1064.506, 500.9727
1065.610, 350.5762
1066.713, 339.7207
1067.817, 516.0332
1068.920, 488.7676
1070.023, 267.7402
1071.126, 303.8027
1072.229, 228.0605
1073.332, 245.1953
1074.435, 75.03125
1075.537, 45.22070
1076.639, 263.2988
1077.741, 81.95312
1078.843, 162.7637
1079.945, 277.5312
1081.046, 302.8145
1082.148, 144.2266
1083.249, 915.1387
1084.350, 1295.799
1085.451, 543.8652
1086.551, 178.1445
1087.652, 283.8906
1088.752, 206.6055
1089.853, 98.73633
1090.953, 91.30859
1092.053, 166.7852
1093.152, 96.75391
1094.252, 150.5645
1095.351, 31.71484
1096.451, 11.64258
1097.550, 155.4453
1098.649, 109.1621
1099.748, 126.1387
1100.846, 98.70898
1101.945, 112.4941
1103.043, 197.9375
1104.141, 331.5000
1105.239, 161.0039
1106.337, 379.4648
1107.434, 62.42773
1108.532, 206.7012
1109.629, 51.01172
1110.726, 154.9941
1111.823, 8.927734
1112.920, 58.84961
1114.017, 166.0000
1115.113, 175.3711
1116.210, 209.1680
1117.306, 49.24023
1118.402, 176.1230
1119.498, 158.7148
1120.593, 62.53516
1121.689, 204.9590
1122.784, 165.5020
1123.879, 115.0469
1124.974, 174.6113
1126.069, 131.8926
1127.164, 91.23242
1128.259, 247.3535
1129.353, 166.4160
1130.447, 195.1602
1131.541, 259.5840
1132.635, 265.6777
1133.729, 269.2578
1134.822, 211.6895
1135.916, 38.71094
1137.009, 92.08203
1138.102, 212.5977
1139.195, 30.19922
1140.288, 181.6777
1141.380, 88.06445
1142.473, 1.1719000E-02
1143.565, 149.2012
1144.657, 86.92969
1145.749, 222.1992
1146.841, 102.4746
1147.932, 161.2773
1149.024, 118.1309
1150.115, 267.5547
1151.206, 239.6621
1152.297, 172.1504
1153.388, 170.9707
1154.479, 163.2754
1155.569, 135.0801
1156.659, 226.9980
1157.750, 128.0898
1158.839, 108.8828
1159.929, 140.7559
1161.019, 12.23242
1162.108, 23.29102
1163.198, 209.3066
1164.287, 14.16602
1165.376, 11.47461
1166.465, 140.8418
1167.553, 7.074219
1168.642, 107.3320
1169.730, 151.4277
1170.818, 55.85742
1171.906, 101.4336
1172.994, 244.9941
1174.082, 114.4062
1175.170, 11.88477
1176.257, 40.56250
1177.344, 157.7148
1178.431, 50.57812
1179.518, 29.16406
1180.605, 132.6230
1181.691, 15.30469
1182.778, 153.7988
1183.864, 93.89258
1184.950, 247.5625
1186.036, 113.2930
1187.122, 97.03320
1188.207, 94.48047
1189.292, 82.23828
1190.378, 147.4199
1191.463, 113.6035
1192.548, 96.49219
1193.632, 135.4004
1194.717, 199.9590
1195.801, 108.4609
1196.886, 84.22461
1197.970, 78.46484
1199.054, 63.49609
1200.137, 55.91211
1201.221, 89.19531
1202.305, 130.8887
1203.388, 137.6914
1204.471, 160.4043
1205.554, 231.5625
1206.637, 142.1504
1207.719, 108.4629
1208.802, 12.00781
1209.884, 33.82227
1210.966, 12.47266
1212.048, 62.40039
1213.130, 9.380859
1214.212, 66.88477
1215.293, 10.07812
1216.374, 61.78125
1217.456, 96.03125
1218.536, 151.7363
1219.617, 260.2578
1220.698, 41.69922
1221.778, 97.07031
1222.859, 41.72070
1223.939, 128.4414
1225.019, 64.74023
1226.099, 48.83984
1227.178, 120.5879
1228.258, 200.7266
1229.337, 196.3145
1230.417, 166.7930
1231.496, 167.4531
1232.574, 118.1641
1233.653, 107.5449
1234.732, 176.5488
1235.810, 106.6504
1236.888, 223.9766
1237.966, 329.8906
1239.044, 304.3184
1240.122, 366.1465
1241.199, 195.9746
1242.277, 273.9707
1243.354, 335.9316
1244.431, 80.92578
1245.508, 60.35547
1246.585, 147.8320
1247.661, 156.6250
1248.738, 173.8457
1249.814, 252.3770
1250.890, 305.6152
1251.966, 496.2578
1253.042, 89.98438
1254.117, 451.9727
1255.193, 267.7578
1256.268, 148.2949
1257.343, 266.1582
1258.418, 263.6289
1259.493, 304.2246
1260.567, 289.1309
1261.642, 262.3340
1262.716, 278.0215
1263.790, 3.392578
1264.864, 119.2695
1265.938, 159.5664
1267.011, 437.7656
1268.085, 393.7051
1269.158, 219.4160
1270.231, 395.5312
1271.304, 258.1562
1272.377, 387.6152
1273.450, 438.2246
1274.522, 329.4707
1275.594, 271.1699
1276.666, 355.1855
1277.738, 377.9453
1278.810, 164.1016
1279.882, 413.0840
1280.953, 294.5449
1282.025, 665.5410
1283.096, 522.3555
1284.167, 443.4082
1285.238, 487.8242
1286.308, 487.3359
1287.379, 289.2559
1288.449, 480.9121
