##NAMES=Enstatite
##RRUFFID=R040094
##IDEAL CHEMISTRY=MgSiO_3_
##LOCALITY=unknown
##OWNER=RRUFF
##SOURCE=University of Arizona Mineral Museum
##DESCRIPTION=Dark green massive, associated with anthophyllite
##STATUS=The identification of this mineral has been confirmed by X-ray diffraction and chemical analysis
##URL=rruff.info/R040094
##MEASURED CHEMISTRY=(Mg_0.84_Fe_0.15_)(Si_0.99_Al_0.01_)O_3_; = Enstatite :  [box](Mg_0.83_Fe_0.14_Na_0.01_Ca_0.01_)_7_(Si_0.99_Al_0.01_)_8_O_22_(OH)_2_ = Anthophyllite
##PIN_ID=M00323
##ORIENTATION=Laser parallel to a* (1 0 0). Fiducial mark perpendicular to laser is parallel to -b [0 -1 0]
123.138, 0.000
124.522, 232.623
125.905, 1735.284
127.288, 2321.083
128.671, 4297.245
130.053, 7388.252
131.436, 11837.884
132.818, 15586.348
134.200, 17766.746
135.582, 16355.886
136.963, 13153.204
138.345, 9339.955
139.726, 6579.094
141.107, 4561.842
142.488, 3334.391
143.868, 2758.333
145.248, 1980.066
146.629, 1564.448
148.008, 1094.002
149.388, 763.890
150.768, 493.390
152.147, 200.244
153.526, 31.904
154.905, 10.391
156.284, 29.538
157.662, 19.930
159.040, 1.248
160.418, 64.417
161.796, 170.455
163.174, 66.739
164.551, 151.815
165.929, 115.884
167.306, 51.253
168.683, 80.034
170.059, 4.804
171.436, 52.513
172.812, 42.881
174.188, 3.764
175.564, 103.355
176.939, 69.636
178.315, 30.224
179.690, 18.402
181.065, 103.576
182.440, 136.809
183.814, 48.154
185.188, 152.700
186.563, 91.260
187.937, 259.106
189.310, 401.557
190.684, 535.503
192.057, 671.906
193.430, 814.049
194.803, 944.324
196.176, 898.195
197.549, 906.095
198.921, 805.165
200.293, 687.749
201.665, 673.838
203.037, 627.519
204.408, 767.077
205.779, 701.574
207.150, 656.694
208.521, 565.663
209.892, 434.503
211.262, 358.688
212.633, 234.990
214.003, 229.204
215.373, 169.597
216.742, 166.387
218.112, 155.852
219.481, 117.878
220.850, 185.995
222.219, 155.148
223.588, 248.310
224.956, 198.347
226.324, 330.173
227.692, 437.783
229.060, 475.250
230.428, 705.601
231.795, 894.875
233.162, 1328.087
234.529, 1844.219
235.896, 2318.278
237.263, 2974.255
238.629, 3132.143
239.995, 2978.942
241.361, 2391.650
242.727, 1691.258
244.093, 1142.746
245.458, 711.092
246.823, 474.290
248.188, 257.325
249.553, 188.176
250.917, 36.812
252.282, 18.213
253.646, 41.631
255.010, 31.707
256.374, 94.989
257.737, 86.445
259.101, 63.044
260.464, 42.751
261.827, 102.548
263.189, 74.435
264.552, 65.411
265.914, 151.524
267.276, 127.348
268.638, 63.016
270.000, 41.455
271.362, 10.414
272.723, 62.362
274.084, 83.808
275.445, 142.916
276.806, 114.751
278.166, 42.563
279.526, 31.070
280.887, 43.753
282.246, 62.569
283.606, 120.599
284.966, 92.872
286.325, 69.437
287.684, 68.196
289.043, 78.993
290.402, 177.708
291.760, 156.376
293.118, 320.686
294.477, 446.467
295.834, 526.626
297.192, 627.067
298.550, 743.691
299.907, 848.501
301.264, 825.550
302.621, 859.795
303.978, 748.215
305.334, 790.820
306.690, 699.196
308.046, 705.466
309.402, 752.795
310.758, 805.529
312.113, 793.674
313.469, 843.416
314.824, 936.886
316.179, 1002.418
317.533, 1104.768
318.888, 1314.263
320.242, 1469.116
321.596, 1717.382
322.950, 1840.151
324.304, 2365.793
325.657, 2633.367
327.010, 3148.846
328.363, 3646.454
329.716, 4336.145
331.069, 5389.932
332.421, 6360.237
333.774, 7970.678
335.126, 9986.430
336.478, 12495.354
337.829, 15793.133
339.181, 19062.328
340.532, 23120.760
341.883, 25369.348
343.234, 26406.465
344.585, 25605.770
345.935, 22733.781
347.285, 19960.633
348.635, 16519.049
349.985, 13465.614
351.335, 11253.036
352.684, 9190.349
354.034, 7927.383
355.383, 6663.526
356.731, 5903.395
358.080, 5154.046
359.429, 4722.295
360.777, 4357.271
362.125, 3930.622
363.473, 3606.328
364.820, 3301.909
366.168, 3124.317
367.515, 2789.136
368.862, 2685.304
370.209, 2507.169
371.556, 2250.569
372.902, 2344.149
374.249, 2157.060
375.595, 2210.628
376.940, 2126.103
378.286, 2098.506
379.632, 2114.829
380.977, 2006.920
382.322, 2024.934
383.667, 1972.845
385.012, 1996.776
386.356, 1999.318
387.700, 1976.166
389.044, 2217.477
390.388, 2316.665
391.732, 2565.014
393.075, 2889.293
394.419, 3241.328
395.762, 3790.089
397.105, 4067.804
398.447, 4645.473
399.790, 5068.093
401.132, 5201.669
402.474, 5484.200
403.816, 5335.686
405.158, 5348.127
406.499, 5251.523
407.841, 5075.453
409.182, 5018.378
410.523, 4694.852
411.864, 4635.583
413.204, 4435.333
414.544, 4132.193
415.884, 3949.406
417.224, 3713.281
418.564, 3597.225
419.904, 3304.747
421.243, 3231.778
422.582, 2999.125
423.921, 2776.763
425.260, 2618.207
426.598, 2368.260
427.937, 2188.346
429.275, 2090.057
430.613, 2045.292
431.951, 2076.778
433.288, 2162.512
434.625, 2453.848
435.963, 2767.816
437.300, 3296.868
438.636, 4006.523
439.973, 4504.569
441.309, 5124.406
442.646, 5083.523
443.981, 4484.532
445.317, 3782.975
446.653, 2971.238
447.988, 2254.058
449.323, 1689.868
450.658, 1371.906
451.993, 1186.205
453.328, 929.083
454.662, 894.252
455.996, 729.854
457.331, 716.658
458.664, 596.757
459.998, 576.220
461.331, 549.014
462.665, 568.600
463.998, 513.231
465.330, 516.291
466.663, 511.431
467.996, 429.105
469.328, 427.730
470.660, 337.477
471.992, 321.379
473.323, 291.170
474.655, 241.114
475.986, 193.406
477.317, 193.911
478.648, 63.373
479.979, 108.794
481.309, 51.159
482.640, 75.485
483.970, 23.761
485.300, 5.004
486.629, 24.258
487.959, 16.486
489.288, 19.274
490.617, 15.953
491.946, 42.844
493.275, 9.344
494.603, 45.492
495.932, 4.354
497.260, 28.240
498.588, 29.154
499.916, 19.110
501.243, 54.095
502.571, 18.114
503.898, 64.159
505.225, 8.230
506.552, 3.680
507.878, 39.427
509.205, 67.434
510.531, 38.274
511.857, 71.096
513.183, 109.891
514.508, 88.669
515.834, 150.434
517.159, 256.189
518.484, 301.932
519.809, 392.665
521.133, 488.385
522.458, 566.092
523.782, 580.786
525.106, 644.467
526.430, 640.138
527.754, 550.799
529.077, 540.451
530.400, 497.098
531.723, 535.741
533.046, 581.905
534.369, 608.025
535.692, 780.675
537.014, 925.332
538.336, 1127.002
539.658, 1190.684
540.980, 1176.379
542.301, 1065.093
543.623, 930.818
544.944, 778.557
546.265, 689.302
547.585, 711.058
548.906, 738.818
550.226, 708.578
551.547, 666.337
552.867, 551.093
554.186, 508.841
555.506, 429.577
556.825, 309.304
558.145, 288.020
559.464, 230.726
560.783, 183.422
562.101, 162.109
563.420, 167.786
564.738, 148.454
566.056, 154.112
567.374, 124.768
568.692, 96.424
570.009, 81.088
571.326, 145.761
572.643, 170.463
573.960, 179.197
575.277, 123.979
576.594, 150.806
577.910, 155.694
579.226, 122.641
580.542, 181.641
581.858, 162.688
583.173, 168.798
584.489, 142.962
585.804, 163.180
587.119, 170.410
588.434, 197.656
589.748, 166.923
591.063, 196.215
592.377, 206.544
593.691, 149.895
595.005, 152.263
596.318, 169.645
597.632, 164.041
598.945, 144.482
600.258, 189.963
601.571, 107.489
602.884, 144.062
604.196, 99.698
605.508, 116.391
606.821, 103.132
608.132, 88.809
609.444, 56.730
610.756, 69.550
612.067, 97.384
613.378, 88.332
614.689, 58.295
616.000, 82.383
617.311, 55.331
618.621, 79.495
619.931, 105.560
621.241, 140.827
622.551, 139.805
623.861, 174.862
625.170, 196.231
626.479, 337.012
627.788, 334.048
629.097, 778.839
630.406, 708.012
631.714, 808.728
633.023, 1160.689
634.331, 1117.288
635.639, 615.170
636.946, 744.320
638.254, 742.392
639.561, 837.487
640.868, 969.939
642.175, 1130.688
643.482, 1352.042
644.789, 1534.752
646.095, 1687.090
647.401, 1977.046
648.707, 2398.281
650.013, 2875.548
651.319, 3370.269
652.624, 4178.370
653.929, 4900.143
655.234, 6133.499
656.539, 7594.776
657.844, 9516.028
659.148, 12026.558
660.453, 14196.589
661.757, 16959.738
663.061, 18212.758
664.364, 18495.492
665.668, 17585.740
666.971, 15467.043
668.274, 13849.933
669.577, 12310.409
670.880, 11202.904
672.183, 10896.428
673.485, 10780.624
674.787, 11223.879
676.089, 12377.356
677.391, 13589.686
678.693, 15571.793
679.994, 17842.875
681.296, 20783.832
682.597, 23274.904
683.898, 25035.873
685.198, 25566.840
686.499, 24248.166
687.799, 22039.137
689.099, 18570.105
690.399, 15521.078
691.699, 12562.050
692.998, 10063.025
694.298, 8264.003
695.597, 6584.978
696.896, 5394.957
698.195, 4486.937
699.493, 3880.917
700.792, 3334.899
702.090, 2884.881
703.388, 2459.864
704.686, 2231.848
705.984, 1967.833
707.281, 1779.818
708.578, 1642.803
709.876, 1454.790
711.172, 1321.777
712.469, 1243.765
713.766, 1054.753
715.062, 979.742
716.358, 960.732
717.654, 865.722
718.950, 801.714
720.246, 733.705
721.541, 671.698
722.836, 573.692
724.131, 563.669
725.426, 515.540
726.721, 521.359
728.015, 501.355
729.310, 422.352
730.604, 370.350
731.898, 541.347
733.191, 391.344
734.485, 374.341
735.778, 416.338
737.071, 331.333
738.364, 364.328
739.657, 377.320
740.950, 325.312
742.242, 388.301
743.535, 343.289
744.827, 336.274
746.118, 328.258
747.410, 285.239
748.702, 310.217
749.993, 360.193
751.284, 414.166
752.575, 421.137
753.866, 368.105
755.156, 292.070
756.447, 311.032
757.737, 233.990
759.027, 185.945
760.316, 160.897
761.606, 136.844
762.896, 124.787
764.185, 103.591
765.474, 81.843
766.763, 77.564
768.051, 35.489
769.340, 33.408
770.628, 8.323
771.916, 39.229
773.204, 32.870
774.492, 12.006
775.780, 34.125
777.067, 33.717
778.354, 15.554
779.641, 16.616
780.928, 23.804
782.215, 23.985
783.501, 26.232
784.787, 15.471
786.073, 44.729
787.359, 86.018
788.645, 6.642
789.930, 35.705
791.216, 49.077
792.501, 19.520
793.786, 30.885
795.071, 1.689
796.355, 24.256
797.640, 54.177
798.924, 5.644
800.208, 52.120
801.492, 1.372
802.775, 3.859
804.059, 31.659
805.342, 23.196
806.625, 8.249
807.908, 42.305
809.191, 6.886
810.474, 29.525
811.756, 19.062
813.038, 21.664
814.320, 4.722
815.602, 70.896
816.884, 44.550
818.165, 37.233
819.446, 6.941
820.727, 6.657
822.008, 36.386
823.289, 11.859
824.569, 23.900
825.850, 42.682
827.130, 49.494
828.410, 26.341
829.690, 30.213
830.969, 10.113
832.249, 6.029
833.528, 20.038
834.807, 62.101
836.086, 21.158
837.364, 62.211
838.643, 48.259
839.921, 9.303
841.199, 59.339
842.477, 80.370
843.755, 90.397
845.033, 98.421
846.310, 148.440
847.587, 226.455
848.864, 248.467
850.141, 276.474
851.418, 360.477
852.694, 474.476
853.971, 600.471
855.247, 812.462
856.523, 967.449
857.798, 1178.432
859.074, 1346.412
860.349, 1397.387
861.624, 1515.358
862.899, 1523.326
864.174, 1434.290
865.449, 1340.249
866.723, 1200.206
867.998, 1141.158
869.272, 948.107
870.545, 874.052
871.819, 779.993
873.093, 664.930
874.366, 600.123
875.639, 526.794
876.912, 458.720
878.185, 381.644
879.458, 331.563
880.730, 288.480
882.002, 224.394
883.274, 198.304
884.546, 182.236
885.818, 165.113
887.090, 183.013
888.361, 147.909
889.632, 159.802
890.903, 163.691
892.174, 118.577
893.444, 172.465
894.715, 186.350
895.985, 163.231
897.255, 165.110
898.525, 213.985
899.795, 213.858
901.064, 199.734
902.334, 195.607
903.603, 190.482
904.872, 209.362
906.140, 233.239
907.409, 215.293
908.677, 193.003
909.946, 169.880
911.214, 194.755
912.482, 132.630
913.749, 168.507
915.017, 155.393
916.284, 123.288
917.551, 154.188
918.818, 198.095
920.085, 263.009
921.352, 272.814
922.618, 219.608
923.884, 270.286
925.150, 261.104
926.416, 329.710
927.682, 363.424
928.947, 366.938
930.213, 430.744
931.478, 477.475
932.743, 470.896
934.008, 555.920
935.272, 569.705
936.537, 633.582
937.801, 662.031
939.065, 683.837
940.329, 728.226
941.593, 712.795
942.856, 751.102
944.119, 747.614
945.383, 760.413
946.646, 740.967
947.908, 704.284
949.171, 642.107
950.433, 662.265
951.696, 681.168
952.958, 569.429
954.220, 570.703
955.481, 544.107
956.743, 532.553
958.004, 461.502
959.265, 478.096
960.526, 404.925
961.787, 426.757
963.048, 394.653
964.308, 456.835
965.569, 342.860
966.829, 349.311
968.089, 313.446
969.348, 289.122
970.608, 306.229
971.867, 275.059
973.126, 311.905
974.385, 245.068
975.644, 337.805
976.903, 261.703
978.161, 289.511
979.420, 298.925
980.678, 336.711
981.936, 339.277
983.193, 405.996
984.451, 384.945
985.708, 425.921
986.966, 543.023
988.223, 540.028
989.479, 666.144
990.736, 742.264
991.993, 884.025
993.249, 964.151
994.505, 1124.282
995.761, 1378.417
997.017, 1666.556
998.272, 1972.699
999.528, 2364.845
1000.783, 2782.232
1002.038, 3291.150
1003.293, 3766.308
1004.548, 4291.471
1005.802, 4885.636
1007.057, 5450.806
1008.311, 6221.978
1009.565, 6685.156
1010.818, 7355.337
1012.072, 7545.521
1013.326, 7615.708
1014.579, 7555.900
1015.832, 7456.094
1017.085, 7316.292
1018.338, 7296.495
1019.590, 7316.707
1020.842, 7506.922
1022.095, 7257.141
1023.347, 7297.366
1024.599, 7107.592
1025.850, 6937.823
1027.102, 6674.060
1028.353, 6572.298
1029.604, 6163.542
1030.855, 6135.787
1032.106, 5732.044
1033.356, 5484.308
1034.607, 5047.574
1035.857, 4619.848
1037.107, 4154.123
1038.357, 3757.404
1039.607, 3300.691
1040.856, 2949.980
1042.106, 2600.287
1043.355, 2384.555
1044.604, 2007.871
1045.852, 1883.174
1047.101, 1637.664
1048.350, 1458.973
1049.598, 1308.363
1050.846, 1134.931
1052.094, 1033.639
1053.342, 976.789
1054.589, 866.815
1055.837, 825.142
1057.084, 789.621
1058.331, 687.951
1059.578, 653.285
1060.824, 639.685
1062.071, 640.442
1063.317, 573.996
1064.563, 513.821
1065.809, 524.228
1067.055, 472.018
1068.301, 474.518
1069.546, 394.962
1070.791, 375.532
1072.036, 468.055
1073.281, 361.239
1074.526, 436.760
1075.771, 368.522
1077.015, 403.672
1078.259, 394.266
1079.503, 340.349
1080.747, 398.336
1081.991, 350.728
1083.234, 403.658
1084.478, 472.754
1085.721, 460.000
1086.964, 667.887
1088.206, 787.965
1089.449, 885.265
1090.691, 963.746
1091.934, 1085.637
1093.176, 969.596
1094.418, 861.593
1095.659, 717.226
1096.901, 720.940
1098.142, 759.564
1099.384, 710.379
1100.625, 846.469
1101.865, 770.116
1103.106, 694.088
1104.347, 539.930
1105.587, 437.000
1106.827, 375.279
1108.067, 369.953
1109.307, 349.143
1110.546, 339.926
1111.786, 281.877
1113.025, 259.367
1114.264, 268.120
1115.503, 221.922
1116.742, 281.805
1117.980, 245.589
1119.219, 240.992
1120.457, 171.807
1121.695, 175.584
1122.933, 228.557
1124.171, 178.401
1125.408, 205.346
1126.645, 259.659
1127.883, 228.657
1129.120, 199.199
1130.356, 278.965
1131.593, 239.639
1132.829, 249.509
1134.066, 201.187
1135.302, 203.885
1136.538, 222.182
1137.773, 202.612
1139.009, 154.813
1140.244, 225.569
1141.480, 110.231
1142.715, 162.078
1143.950, 166.109
1145.184, 188.785
1146.419, 193.642
1147.653, 128.276
1148.887, 180.169
1150.121, 158.947
1151.355, 138.624
1152.589, 167.371
1153.822, 70.107
1155.056, 134.863
1156.289, 114.615
1157.522, 142.312
1158.755, 134.917
1159.987, 158.777
1161.220, 93.336
1162.452, 118.888
1163.684, 116.534
1164.916, 79.224
1166.148, 111.860
1167.379, 137.939
1168.611, 149.694
1169.842, 58.378
1171.073, 96.114
1172.304, 144.840
1173.534, 62.540
1174.765, 96.108
1175.995, 109.795
1177.225, 100.369
1178.455, 100.850
1179.685, 103.480
1180.915, 75.518
1182.144, 97.032
1183.374, 92.101
1184.603, 71.772
1185.832, 83.362
1187.060, 82.644
1188.289, 59.033
1189.518, 42.631
1190.746, 16.840
1191.974, 43.512
1193.202, 51.024
1194.430, 5.357
1195.657, 50.880
1196.884, 32.580
1198.112, 19.072
1199.339, 17.285
1200.566, 15.412
1201.792, 25.161
1203.019, 62.224
1204.245, 31.561
1205.471, 72.625
1206.697, 174.011
1207.923, 43.178
1209.149, 2.562
1210.374, 14.803
1211.600, 34.684
1212.825, 43.587
1214.050, 17.478
1215.275, 28.450
1216.499, 27.208
1217.724, 12.813
1218.948, 24.769
1220.172, 6.138
1221.396, 27.786
1222.620, 1.767
1223.843, 36.337
1225.067, 15.525
1226.290, 2.614
1227.513, 0.783
1228.736, 69.029
1229.959, 31.032
1231.181, 33.247
1232.404, 3.514
1233.626, 3.337
1234.848, 15.966
1236.070, 50.826
1237.291, 12.799
1238.513, 41.410
1239.734, 5.024
1240.955, 4.605
1242.177, 41.169
1243.397, 24.720
1244.618, 47.260
1245.838, 15.786
1247.059, 4.383
1248.279, 47.874
1249.499, 10.333
1250.719, 7.229
1251.938, 7.187
1253.158, 61.383
1254.377, 51.989
1255.596, 11.645
1256.815, 29.727
1258.034, 16.037
1259.253, 0.324
1260.471, 39.604
1261.689, 29.847
1262.907, 22.438
1264.125, 39.372
1265.343, 3.564
1266.561, 37.740
1267.778, 47.898
1268.995, 4.957
1270.212, 35.165
1271.429, 24.272
1272.646, 9.637
1273.862, 22.432
1275.079, 28.518
1276.295, 63.520
1277.511, 87.529
1278.727, 41.513
1279.943, 95.480
1281.158, 82.429
1282.373, 7.638
1283.589, 60.271
1284.804, 44.151
1286.019, 65.010
1287.233, 86.847
1288.448, 41.662
1289.662, 23.459
1290.876, 80.237
1292.090, 56.998
1293.304, 66.737
1294.518, 32.459
1295.731, 51.164
1296.944, 73.850
1298.158, 55.518
1299.371, 57.168
1300.583, 50.797
1301.796, 50.407
1303.008, 61.999
1304.221, 82.573
1305.433, 32.131
1306.645, 101.669
1307.856, 109.192
1309.068, 66.697
1310.280, 54.185
1311.491, 65.656
1312.702, 3.895
1313.913, 37.531
1315.124, 48.941
1316.334, 38.659
1317.545, 38.992
1318.755, 41.349
1319.965, 69.690
1321.175, 41.014
1322.385, 64.322
1323.594, 84.612
1324.804, 13.113
1326.013, 17.137
1327.222, 70.367
1328.431, 15.582
1329.639, 36.778
1330.848, 45.958
1332.056, 9.120
1333.265, 101.263
1334.473, 40.391
1335.680, 51.488
1336.888, 116.613
1338.096, 47.675
1339.303, 90.740
1340.510, 41.605
1341.717, 26.639
1342.924, 76.580
1344.131, 68.332
1345.337, 78.173
1346.544, 95.080
1347.750, 45.339
1348.956, 96.287
1350.162, 93.230
1351.367, 35.152
1352.573, 102.055
1353.778, 55.881
1354.983, 12.339
1356.188, 104.990
1357.393, 99.359
1358.598, 57.137
1359.802, 79.887
1361.007, 23.552
1362.211, 56.264
1363.415, 136.840
1364.619, 32.454
1365.822, 105.400
1367.026, 51.001
1368.229, 120.354
1369.432, 88.315
1370.635, 60.826
1371.838, 109.852
1373.041, 144.969
1374.243, 29.659
1375.446, 55.810
1376.648, 134.799
1377.850, 23.682
1379.052, 104.879
1380.253, 2.887
1381.455, 72.684
1382.656, 77.037
1383.857, 46.558
1385.058, 73.740
1386.259, 110.913
1387.459, 57.483
1388.660, 69.459
1389.860, 74.846
1391.060, 28.526
1392.260, 84.858
1393.460, 91.988
1394.660, 74.162
1395.859, 120.861
1397.059, 33.478
1398.258, 38.970
1399.457, 35.883
1400.655, 27.187
1401.854, 80.525
1403.052, 51.143
1404.251, 27.613
1405.449, 106.181
1406.647, 67.914
1407.845, 9.613
1409.042, 46.965
1410.240, 39.378
1411.437, 62.497
1412.634, 33.815
1413.831, 66.854
1415.028, 94.132
1416.224, 58.264
1417.421, 30.385
1418.617, 135.417
1419.813, 22.838
1421.009, 46.903
1422.205, 128.077
1423.401, 69.839
1424.596, 80.490
1425.791, 88.324
1426.986, 50.086
1428.181, 60.179
1429.376, 105.328
1430.571, 23.109
1431.765, 96.587
1432.960, 52.241
1434.154, 102.954
1435.348, 112.620
1436.541, 54.615
1437.735, 87.284
1438.929, 89.071
1440.122, 84.656
1441.315, 55.151
1442.508, 53.777
1443.701, 18.534
1444.893, 124.215
1446.086, 62.620
1447.278, 43.362
1448.470, 90.912
1449.662, 51.581
1450.854, 115.363
1452.046, 103.158
1453.237, 65.661
1454.428, 79.227
1455.619, 74.152
1456.810, 80.012
1458.001, 131.819
1459.192, 9.358
1460.382, 30.430
1461.573, 128.025
1462.763, 33.866
1463.953, 56.645
1465.143, 96.419
1466.332, 90.138
1467.522, 81.945
1468.711, 101.802
1469.900, 75.459
1471.089, 120.299
1472.278, 94.120
1473.467, 31.924
1474.655, 121.712
1475.843, 30.442
1477.032, 81.238
1478.220, 94.035
1479.407, 395.863
1480.595, 322.424
1481.783, 305.591
1482.970, 324.645
1484.157, 118.627
1485.344, 63.622
1486.531, 0.639
1487.718, 116.700
1488.904, 43.789
1490.090, 69.902
1491.277, 121.033
1492.463, 5.804
1493.648, 101.414
1494.834, 76.510
1496.020, 17.741
1497.205, 131.001
1498.390, 78.295
1499.575, 23.623
1500.760, 160.992
1501.945, 10.598
1503.129, 43.863
1504.314, 116.381
1505.498, 73.958
1506.682, 98.595
1507.866, 85.293
1509.049, 79.517
1510.233, 52.897
1511.416, 80.592
1512.600, 66.550
1513.783, 77.158
1514.966, 64.609
1516.148, 45.376
1517.331, 26.482
1518.513, 12.668
1519.695, 2.069
1520.878, 79.351
1522.059, 44.129
1523.241, 180.977
1524.423, 72.720
1525.604, 20.406
1526.785, 101.251
1527.967, 27.550
1529.147, 0.000
##END=



