##NAMES=Enstatite
##RRUFFID=R050644
##IDEAL CHEMISTRY=MgSiO_3_
##LOCALITY=Morogoro, Tanzania
##OWNER=RRUFF
##SOURCE=Jibamitra Ganguly
##DESCRIPTION=Light brown crystal fragment
##STATUS=The identification of this mineral has been confirmed by X-ray diffraction and chemical analysis
##URL=rruff.info/R050644
##MEASURED CHEMISTRY=(Mg_0.90_Fe_0.10_)SiO_3_
##PIN_ID=L00720
##ORIENTATION=Laser parallel to c* (0 0 1). Fiducial mark perpendicular to laser is parallel to -a [-1 0 0]
51.43100, 0.0000000E+00
52.67100, 28.10190
53.91000, 33.99420
55.14900, 56.79712
56.38700, 63.52853
57.62600, 93.29016
58.86400, 86.48779
60.10300, 53.35846
61.34100, 6.423920
62.57900, 7.462494
63.81700, 19.47162
65.05400, 35.76910
66.29200, 13.53052
67.52900, 148.3274
68.76700, 401.5093
70.00400, 714.9651
71.24100, 1256.590
72.47700, 1944.285
73.71400, 2455.958
74.95100, 4380.525
76.18700, 7852.919
77.42300, 10976.08
78.65900, 10776.00
79.89500, 7845.784
81.13100, 6014.349
82.36700, 5408.623
83.60200, 4192.542
84.83700, 2396.051
86.07200, 1276.105
87.30800, 785.6663
88.54200, 570.7000
89.77700, 560.1698
91.01200, 598.0364
92.24600, 517.2645
93.48000, 422.8269
94.71400, 411.7040
95.94800, 349.8790
97.18200, 294.3383
98.41600, 345.0701
99.64900, 342.0646
100.8830, 260.3125
102.1160, 288.8062
103.3490, 344.5574
104.5820, 537.8696
105.8150, 889.6238
107.0470, 798.4667
108.2800, 765.1306
109.5120, 730.8794
110.7440, 466.8076
111.9760, 368.8182
113.2080, 419.9155
114.4400, 541.1036
115.6710, 478.3853
116.9030, 450.7639
118.1340, 392.2412
119.3650, 386.8190
120.5960, 425.4989
121.8270, 448.2828
123.0580, 474.1732
124.2880, 420.1785
125.5190, 415.2788
126.7490, 421.3899
127.9790, 512.5093
129.2090, 620.6345
130.4390, 610.7644
131.6680, 612.8909
132.8980, 731.0256
134.1270, 840.2141
135.3560, 880.4639
136.5850, 1128.781
137.8140, 1370.169
139.0430, 1538.635
140.2710, 1729.181
141.5000, 1915.811
142.7280, 2080.527
143.9560, 2300.330
145.1840, 2543.224
146.4120, 2689.208
147.6390, 2720.286
148.8670, 2836.456
150.0940, 2828.721
151.3210, 2700.081
152.5490, 2529.536
153.7750, 2352.336
155.0020, 2225.035
156.2290, 1851.754
157.4550, 1662.549
158.6810, 1531.263
159.9080, 1425.989
161.1340, 1307.449
162.3590, 1317.828
163.5850, 1264.792
164.8110, 1211.122
166.0360, 1112.558
167.2610, 1153.099
168.4860, 1095.747
169.7110, 1066.498
170.9360, 1127.353
172.1610, 1075.311
173.3850, 1031.371
174.6100, 1144.532
175.8340, 1277.793
177.0580, 1463.284
178.2820, 1666.615
179.5050, 2039.168
180.7290, 2463.810
181.9520, 2909.541
183.1760, 3329.359
184.3990, 3785.264
185.6220, 4481.257
186.8450, 5284.338
188.0670, 6221.504
189.2900, 5367.756
190.5120, 5091.096
191.7340, 5060.521
192.9560, 5152.057
194.1780, 4850.743
195.4000, 4351.651
196.6220, 3730.777
197.8430, 3239.103
199.0640, 2734.619
200.2860, 2469.126
201.5070, 2117.599
202.7270, 1798.045
203.9480, 1476.403
205.1690, 1236.731
206.3890, 1015.081
207.6090, 853.5864
208.8290, 753.5135
210.0490, 628.5570
211.2690, 515.7104
212.4890, 542.6173
213.7080, 483.2330
214.9280, 479.0012
216.1470, 569.9155
217.3660, 578.9700
218.5850, 699.1592
219.8030, 860.4780
221.0220, 1159.922
222.2400, 1485.488
223.4590, 2084.170
224.6770, 2888.966
225.8950, 4014.872
227.1120, 5017.885
228.3300, 5996.001
229.5480, 6823.214
230.7650, 7964.527
231.9820, 9112.934
233.1990, 10182.43
234.4160, 10707.01
235.6330, 9596.688
236.8490, 8343.446
238.0660, 7986.285
239.2820, 7125.210
240.4980, 5616.212
241.7140, 4078.295
242.9300, 2667.455
244.1460, 1716.692
245.3610, 1071.004
246.5770, 704.3904
247.7920, 491.8501
249.0070, 238.3821
250.2220, 137.9851
251.4370, 134.6565
252.6510, 54.39038
253.8660, 6.817871
255.0800, 15.02979
256.2940, 42.93457
257.5080, 3.856445
258.7220, 44.49902
259.9360, 15.01758
261.1490, 211.8958
262.3630, 204.7529
263.5760, 293.5884
264.7890, 247.4209
266.0020, 229.2410
267.2150, 244.0457
268.4270, 227.8381
269.6400, 130.6157
270.8520, 85.35986
272.0640, 27.06348
273.2760, 22.71826
274.4880, 97.67651
275.7000, 103.1248
276.9120, 215.6267
278.1230, 262.1824
279.3340, 309.7920
280.5450, 361.4551
281.7560, 511.1721
282.9670, 596.9424
284.1780, 791.7661
285.3880, 1042.643
286.5980, 1480.572
287.8090, 1844.554
289.0190, 2413.587
290.2290, 2797.673
291.4380, 3335.811
292.6480, 3942.000
293.8570, 4518.240
295.0670, 4895.530
296.2760, 5028.871
297.4850, 5150.262
298.6930, 5151.702
299.9020, 5021.190
301.1110, 4884.725
302.3190, 4706.296
303.5270, 4472.822
304.7350, 4296.267
305.9430, 4491.654
307.1510, 4712.011
308.3580, 5361.398
309.5660, 6255.833
310.7730, 7160.320
311.9800, 8316.858
313.1870, 9466.443
314.3940, 10537.08
315.6010, 11455.77
316.8070, 11946.51
318.0130, 12547.30
319.2200, 12597.15
320.4260, 12728.04
321.6310, 13098.98
322.8370, 13251.99
324.0430, 13384.04
325.2480, 14302.15
326.4540, 15519.31
327.6590, 17961.52
328.8640, 21003.78
330.0680, 25560.09
331.2730, 30622.46
332.4780, 35726.65
333.6820, 40385.79
334.8860, 45387.34
336.0900, 49376.31
337.2940, 51691.43
338.4980, 52739.14
339.7010, 52185.14
340.9050, 50650.10
342.1080, 48007.50
343.3110, 43753.66
344.5140, 38366.81
345.7170, 32673.21
346.9200, 26910.97
348.1220, 22395.38
349.3240, 18242.98
350.5270, 15218.74
351.7290, 12791.29
352.9310, 11173.76
354.1320, 9531.518
355.3340, 8626.148
356.5350, 7661.684
357.7370, 7050.430
358.9380, 6509.878
360.1390, 6186.367
361.3400, 5805.904
362.5400, 5745.482
363.7410, 5637.104
364.9410, 5729.767
366.1410, 5830.473
367.3410, 6142.220
368.5410, 6675.010
369.7410, 7289.839
370.9400, 7879.708
372.1400, 8719.620
373.3390, 9289.566
374.5380, 10054.56
375.7370, 10686.59
376.9360, 11194.65
378.1350, 11466.76
379.3330, 11732.90
380.5310, 11810.08
381.7300, 12057.31
382.9280, 12479.56
384.1260, 12999.86
385.3230, 13585.19
386.5210, 15012.56
387.7180, 16628.96
388.9160, 18630.40
390.1130, 20869.88
391.3100, 23391.39
392.5060, 25814.95
393.7030, 28067.53
394.9000, 29896.15
396.0960, 30941.80
397.2920, 31750.49
398.4880, 31868.03
399.6840, 31296.79
400.8800, 30527.58
402.0750, 29301.36
403.2710, 27765.13
404.4660, 25998.68
405.6610, 24932.85
406.8560, 23598.36
408.0510, 22635.57
409.2450, 21720.09
410.4400, 21130.52
411.6340, 20276.24
412.8280, 19769.75
414.0220, 18965.62
415.2160, 18081.28
416.4100, 17001.83
417.6030, 15767.53
418.7970, 14488.81
419.9900, 12879.13
421.1830, 11456.48
422.3760, 9997.860
423.5690, 8689.271
424.7610, 7093.718
425.9540, 5937.194
427.1460, 4923.700
428.3380, 4062.238
429.5300, 3435.807
430.7220, 2854.405
431.9140, 2499.033
433.1050, 2241.690
434.2970, 1982.376
435.4880, 1873.092
436.6790, 1754.837
437.8700, 1583.610
439.0610, 1438.412
440.2510, 1359.240
441.4420, 1136.097
442.6320, 1087.981
443.8220, 997.8931
445.0120, 887.8313
446.2020, 769.7961
447.3910, 753.7881
448.5810, 624.8069
449.7700, 644.8533
450.9600, 673.9272
452.1490, 614.0281
453.3370, 508.1560
454.5260, 611.3108
455.7150, 496.4922
456.9030, 506.6995
458.0910, 370.2625
459.2800, 352.5210
460.4670, 279.5991
461.6550, 211.9316
462.8430, 203.3081
464.0300, 229.1543
465.2180, 261.3013
466.4050, 260.3162
467.5920, 227.1160
468.7790, 200.9785
469.9650, 260.3154
471.1520, 125.8376
472.3380, 85.57007
473.5250, 61.31128
474.7110, 67.11401
475.8970, 9.357910
477.0820, 70.79102
478.2680, 113.2793
479.4540, 148.8127
480.6390, 88.40234
481.8240, 127.0271
483.0090, 90.70630
484.1940, 79.42334
485.3780, 126.1641
486.5630, 175.9590
487.7470, 127.8362
488.9320, 115.7517
490.1160, 73.69946
491.3000, 93.65063
492.4830, 59.63794
493.6670, 54.62256
494.8500, 70.60718
496.0340, 91.59790
497.2170, 34.61450
498.4000, 33.37524
499.5820, 26.40869
500.7650, 80.47974
501.9480, 172.5840
503.1300, 194.7217
504.3120, 321.8896
505.4940, 479.0867
506.6760, 644.3271
507.8580, 798.5913
509.0390, 1032.893
510.2210, 1426.226
511.4020, 1876.617
512.5830, 2415.040
513.7640, 3073.510
514.9450, 3828.017
516.1250, 4698.548
517.3060, 5698.131
518.4860, 6580.749
519.6660, 7444.418
520.8460, 8059.125
522.0260, 8537.859
523.2060, 8834.635
524.3850, 8691.444
525.5650, 8519.271
526.7440, 8448.118
527.9230, 8199.974
529.1020, 7822.860
530.2810, 7494.762
531.4590, 7516.682
532.6380, 7463.625
533.8160, 7521.577
534.9940, 7504.551
536.1720, 7443.563
537.3500, 7359.153
538.5270, 7280.564
539.7050, 7066.591
540.8820, 6909.628
542.0590, 6709.670
543.2360, 6374.717
544.4130, 6306.768
545.5900, 6072.829
546.7660, 6030.896
547.9430, 5825.001
549.1190, 5593.141
550.2950, 5246.338
551.4710, 4776.580
552.6470, 4223.861
553.8220, 3759.187
554.9980, 3055.552
556.1730, 2460.940
557.3480, 2071.340
558.5230, 1742.745
559.6980, 1586.155
560.8730, 1356.563
562.0470, 1260.972
563.2220, 1104.379
564.3960, 1041.786
565.5700, 971.1907
566.7440, 994.5945
567.9170, 1001.996
569.0910, 947.3955
570.2640, 979.7922
571.4380, 1002.187
572.6110, 1021.577
573.7840, 1001.965
574.9570, 1006.155
576.1290, 973.1956
577.3020, 961.1055
578.4740, 876.4773
579.6460, 807.8442
580.8180, 716.2058
581.9900, 631.5625
583.1620, 542.9136
584.3330, 507.2588
585.5040, 503.5979
586.6760, 420.9304
587.8470, 374.2568
589.0180, 372.5762
590.1880, 320.8884
591.3590, 317.1929
592.5290, 276.4900
593.7000, 242.3652
594.8700, 220.0603
596.0400, 161.3330
597.2090, 143.5967
598.3790, 83.85156
599.5490, 127.0930
600.7180, 62.32544
601.8870, 115.5396
603.0560, 53.74316
604.2250, 78.92578
605.3940, 31.09253
606.5620, 36.23120
607.7300, 44.34351
608.8990, 86.44995
610.0670, 64.52148
611.2350, 58.57227
612.4020, 100.6011
613.5700, 22.61499
614.7370, 127.1287
615.9050, 98.30981
617.0720, 118.6355
618.2390, 149.5305
619.4060, 158.5586
620.5720, 221.9541
621.7390, 227.0752
622.9050, 164.0215
624.0710, 303.8569
625.2370, 306.1987
626.4030, 310.2063
627.5690, 419.7871
628.7340, 491.6250
629.9000, 414.3340
631.0650, 591.5242
632.2300, 574.1060
633.3950, 620.1672
634.5600, 795.1138
635.7240, 873.8157
636.8890, 997.9727
638.0530, 1132.692
639.2170, 1304.518
640.3810, 1614.253
641.5450, 1780.027
642.7080, 2115.817
643.8720, 2457.999
645.0350, 2902.950
646.1980, 3439.312
647.3610, 4294.054
648.5240, 5095.149
649.6870, 6224.829
650.8490, 7715.943
652.0120, 9157.875
653.1740, 11139.05
654.3360, 13214.68
655.4980, 15386.72
656.6600, 17526.71
657.8210, 19269.53
658.9830, 20193.98
660.1440, 20709.78
661.3050, 20751.94
662.4660, 19833.10
663.6270, 18851.37
664.7870, 17257.56
665.9480, 15665.30
667.1080, 13955.13
668.2680, 12736.39
669.4280, 11932.01
670.5880, 11487.32
671.7480, 11514.64
672.9070, 12188.97
674.0670, 13014.87
675.2260, 14467.26
676.3850, 16050.90
677.5440, 17475.69
678.7030, 18756.74
679.8610, 19950.14
681.0200, 20463.24
682.1780, 20477.22
683.3360, 19926.17
684.4940, 18754.10
685.6520, 16869.99
686.8090, 14950.87
687.9670, 12769.71
689.1240, 10832.52
690.2810, 8873.314
691.4380, 7217.077
692.5950, 5922.812
693.7520, 4794.517
694.9080, 3997.195
696.0650, 3335.843
697.2210, 2849.463
698.3770, 2338.056
699.5330, 2173.619
700.6880, 1908.153
701.8440, 1654.659
702.9990, 1411.135
704.1550, 1232.583
705.3100, 1159.003
706.4650, 1040.393
707.6190, 962.7554
708.7740, 860.0881
709.9290, 798.3926
711.0830, 690.6677
712.2370, 728.9143
713.3910, 1168.132
714.5450, 1087.321
715.6980, 1304.482
716.8520, 718.6138
718.0050, 386.7163
719.1580, 370.7908
720.3110, 375.8364
721.4640, 359.8535
722.6170, 375.8420
723.7700, 319.8018
724.9220, 313.7334
726.0740, 329.6365
727.2260, 371.5110
728.3780, 285.3574
729.5300, 306.1753
730.6810, 286.9651
731.8330, 247.7266
732.9840, 246.4600
734.1350, 229.1655
735.2860, 250.8430
736.4370, 235.4924
737.5880, 209.7844
738.7380, 166.3782
739.8880, 168.1504
741.0390, 169.6655
742.1890, 202.1338
743.3380, 219.1292
744.4880, 194.8208
745.6380, 210.6409
746.7870, 135.6731
747.9360, 164.6382
749.0850, 151.1250
750.2340, 154.4221
751.3830, 172.5049
752.5310, 65.57446
753.6800, 136.8032
754.8280, 111.8228
755.9760, 139.0166
757.1240, 60.23682
758.2720, 13.45996
759.4190, 72.68042
760.5670, 63.90088
761.7140, 80.12988
762.8610, 8.361084
764.0080, 52.57251
765.1550, 100.7917
766.3020, 31.96411
767.4480, 35.74683
768.5950, 69.56177
769.7410, 18.56421
770.8870, 73.31763
772.0330, 52.26343
773.1780, 63.26221
774.3240, 27.31543
775.4690, 50.39868
776.6140, 82.53687
777.7590, 68.76123
778.9040, 33.06274
780.0490, 34.42480
781.1940, 25.84790
782.3380, 23.32666
783.4820, 78.85889
784.6260, 6.473389
785.7700, 61.13110
786.9140, 39.86060
788.0580, 143.6494
789.2010, 46.55176
790.3450, 99.51538
791.4880, 76.56787
792.6310, 20.69580
793.7730, 132.8696
794.9160, 68.14673
796.0590, 127.4927
797.2010, 86.93750
798.3430, 46.45850
799.4850, 112.0339
800.6270, 67.69727
801.7690, 20.42432
802.9100, 15.18848
804.0520, 2.314453
805.1930, 74.81055
806.3340, 18.69751
807.4750, 31.61670
808.6160, 49.57373
809.7560, 1.422852
810.8970, 62.59961
812.0370, 24.67236
813.1770, 30.77539
814.3170, 50.90991
815.4570, 13.91455
816.5960, 11.27466
817.7360, 2.482910
818.8750, 14.29370
820.0140, 49.05786
821.1530, 14.80981
822.2920, 33.55054
823.4310, 38.27979
824.5690, 161.9980
825.7070, 138.0830
826.8460, 131.4038
827.9840, 168.0918
829.1220, 144.7705
830.2590, 170.4402
831.3970, 165.1013
832.5340, 165.7542
833.6710, 263.3992
834.8080, 287.0369
835.9450, 253.6670
837.0820, 358.2905
838.2190, 394.9077
839.3550, 419.5186
840.4910, 516.1240
841.6270, 599.7239
842.7630, 782.3188
843.8990, 981.9092
845.0350, 1180.495
846.1700, 1494.078
847.3060, 1812.657
848.4410, 2158.233
849.5760, 2528.806
850.7100, 2936.376
851.8450, 3237.945
852.9800, 3545.513
854.1140, 3675.079
855.2480, 3664.644
856.3820, 3554.209
857.5160, 3315.774
858.6500, 3029.339
859.7830, 2732.905
860.9170, 2409.471
862.0500, 2126.716
863.1830, 1756.610
864.3160, 1561.181
865.4480, 1275.755
866.5810, 1043.332
867.7130, 941.9121
868.8460, 855.4951
869.9780, 720.0820
871.1100, 670.6729
872.2410, 552.2681
873.3730, 547.8682
874.5050, 468.4751
875.6360, 408.0876
876.7670, 378.7097
877.8980, 438.3381
879.0290, 361.9788
880.1590, 365.6284
881.2900, 314.2942
882.4200, 317.9746
883.5500, 324.6509
884.6800, 313.3562
885.8100, 355.0745
886.9400, 394.8064
888.0690, 400.5488
889.1990, 457.7778
890.3280, 456.5193
891.4570, 413.2742
892.5860, 477.0681
893.7140, 447.3433
894.8430, 472.0720
895.9710, 460.6584
897.1000, 478.1060
898.2280, 477.7510
899.3560, 506.4849
900.4830, 534.8364
901.6110, 520.6738
902.7380, 532.0527
903.8660, 599.2500
904.9930, 676.3818
906.1200, 686.9692
907.2460, 807.9824
908.3730, 899.3770
909.5000, 1018.144
910.6260, 1133.230
911.7520, 1320.933
912.8780, 1614.685
914.0040, 1841.371
915.1290, 2258.369
916.2550, 2697.356
917.3800, 3381.959
918.5050, 4106.797
919.6300, 5104.231
920.7550, 6022.291
921.8800, 7104.010
923.0040, 7954.147
924.1290, 8822.864
925.2530, 9353.764
926.3770, 9596.438
927.5010, 9765.654
928.6250, 9616.479
929.7480, 9243.382
930.8720, 9149.451
931.9950, 8562.928
933.1180, 8396.074
934.2410, 8088.887
935.3640, 7588.697
936.4860, 7326.422
937.6090, 6909.255
938.7310, 6368.554
939.8530, 5832.783
940.9750, 5301.597
942.0970, 4656.075
943.2180, 4122.903
944.3400, 3571.752
945.4610, 3231.620
946.5820, 2790.944
947.7030, 2366.789
948.8240, 2158.396
949.9450, 1865.890
951.0650, 1625.138
952.1860, 1497.077
953.3060, 1343.342
954.4260, 1216.116
955.5460, 1143.239
956.6650, 1051.766
957.7850, 933.3445
958.9040, 921.9780
960.0230, 954.6650
961.1420, 897.4033
962.2610, 825.1926
963.3800, 842.0352
964.4990, 817.9241
965.6170, 762.8652
966.7350, 739.8467
967.8530, 785.8708
968.9710, 768.5574
970.0890, 804.0520
971.2070, 825.2073
972.3240, 877.4116
973.4410, 945.6665
974.5580, 992.7852
975.6750, 1030.311
976.7920, 1134.703
977.9090, 1214.154
979.0250, 1321.648
980.1410, 1428.188
981.2580, 1556.777
982.3740, 1719.424
983.4890, 1923.119
984.6050, 2110.935
985.7200, 2364.939
986.8360, 2608.491
987.9510, 2985.388
989.0660, 3381.332
990.1810, 3882.321
991.2950, 4355.350
992.4100, 5049.427
993.5240, 5853.545
994.6390, 6721.703
995.7530, 7774.903
996.8660, 9071.147
997.9800, 10467.43
999.0940, 12235.76
1000.207, 14226.13
1001.320, 16522.54
1002.433, 19371.00
1003.546, 22456.49
1004.659, 25654.02
1005.772, 29097.61
1006.884, 31857.22
1007.996, 34383.89
1009.108, 36148.58
1010.220, 37304.32
1011.332, 37521.11
1012.444, 37851.93
1013.555, 37781.80
1014.666, 38415.71
1015.777, 38662.65
1016.888, 39791.63
1017.999, 41935.66
1019.110, 43475.74
1020.220, 45692.84
1021.331, 48368.98
1022.441, 51299.17
1023.551, 53245.41
1024.661, 55919.68
1025.770, 57888.99
1026.880, 59827.33
1027.989, 60353.73
1029.098, 60563.19
1030.207, 59467.03
1031.316, 57881.56
1032.425, 55075.13
1033.533, 51472.74
1034.642, 47701.41
1035.750, 43625.11
1036.858, 39460.87
1037.966, 35480.70
1039.073, 31764.59
1040.181, 27939.52
1041.288, 24584.53
1042.396, 21619.60
1043.503, 19005.74
1044.610, 16668.94
1045.716, 14364.20
1046.823, 12697.53
1047.929, 10971.92
1049.036, 9813.378
1050.142, 8645.211
1051.248, 7821.779
1052.353, 7067.398
1053.459, 6237.326
1054.564, 5711.054
1055.670, 5011.854
1056.775, 4549.163
1057.880, 4066.100
1058.985, 3623.095
1060.089, 3226.471
1061.194, 3054.594
1062.298, 2528.578
1063.402, 2406.459
1064.506, 2135.524
1065.610, 1902.714
1066.713, 1685.034
1067.817, 1543.539
1068.920, 1408.177
1070.023, 1278.451
1071.126, 1180.301
1072.229, 1081.535
1073.332, 1007.553
1074.435, 934.0239
1075.537, 886.5032
1076.639, 831.9685
1077.741, 769.1426
1078.843, 732.8721
1079.945, 651.3794
1081.046, 582.8267
1082.148, 537.3416
1083.249, 455.1606
1084.350, 482.9751
1085.451, 460.1072
1086.551, 404.3462
1087.652, 442.2085
1088.752, 405.3911
1089.853, 308.1309
1090.953, 292.5039
1092.053, 296.6333
1093.152, 330.1450
1094.252, 268.6045
1095.351, 296.4534
1096.451, 317.8733
1097.550, 243.5010
1098.649, 263.5283
1099.748, 320.0066
1100.846, 244.0894
1101.945, 250.3533
1103.043, 182.1211
1104.141, 213.0535
1105.239, 224.3242
1106.337, 209.5837
1107.434, 224.6650
1108.532, 197.7666
1109.629, 208.7183
1110.726, 181.3887
1111.823, 237.6157
1112.920, 174.2649
1114.017, 132.3533
1115.113, 179.7158
1116.210, 213.7649
1117.306, 215.4668
1118.402, 196.4067
1119.498, 223.7104
1120.593, 218.3147
1121.689, 184.0972
1122.784, 219.1475
1123.879, 261.4243
1124.974, 218.4673
1126.069, 236.7842
1127.164, 242.2534
1128.259, 244.2371
1129.353, 287.8640
1130.447, 197.8901
1131.541, 282.3523
1132.635, 102.5654
1133.729, 196.5781
1134.822, 220.7874
1135.916, 206.3799
1137.009, 176.6597
1138.102, 155.6548
1139.195, 157.8616
1140.288, 164.9448
1141.380, 153.2725
1142.473, 163.0776
1143.565, 140.0730
1144.657, 139.2192
1145.749, 121.2217
1146.841, 105.2803
1147.932, 37.35962
1149.024, 100.3738
1150.115, 83.43896
1151.206, 37.50317
1152.297, 60.71191
1153.388, 104.6233
1154.479, 63.78687
1155.569, 36.91431
1156.659, 81.98071
1157.750, 205.0112
1158.839, 109.8428
1159.929, 62.20679
1161.019, 26.76221
1162.108, 91.26367
1163.198, 3.288818
1164.287, 16.31470
1165.376, 101.3367
1166.465, 57.35669
1167.553, 9.374512
1168.642, 58.38916
1169.730, 83.40088
1170.818, 47.40918
1171.906, 75.41333
1172.994, 122.4131
1174.082, 25.40796
1175.170, 59.39746
1176.257, 66.38110
1177.344, 33.35852
1178.431, 11.32922
1179.518, 32.29285
1180.605, 17.75122
1181.691, 22.22473
1182.778, 76.31470
1183.864, 12.75842
1184.950, 35.84387
1186.036, 13.05054
1187.122, 19.06519
1188.207, 14.80432
1189.292, 24.66187
1190.378, 37.49207
1191.463, 29.67151
1192.548, 59.87415
1193.632, 19.11621
1194.717, 87.37915
1195.801, 54.61011
1196.886, 53.97034
1197.970, 8.627808
1199.054, 53.78906
1200.137, 69.17383
1201.221, 59.63855
1202.305, 8.112305
1203.388, 18.70044
1204.471, 55.31909
1205.554, 116.9886
1206.637, 68.74255
1207.719, 70.55664
1208.802, 22.31482
1209.884, 13.22900
1210.966, 26.17737
1212.048, 41.16785
1213.130, 43.91052
1214.212, 57.93005
1215.293, 77.08691
1216.374, 61.07056
1217.456, 21.47314
1218.536, 40.81372
1219.617, 32.06494
1220.698, 40.51477
1221.778, 35.02271
1222.859, 23.58667
1223.939, 21.20154
1225.019, 25.86682
1226.099, 1.585815
1227.178, 19.34668
1228.258, 30.84058
1229.337, 20.99902
1230.417, 34.12390
1231.496, 7.780640
1232.574, 58.26587
1233.653, 0.2863770
1234.732, 3.739136
1235.810, 15.18652
1236.888, 50.07214
1237.966, 2.928345
1239.044, 25.26306
1240.122, 36.48267
1241.199, 24.19373
