##NAMES=Enstatite
##RRUFFID=R070550
##IDEAL CHEMISTRY=MgSiO_3_
##LOCALITY=Tanzania
##OWNER=RRUFF
##SOURCE=www.multicolour.com
##DESCRIPTION=Brown, translucent, vitreous crystal fragment
##STATUS=The identification of this mineral has been confirmed by X-ray diffraction and chemical analysis
##URL=rruff.info/R070550
##MEASURED CHEMISTRY=(Mg_0.90_Fe_0.10_)_Î£=1_Si_1.00_O_3_
##PIN_ID=L01735
##ORIENTATION=Laser parallel to -b* (0 -1 0). Fiducial mark perpendicular to laser is parallel to c [0 0 1]
112.8890, 0.0000000E+00
114.1310, 4.819824
115.3720, 3.051758
116.6130, 83.58887
117.8540, 448.6758
119.0950, 762.7969
120.3360, 1481.594
121.5760, 2283.884
122.8160, 3065.069
124.0560, 3543.422
125.2960, 4001.196
126.5350, 4996.496
127.7750, 6121.672
129.0140, 7882.372
130.2530, 9598.946
131.4920, 11180.42
132.7300, 11951.72
133.9690, 11067.85
135.2070, 8982.939
136.4450, 6721.062
137.6830, 5000.291
138.9210, 3884.860
140.1580, 3181.113
141.3950, 2870.362
142.6330, 2646.733
143.8690, 2819.118
145.1060, 2866.131
146.3430, 2860.278
147.5790, 2782.299
148.8150, 2623.829
150.0510, 2532.556
151.2870, 2601.784
152.5220, 2404.450
153.7580, 2250.528
154.9930, 1995.998
156.2280, 1476.881
157.4620, 1142.133
158.6970, 850.7256
159.9310, 623.6440
161.1660, 479.8755
162.4000, 396.4077
163.6330, 360.9077
164.8670, 347.9810
166.1000, 261.4731
167.3340, 150.3535
168.5670, 151.4478
169.8000, 97.80078
171.0320, 50.40771
172.2650, 21.27051
173.4970, 78.60547
174.7290, 13.78955
175.9610, 117.5430
177.1930, 96.60254
178.4240, 99.39209
179.6550, 100.9209
180.8870, 132.2007
182.1170, 55.23682
183.3480, 49.90137
184.5790, 58.47266
185.8090, 20.94043
187.0390, 62.79932
188.2690, 100.5415
189.4990, 228.3447
190.7290, 242.2378
191.9580, 409.2378
193.1870, 480.3540
194.4160, 574.5923
195.6450, 581.9556
196.8740, 554.4434
198.1020, 492.5977
199.3310, 605.8311
200.5590, 511.6704
201.7870, 624.6309
203.0140, 665.7061
204.2420, 636.8867
205.4690, 520.1646
206.6960, 405.5410
207.9230, 279.0156
209.1500, 151.5884
210.3760, 85.25879
211.6030, 33.02686
212.8290, 29.78369
214.0550, 125.1567
215.2810, 95.11133
216.5060, 57.97607
217.7320, 66.80176
218.9570, 39.36719
220.1820, 3.518066
221.4070, 106.6494
222.6320, 233.8311
223.8560, 425.0933
225.0800, 601.4517
226.3040, 1024.924
227.5280, 1442.528
228.7520, 1765.314
229.9760, 2025.284
231.1990, 2562.505
232.4220, 2948.961
233.6450, 3525.716
234.8680, 4171.766
236.0910, 4984.122
237.3130, 5471.623
238.5350, 5388.220
239.7570, 4880.084
240.9790, 3770.152
242.2010, 2663.350
243.4220, 1786.597
244.6430, 994.8857
245.8640, 575.2163
247.0850, 286.5864
248.3060, 84.99609
249.5270, 92.44531
250.7470, 25.06787
251.9670, 28.54346
253.1870, 47.01709
254.4070, 24.61377
255.6260, 172.2427
256.8460, 144.8960
258.0650, 200.5825
259.2840, 209.4004
260.5030, 225.1934
261.7220, 222.7041
262.9400, 269.1118
264.1580, 194.2061
265.3760, 207.7695
266.5940, 189.7090
267.8120, 121.9629
269.0290, 174.4785
270.2470, 245.2124
271.4640, 335.1353
272.6810, 368.2251
273.8980, 515.4648
275.1140, 596.8403
276.3310, 657.3252
277.5470, 442.8867
278.7630, 427.5161
279.9790, 291.2134
281.1940, 156.9805
282.4100, 17.18359
283.6250, 16.28125
284.8400, 64.68701
286.0550, 112.7163
287.2700, 268.8042
288.4850, 295.9502
289.6990, 480.1509
290.9130, 695.3228
292.1270, 803.3555
293.3410, 948.7402
294.5540, 1031.115
295.7680, 1136.983
296.9810, 1255.904
298.1940, 1294.896
299.4070, 1353.957
300.6200, 1391.086
301.8320, 1396.282
303.0450, 1295.542
304.2570, 1319.864
305.4690, 1427.248
306.6800, 1267.689
307.8920, 1476.189
309.1030, 1375.746
310.3150, 1513.283
311.5260, 1617.807
312.7360, 1637.359
313.9470, 1736.965
315.1580, 1673.625
316.3680, 1926.338
317.5780, 2219.103
318.7880, 2317.899
319.9980, 2669.004
321.2070, 2964.828
322.4170, 3230.369
323.6260, 3624.984
324.8350, 3987.577
326.0430, 4518.202
327.2520, 5073.487
328.4610, 6193.239
329.6690, 7393.259
330.8770, 8880.501
332.0850, 10364.80
333.2920, 11982.11
334.5000, 14035.46
335.7070, 15986.21
336.9140, 18316.37
338.1210, 20666.99
339.3280, 23167.02
340.5350, 25612.36
341.7410, 26943.16
342.9470, 27139.74
344.1540, 25561.64
345.3590, 22932.04
346.5650, 19588.45
347.7710, 16209.40
348.9760, 13131.73
350.1810, 10785.40
351.3860, 8758.627
352.5910, 7202.855
353.7950, 6257.725
355.0000, 5373.060
356.2040, 4753.654
357.4080, 4366.679
358.6120, 4023.248
359.8150, 3641.233
361.0190, 3304.222
362.2220, 2976.776
363.4250, 2686.768
364.6280, 2431.095
365.8310, 2194.784
367.0340, 2002.164
368.2360, 1962.509
369.4380, 1783.091
370.6400, 1875.615
371.8420, 1969.783
373.0440, 1903.021
374.2450, 2105.221
375.4470, 2271.435
376.6480, 2290.663
377.8490, 2507.904
379.0490, 2821.156
380.2500, 2900.418
381.4500, 3072.688
382.6510, 3121.967
383.8510, 3037.253
385.0500, 2895.544
386.2500, 2688.842
387.4500, 2471.143
388.6490, 2400.449
389.8480, 2376.760
391.0470, 2608.075
392.2460, 2713.394
393.4440, 2953.715
394.6430, 3249.041
395.8410, 3583.895
397.0390, 4031.666
398.2370, 4390.000
399.4340, 4688.337
400.6320, 4828.677
401.8290, 4920.300
403.0260, 5009.362
404.2230, 4836.708
405.4200, 4639.083
406.6170, 4458.485
407.8130, 4281.910
409.0090, 4352.354
410.2050, 4209.814
411.4010, 4293.288
412.5970, 4429.775
413.7920, 4474.275
414.9880, 4392.784
416.1830, 4487.303
417.3780, 4466.831
418.5730, 4325.365
419.7670, 3993.908
420.9620, 3799.457
422.1560, 3340.012
423.3500, 2861.573
424.5440, 2463.138
425.7380, 2128.708
426.9310, 1762.966
428.1240, 1518.246
429.3180, 1332.828
430.5110, 1208.414
431.7030, 1257.001
432.8960, 1416.593
434.0890, 1478.186
435.2810, 1625.781
436.4730, 1773.378
437.6650, 1985.979
438.8570, 2228.583
440.0480, 2426.191
441.2390, 2798.802
442.4310, 2971.414
443.6220, 3063.030
444.8120, 2992.647
446.0030, 2507.264
447.1940, 2023.883
448.3840, 1509.503
449.5740, 1225.122
450.7640, 901.7407
451.9540, 847.3589
453.1430, 758.9766
454.3330, 708.5928
455.5220, 686.2080
456.7110, 602.8218
457.9000, 707.4346
459.0890, 752.0444
460.2770, 663.6528
461.4650, 737.2573
462.6540, 768.8604
463.8420, 666.4771
465.0290, 586.0913
466.2170, 695.7261
467.4050, 622.3760
468.5920, 562.0420
469.7790, 496.7231
470.9660, 485.4253
472.1530, 460.1338
473.3390, 351.8467
474.5250, 399.5537
475.7120, 267.2593
476.8980, 159.9585
478.0840, 62.65088
479.2690, 44.33154
480.4550, 27.99707
481.6400, 17.64258
482.8250, 12.26318
484.0100, 42.14453
485.1950, 5.593262
486.3800, 25.07422
487.5640, 31.59375
488.7480, 110.1650
489.9320, 53.83252
491.1160, 26.55127
492.3000, 158.3018
493.4840, 118.1553
494.6670, 85.10938
495.8500, 110.1465
497.0330, 180.2739
498.2160, 151.5093
499.3990, 61.86768
500.5810, 51.30127
501.7630, 11.19971
502.9460, 24.28613
504.1280, 86.81396
505.3090, 154.3926
506.4910, 173.0796
507.6720, 66.89453
508.8540, 54.22119
510.0350, 59.67822
511.2160, 95.35107
512.3960, 102.3682
513.5770, 224.3687
514.7570, 135.3623
515.9380, 312.3501
517.1180, 368.3491
518.2970, 475.3447
519.4770, 441.3564
520.6570, 536.3618
521.8360, 792.3745
523.0150, 689.3813
524.1940, 615.3755
525.3730, 839.3750
526.5510, 814.3589
527.7300, 858.3281
528.9080, 949.3218
530.0860, 866.3350
531.2640, 970.3418
532.4420, 1069.343
533.6200, 1109.329
534.7970, 1196.301
535.9740, 1315.261
537.1510, 1497.207
538.3280, 1636.158
539.5050, 1727.104
540.6810, 1691.065
541.8580, 1646.008
543.0340, 1592.955
544.2100, 1400.883
545.3860, 1244.795
546.5610, 1146.697
547.7370, 1086.582
548.9120, 1036.459
550.0870, 1024.321
551.2620, 1182.164
552.4370, 978.9902
553.6120, 1016.797
554.7860, 822.5869
555.9600, 777.3574
557.1340, 684.1099
558.3080, 615.8428
559.4820, 541.5571
560.6560, 519.2520
561.8290, 440.9287
563.0020, 492.5854
564.1750, 367.2222
565.3480, 439.8398
566.5210, 365.4375
567.6930, 398.0156
568.8660, 291.5762
570.0380, 403.1187
571.2100, 409.6411
572.3820, 472.1431
573.5530, 411.6250
574.7250, 471.0864
575.8960, 532.5269
577.0670, 587.9473
578.2380, 546.3472
579.4090, 444.7246
580.5800, 600.0820
581.7500, 468.4185
582.9210, 464.7334
584.0910, 466.0269
585.2610, 522.2993
586.4300, 375.5498
587.6000, 388.7793
588.7690, 396.9863
589.9390, 401.1719
591.1080, 402.3643
592.2770, 417.4775
593.4450, 399.5972
594.6140, 398.6943
595.7820, 403.7700
596.9500, 383.8223
598.1190, 434.8530
599.2860, 516.8613
600.4540, 451.8472
601.6220, 425.8105
602.7890, 327.7505
603.9560, 323.6685
605.1230, 416.5625
606.2900, 480.4346
607.4570, 430.2832
608.6230, 406.1089
609.7890, 378.9106
610.9560, 419.6890
612.1220, 337.4438
613.2870, 344.1743
614.4530, 412.8813
615.6180, 459.5645
616.7840, 446.2231
617.9490, 530.8579
619.1140, 563.1133
620.2790, 555.9697
621.4430, 669.4731
622.6080, 863.4814
623.7720, 837.1865
624.9360, 754.9141
626.1000, 947.5601
627.2640, 970.2656
628.4270, 1078.317
629.5910, 1038.992
630.7540, 1071.680
631.9170, 1224.952
633.0800, 1179.140
634.2430, 1177.129
635.4050, 1389.679
636.5680, 1320.690
637.7300, 1429.139
638.8920, 1617.675
640.0540, 1829.781
641.2150, 2052.665
642.3770, 2318.148
643.5380, 2622.510
644.7000, 2935.834
645.8610, 3413.299
647.0210, 3876.146
648.1820, 4582.944
649.3430, 5312.952
650.5030, 6191.155
651.6630, 7391.884
652.8230, 8904.662
653.9830, 10479.96
655.1430, 12264.69
656.3020, 14419.17
657.4620, 16330.25
658.6210, 18726.21
659.7800, 21008.53
660.9390, 22970.29
662.0970, 24723.84
663.2560, 25795.87
664.4140, 25720.12
665.5720, 24442.93
666.7300, 22506.72
667.8880, 19994.62
669.0460, 18044.39
670.2030, 16584.07
671.3600, 15760.45
672.5180, 15861.32
673.6740, 16387.00
674.8310, 17421.58
675.9880, 19042.23
677.1440, 21234.16
678.3010, 23702.02
679.4570, 26355.60
680.6130, 28995.15
681.7690, 31573.68
682.9240, 33969.19
684.0800, 35224.69
685.2350, 35734.36
686.3900, 34406.82
687.5450, 31573.28
688.7000, 27572.97
689.8540, 23469.35
691.0090, 19261.72
692.1630, 15717.06
693.3170, 12550.38
694.4710, 10306.69
695.6250, 8345.970
696.7780, 6955.232
697.9320, 5796.473
699.0850, 4895.696
700.2380, 4179.897
701.3910, 3730.079
702.5440, 3214.240
703.6970, 2941.382
704.8490, 2505.505
706.0010, 2275.607
707.1530, 2142.691
708.3050, 1809.754
709.4570, 1608.798
710.6090, 1525.823
711.7600, 1410.828
712.9110, 1267.815
714.0620, 1268.782
715.2130, 1056.731
716.3640, 944.6606
717.5150, 883.5708
718.6650, 863.4634
719.8150, 823.3369
720.9650, 698.1924
722.1150, 693.0293
723.2650, 739.8477
724.4150, 584.6479
725.5640, 586.4307
726.7130, 464.1953
727.8630, 492.9424
729.0110, 457.6714
730.1600, 505.3828
731.3090, 450.2974
732.4570, 524.7539
733.6060, 368.4136
734.7540, 301.0562
735.9020, 289.6816
737.0490, 201.2905
738.1970, 314.8828
739.3440, 304.4585
740.4920, 312.0176
741.6390, 304.5601
742.7860, 239.0869
743.9320, 308.5972
745.0790, 375.0918
746.2250, 274.5708
747.3720, 185.0342
748.5180, 287.4814
749.6640, 298.9136
750.8100, 188.3311
751.9550, 262.7334
753.1010, 174.1196
754.2460, 246.4922
755.3910, 105.8501
756.5360, 177.1934
757.6810, 153.5249
758.8250, 63.84570
759.9700, 163.1577
761.1140, 148.4644
762.2580, 27.23340
763.4020, 9.047852
764.5460, 13.68164
765.6900, 32.57129
766.8330, 82.82959
767.9760, 31.88184
769.1200, 47.61035
770.2620, 52.37061
771.4050, 45.86963
772.5480, 13.14307
773.6900, 6.566895
774.8330, 85.26221
775.9750, 140.0352
777.1170, 124.3755
778.2590, 30.73730
779.4000, 91.88574
780.5420, 40.43262
781.6830, 94.23828
782.8240, 9.943359
783.9650, 12.61914
785.1060, 22.26123
786.2470, 20.90283
787.3870, 8.144043
788.5280, 4.956055
789.6680, 18.08789
790.8080, 8.602539
791.9480, 17.31738
793.0870, 77.05957
794.2270, 23.86133
795.3660, 102.6934
796.5060, 13.59717
797.6450, 69.52539
798.7830, 19.50586
799.9220, 4.487305
801.0610, 64.53223
802.1990, 50.39990
803.3370, 81.32471
804.4750, 141.7588
805.6130, 124.9282
806.7510, 29.17627
807.8890, 25.44971
809.0260, 0.4985350
810.1630, 7.468262
811.3000, 16.36865
812.4370, 4.300293
813.5740, 72.03760
814.7110, 24.41992
815.8470, 116.8218
816.9830, 41.70996
818.1190, 70.76270
819.2550, 28.72314
820.3910, 34.20557
821.5270, 29.31641
822.6620, 26.14453
823.7970, 44.39844
824.9330, 9.964355
826.0670, 30.46240
827.2020, 91.88672
828.3370, 80.30762
829.4710, 102.8477
830.6060, 125.1445
831.7400, 100.5601
832.8740, 64.97363
834.0080, 66.38574
835.1410, 209.7974
836.2750, 159.2070
837.4080, 214.6162
838.5410, 227.0249
839.6740, 265.4336
840.8070, 344.8418
841.9400, 235.2505
843.0730, 435.6597
844.2050, 500.0693
845.3370, 565.4800
846.4690, 809.8916
847.6010, 1053.304
848.7330, 1328.718
849.8640, 1617.133
850.9960, 1998.551
852.1270, 2331.970
853.2580, 2641.391
854.3890, 3026.814
855.5200, 3317.241
856.6500, 3517.670
857.7810, 3504.102
858.9110, 3317.537
860.0410, 3096.975
861.1710, 2739.417
862.3010, 2498.863
863.4310, 2169.312
864.5600, 2015.767
865.6900, 1655.224
866.8190, 1365.687
867.9480, 1253.154
869.0770, 936.6255
870.2050, 810.1025
871.3340, 758.5850
872.4620, 575.0723
873.5900, 589.5654
874.7180, 472.0640
875.8460, 395.5688
876.9740, 402.0801
878.1010, 312.5967
879.2290, 370.1206
880.3560, 327.6514
881.4830, 245.1880
882.6100, 267.7324
883.7370, 286.2837
884.8630, 331.8438
885.9900, 313.4141
887.1160, 210.9937
888.2420, 346.5806
889.3680, 184.1758
890.4940, 211.7793
891.6200, 233.3911
892.7450, 349.0117
893.8700, 331.6406
894.9960, 430.1787
896.1210, 284.8252
897.2460, 253.4810
898.3700, 257.6816
899.4950, 320.1914
900.6190, 292.9966
901.7430, 317.6826
902.8670, 311.3921
903.9910, 247.5620
905.1150, 265.7964
906.2390, 234.7832
907.3620, 196.4297
908.4850, 340.5317
909.6080, 289.5474
910.7310, 290.6738
911.8540, 275.4707
912.9770, 327.2778
914.0990, 421.9302
915.2210, 427.2344
916.3440, 585.6260
917.4660, 540.4868
918.5870, 594.6899
919.7090, 716.7754
920.8310, 890.3066
921.9520, 964.9717
923.0730, 1254.489
924.1940, 1398.257
925.3150, 1641.048
926.4360, 1984.690
927.5560, 2159.850
928.6770, 2506.321
929.7970, 2883.205
930.9170, 2945.199
932.0370, 3225.845
933.1570, 3426.063
934.2760, 3425.512
935.3960, 3427.532
936.5150, 3450.353
937.6340, 3386.624
938.7530, 3329.912
939.8720, 3146.113
940.9910, 2948.472
942.1090, 2645.938
943.2280, 2303.715
944.3460, 2084.012
945.4640, 1879.515
946.5820, 1628.146
947.6990, 1473.716
948.8170, 1340.019
949.9340, 1032.396
951.0520, 1079.055
952.1690, 878.7676
953.2860, 811.4980
954.4030, 967.2549
955.5190, 887.0322
956.6360, 877.6123
957.7520, 824.4424
958.8680, 793.0918
959.9840, 713.8770
961.1000, 752.8096
962.2160, 648.7725
963.3310, 641.7578
964.4470, 628.7656
965.5620, 696.7959
966.6770, 370.4766
967.7920, 533.5439
968.9060, 644.5283
970.0210, 706.3086
971.1360, 571.2568
972.2500, 690.3975
973.3640, 707.6904
974.4780, 720.8447
975.5920, 875.8379
976.7050, 769.4785
977.8190, 922.3213
978.9320, 1057.274
980.0450, 968.6406
981.1580, 1200.030
982.2710, 1303.441
983.3840, 1520.874
984.4970, 1661.330
985.6090, 1813.809
986.7210, 2118.311
987.8330, 2300.844
988.9450, 2667.403
990.0570, 2978.984
991.1690, 3353.590
992.2800, 3910.219
993.3920, 4752.866
994.5030, 5668.538
995.6140, 6546.231
996.7250, 7591.946
997.8350, 9114.684
998.9460, 10804.44
1000.056, 13079.22
1001.167, 15997.03
1002.277, 19298.85
1003.387, 23413.69
1004.496, 27773.56
1005.606, 32663.45
1006.715, 37391.37
1007.825, 42243.29
1008.934, 45967.25
1010.043, 48423.23
1011.152, 48566.22
1012.260, 46354.24
1013.369, 41584.27
1014.477, 36279.32
1015.586, 31218.41
1016.694, 26830.51
1017.802, 23491.90
1018.909, 20960.45
1020.017, 19379.85
1021.124, 17916.03
1022.232, 17083.24
1023.339, 16503.47
1024.446, 15880.71
1025.553, 15223.98
1026.659, 15312.26
1027.766, 14797.57
1028.872, 14660.89
1029.979, 13960.24
1031.085, 13516.61
1032.191, 12776.03
1033.296, 12069.46
1034.402, 10871.92
1035.507, 9687.402
1036.613, 8653.325
1037.718, 7685.191
1038.823, 6892.442
1039.928, 6031.062
1041.032, 5332.701
1042.137, 4751.363
1043.241, 4187.055
1044.346, 3793.841
1045.450, 3238.599
1046.554, 2817.375
1047.657, 2465.173
1048.761, 2289.020
1049.864, 1980.884
1050.968, 1800.799
1052.071, 1566.746
1053.174, 1444.716
1054.277, 1331.714
1055.379, 1234.740
1056.482, 1089.793
1057.584, 974.8701
1058.687, 935.9658
1059.789, 1001.420
1060.891, 766.2363
1061.992, 789.5059
1063.094, 587.7822
1064.196, 478.4385
1065.297, 530.3984
1066.398, 463.7500
1067.499, 397.6758
1068.600, 415.2012
1069.701, 490.5352
1070.801, 402.0645
1071.902, 463.4629
1073.002, 316.7227
1074.102, 446.6348
1075.202, 350.8213
1076.302, 372.8691
1077.402, 398.8008
1078.501, 422.7363
1079.600, 390.0625
1080.700, 312.6699
1081.799, 349.1348
1082.898, 262.9316
1083.996, 316.8896
1085.095, 273.6162
1086.193, 169.0908
1087.292, 240.0635
1088.390, 231.9941
1089.488, 222.4971
1090.586, 201.5791
1091.683, 253.1309
1092.781, 126.8994
1093.878, 170.9336
1094.975, 223.9980
1096.073, 75.25488
1097.169, 171.3857
1098.266, 157.3330
1099.363, 92.08594
1100.459, 150.5293
1101.556, 255.4072
1102.652, 287.2900
1103.748, 240.6494
1104.844, 294.7334
1105.940, 11.15332
1107.035, 333.0547
1108.131, 316.2520
1109.226, 4.980469
1110.321, 142.0508
1111.416, 90.96484
1112.511, 376.2471
1113.605, 282.4668
1114.700, 166.3926
1115.794, 185.6465
1116.889, 198.8789
1117.983, 332.2656
1119.077, 193.1836
1120.170, 222.3740
1121.264, 367.4014
1122.357, 130.1924
1123.451, 202.1279
1124.544, 274.0645
1125.637, 127.0723
1126.730, 329.2783
1127.823, 195.4033
1128.915, 193.5908
1130.008, 167.5273
1131.100, 251.6055
1132.192, 320.5410
1133.284, 217.7832
1134.376, 227.9531
1135.467, 17.00195
1136.559, 48.10645
1137.650, 202.0947
1138.742, 344.0332
1139.833, 131.9707
1140.924, 191.9053
1142.014, 182.8389
1143.105, 161.7686
1144.195, 176.6963
1145.286, 188.6211
1146.376, 237.5430
1147.466, 193.4619
1148.556, 16.62402
1149.646, 21.71582
1150.735, 14.81543
1151.825, 140.0762
1152.914, 2.980469
1154.003, 13.24609
1155.092, 55.12500
1156.181, 37.00000
1157.270, 36.86816
1158.358, 94.73145
1159.447, 80.58984
1160.535, 26.44238
1161.623, 177.2891
1162.711, 31.67676
1163.799, 107.1475
1164.886, 55.96582
1165.974, 74.77637
1167.061, 14.41895
1168.148, 40.88965
1169.235, 130.1582
1170.322, 115.9355
1171.409, 170.7051
1172.496, 184.4678
1173.582, 87.22168
1174.669, 6.964844
1175.755, 107.7002
1176.841, 40.42773
1177.927, 56.14551
1179.012, 36.85352
1180.098, 108.5518
1181.183, 145.2412
1182.269, 32.91992
1183.354, 110.5879
1184.439, 120.2461
1185.524, 53.89258
1186.608, 123.5283
1187.693, 51.15332
1188.777, 94.76660
1189.862, 31.63184
1190.946, 20.06445
1192.030, 57.52637
1193.113, 43.96387
1194.197, 3.440430
1195.281, 64.10156
1196.364, 100.6787
1197.447, 156.3486
1198.530, 85.12402
1199.613, 16.96680
1200.696, 46.15918
1201.779, 63.73145
1202.861, 107.6797
1203.944, 84.70898
1205.026, 8.189453
1206.108, 36.93262
1207.190, 50.10254
1208.271, 97.06250
1209.353, 21.63379
1210.435, 32.68750
1211.516, 7.041992
1212.597, 4.556641
1213.678, 60.51172
1214.759, 125.9971
1215.840, 14.85645
1216.920, 49.81836
1218.001, 63.26758
1219.081, 17.30078
1220.161, 9.911133
1221.241, 16.55957
1222.321, 35.25098
1223.401, 6.993164
1224.480, 55.22559
1225.560, 33.45508
1226.639, 47.63379
1227.718, 91.79199
1228.797, 19.93066
1229.876, 9.917969
1230.955, 116.1523
1232.033, 125.2246
1233.112, 54.74219
1234.190, 74.22656
1235.268, 22.82520
1236.346, 137.0742
1237.424, 56.95410
1238.501, 26.81250
1239.579, 96.59473
1240.656, 136.4082
1241.733, 52.20117
1242.811, 60.97363
1243.888, 128.7236
1244.964, 59.45508
1246.041, 63.16406
1247.117, 48.85156
1248.194, 6.516602
1249.270, 21.97070
1250.346, 112.7393
1251.422, 34.32227
1252.498, 156.8760
1253.573, 187.4111
1254.649, 121.9268
1255.724, 75.42285
1256.800, 95.89844
1257.875, 81.35254
1258.950, 151.7842
1260.024, 109.1035
1261.099, 166.5889
1262.173, 78.65332
1263.248, 94.00391
1264.322, 123.4053
1265.396, 110.7158
1266.470, 138.6064
1267.544, 272.2744
1268.617, 209.5254
1269.691, 225.7549
1270.764, 341.0234
1271.837, 267.2158
1272.910, 157.4668
1273.983, 195.6943
1275.056, 202.8281
1276.129, 292.0527
1277.201, 346.1465
1278.273, 331.9492
1279.346, 255.6006
1280.418, 311.3916
1281.489, 154.4307
1282.561, 79.44434
1283.633, 315.4404
1284.704, 233.4180
1285.776, 215.3750
1286.847, 200.3125
1287.918, 246.2324
1288.989, 280.1328
1290.059, 213.0127
1291.130, 116.8740
1292.200, 198.6982
1293.271, 209.5195
