##NAMES=Enstatite
##RRUFFID=R060630
##IDEAL CHEMISTRY=MgSiO_3_
##LOCALITY=unknown
##OWNER=RRUFF
##SOURCE=Gemological Institute of America
##DESCRIPTION=Tan colored fragment
##STATUS=The identification of this mineral has been confirmed by X-ray diffraction and chemical analysis
##URL=rruff.info/R060630
##MEASURED CHEMISTRY=(Mg_0.89_Fe_0.07_Al_0.04_)_Σ=1_(Si_0.96_Al_0.04_)_Σ=1_O_3_
##PIN_ID=L01844
##ORIENTATION=Laser parallel to -b* (0 -1 0). Fiducial mark perpendicular to laser is parallel to c [0 0 1]
118.1340, 0.0000000E+00
119.3650, 10.57812
120.5960, 21.12695
121.8270, 141.4658
123.0580, 281.5098
124.2880, 661.4824
125.5190, 1061.960
126.7490, 1485.206
127.9790, 2207.005
129.2090, 3148.678
130.4390, 3981.473
131.6680, 5311.211
132.8980, 6593.369
134.1270, 8159.281
135.3560, 9910.721
136.5850, 11731.84
137.8140, 13604.81
139.0430, 15391.75
140.2710, 16633.55
141.5000, 16925.12
142.7280, 16509.42
143.9560, 15074.42
145.1840, 12512.12
146.4120, 10414.64
147.6390, 8504.492
148.8670, 6603.896
150.0940, 5196.639
151.3210, 4209.192
152.5490, 3475.732
153.7750, 3012.711
155.0020, 2497.901
156.2290, 2374.608
157.4550, 2000.260
158.6810, 1845.322
159.9080, 1516.757
161.1340, 1349.623
162.3590, 947.9863
163.5850, 761.8994
164.8110, 620.4072
166.0360, 554.5508
167.2610, 278.3662
168.4860, 293.8857
169.7110, 280.1338
170.9360, 78.12891
172.1610, 189.8828
173.3850, 6.416016
174.6100, 40.74805
175.8340, 54.10645
177.0580, 125.1338
178.2820, 43.31543
179.5050, 103.6396
180.7290, 16.09668
181.9520, 132.6729
183.1760, 8.360352
184.3990, 94.14844
185.6220, 62.65527
186.8450, 21.82031
188.0670, 82.14648
189.2900, 114.3447
190.5120, 216.1826
191.7340, 441.8711
192.9560, 502.4971
194.1780, 707.9512
195.4000, 909.0010
196.6220, 915.5342
197.8430, 1190.001
199.0640, 1308.593
200.2860, 1536.455
201.5070, 1635.350
202.7270, 1870.384
203.9480, 2077.554
205.1690, 2429.854
206.3890, 2504.271
207.6090, 2518.795
208.8290, 2478.410
210.0490, 2406.114
211.2690, 2161.901
212.4890, 1786.770
213.7080, 1595.716
214.9280, 1195.737
216.1470, 1014.830
217.3660, 836.9941
218.5850, 746.2266
219.8030, 637.8613
221.0220, 551.7949
222.2400, 548.0186
223.4590, 588.2080
224.6770, 705.2119
225.8950, 879.7041
227.1120, 1115.738
228.3300, 1408.005
229.5480, 1748.312
230.7650, 2147.656
231.9820, 2669.035
233.1990, 3162.448
234.4160, 3720.898
235.6330, 4288.383
236.8490, 4816.918
238.0660, 5049.500
239.2820, 4931.119
240.4980, 4627.775
241.7140, 3700.466
242.9300, 2971.193
244.1460, 2157.955
245.3610, 1807.753
246.5770, 1098.588
247.7920, 793.4590
249.0070, 405.3662
250.2220, 232.3096
251.4370, 68.29004
252.6510, 13.30762
253.8660, 13.63965
255.0800, 53.55078
256.2940, 202.4248
257.5080, 95.73828
258.7220, 38.07812
259.9360, 18.06445
261.1490, 193.9180
262.3630, 233.9160
263.5760, 216.0811
264.7890, 150.9990
266.0020, 39.24316
267.2150, 187.0508
268.4270, 148.3838
269.6400, 203.3789
270.8520, 39.15137
272.0640, 56.72656
273.2760, 55.83398
274.4880, 11.49023
275.7000, 75.26074
276.9120, 182.0811
278.1230, 175.9541
279.3340, 187.8613
280.5450, 72.76660
281.7560, 166.6494
282.9670, 229.5215
284.1780, 337.3887
285.3880, 472.2451
286.5980, 470.1016
287.8090, 569.9404
289.0190, 609.7656
290.2290, 609.5752
291.4380, 721.0010
292.6480, 826.1494
293.8570, 928.6973
295.0670, 1115.069
296.2760, 1305.276
297.4850, 1356.371
298.6930, 1419.409
299.9020, 1339.470
301.1110, 1458.535
302.3190, 1338.604
303.5270, 1329.669
304.7350, 1248.723
305.9430, 1215.768
307.1510, 1262.800
308.3580, 1321.821
309.5660, 1161.836
310.7730, 1323.854
311.9800, 1385.879
313.1870, 1595.924
314.3940, 1742.973
315.6010, 1896.020
316.8070, 1934.077
318.0130, 2277.146
319.2200, 2326.200
320.4260, 2772.293
321.6310, 2980.474
322.8370, 3395.528
324.0430, 3691.283
325.2480, 4230.584
326.4540, 4935.781
327.6590, 5745.376
328.8640, 6178.955
330.0680, 7343.824
331.2730, 8095.446
332.4780, 9082.527
333.6820, 10386.48
334.8860, 11803.39
336.0900, 13049.04
337.2940, 14953.46
338.4980, 16625.75
339.7010, 18408.86
340.9050, 20375.90
342.1080, 22745.93
343.3110, 24708.00
344.5140, 26314.10
345.7170, 27845.22
346.9200, 28753.38
348.1220, 29487.56
349.3240, 29764.78
350.5270, 29295.02
351.7290, 28170.29
352.9310, 26696.59
354.1320, 24962.15
355.3340, 23046.50
356.5350, 21139.87
357.7370, 19531.28
358.9380, 17577.70
360.1390, 15993.15
361.3400, 14414.63
362.5400, 13189.13
363.7410, 11892.66
364.9410, 10623.21
366.1410, 9761.786
367.3410, 9005.386
368.5410, 8145.013
369.7410, 7689.664
370.9400, 7062.344
372.1400, 6620.047
373.3390, 6299.779
374.5380, 5932.534
375.7370, 5625.317
376.9360, 5537.124
378.1350, 5354.959
379.3330, 5225.816
380.5310, 5050.700
381.7300, 4888.609
382.9280, 5084.545
384.1260, 5089.505
385.3230, 5290.490
386.5210, 5279.501
387.7180, 5379.539
388.9160, 5484.601
390.1130, 5675.688
391.3100, 5923.803
392.5060, 6048.941
393.7030, 6379.104
394.9000, 6909.293
396.0960, 7110.191
397.2920, 7608.251
398.4880, 7965.836
399.6840, 8404.094
400.8800, 8650.100
402.0750, 8835.438
403.2710, 8891.912
404.4660, 8921.686
405.6610, 8877.589
406.8560, 8584.079
408.0510, 8484.794
409.2450, 8282.649
410.4400, 8388.521
411.6340, 8558.233
412.8280, 8648.393
414.0220, 9068.112
415.2160, 9304.061
416.4100, 9537.979
417.6030, 9794.404
418.7970, 9921.972
419.9900, 9753.508
421.1830, 9524.339
422.3760, 9061.057
423.5690, 8319.269
424.7610, 7576.953
425.9540, 6555.194
427.1460, 5867.790
428.3380, 4825.824
429.5300, 4322.406
430.7220, 3877.615
431.9140, 3619.698
433.1050, 3680.564
434.2970, 3684.447
435.4880, 3926.829
436.6790, 4294.982
437.8700, 4641.216
439.0610, 5675.801
440.2510, 6110.773
441.4420, 7014.916
442.6320, 7951.893
443.8220, 8526.916
445.0120, 8872.492
446.2020, 8911.569
447.3910, 8412.553
448.5810, 7713.417
449.7700, 6915.553
450.9600, 5852.735
452.1490, 4835.006
453.3370, 4141.309
454.5260, 3539.451
455.7150, 2929.067
456.9030, 2338.359
458.0910, 2183.635
459.2800, 1953.849
460.4670, 1810.306
461.6550, 1547.518
462.8430, 1419.880
464.0300, 1137.489
465.2180, 1161.627
466.4050, 1055.082
467.5920, 980.0186
468.7790, 824.5498
469.9650, 894.1055
471.1520, 768.7139
472.3380, 537.8350
473.5250, 488.6836
474.7110, 538.3936
475.8970, 531.1221
477.0820, 476.8701
478.2680, 543.6387
479.4540, 464.8086
480.6390, 291.2402
481.8240, 364.0732
483.0090, 272.9316
484.1940, 229.8115
485.3780, 248.7158
486.5630, 53.64453
487.7470, 237.5957
488.9320, 226.5713
490.1160, 139.5703
491.3000, 223.5928
492.4830, 77.63770
493.6670, 99.70605
494.8500, 186.7979
496.0340, 71.08984
497.2170, 24.02441
498.4000, 151.1611
499.5820, 135.3320
500.7650, 74.54688
501.9480, 219.8057
503.1300, 47.08789
504.3120, 140.4121
505.4940, 124.7666
506.6760, 29.14551
507.8580, 9.578125
509.0390, 73.03223
510.2210, 100.5352
511.4020, 209.0596
512.5830, 215.6182
513.7640, 278.4473
514.9450, 239.8604
516.1250, 392.5234
517.3060, 436.2227
518.4860, 538.9424
519.6660, 515.6826
520.8460, 493.4443
522.0260, 680.2314
523.2060, 579.0762
524.3850, 588.9688
525.5650, 604.9238
526.7440, 696.9336
527.9230, 441.0049
529.1020, 785.1260
530.2810, 547.2754
531.4590, 793.4482
532.6380, 786.6406
533.8160, 1046.853
534.9940, 1000.084
536.1720, 1061.334
537.3500, 1198.604
538.5270, 1083.903
539.7050, 1097.232
540.8820, 1088.599
542.0590, 831.0137
543.2360, 843.5117
544.4130, 668.0293
545.5900, 790.5898
546.7660, 516.1748
547.9430, 650.8408
549.1190, 592.5977
550.2950, 588.4414
551.4710, 604.3525
552.6470, 489.3027
553.8220, 389.3311
554.9980, 371.8350
556.1730, 388.6016
557.3480, 292.8154
558.5230, 250.0732
559.6980, 226.3477
560.8730, 176.6533
562.0470, 82.97559
563.2220, 67.94336
564.3960, 15.33203
565.5700, 9.028320
566.7440, 54.59277
567.9170, 60.22461
569.0910, 48.92676
570.2640, 76.51758
571.4380, 10.18848
572.6110, 5.849609
573.7840, 40.49805
574.9570, 105.8613
576.1290, 85.23730
577.3020, 35.37207
578.4740, 26.98438
579.6460, 32.59668
580.8180, 21.78711
581.9900, 0.8154300
583.1620, 55.40820
584.3330, 37.01465
585.5040, 81.62891
586.6760, 72.16992
587.8470, 14.93457
589.0180, 30.59766
590.1880, 20.73340
591.3590, 5.097656
592.5290, 3.432617
593.7000, 35.20312
594.8700, 49.84766
596.0400, 91.50781
597.2090, 14.20410
598.3790, 30.09863
599.5490, 29.58594
600.7180, 33.27930
601.8870, 27.98047
603.0560, 35.68848
604.2250, 46.40820
605.3940, 24.14453
606.5620, 20.11133
607.7300, 36.62012
608.8990, 71.63379
610.0670, 158.8994
611.2350, 40.17480
612.4020, 17.54102
613.5700, 7.739258
614.7370, 21.27441
615.9050, 93.31934
617.0720, 172.6240
618.2390, 184.9375
619.4060, 264.2598
620.5720, 414.5908
621.7390, 402.9316
622.9050, 464.2812
624.0710, 501.6396
625.2370, 741.0059
626.4030, 822.3809
627.5690, 994.7139
628.7340, 1117.155
629.9000, 1340.556
631.0650, 1556.962
632.2300, 1734.378
633.3950, 1890.800
634.5600, 2039.231
635.7240, 2524.669
636.8890, 2601.871
638.0530, 2994.324
639.2170, 3249.389
640.3810, 3542.541
641.5450, 3512.170
642.7080, 3949.650
643.8720, 4184.283
645.0350, 4721.850
646.1980, 5194.506
647.3610, 5882.082
648.5240, 6687.590
649.6870, 7687.295
650.8490, 8881.961
652.0120, 10155.14
653.1740, 11595.33
654.3360, 13212.50
655.4980, 14540.59
656.6600, 16237.43
657.8210, 18094.96
658.9830, 19066.50
660.1440, 20209.04
661.3050, 20716.79
662.4660, 20896.64
663.6270, 20602.35
664.7870, 19651.78
665.9480, 18593.05
667.1080, 17803.12
668.2680, 16994.74
669.4280, 16363.80
670.5880, 15949.80
671.7480, 16181.69
672.9070, 16746.23
674.0670, 17628.77
675.2260, 18977.31
676.3850, 20852.85
677.5440, 23527.36
678.7030, 26138.90
679.8610, 29502.43
681.0200, 32974.18
682.1780, 36208.71
683.3360, 39481.26
684.4940, 42062.79
685.6520, 43467.30
686.8090, 43336.81
687.9670, 42562.31
689.1240, 39981.82
690.2810, 36563.31
691.4380, 32799.80
692.5950, 28544.29
693.7520, 24894.77
694.9080, 21175.24
696.0650, 18340.71
697.2210, 15489.18
698.3770, 13435.64
699.5330, 11574.08
700.6880, 10235.53
701.8440, 8768.969
702.9990, 8092.399
704.1550, 7189.347
705.3100, 6306.764
706.4650, 5827.702
707.6190, 5364.291
708.7740, 4706.457
709.9290, 4365.084
711.0830, 4118.097
712.2370, 3714.243
713.3910, 3557.616
714.5450, 3300.984
715.6980, 3116.346
716.8520, 2766.982
718.0050, 2766.033
719.1580, 2395.747
720.3110, 2257.676
721.4640, 2266.266
722.6170, 1974.631
723.7700, 2001.959
724.9220, 2029.753
726.0740, 1866.062
727.2260, 1863.477
728.3780, 1742.022
729.5300, 1703.316
730.6810, 1528.576
731.8330, 1520.766
732.9840, 1561.938
734.1350, 1307.283
735.2860, 1332.171
736.4370, 1388.398
737.5880, 1183.661
738.7380, 1089.997
739.8880, 1185.105
741.0390, 1278.478
742.1890, 1024.404
743.3380, 1115.719
744.4880, 1005.226
745.6380, 853.4629
746.7870, 716.2451
747.9360, 831.4785
749.0850, 835.7061
750.2340, 823.9326
751.3830, 729.6650
752.5310, 712.8525
753.6800, 600.9307
754.8280, 545.1465
755.9760, 541.3594
757.1240, 327.5693
758.2720, 315.7764
759.4190, 502.9814
760.5670, 411.1836
761.7140, 348.3838
762.8610, 184.5811
764.0080, 298.7773
765.1550, 142.9697
766.3020, 315.1611
767.4480, 307.3496
768.5950, 213.5361
769.7410, 240.7217
770.8870, 207.2236
772.0330, 169.4736
773.1780, 182.2627
774.3240, 93.43848
775.4690, 62.62500
776.6140, 18.19141
777.7590, 54.03516
778.9040, 62.34277
780.0490, 61.14062
781.1940, 45.79688
782.3380, 10.77344
783.4820, 32.22559
784.6260, 94.77832
785.7700, 107.1533
786.9140, 83.91602
788.0580, 116.9561
789.2010, 23.17480
790.3450, 90.33105
791.4880, 11.45117
792.6310, 5.773438
793.7730, 36.01758
794.9160, 59.70703
796.0590, 75.42969
797.2010, 52.15234
798.3430, 2.125977
799.4850, 120.4199
800.6270, 86.78613
801.7690, 146.7295
802.9100, 112.7188
804.0520, 142.2969
805.1930, 103.9600
806.3340, 11.68359
807.4750, 5.575195
808.6160, 6.827148
809.7560, 61.54395
810.8970, 70.32227
812.0370, 83.57031
813.1770, 44.81836
814.3170, 24.93066
815.4570, 14.29980
816.5960, 70.53223
817.7360, 2.771484
818.8750, 144.0059
820.0140, 6.245117
821.1530, 142.4980
822.2920, 181.7529
823.4310, 334.0107
824.5690, 213.2715
825.7070, 142.5342
826.8460, 428.7998
827.9840, 563.0664
829.1220, 360.3359
830.2590, 534.6084
831.3970, 476.8828
832.5340, 520.1611
833.6710, 604.4531
834.8080, 806.7549
835.9450, 877.0605
837.0820, 1165.370
838.2190, 1364.684
839.3550, 1481.001
840.4910, 1820.322
841.6270, 1961.143
842.7630, 2313.986
843.8990, 2302.336
845.0350, 2495.702
846.1700, 2545.086
847.3060, 2870.494
848.4410, 2906.906
849.5760, 2959.327
850.7100, 2984.754
851.8450, 2964.185
852.9800, 2912.621
854.1140, 2977.071
855.2480, 2711.535
856.3820, 2633.012
857.5160, 2669.495
858.6500, 2488.985
859.7830, 2212.496
860.9170, 2245.023
862.0500, 1962.576
863.1830, 2103.154
864.3160, 1876.744
865.4480, 1631.350
866.5810, 1632.962
867.7130, 1543.612
868.8460, 1500.271
869.9780, 1539.947
871.1100, 1457.647
872.2410, 1346.379
873.3730, 1161.122
874.5050, 1144.835
875.6360, 1087.645
876.7670, 1050.432
877.8980, 1001.237
879.0290, 928.0615
880.1590, 891.2871
881.2900, 916.8076
882.4200, 797.7207
883.5500, 766.6553
884.6800, 726.5977
885.8100, 473.5498
886.9400, 759.5078
888.0690, 400.4824
889.1990, 559.4688
890.3280, 506.4639
891.4570, 281.4678
892.5860, 543.4814
893.7140, 451.5195
894.8430, 347.5693
895.9710, 363.6523
897.1000, 546.7451
898.2280, 467.8457
899.3560, 401.9590
900.4830, 500.0850
901.6110, 375.2197
902.7380, 496.3652
903.8660, 630.5234
904.9930, 311.6924
906.1200, 600.8721
907.2460, 540.0625
908.3730, 522.2617
909.5000, 605.4717
910.6260, 630.6904
911.7520, 791.9189
912.8780, 751.5557
914.0040, 922.1201
915.1290, 960.2275
916.2550, 924.5000
917.3800, 1035.638
918.5050, 1061.857
919.6300, 1101.006
920.7550, 1139.249
921.8800, 1103.577
923.0040, 1129.406
924.1290, 1077.935
925.2530, 1205.644
926.3770, 1283.374
927.5010, 1487.149
928.6250, 1463.021
929.7480, 1442.164
930.8720, 1645.624
931.9950, 1659.097
933.1180, 1634.584
934.2410, 1592.884
935.3640, 1648.091
936.4860, 1689.460
937.6090, 1757.123
938.7310, 1863.992
939.8530, 1769.076
940.9750, 1934.658
942.0970, 2184.857
943.2180, 2067.149
944.3400, 2047.588
945.4610, 2051.393
946.5820, 1971.230
947.7030, 2085.090
948.8240, 1962.967
949.9450, 2103.893
951.0650, 2045.809
952.1860, 2195.805
953.3060, 2022.545
954.4260, 1990.193
955.5460, 1986.092
956.6650, 1668.469
957.7850, 1676.523
958.9040, 1660.598
960.0230, 1258.689
961.1420, 1235.799
962.2610, 1069.926
963.3800, 653.0742
964.4990, 721.2383
965.6170, 720.4316
966.7350, 573.6621
967.8530, 602.2129
968.9710, 558.9668
970.0890, 470.3086
971.2070, 425.6680
972.3240, 309.0449
973.4410, 228.4414
974.5580, 385.8535
975.6750, 91.28125
976.7920, 143.7266
977.9090, 158.1836
979.0250, 401.6602
980.1410, 333.1523
981.2580, 400.6602
982.3740, 533.1875
983.4890, 429.7266
984.6050, 491.2832
985.7200, 717.8535
986.8360, 680.4395
987.9510, 1026.041
989.0660, 1013.658
990.1810, 1233.289
991.2950, 1309.936
992.4100, 1627.596
993.5240, 1620.270
994.6390, 2116.957
995.7530, 2237.660
996.8660, 2513.375
997.9800, 3094.162
999.0940, 3626.906
1000.207, 3857.664
1001.320, 4446.428
1002.433, 4813.207
1003.546, 5360.000
1004.659, 5974.365
1005.772, 6296.182
1006.884, 6786.010
1007.996, 7367.850
1009.108, 7859.969
1010.220, 8155.102
1011.332, 8370.979
1012.444, 8396.057
1013.555, 8451.949
1014.666, 8500.504
1015.777, 8489.770
1016.888, 8599.695
1017.999, 8559.453
1019.110, 8354.965
1020.220, 8467.918
1021.331, 8388.953
1022.441, 8210.926
1023.551, 8412.164
1024.661, 8322.441
1025.770, 8541.719
1026.880, 8497.320
1027.989, 8731.770
1029.098, 8843.613
1030.207, 8780.996
1031.316, 8940.127
1032.425, 8797.844
1033.533, 8910.477
1034.642, 8647.705
1035.750, 7969.977
1036.858, 7726.842
1037.966, 7190.443
1039.073, 6488.840
1040.181, 5866.268
1041.288, 5468.523
1042.396, 4947.818
1043.503, 4516.027
1044.610, 3915.355
1045.716, 3485.861
1046.823, 3390.348
1047.929, 2867.980
1049.036, 2604.357
1050.142, 2378.770
1051.248, 2031.045
1052.353, 1986.328
1053.459, 1817.863
1054.564, 1646.311
1055.670, 1387.232
1056.775, 1438.289
1057.880, 1131.154
1058.985, 925.9941
1060.089, 1086.164
1061.194, 898.4316
1062.298, 722.2891
1063.402, 866.9375
1064.506, 589.4238
1065.610, 633.9668
1066.713, 376.5508
1067.817, 299.4492
1068.920, 416.4883
1070.023, 263.1445
1071.126, 207.4238
1072.229, 152.9180
1073.332, 98.72656
1074.435, 141.4531
1075.537, 130.6934
1076.639, 210.3691
1077.741, 149.3105
1078.843, 190.8398
1079.945, 123.0762
1081.046, 55.56250
1082.148, 116.4766
1083.249, 102.3594
1084.350, 49.58203
1085.451, 51.06836
1086.551, 36.29102
1087.652, 89.98633
1088.752, 23.10156
1089.853, 116.8555
1090.953, 134.9082
1092.053, 134.8359
1093.152, 42.87891
1094.252, 31.75391
1095.351, 250.7910
1096.451, 71.40820
1097.550, 110.1855
1098.649, 151.3359
1099.748, 69.04688
1100.846, 45.34961
1101.945, 23.44727
1103.043, 41.63477
1104.141, 51.51367
1105.239, 11.74805
1106.337, 33.19336
1107.434, 51.42773
1108.532, 34.83594
1109.629, 109.2441
1110.726, 112.4961
1111.823, 129.2422
1112.920, 193.6738
1114.017, 208.3887
1115.113, 156.4766
1116.210, 240.2266
1117.306, 278.7598
1118.402, 209.2812
1119.498, 182.9785
1120.593, 218.5840
1121.689, 278.2363
1122.784, 234.8223
1123.879, 351.3691
1124.974, 493.7070
1126.069, 195.9336
1127.164, 291.1523
1128.259, 176.7305
1129.353, 35.79297
1130.447, 113.0273
1131.541, 143.1777
1132.635, 116.6895
1133.729, 163.3672
1134.822, 109.4102
1135.916, 8.269531
1137.009, 161.9609
1138.102, 143.9492
1139.195, 220.0391
1140.288, 6.677734
1141.380, 7.615234
1142.473, 89.53320
1143.565, 29.43359
1144.657, 166.3145
1145.749, 134.8223
1146.841, 18.01758
1147.932, 310.7305
1149.024, 32.09375
1150.115, 47.80078
1151.206, 159.4902
1152.297, 73.16016
1153.388, 191.8125
1154.479, 32.44336
1155.569, 28.05469
1156.659, 30.64648
1157.750, 47.50586
1158.839, 7.734375
1159.929, 81.77344
1161.019, 21.34766
1162.108, 84.74805
1163.198, 2.318359
1164.287, 10.62891
1165.376, 90.95312
1166.465, 85.44531
1167.553, 7.759766
1168.642, 25.78320
1169.730, 67.98242
1170.818, 64.61328
1171.906, 108.0781
1172.994, 102.0527
1174.082, 125.3613
1175.170, 100.4727
1176.257, 60.55859
1177.344, 70.13867
1178.431, 45.67383
1179.518, 112.6934
1180.605, 107.7070
1181.691, 146.6758
1182.778, 159.6230
1183.864, 92.54688
1184.950, 123.4434
1186.036, 34.31641
1187.122, 25.66992
1188.207, 47.97070
1189.292, 9.246094
1190.378, 2.488281
1191.463, 22.38672
1192.548, 62.04883
1193.632, 116.6816
1194.717, 157.2871
1195.801, 145.1152
1196.886, 137.8379
1197.970, 66.94531
1199.054, 55.44336
1200.137, 20.38867
1201.221, 23.85156
1202.305, 26.29102
1203.388, 77.98633
1204.471, 75.76758
1205.554, 55.63672
1206.637, 54.21094
1207.719, 120.5215
1208.802, 23.33008
1209.884, 64.55273
1210.966, 39.40625
1212.048, 12.77734
1213.130, 24.98047
1214.212, 96.69922
1215.293, 282.3379
1216.374, 7.998047
1217.456, 13.95312
1218.536, 123.5977
1219.617, 0.2109380
1220.698, 80.93945
1221.778, 109.8359
1222.859, 82.26562
1223.939, 120.6582
1225.019, 18.02344
1226.099, 181.3477
1227.178, 12.35938
1228.258, 34.12109
1229.337, 178.2500
1230.417, 203.8613
1231.496, 120.7168
1232.574, 53.66992
1233.653, 97.58789
1234.732, 47.47266
1235.810, 144.3262
1236.888, 76.14648
1237.966, 192.9355
1239.044, 294.6953
1240.122, 43.42773
1241.199, 115.1211
1242.277, 187.7871
1243.354, 30.42188
1244.431, 327.0195
1245.508, 104.5879
1246.585, 156.9004
1247.661, 157.4082
1248.738, 111.8848
1249.814, 131.7227
1250.890, 118.2383
1251.966, 130.1309
1253.042, 137.4844
1254.117, 183.8066
1255.193, 241.1016
1256.268, 206.3652
1257.343, 117.6035
1258.418, 46.80664
1259.493, 192.9180
1260.567, 299.0605
1261.642, 213.1738
1262.716, 222.2617
1263.790, 234.4922
1264.864, 134.5215
1265.938, 151.2383
1267.011, 295.2520
1268.085, 177.1953
1269.158, 63.10938
1270.231, 220.7266
1271.304, 247.3125
1272.377, 262.1387
1273.450, 372.7422
1274.522, 213.6621
1275.594, 190.7637
1276.666, 283.6426
1277.738, 62.33789
1278.810, 218.7754
1279.882, 402.2461
1280.953, 490.8555
1282.025, 346.3652
1283.096, 226.9219
1284.167, 312.1934
1285.238, 254.0508
1286.308, 246.2480
1287.379, 319.1055
1288.449, 324.0977
1289.519, 47.99414
1290.589, 236.0137
1291.659, 147.2676
1292.729, 131.0820
1293.798, 194.5898
1294.868, 10.65430
1295.937, 16.65234
1297.006, 38.03125
