##NAMES=Enstatite
##RRUFFID=R050644
##IDEAL CHEMISTRY=MgSiO_3_
##LOCALITY=Morogoro, Tanzania
##OWNER=RRUFF
##SOURCE=Jibamitra Ganguly
##DESCRIPTION=Light brown crystal fragment
##STATUS=The identification of this mineral has been confirmed by X-ray diffraction and chemical analysis
##URL=rruff.info/R050644
##MEASURED CHEMISTRY=(Mg_0.90_Fe_0.10_)SiO_3_
##PIN_ID=L01052
##ORIENTATION=Laser parallel to b* (0 1 0). Fiducial mark perpendicular to laser is parallel to c [0 0 1]
113.2080, 0.0000000E+00
114.4400, 27.92139
115.6710, 18.19043
116.9030, 16.04834
118.1340, 35.86377
119.3650, 4.956055
120.5960, 45.00000
121.8270, 48.03467
123.0580, 20.96191
124.2880, 143.2949
125.5190, 123.8242
126.7490, 106.4365
127.9790, 114.1157
129.2090, 145.0708
130.4390, 155.1211
131.6680, 121.4961
132.8980, 198.3486
134.1270, 317.7944
135.3560, 363.9199
136.5850, 348.7964
137.8140, 393.5723
139.0430, 352.1006
140.2710, 318.5122
141.5000, 252.8340
142.7280, 246.7036
143.9560, 223.5640
145.1840, 270.4502
146.4120, 358.9160
147.6390, 374.2886
148.8670, 381.3530
150.0940, 353.3848
151.3210, 358.0972
152.5490, 255.9092
153.7750, 212.8159
155.0020, 203.8115
156.2290, 167.8916
157.4550, 169.0581
158.6810, 75.31689
159.9080, 58.66553
161.1340, 25.10010
162.3590, 5.253906
163.5850, 62.20508
164.8110, 24.86768
166.0360, 41.59570
167.2610, 98.38232
168.4860, 30.22510
169.7110, 71.12158
170.9360, 3.930176
172.1610, 24.07275
173.3850, 25.13281
174.6100, 66.74512
175.8340, 94.56201
177.0580, 14.68213
178.2820, 22.01709
179.5050, 31.66064
180.7290, 56.74756
181.9520, 61.20703
183.1760, 78.71387
184.3990, 106.2666
185.6220, 128.8633
186.8450, 151.7876
188.0670, 191.6587
189.2900, 208.8315
190.5120, 281.5273
191.7340, 334.2471
192.9560, 399.1406
194.1780, 513.7573
195.4000, 522.5488
196.6220, 492.3623
197.8430, 560.1982
199.0640, 639.0742
200.2860, 702.0210
201.5070, 721.5234
202.7270, 620.3896
203.9480, 689.6318
205.1690, 678.9209
206.3890, 551.2446
207.6090, 632.5757
208.8290, 609.9155
210.0490, 614.2637
211.2690, 486.6201
212.4890, 541.9858
213.7080, 533.3623
214.9280, 521.7480
216.1470, 549.1421
217.3660, 611.5239
218.5850, 650.8315
219.8030, 894.1318
221.0220, 896.4390
222.2400, 1115.759
223.4590, 1329.095
224.6770, 1770.446
225.8950, 2277.811
227.1120, 2649.189
228.3300, 2860.617
229.5480, 3293.135
230.7650, 3696.708
231.9820, 3860.338
233.1990, 3942.074
234.4160, 3902.888
235.6330, 3865.782
236.8490, 4192.703
238.0660, 4285.641
239.2820, 3910.585
240.4980, 3205.536
241.7140, 2339.493
242.9300, 1660.456
244.1460, 1249.424
245.3610, 962.3955
246.5770, 757.3735
247.7920, 731.3569
249.0070, 665.3447
250.2220, 725.3374
251.4370, 615.3354
252.6510, 812.3384
253.8660, 744.3462
255.0800, 782.3594
256.2940, 903.3765
257.5080, 950.3989
258.7220, 952.4263
259.9360, 921.9834
261.1490, 904.5737
262.3630, 938.1777
263.5760, 999.7651
264.7890, 1002.389
266.0020, 1097.758
267.2150, 1078.441
268.4270, 1215.147
269.6400, 1242.606
270.8520, 1299.611
272.0640, 1351.367
273.2760, 1328.138
274.4880, 1317.192
275.7000, 1375.713
276.9120, 1203.502
278.1230, 1082.294
279.3340, 983.0908
280.5450, 691.8945
281.7560, 524.7051
282.9670, 398.5264
284.1780, 314.5073
285.3880, 320.3467
286.5980, 472.5723
287.8090, 526.6875
289.0190, 581.8994
290.2290, 639.7012
291.4380, 813.4131
292.6480, 749.0972
293.8570, 937.7783
295.0670, 914.1016
296.2760, 1048.841
297.4850, 990.3486
298.6930, 1010.122
299.9020, 1119.922
301.1110, 1087.728
302.3190, 974.5488
303.5270, 886.3857
304.7350, 842.2378
305.9430, 799.1035
307.1510, 858.9834
308.3580, 907.8608
309.5660, 1115.768
310.7730, 1255.688
311.9800, 1403.620
313.1870, 1620.564
314.3940, 2000.522
315.6010, 2129.491
316.8070, 2456.288
318.0130, 2621.281
319.2200, 2841.284
320.4260, 3101.480
321.6310, 3339.194
322.8370, 3619.229
324.0430, 3790.396
325.2480, 4125.065
326.4540, 4296.131
327.6590, 5046.206
328.8640, 5563.291
330.0680, 6353.383
331.2730, 7363.484
332.4780, 7929.597
333.6820, 8634.716
334.8860, 9132.847
336.0900, 9735.981
337.2940, 10026.13
338.4980, 10223.28
339.7010, 10181.44
340.9050, 10298.33
342.1080, 9966.722
343.3110, 9296.732
344.5140, 8237.926
345.7170, 7059.844
346.9200, 5895.050
348.1220, 4776.580
349.3240, 3893.799
350.5270, 3164.252
351.7290, 2699.894
352.9310, 2252.669
354.1320, 1966.285
355.3340, 1660.226
356.5350, 1556.679
357.7370, 1282.439
358.9380, 1157.815
360.1390, 1126.687
361.3400, 1027.003
362.5400, 941.2700
363.7410, 809.6538
364.9410, 746.9321
366.1410, 781.3750
367.3410, 817.6611
368.5410, 731.9517
369.7410, 746.2471
370.9400, 874.5459
372.1400, 874.8501
373.3390, 878.1577
374.5380, 1010.470
375.7370, 1096.784
376.9360, 1111.103
378.1350, 1164.748
379.3330, 1084.747
380.5310, 1137.073
381.7300, 1046.400
382.9280, 932.7305
384.1260, 922.0625
385.3230, 766.3970
386.5210, 725.3564
387.7180, 751.0713
388.9160, 621.4111
390.1130, 603.7529
391.3100, 608.0967
392.5060, 479.4429
393.7030, 455.7905
394.9000, 595.1406
396.0960, 518.4932
397.2920, 556.8481
398.4880, 473.2046
399.6840, 462.5635
400.8800, 414.9243
402.0750, 392.2866
403.2710, 444.6514
404.4660, 335.0210
405.6610, 417.3955
406.8560, 316.7739
408.0510, 309.1567
409.2450, 255.5439
410.4400, 274.9365
411.6340, 343.3330
412.8280, 268.7334
414.0220, 292.1372
415.2160, 265.5454
416.4100, 209.9570
417.6030, 229.3726
418.7970, 212.7910
419.9900, 143.2134
421.1830, 92.63965
422.3760, 140.0679
423.5690, 136.5000
424.7610, 62.93555
425.9540, 11.37402
427.1460, 32.18408
428.3380, 55.24023
429.5300, 67.33203
430.7220, 144.9399
431.9140, 66.62500
433.1050, 36.65430
434.2970, 79.93701
435.4880, 23.22314
436.6790, 60.48682
437.8700, 5.229004
439.0610, 113.0264
440.2510, 24.71582
441.4420, 67.52881
442.6320, 12.77637
443.8220, 59.02686
445.0120, 32.28027
446.2020, 108.5371
447.3910, 135.7969
448.5810, 85.05957
449.7700, 183.3257
450.9600, 146.5942
452.1490, 194.8662
453.3370, 215.1411
454.5260, 126.4185
455.7150, 265.6982
456.9030, 340.9805
458.0910, 197.2651
459.2800, 234.5522
460.4670, 285.8428
461.6550, 357.1357
462.8430, 239.4302
464.0300, 395.7446
465.2180, 279.0835
466.4050, 216.4243
467.5920, 408.7749
468.7790, 428.1328
469.9650, 337.4932
471.1520, 352.8555
472.3380, 243.2202
473.5250, 218.5854
474.7110, 158.9546
475.8970, 252.3257
477.0820, 104.6978
478.2680, 166.0713
479.4540, 66.44775
480.6390, 131.8257
481.8240, 97.21338
483.0090, 37.39795
484.1940, 4.981934
485.3780, 102.6348
486.5630, 82.69092
487.7470, 52.98193
488.9320, 30.31250
490.1160, 62.39209
491.3000, 20.87305
492.4830, 76.84131
493.6670, 111.6016
494.8500, 0.4243160
496.0340, 63.24463
497.2170, 44.10254
498.4000, 36.98877
499.5820, 0.1035160
500.7650, 10.22119
501.9480, 1.648926
503.1300, 15.14160
504.3120, 39.64893
505.4940, 10.81055
506.6760, 20.97217
507.8580, 8.136719
509.0390, 77.29932
510.2210, 124.4688
511.4020, 96.63916
512.5830, 217.8105
513.7640, 143.9819
514.9450, 170.1548
516.1250, 156.3394
517.3060, 250.5254
518.4860, 269.7163
519.6660, 320.9126
520.8460, 278.1333
522.0260, 312.5303
523.2060, 358.0176
524.3850, 371.8525
525.5650, 434.1064
526.7440, 489.7134
527.9230, 536.6157
529.1020, 642.8809
530.2810, 747.1616
531.4590, 862.4463
532.6380, 947.7329
533.8160, 1020.024
534.9940, 1074.160
536.1720, 1038.685
537.3500, 1138.033
538.5270, 1140.384
539.7050, 1154.735
540.8820, 1007.086
542.0590, 1102.438
543.2360, 872.7900
544.4130, 726.1611
545.5900, 668.5322
546.7660, 609.9038
547.9430, 530.2754
549.1190, 533.6484
550.2950, 509.0225
551.4710, 495.3955
552.6470, 428.7686
553.8220, 427.1484
554.9980, 310.5283
556.1730, 363.9087
557.3480, 387.2891
558.5230, 308.6689
559.6980, 245.0493
560.8730, 349.4287
562.0470, 341.8076
563.2220, 295.1865
564.3960, 349.3311
565.5700, 336.4731
566.7440, 384.3213
567.9170, 354.6973
569.0910, 397.9224
570.2640, 381.2988
571.4380, 506.2993
572.6110, 307.4209
573.7840, 416.4517
574.9570, 407.8291
576.1290, 307.2065
577.3020, 327.5845
578.4740, 326.9844
579.6460, 343.7617
580.8180, 361.2896
581.9900, 350.7715
583.1620, 410.1528
584.3330, 338.5249
585.5040, 383.9077
586.6760, 306.2915
587.8470, 283.6763
589.0180, 339.0615
590.1880, 250.4473
591.3590, 384.8345
592.5290, 310.2212
593.7000, 291.6089
594.8700, 311.9980
596.0400, 267.3877
597.2090, 373.7773
598.3790, 452.1675
599.5490, 325.5586
600.7180, 234.9497
601.8870, 324.3413
603.0560, 283.7339
604.2250, 296.1270
605.3940, 387.5195
606.5620, 308.9131
607.7300, 273.7798
608.8990, 268.1733
610.0670, 367.5674
611.2350, 319.9609
612.4020, 408.3550
613.5700, 493.7495
614.7370, 479.3242
615.9050, 522.7178
617.0720, 497.1128
618.2390, 674.5073
619.4060, 632.9575
620.5720, 768.3652
621.7390, 825.4746
622.9050, 909.8691
624.0710, 949.7920
625.2370, 970.2490
626.4030, 1089.818
627.5690, 1111.212
628.7340, 1054.887
629.9000, 1077.282
631.0650, 976.6704
632.2300, 976.5547
633.3950, 1108.720
634.5600, 1200.703
635.7240, 1300.348
636.8890, 1349.366
638.0530, 1475.588
639.2170, 1459.631
640.3810, 1763.707
641.5450, 2036.790
642.7080, 2079.929
643.8720, 2555.874
645.0350, 2878.679
646.1980, 3334.972
647.3610, 3888.706
648.5240, 4498.950
649.6870, 5405.592
650.8490, 6219.999
652.0120, 7491.407
653.1740, 8721.815
654.3360, 10041.22
655.4980, 11260.23
656.6600, 12442.64
657.8210, 13517.97
658.9830, 14304.26
660.1440, 15091.03
661.3050, 15319.52
662.4660, 15147.97
663.6270, 14858.04
664.7870, 14110.45
665.9480, 13101.85
667.1080, 12253.26
668.2680, 11415.57
669.4280, 11055.54
670.5880, 11293.59
671.7480, 11751.12
672.9070, 12774.44
674.0670, 13972.99
675.2260, 15483.37
676.3850, 17351.97
677.5440, 19178.84
678.7030, 20638.24
679.8610, 22060.63
681.0200, 22541.03
682.1780, 23110.48
683.3360, 22942.95
684.4940, 22393.34
685.6520, 20625.73
686.8090, 18583.11
687.9670, 16124.80
689.1240, 13845.18
690.2810, 11254.56
691.4380, 9055.943
692.5950, 7411.604
693.7520, 6026.979
694.9080, 5002.478
696.0650, 3929.850
697.2210, 3470.221
698.3770, 2912.591
699.5330, 2518.959
700.6880, 2143.325
701.8440, 1859.690
702.9990, 1671.054
704.1550, 1623.416
705.3100, 1389.776
706.4650, 1362.136
707.6190, 1002.494
708.7740, 939.8608
709.9290, 812.2271
711.0830, 796.6113
712.2370, 653.0342
713.3910, 715.4756
714.5450, 694.9155
715.6980, 514.3545
716.8520, 425.7930
718.0050, 594.2480
719.1580, 406.7051
720.3110, 429.1621
721.4640, 460.6265
722.6170, 356.0903
723.7700, 388.5527
724.9220, 295.0151
726.0740, 351.4766
727.2260, 174.9375
728.3780, 288.3975
729.5300, 399.8569
730.6810, 128.3159
731.8330, 206.7744
732.9840, 247.2324
734.1350, 262.6895
735.2860, 183.1470
736.4370, 341.6035
737.5880, 188.0601
738.7380, 211.5166
739.8880, 45.97266
741.0390, 114.4282
742.1890, 114.8843
743.3380, 110.3398
744.4880, 138.7954
745.6380, 7.251465
746.7870, 130.7012
747.9360, 215.1514
749.0850, 79.60156
750.2340, 131.0522
751.3830, 114.5039
752.5310, 13.95508
753.6800, 106.4043
754.8280, 74.96387
755.9760, 33.41357
757.1240, 17.86426
758.2720, 20.31396
759.4190, 16.75732
760.5670, 72.19775
761.7140, 43.36719
762.8610, 9.948242
764.0080, 29.46191
765.1550, 113.9019
766.3020, 25.34326
767.4480, 116.8027
768.5950, 11.73633
769.7410, 66.26807
770.8870, 56.16211
772.0330, 79.61670
773.1780, 20.89453
774.3240, 29.58203
775.4690, 27.08008
776.6140, 3.593750
777.7590, 112.8823
778.9040, 39.41650
780.0490, 48.97217
781.1940, 70.55273
782.3380, 1.829102
783.4820, 15.20752
784.6260, 2.589844
785.7700, 51.49268
786.9140, 14.64648
788.0580, 112.7275
789.2010, 29.10498
790.3450, 78.48486
791.4880, 26.86768
792.6310, 39.74658
793.7730, 18.61865
794.9160, 11.01318
796.0590, 10.65088
797.2010, 88.29443
798.3430, 14.98193
799.4850, 49.67578
800.6270, 43.39404
801.7690, 28.86670
802.9100, 43.13184
804.0520, 10.40039
805.1930, 32.32666
806.3340, 61.06738
807.4750, 9.835938
808.6160, 0.3925780
809.7560, 15.85449
810.8970, 140.1504
812.0370, 17.99023
813.1770, 57.83496
814.3170, 8.704102
815.4570, 40.42676
816.5960, 53.56250
817.7360, 14.70508
818.8750, 0.1474610
820.0140, 75.99512
821.1530, 68.12695
822.2920, 74.25391
823.4310, 48.38770
824.5690, 8.471680
825.7070, 6.670898
826.8460, 78.82031
827.9840, 115.9756
829.1220, 30.86133
830.2590, 82.29492
831.3970, 4.541016
832.5340, 36.62793
833.6710, 46.80469
834.8080, 78.98828
835.9450, 81.58887
837.0820, 91.37891
838.2190, 93.58496
839.3550, 83.79980
840.4910, 117.0225
841.6270, 119.2529
842.7630, 222.4922
843.8990, 219.7383
845.0350, 200.9951
846.1700, 298.2578
847.3060, 204.5303
848.4410, 339.8105
849.5760, 214.1006
850.7100, 217.3994
851.8450, 313.7041
852.9800, 451.0195
854.1140, 377.3438
855.2480, 464.6758
856.3820, 386.0186
857.5160, 435.3691
858.6500, 463.7285
859.7830, 523.0977
860.9170, 568.4756
862.0500, 495.8633
863.1830, 516.2607
864.3160, 471.6670
865.4480, 354.0830
866.5810, 243.5098
867.7130, 249.9453
868.8460, 220.3916
869.9780, 148.8477
871.1100, 257.3145
872.2410, 202.7900
873.3730, 184.2773
874.5050, 141.7744
875.6360, 122.2822
876.7670, 250.8008
877.8980, 218.3301
879.0290, 242.8701
880.1590, 228.4209
881.2900, 207.9834
882.4200, 143.0830
883.5500, 264.6670
884.6800, 159.2627
885.8100, 134.8691
886.9400, 25.48730
888.0690, 130.1172
889.1990, 115.6914
890.3280, 9.767578
891.4570, 187.8965
892.5860, 205.5723
893.7140, 185.2061
894.8430, 58.89355
895.9710, 314.8936
897.1000, 232.6270
898.2280, 325.1270
899.3560, 302.6104
900.4830, 158.3828
901.6110, 240.1670
902.7380, 240.9814
903.8660, 346.8076
904.9930, 216.3594
906.1200, 244.7441
907.2460, 221.6328
908.3730, 240.5352
909.5000, 221.4082
910.6260, 315.5967
911.7520, 182.5449
912.8780, 307.1357
914.0040, 293.9336
915.1290, 320.1260
916.2550, 337.8086
917.3800, 424.2646
918.5050, 444.3223
919.6300, 547.0361
920.7550, 544.8154
921.8800, 596.9395
923.0040, 675.8447
924.1290, 995.0088
925.2530, 1050.189
926.3770, 1198.396
927.5010, 1506.620
928.6250, 1632.266
929.7480, 1862.530
930.8720, 2053.891
931.9950, 2196.304
933.1180, 2416.262
934.2410, 2602.510
935.3640, 2522.814
936.4860, 2778.527
937.6090, 2698.941
938.7310, 2503.372
939.8530, 2529.820
940.9750, 2206.385
942.0970, 2021.316
943.2180, 1805.191
944.3400, 1585.605
945.4610, 1470.276
946.5820, 1285.522
947.7030, 1118.395
948.8240, 1037.864
949.9450, 933.0928
951.0650, 864.8164
952.1860, 792.5840
953.3060, 837.3721
954.4260, 782.1143
955.5460, 740.8643
956.6650, 720.7158
957.7850, 703.6025
958.9040, 703.5078
960.0230, 707.1289
961.1420, 632.0742
962.2610, 596.0391
963.3800, 587.0371
964.4990, 763.7734
965.6170, 705.8154
966.7350, 751.7676
967.8530, 667.8662
968.9710, 766.9873
970.0890, 738.1270
971.2070, 893.2861
972.3240, 898.4648
973.4410, 917.6621
974.5580, 843.8828
975.6750, 1054.122
976.7920, 1035.382
977.9090, 1089.660
979.0250, 1175.957
980.1410, 1366.273
981.2580, 1461.609
982.3740, 1557.964
983.4890, 1835.338
984.6050, 1945.732
985.7200, 2175.146
986.8360, 2396.578
987.9510, 2863.052
989.0660, 3064.545
990.1810, 3558.058
991.2950, 4066.589
992.4100, 4847.141
993.5240, 5471.710
994.6390, 6669.299
995.7530, 7945.906
996.8660, 9355.534
997.9800, 11347.18
999.0940, 13648.85
1000.207, 16829.54
1001.320, 20623.25
1002.433, 25425.98
1003.546, 30728.73
1004.659, 35385.50
1005.772, 40206.28
1006.884, 44134.09
1007.996, 46174.91
1009.108, 47499.75
1010.220, 46892.60
1011.332, 44805.48
1012.444, 41112.38
1013.555, 35988.29
1014.666, 30360.21
1015.777, 24981.17
1016.888, 21348.14
1017.999, 18212.12
1019.110, 15999.13
1020.220, 14246.16
1021.331, 13069.20
1022.441, 12331.26
1023.551, 11699.34
1024.661, 11011.33
1025.770, 10570.44
1026.880, 10447.85
1027.989, 9879.996
1029.098, 9607.167
1030.207, 9060.932
1031.316, 8375.144
1032.425, 8094.385
1033.533, 7243.653
1034.642, 6527.938
1035.750, 5845.924
1036.858, 5096.241
1037.966, 4818.686
1039.073, 4193.044
1040.181, 3761.438
1041.288, 3285.848
1042.396, 2774.274
1043.503, 2559.003
1044.610, 2159.469
1045.716, 1963.951
1046.823, 1854.618
1047.929, 1648.167
1049.036, 1528.165
1050.142, 1379.764
1051.248, 1266.752
1052.353, 1180.411
1053.459, 1052.086
1054.564, 932.7764
1055.670, 811.6250
1056.775, 753.0312
1057.880, 746.1660
1058.985, 725.2314
1060.089, 624.9980
1061.194, 493.3389
1062.298, 589.8057
1063.402, 433.6260
1064.506, 472.4619
1065.610, 438.3164
1066.713, 270.2061
1067.817, 260.0820
1068.920, 309.0176
1070.023, 319.8574
1071.126, 349.8691
1072.229, 329.8535
1073.332, 389.7031
1074.435, 326.7402
1075.537, 324.9756
1076.639, 226.0215
1077.741, 275.3301
1078.843, 258.3076
1079.945, 362.1914
1081.046, 385.5234
1082.148, 388.6953
1083.249, 377.4141
1084.350, 359.1660
1085.451, 293.7598
1086.551, 275.0293
1087.652, 224.2490
1088.752, 171.0518
1089.853, 138.8682
1090.953, 122.4932
1092.053, 273.6045
1093.152, 115.1328
1094.252, 240.4307
1095.351, 258.9219
1096.451, 237.2344
1097.550, 82.81543
1098.649, 177.3916
1099.748, 183.6152
1100.846, 239.1680
1101.945, 197.6777
1103.043, 114.0361
1104.141, 20.46387
1105.239, 119.8535
1106.337, 125.9053
1107.434, 172.2832
1108.532, 174.6680
1109.629, 181.0566
1110.726, 60.45020
1111.823, 232.8477
1112.920, 103.2500
1114.017, 118.6553
1115.113, 209.1494
1116.210, 241.6191
1117.306, 319.0371
1118.402, 117.4590
1119.498, 179.1123
1120.593, 343.5400
1121.689, 196.1641
1122.784, 284.5977
1123.879, 317.0342
1124.974, 231.4707
1126.069, 228.9111
1127.164, 118.3535
1128.259, 122.1953
1129.353, 33.26562
1130.447, 130.8184
1131.541, 187.8711
1132.635, 107.3203
1133.729, 128.7715
1134.822, 131.2236
1135.916, 144.6758
1137.009, 63.12891
1138.102, 74.58203
1139.195, 39.03613
1140.288, 57.49023
1141.380, 78.94434
1142.473, 10.39844
1143.565, 86.85059
1144.657, 27.30469
1145.749, 17.75684
1146.841, 34.21582
1147.932, 9.674805
1149.024, 65.13184
1150.115, 79.58789
1151.206, 89.02637
1152.297, 103.2793
1153.388, 118.9492
1154.479, 76.39941
1155.569, 85.84961
1156.659, 21.29688
1157.750, 12.25781
1158.839, 49.18262
1159.929, 27.62109
1161.019, 36.94336
1162.108, 20.47559
1163.198, 27.89062
1164.287, 46.30371
1165.376, 35.74707
1166.465, 66.81250
1167.553, 39.59180
1168.642, 88.00781
1169.730, 72.34473
1170.818, 63.69238
1171.906, 68.03516
1172.994, 98.37305
1174.082, 23.29102
1175.170, 96.02734
1176.257, 50.34082
1177.344, 19.35059
1178.431, 26.94043
1179.518, 66.77344
1180.605, 17.53027
1181.691, 51.30469
1182.778, 58.88477
1183.864, 69.06738
1184.950, 16.24414
1186.036, 2.413086
1187.122, 21.42480
1188.207, 0.2871090
1189.292, 30.16211
1190.378, 69.93652
1191.463, 0.9736330
1192.548, 17.89746
1193.632, 83.15723
1194.717, 56.20410
1195.801, 43.24121
1196.886, 67.27148
1197.970, 3.705078
1199.054, 161.2998
1200.137, 96.70508
1201.221, 31.22363
1202.305, 88.14355
1203.388, 1.053711
1204.471, 1.053711
1205.554, 3.180664
1206.637, 15.32812
1207.719, 82.50195
1208.802, 3.259766
1209.884, 9.939453
1210.966, 48.22363
1212.048, 93.44824
1213.130, 36.89160
1214.212, 72.27246
1215.293, 32.28613
1216.374, 46.83203
1217.456, 67.36816
1218.536, 3.106445
1219.617, 34.60645
1220.698, 69.86035
1221.778, 38.21484
1222.859, 35.64844
1223.939, 74.56250
1225.019, 25.52148
1226.099, 87.84766
1227.178, 6.399414
1228.258, 25.26465
1229.337, 15.12012
1230.417, 44.39551
1231.496, 51.14941
1232.574, 84.16406
1233.653, 67.46289
1234.732, 78.77148
1235.810, 23.98340
1236.888, 161.1768
1237.966, 156.3584
1239.044, 197.5264
1240.122, 119.6836
1241.199, 148.4355
1242.277, 90.96484
1243.354, 151.0869
1244.431, 73.19531
1245.508, 80.29102
1246.585, 149.3740
1247.661, 226.4434
1248.738, 50.49902
1249.814, 97.50098
1250.890, 62.48730
1251.966, 116.4609
1253.042, 115.4209
1254.117, 107.3662
1255.193, 154.2998
1256.268, 219.2217
1257.343, 48.13184
1258.418, 37.02344
1259.493, 79.89648
1260.567, 38.75586
1261.642, 134.5967
1262.716, 269.4238
1263.790, 286.2363
1264.864, 184.0361
1265.938, 155.8223
1267.011, 310.5957
1268.085, 330.3555
1269.158, 351.1016
1270.231, 297.8340
1271.304, 180.5537
1272.377, 279.2598
1273.450, 211.9521
1274.522, 244.6318
1275.594, 248.0430
1276.666, 187.6943
1277.738, 188.3311
1278.810, 284.9551
1279.882, 222.5654
1280.953, 260.1611
1282.025, 162.8096
1283.096, 267.3789
1284.167, 260.9326
1285.238, 165.5742
1286.308, 179.0996
1287.379, 353.3408
1288.449, 271.8408
1289.519, 148.7324
1290.589, 340.6465
1291.659, 214.1045
1292.729, 298.5488
1293.798, 244.2812
1294.868, 351.6973
