##NAMES=Enstatite
##RRUFFID=R060630
##IDEAL CHEMISTRY=MgSiO_3_
##LOCALITY=unknown
##OWNER=RRUFF
##SOURCE=Gemological Institute of America
##DESCRIPTION=Tan colored fragment
##STATUS=The identification of this mineral has been confirmed by X-ray diffraction and chemical analysis
##URL=rruff.info/R060630
##MEASURED CHEMISTRY=(Mg_0.89_Fe_0.07_Al_0.04_)_Σ=1_(Si_0.96_Al_0.04_)_Σ=1_O_3_
##PIN_ID=L00984
##ORIENTATION=Laser parallel to a* (1 0 0). Fiducial mark perpendicular to laser is parallel to -b [0 -1 0]
118.1340, 0.0000000E+00
119.3650, 312.3877
120.5960, 11.60156
121.8270, 141.3447
123.0580, 527.0635
124.2880, 612.6064
125.5190, 470.3037
126.7490, 727.1270
127.9790, 1003.309
129.2090, 1503.928
130.4390, 2096.319
131.6680, 2954.185
132.8980, 3694.953
134.1270, 4735.770
135.3560, 5908.988
136.5850, 7325.771
137.8140, 9128.599
139.0430, 10833.67
140.2710, 11989.93
141.5000, 12126.32
142.7280, 11778.78
143.9560, 10584.30
145.1840, 8678.871
146.4120, 7088.867
147.6390, 5606.305
148.8670, 4658.389
150.0940, 3877.953
151.3210, 3660.225
152.5490, 3296.040
153.7750, 2661.150
155.0020, 2566.465
156.2290, 2238.627
157.4550, 1803.227
158.6810, 1374.986
159.9080, 973.6348
161.1340, 962.0781
162.3590, 878.3467
163.5850, 762.4668
164.8110, 742.4629
166.0360, 515.3516
167.2610, 507.1523
168.4860, 468.8809
169.7110, 357.5508
170.9360, 429.1699
172.1610, 381.7383
173.3850, 181.2656
174.6100, 22.23438
175.8340, 82.24219
177.0580, 52.70312
178.2820, 176.1602
179.5050, 123.3828
180.7290, 146.9180
181.9520, 235.4375
183.1760, 156.0625
184.3990, 18.41406
185.6220, 103.1348
186.8450, 367.7969
188.0670, 184.7637
189.2900, 161.8359
190.5120, 293.1816
191.7340, 436.8574
192.9560, 669.3164
194.1780, 918.9395
195.4000, 674.5117
196.6220, 909.2324
197.8430, 994.3809
199.0640, 1276.086
200.2860, 1465.625
201.5070, 1715.047
202.7270, 1797.709
203.9480, 1970.486
205.1690, 1870.381
206.3890, 1868.387
207.6090, 1721.492
208.8290, 1743.691
210.0490, 1407.979
211.2690, 1410.357
212.4890, 1084.820
213.7080, 895.3711
214.9280, 832.0039
216.1470, 528.7227
217.3660, 561.5234
218.5850, 730.4062
219.8030, 419.3633
221.0220, 526.3906
222.2400, 491.4648
223.4590, 744.4180
224.6770, 798.3730
225.8950, 844.4082
227.1120, 1114.525
228.3300, 1456.719
229.5480, 1704.984
230.7650, 2403.311
231.9820, 2791.703
233.1990, 3295.154
234.4160, 4305.668
235.6330, 5228.250
236.8490, 5688.926
238.0660, 5591.715
239.2820, 5304.562
240.4980, 4424.469
241.7140, 3564.434
242.9300, 2661.520
244.1460, 1956.689
245.3610, 1444.924
246.5770, 1016.209
247.7920, 627.5508
249.0070, 467.9492
250.2220, 371.3984
251.4370, 90.90039
252.6510, 125.4590
253.8660, 19.07031
255.0800, 86.26758
256.2940, 185.5508
257.5080, 316.2188
258.7220, 146.4297
259.9360, 97.50391
261.1490, 168.6602
262.3630, 97.50977
263.5760, 260.6523
264.7890, 61.69531
266.0020, 53.37305
267.2150, 53.68359
268.4270, 188.4258
269.6400, 221.8828
270.8520, 123.1328
272.0640, 57.19141
273.2760, 110.0879
274.4880, 15.13672
275.7000, 56.48633
276.9120, 11.05469
278.1230, 134.4961
279.3340, 71.86914
280.5450, 50.82617
281.7560, 165.5586
282.9670, 109.3672
284.1780, 233.2129
285.3880, 97.09375
286.5980, 226.0098
287.8090, 488.9570
289.0190, 470.9375
290.2290, 447.9512
291.4380, 493.9961
292.6480, 709.0430
293.8570, 874.1250
295.0670, 1043.111
296.2760, 1099.713
297.4850, 1123.406
298.6930, 1141.119
299.9020, 1078.873
301.1110, 1061.664
302.3190, 986.4844
303.5270, 953.3242
304.7350, 701.1855
305.9430, 795.0918
307.1510, 740.0332
308.3580, 1009.996
309.5660, 896.0059
310.7730, 1093.043
311.9800, 1050.119
313.1870, 1248.250
314.3940, 1445.410
315.6010, 1549.596
316.8070, 1583.838
318.0130, 1737.121
319.2200, 1784.463
320.4260, 2249.979
321.6310, 2350.418
322.8370, 2607.916
324.0430, 2770.441
325.2480, 3087.113
326.4540, 3657.516
327.6590, 4168.795
328.8640, 4545.449
330.0680, 5067.467
331.2730, 5622.199
332.4780, 6643.908
333.6820, 7306.545
334.8860, 8255.213
336.0900, 9260.859
337.2940, 10311.37
338.4980, 11856.86
339.7010, 13161.19
340.9050, 14753.47
342.1080, 16282.73
343.3110, 17874.02
344.5140, 19353.31
345.7170, 20659.64
346.9200, 21695.01
348.1220, 22482.41
349.3240, 22728.86
350.5270, 22262.34
351.7290, 21766.64
352.9310, 20783.32
354.1320, 19319.91
355.3340, 18266.62
356.5350, 16567.27
357.7370, 15291.97
358.9380, 14251.70
360.1390, 12824.45
361.3400, 12033.25
362.5400, 10838.07
363.7410, 9635.934
364.9410, 9055.736
366.1410, 8200.059
367.3410, 7422.250
368.5410, 6941.258
369.7410, 6208.277
370.9400, 5929.330
372.1400, 5370.412
373.3390, 5178.531
374.5380, 4913.678
375.7370, 4823.859
376.9360, 4771.072
378.1350, 4411.314
379.3330, 4203.592
380.5310, 4242.895
381.7300, 4037.230
382.9280, 4330.598
384.1260, 4197.994
385.3230, 4066.424
386.5210, 4337.881
387.7180, 4260.367
388.9160, 4463.883
390.1130, 4569.430
391.3100, 4663.084
392.5060, 4568.605
393.7030, 5010.238
394.9000, 5126.902
396.0960, 5454.592
397.2920, 5754.309
398.4880, 6169.004
399.6840, 6307.588
400.8800, 6270.541
402.0750, 6575.371
403.2710, 6522.230
404.4660, 6559.113
405.6610, 6368.029
406.8560, 6321.383
408.0510, 6230.357
409.2450, 5962.777
410.4400, 6101.697
411.6340, 5945.674
412.8280, 6451.148
414.0220, 6464.703
415.2160, 7062.043
416.4100, 7286.986
417.6030, 7366.098
418.7970, 7575.355
419.9900, 7301.664
421.1830, 7293.977
422.3760, 6653.320
423.5690, 6106.945
424.7610, 5411.340
425.9540, 4670.100
427.1460, 3871.547
428.3380, 3131.021
429.5300, 2789.520
430.7220, 2455.043
431.9140, 2390.590
433.1050, 2181.164
434.2970, 2213.758
435.4880, 2345.379
436.6790, 2407.021
437.8700, 3119.691
439.0610, 3637.387
440.2510, 4347.104
441.4420, 4854.848
442.6320, 5347.619
443.8220, 6034.418
445.0120, 5985.238
446.2020, 6123.084
447.3910, 5916.957
448.5810, 5117.438
449.7700, 4533.199
450.9600, 3936.145
452.1490, 3386.266
453.3370, 2984.260
454.5260, 2510.818
455.7150, 1861.754
456.9030, 1800.498
458.0910, 1426.582
459.2800, 1236.105
460.4670, 1156.570
461.6550, 824.6387
462.8430, 1044.418
464.0300, 774.3457
465.2180, 702.2578
466.4050, 820.4961
467.5920, 547.8125
468.7790, 585.1152
469.9650, 556.4609
471.1520, 408.8906
472.3380, 407.3418
473.5250, 458.8652
474.7110, 325.3574
475.8970, 187.1855
477.0820, 283.7129
478.2680, 170.2598
479.4540, 250.8242
480.6390, 248.4082
481.8240, 190.0098
483.0090, 259.6328
484.1940, 209.2734
485.3780, 51.93750
486.5630, 318.6230
487.7470, 179.3242
488.9320, 157.0488
490.1160, 17.79102
491.3000, 88.55469
492.4830, 84.33594
493.6670, 48.85938
494.8500, 35.05664
496.0340, 12.75391
497.2170, 110.4160
498.4000, 53.38281
499.5820, 11.20508
500.7650, 56.07031
501.9480, 95.95117
503.1300, 173.8496
504.3120, 60.76758
505.4940, 99.70312
506.6760, 123.3320
507.8580, 15.39258
509.0390, 35.43164
510.2210, 30.55469
511.4020, 218.5293
512.5830, 117.6309
513.7640, 299.7812
514.9450, 466.9648
516.1250, 409.2109
517.3060, 442.4727
518.4860, 503.7500
519.6660, 520.0410
520.8460, 574.3477
522.0260, 588.8320
523.2060, 652.0742
524.3850, 642.5039
525.5650, 691.0020
526.7440, 778.5371
527.9230, 556.1133
529.1020, 582.7031
530.2810, 571.3086
531.4590, 804.9355
532.6380, 804.6035
533.8160, 889.3125
534.9940, 953.0469
536.1720, 1195.826
537.3500, 1034.631
538.5270, 1151.445
539.7050, 1218.277
540.8820, 817.1191
542.0590, 969.0039
543.2360, 959.9512
544.4130, 694.9082
545.5900, 758.8750
546.7660, 740.8535
547.9430, 674.8438
549.1190, 666.8711
550.2950, 690.9707
551.4710, 459.1016
552.6470, 497.2539
553.8220, 392.4336
554.9980, 600.6660
556.1730, 359.9668
557.3480, 416.3066
558.5230, 303.6680
559.6980, 390.0664
560.8730, 5.476563
562.0470, 162.8926
563.2220, 115.3203
564.3960, 105.2441
565.5700, 158.1621
566.7440, 155.4258
567.9170, 201.9121
569.0910, 341.2578
570.2640, 121.6074
571.4380, 76.96484
572.6110, 185.3301
573.7840, 320.6992
574.9570, 351.0742
576.1290, 151.4570
577.3020, 146.8457
578.4740, 111.2363
579.6460, 239.6367
580.8180, 144.0391
581.9900, 875.4453
583.1620, 954.8574
584.3330, 946.2754
585.5040, 653.6953
586.6760, 93.11914
587.8470, 152.5488
589.0180, 62.01758
590.1880, 31.62500
591.3590, 81.74414
592.5290, 69.88086
593.7000, 37.44727
594.8700, 34.22070
596.0400, 87.91602
597.2090, 9.332031
598.3790, 94.57617
599.5490, 88.17773
600.7180, 17.98633
601.8870, 112.8203
603.0560, 21.71875
604.2250, 91.64258
605.3940, 90.62500
606.5620, 52.33398
607.7300, 10.70703
608.8990, 49.23242
610.0670, 8.828125
611.2350, 136.0918
612.4020, 111.0137
613.5700, 43.06641
614.7370, 222.8164
615.9050, 28.69922
617.0720, 228.5742
618.2390, 264.4531
619.4060, 74.32617
620.5720, 318.2012
621.7390, 310.0742
622.9050, 312.9492
624.0710, 367.8184
625.2370, 487.6895
626.4030, 593.5566
627.5690, 598.4238
628.7340, 838.2871
629.9000, 1095.152
631.0650, 1439.012
632.2300, 1614.869
633.3950, 1751.283
634.5600, 1828.359
635.7240, 2194.080
636.8890, 2343.930
638.0530, 2839.895
639.2170, 2992.736
640.3810, 2977.391
641.5450, 3426.230
642.7080, 3406.064
643.8720, 3643.895
645.0350, 3945.723
646.1980, 4260.633
647.3610, 4894.254
648.5240, 5440.082
649.6870, 6444.744
650.8490, 7329.102
652.0120, 8289.555
653.1740, 9274.398
654.3360, 10587.56
655.4980, 11913.95
656.6600, 13614.73
657.8210, 14628.50
658.9830, 15804.26
660.1440, 16525.24
661.3050, 16817.51
662.4660, 16715.05
663.6270, 15834.50
664.7870, 15058.36
665.9480, 14299.22
667.1080, 13655.43
668.2680, 13020.13
669.4280, 12734.89
670.5880, 12489.73
671.7480, 12566.69
672.9070, 12946.07
674.0670, 13934.45
675.2260, 15010.44
676.3850, 16478.09
677.5440, 18525.69
678.7030, 21035.28
679.8610, 23669.86
681.0200, 26882.72
682.1780, 30634.27
683.3360, 33298.81
684.4940, 35865.34
685.6520, 37274.84
686.8090, 37237.33
687.9670, 35797.81
689.1240, 33810.28
690.2810, 30231.72
691.4380, 26593.16
692.5950, 23494.58
693.7520, 20134.99
694.9080, 17134.38
696.0650, 14887.76
697.2210, 12809.12
698.3770, 10856.47
699.5330, 9323.799
700.6880, 8362.096
701.8440, 7368.396
702.9990, 6550.678
704.1550, 5978.633
705.3100, 5135.887
706.4650, 4947.789
707.6190, 4376.012
708.7740, 4150.217
709.9290, 3740.410
711.0830, 3347.588
712.2370, 3326.750
713.3910, 2785.898
714.5450, 2630.031
715.6980, 2465.150
716.8520, 2293.256
718.0050, 2357.344
719.1580, 2072.416
720.3110, 2129.477
721.4640, 1919.520
722.6170, 1808.549
723.7700, 1627.564
724.9220, 1449.562
726.0740, 1728.547
727.2260, 1464.520
728.3780, 1570.889
729.5300, 1524.990
730.6810, 1416.916
731.8330, 1429.678
732.9840, 1271.578
734.1350, 1382.332
735.2860, 1128.896
736.4370, 1243.074
737.5880, 1099.920
738.7380, 1181.334
739.8880, 1197.820
741.0390, 1113.711
742.1890, 844.9004
743.3380, 992.9570
744.4880, 906.0371
745.6380, 1031.797
746.7870, 1010.492
747.9360, 1142.230
749.0850, 940.9707
750.2340, 1039.688
751.3830, 1121.396
752.5310, 979.0371
753.6800, 984.7246
754.8280, 781.0859
755.9760, 687.7520
757.1240, 440.4102
758.2720, 448.0586
759.4190, 634.6973
760.5670, 204.3281
761.7140, 566.9492
762.8610, 486.5605
764.0080, 325.1641
765.1550, 344.7578
766.3020, 475.3438
767.4480, 182.9199
768.5950, 130.4883
769.7410, 214.0488
770.8870, 29.59961
772.0330, 215.1367
773.1780, 144.6738
774.3240, 154.2090
775.4690, 44.73828
776.6140, 77.58008
777.7590, 64.18945
778.9040, 96.28125
780.0490, 101.7441
781.1940, 71.20117
782.3380, 117.6484
783.4820, 22.91016
784.6260, 1.507813
785.7700, 13.10352
786.9140, 46.27148
788.0580, 64.35547
789.2010, 305.0312
790.3450, 104.8965
791.4880, 30.83594
792.6310, 146.8164
793.7730, 79.10352
794.9160, 213.0156
796.0590, 121.9238
797.2010, 24.82422
798.3430, 53.28320
799.4850, 58.43945
800.6270, 105.4883
801.7690, 176.9297
802.9100, 66.32422
804.0520, 88.77148
805.1930, 55.71875
806.3340, 24.20117
807.4750, 6.318359
808.6160, 88.86328
809.7560, 96.70508
810.8970, 18.13672
812.0370, 108.8281
813.1770, 40.58984
814.3170, 37.61523
815.4570, 17.81641
816.5960, 171.0117
817.7360, 16.79492
818.8750, 139.3809
820.0140, 256.5488
821.1530, 64.71875
822.2920, 197.8848
823.4310, 279.0527
824.5690, 426.2168
825.7070, 289.3770
826.8460, 206.5352
827.9840, 296.6934
829.1220, 353.8477
830.2590, 362.0723
831.3970, 538.1680
832.5340, 472.3359
833.6710, 450.5039
834.8080, 550.6699
835.9450, 632.8750
837.0820, 979.0000
838.2190, 982.1660
839.3550, 1282.365
840.4910, 1552.564
841.6270, 1485.791
842.7630, 1821.059
843.8990, 1960.369
845.0350, 2210.680
846.1700, 2217.992
847.3060, 2187.305
848.4410, 2332.627
849.5760, 2247.949
850.7100, 2117.275
851.8450, 2347.602
852.9800, 2112.932
854.1140, 2338.262
855.2480, 2276.598
856.3820, 2074.934
857.5160, 1833.273
858.6500, 1772.256
859.7830, 1634.963
860.9170, 1575.309
862.0500, 1592.660
863.1830, 1531.018
864.3160, 1533.375
865.4480, 1509.760
866.5810, 1456.162
867.7130, 1510.570
868.8460, 1250.006
869.9780, 1197.451
871.1100, 1185.918
872.2410, 1215.426
873.3730, 942.9414
874.5050, 1061.467
875.6360, 1037.023
876.7670, 838.6016
877.8980, 826.2148
879.0290, 934.8496
880.1590, 831.5215
881.2900, 707.2305
882.4200, 715.9414
883.5500, 696.6738
884.6800, 593.4219
885.8100, 681.1992
886.9400, 602.9844
888.0690, 531.7891
889.1990, 604.6270
890.3280, 402.4844
891.4570, 606.3691
892.5860, 449.2637
893.7140, 504.1660
894.8430, 662.0762
895.9710, 341.9961
897.1000, 552.9238
898.2280, 799.8750
899.3560, 533.8730
900.4830, 598.9082
901.6110, 495.9609
902.7380, 570.0195
903.8660, 682.0898
904.9930, 393.1699
906.1200, 505.2578
907.2460, 633.7988
908.3730, 702.9102
909.5000, 787.0312
910.6260, 674.1641
911.7520, 743.0996
912.8780, 851.2500
914.0040, 665.5977
915.1290, 1002.770
916.2550, 890.9551
917.3800, 1002.148
918.5050, 956.3613
919.6300, 1008.496
920.7550, 1133.016
921.8800, 1084.848
923.0040, 1219.020
924.1290, 1258.715
925.2530, 1316.352
926.3770, 1280.600
927.5010, 1515.549
928.6250, 1393.271
929.7480, 1698.611
930.8720, 1858.967
931.9950, 1628.346
933.1180, 1658.512
934.2410, 1684.400
935.3640, 1722.025
936.4860, 1947.762
937.6090, 1851.107
938.7310, 2005.459
939.8530, 1906.486
940.9750, 1864.652
942.0970, 2037.523
943.2180, 1844.941
944.3400, 1821.252
945.4610, 2110.145
946.5820, 2064.068
947.7030, 1859.410
948.8240, 1922.117
949.9450, 1962.904
951.0650, 1956.707
952.1860, 2160.537
953.3060, 2082.086
954.4260, 2100.959
955.5460, 1649.057
956.6650, 1769.967
957.7850, 1546.902
958.9040, 1548.859
960.0230, 1410.836
961.1420, 1186.832
962.2610, 910.8496
963.3800, 1047.893
964.4990, 649.9590
965.6170, 787.3008
966.7350, 701.8574
967.8530, 448.9863
968.9710, 511.1328
970.0890, 389.3027
971.2070, 519.4941
972.3240, 435.7051
973.4410, 402.2500
974.5580, 275.5020
975.6750, 330.8125
976.7920, 418.2988
977.9090, 406.6523
979.0250, 397.0215
980.1410, 539.4141
981.2580, 450.8203
982.3740, 586.6953
983.4890, 744.1445
984.6050, 797.6113
985.7200, 1064.096
986.8360, 1146.600
987.9510, 1195.127
989.0660, 1408.674
990.1810, 1523.240
991.2950, 1624.830
992.4100, 1946.879
993.5240, 2492.068
994.6390, 2631.723
995.7530, 3187.418
996.8660, 3687.129
997.9800, 3922.857
999.0940, 4539.609
1000.207, 5180.381
1001.320, 5795.207
1002.433, 6371.230
1003.546, 7008.977
1004.659, 7491.785
1005.772, 8163.742
1006.884, 8704.654
1007.996, 9102.586
1009.108, 9346.535
1010.220, 9828.500
1011.332, 9680.477
1012.444, 9878.473
1013.555, 9589.486
1014.666, 9310.512
1015.777, 9109.555
1016.888, 8836.137
1017.999, 8657.008
1019.110, 8398.553
1020.220, 8115.684
1021.331, 7977.852
1022.441, 7836.953
1023.551, 7884.730
1024.661, 7756.783
1025.770, 7803.602
1026.880, 7926.809
1027.989, 7918.082
1029.098, 7862.508
1030.207, 7851.785
1031.316, 8019.531
1032.425, 7616.109
1033.533, 7650.703
1034.642, 7628.402
1035.750, 7003.832
1036.858, 6737.275
1037.966, 6329.729
1039.073, 5937.188
1040.181, 5283.055
1041.288, 5028.064
1042.396, 4343.562
1043.503, 4148.449
1044.610, 3643.971
1045.716, 3333.523
1046.823, 3040.309
1047.929, 2567.883
1049.036, 2527.750
1050.142, 2163.342
1051.248, 2114.357
1052.353, 1952.967
1053.459, 1621.602
1054.564, 1660.256
1055.670, 1524.930
1056.775, 1297.973
1057.880, 1200.160
1058.985, 1187.381
1060.089, 832.6562
1061.194, 963.5371
1062.298, 760.4727
1063.402, 788.4141
1064.506, 737.2734
1065.610, 827.2285
1066.713, 761.2812
1067.817, 558.6445
1068.920, 506.1445
1070.023, 403.7988
1071.126, 444.9160
1072.229, 652.3027
1073.332, 392.7383
1074.435, 474.9219
1075.537, 333.3652
1076.639, 438.5781
1077.741, 209.8125
1078.843, 1.207031
1079.945, 345.8359
1081.046, 242.1543
1082.148, 394.1797
1083.249, 216.0801
1084.350, 141.5898
1085.451, 138.9297
1086.551, 94.42578
1087.652, 16.22070
1088.752, 736.1309
1089.853, 939.2188
1090.953, 984.5723
1092.053, 766.4180
1093.152, 199.7715
1094.252, 154.3438
1095.351, 300.9863
1096.451, 413.1094
1097.550, 100.5371
1098.649, 26.96680
1099.748, 60.34570
1100.846, 108.9141
1101.945, 286.5293
1103.043, 18.96680
1104.141, 99.20508
1105.239, 161.3594
1106.337, 85.95117
1107.434, 86.36719
1108.532, 184.9727
1109.629, 5.115234
1110.726, 128.2559
1111.823, 35.73242
1112.920, 45.01562
1114.017, 49.43164
1115.113, 163.0898
1116.210, 360.2988
1117.306, 388.3984
1118.402, 230.7930
1119.498, 271.0840
1120.593, 352.1680
1121.689, 318.7109
1122.784, 566.5840
1123.879, 506.6445
1124.974, 609.6992
1126.069, 375.7285
1127.164, 124.7012
1128.259, 659.7344
1129.353, 212.0508
1130.447, 103.1250
1131.541, 235.4805
1132.635, 141.9160
1133.729, 186.5430
1134.822, 23.47461
1135.916, 39.48828
1137.009, 43.56055
1138.102, 191.3594
1139.195, 358.4492
1140.288, 305.4336
1141.380, 96.63281
1142.473, 250.5098
1143.565, 266.3770
1144.657, 162.2344
1145.749, 151.0820
1146.841, 130.9160
1147.932, 17.74023
1149.024, 35.27734
1150.115, 39.41211
1151.206, 62.83398
1152.297, 42.43945
1153.388, 24.75391
1154.479, 32.09570
1155.569, 58.15039
1156.659, 2.371094
1157.750, 188.9238
1158.839, 74.98047
1159.929, 43.69336
1161.019, 169.8711
1162.108, 41.51172
1163.198, 117.4863
1164.287, 97.65430
1165.376, 2.822266
1166.465, 198.9707
1167.553, 303.3008
1168.642, 175.5156
1169.730, 256.7617
1170.818, 39.94141
1171.906, 26.10156
1172.994, 209.5664
1174.082, 48.68359
1175.170, 220.7773
1176.257, 137.8574
1177.344, 86.91406
1178.431, 267.9531
1179.518, 81.97266
1180.605, 273.9727
1181.691, 9.949219
1182.778, 214.8965
1183.864, 157.8203
1184.950, 297.7812
1186.036, 215.6680
1187.122, 76.53320
1188.207, 58.37695
1189.292, 69.19336
1190.378, 67.98828
1191.463, 462.7578
1192.548, 313.5078
1193.632, 358.2344
1194.717, 9.939453
1195.801, 182.6035
1196.886, 158.2441
1197.970, 92.86133
1199.054, 73.45508
1200.137, 61.98047
1201.221, 230.5020
1202.305, 8.966797
1203.388, 129.3848
1204.471, 242.7754
1205.554, 195.1445
1206.637, 133.7754
1207.719, 418.1074
1208.802, 169.4121
1209.884, 148.3301
1210.966, 315.8242
1212.048, 89.04883
1213.130, 82.97852
1214.212, 166.9766
1215.293, 307.9453
1216.374, 174.8906
1217.456, 221.8047
1218.536, 290.4922
1219.617, 70.35547
1220.698, 228.1875
1221.778, 100.9941
1222.859, 333.7695
1223.939, 166.5215
1225.019, 46.24219
1226.099, 73.92383
1227.178, 267.5762
1228.258, 160.7930
1229.337, 383.0898
1230.417, 161.6582
1231.496, 151.1973
1232.574, 194.7070
1233.653, 65.18945
1234.732, 196.6328
1235.810, 204.7422
1236.888, 77.86719
1237.966, 121.4219
1239.044, 54.53320
1240.122, 318.7754
1241.199, 137.9980
1242.277, 184.1875
1243.354, 120.3516
1244.431, 122.0352
1245.508, 197.1367
1246.585, 274.2109
1247.661, 152.2734
1248.738, 46.30469
1249.814, 231.2930
1250.890, 115.2617
1251.966, 28.19922
1253.042, 265.1055
1254.117, 292.1250
1255.193, 24.98047
1256.268, 26.21094
1257.343, 322.5312
1258.418, 164.2422
1259.493, 59.92969
1260.567, 152.5781
1261.642, 80.80078
1262.716, 100.4727
1263.790, 509.2070
1264.864, 349.6836
1265.938, 315.1172
1267.011, 370.4648
1268.085, 194.8477
1269.158, 144.2578
1270.231, 249.5859
1271.304, 303.9141
1272.377, 313.4531
1273.450, 406.7070
1274.522, 416.8711
1275.594, 697.3203
1276.666, 433.4922
1277.738, 201.4492
1278.810, 109.4258
1279.882, 343.0586
1280.953, 302.1055
1282.025, 324.3906
1283.096, 291.7031
1284.167, 160.4805
1285.238, 2.460938
1286.308, 84.80859
1287.379, 111.6797
1288.449, 190.9844
1289.519, 57.39844
1290.589, 32.67578
1291.659, 103.5508
1292.729, 75.07031
1293.798, 94.24219
1294.868, 95.56641
1295.937, 196.8477
1297.006, 257.2344
