##NAMES=Enstatite
##RRUFFID=R060630
##IDEAL CHEMISTRY=MgSiO_3_
##LOCALITY=unknown
##OWNER=RRUFF
##SOURCE=Gemological Institute of America
##DESCRIPTION=Tan colored fragment
##STATUS=The identification of this mineral has been confirmed by X-ray diffraction and chemical analysis
##URL=rruff.info/R060630
##MEASURED CHEMISTRY=(Mg_0.89_Fe_0.07_Al_0.04_)_Σ=1_(Si_0.96_Al_0.04_)_Σ=1_O_3_
##PIN_ID=L01005
##ORIENTATION=Laser parallel to c* (0 0 1). Fiducial mark perpendicular to laser is parallel to a [1 0 0]
118.1340, 0.0000000E+00
119.3650, 62.22900
120.5960, 3.842773
121.8270, 29.17969
123.0580, 84.48145
124.2880, 55.48145
125.5190, 8.466309
126.7490, 29.13867
127.9790, 1.203613
129.2090, 58.42871
130.4390, 70.13330
131.6680, 127.7734
132.8980, 76.59131
134.1270, 6.414063
135.3560, 157.8105
136.5850, 101.7217
137.8140, 160.1206
139.0430, 313.9780
140.2710, 352.2637
141.5000, 284.9492
142.7280, 171.0103
143.9560, 307.4233
145.1840, 230.1675
146.4120, 361.2246
147.6390, 356.7490
148.8670, 318.0723
150.0940, 294.3076
151.3210, 470.1992
152.5490, 340.3691
153.7750, 389.8057
155.0020, 211.4966
156.2290, 255.4243
157.4550, 254.5674
158.6810, 168.9097
159.9080, 98.43750
161.1340, 192.1406
162.3590, 89.01221
163.5850, 193.0454
164.8110, 141.2329
166.0360, 70.56836
167.2610, 33.04590
168.4860, 33.66064
169.7110, 54.40674
170.9360, 36.45898
172.1610, 67.27979
173.3850, 36.40723
174.6100, 11.66504
175.8340, 10.05273
177.0580, 83.42871
178.2820, 23.22266
179.5050, 46.00732
180.7290, 16.07422
181.9520, 83.97412
183.1760, 96.14551
184.3990, 70.43604
185.6220, 191.8398
186.8450, 262.3535
188.0670, 356.9731
189.2900, 282.6934
190.5120, 359.5112
191.7340, 325.4038
192.9560, 486.2959
194.1780, 471.1909
195.4000, 550.0977
196.6220, 661.0215
197.8430, 608.9727
199.0640, 862.9531
200.2860, 945.9683
201.5070, 1062.020
202.7270, 1082.110
203.9480, 1113.265
205.1690, 1120.483
206.3890, 1121.749
207.6090, 1097.787
208.8290, 1100.459
210.0490, 1066.882
211.2690, 1076.349
212.4890, 1161.859
213.7080, 1215.416
214.9280, 1225.016
216.1470, 1120.661
217.3660, 1305.352
218.5850, 1375.088
219.8030, 1449.869
221.0220, 1697.684
222.2400, 1822.542
223.4590, 2218.498
224.6770, 2574.159
225.8950, 2994.618
227.1120, 3557.819
228.3300, 4103.160
229.5480, 4807.625
230.7650, 5468.140
231.9820, 6230.741
233.1990, 6658.480
234.4160, 7307.286
235.6330, 7620.169
236.8490, 7623.215
238.0660, 7120.351
239.2820, 6208.586
240.4980, 5352.901
241.7140, 4400.310
242.9300, 3497.780
244.1460, 2854.271
245.3610, 2095.783
246.5770, 1691.313
247.7920, 1369.864
249.0070, 1138.436
250.2220, 905.0269
251.4370, 701.6367
252.6510, 724.2671
253.8660, 503.9165
255.0800, 584.5850
256.2940, 444.2725
257.5080, 612.9785
258.7220, 531.7036
259.9360, 493.5649
261.1490, 470.2090
262.3630, 382.9893
263.5760, 357.7871
264.7890, 296.5078
266.0020, 378.8423
267.2150, 313.7896
268.4270, 505.2754
269.6400, 393.9038
270.8520, 532.6479
272.0640, 614.1777
273.2760, 693.1294
274.4880, 778.1514
275.7000, 800.2817
276.9120, 911.4946
278.1230, 1001.785
279.3340, 999.1460
280.5450, 922.5747
281.7560, 935.0684
282.9670, 845.6250
284.1780, 831.2412
285.3880, 780.9150
286.5980, 783.6455
287.8090, 689.4297
289.0190, 642.2129
290.2290, 662.1006
291.4380, 789.0376
292.6480, 751.1738
293.8570, 873.1680
295.0670, 879.8540
296.2760, 867.9126
297.4850, 933.0391
298.6930, 764.2080
299.9020, 760.4180
301.1110, 773.6685
302.3190, 716.9575
303.5270, 756.2856
304.7350, 684.6509
305.9430, 740.0527
307.1510, 697.4893
308.3580, 835.9619
309.5660, 934.4678
310.7730, 930.0078
311.9800, 1135.580
313.1870, 1459.186
314.3940, 1573.822
315.6010, 2012.489
316.8070, 2234.186
318.0130, 2568.914
319.2200, 2835.671
320.4260, 3329.457
321.6310, 3549.270
322.8370, 3827.438
324.0430, 4010.305
325.2480, 4200.181
326.4540, 4484.783
327.6590, 4737.729
328.8640, 4986.586
330.0680, 5035.259
331.2730, 5332.596
332.4780, 5150.899
333.6820, 5237.214
334.8860, 5506.779
336.0900, 5839.604
337.2940, 6037.729
338.4980, 6643.423
339.7010, 7048.588
340.9050, 7379.278
342.1080, 7837.588
343.3110, 8186.269
344.5140, 8645.049
345.7170, 8870.017
346.9200, 9077.302
348.1220, 9256.699
349.3240, 8919.020
350.5270, 8629.593
351.7290, 8222.422
352.9310, 7937.144
354.1320, 7262.606
355.3340, 6789.817
356.5350, 6296.243
357.7370, 5817.552
358.9380, 5327.071
360.1390, 4918.816
361.3400, 4498.579
362.5400, 4145.711
363.7410, 3801.934
364.9410, 3524.820
366.1410, 3208.366
367.3410, 2919.926
368.5410, 2708.579
369.7410, 2641.085
370.9400, 2403.686
372.1400, 2306.298
373.3390, 2275.923
374.5380, 2167.561
375.7370, 2120.209
376.9360, 1998.868
378.1350, 1962.540
379.3330, 2056.222
380.5310, 1914.915
381.7300, 1829.618
382.9280, 1797.330
384.1260, 1600.052
385.3230, 1676.783
386.5210, 1574.523
387.7180, 1434.272
388.9160, 1425.030
390.1130, 1413.797
391.3100, 1266.572
392.5060, 1316.355
393.7030, 1217.148
394.9000, 1183.950
396.0960, 1200.760
397.2920, 1116.578
398.4880, 1161.405
399.6840, 1050.240
400.8800, 989.0845
402.0750, 905.9370
403.2710, 988.7974
404.4660, 949.6665
405.6610, 856.5430
406.8560, 673.4277
408.0510, 732.3208
409.2450, 720.2319
410.4400, 623.1621
411.6340, 616.1138
412.8280, 588.0840
414.0220, 609.0728
415.2160, 555.0786
416.4100, 593.1035
417.6030, 444.1445
418.7970, 398.2026
419.9900, 365.0483
421.1830, 300.8979
422.3760, 281.4688
423.5690, 274.5869
424.7610, 239.7202
425.9540, 286.8667
427.1460, 78.02686
428.3380, 144.2002
429.5300, 40.38721
430.7220, 76.58740
431.9140, 60.20068
433.1050, 69.99707
434.2970, 17.20654
435.4880, 1.572266
436.6790, 137.6572
437.8700, 13.10156
439.0610, 19.85645
440.2510, 88.38818
441.4420, 58.64502
442.6320, 165.9111
443.8220, 98.18799
445.0120, 213.4751
446.2020, 204.7729
447.3910, 340.0796
448.5810, 219.3965
449.7700, 421.7227
450.9600, 349.0576
452.1490, 355.4023
453.3370, 370.7554
454.5260, 414.1172
455.7150, 343.4878
456.9030, 466.8667
458.0910, 316.2539
459.2800, 357.6489
460.4670, 290.0518
461.6550, 224.4624
462.8430, 235.9287
464.0300, 133.3052
465.2180, 177.7373
466.4050, 89.18457
467.5920, 10.36182
468.7790, 60.91260
469.9650, 168.5098
471.1520, 44.06201
472.3380, 68.34570
473.5250, 67.75928
474.7110, 6.179199
475.8970, 48.39941
477.0820, 86.00293
478.2680, 89.64893
479.4540, 40.65918
480.6390, 120.0283
481.8240, 38.22461
483.0090, 3.482422
484.1940, 7.261719
485.3780, 24.01270
486.5630, 39.77930
487.7470, 120.5684
488.9320, 72.57812
490.1160, 41.26953
491.3000, 43.85840
492.4830, 26.00977
493.6670, 46.89551
494.8500, 112.8096
496.0340, 90.77930
497.2170, 34.79883
498.4000, 61.18750
499.5820, 103.8232
500.7650, 21.11914
501.9480, 13.93555
503.1300, 103.9932
504.3120, 4.912109
505.4940, 66.14258
506.6760, 8.237305
507.8580, 31.65723
509.0390, 66.55566
510.2210, 85.50098
511.4020, 86.11719
512.5830, 183.4189
513.7640, 94.43555
514.9450, 139.4570
516.1250, 214.5117
517.3060, 110.6064
518.4860, 190.7256
519.6660, 287.8584
520.8460, 353.0293
522.0260, 359.2285
523.2060, 401.4844
524.3850, 425.7666
525.5650, 503.1064
526.7440, 657.4873
527.9230, 710.8701
529.1020, 839.7305
530.2810, 942.7012
531.4590, 1077.134
532.6380, 1123.567
533.8160, 1257.044
534.9940, 1370.558
536.1720, 1328.092
537.3500, 1288.627
538.5270, 1309.170
539.7050, 1200.713
540.8820, 1040.258
542.0590, 938.8193
543.2360, 709.3867
544.4130, 746.9551
545.5900, 574.5273
546.7660, 579.1006
547.9430, 530.6738
549.1190, 420.2471
550.2950, 329.8203
551.4710, 404.3936
552.6470, 464.9668
553.8220, 453.5400
554.9980, 308.1113
556.1730, 209.6826
557.3480, 232.2529
558.5230, 275.8223
559.6980, 285.3906
560.8730, 157.9580
562.0470, 194.5244
563.2220, 366.0889
564.3960, 284.6523
565.5700, 425.2139
566.7440, 387.7725
567.9170, 354.3291
569.0910, 495.8848
570.2640, 565.4385
571.4380, 483.9883
572.6110, 644.5361
573.7840, 576.1357
574.9570, 676.6777
576.1290, 717.2188
577.3020, 631.6045
578.4740, 602.1396
579.6460, 616.0264
580.8180, 454.5801
581.9900, 608.1064
583.1620, 450.6299
584.3330, 416.1494
585.5040, 431.6670
586.6760, 328.1807
587.8470, 328.6904
589.0180, 212.1973
590.1880, 288.7012
591.3590, 318.1992
592.5290, 263.6953
593.7000, 337.1865
594.8700, 238.6738
596.0400, 150.1582
597.2090, 267.6377
598.3790, 195.1133
599.5490, 236.5840
600.7180, 304.0498
601.8870, 383.5117
603.0560, 371.9688
604.2250, 355.4209
605.3940, 391.8682
606.5620, 315.3125
607.7300, 265.7490
608.8990, 415.2012
610.0670, 341.8115
611.2350, 352.2344
612.4020, 507.7656
613.5700, 408.1787
614.7370, 440.5879
615.9050, 512.7285
617.0720, 596.8740
618.2390, 567.7871
619.4060, 679.4541
620.5720, 821.8398
621.7390, 795.6738
622.9050, 820.0498
624.0710, 1043.918
625.2370, 1253.182
626.4030, 1389.513
627.5690, 1511.920
628.7340, 1742.573
629.9000, 2022.926
631.0650, 2103.183
632.2300, 2377.528
633.3950, 2672.638
634.5600, 2872.506
635.7240, 3258.293
636.8890, 3388.557
638.0530, 3481.402
639.2170, 3530.730
640.3810, 3788.947
641.5450, 3932.207
642.7080, 4149.234
643.8720, 4357.830
645.0350, 4622.613
646.1980, 5221.221
647.3610, 5717.172
648.5240, 6188.484
649.6870, 7053.018
650.8490, 7659.596
652.0120, 8721.762
653.1740, 9630.602
654.3360, 10672.08
655.4980, 11621.14
656.6600, 12465.97
657.8210, 12825.95
658.9830, 13225.50
660.1440, 13415.54
661.3050, 13478.92
662.4660, 13147.42
663.6270, 12567.92
664.7870, 12458.12
665.9480, 11847.16
667.1080, 11331.37
668.2680, 11633.04
669.4280, 11544.36
670.5880, 11994.29
671.7480, 12848.47
672.9070, 13966.21
674.0670, 15282.06
675.2260, 17348.38
676.3850, 19647.51
677.5440, 22012.73
678.7030, 25058.84
679.8610, 27912.93
681.0200, 30536.33
682.1780, 32753.14
683.3360, 34790.20
684.4940, 35740.77
685.6520, 35800.80
686.8090, 34204.82
687.9670, 32139.82
689.1240, 29380.82
690.2810, 26251.80
691.4380, 23033.77
692.5950, 19605.72
693.7520, 17000.68
694.9080, 14632.61
696.0650, 12430.53
697.2210, 10595.44
698.3770, 9098.333
699.5330, 7746.218
700.6880, 6784.088
701.8440, 5967.949
702.9990, 5411.795
704.1550, 4769.630
705.3100, 4166.455
706.4650, 3807.266
707.6190, 3453.063
708.7740, 3133.852
709.9290, 3001.626
711.0830, 2663.387
712.2370, 2534.138
713.3910, 2337.892
714.5450, 2177.631
715.6980, 2035.359
716.8520, 1787.079
718.0050, 1716.785
719.1580, 1720.484
720.3110, 1440.176
721.4640, 1511.856
722.6170, 1400.524
723.7700, 1252.180
724.9220, 1311.825
726.0740, 1260.460
727.2260, 1110.082
728.3780, 1043.692
729.5300, 973.2910
730.6810, 908.8789
731.8330, 1021.456
732.9840, 969.0195
734.1350, 976.5732
735.2860, 841.1152
736.4370, 793.6465
737.5880, 826.1670
738.7380, 891.6758
739.8880, 856.1738
741.0390, 639.6611
742.1890, 661.1367
743.3380, 566.6035
744.4880, 713.0576
745.6380, 616.5020
746.7870, 489.9355
747.9360, 563.3623
749.0850, 504.7979
750.2340, 479.2227
751.3830, 486.6514
752.5310, 386.0703
753.6800, 483.4785
754.8280, 348.8779
755.9760, 441.2832
757.1240, 354.7031
758.2720, 283.1396
759.4190, 288.5664
760.5670, 190.0156
761.7140, 246.4551
762.8610, 319.8896
764.0080, 188.3203
765.1550, 346.7539
766.3020, 277.1895
767.4480, 171.6504
768.5950, 105.1035
769.7410, 120.5625
770.8870, 80.01172
772.0330, 165.4639
773.1780, 18.92285
774.3240, 65.39746
775.4690, 72.10938
776.6140, 100.3311
777.7590, 0.2363280
778.9040, 89.19824
780.0490, 10.37207
781.1940, 39.96582
782.3380, 134.5762
783.4820, 96.72168
784.6260, 84.03125
785.7700, 50.34180
786.9140, 138.3545
788.0580, 26.85156
789.2010, 21.95410
790.3450, 144.7959
791.4880, 28.26367
792.6310, 85.68652
793.7730, 114.7051
794.9160, 53.80566
796.0590, 15.95703
797.2010, 104.1367
798.3430, 78.39355
799.4850, 176.7109
800.6270, 66.14160
801.7690, 189.6240
802.9100, 124.2266
804.0520, 111.0879
805.1930, 88.60254
806.3340, 16.64258
807.4750, 31.11914
808.6160, 81.08789
809.7560, 141.7100
810.8970, 112.5967
812.0370, 57.55762
813.1770, 67.44043
814.3170, 10.56543
815.4570, 42.41113
816.5960, 190.3838
817.7360, 48.64453
818.8750, 8.708984
820.0140, 70.21191
821.1530, 6.868164
822.2920, 66.04102
823.4310, 58.94727
824.5690, 36.85254
825.7070, 56.75488
826.8460, 57.53711
827.9840, 88.50781
829.1220, 105.4570
830.2590, 146.3545
831.3970, 214.2529
832.5340, 201.1494
833.6710, 251.0459
834.8080, 243.9414
835.9450, 230.8379
837.0820, 264.7344
838.2190, 336.6309
839.3550, 245.5283
840.4910, 373.4258
841.6270, 536.3252
842.7630, 354.2256
843.8990, 452.1260
845.0350, 520.0283
846.1700, 542.9346
847.3060, 460.8408
848.4410, 492.7480
849.5760, 472.6592
850.7100, 607.5723
851.8450, 662.4883
852.9800, 557.4072
854.1140, 766.3281
855.2480, 563.2520
856.3820, 678.1797
857.5160, 699.1094
858.6500, 654.0449
859.7830, 722.9824
860.9170, 659.9238
862.0500, 618.8691
863.1830, 735.8193
864.3160, 606.7734
865.4480, 670.7324
866.5810, 620.6953
867.7130, 699.6641
868.8460, 728.6367
869.9780, 595.6152
871.1100, 589.5996
872.2410, 479.5889
873.3730, 667.5830
874.5050, 707.5840
875.6360, 580.5908
876.7670, 517.6045
877.8980, 555.6240
879.0290, 430.6562
880.1590, 341.6963
881.2900, 427.7422
882.4200, 453.7959
883.5500, 392.8584
884.6800, 502.9268
885.8100, 480.0205
886.9400, 629.1348
888.0690, 538.2568
889.1990, 401.3867
890.3280, 599.5244
891.4570, 455.6699
892.5860, 446.8330
893.7140, 604.0039
894.8430, 651.1855
895.9710, 599.3770
897.1000, 826.5781
898.2280, 742.7930
899.3560, 788.0410
900.4830, 755.3057
901.6110, 924.5820
902.7380, 776.8750
903.8660, 911.1875
904.9930, 802.5254
906.1200, 941.8760
907.2460, 944.2334
908.3730, 956.6016
909.5000, 996.1885
910.6260, 1007.615
911.7520, 1006.745
912.8780, 1082.200
914.0040, 1200.926
915.1290, 1169.422
916.2550, 1200.577
917.3800, 1337.909
918.5050, 1526.338
919.6300, 1504.894
920.7550, 1644.620
921.8800, 1688.036
923.0040, 1757.401
924.1290, 1708.740
925.2530, 1721.506
926.3770, 1927.608
927.5010, 2105.078
928.6250, 2223.994
929.7480, 2221.150
930.8720, 2242.189
931.9950, 2437.662
933.1180, 2574.679
934.2410, 2685.368
935.3640, 2844.947
936.4860, 2702.529
937.6090, 2849.452
938.7310, 2876.574
939.8530, 2728.529
940.9750, 2866.032
942.0970, 2868.908
943.2180, 2941.176
944.3400, 2980.251
945.4610, 2959.721
946.5820, 3015.161
947.7030, 2907.141
948.8240, 2934.325
949.9450, 2799.420
951.0650, 2839.682
952.1860, 2677.966
953.3060, 2641.959
954.4260, 2588.541
955.5460, 2437.923
956.6650, 2345.738
957.7850, 2219.146
958.9040, 1976.577
960.0230, 1947.033
961.1420, 1739.514
962.2610, 1732.018
963.3800, 1553.546
964.4990, 1631.103
965.6170, 1444.687
966.7350, 1548.294
967.8530, 1377.929
968.9710, 1492.588
970.0890, 1552.281
971.2070, 1669.000
972.3240, 1785.739
973.4410, 1947.505
974.5580, 2060.294
975.6750, 2124.131
976.7920, 2457.993
977.9090, 2514.879
979.0250, 2918.809
980.1410, 3275.761
981.2580, 3615.738
982.3740, 4177.738
983.4890, 4729.763
984.6050, 5352.812
985.7200, 5997.883
986.8360, 7206.979
987.9510, 8395.098
989.0660, 9472.244
990.1810, 11193.41
991.2950, 13005.61
992.4100, 14961.83
993.5240, 17195.07
994.6390, 19650.33
995.7530, 21963.63
996.8660, 24610.94
997.9800, 27579.28
999.0940, 30546.64
1000.207, 33268.90
1001.320, 36066.45
1002.433, 38742.88
1003.546, 41326.34
1004.659, 43784.83
1005.772, 45225.34
1006.884, 46438.87
1007.996, 46756.41
1009.108, 46074.99
1010.220, 45008.57
1011.332, 42690.18
1012.444, 39505.18
1013.555, 36432.86
1014.666, 32701.54
1015.777, 29659.49
1016.888, 26451.22
1017.999, 23486.98
1019.110, 21120.51
1020.220, 18876.12
1021.331, 17307.94
1022.441, 15674.77
1023.551, 14372.63
1024.661, 13233.51
1025.770, 12266.22
1026.880, 11654.14
1027.989, 10741.66
1029.098, 10531.62
1030.207, 9964.064
1031.316, 9386.986
1032.425, 8777.789
1033.533, 8442.331
1034.642, 7919.643
1035.750, 7534.537
1036.858, 6941.751
1037.966, 6406.916
1039.073, 5895.148
1040.181, 5408.326
1041.288, 4967.312
1042.396, 4539.746
1043.503, 4200.348
1044.610, 3845.577
1045.716, 3572.638
1046.823, 3213.464
1047.929, 2926.933
1049.036, 2653.256
1050.142, 2515.606
1051.248, 2311.991
1052.353, 2186.185
1053.459, 1951.839
1054.564, 1933.527
1055.670, 1788.047
1056.775, 1646.110
1057.880, 1342.861
1058.985, 1438.510
1060.089, 1100.385
1061.194, 1238.419
1062.298, 964.8877
1063.402, 866.4482
1064.506, 733.3848
1065.610, 804.6465
1066.713, 704.5801
1067.817, 761.6064
1068.920, 617.8574
1070.023, 615.9600
1071.126, 463.9834
1072.229, 538.1152
1073.332, 518.2559
1074.435, 447.8008
1075.537, 425.4775
1076.639, 360.9902
1077.741, 303.3818
1078.843, 315.6250
1079.945, 183.0264
1081.046, 157.6367
1082.148, 107.1533
1083.249, 186.4443
1084.350, 48.01855
1085.451, 134.5674
1086.551, 26.97461
1087.652, 259.4150
1088.752, 255.1797
1089.853, 257.8809
1090.953, 144.9209
1092.053, 75.68750
1093.152, 251.6709
1094.252, 68.36035
1095.351, 324.4150
1096.451, 117.8311
1097.550, 102.5322
1098.649, 257.2832
1099.748, 217.9170
1100.846, 87.62988
1101.945, 60.11230
1103.043, 82.69727
1104.141, 42.19043
1105.239, 193.5518
1106.337, 75.12500
1107.434, 145.5752
1108.532, 46.43945
1109.629, 138.1182
1110.726, 111.9814
1111.823, 128.3350
1112.920, 268.2305
1114.017, 209.9561
1115.113, 178.9053
1116.210, 281.6328
1117.306, 172.4961
1118.402, 221.4277
1119.498, 196.5723
1120.593, 256.2178
1121.689, 232.9209
1122.784, 205.8594
1123.879, 323.3613
1124.974, 318.9766
1126.069, 198.4668
1127.164, 261.0615
1128.259, 170.9307
1129.353, 13.71582
1130.447, 239.6191
1131.541, 181.3389
1132.635, 233.5020
1133.729, 108.6484
1134.822, 294.1084
1135.916, 72.56445
1137.009, 125.0127
1138.102, 60.45801
1139.195, 106.8975
1140.288, 123.3301
1141.380, 45.80176
1142.473, 53.40820
1143.565, 45.13965
1144.657, 52.79492
1145.749, 33.97852
1146.841, 13.08691
1147.932, 26.45605
1149.024, 66.03125
1150.115, 80.40234
1151.206, 64.08984
1152.297, 4.190430
1153.388, 62.50684
1154.479, 34.84277
1155.569, 13.09570
1156.659, 42.65820
1157.750, 12.55859
1158.839, 16.23242
1159.929, 63.00684
1161.019, 11.81250
1162.108, 21.64648
1163.198, 99.39258
1164.287, 30.20117
1165.376, 3.144531
1166.465, 33.10156
1167.553, 36.84570
1168.642, 66.63086
1169.730, 11.50000
1170.818, 21.42285
1171.906, 16.33203
1172.994, 28.77246
1174.082, 114.9072
1175.170, 24.11914
1176.257, 39.63770
1177.344, 66.61719
1178.431, 16.07422
1179.518, 111.7510
1180.605, 61.41309
1181.691, 180.0625
1182.778, 49.29395
1183.864, 19.30078
1184.950, 7.121094
1186.036, 63.42969
1187.122, 26.03516
1188.207, 30.46191
1189.292, 1.059570
1190.378, 26.39258
1191.463, 20.17188
1192.548, 25.55566
1193.632, 9.419922
1194.717, 1.902344
1195.801, 65.80566
1196.886, 76.42188
1197.970, 65.63086
1199.054, 33.82129
1200.137, 73.00977
1201.221, 69.91211
1202.305, 100.1143
1203.388, 200.1221
1204.471, 32.11035
1205.554, 4.074219
1206.637, 43.00488
1207.719, 48.08789
1208.802, 102.2031
1209.884, 93.54980
1210.966, 53.28125
1212.048, 115.9902
1213.130, 96.32324
1214.212, 72.27344
1215.293, 81.84570
1216.374, 125.3955
1217.456, 118.9238
1218.536, 54.43066
1219.617, 8.6914003E-02
1220.698, 38.35156
1221.778, 60.76270
1222.859, 43.58789
1223.939, 77.50684
1225.019, 42.84082
1226.099, 31.14551
1227.178, 24.42090
1228.258, 73.66211
1229.337, 27.87891
1230.417, 86.06445
1231.496, 5.776367
1232.574, 120.3711
1233.653, 170.4570
1234.732, 40.51953
1235.810, 128.5508
1236.888, 50.43750
1237.966, 73.50000
1239.044, 108.4121
1240.122, 39.69141
1241.199, 159.1348
1242.277, 95.93555
1243.354, 101.7119
1244.431, 70.46289
1245.508, 103.1865
1246.585, 81.84277
1247.661, 74.55371
1248.738, 60.19629
1249.814, 125.8086
1250.890, 112.3955
1251.966, 33.95508
1253.042, 161.4814
1254.117, 135.0996
1255.193, 209.5752
1256.268, 46.02637
1257.343, 87.44238
1258.418, 97.83105
1259.493, 84.19336
1260.567, 110.5264
1261.642, 31.83301
1262.716, 67.10156
1263.790, 218.3379
1264.864, 189.5498
1265.938, 293.7383
1267.011, 190.9023
1268.085, 203.0605
1269.158, 260.1562
1270.231, 165.2803
1271.304, 132.3447
1272.377, 168.3828
1273.450, 81.03613
1274.522, 66.02051
1275.594, 81.07324
1276.666, 136.6504
1277.738, 127.5479
1278.810, 128.4180
1279.882, 189.5078
1280.953, 258.9990
1282.025, 163.8027
1283.096, 157.5840
1284.167, 203.3418
1285.238, 177.0752
1286.308, 174.8506
1287.379, 194.6553
1288.449, 163.7295
1289.519, 192.3975
1290.589, 234.5381
1291.659, 149.2061
1292.729, 144.9922
1293.798, 231.0303
1294.868, 180.2949
1295.937, 110.9727
1297.006, 111.3262
