##NAMES=Enstatite
##RRUFFID=R070550
##IDEAL CHEMISTRY=MgSiO_3_
##LOCALITY=Tanzania
##OWNER=RRUFF
##SOURCE=www.multicolour.com
##DESCRIPTION=Brown, translucent, vitreous crystal fragment
##STATUS=The identification of this mineral has been confirmed by X-ray diffraction and chemical analysis
##URL=rruff.info/R070550
##MEASURED CHEMISTRY=(Mg_0.90_Fe_0.10_)_Î£=1_Si_1.00_O_3_
##PIN_ID=L01679
##ORIENTATION=Laser parallel to c* (0 0 1). Fiducial mark perpendicular to laser is parallel to a [1 0 0]
112.8890, 0.0000000E+00
114.1310, 85.49280
115.3720, 175.3547
116.6130, 155.7504
117.8540, 116.6539
119.0950, 5.662598
120.3360, 13.05420
121.5760, 28.82581
122.8160, 95.47876
124.0560, 66.51819
125.2960, 21.63159
126.5350, 28.56409
127.7750, 119.1073
129.0140, 159.0894
130.2530, 166.3677
131.4920, 203.8242
132.7300, 228.3606
133.9690, 178.8833
135.2070, 213.3049
136.4450, 185.5492
137.6830, 301.5525
138.9210, 359.2603
140.1580, 375.6235
141.3950, 335.5991
142.6330, 323.1490
143.8690, 399.2394
145.1060, 489.8430
146.3430, 539.9369
147.5790, 616.4994
148.8150, 651.9492
150.0510, 656.9496
151.2870, 687.8226
152.5220, 656.0642
153.7580, 617.6360
154.9930, 650.5164
156.2280, 607.7968
157.4620, 653.1356
158.6970, 556.8489
159.9310, 571.8242
161.1660, 522.0581
162.4000, 479.5413
163.6330, 457.2637
164.8670, 438.2168
166.1000, 365.4663
167.3340, 229.7856
168.5670, 227.3877
169.8000, 165.1929
171.0320, 106.1958
172.2650, 85.39111
173.4970, 50.77612
174.7290, 44.35938
175.9610, 120.1519
177.1930, 143.1533
178.4240, 288.3567
179.6550, 444.7561
180.8870, 592.3440
182.1170, 880.1152
183.3480, 1173.064
184.5790, 1624.185
185.8090, 2110.474
187.0390, 2701.885
188.2690, 3196.946
189.4990, 3768.820
190.7290, 4093.230
191.9580, 4407.671
193.1870, 4250.158
194.4160, 4185.698
195.6450, 3749.298
196.8740, 3455.964
198.1020, 2912.698
199.3310, 2500.507
200.5590, 2181.391
201.7870, 1889.354
203.0140, 1594.410
204.2420, 1341.605
205.4690, 1036.986
206.6960, 932.5283
207.9230, 721.1836
209.1500, 644.9246
210.3760, 609.7441
211.6030, 538.6428
212.8290, 541.6201
214.0550, 504.6775
215.2810, 560.8140
216.5060, 584.0300
217.7320, 586.3254
218.9570, 719.7000
220.1820, 833.1533
221.4070, 827.6853
222.6320, 991.2959
223.8560, 1221.985
225.0800, 1386.752
226.3040, 1783.596
227.5280, 2268.516
228.7520, 2792.514
229.9760, 3516.587
231.1990, 4138.735
232.4220, 5022.973
233.6450, 6092.405
234.8680, 6855.146
236.0910, 6958.191
237.3130, 6835.469
238.5350, 6282.955
239.7570, 5477.525
240.9790, 4659.146
242.2010, 3497.822
243.4220, 2554.549
244.6430, 1673.329
245.8640, 1174.162
247.0850, 648.0459
248.3060, 371.9822
249.5270, 218.9697
250.7470, 185.0083
251.9670, 143.0972
253.1870, 77.23633
254.4070, 115.4248
255.6260, 130.6628
256.8460, 62.94946
258.0650, 95.28442
259.2840, 51.69922
260.5030, 20.82983
261.7220, 3.752930
262.9400, 37.98462
264.1580, 12.71313
265.3760, 22.20215
266.5940, 66.92700
267.8120, 171.2756
269.0290, 222.3887
270.2470, 406.6738
271.4640, 469.1201
272.6810, 663.7180
273.8980, 659.4595
275.1140, 692.3362
276.3310, 614.3425
277.5470, 517.4717
278.7630, 458.7190
279.9790, 393.0791
281.1940, 265.5476
282.4100, 220.1206
283.6250, 166.7939
284.8400, 40.56470
286.0550, 30.42944
287.2700, 25.38525
288.4850, 147.4294
289.6990, 283.5593
290.9130, 406.4075
292.1270, 574.7017
293.3410, 871.6611
294.5540, 1020.456
295.7680, 1260.771
296.9810, 1440.687
298.1940, 1541.521
299.4070, 1610.456
300.6200, 1552.907
301.8320, 1339.444
303.0450, 1229.377
304.2570, 1059.374
305.4690, 968.4314
306.6800, 927.5505
307.8920, 937.4370
309.1030, 891.9666
310.3150, 1116.262
311.5260, 1376.614
312.7360, 1576.021
313.9470, 2050.484
315.1580, 2519.001
316.3680, 3035.570
317.5780, 3586.192
318.7880, 3841.865
319.9980, 4143.588
321.2070, 4249.363
322.4170, 4241.191
323.6260, 4380.069
324.8350, 4454.993
326.0430, 4615.967
327.2520, 4916.987
328.4610, 5408.054
329.6690, 6241.488
330.8770, 7321.339
332.0850, 8532.548
333.2920, 10117.81
334.5000, 11858.10
335.7070, 13675.44
336.9140, 15598.83
338.1210, 17379.25
339.3280, 18667.72
340.5350, 18977.22
341.7410, 18521.77
342.9470, 17623.37
344.1540, 16198.99
345.3590, 13924.67
346.5650, 11903.38
347.7710, 9943.137
348.9760, 8183.932
350.1810, 6554.065
351.3860, 5491.414
352.5910, 4462.311
353.7950, 3673.641
355.0000, 3156.796
356.2040, 2755.468
357.4080, 2382.265
358.6120, 2128.948
359.8150, 1938.524
361.0190, 1744.134
362.2220, 1635.954
363.4250, 1522.992
364.6280, 1520.243
365.8310, 1492.527
367.0340, 1546.841
368.2360, 1633.688
369.4380, 1725.562
370.6400, 1900.969
371.8420, 2070.407
373.0440, 2251.873
374.2450, 2571.370
375.4470, 3082.897
376.6480, 3498.452
377.8490, 3834.036
379.0490, 4484.649
380.2500, 4753.288
381.4500, 5137.952
382.6510, 5244.642
383.8510, 5215.355
385.0500, 5046.092
386.2500, 4920.852
387.4500, 4865.634
388.6490, 4786.440
389.8480, 4906.270
391.0470, 5111.122
392.2460, 5467.996
393.4440, 5806.893
394.6430, 6138.812
395.8410, 6452.752
397.0390, 6751.716
398.2370, 6871.701
399.4340, 6849.706
400.6320, 6494.734
401.8290, 6289.783
403.0260, 5961.852
404.2230, 5660.942
405.4200, 5587.073
406.6170, 5370.240
407.8130, 5145.124
409.0090, 5162.294
410.2050, 5305.424
411.4010, 5531.755
412.5970, 5651.127
413.7920, 5698.535
414.9880, 5387.977
416.1830, 5045.454
417.3780, 4719.965
418.5730, 4222.509
419.7670, 3638.086
420.9620, 3108.695
422.1560, 2602.333
423.3500, 2147.004
424.5440, 1690.704
425.7380, 1377.435
426.9310, 954.1941
428.1240, 678.9822
429.3180, 457.7983
430.5110, 281.6421
431.7030, 178.5137
432.8960, 46.41187
434.0890, 13.66357
435.2810, 31.27954
436.4730, 57.75171
437.6650, 51.78271
438.8570, 100.8113
440.0480, 49.85889
441.2390, 66.90454
442.4310, 45.95630
443.6220, 10.00659
444.8120, 10.04126
446.0030, 13.93823
447.1940, 150.9399
448.3840, 230.9634
449.5740, 374.0090
450.7640, 491.0762
451.9540, 604.1643
453.1430, 692.2734
454.3330, 675.4033
455.5220, 696.5532
456.7110, 680.7236
457.9000, 600.9133
459.0890, 474.1226
460.2770, 422.3511
461.4650, 359.5984
462.6540, 265.8645
463.8420, 195.1489
465.0290, 150.5789
466.2170, 143.0732
467.4050, 145.2371
468.5920, 184.3149
469.7790, 201.6868
470.9660, 234.5554
472.1530, 240.8743
473.3390, 200.9160
474.5250, 207.6008
475.7120, 190.7808
476.8980, 260.2478
478.0840, 261.5386
479.2690, 349.0430
480.4550, 380.5542
481.6400, 361.0803
482.8250, 481.6199
484.0100, 440.1760
485.1950, 446.7483
486.3800, 386.3357
487.5640, 337.9390
488.7480, 268.5591
489.9320, 161.2053
491.1160, 63.87500
492.3000, 18.43262
493.4840, 94.41602
494.6670, 103.0720
495.8500, 211.4429
497.0330, 172.9067
498.2160, 197.4351
499.3990, 147.0505
500.5810, 109.7205
501.7630, 127.4448
502.9460, 104.2244
504.1280, 67.05078
505.3090, 45.10864
506.4910, 123.2949
507.6720, 270.5051
508.8540, 411.7417
510.0350, 639.9915
511.2160, 876.2610
512.3960, 1088.567
513.5770, 1411.610
514.7570, 1691.560
515.9380, 1992.635
517.1180, 2282.034
518.2970, 2409.443
519.4770, 2575.877
520.6570, 2564.336
521.8360, 2720.815
523.0150, 2789.313
524.1940, 2930.831
525.3730, 2853.369
526.5510, 2677.932
527.7300, 2438.523
528.9080, 2329.143
530.0860, 2139.777
531.2640, 1985.433
532.4420, 1904.115
533.6200, 1901.808
534.7970, 1976.506
535.9740, 2140.218
537.1510, 2286.950
538.3280, 2296.698
539.5050, 2262.466
540.6810, 2194.250
541.8580, 1960.040
543.0340, 1899.834
544.2100, 1638.631
545.3860, 1686.432
546.5610, 1575.236
547.7370, 1516.041
548.9120, 1569.853
550.0870, 1515.668
551.2620, 1537.486
552.4370, 1374.305
553.6120, 1270.131
554.7860, 1146.958
555.9600, 986.7842
557.1340, 937.6113
558.3080, 843.4380
559.4820, 961.2646
560.6560, 858.0903
561.8290, 925.9155
563.0020, 1030.739
564.1750, 1011.562
565.3480, 1245.383
566.5210, 1507.202
567.6930, 1681.019
568.8660, 2118.834
570.0380, 2478.646
571.2100, 2856.456
572.3820, 3394.262
573.5530, 3731.065
574.7250, 4231.864
575.8960, 4484.026
577.0670, 4435.818
578.2380, 4335.021
579.4090, 3925.461
580.5800, 3421.450
581.7500, 2965.906
582.9210, 2412.512
584.0910, 1975.080
585.2610, 1702.195
586.4300, 1498.285
587.6000, 1374.041
588.7690, 1201.791
589.9390, 1163.537
591.1080, 1098.278
592.2770, 1034.014
593.4450, 954.1372
594.6140, 854.4558
595.7820, 777.1880
596.9500, 628.9014
598.1190, 543.6084
599.2860, 419.3091
600.4540, 274.0034
601.6220, 281.6909
602.7890, 159.3745
603.9560, 113.0454
605.1230, 40.71191
606.2900, 103.3594
607.4570, 99.99927
608.6230, 54.63110
609.7890, 102.2473
610.9560, 65.85522
612.1220, 23.44971
613.2870, 60.01758
614.4530, 79.57007
615.6180, 57.11060
616.7840, 128.6348
617.9490, 55.14990
619.1140, 101.6714
620.2790, 122.1587
621.4430, 143.7261
622.6080, 185.1492
623.7720, 214.1816
624.9360, 248.1941
626.1000, 295.9116
627.2640, 308.0078
628.4270, 373.1584
629.5910, 358.6230
630.7540, 408.3301
631.9170, 484.9709
633.0800, 499.5703
634.2430, 570.1392
635.4050, 652.3657
636.5680, 723.7527
637.7300, 741.9255
638.8920, 812.1733
640.0540, 945.2808
641.2150, 1075.566
642.3770, 1164.497
643.5380, 1307.258
644.7000, 1645.604
645.8610, 2005.114
647.0210, 2254.441
648.1820, 2597.595
649.3430, 3198.664
650.5030, 3828.216
651.6630, 4549.801
652.8230, 5530.018
653.9830, 6656.831
655.1430, 8065.269
656.3020, 9704.054
657.4620, 11455.77
658.6210, 13185.86
659.7800, 14672.04
660.9390, 15975.80
662.0970, 16847.41
663.2560, 16321.48
664.4140, 15837.72
665.5720, 14785.06
666.7300, 13621.75
667.8880, 12183.93
669.0460, 11107.01
670.2030, 10424.32
671.3600, 10003.05
672.5180, 10243.19
673.6740, 10567.12
674.8310, 11528.91
675.9880, 12845.32
677.1440, 14525.59
678.3010, 16360.92
679.4570, 18308.42
680.6130, 20348.69
681.7690, 22412.47
682.9240, 23286.30
684.0800, 23470.09
685.2350, 22910.82
686.3900, 21327.52
687.5450, 18905.81
688.7000, 16509.47
689.8540, 14009.12
691.0090, 11415.75
692.1630, 9168.237
693.3170, 7569.825
694.4710, 6031.396
695.6250, 5029.946
696.7780, 4189.475
697.9320, 3464.983
699.0850, 2873.473
700.2380, 2541.941
701.3910, 2147.391
702.5440, 1856.819
703.6970, 1675.228
704.8490, 1541.616
706.0010, 1348.983
707.1530, 1163.331
708.3050, 1129.658
709.4570, 957.9656
710.6090, 900.2522
711.7600, 797.5186
712.9110, 718.7646
714.0620, 666.1233
715.2130, 661.1992
716.3640, 566.3882
717.5150, 585.5688
718.6650, 552.7407
719.8150, 542.9138
720.9650, 535.0776
722.1150, 482.2363
723.2650, 574.3853
724.4150, 590.5178
725.5640, 538.6343
726.7130, 564.7305
727.8630, 523.8066
729.0110, 464.8625
730.1600, 457.8979
731.3090, 410.9084
732.4570, 382.9082
733.6060, 349.8828
734.7540, 317.8372
735.9020, 294.7717
737.0490, 245.6855
738.1970, 191.5793
739.3440, 221.4531
740.4920, 172.3069
741.6390, 261.1406
742.7860, 204.9541
743.9320, 294.6206
745.0790, 276.3945
746.2250, 354.1489
747.3720, 354.1599
748.5180, 271.8748
749.6640, 277.0896
750.8100, 290.8511
751.9550, 287.8865
753.1010, 218.2749
754.2460, 235.1650
755.3910, 201.7637
756.5360, 91.53491
757.6810, 135.0876
758.8250, 77.62939
759.9700, 110.1511
761.1140, 43.65405
762.2580, 41.13306
763.4020, 55.58789
764.5460, 35.02075
765.6900, 31.57935
766.8330, 15.18970
767.9760, 3.854248
769.1200, 3.559082
770.2620, 40.30371
771.4050, 28.90454
772.5480, 46.88330
773.6900, 8.701416
774.8330, 50.50220
775.9750, 12.31665
777.1170, 44.11792
778.2590, 27.06519
779.4000, 9.741699
780.5420, 2.549561
781.6830, 59.36011
782.8240, 43.21118
783.9650, 24.11792
785.1060, 38.06982
786.2470, 11.92578
787.3870, 14.10449
788.5280, 79.17358
789.6680, 26.31543
790.8080, 84.50195
791.9480, 31.23730
793.0870, 38.04248
794.2270, 12.62817
795.3660, 44.72339
796.5060, 47.12622
797.6450, 25.58105
798.7830, 24.07666
799.9220, 32.46436
801.0610, 36.18848
802.1990, 54.81030
803.3370, 61.48535
804.4750, 70.40747
805.6130, 22.00854
806.7510, 42.83472
807.8890, 66.70532
809.0260, 10.63306
810.1630, 36.41333
811.3000, 23.55396
812.4370, 50.55322
813.5740, 33.59766
814.7110, 51.67749
815.8470, 39.80249
816.9830, 4.964844
818.1190, 60.85449
819.2550, 10.66235
820.3910, 13.45776
821.5270, 54.24097
822.6620, 31.01318
823.7970, 13.22534
824.9330, 93.51782
826.0670, 23.25073
827.2020, 44.97363
828.3370, 22.31323
829.4710, 76.37988
830.6060, 56.06348
831.7400, 85.73779
832.8740, 60.40356
834.0080, 37.06030
835.1410, 66.70874
836.2750, 73.34937
837.4080, 48.98145
838.5410, 101.6062
839.6740, 77.22339
840.8070, 66.83325
841.9400, 183.4360
843.0730, 176.0320
844.2050, 134.6211
845.3370, 223.2041
846.4690, 244.7808
847.6010, 317.3513
848.7330, 367.9160
849.8640, 464.9819
850.9960, 495.0300
852.1270, 688.5786
853.2580, 772.1230
854.3890, 893.6628
855.5200, 920.1980
856.6500, 869.7285
857.7810, 851.2549
858.9110, 731.7773
860.0410, 744.2964
861.1710, 660.8110
862.3010, 614.3223
863.4310, 561.8306
864.5600, 487.1064
865.6900, 395.8376
866.8190, 373.3374
867.9480, 316.8345
869.0770, 309.3293
870.2050, 246.8220
871.3340, 282.3132
872.4620, 195.8027
873.5900, 213.2913
874.7180, 296.7791
875.8460, 184.2656
876.9740, 221.7517
878.1010, 197.2373
879.2290, 202.7227
880.3560, 276.2139
881.4830, 310.7048
882.6100, 258.1970
883.7370, 281.6931
884.8630, 290.1907
885.9900, 345.6914
887.1160, 368.2029
888.2420, 497.7192
889.3680, 386.2388
890.4940, 480.7642
891.6200, 543.2915
892.7450, 511.8010
893.8700, 498.3374
894.9960, 525.7869
896.1210, 462.3291
897.2460, 446.3450
898.3700, 481.3289
899.4950, 361.6018
900.6190, 487.4888
901.7430, 360.3147
902.8670, 411.8240
903.9910, 354.0845
905.1150, 396.4038
906.2390, 353.4595
907.3620, 419.3645
908.4850, 441.0979
909.6080, 464.2708
910.7310, 513.8628
911.8540, 588.8945
912.9770, 645.9722
914.0990, 661.0161
915.2210, 757.3347
916.3440, 941.1462
917.4660, 1051.435
918.5870, 1296.780
919.7090, 1424.372
920.8310, 1656.134
921.9520, 1895.980
923.0730, 2222.340
924.1940, 2472.672
925.3150, 2670.371
926.4360, 2958.487
927.5560, 3099.979
928.6770, 3259.131
929.7970, 3334.353
930.9170, 3506.211
932.0370, 3733.996
933.1570, 3901.195
934.2760, 4004.557
935.3960, 4052.466
936.5150, 4059.802
937.6340, 4083.858
938.7530, 3853.152
939.8720, 3650.963
940.9910, 3298.882
942.1090, 3068.566
943.2280, 2726.830
944.3460, 2468.704
945.4640, 2201.787
946.5820, 1864.012
947.6990, 1759.619
948.8170, 1500.382
949.9340, 1323.099
951.0520, 1228.655
952.1690, 1160.445
953.2860, 1014.729
954.4030, 971.9883
955.5190, 985.2971
956.6360, 909.6648
957.7520, 822.0537
958.8680, 787.8801
959.9840, 854.3359
961.1000, 838.8250
962.2160, 781.3408
963.3310, 862.0081
964.4470, 847.5732
965.5620, 818.1597
966.6770, 852.7759
967.7920, 821.4238
968.9060, 908.1030
970.0210, 913.8254
971.1360, 886.5688
972.2500, 1045.344
973.3640, 1025.140
974.4780, 1008.959
975.5920, 1079.804
976.7050, 1161.679
977.8190, 1251.576
978.9320, 1436.495
980.0450, 1506.435
981.1580, 1582.401
982.2710, 1845.392
983.3840, 1894.418
984.4970, 2045.474
985.6090, 2234.559
986.7210, 2515.677
987.8330, 2786.817
988.9450, 3081.983
990.0570, 3526.173
991.1690, 4002.385
992.2800, 4629.627
993.3920, 5365.892
994.5030, 6097.178
995.6140, 7153.491
996.7250, 8398.832
997.8350, 9880.199
998.9460, 11775.59
1000.056, 14162.01
1001.167, 17102.44
1002.277, 20732.92
1003.387, 25461.42
1004.496, 30767.95
1005.606, 36597.50
1006.715, 42696.07
1007.825, 47986.68
1008.934, 51914.32
1010.043, 53076.96
1011.152, 51517.63
1012.260, 47790.33
1013.369, 42682.06
1014.477, 37618.81
1015.586, 32664.58
1016.694, 28888.38
1017.802, 25864.20
1018.909, 23847.04
1020.017, 22621.90
1021.124, 21896.80
1022.232, 21659.72
1023.339, 21425.66
1024.446, 21432.60
1025.553, 21693.58
1026.659, 21966.58
1027.766, 21903.60
1028.872, 21877.64
1029.979, 21373.71
1031.085, 20621.80
1032.191, 19989.96
1033.296, 18823.10
1034.402, 17487.27
1035.507, 16205.17
1036.613, 15172.40
1037.718, 13826.66
1038.823, 12643.95
1039.928, 11719.56
1041.032, 10729.54
1042.137, 9603.942
1043.241, 8598.375
1044.346, 7686.854
1045.450, 6799.367
1046.554, 5929.920
1047.657, 5184.498
1048.761, 4482.107
1049.864, 3989.055
1050.968, 3524.833
1052.071, 3185.554
1053.174, 2935.382
1054.277, 2589.178
1055.379, 2308.000
1056.482, 2178.092
1057.584, 1972.993
1058.687, 1826.608
1059.789, 1645.649
1060.891, 1598.995
1061.992, 1418.646
1063.094, 1298.376
1064.196, 1169.578
1065.297, 1043.706
1066.398, 998.8059
1067.499, 851.6716
1068.600, 789.0259
1069.701, 751.7542
1070.801, 614.2266
1071.902, 622.2737
1073.002, 523.7607
1074.102, 520.2607
1075.202, 464.7554
1076.302, 422.9595
1077.402, 379.8506
1078.501, 401.9097
1079.600, 347.5149
1080.700, 302.1543
1081.799, 310.8545
1082.898, 258.3118
1083.996, 300.7754
1085.095, 211.0605
1086.193, 247.1538
1087.292, 147.1733
1088.390, 231.0505
1089.488, 158.0725
1090.586, 154.2344
1091.683, 181.9033
1092.781, 175.7090
1093.878, 221.0750
1094.975, 272.3875
1096.073, 147.5977
1097.169, 152.6836
1098.266, 190.5378
1099.363, 138.9077
1100.459, 219.4185
1101.556, 199.2678
1102.652, 285.3772
1103.748, 242.8567
1104.844, 230.2427
1105.940, 128.9087
1107.035, 208.8237
1108.131, 91.72388
1109.226, 181.9470
1110.321, 215.9709
1111.416, 239.1035
1112.511, 115.7622
1113.605, 132.7241
1114.700, 127.6667
1115.794, 153.4539
1116.889, 134.2117
1117.983, 171.6826
1119.077, 109.8772
1120.170, 143.7583
1121.264, 143.1240
1122.357, 132.2783
1123.451, 127.1450
1124.544, 163.1599
1125.637, 176.5212
1126.730, 117.8887
1127.823, 162.9773
1128.915, 157.8220
1130.008, 175.0488
1131.100, 214.3335
1132.192, 200.5386
1133.284, 176.9268
1134.376, 210.1360
1135.467, 121.8547
1136.559, 138.8228
1137.650, 132.9575
1138.742, 134.4316
1139.833, 103.7935
1140.924, 115.1172
1142.014, 118.3889
1143.105, 68.87915
1144.195, 126.6106
1145.286, 90.76807
1146.376, 53.04980
1147.466, 46.21802
1148.556, 75.24609
1149.646, 91.28223
1150.735, 44.74902
1151.825, 1.949219
1152.914, 0.1621090
1154.003, 49.33667
1155.092, 30.35181
1156.181, 51.36426
1157.270, 120.5588
1158.358, 53.56470
1159.447, 32.56714
1160.535, 25.64233
1161.623, 61.63721
1162.711, 4.231934
1163.799, 30.98022
1164.886, 21.18652
1165.974, 32.83740
1167.061, 32.12695
1168.148, 2.273438
1169.235, 53.22656
1170.322, 15.81665
1171.409, 27.70728
1172.496, 23.38452
1173.582, 10.34692
1174.669, 65.27612
1175.755, 3.180664
1176.841, 48.14722
1177.927, 46.06787
1179.012, 29.94897
1180.098, 14.17847
1181.183, 5.317871
1182.269, 29.46753
1183.354, 3.554688
1184.439, 14.26562
1185.524, 32.28638
1186.608, 30.91309
1187.693, 20.92017
1188.777, 68.31250
1189.862, 0.4111330
1190.946, 44.87720
1192.030, 32.19873
1193.113, 14.54712
1194.197, 69.86279
1195.281, 10.27856
1196.364, 24.57568
1197.447, 44.03613
1198.530, 18.47876
1199.613, 5.840576
1200.696, 1.618408
1201.779, 24.93896
1202.861, 10.48120
1203.944, 15.87866
1205.026, 11.73975
1206.108, 53.38330
1207.190, 0.9252930
1208.271, 16.78638
1209.353, 33.47192
1210.435, 39.28564
1211.516, 23.01294
1212.597, 33.71948
1213.678, 16.59741
1214.759, 12.65088
1215.840, 56.33398
1216.920, 6.332764
1218.001, 26.63892
1219.081, 14.59229
1220.161, 37.45996
1221.241, 28.57520
1222.321, 29.80811
1223.401, 5.937744
1224.480, 4.174072
1225.560, 18.55713
1226.639, 25.26587
1227.718, 10.04639
1228.797, 17.39551
1229.876, 18.78613
1230.955, 55.21875
1232.033, 36.28662
1233.112, 10.22534
1234.190, 39.21948
1235.268, 29.64307
1236.346, 13.04297
1237.424, 3.585693
1238.501, 37.74805
1239.579, 76.05933
1240.656, 53.34985
1241.733, 24.61865
1242.811, 17.86084
1243.888, 15.92651
1244.964, 3.239990
1246.041, 4.446777
1247.117, 6.460449
1248.194, 59.59033
1249.270, 25.61841
1250.346, 45.61743
1251.422, 75.59229
1252.498, 6.544922
1253.573, 113.4600
1254.649, 51.35400
1255.724, 52.22949
1256.800, 5.080811
1257.875, 33.89282
1258.950, 72.67603
1260.024, 66.43604
1261.099, 79.17627
1262.173, 29.10645
1263.248, 83.55151
1264.322, 43.18652
1265.396, 11.79370
1266.470, 105.3628
1267.544, 56.90894
1268.617, 66.42944
1269.691, 71.92529
1270.764, 53.39673
1271.837, 100.8411
1272.910, 20.26221
1273.983, 106.6987
1275.056, 81.05957
1276.129, 105.3965
1277.201, 152.7097
1278.273, 138.0010
1279.346, 65.27026
1280.418, 99.51294
1281.489, 96.72534
1282.561, 105.9065
1283.633, 159.0781
1284.704, 153.6123
1285.776, 101.3542
1286.847, 157.4573
1287.918, 174.5603
1288.989, 129.6184
1290.059, 150.6531
1291.130, 115.6650
1292.200, 95.60620
1293.271, 96.57007
