##NAMES=Enstatite
##RRUFFID=R070418
##IDEAL CHEMISTRY=MgSiO_3_
##LOCALITY=India
##OWNER=RRUFF
##SOURCE=Michael Scott
##DESCRIPTION=Brown translucent fragments
##STATUS=The identification of this mineral has been confirmed by X-ray diffraction and chemical analysis
##URL=rruff.info/R070418
##MEASURED CHEMISTRY=(Mg_0.86_Fe_0.14_)_Î£=1_Si_1.00_O_3_; trace amounts of Al, Ca, Mn
##PIN_ID=L01848
##ORIENTATION=Laser parallel to a* (1 0 0). Fiducial mark perpendicular to laser is parallel to b [0 1 0]
112.8890, 0.0000000E+00
114.1310, 22.09521
115.3720, 309.2344
116.6130, 1158.862
117.8540, 2301.820
119.0950, 3849.868
120.3360, 5551.506
121.5760, 7607.219
122.8160, 9982.019
124.0560, 13859.46
125.2960, 18744.65
126.5350, 24908.94
127.7750, 31012.88
129.0140, 35396.88
130.2530, 34687.15
131.4920, 30022.32
132.7300, 23776.79
133.9690, 17754.45
135.2070, 12828.05
136.4450, 9397.384
137.6830, 7258.388
138.9210, 5449.539
140.1580, 4326.049
141.3950, 3441.643
142.6330, 2775.312
143.8690, 1882.096
145.1060, 1452.032
146.3430, 1017.159
147.5790, 645.0586
148.8150, 249.4849
150.0510, 169.5132
151.2870, 219.4746
152.5220, 52.88574
153.7580, 24.00000
154.9930, 19.95898
156.2280, 68.30762
157.4620, 81.37402
158.6970, 52.06689
159.9310, 134.2803
161.1660, 41.99756
162.4000, 115.7476
163.6330, 293.7246
164.8670, 381.0508
166.1000, 450.4814
167.3340, 468.5166
168.5670, 436.8457
169.8000, 430.5674
171.0320, 402.4531
172.2650, 296.9019
173.4970, 321.9380
174.7290, 334.5850
175.9610, 393.8462
177.1930, 421.7290
178.4240, 477.2534
179.6550, 537.4355
180.8870, 589.6953
182.1170, 562.2173
183.3480, 580.0127
184.5790, 974.7505
185.8090, 1155.065
187.0390, 1351.862
188.2690, 1394.338
189.4990, 1532.029
190.7290, 1530.917
191.9580, 1392.723
193.1870, 1394.044
194.4160, 1352.813
195.6450, 1336.594
196.8740, 1418.510
198.1020, 1503.398
199.3310, 1574.458
200.5590, 1658.918
201.7870, 1657.382
203.0140, 1365.439
204.2420, 1184.713
205.4690, 604.1870
206.6960, 384.8442
207.9230, 225.6680
209.1500, 64.37939
210.3760, 109.3247
211.6030, 164.1763
212.8290, 137.9390
214.0550, 130.6367
215.2810, 196.2778
216.5060, 127.8687
217.7320, 101.4155
218.9570, 47.07666
220.1820, 171.6035
221.4070, 338.1523
222.6320, 492.7041
223.8560, 799.2432
225.0800, 1213.756
226.3040, 1503.244
227.5280, 1918.717
228.7520, 2547.220
229.9760, 3133.726
231.1990, 3829.207
232.4220, 4826.669
233.6450, 5570.150
234.8680, 6091.618
236.0910, 5990.857
237.3130, 5214.792
238.5350, 4079.500
239.7570, 2985.028
240.9790, 2066.623
242.2010, 1274.208
243.4220, 708.7441
244.6430, 514.2310
245.8640, 238.6694
247.0850, 70.94287
248.3060, 87.60352
249.5270, 182.3140
250.7470, 152.0737
251.9670, 141.8828
253.1870, 131.7412
254.4070, 354.4683
255.6260, 171.8413
256.8460, 53.97461
258.0650, 2.424316
259.2840, 185.0532
260.5030, 60.03223
261.7220, 58.13770
262.9400, 58.58252
264.1580, 118.1060
265.3760, 156.9448
266.5940, 160.8677
267.8120, 205.4810
269.0290, 239.1304
270.2470, 245.7007
271.4640, 223.1162
272.6810, 243.2617
273.8980, 127.5850
275.1140, 63.02002
276.3310, 83.51465
277.5470, 20.95801
278.7630, 151.4526
279.9790, 166.0293
281.1940, 9.285645
282.4100, 190.5464
283.6250, 8.386230
284.8400, 6.182129
286.0550, 154.8115
287.2700, 275.2832
288.4850, 279.6157
289.6990, 535.8120
290.9130, 682.8843
292.1270, 812.8354
293.3410, 971.6699
294.5540, 1187.373
295.7680, 1273.924
296.9810, 1409.312
298.1940, 1442.532
299.4070, 1433.589
300.6200, 1368.488
301.8320, 1250.227
303.0450, 1206.968
304.2570, 1159.304
305.4690, 1109.951
306.6800, 1249.756
307.8920, 1320.062
309.1030, 1466.313
310.3150, 1546.048
311.5260, 1662.246
312.7360, 2015.119
313.9470, 2311.896
315.1580, 2468.586
316.3680, 3023.192
317.5780, 3341.716
318.7880, 3855.157
319.9980, 4697.520
321.2070, 5836.804
322.4170, 6684.204
323.6260, 7802.146
324.8350, 9147.208
326.0430, 11119.19
327.2520, 13128.86
328.4610, 15875.11
329.6690, 19342.00
330.8770, 23186.40
332.0850, 28316.57
333.2920, 32362.43
334.5000, 37809.04
335.7070, 44005.58
336.9140, 49838.08
338.1210, 54251.84
339.3280, 56931.70
340.5350, 56932.27
341.7410, 54308.31
342.9470, 49489.07
344.1540, 43260.03
345.3590, 37112.00
346.5650, 30834.89
347.7710, 25825.88
348.9760, 21450.96
350.1810, 18129.05
351.3860, 15444.68
352.5910, 13378.91
353.7950, 11697.90
355.0000, 10347.92
356.2040, 9181.561
357.4080, 8171.531
358.6120, 7253.709
359.8150, 6473.492
361.0190, 6017.287
362.2220, 5458.630
363.4250, 5069.917
364.6280, 4492.586
365.8310, 4365.792
367.0340, 4108.349
368.2360, 4015.866
369.4380, 3698.420
370.6400, 3760.861
371.8420, 3636.267
373.0440, 3421.635
374.2450, 3396.967
375.4470, 3360.348
376.6480, 3373.521
377.8490, 3409.742
379.0490, 3410.928
380.2500, 3427.077
381.4500, 3441.190
382.6510, 3497.269
383.8510, 3685.315
385.0500, 3949.329
386.2500, 4219.309
387.4500, 4837.258
388.6490, 5323.172
389.8480, 5876.057
391.0470, 6803.908
392.2460, 7645.397
393.4440, 8420.786
394.6430, 9215.177
395.8410, 9956.415
397.0390, 10765.24
398.2370, 11290.65
399.4340, 11654.04
400.6320, 11798.86
401.8290, 11537.06
403.0260, 11309.79
404.2230, 11016.75
405.4200, 10587.52
406.6170, 10215.35
407.8130, 9809.001
409.0090, 9422.826
410.2050, 9028.378
411.4010, 8634.785
412.5970, 8220.535
413.7920, 7847.577
414.9880, 7352.688
416.1830, 7112.210
417.3780, 6701.887
418.5730, 6374.077
419.7670, 6174.231
420.9620, 5772.037
422.1560, 5193.786
423.3500, 4822.053
424.5440, 4636.111
425.7380, 4277.885
426.9310, 4206.834
428.1240, 4120.000
429.3180, 4409.759
430.5110, 4850.265
431.7030, 5367.064
432.8960, 5873.751
434.0890, 6772.964
435.2810, 7348.120
436.4730, 8573.220
437.6650, 9271.270
438.8570, 9989.262
440.0480, 9871.205
441.2390, 9050.093
442.4310, 7801.930
443.6220, 6570.716
444.8120, 5242.453
446.0030, 4041.141
447.1940, 3175.785
448.3840, 2545.387
449.5740, 2198.945
450.7640, 1781.468
451.9540, 1654.950
453.1430, 1544.389
454.3330, 1432.788
455.5220, 1277.148
456.7110, 1204.473
457.9000, 1238.762
459.0890, 1107.016
460.2770, 1080.233
461.4650, 923.4175
462.6540, 941.5669
463.8420, 931.6826
465.0290, 843.7646
466.2170, 832.8135
467.4050, 789.8301
468.5920, 733.8135
469.7790, 676.7651
470.9660, 551.6860
472.1530, 502.5776
473.3390, 383.4429
474.5250, 327.2827
475.7120, 319.0986
476.8980, 232.8916
478.0840, 224.6636
479.2690, 180.3105
480.4550, 121.1445
481.6400, 102.8501
482.8250, 33.53125
484.0100, 18.81934
485.1950, 21.22021
486.3800, 14.33105
487.5640, 19.14795
488.7480, 60.33008
489.9320, 46.78516
491.1160, 8.781738
492.3000, 29.31006
493.4840, 70.94141
494.6670, 12.42432
495.8500, 64.23193
497.0330, 106.9268
498.2160, 100.6333
499.3990, 16.66016
500.5810, 94.97656
501.7630, 20.40479
502.9460, 168.1396
504.1280, 174.6782
505.3090, 54.26270
506.4910, 10.83105
507.6720, 151.4038
508.8540, 108.0527
510.0350, 120.2383
511.2160, 99.54102
512.3960, 237.8618
513.5770, 222.1880
514.7570, 409.5405
515.9380, 532.9360
517.1180, 685.3213
518.2970, 758.7163
519.4770, 869.1006
520.6570, 994.4756
521.8360, 1151.866
523.0150, 1158.248
524.1940, 1294.620
525.3730, 1228.001
526.5510, 1192.375
527.7300, 1256.755
528.9080, 1223.127
530.0860, 1133.525
531.2640, 1307.946
532.4420, 1539.387
533.6200, 1872.821
534.7970, 2131.303
535.9740, 2305.839
537.1510, 2472.469
538.3280, 2407.183
539.5050, 2210.967
540.6810, 2094.815
541.8580, 1743.789
543.0340, 1564.840
544.2100, 1574.943
545.3860, 1498.078
546.5610, 1424.301
547.7370, 1339.572
548.9120, 1219.888
550.0870, 1153.618
551.2620, 1096.625
552.4370, 957.9990
553.6120, 807.3765
554.7860, 629.7529
555.9600, 487.1250
557.1340, 421.4937
558.3080, 441.8618
559.4820, 381.2285
560.6560, 307.6094
561.8290, 359.0186
563.0020, 206.4526
564.1750, 196.9375
565.3480, 305.5088
566.5210, 177.1719
567.6930, 106.8813
568.8660, 285.6914
570.0380, 215.5503
571.2100, 342.4604
572.3820, 312.3911
573.5530, 342.3291
574.7250, 186.2734
575.8960, 224.2163
577.0670, 304.1592
578.2380, 249.1006
579.4090, 338.0405
580.5800, 215.9805
581.7500, 247.9204
582.9210, 244.8599
584.0910, 416.7993
585.2610, 339.7397
586.4300, 329.6807
587.6000, 378.6221
588.7690, 365.5640
589.9390, 368.5078
591.1080, 311.4521
592.2770, 321.3979
593.4450, 306.3457
594.6140, 372.2944
595.7820, 393.2451
596.9500, 430.1982
598.1190, 434.0073
599.2860, 327.1099
600.4540, 407.0693
601.6220, 320.0312
602.7890, 273.9961
603.9560, 285.9634
605.1230, 260.0171
606.2900, 247.2217
607.4570, 281.8813
608.6230, 251.8608
609.7890, 255.8428
610.9560, 314.8291
612.1220, 326.8174
613.2870, 404.8105
614.4530, 445.6587
615.6180, 453.8081
616.7840, 582.8125
617.9490, 669.8203
619.1140, 806.8325
620.2790, 949.8267
621.4430, 1040.518
622.6080, 1216.081
623.7720, 1311.802
624.9360, 1519.873
626.1000, 1619.246
627.2640, 1837.388
628.4270, 1784.685
629.5910, 1679.990
630.7540, 1599.163
631.9170, 1786.670
633.0800, 1796.197
634.2430, 1877.420
635.4050, 1919.796
636.5680, 1985.816
637.7300, 2401.125
638.8920, 2594.727
640.0540, 2929.306
641.2150, 3458.949
642.3770, 3805.191
643.5380, 4324.675
644.7000, 5081.335
645.8610, 5809.529
647.0210, 6669.237
648.1820, 7969.096
649.3430, 9456.443
650.5030, 11095.70
651.6630, 13335.52
652.8230, 15794.23
653.9830, 19106.62
655.1430, 22352.22
656.3020, 26982.39
657.4620, 30463.68
658.6210, 34618.86
659.7800, 38024.03
660.9390, 40484.80
662.0970, 40762.98
663.2560, 38769.17
664.4140, 35921.25
665.5720, 32427.46
666.7300, 28872.97
667.8880, 26203.17
669.0460, 24238.01
670.2030, 23790.05
671.3600, 23869.89
672.5180, 24979.09
673.6740, 27051.29
674.8310, 29841.50
675.9880, 33034.20
677.1440, 37684.37
678.3010, 41942.57
679.4570, 45868.78
680.6130, 49707.02
681.7690, 52012.22
682.9240, 52353.04
684.0800, 50530.23
685.2350, 46388.06
686.3900, 40385.23
687.5450, 34721.42
688.7000, 28627.61
689.8540, 23663.79
691.0090, 19504.96
692.1630, 15919.13
693.3170, 13207.30
694.4710, 10964.45
695.6250, 9171.612
696.7780, 7846.768
697.9320, 6739.918
699.0850, 5849.065
700.2380, 5149.206
701.3910, 4479.344
702.5440, 4048.478
703.6970, 3699.607
704.8490, 3192.731
706.0010, 2967.851
707.1530, 2614.964
708.3050, 2355.072
709.4570, 2269.174
710.6090, 1931.270
711.7600, 1767.358
712.9110, 1773.441
714.0620, 1512.517
715.2130, 1330.587
716.3640, 1234.650
717.5150, 1132.707
718.6650, 1019.758
719.8150, 938.8018
720.9650, 750.8398
722.1150, 799.8711
723.2650, 751.8965
724.4150, 637.9150
725.5640, 773.9272
726.7130, 675.9336
727.8630, 622.9326
729.0110, 581.9268
730.1600, 524.6558
731.3090, 510.9600
732.4570, 475.8691
733.6060, 478.8374
734.7540, 517.7993
735.9020, 489.7559
737.0490, 535.7056
738.1970, 433.6494
739.3440, 518.5864
740.4920, 348.5176
741.6390, 399.4438
742.7860, 402.3628
743.9320, 374.2764
745.0790, 442.1836
746.2250, 477.0845
747.3720, 446.9795
748.5180, 572.8691
749.6640, 566.7520
750.8100, 493.6289
751.9550, 481.5000
753.1010, 403.3643
754.2460, 353.2236
755.3910, 296.0771
756.5360, 170.9238
757.6810, 134.7651
758.8250, 29.60107
759.9700, 29.43262
761.1140, 31.26074
762.2580, 71.08887
763.4020, 19.92676
764.5460, 81.77393
765.6900, 82.62305
766.8330, 52.48047
767.9760, 102.3359
769.1200, 76.81006
770.2620, 62.00000
771.4050, 34.23291
772.5480, 1.528320
773.6900, 69.71826
774.8330, 67.99121
775.9750, 49.28027
777.1170, 46.57666
778.2590, 73.90576
779.4000, 87.25781
780.5420, 110.6650
781.6830, 93.90527
782.8240, 5.610352
783.9650, 20.32227
785.1060, 64.24121
786.2470, 43.62354
787.3870, 74.01074
788.5280, 100.4482
789.6680, 49.95117
790.8080, 124.4927
791.9480, 192.1118
793.0870, 16.15625
794.2270, 60.41650
795.3660, 88.63770
796.5060, 24.85254
797.6450, 84.93701
798.7830, 14.21875
799.9220, 17.36963
801.0610, 59.48389
802.1990, 10.62207
803.3370, 51.27734
804.4750, 11.78857
805.6130, 121.1514
806.7510, 109.1611
807.8890, 106.2358
809.0260, 32.62744
810.1630, 32.48779
811.3000, 11.34570
812.4370, 58.79980
813.5740, 50.98047
814.7110, 9.808594
815.8470, 50.59375
816.9830, 5.377441
818.1190, 65.15723
819.2550, 30.06494
820.3910, 102.6953
821.5270, 31.54639
822.6620, 140.1943
823.7970, 37.93408
824.9330, 97.67236
826.0670, 168.4102
827.2020, 107.1475
828.3370, 132.8848
829.4710, 115.6216
830.6060, 247.3594
831.7400, 61.09717
832.8740, 64.83496
834.0080, 57.57373
835.1410, 211.3130
836.2750, 189.0527
837.4080, 243.7935
838.5410, 348.5356
839.6740, 370.2793
840.8070, 398.0234
841.9400, 448.7700
843.0730, 677.5181
844.2050, 630.2676
845.3370, 712.0195
846.4690, 988.7734
847.6010, 1068.529
848.7330, 1179.288
849.8640, 1486.048
850.9960, 1660.812
852.1270, 2064.578
853.2580, 2393.347
854.3890, 2724.119
855.5200, 3277.894
856.6500, 3583.672
857.7810, 3854.454
858.9110, 3866.239
860.0410, 3960.027
861.1710, 3817.820
862.3010, 3684.617
863.4310, 3494.417
864.5600, 3046.223
865.6900, 2754.031
866.8190, 2475.846
867.9480, 2240.663
869.0770, 2093.486
870.2050, 1789.314
871.3340, 1452.146
872.4620, 1417.984
873.5900, 1227.828
874.7180, 1010.677
875.8460, 1026.531
876.9740, 742.3901
878.1010, 705.2559
879.2290, 770.1274
880.3560, 579.0049
881.4830, 522.8882
882.6100, 569.7778
883.7370, 449.6743
884.8630, 453.5767
885.9900, 418.4863
887.1160, 468.4028
888.2420, 424.3257
889.3680, 504.2559
890.4940, 450.1929
891.6200, 426.1382
892.7450, 501.0903
893.8700, 468.0498
894.9960, 518.0176
896.1210, 541.9922
897.2460, 471.9756
898.3700, 423.9668
899.4950, 405.9663
900.6190, 335.9736
901.7430, 338.8086
902.8670, 299.0137
903.9910, 312.0459
905.1150, 286.6396
906.2390, 226.1758
907.3620, 293.4707
908.4850, 300.7275
909.6080, 379.0869
910.7310, 345.3135
911.8540, 293.7339
912.9770, 209.3438
914.0990, 187.2603
915.2210, 184.3604
916.3440, 159.0171
917.4660, 175.4937
918.5870, 179.4653
919.7090, 215.6602
920.8310, 227.3481
921.9520, 259.4097
923.0730, 256.4844
924.1940, 334.9814
925.3150, 464.6812
926.4360, 466.7354
927.5560, 490.6011
928.6770, 704.9233
929.7970, 693.1631
930.9170, 899.5688
932.0370, 919.0122
933.1570, 912.9097
934.2760, 1081.433
935.3960, 1027.977
936.5150, 1067.639
937.6340, 1233.206
938.7530, 1101.498
939.8720, 1024.132
940.9910, 1108.207
942.1090, 1123.090
943.2280, 953.2314
944.3460, 1051.083
945.4640, 935.9561
946.5820, 802.8667
947.6990, 791.2969
948.8170, 729.2988
949.9340, 636.2930
951.0520, 685.3076
952.1690, 563.3057
953.2860, 617.3691
954.4030, 483.8418
955.5190, 608.9575
956.6360, 502.4604
957.7520, 484.6338
958.8680, 481.8359
959.9840, 512.0781
961.1000, 371.3604
962.2160, 328.6777
963.3310, 271.0381
964.4470, 286.4404
965.5620, 292.8623
966.6770, 214.3154
967.7920, 232.7900
968.9060, 217.0537
970.0210, 201.8516
971.1360, 240.3906
972.2500, 206.9863
973.3640, 266.6055
974.4780, 284.2451
975.5920, 241.9062
976.7050, 255.5879
977.8190, 215.2910
978.9320, 251.0166
980.0450, 428.7627
981.1580, 617.5293
982.2710, 669.3184
983.3840, 783.1279
984.4970, 937.6592
985.6090, 1127.816
986.7210, 1224.693
987.8330, 1393.590
988.9450, 1533.509
990.0570, 1922.450
991.1690, 2223.410
992.2800, 2634.395
993.3920, 3267.398
994.5030, 3726.424
995.6140, 4580.470
996.7250, 5294.539
997.8350, 6305.629
998.9460, 7444.740
1000.056, 8433.869
1001.167, 9739.025
1002.277, 10653.50
1003.387, 11756.39
1004.496, 12593.61
1005.606, 13677.85
1006.715, 14649.11
1007.825, 15133.39
1008.934, 15616.69
1010.043, 15673.01
1011.152, 15868.36
1012.260, 15749.73
1013.369, 15565.11
1014.477, 15493.52
1015.586, 15501.95
1016.694, 15467.40
1017.802, 15534.87
1018.909, 15360.36
1020.017, 15430.87
1021.124, 15134.41
1022.232, 14838.96
1023.339, 14440.54
1024.446, 14025.93
1025.553, 13520.75
1026.659, 13065.39
1027.766, 12465.05
1028.872, 11918.73
1029.979, 11192.43
1031.085, 10107.15
1032.191, 9408.891
1033.296, 8605.653
1034.402, 7677.436
1035.507, 6847.238
1036.613, 6179.061
1037.718, 5417.904
1038.823, 4755.793
1039.928, 4129.721
1041.032, 3689.685
1042.137, 3297.671
1043.241, 2813.701
1044.346, 2572.772
1045.450, 2244.881
1046.554, 1956.026
1047.657, 1785.215
1048.761, 1717.451
1049.864, 1418.251
1050.968, 1399.355
1052.071, 1272.688
1053.174, 1109.039
1054.277, 1006.431
1055.379, 944.8564
1056.482, 775.3232
1057.584, 806.0146
1058.687, 736.5664
1059.789, 588.5254
1060.891, 652.2383
1061.992, 494.3281
1063.094, 492.4385
1064.196, 431.1787
1065.297, 433.9277
1066.398, 438.5283
1067.499, 497.1826
1068.600, 464.0234
1069.701, 407.0801
1070.801, 401.0557
1071.902, 243.3691
1073.002, 391.4375
1074.102, 310.0215
1075.202, 273.1475
1076.302, 421.8643
1077.402, 306.3242
1078.501, 436.3018
1079.600, 490.4111
1080.700, 418.2754
1081.799, 451.2617
1082.898, 530.4873
1083.996, 622.7568
1085.095, 471.9551
1086.193, 546.4971
1087.292, 416.7480
1088.390, 388.1416
1089.488, 367.7861
1090.586, 370.1484
1091.683, 339.0215
1092.781, 310.3145
1093.878, 304.4189
1094.975, 269.0752
1096.073, 270.7695
1097.169, 241.0840
1098.266, 352.5469
1099.363, 407.9863
1100.459, 352.3604
1101.556, 352.3535
1102.652, 302.6992
1103.748, 327.9678
1104.844, 318.4121
1105.940, 305.7744
1107.035, 352.1426
1108.131, 363.5732
1109.226, 415.9512
1110.321, 354.4199
1111.416, 349.8066
1112.511, 410.1963
1113.605, 280.5908
1114.700, 450.9893
1115.794, 382.7734
1116.889, 422.3398
1117.983, 404.7578
1119.077, 443.1699
1120.170, 340.5859
1121.264, 524.0049
1122.357, 620.4248
1123.451, 553.1328
1124.544, 340.2754
1125.637, 402.7041
1126.730, 459.6924
1127.823, 223.8535
1128.915, 485.0029
1130.008, 331.4395
1131.100, 279.8770
1132.192, 332.3174
1133.284, 346.7588
1134.376, 256.2012
1135.467, 347.6445
1136.559, 266.0879
1137.650, 128.5332
1138.742, 278.9785
1139.833, 161.4238
1140.924, 213.8682
1142.014, 166.3145
1143.105, 92.75977
1144.195, 112.2041
1145.286, 148.6484
1146.376, 31.09277
1147.466, 188.5361
1148.556, 32.97754
1149.646, 122.4189
1150.735, 122.8574
1151.825, 45.29590
1152.914, 28.73340
1154.003, 59.16699
1155.092, 255.6006
1156.181, 41.03125
1157.270, 135.4600
1158.358, 147.8857
1159.447, 25.30957
1160.535, 144.7295
1161.623, 87.14746
1162.711, 187.5615
1163.799, 307.9736
1164.886, 139.3818
1165.974, 133.7852
1167.061, 111.1865
1168.148, 176.5830
1169.235, 272.9756
1170.322, 255.3643
1171.409, 296.7480
1172.496, 103.1270
1173.582, 102.5000
1174.669, 151.8682
1175.755, 64.23145
1176.841, 72.58984
1177.927, 189.9414
1179.012, 83.28613
1180.098, 43.37500
1181.183, 15.06836
1182.269, 67.22363
1183.354, 41.50781
1184.439, 44.78418
1185.524, 59.05273
1186.608, 45.31348
1187.693, 1.566406
1188.777, 50.80664
1189.862, 63.96094
1190.946, 28.22266
1192.030, 94.60352
1193.113, 77.49512
1194.197, 70.44531
1195.281, 69.44824
1196.364, 81.50781
1197.447, 1.626953
1198.530, 104.2334
1199.613, 15.08301
1200.696, 51.08105
1201.779, 9.707031
1202.861, 225.5215
1203.944, 7.110352
1205.026, 48.27734
1206.108, 199.7129
1207.190, 15.72266
1208.271, 42.85938
1209.353, 72.51172
1210.435, 55.12891
1211.516, 8.175781
1212.597, 62.45801
1213.678, 11.27344
1214.759, 78.96387
1215.840, 26.18750
1216.920, 8.606445
1218.001, 44.56836
1219.081, 29.27246
1220.161, 8.157227
1221.241, 34.07520
1222.321, 51.04004
1223.401, 18.06152
1224.480, 58.12305
1225.560, 42.24512
1226.639, 111.5801
1227.718, 5.609375
1228.797, 68.16699
1229.876, 86.92969
1230.955, 60.32227
1232.033, 124.3613
1233.112, 15.96875
1234.190, 79.66016
1235.268, 128.2754
1236.346, 121.8750
1237.424, 89.46094
1238.501, 146.0312
1239.579, 84.58691
1240.656, 135.1289
1241.733, 155.6553
1242.811, 120.1670
1243.888, 122.3721
1244.964, 47.14941
1246.041, 72.61426
1247.117, 110.0635
1248.194, 116.4980
1249.270, 182.9180
1250.346, 195.4180
1251.422, 169.7402
1252.498, 229.1367
1253.573, 182.5186
1254.649, 157.9023
1255.724, 245.2725
1256.800, 314.6289
1257.875, 303.9697
1258.950, 268.2988
1260.024, 299.6143
1261.099, 260.9141
1262.173, 339.1982
1263.248, 348.5693
1264.322, 391.7246
1265.396, 419.9678
1266.470, 423.1973
1267.544, 457.4121
1268.617, 510.6113
1269.691, 577.7959
1270.764, 523.9668
1271.837, 563.1221
1272.910, 538.2646
1273.983, 491.3926
1275.056, 434.5059
1276.129, 557.6045
1277.201, 507.6885
1278.273, 505.7568
1279.346, 542.8115
1280.418, 365.8516
1281.489, 347.8760
1282.561, 483.8867
1283.633, 224.8809
1284.704, 408.8613
1285.776, 425.8262
1286.847, 499.7754
1287.918, 512.6260
1288.989, 512.0625
1290.059, 493.5322
1291.130, 471.4219
1292.200, 516.2949
1293.271, 472.1523
