##NAMES=Enstatite
##RRUFFID=R070550
##IDEAL CHEMISTRY=MgSiO_3_
##LOCALITY=Tanzania
##OWNER=RRUFF
##SOURCE=www.multicolour.com
##DESCRIPTION=Brown, translucent, vitreous crystal fragment
##STATUS=The identification of this mineral has been confirmed by X-ray diffraction and chemical analysis
##URL=rruff.info/R070550
##MEASURED CHEMISTRY=(Mg_0.90_Fe_0.10_)_Î£=1_Si_1.00_O_3_
##PIN_ID=L01656
##ORIENTATION=Laser parallel to a* (1 0 0). Fiducial mark perpendicular to laser is parallel to -b [0 -1 0]
112.8890, 0.0000000E+00
114.1310, 19.66479
115.3720, 174.7908
116.6130, 273.0571
117.8540, 1023.205
119.0950, 2092.736
120.3360, 3919.725
121.5760, 5924.045
122.8160, 8045.850
124.0560, 9855.213
125.2960, 12588.27
126.5350, 16670.25
127.7750, 21678.46
129.0140, 26905.54
130.2530, 30810.47
131.4920, 31321.58
132.7300, 27664.54
133.9690, 22649.98
135.2070, 17102.42
136.4450, 12643.20
137.6830, 8746.740
138.9210, 6237.389
140.1580, 4369.842
141.3950, 3256.038
142.6330, 2441.424
143.8690, 1982.649
145.1060, 1472.439
146.3430, 1161.126
147.5790, 984.4482
148.8150, 756.9033
150.0510, 582.5581
151.2870, 802.3608
152.5220, 639.7500
153.7580, 528.1455
154.9930, 527.2549
156.2280, 349.0674
157.4620, 272.1875
158.6970, 67.23389
159.9310, 95.30566
161.1660, 64.49512
162.4000, 168.3970
163.6330, 160.6025
164.8670, 334.8442
166.1000, 177.6597
167.3340, 204.1104
168.5670, 96.13916
169.8000, 49.68799
171.0320, 130.0503
172.2650, 15.01514
173.4970, 47.39111
174.7290, 60.05322
175.9610, 9.979980
177.1930, 38.84180
178.4240, 84.42432
179.6550, 117.7793
180.8870, 145.9165
182.1170, 190.0020
183.3480, 343.4951
184.5790, 442.0024
185.8090, 596.1396
187.0390, 851.7158
188.2690, 938.3418
189.4990, 1185.352
190.7290, 1271.673
191.9580, 1396.877
193.1870, 1500.824
194.4160, 1435.584
195.6450, 1533.616
196.8740, 1574.153
198.1020, 1654.238
199.3310, 1755.681
200.5590, 1867.469
201.7870, 1980.020
203.0140, 1933.640
204.2420, 1650.447
205.4690, 1286.431
206.6960, 954.5811
207.9230, 593.8862
209.1500, 356.3359
210.3760, 272.9194
211.6030, 28.62646
212.8290, 16.55615
214.0550, 73.64502
215.2810, 147.6475
216.5060, 135.5708
217.7320, 53.43115
218.9570, 4.228516
220.1820, 139.0405
221.4070, 229.9238
222.6320, 346.7500
223.8560, 643.1680
225.0800, 926.6133
226.3040, 1518.074
227.5280, 2027.542
228.7520, 2518.013
229.9760, 3072.557
231.1990, 3744.218
232.4220, 4648.900
233.6450, 5561.639
234.8680, 6568.455
236.0910, 7186.370
237.3130, 7170.345
238.5350, 6518.275
239.7570, 5497.184
240.9790, 4340.073
242.2010, 3294.933
243.4220, 2233.767
244.6430, 1477.572
245.8640, 884.3525
247.0850, 523.1040
248.3060, 277.8291
249.5270, 24.52637
250.7470, 59.80420
251.9670, 62.16162
253.1870, 148.5464
254.4070, 201.9590
255.6260, 202.4570
256.8460, 132.1387
258.0650, 45.89209
259.2840, 7.088379
260.5030, 29.88379
261.7220, 17.94629
262.9400, 182.9370
264.1580, 181.6050
265.3760, 170.2876
266.5940, 195.2070
267.8120, 146.4722
269.0290, 97.38086
270.2470, 65.82910
271.4640, 36.94727
272.6810, 9.790039
273.8980, 90.40430
275.1140, 53.17090
276.3310, 88.82715
277.5470, 56.35596
278.7630, 61.46143
279.9790, 61.51416
281.1940, 149.5366
282.4100, 96.57178
283.6250, 205.6226
284.8400, 79.73193
286.0550, 86.89160
287.2700, 156.8760
288.4850, 212.6172
289.6990, 352.3276
290.9130, 509.9829
292.1270, 616.6074
293.3410, 745.2021
294.5540, 944.7646
295.7680, 1107.279
296.9810, 1429.737
298.1940, 1460.126
299.4070, 1580.436
300.6200, 1577.661
301.8320, 1531.798
303.0450, 1550.839
304.2570, 1381.782
305.4690, 1395.633
306.6800, 1341.395
307.8920, 1391.071
309.1030, 1365.649
310.3150, 1408.018
311.5260, 1454.055
312.7360, 1525.919
313.9470, 1654.726
315.1580, 1862.476
316.3680, 2068.171
317.5780, 2380.812
318.7880, 2711.275
319.9980, 3196.361
321.2070, 3741.233
322.4170, 4451.584
323.6260, 5321.977
324.8350, 6378.321
326.0430, 7663.621
327.2520, 9468.876
328.4610, 11619.99
329.6690, 14503.88
330.8770, 17781.45
332.0850, 21766.87
333.2920, 26315.40
334.5000, 32121.26
335.7070, 36761.09
336.9140, 42887.66
338.1210, 48712.05
339.3280, 53914.33
340.5350, 56903.43
341.7410, 57649.42
342.9470, 55451.53
344.1540, 51256.70
345.3590, 44837.69
346.5650, 37996.18
347.7710, 31275.79
348.9760, 25766.14
350.1810, 21081.88
351.3860, 17304.33
352.5910, 14576.47
353.7950, 12255.17
355.0000, 10543.29
356.2040, 9434.527
357.4080, 8239.189
358.6120, 7335.980
359.8150, 6659.472
361.0190, 6138.777
362.2220, 5457.431
363.4250, 4948.071
364.6280, 4544.219
365.8310, 4142.837
367.0340, 3911.881
368.2360, 3753.906
369.4380, 3541.912
370.6400, 3422.900
371.8420, 3449.868
373.0440, 3517.817
374.2450, 3414.748
375.4470, 3607.659
376.6480, 3545.551
377.8490, 3545.423
379.0490, 3676.274
380.2500, 3660.106
381.4500, 3664.916
382.6510, 3582.705
383.8510, 3581.475
385.0500, 3777.224
386.2500, 3962.952
387.4500, 4193.660
388.6490, 4557.348
389.8480, 5116.018
391.0470, 5787.667
392.2460, 6700.297
393.4440, 7421.909
394.6430, 8520.354
395.8410, 9373.019
397.0390, 10352.48
398.2370, 11070.82
399.4340, 11591.97
400.6320, 11850.02
401.8290, 12121.14
403.0260, 11886.12
404.2230, 11572.49
405.4200, 11265.51
406.6170, 10858.22
407.8130, 10598.18
409.0090, 10429.11
410.2050, 10184.57
411.4010, 10221.31
412.5970, 10064.85
413.7920, 10010.11
414.9880, 9834.037
416.1830, 9765.475
417.3780, 9485.312
418.5730, 9116.239
419.7670, 8694.150
420.9620, 8128.941
422.1560, 7393.276
423.3500, 6956.114
424.5440, 6108.752
425.7380, 5416.716
426.9310, 4810.776
428.1240, 4279.762
429.3180, 4064.428
430.5110, 3966.422
431.7030, 4099.551
432.8960, 4384.354
434.0890, 4838.204
435.2810, 5375.023
436.4730, 6176.813
437.6650, 7090.573
438.8570, 7836.305
440.0480, 8704.007
441.2390, 9484.679
442.4310, 9300.325
443.6220, 8721.940
444.8120, 7658.530
446.0030, 6323.093
447.1940, 5181.628
448.3840, 4072.137
449.5740, 3223.619
450.7640, 2576.076
451.9540, 2096.508
453.1430, 1634.916
454.3330, 1625.300
455.5220, 1398.662
456.7110, 1304.002
457.9000, 1182.323
459.0890, 1180.621
460.2770, 1113.900
461.4650, 1129.159
462.6540, 1056.399
463.8420, 1041.621
465.0290, 975.8276
466.2170, 751.0161
467.4050, 738.1855
468.5920, 757.3359
469.7790, 693.4683
470.9660, 740.5825
472.1530, 653.6787
473.3390, 567.7588
474.5250, 547.8232
475.7120, 401.8740
476.8980, 322.9111
478.0840, 291.9351
479.2690, 173.9473
480.4550, 157.9492
481.6400, 180.9419
482.8250, 185.9253
484.0100, 130.9004
485.1950, 82.86865
486.3800, 38.17383
487.5640, 24.26562
488.7480, 114.3979
489.9320, 12.38770
491.1160, 2.839844
492.3000, 52.91357
493.4840, 38.34229
494.6670, 34.64307
495.8500, 3.021484
497.0330, 132.3203
498.2160, 23.75488
499.3990, 93.22412
500.5810, 83.75781
501.7630, 146.3403
502.9460, 116.9731
504.1280, 81.62646
505.3090, 105.2852
506.4910, 24.99170
507.6720, 22.28564
508.8540, 90.55420
510.0350, 97.82031
511.2160, 144.0840
512.3960, 230.3564
513.5770, 329.5625
514.7570, 505.9565
515.9380, 605.2676
517.1180, 724.5864
518.2970, 878.9297
519.4770, 994.8105
520.6570, 1171.645
521.8360, 1240.021
523.0150, 1366.427
524.1940, 1434.836
525.3730, 1441.253
526.5510, 1417.698
527.7300, 1319.168
528.9080, 1308.656
530.0860, 1261.180
531.2640, 1284.717
532.4420, 1366.769
533.6200, 1436.860
534.7970, 1633.457
535.9740, 1789.088
537.1510, 2015.735
538.3280, 2240.450
539.5050, 2271.226
540.6810, 2200.062
541.8580, 2125.972
543.0340, 1945.974
544.2100, 1737.028
545.3860, 1626.125
546.5610, 1603.259
547.7370, 1629.421
548.9120, 1462.622
550.0870, 1437.890
551.2620, 1352.221
552.4370, 1211.892
553.6120, 1086.091
554.7860, 955.6196
555.9600, 780.1943
557.1340, 656.8086
558.3080, 513.4565
559.4820, 407.1318
560.6560, 395.8550
561.8290, 238.6167
563.0020, 323.3892
564.1750, 277.2026
565.3480, 244.0601
566.5210, 222.9624
567.6930, 294.9341
568.8660, 253.9619
570.0380, 239.0747
571.2100, 146.2412
572.3820, 146.4639
573.5530, 278.6938
574.7250, 383.9272
575.8960, 428.1626
577.0670, 236.4014
578.2380, 188.6421
579.4090, 315.8857
580.5800, 223.1323
581.7500, 284.3818
582.9210, 175.6348
584.0910, 177.8906
585.2610, 236.1499
586.4300, 249.4116
587.6000, 248.3818
588.7690, 174.9468
589.9390, 237.2192
591.1080, 193.4961
592.2770, 188.7754
593.4450, 269.0596
594.6140, 185.3472
595.7820, 289.6382
596.9500, 1222.934
598.1190, 659.3232
599.2860, 1727.537
600.4540, 214.8447
601.6220, 158.1562
602.7890, 196.4727
603.9560, 152.7930
605.1230, 182.1177
606.2900, 170.1055
607.4570, 156.6157
608.6230, 146.1172
609.7890, 162.4595
610.9560, 136.8062
612.1220, 193.1577
613.2870, 226.5137
614.4530, 305.8740
615.6180, 264.2397
616.7840, 424.6099
617.9490, 291.9844
619.1140, 256.3633
620.2790, 368.7471
621.4430, 418.1362
622.6080, 474.5293
623.7720, 544.5669
624.9360, 584.3306
626.1000, 638.4824
627.2640, 676.3535
628.4270, 688.1675
629.5910, 857.3018
630.7540, 938.6123
631.9170, 1097.547
633.0800, 1153.528
634.2430, 1214.773
635.4050, 1577.620
636.5680, 1609.894
637.7300, 1846.463
638.8920, 1903.895
640.0540, 2200.038
641.2150, 2455.847
642.3770, 2821.598
643.5380, 3100.186
644.7000, 3841.738
645.8610, 4329.531
647.0210, 4965.408
648.1820, 5987.384
649.3430, 7007.953
650.5030, 8553.502
651.6630, 10261.47
652.8230, 12545.56
653.9830, 15070.52
655.1430, 18220.66
656.3020, 21597.22
657.4620, 25541.81
658.6210, 29511.41
659.7800, 33531.55
660.9390, 37083.82
662.0970, 39628.71
663.2560, 39875.77
664.4140, 38642.49
665.5720, 36016.46
666.7300, 32710.06
667.8880, 29277.61
669.0460, 26134.68
670.2030, 23933.29
671.3600, 23089.00
672.5180, 22931.05
673.6740, 23803.90
674.8310, 25443.29
675.9880, 27678.61
677.1440, 31120.35
678.3010, 34779.04
679.4570, 39218.93
680.6130, 43390.86
681.7690, 47260.93
682.9240, 49820.60
684.0800, 51039.18
685.2350, 50434.06
686.3900, 47099.79
687.5450, 42401.80
688.7000, 36679.46
689.8540, 30843.12
691.0090, 25440.40
692.1630, 20655.05
693.3170, 16786.69
694.4710, 13754.33
695.6250, 11347.97
696.7780, 9513.603
697.9320, 7864.229
699.0850, 6682.850
700.2380, 5836.467
701.3910, 5008.079
702.5440, 4510.684
703.6970, 3851.284
704.8490, 3623.877
706.0010, 3209.465
707.1530, 2955.045
708.3050, 2528.619
709.4570, 2304.186
710.6090, 2224.745
711.7600, 1995.296
712.9110, 1797.839
714.0620, 1714.375
715.2130, 1458.902
716.3640, 1368.421
717.5150, 1283.933
718.6650, 1279.437
719.8150, 1154.932
720.9650, 1158.419
722.1150, 974.8979
723.2650, 996.3691
724.4150, 864.8320
725.5640, 818.2871
726.7130, 813.7334
727.8630, 702.1719
729.0110, 748.6021
730.1600, 623.0244
731.3090, 597.4375
732.4570, 727.8433
733.6060, 587.2402
734.7540, 637.6289
735.9020, 576.0088
737.0490, 661.3809
738.1970, 756.7441
739.3440, 643.0996
740.4920, 647.4458
741.6390, 736.7842
742.7860, 664.1138
743.9320, 588.4351
745.0790, 661.7476
746.2250, 712.0518
747.3720, 778.3472
748.5180, 826.6343
749.6640, 815.9121
750.8100, 848.1821
751.9550, 802.3247
753.1010, 827.6953
754.2460, 653.9390
755.3910, 548.1743
756.5360, 383.4009
757.6810, 302.6187
758.8250, 283.8281
759.9700, 156.0283
761.1140, 202.2202
762.2580, 196.4028
763.4020, 135.5776
764.5460, 59.74463
765.6900, 23.92480
766.8330, 2.799805
767.9760, 7.675293
769.1200, 13.47900
770.2620, 18.70312
771.4050, 39.87793
772.5480, 8.935059
773.6900, 40.75244
774.8330, 18.40039
775.9750, 32.58740
777.1170, 67.78076
778.2590, 98.99951
779.4000, 48.76025
780.5420, 31.51709
781.6830, 26.26953
782.8240, 14.97510
783.9650, 23.24414
785.1060, 42.39893
786.2470, 14.78564
787.3870, 59.04297
788.5280, 26.70898
789.6680, 60.49365
790.8080, 58.32812
791.9480, 2.787598
793.0870, 20.11279
794.2270, 84.04248
795.3660, 24.96533
796.5060, 109.0356
797.6450, 0.8876950
798.7830, 105.2061
799.9220, 3.626465
801.0610, 22.55664
802.1990, 90.76904
803.3370, 85.04639
804.4750, 52.38623
805.6130, 124.7700
806.7510, 38.23682
807.8890, 55.73877
809.0260, 109.2866
810.1630, 26.90771
811.3000, 115.5586
812.4370, 3.285156
813.5740, 122.0278
814.7110, 89.84912
815.8470, 13.73193
816.9830, 1.364258
818.1190, 81.55176
819.2550, 33.47607
820.3910, 122.5029
821.5270, 48.55859
822.6620, 4.348145
823.7970, 51.75342
824.9330, 10.10645
826.0670, 43.95996
827.2020, 10.19287
828.3370, 53.64062
829.4710, 57.17139
830.6060, 31.28906
831.7400, 107.1050
832.8740, 92.91504
834.0080, 113.7202
835.1410, 98.51953
836.2750, 107.1274
837.4080, 109.4648
838.5410, 143.8872
839.6740, 135.6670
840.8070, 208.4419
841.9400, 277.8164
843.0730, 456.9780
844.2050, 521.7393
845.3370, 641.4971
846.4690, 733.2505
847.6010, 1016.000
848.7330, 1250.746
849.8640, 1715.489
850.9960, 2124.228
852.1270, 2453.964
853.2580, 2891.697
854.3890, 3364.428
855.5200, 3742.156
856.6500, 4026.881
857.7810, 3965.584
858.9110, 3740.324
860.0410, 3479.042
861.1710, 3288.759
862.3010, 2786.474
863.4310, 2510.187
864.5600, 2190.898
865.6900, 1850.609
866.8190, 1627.319
867.9480, 1334.027
869.0770, 1200.735
870.2050, 946.4414
871.3340, 934.1484
872.4620, 707.8540
873.5900, 660.5596
874.7180, 441.2651
875.8460, 493.9707
876.9740, 523.6753
878.1010, 460.3818
879.2290, 386.0874
880.3560, 322.7944
881.4830, 280.9277
882.6100, 206.0688
883.7370, 212.9175
884.8630, 132.6270
885.9900, 109.3384
887.1160, 196.0498
888.2420, 155.7637
889.3680, 239.4790
890.4940, 182.1953
891.6200, 161.9136
892.7450, 235.6338
893.8700, 251.3564
894.9960, 204.0811
896.1210, 222.8076
897.2460, 294.5371
898.3700, 304.2686
899.4950, 262.0029
900.6190, 199.7402
901.7430, 230.4712
902.8670, 124.2905
903.9910, 133.8066
905.1150, 86.96240
906.2390, 52.49561
907.3620, 125.4438
908.4850, 16.89893
909.6080, 124.3623
910.7310, 140.1064
911.8540, 110.8765
912.9770, 166.6499
914.0990, 143.4277
915.2210, 151.4141
916.3440, 198.4863
917.4660, 242.8931
918.5870, 285.6553
919.7090, 426.4531
920.8310, 576.2554
921.9520, 531.0317
923.0730, 578.8428
924.1940, 659.3804
925.3150, 804.5386
926.4360, 840.9741
927.5560, 925.2549
928.6770, 1134.109
929.7970, 1183.964
930.9170, 1230.818
932.0370, 1191.135
933.1570, 1349.368
934.2760, 1448.968
935.3960, 1527.420
936.5150, 1517.250
937.6340, 1405.846
938.7530, 1431.849
939.8720, 1339.954
940.9910, 1294.563
942.1090, 1128.646
943.2280, 1020.686
944.3460, 976.4014
945.4640, 908.3408
946.5820, 843.7939
947.6990, 756.3345
948.8170, 725.4653
949.9340, 608.6611
951.0520, 445.6851
952.1690, 469.6953
953.2860, 412.5820
954.4030, 393.8887
955.5190, 231.3101
956.6360, 277.4521
957.7520, 246.7915
958.8680, 387.9038
959.9840, 299.4004
961.1000, 206.9277
962.2160, 320.8521
963.3310, 300.4194
964.4470, 353.0034
965.5620, 364.9297
966.6770, 300.2344
967.7920, 313.8760
968.9060, 349.5361
970.0210, 226.2129
971.1360, 260.9077
972.2500, 247.6201
973.3640, 319.3501
974.4780, 306.1162
975.5920, 418.9043
976.7050, 422.5420
977.8190, 462.5337
978.9320, 460.3867
980.0450, 497.2710
981.1580, 495.1855
982.2710, 588.1187
983.3840, 645.0781
984.4970, 777.0562
985.6090, 843.0542
986.7210, 980.0718
987.8330, 1153.256
988.9450, 1303.740
990.0570, 1547.286
991.1690, 1710.424
992.2800, 1930.592
993.3920, 2196.779
994.5030, 2628.192
995.6140, 3079.511
996.7250, 3695.476
997.8350, 4269.761
998.9460, 4979.063
1000.056, 5775.386
1001.167, 6721.729
1002.277, 7630.091
1003.387, 8821.473
1004.496, 10081.87
1005.606, 11254.29
1006.715, 12795.73
1007.825, 13960.19
1008.934, 15040.67
1010.043, 15974.17
1011.152, 16382.69
1012.260, 16323.23
1013.369, 15983.78
1014.477, 15580.36
1015.586, 15373.95
1016.694, 15147.55
1017.802, 15087.18
1018.909, 15074.83
1020.017, 15341.49
1021.124, 15339.16
1022.232, 15520.86
1023.339, 15751.57
1024.446, 15989.30
1025.553, 16014.05
1026.659, 15922.82
1027.766, 15970.61
1028.872, 15884.40
1029.979, 15470.22
1031.085, 14852.05
1032.191, 14039.90
1033.296, 13091.77
1034.402, 11719.65
1035.507, 10587.55
1036.613, 9581.477
1037.718, 8559.422
1038.823, 7417.391
1039.928, 6581.166
1041.032, 5704.698
1042.137, 4967.401
1043.241, 4307.458
1044.346, 3755.530
1045.450, 3379.618
1046.554, 2900.722
1047.657, 2540.840
1048.761, 2328.993
1049.864, 2043.174
1050.968, 1850.381
1052.071, 1585.605
1053.174, 1570.846
1054.277, 1427.100
1055.379, 1324.371
1056.482, 1214.663
1057.584, 1139.983
1058.687, 1029.631
1059.789, 1060.731
1060.891, 896.1416
1061.992, 875.9692
1063.094, 957.6362
1064.196, 826.3867
1065.297, 695.9287
1066.398, 752.0786
1067.499, 595.8398
1068.600, 551.6914
1069.701, 600.8828
1070.801, 483.1997
1071.902, 581.4424
1073.002, 421.6011
1074.102, 339.9180
1075.202, 368.8398
1076.302, 429.0977
1077.402, 463.8931
1078.501, 386.7715
1079.600, 446.4839
1080.700, 318.0977
1081.799, 427.5083
1082.898, 405.1318
1083.996, 310.0649
1085.095, 365.6104
1086.193, 317.1514
1087.292, 360.7412
1088.390, 280.1108
1089.488, 325.6929
1090.586, 292.6167
1091.683, 281.4771
1092.781, 305.6934
1093.878, 236.7041
1094.975, 321.3032
1096.073, 342.8584
1097.169, 335.3916
1098.266, 292.8975
1099.363, 196.5132
1100.459, 319.2271
1101.556, 333.6987
1102.652, 287.4541
1103.748, 186.8501
1104.844, 260.8096
1105.940, 213.6191
1107.035, 375.6738
1108.131, 249.2441
1109.226, 315.7217
1110.321, 409.0039
1111.416, 180.5127
1112.511, 329.8091
1113.605, 355.6377
1114.700, 287.8257
1115.794, 451.6992
1116.889, 355.7812
1117.983, 336.6138
1119.077, 520.4160
1120.170, 581.9028
1121.264, 602.1533
1122.357, 617.8823
1123.451, 705.1611
1124.544, 529.8916
1125.637, 405.3037
1126.730, 460.0752
1127.823, 311.8237
1128.915, 411.7002
1130.008, 258.4468
1131.100, 319.3877
1132.192, 406.3115
1133.284, 355.3623
1134.376, 227.0303
1135.467, 392.7842
1136.559, 254.5396
1137.650, 500.3018
1138.742, 154.2222
1139.833, 370.3599
1140.924, 582.7236
1142.014, 396.4302
1143.105, 276.6885
1144.195, 324.0703
1145.286, 221.4438
1146.376, 218.7383
1147.466, 254.2974
1148.556, 239.7305
1149.646, 293.2700
1150.735, 275.4922
1151.825, 109.9526
1152.914, 181.4717
1154.003, 149.6709
1155.092, 200.0640
1156.181, 246.7002
1157.270, 115.9297
1158.358, 253.1045
1159.447, 161.3159
1160.535, 210.6479
1161.623, 280.9707
1162.711, 236.0991
1163.799, 174.2178
1164.886, 232.3267
1165.974, 220.4258
1167.061, 253.5142
1168.148, 156.5923
1169.235, 131.6597
1170.322, 174.7163
1171.409, 191.7617
1172.496, 218.7959
1173.582, 195.8179
1174.669, 214.3574
1175.755, 166.8267
1176.841, 192.8125
1177.927, 155.7861
1179.012, 85.74658
1180.098, 121.6948
1181.183, 90.62988
1182.269, 135.5508
1183.354, 52.46729
1184.439, 94.36084
1185.524, 80.28516
1186.608, 50.15039
1187.693, 91.05273
1188.777, 86.59961
1189.862, 73.70068
1190.946, 131.5059
1192.030, 4.409668
1193.113, 21.35938
1194.197, 7.223633
1195.281, 75.37891
1196.364, 24.90527
1197.447, 38.77832
1198.530, 23.44238
1199.613, 84.91260
1200.696, 85.28369
1201.779, 82.49951
1202.861, 63.81104
1203.944, 32.77686
1205.026, 72.97754
1206.108, 7.471191
1207.190, 52.10107
1208.271, 131.8984
1209.353, 81.23730
1210.435, 32.32275
1211.516, 18.38428
1212.597, 5.422363
1213.678, 46.56738
1214.759, 7.550293
1215.840, 21.39355
1216.920, 18.39209
1218.001, 80.73975
1219.081, 98.94775
1220.161, 87.61377
1221.241, 69.61572
1222.321, 35.06201
1223.401, 1.556641
1224.480, 42.02100
1225.560, 55.38184
1226.639, 3.087891
1227.718, 72.46484
1228.797, 48.81641
1229.876, 38.35498
1230.955, 88.53125
1232.033, 37.07178
1233.112, 111.3164
1234.190, 49.53564
1235.268, 40.27246
1236.346, 9.857910
1237.424, 78.01953
1238.501, 102.0869
1239.579, 16.87207
1240.656, 19.88184
1241.733, 15.94385
1242.811, 43.94141
1243.888, 2.797852
1244.964, 42.61182
1246.041, 31.39600
1247.117, 48.14795
1248.194, 52.87109
1249.270, 0.5644530
1250.346, 90.78711
1251.422, 15.76855
1252.498, 10.71387
1253.573, 65.75146
1254.649, 135.7310
1255.724, 17.14648
1256.800, 32.44580
1257.875, 52.87354
1258.950, 67.25586
1260.024, 49.08105
1261.099, 50.73047
1262.173, 43.92041
1263.248, 78.07764
1264.322, 68.00684
1265.396, 68.07959
1266.470, 67.54541
1267.544, 53.58545
1268.617, 42.59326
1269.691, 34.56641
1270.764, 74.50439
1271.837, 174.4116
1272.910, 139.2920
1273.983, 140.1460
1275.056, 161.8862
1276.129, 97.68555
1277.201, 126.4561
1278.273, 100.3984
1279.346, 182.1606
1280.418, 116.8550
1281.489, 101.5229
1282.561, 191.1611
1283.633, 128.7734
1284.704, 82.35693
1285.776, 164.9097
1286.847, 176.4360
1287.918, 165.9351
1288.989, 135.4067
1290.059, 135.8506
1291.130, 218.2666
1292.200, 265.6553
1293.271, 350.0181
