##NAMES=Enstatite
##RRUFFID=R070550
##IDEAL CHEMISTRY=MgSiO_3_
##LOCALITY=Tanzania
##OWNER=RRUFF
##SOURCE=www.multicolour.com
##DESCRIPTION=Brown, translucent, vitreous crystal fragment
##STATUS=The identification of this mineral has been confirmed by X-ray diffraction and chemical analysis
##URL=rruff.info/R070550
##MEASURED CHEMISTRY=(Mg_0.90_Fe_0.10_)_Î£=1_Si_1.00_O_3_
##PIN_ID=L01735
##ORIENTATION=Laser parallel to -b* (0 -1 0). Fiducial mark perpendicular to laser is parallel to c [0 0 1]
115.3720, 0.0000000E+00
116.6130, 5.750244
117.8540, 2.887451
119.0950, 42.85706
120.3360, 6.186035
121.5760, 49.40051
122.8160, 117.4009
124.0560, 132.4392
125.2960, 166.9750
126.5350, 184.6041
127.7750, 206.0153
129.0140, 221.9646
130.2530, 314.2567
131.4920, 345.7515
132.7300, 401.3000
133.9690, 391.7930
135.2070, 407.1382
136.4450, 381.2544
137.6830, 368.0686
138.9210, 364.5210
140.1580, 373.5596
141.3950, 409.1387
142.6330, 428.2185
143.8690, 385.7629
145.1060, 405.7400
146.3430, 380.2920
147.5790, 450.0720
148.8150, 447.1907
150.0510, 373.6526
151.2870, 417.4392
152.5220, 360.5344
153.7580, 259.9126
154.9930, 306.5476
156.2280, 215.4194
157.4620, 251.5122
158.6970, 132.8164
159.9310, 169.3267
161.1660, 90.03711
162.4000, 163.9417
163.6330, 160.0325
164.8670, 94.30054
166.1000, 116.7383
167.3340, 91.33765
168.5670, 45.09253
169.8000, 71.99634
171.0320, 37.78198
172.2650, 68.22949
173.4970, 6.549316
174.7290, 20.00122
175.9610, 6.416260
177.1930, 26.29883
178.4240, 53.14673
179.6550, 1.126953
180.8870, 86.23608
182.1170, 14.46973
183.3480, 30.82251
184.5790, 16.29004
185.8090, 82.86841
187.0390, 158.5532
188.2690, 117.3408
189.4990, 180.1968
190.7290, 217.0298
191.9580, 278.8589
193.1870, 284.6975
194.4160, 360.5554
195.6450, 359.4395
196.8740, 420.3560
198.1020, 519.3093
199.3310, 480.3030
200.5590, 550.3950
201.7870, 566.6099
203.0140, 622.9124
204.2420, 707.3208
205.4690, 720.7935
206.6960, 695.3420
207.9230, 683.9824
209.1500, 610.6982
210.3760, 594.4580
211.6030, 507.2612
212.8290, 481.1079
214.0550, 443.9985
215.2810, 516.9329
216.5060, 496.9116
217.7320, 551.9336
218.9570, 506.9993
220.1820, 656.1077
221.4070, 728.2595
222.6320, 771.4536
223.8560, 985.6902
225.0800, 1137.969
226.3040, 1475.289
227.5280, 1793.651
228.7520, 2065.053
229.9760, 2459.506
231.1990, 2733.018
232.4220, 3056.613
233.6450, 3626.269
234.8680, 4316.006
236.0910, 4777.843
237.3130, 5088.814
238.5350, 5081.885
239.7570, 4530.040
240.9790, 3717.294
242.2010, 2772.599
243.4220, 1890.983
244.6430, 1341.414
245.8640, 1059.870
247.0850, 787.3481
248.3060, 653.8494
249.5270, 661.3740
250.7470, 639.9207
251.9670, 532.4897
253.1870, 704.0803
254.4070, 707.6924
255.6260, 803.3254
256.8460, 786.9785
258.0650, 873.6526
259.2840, 889.3467
260.5030, 883.0601
261.7220, 737.7927
262.9400, 737.2549
264.1580, 735.6421
265.3760, 742.3569
266.5940, 866.3752
267.8120, 885.5830
269.0290, 1011.958
270.2470, 1090.482
271.4640, 1218.141
272.6810, 1325.923
273.8980, 1514.820
275.1140, 1456.822
276.3310, 1527.922
277.5470, 1296.115
278.7630, 1098.393
279.9790, 891.7529
281.1940, 622.1899
282.4100, 436.7002
283.6250, 358.7732
284.8400, 275.5752
286.0550, 256.1284
287.2700, 221.2043
288.4850, 320.0320
289.6990, 318.4424
290.9130, 463.5322
292.1270, 533.8210
293.3410, 600.8564
294.5540, 670.2710
295.7680, 806.9849
296.9810, 889.5613
298.1940, 942.7759
299.4070, 1091.395
300.6200, 1118.690
301.8320, 1012.045
303.0450, 1000.416
304.2570, 765.8230
305.4690, 751.2656
306.6800, 654.7427
307.8920, 550.2529
309.1030, 636.7957
310.3150, 736.3701
311.5260, 977.9756
312.7360, 1035.611
313.9470, 1212.275
315.1580, 1466.969
316.3680, 1666.690
317.5780, 2001.438
318.7880, 2339.213
319.9980, 2644.299
321.2070, 2926.982
322.4170, 3217.655
323.6260, 3404.529
324.8350, 3417.428
326.0430, 3524.344
327.2520, 3692.289
328.4610, 4126.255
329.6690, 4572.241
330.8770, 5193.248
332.0850, 5782.275
333.2920, 6342.323
334.5000, 7102.389
335.7070, 7838.475
336.9140, 8725.578
338.1210, 9743.701
339.3280, 10552.84
340.5350, 11294.00
341.7410, 11862.77
342.9470, 11505.35
344.1540, 10744.08
345.3590, 9483.737
346.5650, 7954.917
347.7710, 6628.455
348.9760, 5259.958
350.1810, 4224.826
351.3860, 3421.184
352.5910, 2837.628
353.7950, 2257.193
355.0000, 2058.042
356.2040, 1693.762
357.4080, 1405.951
358.6120, 1336.146
359.8150, 1090.220
361.0190, 995.4128
362.2220, 864.5947
363.4250, 783.7747
364.6280, 752.0156
365.8310, 725.3577
367.0340, 731.8440
368.2360, 722.3127
369.4380, 659.2437
370.6400, 628.8848
371.8420, 657.4136
373.0440, 744.9524
374.2450, 771.5007
375.4470, 888.0591
376.6480, 855.6267
377.8490, 977.2031
379.0490, 1080.789
380.2500, 1122.382
381.4500, 1085.984
382.6510, 1177.593
383.8510, 1045.208
385.0500, 1020.831
386.2500, 887.4595
387.4500, 775.0935
388.6490, 685.7329
389.8480, 578.3777
391.0470, 476.0276
392.2460, 459.6826
393.4440, 464.3425
394.6430, 474.0076
395.8410, 400.6772
397.0390, 429.3521
398.2370, 456.0312
399.4340, 350.7153
400.6320, 387.4041
401.8290, 371.0969
403.0260, 305.7944
404.2230, 299.4961
405.4200, 334.2019
406.6170, 244.9116
407.8130, 138.6406
409.0090, 172.3892
410.2050, 176.1560
411.4010, 210.9392
412.5970, 244.7383
413.7920, 240.5525
414.9880, 280.3809
416.1830, 202.2227
417.3780, 167.0776
418.5730, 201.9451
419.7670, 81.82422
420.9620, 102.7148
422.1560, 31.61621
423.3500, 65.52832
424.5440, 42.45044
425.7380, 82.38232
426.9310, 70.67627
428.1240, 2.757324
429.3180, 75.83203
430.5110, 46.93262
431.7030, 35.95361
432.8960, 68.15283
434.0890, 23.28320
435.2810, 44.41772
436.4730, 13.43335
437.6650, 4.708496
438.8570, 9.848877
440.0480, 43.98901
441.2390, 10.85425
442.4310, 77.29639
443.6220, 7.519775
444.8120, 5.340332
446.0030, 23.16504
447.1940, 26.99487
448.3840, 11.82910
449.5740, 88.66797
450.7640, 57.51099
451.9540, 114.3584
453.1430, 176.2092
454.3330, 131.0645
455.5220, 178.9231
456.7110, 98.78516
457.9000, 252.6501
459.0890, 197.5188
460.2770, 199.3904
461.4650, 150.2646
462.6540, 224.1418
463.8420, 175.0212
465.0290, 212.9028
466.2170, 313.7876
467.4050, 264.6736
468.5920, 272.5623
469.7790, 350.4524
470.9660, 387.3445
472.1530, 425.2383
473.3390, 305.1328
474.5250, 238.0295
475.7120, 225.9270
476.8980, 186.8257
478.0840, 98.72510
479.2690, 77.62573
480.4550, 76.52686
481.6400, 34.77759
482.8250, 60.33105
484.0100, 9.234375
485.1950, 15.13232
486.3800, 12.02832
487.5640, 5.080566
488.7480, 30.20312
489.9320, 21.64771
491.1160, 24.50122
492.3000, 39.64355
493.4840, 35.18311
494.6670, 47.99194
495.8500, 15.20386
497.0330, 36.43677
498.2160, 67.69971
499.3990, 57.98511
500.5810, 23.31079
501.7630, 20.64185
502.9460, 4.998535
504.1280, 38.36963
505.3090, 37.76611
506.4910, 21.19067
507.6720, 13.37329
508.8540, 60.94214
510.0350, 23.47803
511.2160, 47.92139
512.3960, 41.59473
513.5770, 79.12207
514.7570, 118.6499
515.9380, 112.1777
517.1180, 153.7158
518.2970, 140.2551
519.4770, 215.7922
520.6570, 260.3308
521.8360, 204.8677
523.0150, 245.4089
524.1940, 365.9526
525.3730, 432.5010
526.5510, 386.0605
527.7300, 488.6169
528.9080, 426.1709
530.0860, 535.7217
531.2640, 517.2800
532.4420, 667.8354
533.6200, 718.3955
534.7970, 871.9722
535.9740, 952.5557
537.1510, 1088.161
538.3280, 1211.775
539.5050, 1301.387
540.6810, 1302.009
541.8580, 1293.628
543.0340, 1055.243
544.2100, 881.8601
545.3860, 811.4734
546.5610, 677.0837
547.7370, 618.6899
548.9120, 594.2930
550.0870, 540.8921
551.2620, 549.4868
552.4370, 485.0776
553.6120, 511.6646
554.7860, 459.2471
555.9600, 430.8254
557.1340, 363.3992
558.3080, 378.9688
559.4820, 343.5337
560.6560, 240.0940
561.8290, 345.6499
563.0020, 279.2009
564.1750, 348.7473
565.3480, 292.2881
566.5210, 282.8259
567.6930, 306.3584
568.8660, 353.3926
570.0380, 333.7588
571.2100, 338.4316
572.3820, 313.6372
573.5530, 404.1440
574.7250, 376.1182
575.8960, 387.4614
577.0670, 340.6519
578.2380, 454.1392
579.4090, 405.2893
580.5800, 411.1812
581.7500, 319.2498
582.9210, 368.7173
584.0910, 394.8179
585.2610, 360.2759
586.4300, 300.7087
587.6000, 298.1577
588.7690, 249.6018
589.9390, 281.0410
591.1080, 317.4758
592.2770, 277.9058
593.4450, 268.3306
594.6140, 272.7502
595.7820, 266.1650
596.9500, 267.1487
598.1190, 201.9795
599.2860, 278.3792
600.4540, 298.7734
601.6220, 325.1626
602.7890, 262.5461
603.9560, 270.9248
605.1230, 216.2979
606.2900, 366.6658
607.4570, 227.0283
608.6230, 312.3853
609.7890, 315.7368
610.9560, 315.0830
612.1220, 351.4233
613.2870, 379.7585
614.4530, 345.0923
615.6180, 323.4163
616.7840, 329.7346
617.9490, 446.0471
619.1140, 445.3540
620.2790, 475.6553
621.4430, 548.9509
622.6080, 533.2405
623.7720, 612.6230
624.9360, 587.4009
626.1000, 606.7915
627.2640, 738.6267
628.4270, 663.5002
629.5910, 753.8311
630.7540, 729.1250
631.9170, 813.0515
633.0800, 857.4480
634.2430, 897.6399
635.4050, 844.7561
636.5680, 1010.786
637.7300, 1052.860
638.8920, 1203.502
640.0540, 1303.440
641.2150, 1415.609
642.3770, 1583.147
643.5380, 1801.194
644.7000, 1989.604
645.8610, 2285.433
647.0210, 2544.247
648.1820, 2866.025
649.3430, 3391.972
650.5030, 3833.233
651.6630, 4662.970
652.8230, 5689.270
653.9830, 6531.838
655.1430, 7740.401
656.3020, 9443.127
657.4620, 10713.97
658.6210, 12310.13
659.7800, 13622.90
660.9390, 15043.08
662.0970, 16000.78
663.2560, 16613.84
664.4140, 16653.42
665.5720, 15814.58
666.7300, 14211.67
667.8880, 12845.76
669.0460, 11811.84
670.2030, 11003.17
671.3600, 10384.24
672.5180, 10624.97
673.6740, 11033.48
674.8310, 11918.68
675.9880, 13318.43
677.1440, 14833.27
678.3010, 16641.31
679.4570, 18899.50
680.6130, 20673.53
681.7690, 22528.54
682.9240, 24073.63
684.0800, 25032.63
685.2350, 24907.63
686.3900, 23916.62
687.5450, 21749.60
688.7000, 18980.58
689.8540, 15931.55
691.0090, 13172.51
692.1630, 10609.47
693.3170, 8547.435
694.4710, 7032.380
695.6250, 5569.318
696.7780, 4611.295
697.9320, 3976.221
699.0850, 3378.141
700.2380, 2829.127
701.3910, 2403.034
702.5440, 2071.934
703.6970, 1842.828
704.8490, 1648.075
706.0010, 1514.957
707.1530, 1297.833
708.3050, 1251.719
709.4570, 1108.599
710.6090, 996.4912
711.7600, 863.3877
712.9110, 856.2783
714.0620, 818.1792
715.2130, 758.0798
716.3640, 706.4443
717.5150, 649.6130
718.6650, 572.7812
719.8150, 516.6748
720.9650, 472.5742
722.1150, 382.4678
723.2650, 435.3755
724.4150, 376.2778
725.5640, 377.1755
726.7130, 315.0679
727.8630, 258.9548
729.0110, 274.8364
730.1600, 270.7131
731.3090, 303.5842
732.4570, 254.4504
733.6060, 179.3115
734.7540, 273.1680
735.9020, 139.0188
737.0490, 242.8652
738.1970, 217.7065
739.3440, 144.5430
740.4920, 120.3748
741.6390, 137.2021
742.7860, 126.0244
743.9320, 70.84253
745.0790, 65.65576
746.2250, 125.4646
747.3720, 74.26904
748.5180, 105.0693
749.6640, 138.8652
750.8100, 80.65698
751.9550, 44.44434
753.1010, 96.22754
754.2460, 109.0066
755.3910, 122.7817
756.5360, 131.1824
757.6810, 105.7581
758.8250, 116.0835
759.9700, 53.84326
761.1140, 29.59937
762.2580, 30.35107
763.4020, 11.10107
764.5460, 28.54956
765.6900, 32.58643
766.8330, 67.33130
767.9760, 5.913818
769.1200, 0.8266600
770.2620, 3.556641
771.4050, 110.2915
772.5480, 42.02417
773.6900, 28.77173
774.8330, 10.52661
775.9750, 80.70996
777.1170, 5.023682
778.2590, 65.22974
779.4000, 39.48511
780.5420, 2.209473
781.6830, 21.06714
782.8240, 11.34766
783.9650, 45.62695
785.1060, 46.92651
786.2470, 36.25464
787.3870, 7.609863
788.5280, 23.03540
789.6680, 45.30176
790.8080, 2.330566
791.9480, 1.956055
793.0870, 35.42529
794.2270, 3.831543
795.3660, 13.75293
796.5060, 3.664307
797.6450, 9.124023
798.7830, 20.51807
799.9220, 9.961426
801.0610, 19.41553
802.1990, 46.88428
803.3370, 66.61865
804.4750, 19.12134
805.6130, 40.50024
806.7510, 34.87476
807.8890, 19.60645
809.0260, 25.91235
810.1630, 72.44653
811.3000, 35.01978
812.4370, 93.61206
813.5740, 47.25391
814.7110, 21.07959
815.8470, 54.58594
816.9830, 20.72021
818.1190, 36.02832
819.2550, 20.66309
820.3910, 25.63623
821.5270, 50.93701
822.6620, 13.23926
823.7970, 72.54297
824.9330, 43.95752
826.0670, 19.15576
827.2020, 16.46533
828.3370, 18.77686
829.4710, 1.090332
830.6060, 27.40576
831.7400, 16.72412
832.8740, 1.955566
834.0080, 22.36670
835.1410, 96.69238
836.2750, 3.979980
837.4080, 104.3506
838.5410, 124.6836
839.6740, 112.0205
840.8070, 15.63965
841.9400, 117.6997
843.0730, 51.04346
844.2050, 129.3896
845.3370, 56.74072
846.4690, 127.0957
847.6010, 195.4541
848.7330, 44.81689
849.8640, 161.1836
850.9960, 167.5542
852.1270, 198.9297
853.2580, 260.3091
854.3890, 256.4736
855.5200, 310.0815
856.6500, 274.4746
857.7810, 280.8721
858.9110, 280.2749
860.0410, 337.6826
861.1710, 245.0947
862.3010, 310.5122
863.4310, 216.9346
864.5600, 136.3628
865.6900, 137.7954
866.8190, 176.2339
867.9480, 122.6782
869.0770, 114.1279
870.2050, 23.58301
871.3340, 108.0444
872.4620, 62.51123
873.5900, 37.98438
874.7180, 57.46338
875.8460, 29.94824
876.9740, 75.44287
878.1010, 94.22119
879.2290, 105.4512
880.3560, 147.9648
881.4830, 109.4854
882.6100, 91.01270
883.7370, 126.5474
884.8630, 7.087891
885.9900, 82.63672
887.1160, 112.1919
888.2420, 109.7539
889.3680, 52.32715
890.4940, 74.23535
891.6200, 97.50293
892.7450, 79.10205
893.8700, 143.7090
894.9960, 188.3232
896.1210, 193.9458
897.2460, 164.4775
898.3700, 110.0347
899.4950, 80.18018
900.6190, 136.7485
901.7430, 106.3755
902.8670, 101.0464
903.9910, 101.4111
905.1150, 109.1987
906.2390, 157.1733
907.3620, 230.8804
908.4850, 249.5967
909.6080, 192.3003
910.7310, 136.6924
911.8540, 299.6626
912.9770, 273.8867
914.0990, 319.8916
915.2210, 345.6655
916.3440, 409.8281
917.4660, 382.6567
918.5870, 378.0850
919.7090, 473.4839
920.8310, 531.8350
921.9520, 550.8916
923.0730, 606.6685
924.1940, 691.5244
925.3150, 829.1240
926.4360, 943.5859
927.5560, 1192.061
928.6770, 1312.379
929.7970, 1579.588
930.9170, 1794.519
932.0370, 1994.840
933.1570, 2363.766
934.2760, 2414.199
935.3960, 2641.299
936.5150, 2843.891
937.6340, 2856.907
938.7530, 2857.996
939.8720, 2650.114
940.9910, 2434.244
942.1090, 2286.145
943.2280, 2009.320
944.3460, 1777.857
945.4640, 1621.626
946.5820, 1417.716
947.6990, 1270.258
948.8170, 1056.726
949.9340, 966.0059
951.0520, 922.1543
952.1690, 853.5000
953.2860, 869.8652
954.4030, 783.1738
955.5190, 744.5728
956.6360, 738.9868
957.7520, 627.4180
958.8680, 625.8794
959.9840, 594.3555
961.1000, 658.8457
962.2160, 616.3511
963.3310, 650.8711
964.4470, 627.3955
965.5620, 609.9658
966.6770, 653.5513
967.7920, 628.1367
968.9060, 751.7827
970.0210, 740.4429
971.1360, 803.0444
972.2500, 870.7354
973.3640, 914.4414
974.4780, 875.1621
975.5920, 961.5396
976.7050, 978.2974
977.8190, 1094.083
978.9320, 1141.885
980.0450, 1202.702
981.1580, 1303.534
982.2710, 1377.383
983.3840, 1551.246
984.4970, 1773.126
985.6090, 1923.021
986.7210, 2044.936
987.8330, 2486.880
988.9450, 2727.842
990.0570, 2971.820
991.1690, 3434.821
992.2800, 4087.837
993.3920, 4615.869
994.5030, 5294.917
995.6140, 6243.978
996.7250, 7330.054
997.8350, 8946.145
998.9460, 10837.25
1000.056, 12966.37
1001.167, 15738.51
1002.277, 19664.66
1003.387, 24011.83
1004.496, 29042.01
1005.606, 34494.21
1006.715, 40090.42
1007.825, 45438.65
1008.934, 49418.89
1010.043, 51963.73
1011.152, 51415.00
1012.260, 48278.29
1013.369, 42753.58
1014.477, 36140.91
1015.586, 29756.23
1016.694, 24657.57
1017.802, 20413.93
1018.909, 17527.30
1020.017, 15521.69
1021.124, 13971.88
1022.232, 12901.30
1023.339, 11918.33
1024.446, 11186.77
1025.553, 10651.23
1026.659, 10494.70
1027.766, 10173.19
1028.872, 9837.688
1029.979, 9383.203
1031.085, 8821.731
1032.191, 8408.273
1033.296, 7801.833
1034.402, 6983.408
1035.507, 6357.997
1036.613, 5722.598
1037.718, 5058.220
1038.823, 4552.196
1039.928, 4014.853
1041.032, 3622.523
1042.137, 3196.427
1043.241, 2912.558
1044.346, 2495.271
1045.450, 2214.021
1046.554, 1951.565
1047.657, 1823.591
1048.761, 1600.405
1049.864, 1418.236
1050.968, 1297.089
1052.071, 1128.961
1053.174, 1095.861
1054.277, 1047.790
1055.379, 826.1265
1056.482, 901.0972
1057.584, 856.0811
1058.687, 736.5571
1059.789, 626.5825
1060.891, 625.6230
1061.992, 558.1733
1063.094, 507.7104
1064.196, 478.4321
1065.297, 467.5391
1066.398, 432.8320
1067.499, 461.1401
1068.600, 368.4775
1069.701, 250.6475
1070.801, 318.8423
1071.902, 331.7212
1073.002, 252.9355
1074.102, 269.3672
1075.202, 273.8389
1076.302, 308.8960
1077.402, 308.7339
1078.501, 191.0786
1079.600, 160.7549
1080.700, 202.1074
1081.799, 259.8345
1082.898, 273.8389
1083.996, 183.2090
1085.095, 243.6436
1086.193, 107.1748
1087.292, 185.6094
1088.390, 159.0513
1089.488, 90.05859
1090.586, 220.9346
1091.683, 41.45312
1092.781, 201.9233
1093.878, 84.47461
1094.975, 170.9639
1096.073, 133.4531
1097.169, 158.6260
1098.266, 76.35498
1099.363, 44.86914
1100.459, 191.4199
1101.556, 134.9385
1102.652, 92.47559
1103.748, 150.1704
1104.844, 17.71045
1105.940, 104.2485
1107.035, 66.79199
1108.131, 134.8262
1109.226, 85.60156
1110.321, 146.1592
1111.416, 159.9419
1112.511, 165.5132
1113.605, 176.2476
1114.700, 185.8198
1115.794, 212.6724
1116.889, 187.3188
1117.983, 204.1660
1119.077, 95.81445
1120.170, 233.8896
1121.264, 162.0664
1122.357, 141.3018
1123.451, 217.9639
1124.544, 144.6079
1125.637, 126.2070
1126.730, 139.8081
1127.823, 143.4106
1128.915, 135.0522
1130.008, 159.8037
1131.100, 143.4106
1132.192, 150.0640
1133.284, 191.7144
1134.376, 213.4956
1135.467, 145.1069
1136.559, 178.8931
1137.650, 43.50586
1138.742, 108.1206
1139.833, 50.73584
1140.924, 25.64893
1142.014, 22.95996
1143.105, 134.5698
1144.195, 111.1797
1145.286, 72.78906
1146.376, 47.39795
1147.466, 74.00684
1148.556, 92.61475
1149.646, 40.22266
1150.735, 88.83154
1151.825, 27.56250
1152.914, 17.04004
1154.003, 22.35791
1155.092, 79.33252
1156.181, 27.92920
1157.270, 75.52393
1158.358, 91.11719
1159.447, 10.70898
1160.535, 21.30225
1161.623, 100.8926
1162.711, 19.48242
1163.799, 52.06934
1164.886, 87.65430
1165.974, 49.23633
1167.061, 149.8164
1168.148, 49.39404
1169.235, 11.03076
1170.322, 58.53760
1171.409, 81.10254
1172.496, 16.33594
1173.582, 84.21631
1174.669, 43.85693
1175.755, 18.40186
1176.841, 56.94287
1177.927, 46.48047
1179.012, 32.01367
1180.098, 42.60059
1181.183, 7.068848
1182.269, 59.58936
1183.354, 56.10596
1184.439, 120.6172
1185.524, 4.875977
1186.608, 8.621094
1187.693, 25.11279
1188.777, 4.400391
1189.862, 24.07520
1190.946, 57.54541
1192.030, 2.990234
1193.113, 97.53760
1194.197, 4.145996
1195.281, 76.23242
1196.364, 91.39502
1197.447, 27.08203
1198.530, 26.79492
1199.613, 29.46533
1200.696, 44.71875
1201.779, 49.03369
1202.861, 35.19238
1203.944, 8.394043
1205.026, 56.41504
1206.108, 33.26807
1207.190, 2.846680
1208.271, 22.98682
1209.353, 8.919434
1210.435, 49.15332
1211.516, 9.218262
1212.597, 43.72852
1213.678, 64.71533
1214.759, 1.475098
1215.840, 2.508789
1216.920, 77.44092
1218.001, 58.35742
1219.081, 8.265137
1220.161, 37.84180
1221.241, 33.04346
1222.321, 115.8896
1223.401, 31.72656
1224.480, 47.55371
1225.560, 55.37256
1226.639, 55.81836
1227.718, 21.94141
1228.797, 92.30957
1229.876, 44.36963
1230.955, 100.0396
1232.033, 51.70020
1233.112, 28.35156
1234.190, 54.99219
1235.268, 86.62354
1236.346, 126.2441
1237.424, 2.143555
1238.501, 29.55469
1239.579, 73.99609
1240.656, 28.53711
1241.733, 60.06689
1242.811, 33.58643
1243.888, 68.09424
1244.964, 27.59229
1246.041, 48.07812
1247.117, 3.553223
1248.194, 24.98486
1249.270, 21.44043
1250.346, 18.85059
1251.422, 1.750977
1252.498, 51.62256
1253.573, 56.99756
1254.649, 82.36182
1255.724, 110.7158
1256.800, 83.06006
1257.875, 40.39404
1258.950, 66.71631
1260.024, 77.02832
1261.099, 61.32959
1262.173, 62.62109
1263.248, 41.90137
1264.322, 102.1699
1265.396, 42.42871
1266.470, 104.6753
1267.544, 137.0967
1268.617, 79.33838
1269.691, 127.5547
1270.764, 158.1777
1271.837, 160.3730
1272.910, 101.5581
1273.983, 113.7329
1275.056, 120.8979
1276.129, 185.0522
1277.201, 147.1968
1278.273, 159.3311
1279.346, 78.45508
1280.418, 132.5688
1281.489, 137.0854
1282.561, 85.17822
1283.633, 58.37061
1284.704, 154.4419
1285.776, 100.5029
1286.847, 190.5532
1287.918, 188.3696
1288.989, 87.22559
1290.059, 181.2441
1291.130, 167.2524
1292.200, 112.2500
1293.271, 160.2373
1294.341, 248.2144
1295.411, 270.1807
