##NAMES=Enstatite
##RRUFFID=R060744
##IDEAL CHEMISTRY=MgSiO_3_
##LOCALITY=Orissa, India
##OWNER=RRUFF
##SOURCE=Herb Obodda
##DESCRIPTION=Brown transparent fragment
##STATUS=The identification of this mineral has been confirmed by X-ray diffraction and chemical analysis
##URL=rruff.info/R060744
##MEASURED CHEMISTRY=(Mg_0.85_Fe^2+^_0.13_Fe^3+^_0.01_Mn_0.01_)_Σ=1_(Si_0.99_Al_0.01_)_Σ=1_O_3_; trace amounts of Ca; Fe^2+^ and Fe^3+^ splitted by charge balance
##PIN_ID=L01523
##ORIENTATION=Laser parallel to c* (0 0 1). Fiducial mark perpendicular to laser is parallel to -a [-1 0 0]
113.2080, 0.0000000E+00
114.4400, 379.8352
115.6710, 219.7065
116.9030, 159.1172
118.1340, 20.99561
119.3650, 25.05420
120.5960, 16.65088
121.8270, 200.8242
123.0580, 344.2881
124.2880, 297.1533
125.5190, 343.8853
126.7490, 524.8989
127.9790, 869.6685
129.2090, 1096.753
130.4390, 1290.792
131.6680, 1512.540
132.8980, 1986.248
134.1270, 2466.222
135.3560, 3128.016
136.5850, 4124.236
137.8140, 5425.586
139.0430, 6786.842
140.2710, 7536.835
141.5000, 7505.433
142.7280, 7042.529
143.9560, 5982.050
145.1840, 5095.932
146.4120, 4673.121
147.6390, 3865.578
148.8670, 3364.518
150.0940, 3034.090
151.3210, 2519.923
152.5490, 2116.448
153.7750, 1722.362
155.0020, 1658.638
156.2290, 1429.265
157.4550, 1265.311
158.6810, 1147.839
159.9080, 1175.901
161.1340, 1234.548
162.3590, 1425.820
163.5850, 1477.757
164.8110, 1303.391
166.0360, 1073.751
167.2610, 966.8677
168.4860, 947.7642
169.7110, 884.4688
170.9360, 856.0020
172.1610, 830.3818
173.3850, 735.6289
174.6100, 760.7568
175.8340, 904.7764
177.0580, 1145.698
178.2820, 1312.529
179.5050, 1531.278
180.7290, 1696.953
181.9520, 1999.561
183.1760, 2465.108
184.3990, 3150.358
185.6220, 3802.919
186.8450, 4568.307
188.0670, 4868.982
189.2900, 4569.626
190.5120, 4097.472
191.7340, 3531.741
192.9560, 3296.286
194.1780, 2906.110
195.4000, 2522.493
196.6220, 2366.002
197.8430, 2113.642
199.0640, 2101.408
200.2860, 1868.301
201.5070, 1735.316
202.7270, 1465.453
203.9480, 986.7090
205.1690, 690.0815
206.3890, 572.5664
207.6090, 527.1587
208.8290, 495.8555
210.0490, 477.1455
211.2690, 494.5439
212.4890, 534.5303
213.7080, 574.6060
214.9280, 668.7690
216.1470, 852.0181
217.3660, 1120.352
218.5850, 1308.768
219.8030, 1686.266
221.0220, 2058.847
222.2400, 2795.520
223.4590, 3597.320
224.6770, 4363.283
225.8950, 5329.314
227.1120, 6604.403
228.3300, 8150.547
229.5480, 10094.75
230.7650, 12195.07
231.9820, 12791.86
233.1990, 12751.54
234.4160, 13064.68
235.6330, 10709.31
236.8490, 8537.971
238.0660, 6522.666
239.2820, 5002.397
240.4980, 3554.161
241.7140, 2577.961
242.9300, 1854.795
244.1460, 1289.665
245.3610, 906.5693
246.5770, 711.5093
247.7920, 372.4839
249.0070, 333.4937
250.2220, 233.5386
251.4370, 188.6187
252.6510, 93.73340
253.8660, 39.88281
255.0800, 84.93262
256.2940, 73.28613
257.5080, 13.22461
258.7220, 33.23535
259.9360, 55.98291
261.1490, 179.4980
262.3630, 211.8564
263.5760, 340.2588
264.7890, 332.4590
266.0020, 361.6562
267.2150, 320.8853
268.4270, 253.5986
269.6400, 257.1924
270.8520, 179.6890
272.0640, 63.08594
273.2760, 23.37109
274.4880, 95.45312
275.7000, 116.3877
276.9120, 254.4238
278.1230, 389.5527
279.3340, 471.7646
280.5450, 620.0498
281.7560, 670.3979
282.9670, 1002.804
284.1780, 1124.262
285.3880, 1391.767
286.5980, 1835.315
287.8090, 2272.904
289.0190, 2726.532
290.2290, 3325.195
291.4380, 3756.894
292.6480, 4256.624
293.8570, 4570.385
295.0670, 4795.175
296.2760, 4576.992
297.4850, 4419.819
298.6930, 4111.636
299.9020, 3985.437
301.1110, 3971.224
302.3190, 4032.000
303.5270, 4089.768
304.7350, 4370.530
305.9430, 4937.289
307.1510, 5422.045
308.3580, 6209.801
309.5660, 7117.558
310.7730, 8069.317
311.9800, 9353.079
313.1870, 10661.85
314.3940, 11771.63
315.6010, 12511.42
316.8070, 12341.23
318.0130, 12131.09
319.2200, 12035.95
320.4260, 12048.85
321.6310, 12266.77
322.8370, 13178.72
324.0430, 14246.70
325.2480, 16159.71
326.4540, 18506.75
327.6590, 21547.89
328.8640, 25600.99
330.0680, 30554.28
331.2730, 35894.71
332.4780, 41771.50
333.6820, 48215.09
334.8860, 54444.62
336.0900, 58267.48
337.2940, 59650.91
338.4980, 57711.12
339.7010, 53628.04
340.9050, 47661.12
342.1080, 41396.02
343.3110, 34853.43
344.5140, 29492.28
345.7170, 24689.45
346.9200, 20800.20
348.1220, 18027.32
349.3240, 15499.73
350.5270, 13663.35
351.7290, 11956.55
352.9310, 10810.73
354.1320, 10131.94
355.3340, 9265.187
356.5350, 8390.450
357.7370, 7955.743
358.9380, 7397.064
360.1390, 7155.411
361.3400, 6990.785
362.5400, 6949.184
363.7410, 7054.609
364.9410, 7097.060
366.1410, 7527.536
367.3410, 7939.037
368.5410, 8292.562
369.7410, 9038.113
370.9400, 9612.688
372.1400, 10442.29
373.3390, 11018.91
374.5380, 11669.55
375.7370, 11855.22
376.9360, 12007.92
378.1350, 12191.63
379.3330, 12151.37
380.5310, 12421.12
381.7300, 13085.90
382.9280, 13958.71
384.1260, 15258.54
385.3230, 17029.38
386.5210, 18933.25
387.7180, 21555.15
388.9160, 24167.06
390.1130, 26799.99
391.3100, 29938.95
392.5060, 32067.93
393.7030, 34273.93
394.9000, 35589.95
396.0960, 36263.99
397.2920, 36106.05
398.4880, 34892.12
399.6840, 33518.98
400.8800, 31817.11
402.0750, 29778.59
403.2710, 27896.60
404.4660, 25688.79
405.6610, 23930.23
406.8560, 22238.67
408.0510, 20396.11
409.2450, 18897.08
410.4400, 17348.30
411.6340, 15819.13
412.8280, 14505.23
414.0220, 13216.12
415.2160, 12079.91
416.4100, 10997.62
417.6030, 9879.580
418.7970, 8752.073
419.9900, 7782.585
421.1830, 6626.122
422.3760, 5650.678
423.5690, 4909.255
424.7610, 4306.852
425.9540, 3725.468
427.1460, 3406.104
428.3380, 2945.758
429.5300, 2745.431
430.7220, 2571.124
431.9140, 2462.833
433.1050, 2339.561
434.2970, 2322.306
435.4880, 2234.070
436.6790, 2151.850
437.8700, 1861.647
439.0610, 1617.462
440.2510, 1199.293
441.4420, 975.1411
442.6320, 874.0054
443.8220, 710.8872
445.0120, 573.7852
446.2020, 537.6997
447.3910, 500.6304
448.5810, 416.5781
449.7700, 497.5425
450.9600, 559.5234
452.1490, 552.5195
453.3370, 519.5332
454.5260, 402.5625
455.7150, 399.6089
456.9030, 388.6812
458.0910, 339.2852
459.2800, 372.7363
460.4670, 262.2471
461.6550, 164.6348
462.8430, 144.6226
464.0300, 172.4634
465.2180, 91.73682
466.4050, 89.00781
467.5920, 12.08594
468.7790, 71.23096
469.9650, 7.4219003E-02
471.1520, 26.05859
472.3380, 33.87939
473.5250, 35.73730
474.7110, 79.20508
475.8970, 113.9995
477.0820, 6.346191
478.2680, 20.47656
479.4540, 15.29492
480.6390, 12.10449
481.8240, 28.90479
483.0090, 5.701660
484.1940, 15.51221
485.3780, 14.25635
486.5630, 45.01514
487.7470, 68.77783
488.9320, 95.80469
490.1160, 84.81592
491.3000, 123.1348
492.4830, 37.93604
493.6670, 3.272949
494.8500, 58.52295
496.0340, 41.80859
497.2170, 162.1323
498.4000, 168.5044
499.5820, 273.9185
500.7650, 322.3945
501.9480, 463.9316
503.1300, 620.5293
504.3120, 831.1523
505.4940, 1069.816
506.6760, 1423.519
507.8580, 1778.262
509.0390, 2272.070
510.2210, 2863.930
511.4020, 3508.842
512.5830, 4313.789
513.7640, 5088.793
514.9450, 6084.861
516.1250, 7018.977
517.3060, 7883.105
518.4860, 8836.285
519.6660, 9419.489
520.8460, 9923.742
522.0260, 9719.012
523.2060, 9285.319
524.3850, 8423.658
525.5650, 7668.019
526.7440, 7141.396
527.9230, 6634.796
529.1020, 6697.228
530.2810, 6803.667
531.4590, 7311.113
532.6380, 7906.565
533.8160, 8560.027
534.9940, 8759.495
536.1720, 8425.971
537.3500, 7867.469
538.5270, 7343.972
539.7050, 7031.481
540.8820, 6739.996
542.0590, 6848.543
543.2360, 6930.100
544.4130, 7365.666
545.5900, 7531.252
546.7660, 7288.845
547.9430, 6615.494
549.1190, 5690.209
550.2950, 4835.019
551.4710, 3985.926
552.6470, 3394.935
553.8220, 2908.035
554.9980, 2388.208
556.1730, 2116.456
557.3480, 1804.328
558.5230, 1749.084
559.6980, 1476.423
560.8730, 1428.763
562.0470, 1454.103
563.2220, 1378.441
564.3960, 1428.780
565.5700, 1459.118
566.7440, 1494.454
567.9170, 1561.789
569.0910, 1613.123
570.2640, 1737.453
571.4380, 1762.783
572.6110, 1676.109
573.7840, 1520.433
574.9570, 1464.753
576.1290, 1336.070
577.3020, 1128.384
578.4740, 998.6938
579.6460, 787.0000
580.8180, 752.3018
581.9900, 525.5991
583.1620, 690.8911
584.3330, 550.1787
585.5040, 543.4604
586.6760, 411.7368
587.8470, 501.0078
589.0180, 416.2720
590.1880, 414.5303
591.3590, 295.7827
592.5290, 279.0273
593.7000, 174.2661
594.8700, 230.4966
596.0400, 157.7192
597.2090, 5.935059
598.3790, 17.13037
599.5490, 47.69043
600.7180, 79.56006
601.8870, 29.50244
603.0560, 69.44727
604.2250, 18.45947
605.3940, 24.50830
606.5620, 39.59766
607.7300, 35.73535
608.8990, 67.91992
610.0670, 3.831543
611.2350, 34.52734
612.4020, 0.8510740
613.5700, 18.44092
614.7370, 9.204102
615.9050, 68.64502
617.0720, 34.46729
618.2390, 137.0024
619.4060, 89.85059
620.5720, 233.8862
621.7390, 230.0186
622.9050, 387.4590
624.0710, 426.7476
625.2370, 509.3110
626.4030, 609.7266
627.5690, 725.4966
628.7340, 727.6489
629.9000, 910.3320
631.0650, 906.8564
632.2300, 1144.038
633.3950, 1241.525
634.5600, 1318.473
635.7240, 1483.397
636.8890, 1748.087
638.0530, 1899.176
639.2170, 2151.903
640.3810, 2359.421
641.5450, 2758.523
642.7080, 3042.843
643.8720, 3444.849
645.0350, 4090.088
646.1980, 4905.365
647.3610, 5706.807
648.5240, 6826.065
649.6870, 8197.422
650.8490, 9898.014
652.0120, 11801.46
653.1740, 14325.16
654.3360, 16665.99
655.4980, 19316.81
656.6600, 21906.16
657.8210, 23858.67
658.9830, 24839.92
660.1440, 24235.57
661.3050, 22489.96
662.4660, 20197.82
663.6270, 17503.31
664.7870, 15774.75
665.9480, 14346.46
667.1080, 13332.25
668.2680, 12891.14
669.4280, 12754.87
670.5880, 13463.55
671.7480, 14498.21
672.9070, 15892.06
674.0670, 17963.66
675.2260, 19731.23
676.3850, 22261.43
677.5440, 24261.93
678.7030, 26004.41
679.8610, 26757.85
681.0200, 26001.26
682.1780, 24428.07
683.3360, 21543.41
684.4940, 18676.73
685.6520, 15718.40
686.8090, 12806.65
687.9670, 10553.88
689.1240, 8685.069
690.2810, 7254.227
691.4380, 6123.350
692.5950, 5090.451
693.7520, 4160.507
694.9080, 3759.527
696.0650, 3174.553
697.2210, 2777.503
698.3770, 2527.418
699.5330, 2207.296
700.6880, 2089.139
701.8440, 1839.946
702.9990, 1702.718
704.1550, 1577.680
705.3100, 1438.154
706.4650, 1362.817
707.6190, 1219.446
708.7740, 1127.038
709.9290, 1216.595
711.0830, 1096.116
712.2370, 1085.601
713.3910, 960.0503
714.5450, 905.4634
715.6980, 997.8408
716.8520, 902.1821
718.0050, 873.4883
719.1580, 790.7583
720.3110, 782.9937
721.4640, 795.1919
722.6170, 832.3555
723.7700, 724.4834
724.9220, 782.5752
726.0740, 864.6318
727.2260, 664.6528
728.3780, 686.6387
729.5300, 539.5889
730.6810, 781.5034
731.8330, 680.3828
732.9840, 748.2275
734.1350, 709.0371
735.2860, 766.8115
736.4370, 697.5400
737.5880, 769.7183
738.7380, 743.0308
739.8880, 670.2646
741.0390, 853.6025
742.1890, 789.3213
743.3380, 739.1680
744.4880, 822.5630
745.6380, 929.9414
746.7870, 982.4941
747.9360, 1122.960
749.0850, 1033.857
750.2340, 1006.296
751.3830, 865.7861
752.5310, 603.1709
753.6800, 579.1387
754.8280, 445.3950
755.9760, 423.4673
757.1240, 330.6919
758.2720, 274.8916
759.4190, 232.0654
760.5670, 169.2134
761.7140, 167.3389
762.8610, 123.4380
764.0080, 91.59375
765.1550, 107.5454
766.3020, 31.56445
767.4480, 28.55029
768.5950, 4.510742
769.7410, 90.56787
770.8870, 12.27393
772.0330, 52.92969
773.1780, 21.22021
774.3240, 34.58105
775.4690, 74.01758
776.6140, 53.55127
777.7590, 131.1699
778.9040, 125.9150
780.0490, 130.7803
781.1940, 0.2299800
782.3380, 52.81348
783.4820, 54.93799
784.6260, 59.14404
785.7700, 153.4316
786.9140, 108.8511
788.0580, 114.3770
789.2010, 50.01123
790.3450, 135.7192
791.4880, 155.5449
792.6310, 109.4976
793.7730, 37.44775
794.9160, 124.6343
796.0590, 26.82324
797.2010, 99.06689
798.3430, 17.40283
799.4850, 74.78516
800.6270, 71.24365
801.7690, 8.775879
802.9100, 15.34668
804.0520, 34.95850
805.1930, 70.62109
806.3340, 29.64893
807.4750, 43.89941
808.6160, 36.13037
809.7560, 1.343750
810.8970, 19.53271
812.0370, 66.70361
813.1770, 60.14258
814.3170, 32.95850
815.4570, 43.04297
816.5960, 27.11230
817.7360, 104.1660
818.8750, 14.79541
820.0140, 43.22070
821.1530, 15.22363
822.2920, 15.78760
823.4310, 109.1816
824.5690, 21.13818
825.7070, 59.08301
826.8460, 120.0146
827.9840, 130.9355
829.1220, 4.845215
830.2590, 100.7427
831.3970, 128.6299
832.5340, 0.5068360
833.6710, 80.37354
834.8080, 148.2305
835.9450, 103.0796
837.0820, 192.9194
838.2190, 217.7520
839.3550, 168.5767
840.4910, 290.3945
841.6270, 292.2056
842.7630, 373.0107
843.8990, 472.8096
845.0350, 536.6035
846.1700, 629.3926
847.3060, 700.1777
848.4410, 876.9575
849.5760, 1128.734
850.7100, 1258.507
851.8450, 1532.278
852.9800, 1795.046
854.1140, 2039.812
855.2480, 2098.576
856.3820, 2210.576
857.5160, 2274.103
858.6500, 2206.865
859.7830, 2165.627
860.9170, 2063.391
862.0500, 1962.154
863.1830, 1697.919
864.3160, 1570.687
865.4480, 1458.456
866.5810, 1219.228
867.7130, 1160.002
868.8460, 989.7808
869.9780, 839.5625
871.1100, 788.3491
872.2410, 654.1401
873.3730, 597.9429
874.5050, 492.7549
875.6360, 512.5923
876.7670, 438.4663
877.8980, 461.3491
879.0290, 439.2656
880.1590, 414.2021
881.2900, 446.1631
882.4200, 390.1514
883.5500, 391.1660
884.6800, 452.2178
885.8100, 397.2871
886.9400, 471.3843
888.0690, 509.5020
889.1990, 478.6440
890.3280, 573.8091
891.4570, 531.9854
892.5860, 547.1743
893.7140, 627.3794
894.8430, 607.6006
895.9710, 654.8335
897.1000, 735.0801
898.2280, 681.3398
899.3560, 640.5283
900.4830, 655.4160
901.6110, 618.4136
902.7380, 740.9673
903.8660, 618.3438
904.9930, 642.5273
906.1200, 694.8120
907.2460, 852.5947
908.3730, 830.3853
909.5000, 950.2422
910.6260, 960.3374
911.7520, 1241.039
912.8780, 1234.107
914.0040, 1496.390
915.1290, 1784.092
916.2550, 2211.585
917.3800, 2596.399
918.5050, 3115.987
919.6300, 3738.562
920.7550, 4375.978
921.8800, 5275.586
923.0040, 6024.104
924.1290, 6715.417
925.2530, 7226.891
926.3770, 7437.133
927.5010, 7793.258
928.6250, 7920.410
929.7480, 7641.078
930.8720, 8044.589
931.9950, 7896.402
933.1180, 7937.826
934.2410, 8237.515
935.3640, 8158.767
936.4860, 8136.388
937.6090, 8063.083
938.7310, 7700.524
939.8530, 7071.897
940.9750, 6832.204
942.0970, 6206.681
943.2180, 5589.224
944.3400, 5187.827
945.4610, 4786.253
946.5820, 4255.944
947.7030, 3815.697
948.8240, 3443.858
949.9450, 3070.789
951.0650, 2782.042
952.1860, 2509.643
953.3060, 2304.671
954.4260, 2149.352
955.5460, 1995.505
956.6650, 1775.724
957.7850, 1745.617
958.9040, 1521.953
960.0230, 1631.338
961.1420, 1530.769
962.2610, 1343.269
963.3800, 1318.818
964.4990, 1280.404
965.6170, 1144.045
966.7350, 1173.731
967.8530, 1229.450
968.9710, 1218.253
970.0890, 1154.107
971.2070, 1109.019
972.3240, 1252.976
973.4410, 1435.976
974.5580, 1357.043
975.6750, 1552.160
976.7920, 1702.344
977.9090, 1749.572
979.0250, 2009.854
980.1410, 2087.183
981.2580, 2514.560
982.3740, 2668.990
983.4890, 2948.474
984.6050, 3439.012
985.7200, 3725.598
986.8360, 4397.233
987.9510, 5141.917
989.0660, 5757.652
990.1810, 6616.438
991.2950, 7721.277
992.4100, 8957.171
993.5240, 10634.12
994.6390, 12279.13
995.7530, 14526.18
996.8660, 16900.29
997.9800, 19512.45
999.0940, 22654.66
1000.207, 25993.92
1001.320, 30035.23
1002.433, 34056.59
1003.546, 38012.02
1004.659, 42789.48
1005.772, 46289.02
1006.884, 48592.61
1007.996, 49560.24
1009.108, 49379.91
1010.220, 48070.65
1011.332, 47190.42
1012.444, 46149.25
1013.555, 45935.12
1014.666, 45978.04
1015.777, 46221.00
1016.888, 46818.02
1017.999, 47002.08
1019.110, 47363.18
1020.220, 47572.34
1021.331, 47399.52
1022.441, 47303.78
1023.551, 46987.07
1024.661, 46741.43
1025.770, 45816.82
1026.880, 45190.02
1027.989, 44100.38
1029.098, 42339.89
1030.207, 40459.45
1031.316, 37894.06
1032.425, 35192.71
1033.533, 31986.41
1034.642, 29486.15
1035.750, 26910.94
1036.858, 24405.78
1037.966, 22086.73
1039.073, 20009.68
1040.181, 17964.16
1041.288, 16193.80
1042.396, 14379.96
1043.503, 12955.19
1044.610, 11487.53
1045.716, 10379.95
1046.823, 9522.389
1047.929, 8536.925
1049.036, 7783.111
1050.142, 7173.828
1051.248, 6646.416
1052.353, 5875.114
1053.459, 5411.073
1054.564, 4906.281
1055.670, 4410.369
1056.775, 4027.017
1057.880, 3668.279
1058.985, 3309.320
1060.089, 2961.252
1061.194, 2703.779
1062.298, 2388.017
1063.402, 2135.249
1064.506, 1919.697
1065.610, 1772.282
1066.713, 1722.091
1067.817, 1499.191
1068.920, 1457.112
1070.023, 1248.572
1071.126, 1147.212
1072.229, 1041.411
1073.332, 994.8018
1074.435, 945.3545
1075.537, 849.8560
1076.639, 812.3931
1077.741, 811.5586
1078.843, 700.2676
1079.945, 702.1470
1081.046, 665.1411
1082.148, 693.3887
1083.249, 714.3730
1084.350, 757.4565
1085.451, 727.9761
1086.551, 667.8228
1087.652, 564.4014
1088.752, 443.6216
1089.853, 334.2100
1090.953, 321.0625
1092.053, 369.3496
1093.152, 251.4126
1094.252, 293.1753
1095.351, 275.4561
1096.451, 315.1235
1097.550, 314.3374
1098.649, 338.1621
1099.748, 323.0054
1100.846, 298.9429
1101.945, 283.1157
1103.043, 266.3203
1104.141, 300.3877
1105.239, 263.3560
1106.337, 261.4565
1107.434, 271.5942
1108.532, 256.4395
1109.629, 313.6494
1110.726, 262.8281
1111.823, 219.1636
1112.920, 251.5020
1114.017, 305.1826
1115.113, 222.8564
1116.210, 192.6328
1117.306, 253.6562
1118.402, 194.6509
1119.498, 225.4849
1120.593, 237.5767
1121.689, 329.1079
1122.784, 327.9888
1123.879, 220.9351
1124.974, 293.2754
1126.069, 245.3047
1127.164, 204.1387
1128.259, 233.5596
1129.353, 202.0029
1130.447, 194.3457
1131.541, 185.9048
1132.635, 154.8418
1133.729, 159.2671
1134.822, 154.8706
1135.916, 139.3115
1137.009, 248.9268
1138.102, 215.0806
1139.195, 224.4600
1140.288, 114.1870
1141.380, 53.74170
1142.473, 157.5142
1143.565, 117.0405
1144.657, 156.5103
1145.749, 108.3193
1146.841, 112.5581
1147.932, 5.973633
1149.024, 99.44238
1150.115, 138.8628
1151.206, 51.38184
1152.297, 92.80518
1153.388, 49.75879
1154.479, 101.2163
1155.569, 1.261230
1156.659, 45.28271
1157.750, 45.29199
1158.839, 48.73096
1159.929, 56.67480
1161.019, 44.22363
1162.108, 57.62598
1163.198, 193.0874
1164.287, 2.484375
1165.376, 191.8779
1166.465, 76.26709
1167.553, 97.65381
1168.642, 3.965332
1169.730, 121.4097
1170.818, 124.7803
1171.906, 131.1440
1172.994, 103.5020
1174.082, 35.85352
1175.170, 1.802734
1176.257, 0.4677730
1177.344, 48.85791
1178.431, 16.17529
1179.518, 24.51758
1180.605, 21.77441
1181.691, 30.94531
1182.778, 92.68359
1183.864, 0.4707030
1184.950, 9.269531
1186.036, 2.914551
1187.122, 126.9146
1188.207, 2.209961
1189.292, 119.7065
1190.378, 25.39551
1191.463, 47.45947
1192.548, 120.4980
1193.632, 54.19385
1194.717, 102.3501
1195.801, 18.38330
1196.886, 8.447754
1197.970, 72.82275
1199.054, 30.84912
1200.137, 25.04492
1201.221, 25.76855
1202.305, 32.25586
1203.388, 64.71631
1204.471, 1.764648
1205.554, 45.78125
1206.637, 69.37939
1207.719, 10.99658
1208.802, 6.303711
1209.884, 75.15771
1210.966, 74.95654
1212.048, 44.82910
1213.130, 22.73242
1214.212, 6.405762
1215.293, 11.42334
1216.374, 94.40332
1217.456, 8.535156
1218.536, 64.72949
1219.617, 20.99902
1220.698, 39.32080
1221.778, 3.293457
1222.859, 31.86572
1223.939, 64.59180
1225.019, 8.871094
1226.099, 23.29199
1227.178, 46.67676
1228.258, 79.96777
1229.337, 73.64160
1230.417, 101.5962
1231.496, 22.80566
1232.574, 11.02539
1233.653, 95.08545
1234.732, 140.1665
1235.810, 36.78027
1236.888, 34.19775
1237.966, 29.86426
1239.044, 99.00293
1240.122, 16.83838
1241.199, 84.63867
1242.277, 89.40723
1243.354, 12.14355
1244.431, 34.82568
1245.508, 34.19824
1246.585, 58.05762
1247.661, 61.61279
1248.738, 71.12891
1249.814, 62.61768
1250.890, 50.23096
1251.966, 42.39795
1253.042, 20.19922
1254.117, 34.49170
1255.193, 43.73389
1256.268, 90.06543
1257.343, 37.26270
1258.418, 152.3672
1259.493, 72.43799
1260.567, 66.46777
1261.642, 73.09521
1262.716, 50.39502
1263.790, 25.29199
1264.864, 78.12988
1265.938, 43.92383
1267.011, 94.66455
1268.085, 218.3662
1269.158, 45.03320
1270.231, 169.6938
1271.304, 132.5093
1272.377, 183.0488
1273.450, 199.5542
1274.522, 135.0239
1275.594, 104.4565
1276.666, 248.8477
1277.738, 210.2021
1278.810, 230.5605
1279.882, 202.8467
1280.953, 237.0972
1282.025, 82.41602
1283.096, 223.5830
1284.167, 209.7144
1285.238, 205.7788
1286.308, 359.9790
1287.379, 202.2197
1288.449, 305.3228
