##NAMES=Enstatite
##RRUFFID=R060630
##IDEAL CHEMISTRY=MgSiO_3_
##LOCALITY=unknown
##OWNER=RRUFF
##SOURCE=Gemological Institute of America
##DESCRIPTION=Tan colored fragment
##STATUS=The identification of this mineral has been confirmed by X-ray diffraction and chemical analysis
##URL=rruff.info/R060630
##MEASURED CHEMISTRY=(Mg_0.89_Fe_0.07_Al_0.04_)_Σ=1_(Si_0.96_Al_0.04_)_Σ=1_O_3_
##PIN_ID=L01844
##ORIENTATION=Laser parallel to -b* (0 -1 0). Fiducial mark perpendicular to laser is parallel to c [0 0 1]
118.1340, 0.0000000E+00
119.3650, 19.38354
120.5960, 4.179199
121.8270, 82.22485
123.0580, 1.229492
124.2880, 88.61719
125.5190, 82.60034
126.7490, 35.84546
127.9790, 56.12549
129.2090, 14.80469
130.4390, 97.90869
131.6680, 11.17163
132.8980, 35.92310
134.1270, 14.41748
135.3560, 6.243408
136.5850, 82.19507
137.8140, 232.3013
139.0430, 132.5779
140.2710, 266.0320
141.5000, 156.6672
142.7280, 169.4841
143.9560, 170.4814
145.1840, 301.6562
146.4120, 226.0051
147.6390, 289.5662
148.8670, 270.4302
150.0940, 291.3032
151.3210, 329.6328
152.5490, 373.1763
153.7750, 277.9248
155.0020, 294.8706
156.2290, 372.9998
157.4550, 225.2976
158.6810, 260.7512
159.9080, 257.3501
161.1340, 182.0867
162.3590, 121.9553
163.5850, 198.9541
164.8110, 211.0789
166.0360, 162.3242
167.2610, 39.68457
168.4860, 103.1550
169.7110, 43.73242
170.9360, 34.41113
172.1610, 24.18848
173.3850, 4.072754
174.6100, 92.05103
175.8340, 0.1401370
177.0580, 28.33179
178.2820, 42.62671
179.5050, 94.97217
180.7290, 65.53564
181.9520, 52.85303
183.1760, 4.857178
184.3990, 9.662598
185.6220, 10.55908
186.8450, 53.54321
188.0670, 90.61182
189.2900, 104.7617
190.5120, 235.9897
191.7340, 251.2815
192.9560, 383.5864
194.1780, 460.9021
195.4000, 509.2319
196.6220, 585.5820
197.8430, 586.9434
199.0640, 782.3320
200.2860, 875.7498
201.5070, 1010.197
202.7270, 950.6768
203.9480, 1082.189
205.1690, 1100.773
206.3890, 1196.418
207.6090, 1200.145
208.8290, 1300.928
210.0490, 1344.751
211.2690, 1360.962
212.4890, 1427.495
213.7080, 1388.416
214.9280, 1361.369
216.1470, 1358.356
217.3660, 1445.377
218.5850, 1435.432
219.8030, 1569.521
221.0220, 1664.643
222.2400, 1802.781
223.4590, 2037.938
224.6770, 2277.137
225.8950, 2612.416
227.1120, 3110.807
228.3300, 3634.320
229.5480, 4149.956
230.7650, 4915.674
231.9820, 5617.420
233.1990, 6395.197
234.4160, 7457.012
235.6330, 8478.907
236.8490, 9039.886
238.0660, 9696.988
239.2820, 9568.178
240.4980, 8752.471
241.7140, 7847.826
242.9300, 6333.217
244.1460, 4887.626
245.3610, 3634.059
246.5770, 2778.507
247.7920, 2235.973
249.0070, 1721.455
250.2220, 1476.953
251.4370, 1209.468
252.6510, 1057.999
253.8660, 874.5459
255.0800, 861.1089
256.2940, 732.6880
257.5080, 683.2827
258.7220, 609.5815
259.9360, 705.5200
261.1490, 505.1621
262.3630, 471.8198
263.5760, 524.4932
264.7890, 410.9858
266.0020, 534.0371
267.2150, 477.8442
268.4270, 518.9819
269.6400, 563.9287
270.8520, 535.1191
272.0640, 689.3848
273.2760, 773.7188
274.4880, 858.1172
275.7000, 899.8389
276.9120, 1001.355
278.1230, 1089.928
279.3340, 1160.552
280.5450, 1189.221
281.7560, 1281.934
282.9670, 1168.689
284.1780, 1230.487
285.3880, 995.3267
286.5980, 933.2061
287.8090, 955.1245
289.0190, 804.0820
290.2290, 786.3975
291.4380, 819.4302
292.6480, 769.4995
293.8570, 868.1895
295.0670, 1033.559
296.2760, 1170.677
297.4850, 1242.559
298.6930, 1336.839
299.9020, 1322.031
301.1110, 1336.256
302.3190, 1233.514
303.5270, 914.8037
304.7350, 946.1240
305.9430, 888.4746
307.1510, 812.8545
308.3580, 792.2642
309.5660, 836.7017
310.7730, 982.1675
311.9800, 1082.660
313.1870, 1319.181
314.3940, 1440.727
315.6010, 1627.300
316.8070, 2052.898
318.0130, 2273.521
319.2200, 2603.169
320.4260, 3003.841
321.6310, 3399.529
322.8370, 3817.248
324.0430, 4193.990
325.2480, 4556.730
326.4540, 4921.517
327.6590, 5087.442
328.8640, 5463.558
330.0680, 5509.407
331.2730, 5906.279
332.4780, 5928.313
333.6820, 6270.958
334.8860, 6399.892
336.0900, 6695.874
337.2940, 7015.097
338.4980, 7405.833
339.7010, 7828.533
340.9050, 8388.725
342.1080, 9141.852
343.3110, 9747.901
344.5140, 10360.02
345.7170, 10624.10
346.9200, 11362.41
348.1220, 11288.26
349.3240, 11368.40
350.5270, 11274.53
351.7290, 10879.27
352.9310, 10366.39
354.1320, 9642.460
355.3340, 8903.838
356.5350, 8375.884
357.7370, 7668.917
358.9380, 7037.124
360.1390, 6476.466
361.3400, 5764.067
362.5400, 5339.577
363.7410, 4910.748
364.9410, 4404.065
366.1410, 4106.394
367.3410, 3753.738
368.5410, 3631.094
369.7410, 3156.941
370.9400, 2907.322
372.1400, 2891.715
373.3390, 2609.118
374.5380, 2551.534
375.7370, 2280.959
376.9360, 2287.396
378.1350, 2256.844
379.3330, 2185.302
380.5310, 2013.770
381.7300, 2030.249
382.9280, 1985.738
384.1260, 2009.236
385.3230, 1894.743
386.5210, 1955.261
387.7180, 1721.786
388.9160, 1657.320
390.1130, 1598.864
391.3100, 1515.417
392.5060, 1474.979
393.7030, 1366.550
394.9000, 1285.131
396.0960, 1312.720
397.2920, 1439.319
398.4880, 1354.926
399.6840, 1346.544
400.8800, 1371.170
402.0750, 1277.806
403.2710, 1271.451
404.4660, 1138.105
405.6610, 1096.768
406.8560, 1029.440
408.0510, 939.1211
409.2450, 959.8179
410.4400, 844.5303
411.6340, 796.2607
412.8280, 802.0078
414.0220, 854.7715
415.2160, 769.5513
416.4100, 681.3467
417.6030, 717.1582
418.7970, 652.9844
419.9900, 529.8291
421.1830, 411.6885
422.3760, 378.5615
423.5690, 379.4502
424.7610, 337.3516
425.9540, 255.2666
427.1460, 232.1953
428.3380, 212.1372
429.5300, 16.09229
430.7220, 19.06055
431.9140, 78.04150
433.1050, 43.96533
434.2970, 42.01855
435.4880, 17.01465
436.6790, 65.97705
437.8700, 23.98975
439.0610, 2.996582
440.2510, 13.00781
441.4420, 20.00879
442.6320, 69.98975
443.8220, 92.00000
445.0120, 163.0220
446.2020, 136.0547
447.3910, 140.0981
448.5810, 263.1523
449.7700, 284.2178
450.9600, 234.2935
452.1490, 372.3794
453.3370, 395.4761
454.5260, 326.5830
455.7150, 350.6997
456.9030, 355.8262
458.0910, 360.9634
459.2800, 386.1089
460.4670, 303.2651
461.6550, 238.4307
462.8430, 256.6055
464.0300, 88.78857
465.2180, 177.9814
466.4050, 69.18311
467.5920, 51.39355
468.7790, 132.6265
469.9650, 18.13232
471.1520, 2.108887
472.3380, 15.35400
473.5250, 29.39258
474.7110, 49.15039
475.8970, 58.92871
477.0820, 28.73340
478.2680, 46.54932
479.4540, 118.3862
480.6390, 41.27881
481.8240, 40.18945
483.0090, 48.11768
484.1940, 8.931641
485.3780, 24.98584
486.5630, 11.04785
487.7470, 30.79785
488.9320, 6.188965
490.1160, 3.733887
491.3000, 25.34180
492.4830, 43.57617
493.6670, 53.51416
494.8500, 25.47852
496.0340, 41.45557
497.2170, 80.45264
498.4000, 74.47559
499.5820, 22.52490
500.7650, 59.58057
501.9480, 78.66504
503.1300, 13.77686
504.3120, 11.88965
505.4940, 57.99854
506.6760, 71.87939
507.8580, 98.78369
509.0390, 88.72070
510.2210, 106.6714
511.4020, 1.663086
512.5830, 179.6797
513.7640, 64.72314
514.9450, 78.77246
516.1250, 123.8491
517.3060, 137.9512
518.4860, 303.0859
519.6660, 333.2588
520.8460, 401.4702
522.0260, 426.7134
523.2060, 395.9980
524.3850, 388.3154
525.5650, 485.6660
526.7440, 491.0410
527.9230, 609.4326
529.1020, 768.8472
530.2810, 830.2783
531.4590, 878.7417
532.6380, 1139.239
533.8160, 1289.772
534.9940, 1534.330
536.1720, 1663.921
537.3500, 1669.530
538.5270, 1720.147
539.7050, 1653.774
540.8820, 1587.406
542.0590, 1302.062
543.2360, 1121.733
544.4130, 963.4111
545.5900, 723.0938
546.7660, 614.7803
547.9430, 686.4707
549.1190, 664.1650
550.2950, 487.8633
551.4710, 503.5645
552.6470, 490.2690
553.8220, 435.9771
554.9980, 393.6880
556.1730, 363.4023
557.3480, 346.1187
558.5230, 332.8384
559.6980, 382.5605
560.8730, 257.2852
562.0470, 263.0122
563.2220, 349.7422
564.3960, 313.4741
565.5700, 389.2080
566.7440, 424.9434
567.9170, 380.6812
569.0910, 471.4209
570.2640, 520.1616
571.4380, 565.9043
572.6110, 712.6484
573.7840, 726.3940
574.9570, 834.8213
576.1290, 730.5693
577.3020, 867.3188
578.4740, 838.4839
579.6460, 712.9424
580.8180, 792.6636
581.9900, 693.6587
583.1620, 589.2930
584.3330, 560.0488
585.5040, 427.8066
586.6760, 406.5654
587.8470, 458.3252
589.0180, 329.0854
590.1880, 398.8462
591.3590, 376.6084
592.5290, 379.3706
593.7000, 371.1338
594.8700, 415.8970
596.0400, 344.6611
597.2090, 268.4248
598.3790, 291.1885
599.5490, 320.9526
600.7180, 310.7173
601.8870, 294.4810
603.0560, 271.2446
604.2250, 283.9678
605.3940, 295.4111
606.5620, 321.5342
607.7300, 334.2964
608.8990, 383.0576
610.0670, 372.8188
611.2350, 469.2314
612.4020, 422.7041
613.5700, 529.4629
614.7370, 537.2178
615.9050, 643.8291
617.0720, 547.8516
618.2390, 683.6030
619.4060, 671.3203
620.5720, 694.8159
621.7390, 883.8169
622.9050, 915.8716
624.0710, 877.4517
625.2370, 1063.114
626.4030, 1244.871
627.5690, 1435.577
628.7340, 1609.334
629.9000, 1901.886
631.0650, 2071.909
632.2300, 2333.667
633.3950, 2660.445
634.5600, 2900.634
635.7240, 3100.451
636.8890, 3356.220
638.0530, 3573.639
639.2170, 3772.564
640.3810, 3982.389
641.5450, 4165.208
642.7080, 4203.207
643.8720, 4315.735
645.0350, 4683.214
646.1980, 5167.571
647.3610, 5535.449
648.5240, 6002.239
649.6870, 6665.403
650.8490, 7543.075
652.0120, 8532.916
653.1740, 9574.202
654.3360, 10715.97
655.4980, 11801.46
656.6600, 12999.41
657.8210, 14196.04
658.9830, 15221.21
660.1440, 15925.30
661.3050, 16354.92
662.4660, 16493.79
663.6270, 16145.50
664.7870, 15424.39
665.9480, 14937.26
667.1080, 14085.20
668.2680, 13618.79
669.4280, 13303.77
670.5880, 13304.47
671.7480, 13398.80
672.9070, 14222.13
674.0670, 15157.19
675.2260, 16751.37
676.3850, 18801.39
677.5440, 21009.99
678.7030, 23937.20
679.8610, 27045.85
681.0200, 30297.02
682.1780, 33875.63
683.3360, 37175.51
684.4940, 39588.15
685.6520, 41309.76
686.8090, 41677.36
687.9670, 40760.96
689.1240, 38401.54
690.2810, 34929.12
691.4380, 31208.69
692.5950, 27015.24
693.7520, 23003.80
694.9080, 19833.33
696.0650, 16525.87
697.2210, 14309.39
698.3770, 12124.91
699.5330, 10447.41
700.6880, 8934.907
701.8440, 7796.393
702.9990, 6860.872
704.1550, 5972.340
705.3100, 5485.800
706.4650, 4721.252
707.6190, 4341.695
708.7740, 3986.128
709.9290, 3621.552
711.0830, 3328.968
712.2370, 3069.375
713.3910, 2908.773
714.5450, 2665.266
715.6980, 2412.566
716.8520, 2301.950
718.0050, 2106.341
719.1580, 1976.729
720.3110, 1909.110
721.4640, 1704.487
722.6170, 1742.862
723.7700, 1566.228
724.9220, 1539.585
726.0740, 1393.934
727.2260, 1344.274
728.3780, 1337.607
729.5300, 1305.931
730.6810, 1111.247
731.8330, 1153.553
732.9840, 1064.853
734.1350, 1081.143
735.2860, 1029.426
736.4370, 980.7012
737.5880, 866.9678
738.7380, 925.2261
739.8880, 896.4771
741.0390, 779.7192
742.1890, 789.9546
743.3380, 737.1816
744.4880, 721.4009
745.6380, 695.8638
746.7870, 667.8174
747.9360, 641.0132
749.0850, 625.2026
750.2340, 607.3911
751.3830, 528.5752
752.5310, 529.7515
753.6800, 452.9302
754.8280, 417.1162
755.9760, 381.3125
757.1240, 328.5107
758.2720, 269.7168
759.4190, 253.8237
760.5670, 389.1851
761.7140, 230.4287
762.8610, 332.6797
764.0080, 362.9258
765.1550, 314.1660
766.3020, 218.4004
767.4480, 270.6289
768.5950, 186.8530
769.7410, 130.0767
770.8870, 247.2935
772.0330, 100.5190
773.1780, 77.75537
774.3240, 57.99609
775.4690, 20.75488
776.6140, 9.515137
777.7590, 9.719727
778.9040, 42.94775
780.0490, 15.81201
781.1940, 4.422852
782.3380, 10.35352
783.4820, 35.14795
784.6260, 45.96338
785.7700, 76.82178
786.9140, 2.738281
788.0580, 107.6753
789.2010, 70.68652
790.3450, 54.74902
791.4880, 77.14258
792.6310, 58.96973
793.7730, 51.13037
794.9160, 78.33350
796.0590, 103.5010
797.2010, 102.9634
798.3430, 80.32227
799.4850, 116.7783
800.6270, 83.30859
801.7690, 86.89697
802.9100, 55.54395
804.0520, 25.23145
805.1930, 52.94482
806.3340, 27.69727
807.4750, 88.47461
808.6160, 99.30908
809.7560, 100.4492
810.8970, 65.16064
812.0370, 100.1592
813.1770, 34.21777
814.3170, 11.29980
815.4570, 5.394531
816.5960, 28.50146
817.7360, 73.60205
818.8750, 32.74756
820.0140, 3.913574
821.1530, 3.915039
822.2920, 84.74219
823.4310, 45.57031
824.5690, 63.40039
825.7070, 79.23193
826.8460, 48.06396
827.9840, 145.8979
829.1220, 175.7349
830.2590, 161.5728
831.3970, 123.4131
832.5340, 329.2563
833.6710, 284.1021
834.8080, 249.9502
835.9450, 450.8027
837.0820, 331.6577
838.2190, 311.5161
839.3550, 362.3784
840.4910, 401.2437
841.6270, 381.1133
842.7630, 454.9873
843.8990, 425.8647
845.0350, 447.7471
846.1700, 436.6343
847.3060, 540.5259
848.4410, 539.4219
849.5760, 554.3237
850.7100, 663.2310
851.8450, 535.1436
852.9800, 637.0620
854.1140, 708.9863
855.2480, 524.9165
856.3820, 527.8530
857.5160, 671.7949
858.6500, 653.2021
859.7830, 670.3760
860.9170, 783.6606
862.0500, 693.6284
863.1830, 623.6035
864.3160, 731.5859
865.4480, 665.5747
866.5810, 728.5723
867.7130, 661.5767
868.8460, 694.5889
869.9780, 655.6094
871.1100, 759.6416
872.2410, 771.6812
873.3730, 688.7295
874.5050, 630.7866
875.6360, 652.8525
876.7670, 585.9292
877.8980, 590.0146
879.0290, 625.1099
880.1590, 621.2139
881.2900, 615.1792
882.4200, 590.4521
883.5500, 547.5898
884.6800, 532.7358
885.8100, 419.8936
886.9400, 455.5703
888.0690, 559.2549
889.1990, 465.4512
890.3280, 563.6582
891.4570, 531.8760
892.5860, 564.1089
893.7140, 529.3535
894.8430, 682.6108
895.9710, 747.8911
897.1000, 689.2129
898.2280, 800.5459
899.3560, 678.8901
900.4830, 853.2461
901.6110, 898.6392
902.7380, 928.0811
903.8660, 953.5400
904.9930, 927.0161
906.1200, 974.5088
907.2460, 976.7178
908.3730, 1001.756
909.5000, 1005.098
910.6260, 1065.664
911.7520, 1073.534
912.8780, 1109.746
914.0040, 1176.137
915.1290, 1206.506
916.2550, 1340.853
917.3800, 1356.438
918.5050, 1500.204
919.6300, 1488.483
920.7550, 1555.140
921.8800, 1616.900
923.0040, 1664.302
924.1290, 1864.210
925.2530, 1937.487
926.3770, 2049.812
927.5010, 2126.671
928.6250, 2327.830
929.7480, 2472.532
930.8720, 2584.581
931.9950, 2854.107
933.1180, 2935.737
934.2410, 3070.848
935.3640, 3263.748
936.4860, 3291.814
937.6090, 3305.738
938.7310, 3282.707
939.8530, 3433.627
940.9750, 3422.905
942.0970, 3501.824
943.2180, 3325.066
944.3400, 3339.732
945.4610, 3343.437
946.5820, 3278.489
947.7030, 3341.372
948.8240, 3280.500
949.9450, 3303.079
951.0650, 3381.082
952.1860, 3132.655
953.3060, 3194.737
954.4260, 3078.387
955.5460, 2782.791
956.6650, 2749.458
957.7850, 2595.171
958.9040, 2486.910
960.0230, 2346.249
961.1420, 2163.506
962.2610, 1984.358
963.3800, 1929.260
964.4990, 1677.188
965.6170, 1689.142
966.7350, 1787.126
967.8530, 1626.136
968.9710, 1624.172
970.0890, 1601.235
971.2070, 1650.324
972.3240, 1727.438
973.4410, 1837.578
974.5580, 2066.745
975.6750, 2079.937
976.7920, 2331.153
977.9090, 2524.403
979.0250, 2876.679
980.1410, 2993.980
981.2580, 3384.315
982.3740, 3728.683
983.4890, 4319.080
984.6050, 5145.500
985.7200, 5521.946
986.8360, 6332.420
987.9510, 7331.916
989.0660, 8654.438
990.1810, 10053.99
991.2950, 11715.56
992.4100, 13532.16
993.5240, 15689.80
994.6390, 17851.43
995.7530, 20632.11
996.8660, 23466.80
997.9800, 26431.53
999.0940, 29540.28
1000.207, 32924.05
1001.320, 36210.86
1002.433, 39675.69
1003.546, 42985.53
1004.659, 46400.05
1005.772, 49340.95
1006.884, 51414.88
1007.996, 53612.82
1009.108, 54339.80
1010.220, 54316.15
1011.332, 53349.18
1012.444, 51181.24
1013.555, 47995.31
1014.666, 44202.43
1015.777, 39985.60
1016.888, 35758.25
1017.999, 31846.42
1019.110, 28136.62
1020.220, 25060.50
1021.331, 22547.73
1022.441, 20545.99
1023.551, 18632.28
1024.661, 17029.58
1025.770, 15634.78
1026.880, 14502.13
1027.989, 13764.97
1029.098, 12966.59
1030.207, 12563.16
1031.316, 11798.61
1032.425, 11508.09
1033.533, 10857.68
1034.642, 10169.77
1035.750, 9815.923
1036.858, 9195.405
1037.966, 8327.063
1039.073, 7780.367
1040.181, 7088.407
1041.288, 6475.623
1042.396, 5793.425
1043.503, 5449.700
1044.610, 4905.987
1045.716, 4456.789
1046.823, 4106.708
1047.929, 3754.614
1049.036, 3377.592
1050.142, 3123.635
1051.248, 2859.579
1052.353, 2588.395
1053.459, 2405.967
1054.564, 2144.180
1055.670, 2049.240
1056.775, 1912.308
1057.880, 1762.628
1058.985, 1611.808
1060.089, 1474.087
1061.194, 1305.362
1062.298, 1197.733
1063.402, 1083.079
1064.506, 1078.792
1065.610, 849.5762
1066.713, 941.3379
1067.817, 901.7188
1068.920, 711.3188
1070.023, 737.2812
1071.126, 548.6094
1072.229, 570.3198
1073.332, 487.2783
1074.435, 410.6338
1075.537, 274.0693
1076.639, 420.8730
1077.741, 369.0679
1078.843, 474.1924
1079.945, 360.4595
1081.046, 205.5557
1082.148, 320.9707
1083.249, 258.0288
1084.350, 242.3506
1085.451, 172.2007
1086.551, 151.3232
1087.652, 133.8823
1088.752, 198.6465
1089.853, 148.8027
1090.953, 107.8804
1092.053, 186.5503
1093.152, 180.8823
1094.252, 130.2432
1095.351, 148.8716
1096.451, 129.1343
1097.550, 148.3569
1098.649, 135.3267
1099.748, 123.5234
1100.846, 200.9014
1101.945, 156.2295
1103.043, 120.1831
1104.141, 149.2080
1105.239, 108.6333
1106.337, 188.5908
1107.434, 38.79980
1108.532, 74.88818
1109.629, 115.4399
1110.726, 134.6553
1111.823, 170.7070
1112.920, 158.9111
1114.017, 131.4331
1115.113, 109.0649
1116.210, 215.2539
1117.306, 220.4414
1118.402, 299.6646
1119.498, 256.6948
1120.593, 239.7319
1121.689, 256.0020
1122.784, 310.0273
1123.879, 241.9663
1124.974, 227.0830
1126.069, 282.0151
1127.164, 102.9546
1128.259, 225.7324
1129.353, 261.6519
1130.447, 161.5669
1131.541, 63.70215
1132.635, 258.8882
1133.729, 125.2471
1134.822, 52.98535
1135.916, 31.66992
1137.009, 120.5142
1138.102, 67.80371
1139.195, 102.8877
1140.288, 83.99707
1141.380, 18.99902
1142.473, 75.04883
1143.565, 94.43555
1144.657, 18.59619
1145.749, 22.40918
1146.841, 3.779785
1147.932, 21.98535
1149.024, 33.79395
1150.115, 24.56543
1151.206, 45.67188
1152.297, 16.06348
1153.388, 100.7896
1154.479, 49.50488
1155.569, 77.88184
1156.659, 25.04199
1157.750, 31.67139
1158.839, 13.66406
1159.929, 46.01611
1161.019, 123.4014
1162.108, 14.16260
1163.198, 14.95508
1164.287, 1.471680
1165.376, 94.02637
1166.465, 141.5117
1167.553, 17.71680
1168.642, 19.34131
1169.730, 11.85742
1170.818, 22.64941
1171.906, 24.15527
1172.994, 5.116699
1174.082, 22.48730
1175.170, 5.226563
1176.257, 28.92822
1177.344, 10.06738
1178.431, 21.18994
1179.518, 74.70410
1180.605, 7.340332
1181.691, 23.63379
1182.778, 81.64404
1183.864, 50.72217
1184.950, 25.14844
1186.036, 50.00146
1187.122, 55.83594
1188.207, 16.65234
1189.292, 55.44922
1190.378, 42.22705
1191.463, 49.20801
1192.548, 36.89111
1193.632, 53.44434
1194.717, 16.14307
1195.801, 18.18213
1196.886, 20.45020
1197.970, 24.62451
1199.054, 56.64697
1200.137, 30.81396
1201.221, 3.326660
1202.305, 63.12207
1203.388, 31.54834
1204.471, 5.0292999E-02
1205.554, 111.6875
1206.637, 68.42285
1207.719, 89.23242
1208.802, 7.129883
1209.884, 56.07178
1210.966, 52.08447
1212.048, 72.16602
1213.130, 68.67139
1214.212, 11.48389
1215.293, 188.3550
1216.374, 69.10645
1217.456, 50.83252
1218.536, 13.46924
1219.617, 73.17725
1220.698, 94.79736
1221.778, 37.60840
1222.859, 55.91992
1223.939, 15.57959
1225.019, 51.13428
1226.099, 69.23682
1227.178, 75.58008
1228.258, 31.89697
1229.337, 84.17871
1230.417, 61.43359
1231.496, 68.65967
1232.574, 158.8574
1233.653, 132.0303
1234.732, 62.17676
1235.810, 175.2939
1236.888, 92.38623
1237.966, 122.4507
1239.044, 23.48828
1240.122, 94.48584
1241.199, 134.4556
1242.277, 11.39941
1243.354, 26.29785
1244.431, 56.15576
1245.508, 104.9819
1246.585, 105.7803
1247.661, 97.55029
1248.738, 144.2925
1249.814, 143.0083
1250.890, 91.69678
1251.966, 146.3564
1253.042, 180.9902
1254.117, 124.5972
1255.193, 202.1768
1256.268, 166.7300
1257.343, 55.25732
1258.418, 262.7510
1259.493, 200.2183
1260.567, 118.6592
1261.642, 106.0718
1262.716, 83.60498
1263.790, 58.75049
1264.864, 85.18701
1265.938, 102.8472
1267.011, 90.10791
1268.085, 123.6436
1269.158, 116.5796
1270.231, 140.7593
1271.304, 127.5889
1272.377, 78.72852
1273.450, 102.6758
1274.522, 193.9185
1275.594, 178.9722
1276.666, 254.9355
1277.738, 273.4463
1278.810, 260.5923
1279.882, 281.5483
1280.953, 193.8179
1282.025, 231.7212
1283.096, 201.5996
1284.167, 175.5767
1285.238, 177.4028
1286.308, 173.3320
1287.379, 201.1069
1288.449, 224.3906
1289.519, 224.8872
1290.589, 169.4639
1291.659, 112.1245
1292.729, 262.7500
1293.798, 219.2573
1294.868, 153.2666
1295.937, 74.20312
1297.006, 151.8042
