##NAMES=Enstatite
##RRUFFID=R060744
##IDEAL CHEMISTRY=MgSiO_3_
##LOCALITY=Orissa, India
##OWNER=RRUFF
##SOURCE=Herb Obodda
##DESCRIPTION=Brown transparent fragment
##STATUS=The identification of this mineral has been confirmed by X-ray diffraction and chemical analysis
##URL=rruff.info/R060744
##MEASURED CHEMISTRY=(Mg_0.85_Fe^2+^_0.13_Fe^3+^_0.01_Mn_0.01_)_Σ=1_(Si_0.99_Al_0.01_)_Σ=1_O_3_; trace amounts of Ca; Fe^2+^ and Fe^3+^ splitted by charge balance
##PIN_ID=L01523
##ORIENTATION=Laser parallel to c* (0 0 1). Fiducial mark perpendicular to laser is parallel to -a [-1 0 0]
113.2080, 0.0000000E+00
114.4400, 57.74011
115.6710, 82.05396
116.9030, 66.64856
118.1340, 0.2692870
119.3650, 2.397217
120.5960, 46.07190
121.8270, 40.88831
123.0580, 101.6588
124.2880, 130.9176
125.5190, 72.43225
126.7490, 131.0873
127.9790, 219.4618
129.2090, 327.0662
130.4390, 356.8107
131.6680, 408.1655
132.8980, 388.0864
134.1270, 462.6732
135.3560, 574.0022
136.5850, 708.1339
137.8140, 915.1152
139.0430, 1095.983
140.2710, 1172.765
141.5000, 1231.485
142.7280, 1196.036
143.9560, 1240.246
145.1840, 1052.213
146.4120, 929.7518
147.6390, 886.6033
148.8670, 661.2350
150.0940, 564.5225
151.3210, 560.9188
152.5490, 368.4174
153.7750, 348.0117
155.0020, 238.6976
156.2290, 192.4722
157.4550, 105.3352
158.6810, 63.28601
159.9080, 75.32068
161.1340, 100.4355
162.3590, 90.62622
163.5850, 114.8892
164.8110, 102.7725
166.0360, 99.07227
167.2610, 67.06592
168.4860, 65.57288
169.7110, 21.13354
170.9360, 30.25305
172.1610, 24.58667
173.3850, 27.86499
174.6100, 37.08362
175.8340, 20.43030
177.0580, 34.33069
178.2820, 12.64050
179.5050, 12.32861
180.7290, 11.75964
181.9520, 4.097168
183.1760, 8.901367
184.3990, 18.97803
185.6220, 57.64038
186.8450, 80.97461
188.0670, 84.32715
189.2900, 142.7012
190.5120, 189.0977
191.7340, 156.5193
192.9560, 203.9661
194.1780, 231.4385
195.4000, 295.9360
196.6220, 300.4731
197.8430, 325.0488
199.0640, 352.6743
200.2860, 442.3645
201.5070, 511.1272
202.7270, 501.9292
203.9480, 370.7449
205.1690, 449.5906
206.3890, 411.4663
207.6090, 465.3560
208.8290, 468.2603
210.0490, 445.1802
211.2690, 496.1157
212.4890, 500.0669
213.7080, 539.0337
214.9280, 569.0173
216.1470, 628.6333
217.3660, 731.9353
218.5850, 813.8657
219.8030, 940.8010
221.0220, 1132.750
222.2400, 1362.714
223.4590, 1651.696
224.6770, 1971.698
225.8950, 2269.726
227.1120, 2687.778
228.3300, 3092.858
229.5480, 3739.979
230.7650, 4552.156
231.9820, 5138.397
233.1990, 5512.739
234.4160, 5434.164
235.6330, 4897.684
236.8490, 4222.250
238.0660, 3294.906
239.2820, 2473.620
240.4980, 1912.357
241.7140, 1448.102
242.9300, 1155.854
244.1460, 898.6138
245.3610, 864.3823
246.5770, 818.1582
247.7920, 822.9419
249.0070, 764.7339
250.2220, 813.5334
251.4370, 787.3408
252.6510, 885.1560
253.8660, 873.9788
255.0800, 800.8093
256.2940, 807.6472
257.5080, 954.4932
258.7220, 987.3459
259.9360, 874.4104
261.1490, 915.5708
262.3630, 882.7976
263.5760, 1060.071
264.7890, 1173.392
266.0020, 1214.701
267.2150, 1382.095
268.4270, 1502.516
269.6400, 1584.960
270.8520, 1555.438
272.0640, 1497.988
273.2760, 1355.415
274.4880, 1204.934
275.7000, 1005.459
276.9120, 778.9885
278.1230, 542.5244
279.3340, 461.8904
280.5450, 436.4443
281.7560, 403.0093
282.9670, 428.8953
284.1780, 452.0591
285.3880, 541.7529
286.5980, 627.5405
287.8090, 722.3687
289.0190, 828.4121
290.2290, 898.0322
291.4380, 1052.514
292.6480, 1145.006
293.8570, 1275.513
295.0670, 1271.033
296.2760, 1224.746
297.4850, 1226.305
298.6930, 1096.882
299.9020, 991.4778
301.1110, 918.0913
302.3190, 879.7227
303.5270, 920.0818
304.7350, 1003.036
305.9430, 1125.717
307.1510, 1278.414
308.3580, 1492.126
309.5660, 1696.855
310.7730, 2013.598
311.9800, 2351.356
313.1870, 2679.128
314.3940, 3024.915
315.6010, 3340.715
316.8070, 3546.831
318.0130, 3703.306
319.2200, 3682.657
320.4260, 3766.556
321.6310, 3803.387
322.8370, 3915.533
324.0430, 4236.425
325.2480, 4559.769
326.4540, 4963.684
327.6590, 5560.439
328.8640, 6144.030
330.0680, 6809.979
331.2730, 7660.939
332.4780, 8856.911
333.6820, 9960.893
334.8860, 11018.89
336.0900, 11864.89
337.2940, 12315.69
338.4980, 12193.37
339.7010, 11971.75
340.9050, 10903.80
342.1080, 9605.315
343.3110, 8107.376
344.5140, 6860.814
345.7170, 5755.927
346.9200, 4738.219
348.1220, 3944.316
349.3240, 3343.266
350.5270, 2841.080
351.7290, 2503.250
352.9310, 2178.910
354.1320, 1943.366
355.3340, 1781.509
356.5350, 1609.821
357.7370, 1394.881
358.9380, 1344.813
360.1390, 1248.162
361.3400, 1118.823
362.5400, 1127.008
363.7410, 1087.137
364.9410, 1036.335
366.1410, 1191.540
367.3410, 1175.751
368.5410, 1154.968
369.7410, 1131.192
370.9400, 1324.422
372.1400, 1415.658
373.3390, 1490.900
374.5380, 1667.148
375.7370, 1730.401
376.9360, 1738.660
378.1350, 1676.924
379.3330, 1521.193
380.5310, 1470.465
381.7300, 1336.742
382.9280, 1141.023
384.1260, 1003.307
385.3230, 880.5945
386.5210, 776.8857
387.7180, 708.1802
388.9160, 721.4778
390.1130, 648.7791
391.3100, 698.0842
392.5060, 665.3926
393.7030, 580.7041
394.9000, 563.0195
396.0960, 540.3381
397.2920, 513.6604
398.4880, 484.9863
399.6840, 437.3154
400.8800, 381.6479
402.0750, 369.9839
403.2710, 380.3235
404.4660, 392.6704
405.6610, 318.0237
406.8560, 403.3838
408.0510, 396.7500
409.2450, 320.1226
410.4400, 433.5015
411.6340, 364.8857
412.8280, 301.2754
414.0220, 208.6711
415.2160, 221.0720
416.4100, 153.4783
417.6030, 152.8899
418.7970, 88.30640
419.9900, 89.72803
421.1830, 28.15527
422.3760, 30.41284
423.5690, 30.00708
424.7610, 38.43188
425.9540, 18.13843
427.1460, 11.71533
428.3380, 17.29565
429.5300, 35.61255
430.7220, 7.484863
431.9140, 53.08911
433.1050, 55.28198
434.2970, 39.65845
435.4880, 57.04004
436.6790, 15.42676
437.8700, 16.81885
439.0610, 34.78418
440.2510, 29.59741
441.4420, 51.98413
442.6320, 65.37573
443.8220, 55.77197
445.0120, 101.1729
446.2020, 37.57812
447.3910, 113.9878
448.5810, 122.4021
449.7700, 174.8206
450.9600, 187.2432
452.1490, 210.6699
453.3370, 218.7878
454.5260, 235.5356
455.7150, 205.9744
456.9030, 181.4170
458.0910, 152.8630
459.2800, 225.3132
460.4670, 279.7742
461.6550, 277.2451
462.8430, 357.7261
464.0300, 372.2190
465.2180, 390.7202
466.4050, 417.5994
467.5920, 407.7476
468.7790, 406.2688
469.9650, 371.7930
471.1520, 304.3215
472.3380, 282.8545
473.5250, 200.3904
474.7110, 165.9294
475.8970, 96.47095
477.0820, 75.01514
478.2680, 52.56226
479.4540, 6.888428
480.6390, 54.65479
481.8240, 47.20093
483.0090, 13.74902
484.1940, 17.70044
485.3780, 41.83813
486.5630, 32.62158
487.7470, 11.89966
488.9320, 61.57739
490.1160, 23.90991
491.3000, 55.60083
492.4830, 69.13086
493.6670, 42.70020
494.8500, 50.29395
496.0340, 30.90210
497.2170, 73.53027
498.4000, 44.18848
499.5820, 6.862793
500.7650, 4.544434
501.9480, 60.22363
503.1300, 96.92017
504.3120, 70.33862
505.4940, 40.39258
506.6760, 76.85059
507.8580, 148.0955
509.0390, 106.3416
510.2210, 109.5891
511.4020, 105.8389
512.5830, 171.0967
513.7640, 259.3669
514.9450, 270.6492
516.1250, 287.9419
517.3060, 264.2444
518.4860, 286.5510
519.6660, 294.8650
520.8460, 322.1804
522.0260, 404.5093
523.2060, 493.8618
524.3850, 495.2212
525.5650, 555.5911
526.7440, 593.9678
527.9230, 662.3481
529.1020, 753.7373
530.2810, 852.1467
531.4590, 1145.560
532.6380, 1304.989
533.8160, 1568.419
534.9940, 1746.854
536.1720, 1711.322
537.3500, 1535.800
538.5270, 1475.279
539.7050, 1323.758
540.8820, 1095.238
542.0590, 954.7241
543.2360, 861.2124
544.4130, 838.7053
545.5900, 707.2024
546.7660, 677.6997
547.9430, 664.1968
549.1190, 627.6943
550.2950, 602.6880
551.4710, 542.6897
552.6470, 531.1875
553.8220, 494.6887
554.9980, 432.1904
556.1730, 421.6980
557.3480, 374.2097
558.5230, 451.7214
559.6980, 373.2341
560.8730, 378.7468
562.0470, 413.2593
563.2220, 369.7754
564.3960, 369.4697
565.5700, 340.9849
566.7440, 389.5000
567.9170, 445.8887
569.0910, 441.6450
570.2640, 511.0669
571.4380, 543.4080
572.6110, 504.3896
573.7840, 507.6665
574.9570, 445.1790
576.1290, 468.6914
577.3020, 399.2034
578.4740, 403.7148
579.6460, 395.2263
580.8180, 325.5632
581.9900, 347.0737
583.1620, 292.5840
584.3330, 299.0935
585.5040, 278.6028
586.6760, 342.1116
587.8470, 281.6199
589.0180, 302.1274
590.1880, 267.6345
591.3590, 359.1411
592.5290, 293.6467
593.7000, 311.1516
594.8700, 267.6560
596.0400, 264.1594
597.2090, 266.6797
598.3790, 217.1631
599.5490, 280.6636
600.7180, 255.1633
601.8870, 277.6616
603.0560, 248.1589
604.2250, 312.6553
605.3940, 243.1501
606.5620, 311.6436
607.7300, 354.1357
608.8990, 307.6262
610.0670, 285.1155
611.2350, 324.6030
612.4020, 326.7549
613.5700, 361.5815
614.7370, 399.0562
615.9050, 442.5371
617.0720, 479.0164
618.2390, 516.4939
619.4060, 521.9697
620.5720, 527.6536
621.7390, 548.1260
622.9050, 660.6021
624.0710, 710.0637
625.2370, 796.0720
626.4030, 848.5369
627.5690, 851.7183
628.7340, 873.1479
629.9000, 925.4067
631.0650, 1054.865
632.2300, 1085.370
633.3950, 1152.125
634.5600, 1268.796
635.7240, 1320.227
636.8890, 1510.360
638.0530, 1619.456
639.2170, 1756.112
640.3810, 1984.726
641.5450, 2294.411
642.7080, 2543.734
643.8720, 2893.969
645.0350, 3444.172
646.1980, 3822.679
647.3610, 4451.123
648.5240, 5286.566
649.6870, 6175.008
650.8490, 7434.504
652.0120, 8930.345
653.1740, 10457.31
654.3360, 12334.92
655.4980, 14164.52
656.6600, 16151.63
657.8210, 18065.66
658.9830, 19028.38
660.1440, 19344.81
661.3050, 18922.06
662.4660, 17556.61
663.6270, 16053.25
664.7870, 14666.76
665.9480, 13527.20
667.1080, 12696.27
668.2680, 12559.26
669.4280, 12891.19
670.5880, 13762.99
671.7480, 14817.88
672.9070, 16587.28
674.0670, 18568.50
675.2260, 21303.28
676.3850, 23802.82
677.5440, 26351.21
678.7030, 28746.60
679.8610, 30085.97
681.0200, 30080.58
682.1780, 29456.18
683.3360, 26688.41
684.4940, 23567.33
685.6520, 20223.70
686.8090, 16989.05
687.9670, 13915.40
689.1240, 11459.75
690.2810, 9259.091
691.4380, 7756.430
692.5950, 6325.478
693.7520, 5296.807
694.9080, 4469.495
696.0650, 3823.568
697.2210, 3366.897
698.3770, 2942.422
699.5330, 2558.730
700.6880, 2259.033
701.8440, 2030.169
702.9990, 1820.464
704.1550, 1668.763
705.3100, 1484.072
706.4650, 1409.361
707.6190, 1215.653
708.7740, 1175.944
709.9290, 1087.236
711.0830, 966.5342
712.2370, 899.8315
713.3910, 864.1384
714.5450, 778.4412
715.6980, 797.7395
716.8520, 700.0337
718.0050, 686.3235
719.1580, 676.6094
720.3110, 572.9006
721.4640, 517.1877
722.6170, 475.4709
723.7700, 439.2014
724.9220, 444.0242
726.0740, 396.2947
727.2260, 401.5605
728.3780, 343.8225
729.5300, 372.0806
730.6810, 362.3342
731.8330, 287.5840
732.9840, 313.8298
734.1350, 351.0713
735.2860, 259.3091
736.4370, 307.5430
737.5880, 278.7725
738.7380, 285.9983
739.8880, 215.2202
741.0390, 257.4385
742.1890, 225.6526
743.3380, 217.8628
744.4880, 221.0696
745.6380, 195.2725
746.7870, 200.4719
747.9360, 226.6672
749.0850, 237.8591
750.2340, 115.0476
751.3830, 164.2324
752.5310, 39.41357
753.6800, 126.5913
754.8280, 116.7659
755.9760, 99.93677
757.1240, 121.1042
758.2720, 60.26855
759.4190, 65.43359
760.5670, 24.59546
761.7140, 53.75391
762.8610, 89.90918
764.0080, 43.06860
765.1550, 17.22485
766.3020, 47.38794
767.4480, 62.54834
768.5950, 23.72412
769.7410, 35.10254
770.8870, 30.05859
772.0330, 9.238037
773.1780, 45.57520
774.3240, 29.59375
775.4690, 32.22949
776.6140, 28.05713
777.7590, 14.10474
778.9040, 22.73193
780.0490, 55.58618
781.1940, 27.45972
782.3380, 19.32837
783.4820, 18.78369
784.6260, 23.90723
785.7700, 25.76465
786.9140, 24.80859
788.0580, 11.26514
789.2010, 14.62085
790.3450, 33.52197
791.4880, 28.14111
792.6310, 28.39600
793.7730, 20.36523
794.9160, 2.352051
796.0590, 14.34741
797.2010, 31.64355
798.3430, 40.36670
799.4850, 77.40356
800.6270, 14.48608
801.7690, 29.58203
802.9100, 11.69800
804.0520, 5.825195
805.1930, 21.96021
806.3340, 70.11108
807.4750, 2.302246
808.6160, 54.49878
809.7560, 40.27319
810.8970, 10.95508
812.0370, 118.1917
813.1770, 34.49219
814.3170, 54.18799
815.4570, 18.86816
816.5960, 14.54883
817.7360, 20.76978
818.8750, 3.100098
820.0140, 15.43286
821.1530, 10.28223
822.2920, 31.87891
823.4310, 17.53345
824.5690, 46.18896
825.7070, 77.84570
826.8460, 23.50366
827.9840, 56.16309
829.1220, 16.17578
830.2590, 33.47900
831.3970, 28.86426
832.5340, 18.21924
833.6710, 1.419922
834.8080, 6.939697
835.9450, 13.69995
837.0820, 8.342041
838.2190, 22.01392
839.3550, 25.62402
840.4910, 69.26465
841.6270, 0.9079590
842.7630, 39.55298
843.8990, 18.20117
845.0350, 94.85205
846.1700, 73.50635
847.3060, 41.16309
848.4410, 95.82349
849.5760, 95.48657
850.7100, 130.1531
851.8450, 188.8230
852.9800, 140.4961
854.1140, 146.1729
855.2480, 241.8533
856.3820, 217.5376
857.5160, 249.2253
858.6500, 203.9172
859.7830, 250.6133
860.9170, 186.3132
862.0500, 204.0173
863.1830, 226.7261
864.3160, 234.4387
865.4480, 174.1562
866.5810, 152.8784
867.7130, 168.6050
868.8460, 172.3364
869.9780, 103.0732
871.1100, 103.8149
872.2410, 159.5613
873.3730, 79.31372
874.5050, 72.07080
875.6360, 38.83374
876.7670, 10.60181
877.8980, 96.37573
879.0290, 51.15552
880.1590, 26.94043
881.2900, 189.7317
882.4200, 60.52905
883.5500, 74.33203
884.6800, 9.141357
885.8100, 26.95703
886.9400, 86.77881
888.0690, 41.60718
889.1990, 82.44189
890.3280, 73.28345
891.4570, 140.1313
892.5860, 55.98608
893.7140, 75.84790
894.8430, 100.7163
895.9710, 76.74390
897.1000, 110.4683
898.2280, 98.35791
899.3560, 150.2581
900.4830, 181.1658
901.6110, 126.9973
902.7380, 149.9236
903.8660, 154.8574
904.9930, 151.7983
906.1200, 199.8560
907.2460, 147.8123
908.3730, 227.5122
909.5000, 120.9756
910.6260, 252.9553
911.7520, 248.3030
912.8780, 307.9343
914.0040, 349.8752
915.1290, 387.8694
916.2550, 382.8633
917.3800, 467.6299
918.5050, 478.9194
919.6300, 483.9805
920.7550, 657.0742
921.8800, 712.2051
923.0040, 761.3457
924.1290, 860.4397
925.2530, 1036.205
926.3770, 1198.855
927.5010, 1402.871
928.6250, 1587.881
929.7480, 1787.443
930.8720, 2010.073
931.9950, 2264.041
933.1180, 2528.316
934.2410, 2695.803
935.3640, 2759.001
936.4860, 2895.108
937.6090, 2821.364
938.7310, 2787.699
939.8530, 2757.412
940.9750, 2552.213
942.0970, 2423.092
943.2180, 2196.132
944.3400, 2016.110
945.4610, 1790.598
946.5820, 1686.301
947.7030, 1562.438
948.8240, 1447.841
949.9450, 1363.988
951.0650, 1220.004
952.1860, 1182.611
953.3060, 1148.005
954.4260, 1026.415
955.5460, 998.2065
956.6650, 912.3164
957.7850, 925.0012
958.9040, 912.7007
960.0230, 897.4148
961.1420, 887.1431
962.2610, 846.8855
963.3800, 886.6514
964.4990, 909.7217
965.6170, 926.5203
966.7350, 889.9810
967.8530, 984.0701
968.9710, 940.9136
970.0890, 1000.577
971.2070, 1106.468
972.3240, 1101.374
973.4410, 1235.461
974.5580, 1263.402
975.6750, 1343.358
976.7920, 1461.447
977.9090, 1563.302
979.0250, 1701.305
980.1410, 1860.322
981.2580, 2013.354
982.3740, 2140.404
983.4890, 2439.471
984.6050, 2698.560
985.7200, 3066.663
986.8360, 3441.784
987.9510, 3898.922
989.0660, 4486.075
990.1810, 5239.251
991.2950, 6125.446
992.4100, 7062.657
993.5240, 8346.887
994.6390, 9924.126
995.7530, 12031.38
996.8660, 14110.66
997.9800, 17094.95
999.0940, 20833.27
1000.207, 24887.60
1001.320, 30019.96
1002.433, 36079.33
1003.546, 41843.72
1004.659, 47968.12
1005.772, 53579.53
1006.884, 57171.96
1007.996, 58117.41
1009.108, 55551.87
1010.220, 50602.34
1011.332, 44111.83
1012.444, 37300.34
1013.555, 31380.85
1014.666, 26112.39
1015.777, 22548.94
1016.888, 19353.51
1017.999, 17114.09
1019.110, 15098.68
1020.220, 13598.29
1021.331, 12365.91
1022.441, 11437.55
1023.551, 10701.20
1024.661, 9959.863
1025.770, 9263.541
1026.880, 8726.231
1027.989, 8293.933
1029.098, 7731.649
1030.207, 7103.380
1031.316, 6716.123
1032.425, 6072.501
1033.533, 5611.271
1034.642, 5185.053
1035.750, 4675.648
1036.858, 4329.457
1037.966, 3949.277
1039.073, 3624.108
1040.181, 3312.966
1041.288, 2970.836
1042.396, 2714.720
1043.503, 2449.632
1044.610, 2193.179
1045.716, 2080.125
1046.823, 1870.884
1047.929, 1692.078
1049.036, 1590.229
1050.142, 1370.261
1051.248, 1250.315
1052.353, 1186.342
1053.459, 1161.857
1054.564, 1039.522
1055.670, 939.6787
1056.775, 901.7966
1057.880, 844.0967
1058.985, 772.2417
1060.089, 685.4375
1061.194, 681.1223
1062.298, 603.1741
1063.402, 575.8972
1064.506, 556.0432
1065.610, 522.2441
1066.713, 492.6084
1067.817, 528.5706
1068.920, 493.9824
1070.023, 488.4561
1071.126, 462.8601
1072.229, 418.2598
1073.332, 377.8218
1074.435, 331.5286
1075.537, 356.3784
1076.639, 262.7756
1077.741, 307.6140
1078.843, 284.8835
1079.945, 291.7764
1081.046, 278.4578
1082.148, 254.0549
1083.249, 309.1450
1084.350, 298.9185
1085.451, 246.1184
1086.551, 208.7434
1087.652, 282.2222
1088.752, 217.9956
1089.853, 232.6597
1090.953, 166.4141
1092.053, 215.1292
1093.152, 202.8677
1094.252, 210.5249
1095.351, 247.3320
1096.451, 172.7727
1097.550, 242.6079
1098.649, 199.6821
1099.748, 180.8096
1100.846, 143.7297
1101.945, 151.7156
1103.043, 212.6274
1104.141, 206.3738
1105.239, 229.8699
1106.337, 234.4177
1107.434, 153.9695
1108.532, 225.8972
1109.629, 180.7539
1110.726, 179.6082
1111.823, 190.4482
1112.920, 177.3008
1114.017, 208.8677
1115.113, 233.1482
1116.210, 271.2209
1117.306, 298.9429
1118.402, 335.4189
1119.498, 296.7988
1120.593, 351.5349
1121.689, 361.2146
1122.784, 407.9106
1123.879, 358.8225
1124.974, 306.9688
1126.069, 261.6943
1127.164, 181.6157
1128.259, 164.5012
1129.353, 124.1414
1130.447, 178.7686
1131.541, 149.4045
1132.635, 142.4194
1133.729, 83.41626
1134.822, 110.0437
1135.916, 198.8779
1137.009, 113.7642
1138.102, 123.4377
1139.195, 79.79565
1140.288, 47.81665
1141.380, 133.3645
1142.473, 26.36377
1143.565, 27.96460
1144.657, 82.75903
1145.749, 61.52368
1146.841, 82.67383
1147.932, 93.65698
1149.024, 124.1377
1150.115, 95.74365
1151.206, 81.40356
1152.297, 62.27710
1153.388, 78.83252
1154.479, 38.57446
1155.569, 76.36768
1156.659, 4.905762
1157.750, 19.54858
1158.839, 74.07397
1159.929, 77.71436
1161.019, 102.3574
1162.108, 21.88159
1163.198, 20.60815
1164.287, 77.95288
1165.376, 90.45386
1166.465, 23.06812
1167.553, 67.52026
1168.642, 87.97217
1169.730, 42.49780
1170.818, 44.93359
1171.906, 46.36108
1172.994, 67.78076
1174.082, 24.19189
1175.170, 15.40552
1176.257, 35.98169
1177.344, 98.35986
1178.431, 55.72900
1179.518, 21.91113
1180.605, 30.43115
1181.691, 113.7610
1182.778, 16.91919
1183.864, 87.61865
1184.950, 105.1699
1186.036, 22.23340
1187.122, 65.39893
1188.207, 17.44629
1189.292, 39.68677
1190.378, 32.85254
1191.463, 5.028564
1192.548, 25.93433
1193.632, 19.86841
1194.717, 41.79761
1195.801, 25.96509
1196.886, 59.77075
1197.970, 4.710693
1199.054, 27.19580
1200.137, 17.14185
1201.221, 39.52319
1202.305, 45.12280
1203.388, 12.15552
1204.471, 11.94995
1205.554, 77.03491
1206.637, 53.28125
1207.719, 43.57495
1208.802, 49.91211
1209.884, 4.802734
1210.966, 21.40015
1212.048, 21.01758
1213.130, 28.37524
1214.212, 16.13745
1215.293, 2.714355
1216.374, 52.08618
1217.456, 0.4538570
1218.536, 24.70874
1219.617, 51.67310
1220.698, 32.07739
1221.778, 43.46533
1222.859, 39.83691
1223.939, 61.19214
1225.019, 18.46826
1226.099, 3.836426
1227.178, 29.26587
1228.258, 21.47046
1229.337, 12.75635
1230.417, 23.96240
1231.496, 2.849609
1232.574, 27.31030
1233.653, 58.45166
1234.732, 6.576660
1235.810, 19.73560
1236.888, 20.81665
1237.966, 30.87769
1239.044, 40.30029
1240.122, 41.94751
1241.199, 46.43408
1242.277, 44.42285
1243.354, 16.39355
1244.431, 8.342285
1245.508, 8.8623002E-02
1246.585, 79.20093
1247.661, 12.07788
1248.738, 14.93091
1249.814, 77.89600
1250.890, 8.291748
1251.966, 8.485596
1253.042, 43.23682
1254.117, 24.96899
1255.193, 82.67969
1256.268, 43.37280
1257.343, 6.046631
1258.418, 113.6921
1259.493, 37.67920
1260.567, 113.8982
1261.642, 4.458740
1262.716, 36.98950
1263.790, 108.5002
1264.864, 57.08105
1265.938, 49.55591
1267.011, 95.24438
1268.085, 20.68188
1269.158, 63.22852
1270.231, 72.62402
1271.304, 38.06348
1272.377, 121.4202
1273.450, 63.75952
1274.522, 11.08008
1275.594, 29.37305
1276.666, 81.64331
1277.738, 70.90063
1278.810, 105.1570
1279.882, 91.37256
1280.953, 49.57080
1282.025, 117.7490
1283.096, 68.91016
1284.167, 58.05298
1285.238, 135.1772
1286.308, 89.28418
1287.379, 139.3726
1288.449, 87.44434
