##NAMES=Enstatite
##RRUFFID=R070550
##IDEAL CHEMISTRY=MgSiO_3_
##LOCALITY=Tanzania
##OWNER=RRUFF
##SOURCE=www.multicolour.com
##DESCRIPTION=Brown, translucent, vitreous crystal fragment
##STATUS=The identification of this mineral has been confirmed by X-ray diffraction and chemical analysis
##URL=rruff.info/R070550
##MEASURED CHEMISTRY=(Mg_0.90_Fe_0.10_)_Î£=1_Si_1.00_O_3_
##PIN_ID=L01679
##ORIENTATION=Laser parallel to c* (0 0 1). Fiducial mark perpendicular to laser is parallel to a [1 0 0]
112.8890, 0.0000000E+00
114.1310, 43.50281
115.3720, 31.78369
116.6130, 154.5906
117.8540, 47.71069
119.0950, 23.97119
120.3360, 28.24829
121.5760, 27.52722
122.8160, 45.62415
124.0560, 105.6344
125.2960, 0.7864990
126.5350, 14.00854
127.7750, 48.70569
129.0140, 194.0414
130.2530, 165.8008
131.4920, 269.8082
132.7300, 248.1107
133.9690, 291.8645
135.2070, 418.8446
136.4450, 490.8389
137.6830, 688.6848
138.9210, 831.8391
140.1580, 1111.453
141.3950, 1184.197
142.6330, 1443.426
143.8690, 1609.091
145.1060, 1825.156
146.3430, 1922.588
147.5790, 2260.361
148.8150, 2444.451
150.0510, 2416.836
151.2870, 2598.746
152.5220, 2321.039
153.7580, 2040.515
154.9930, 1821.852
156.2280, 1524.034
157.4620, 1304.084
158.6970, 1163.026
159.9310, 959.8777
161.1660, 969.6575
162.4000, 881.3798
163.6330, 869.0591
164.8670, 936.7068
166.1000, 874.3333
167.3340, 843.9490
168.5670, 825.5620
169.8000, 796.1818
171.0320, 774.8223
172.2650, 744.4973
173.4970, 684.2214
174.7290, 726.0055
175.9610, 740.8530
177.1930, 849.7646
178.4240, 981.7395
179.6550, 1197.778
180.8870, 1464.881
182.1170, 1792.047
183.3480, 2045.277
184.5790, 2451.571
185.8090, 2752.929
187.0390, 3369.326
188.2690, 4077.041
189.4990, 4909.117
190.7290, 5600.757
191.9580, 5922.218
193.1870, 5529.354
194.4160, 4740.632
195.6450, 3821.903
196.8740, 3334.262
198.1020, 2849.712
199.3310, 2570.255
200.5590, 2216.891
201.7870, 1943.621
203.0140, 1837.444
204.2420, 1609.361
205.4690, 1334.370
206.6960, 1069.472
207.9230, 770.6639
209.1500, 663.9448
210.3760, 516.3131
211.6030, 437.7672
212.8290, 472.3060
214.0550, 387.9282
215.2810, 408.6323
216.5060, 426.4175
217.7320, 468.2828
218.9570, 504.2271
220.1820, 646.2499
221.4070, 780.3503
222.6320, 982.5281
223.8560, 1289.782
225.0800, 1805.125
226.3040, 2339.616
227.5280, 3231.274
228.7520, 4016.082
229.9760, 5116.038
231.1990, 6001.199
232.4220, 6996.530
233.6450, 8758.048
234.8680, 10419.71
236.0910, 11835.46
237.3130, 11750.26
238.5350, 10331.09
239.7570, 8046.971
240.9790, 6040.889
242.2010, 4174.847
243.4220, 2873.847
244.6430, 1959.888
245.8640, 1271.971
247.0850, 858.0952
248.3060, 525.2604
249.5270, 373.4666
250.7470, 269.7134
251.9670, 145.0009
253.1870, 45.32874
254.4070, 23.07495
255.6260, 47.10535
256.8460, 54.55371
258.0650, 135.0417
259.2840, 82.57751
260.5030, 152.6130
261.7220, 8.171265
262.9400, 151.8578
264.1580, 224.6238
265.3760, 253.1914
266.5940, 192.5975
267.8120, 161.3794
269.0290, 151.4822
270.2470, 211.4526
271.4640, 172.3176
272.6810, 103.0933
273.8980, 30.74902
275.1140, 41.70752
276.3310, 114.2747
277.5470, 162.2927
278.7630, 191.7170
279.9790, 257.5801
281.1940, 279.5288
282.4100, 336.5576
283.6250, 460.6616
284.8400, 588.8369
286.0550, 722.0806
287.2700, 908.3894
288.4850, 1288.760
289.6990, 1561.192
290.9130, 2022.682
292.1270, 2458.229
293.3410, 2895.831
294.5540, 3551.485
295.7680, 4126.192
296.9810, 4897.948
298.1940, 5459.750
299.4070, 5654.582
300.6200, 5470.444
301.8320, 5134.333
303.0450, 4615.250
304.2570, 4294.198
305.4690, 3832.175
306.6800, 3737.182
307.8920, 3821.221
309.1030, 4204.290
310.3150, 4734.392
311.5260, 5454.522
312.7360, 6276.686
313.9470, 7210.881
315.1580, 8326.107
316.3680, 9635.366
317.5780, 11245.66
318.7880, 12489.98
319.9980, 13453.33
321.2070, 13566.72
322.4170, 12944.14
323.6260, 12314.59
324.8350, 11651.09
326.0430, 11359.63
327.2520, 12009.20
328.4610, 13470.81
329.6690, 15474.45
330.8770, 18360.13
332.0850, 21874.86
333.2920, 26218.62
334.5000, 31150.69
335.7070, 36311.89
336.9140, 42643.70
338.1210, 48986.94
339.3280, 54307.96
340.5350, 57555.97
341.7410, 57576.49
342.9470, 55013.49
344.1540, 49076.40
345.3590, 42077.41
346.5650, 34865.77
347.7710, 28516.11
348.9760, 23445.10
350.1810, 19084.84
351.3860, 15728.67
352.5910, 13336.32
353.7950, 11342.44
355.0000, 9917.486
356.2040, 8836.955
357.4080, 7998.754
358.6120, 7194.585
359.8150, 6586.446
361.0190, 6099.337
362.2220, 5886.257
363.4250, 5695.208
364.6280, 5392.187
365.8310, 5217.196
367.0340, 5300.234
368.2360, 5420.300
369.4380, 5755.395
370.6400, 6094.488
371.8420, 6616.669
373.0440, 7125.846
374.2450, 7782.051
375.4470, 8558.281
376.6480, 9339.533
377.8490, 10418.81
379.0490, 11156.12
380.2500, 11872.44
381.4500, 11948.79
382.6510, 11853.16
383.8510, 11574.56
385.0500, 11330.97
386.2500, 11431.41
387.4500, 12134.88
388.6490, 13276.36
389.8480, 14995.87
391.0470, 16909.40
392.2460, 19076.95
393.4440, 21769.52
394.6430, 24789.11
395.8410, 27368.73
397.0390, 29930.37
398.2370, 31872.03
399.4340, 32654.71
400.6320, 32537.41
401.8290, 31554.13
403.0260, 29788.88
404.2230, 28124.65
405.4200, 26219.44
406.6170, 24668.88
407.8130, 23488.75
409.0090, 22086.71
410.2050, 21337.06
411.4010, 20450.84
412.5970, 19641.40
413.7920, 19364.55
414.9880, 18584.46
416.1830, 17579.54
417.3780, 17048.25
418.5730, 15903.24
419.7670, 14892.41
420.9620, 13328.61
422.1560, 12030.84
423.3500, 10551.09
424.5440, 8992.367
425.7380, 7451.672
426.9310, 6132.001
428.1240, 5094.355
429.3180, 4250.736
430.5110, 3486.139
431.7030, 2884.567
432.8960, 2507.017
434.0890, 2267.492
435.2810, 2087.989
436.4730, 1924.509
437.6650, 1743.051
438.8570, 1662.615
440.0480, 1610.202
441.2390, 1555.810
442.4310, 1443.439
443.6220, 1281.090
444.8120, 1147.761
446.0030, 947.4536
447.1940, 773.1665
448.3840, 610.9001
449.5740, 638.6543
450.7640, 635.4282
451.9540, 624.2224
453.1430, 563.0364
454.3330, 603.8699
455.5220, 664.7229
456.7110, 671.5950
457.9000, 553.4863
459.0890, 499.3962
460.2770, 399.3252
461.4650, 330.2725
462.6540, 286.2378
463.8420, 267.3369
465.0290, 255.9197
466.2170, 220.9277
467.4050, 226.7310
468.5920, 242.4028
469.7790, 228.2036
470.9660, 231.3535
472.1530, 207.4402
473.3390, 165.2825
474.5250, 140.0884
475.7120, 93.78076
476.8980, 1.435547
478.0840, 4.391113
479.2690, 54.95703
480.4550, 99.79590
481.6400, 61.67285
482.8250, 78.56909
484.0100, 69.49292
485.1950, 40.44043
486.3800, 56.39771
487.5640, 109.3696
488.7480, 114.3799
489.9320, 113.4319
491.1160, 72.52539
492.3000, 101.6377
493.4840, 102.7781
494.6670, 115.9417
495.8500, 72.12451
497.0330, 34.30200
498.2160, 41.46387
499.3990, 20.38647
500.5810, 15.26538
501.7630, 61.17041
502.9460, 59.10303
504.1280, 152.0596
505.3090, 162.0439
506.4910, 337.0549
507.6720, 411.0972
508.8540, 543.1792
510.0350, 762.2925
511.2160, 1031.429
512.3960, 1303.601
513.5770, 1703.805
514.7570, 2192.047
515.9380, 2786.319
517.1180, 3557.628
518.2970, 4330.966
519.4770, 5187.350
520.6570, 6005.759
521.8360, 7217.212
523.0150, 8153.697
524.1940, 8934.225
525.3730, 9115.038
526.5510, 9414.351
527.7300, 8737.973
528.9080, 7994.609
530.0860, 7216.262
531.2640, 6750.946
532.4420, 6324.652
533.6200, 6229.384
534.7970, 6568.139
535.9740, 6952.910
537.1510, 7474.703
538.3280, 7947.508
539.5050, 7776.319
540.6810, 7286.146
541.8580, 6809.997
543.0340, 6232.852
544.2100, 5882.715
545.3860, 5618.583
546.5610, 5565.457
547.7370, 5743.340
548.9120, 6095.230
550.0870, 6241.160
551.2620, 6079.140
552.4370, 5434.178
553.6120, 4733.262
554.7860, 3938.383
555.9600, 3263.538
557.1340, 2686.742
558.3080, 2181.983
559.4820, 1822.247
560.6560, 1659.520
561.8290, 1358.795
563.0020, 1217.071
564.1750, 1151.348
565.3480, 1074.627
566.5210, 1008.906
567.6930, 965.1855
568.8660, 980.4658
570.0380, 917.7456
571.2100, 945.0256
572.3820, 990.3049
573.5530, 964.5836
574.7250, 956.8610
575.8960, 956.1377
577.0670, 955.0859
578.2380, 976.6862
579.4090, 933.9578
580.5800, 943.2273
581.7500, 851.5924
582.9210, 752.0922
584.0910, 734.0210
585.2610, 507.2797
586.4300, 446.5352
587.6000, 376.7874
588.7690, 388.0359
589.9390, 389.2803
591.1080, 349.5205
592.2770, 331.7565
593.4450, 228.9878
594.6140, 266.2146
595.7820, 271.4360
596.9500, 173.6526
598.1190, 181.8635
599.2860, 146.0688
600.4540, 124.2684
601.6220, 114.4619
602.7890, 76.64893
603.9560, 53.82971
605.1230, 31.00171
606.2900, 1.839722
607.4570, 2.291626
608.6230, 31.39734
609.7890, 13.51135
610.9560, 63.54590
612.1220, 4.594116
613.2870, 20.61633
614.4530, 28.38013
615.6180, 23.41980
616.7840, 34.50024
617.9490, 22.07263
619.1140, 53.32605
620.2790, 95.86523
621.4430, 132.8392
622.6080, 137.9692
623.7720, 170.1342
624.9360, 136.7992
626.1000, 219.0925
627.2640, 263.0734
628.4270, 303.4116
629.5910, 386.3522
630.7540, 450.3489
631.9170, 491.2606
633.0800, 456.7617
634.2430, 595.4971
635.4050, 637.8945
636.5680, 646.7886
637.7300, 746.8350
638.8920, 997.6138
640.0540, 1089.581
641.2150, 1245.298
642.3770, 1373.079
643.5380, 1711.035
644.7000, 1952.013
645.8610, 2282.622
647.0210, 2662.494
648.1820, 3244.323
649.3430, 3845.217
650.5030, 4614.307
651.6630, 5637.173
652.8230, 6782.242
653.9830, 8327.962
655.1430, 9939.945
656.3020, 11987.14
657.4620, 14298.74
658.6210, 16547.44
659.7800, 18748.03
660.9390, 20566.22
662.0970, 21775.01
663.2560, 21896.78
664.4140, 20524.81
665.5720, 18453.83
666.7300, 16143.90
667.8880, 14197.49
669.0460, 12424.00
670.2030, 11340.51
671.3600, 10593.94
672.5180, 10453.85
673.6740, 10575.56
674.8310, 11144.31
675.9880, 12217.75
677.1440, 13369.85
678.3010, 14876.06
679.4570, 16572.71
680.6130, 18226.37
681.7690, 19899.51
682.9240, 21016.73
684.0800, 21476.82
685.2350, 20854.89
686.3900, 19189.62
687.5450, 16920.65
688.7000, 14469.69
689.8540, 11854.67
691.0090, 9656.625
692.1630, 7838.556
693.3170, 6321.464
694.4710, 5131.345
695.6250, 4144.203
696.7780, 3522.036
697.9320, 3026.845
699.0850, 2665.627
700.2380, 2204.384
701.3910, 2021.117
702.5440, 1656.824
703.6970, 1501.506
704.8490, 1285.162
706.0010, 1176.794
707.1530, 1077.399
708.3050, 999.9795
709.4570, 893.5344
710.6090, 834.0640
711.7600, 749.5679
712.9110, 685.6115
714.0620, 655.4995
715.2130, 577.9275
716.3640, 518.3296
717.5150, 482.7064
718.6650, 456.0580
719.8150, 422.3839
720.9650, 421.9025
722.1150, 448.9600
723.2650, 435.2097
724.4150, 377.4342
725.5640, 393.6335
726.7130, 351.8073
727.8630, 308.9561
729.0110, 301.0795
730.1600, 282.7858
731.3090, 259.2510
732.4570, 272.2991
733.6060, 265.3219
734.7540, 248.3198
735.9020, 249.8727
737.0490, 228.2407
738.1970, 242.1639
739.3440, 223.0623
740.4920, 234.9358
741.6390, 230.7848
742.7860, 229.4937
743.9320, 195.7120
745.0790, 223.4983
746.2250, 232.4827
747.3720, 210.5908
748.5180, 267.5635
749.6640, 248.1796
750.8100, 298.1294
751.9550, 295.7603
753.1010, 242.6976
754.2460, 228.8870
755.3910, 188.8143
756.5360, 215.3578
757.6810, 137.6294
758.8250, 110.1515
759.9700, 159.6787
761.1140, 151.2020
762.2580, 103.7255
763.4020, 83.24707
764.5460, 42.75916
765.6900, 27.25952
766.8330, 28.75684
767.9760, 27.25366
769.1200, 13.74939
770.2620, 8.770996
771.4050, 30.31165
772.5480, 69.88342
773.6900, 85.50317
774.8330, 55.18970
775.9750, 57.93530
777.1170, 18.73962
778.2590, 15.59485
779.4000, 17.49829
780.5420, 5.235107
781.6830, 22.44617
782.8240, 17.49231
783.9650, 38.58630
785.1060, 70.73865
786.2470, 40.96545
787.3870, 13.25085
788.5280, 58.57947
789.6680, 46.97461
790.8080, 74.42944
791.9480, 47.95764
793.0870, 68.54492
794.2270, 44.20105
795.3660, 110.9128
796.5060, 30.71423
797.6450, 105.5625
798.7830, 68.49634
799.9220, 101.4951
801.0610, 43.57544
802.1990, 28.70593
803.3370, 110.8779
804.4750, 25.13367
805.6130, 9.427368
806.7510, 74.74963
807.8890, 43.13379
809.0260, 52.56250
810.1630, 51.03955
811.3000, 21.56323
812.4370, 50.11707
813.5740, 14.71497
814.7110, 15.66284
815.8470, 26.97241
816.9830, 60.63647
818.1190, 10.65417
819.2550, 2.067261
820.3910, 45.19739
821.5270, 4.450928
822.6620, 21.30713
823.7970, 15.91528
824.9330, 0.6904300
826.0670, 36.32874
827.2020, 33.52051
828.3370, 63.58020
829.4710, 89.87708
830.6060, 93.04260
831.7400, 136.1998
832.8740, 131.3494
834.0080, 174.4917
835.1410, 229.6266
836.2750, 197.7549
837.4080, 263.8766
838.5410, 229.9922
839.6740, 317.1021
840.8070, 354.2064
841.9400, 393.3057
843.0730, 518.4001
844.2050, 605.4905
845.3370, 693.5764
846.4690, 943.6587
847.6010, 1156.738
848.7330, 1344.813
849.8640, 1670.887
850.9960, 2051.958
852.1270, 2421.026
853.2580, 2926.094
854.3890, 3239.160
855.5200, 3442.224
856.6500, 3525.288
857.7810, 3344.352
858.9110, 3204.415
860.0410, 2918.479
861.1710, 2518.543
862.3010, 2214.608
863.4310, 1994.675
864.5600, 1633.743
865.6900, 1391.813
866.8190, 1232.885
867.9480, 1047.959
869.0770, 906.8101
870.2050, 783.1165
871.3340, 685.1998
872.4620, 610.2871
873.5900, 546.3782
874.7180, 457.4734
875.8460, 430.5735
876.9740, 397.6782
878.1010, 341.7882
879.2290, 364.9047
880.3560, 285.0300
881.4830, 278.1718
882.6100, 335.3290
883.7370, 267.4962
884.8630, 341.6836
885.9900, 370.8790
887.1160, 363.0908
888.2420, 402.3159
889.3680, 338.5662
890.4940, 388.8408
891.6200, 430.1279
892.7450, 378.4292
893.8700, 459.7410
894.9960, 468.0624
896.1210, 475.3933
897.2460, 487.7344
898.3700, 501.0850
899.4950, 505.4797
900.6190, 498.1113
901.7430, 497.4246
902.8670, 522.8330
903.9910, 483.2339
905.1150, 544.1111
906.2390, 580.6899
907.3620, 656.9658
908.4850, 718.8008
909.6080, 802.7209
910.7310, 896.5901
911.8540, 1016.342
912.9770, 1180.302
914.0990, 1383.137
915.2210, 1672.604
916.3440, 2003.902
917.4660, 2413.184
918.5870, 3083.841
919.7090, 3639.244
920.8310, 4492.699
921.9520, 5421.091
923.0730, 6412.297
924.1940, 7422.734
925.3150, 8379.979
926.4360, 9010.579
927.5560, 9422.933
928.6770, 9210.079
929.7970, 9027.844
930.9170, 8779.512
932.0370, 8397.315
933.1570, 8028.530
934.2760, 7843.180
935.3960, 7622.861
936.5150, 7419.302
937.6340, 7128.786
938.7530, 6756.236
939.8720, 6236.180
940.9910, 5650.226
942.1090, 5061.286
943.2280, 4490.450
944.3460, 3939.152
945.4640, 3467.103
946.5820, 3120.987
947.6990, 2669.229
948.8170, 2296.829
949.9340, 2106.351
951.0520, 1786.442
952.1690, 1634.550
953.2860, 1345.203
954.4030, 1289.797
955.5190, 1206.538
956.6360, 1132.323
957.7520, 1052.482
958.8680, 1055.373
959.9840, 971.2646
961.1000, 934.2446
962.2160, 869.2610
963.3310, 848.3345
964.4470, 752.4443
965.5620, 773.6006
966.6770, 822.7988
967.7920, 730.0354
968.9060, 787.3213
970.0210, 784.6528
971.1360, 803.0212
972.2500, 831.4360
973.3640, 882.8950
974.4780, 881.3994
975.5920, 932.9458
976.7050, 1056.542
977.8190, 1174.182
978.9320, 1175.862
980.0450, 1244.596
981.1580, 1416.378
982.2710, 1500.209
983.3840, 1669.078
984.4970, 1719.994
985.6090, 1986.953
986.7210, 2348.952
987.8330, 2565.997
988.9450, 2947.083
990.0570, 3269.213
991.1690, 3655.382
992.2800, 4346.595
993.3920, 5051.846
994.5030, 5647.137
995.6140, 6560.469
996.7250, 7693.838
997.8350, 8885.249
998.9460, 10390.70
1000.056, 12039.18
1001.167, 13900.71
1002.277, 16219.27
1003.387, 18768.87
1004.496, 21680.51
1005.606, 24951.18
1006.715, 28474.90
1007.825, 31733.65
1008.934, 34772.44
1010.043, 36435.26
1011.152, 37595.13
1012.260, 37222.02
1013.369, 36770.95
1014.477, 35964.93
1015.586, 36272.95
1016.694, 37099.99
1017.802, 37835.09
1018.909, 39816.20
1020.017, 41409.38
1021.124, 43758.57
1022.232, 45999.81
1023.339, 48458.07
1024.446, 50326.39
1025.553, 52017.73
1026.659, 54140.11
1027.766, 55521.53
1028.872, 56439.98
1029.979, 56213.46
1031.085, 55236.00
1032.191, 53160.57
1033.296, 50134.16
1034.402, 46907.82
1035.507, 43021.51
1036.613, 39013.23
1037.718, 34811.98
1038.823, 31379.79
1039.928, 28149.65
1041.032, 24760.55
1042.137, 21903.53
1043.241, 19270.56
1044.346, 16707.67
1045.450, 14567.83
1046.554, 12748.04
1047.657, 11222.30
1048.761, 9909.614
1049.864, 8907.969
1050.968, 7804.378
1052.071, 7009.369
1053.174, 6395.878
1054.277, 5914.449
1055.379, 5183.073
1056.482, 4736.178
1057.584, 4240.909
1058.687, 3756.146
1059.789, 3504.904
1060.891, 2986.339
1061.992, 2704.839
1063.094, 2446.775
1064.196, 2105.250
1065.297, 1978.591
1066.398, 1745.252
1067.499, 1535.520
1068.600, 1370.819
1069.701, 1327.224
1070.801, 1186.750
1071.902, 1108.464
1073.002, 1032.982
1074.102, 942.8940
1075.202, 862.7759
1076.302, 833.2229
1077.402, 694.9175
1078.501, 622.6455
1079.600, 642.3301
1080.700, 589.7744
1081.799, 564.0789
1082.898, 513.8079
1083.996, 523.8418
1085.095, 450.6387
1086.193, 395.7969
1087.292, 442.5120
1088.390, 370.7285
1089.488, 356.2527
1090.586, 331.2195
1091.683, 274.6133
1092.781, 276.3281
1093.878, 270.0059
1094.975, 249.0967
1096.073, 226.1135
1097.169, 250.0945
1098.266, 211.8906
1099.363, 257.9673
1100.459, 194.4779
1101.556, 219.2469
1102.652, 177.9209
1103.748, 225.7802
1104.844, 202.1528
1105.940, 222.8563
1107.035, 219.5104
1108.131, 238.3187
1109.226, 204.3823
1110.321, 167.9196
1111.416, 177.4231
1112.511, 170.8853
1113.605, 144.0610
1114.700, 164.0471
1115.794, 149.2190
1116.889, 179.9454
1117.983, 196.4561
1119.077, 176.9404
1120.170, 191.3567
1121.264, 190.9281
1122.357, 190.4355
1123.451, 158.1521
1124.544, 171.4564
1125.637, 199.7742
1126.730, 251.0381
1127.823, 183.5432
1128.915, 159.5756
1130.008, 182.6733
1131.100, 245.5187
1132.192, 206.6461
1133.284, 237.5763
1134.376, 198.4940
1135.467, 200.2535
1136.559, 200.0360
1137.650, 185.2522
1138.742, 213.4894
1139.833, 173.2712
1140.924, 174.1686
1142.014, 160.2462
1143.105, 111.0085
1144.195, 66.02234
1145.286, 127.9097
1146.376, 120.7546
1147.466, 64.93066
1148.556, 69.78601
1149.646, 69.81604
1150.735, 35.56079
1151.825, 22.30847
1152.914, 90.05859
1154.003, 65.84937
1155.092, 61.62854
1156.181, 32.46326
1157.270, 21.34900
1158.358, 26.10779
1159.447, 26.86731
1160.535, 18.64502
1161.623, 19.40527
1162.711, 3.165527
1163.799, 34.00391
1164.886, 0.7628170
1165.974, 0.5202640
1167.061, 28.27600
1168.148, 52.02991
1169.235, 45.82703
1170.322, 34.53174
1171.409, 43.27881
1172.496, 54.02271
1173.582, 59.76306
1174.669, 62.49951
1175.755, 13.23157
1176.841, 36.95874
1177.927, 23.68079
1179.012, 47.39734
1180.098, 9.108032
1181.183, 4.812378
1182.269, 24.48999
1183.354, 9.194702
1184.439, 44.87195
1185.524, 6.541382
1186.608, 18.77686
1187.693, 2.870850
1188.777, 18.13379
1189.862, 49.86707
1190.946, 19.27197
1192.030, 18.69312
1193.113, 27.13098
1194.197, 51.58984
1195.281, 63.08301
1196.364, 65.61768
1197.447, 24.19653
1198.530, 86.79871
1199.613, 38.45850
1200.696, 70.10901
1201.779, 22.85303
1202.861, 33.57043
1203.944, 4.354004
1205.026, 35.13965
1206.108, 58.00159
1207.190, 43.91357
1208.271, 58.32605
1209.353, 23.87659
1210.435, 49.91919
1211.516, 29.94385
1212.597, 19.07617
1213.678, 22.11523
1214.759, 48.27917
1215.840, 20.53699
1216.920, 27.77246
1218.001, 50.11243
1219.081, 37.50854
1220.161, 42.95471
1221.241, 0.4549560
1222.321, 35.93433
1223.401, 16.48132
1224.480, 61.12854
1225.560, 22.19495
1226.639, 18.50671
1227.718, 1.746094
1228.797, 16.96301
1229.876, 22.84900
1230.955, 9.711304
1232.033, 35.38281
1233.112, 8.548584
1234.190, 0.4754640
1235.268, 3.541138
1236.346, 16.39905
1237.424, 18.69495
1238.501, 11.15857
1239.579, 23.97437
1240.656, 26.24316
1241.733, 8.518799
1242.811, 2.844238
1243.888, 48.78296
1244.964, 0.6179200
1246.041, 28.93396
1247.117, 36.45105
1248.194, 14.93555
1249.270, 29.37842
1250.346, 25.78528
1251.422, 43.15393
1252.498, 38.48999
1253.573, 53.79138
1254.649, 55.06165
1255.724, 58.98010
1256.800, 51.50964
1257.875, 74.68555
1258.950, 72.83276
1260.024, 96.95081
1261.099, 75.04211
1262.173, 92.10388
1263.248, 96.13806
1264.322, 127.1447
1265.396, 125.1250
1266.470, 134.6960
1267.544, 152.0070
1268.617, 134.9116
1269.691, 112.7900
1270.764, 95.64087
1271.837, 148.4624
1272.910, 105.2576
1273.983, 124.0240
1275.056, 136.7629
1276.129, 96.47461
1277.201, 139.1560
1278.273, 112.8101
1279.346, 175.4352
1280.418, 198.0338
1281.489, 176.6060
1282.561, 165.1516
1283.633, 169.6700
1284.704, 158.1663
1285.776, 147.6349
1286.847, 188.0757
1287.918, 206.4899
1288.989, 177.8781
1290.059, 225.2397
1291.130, 232.5746
1292.200, 166.8765
