##NAMES=Epidote
##RRUFFID=R050191
##IDEAL CHEMISTRY=Ca_2_Fe^3+^Al_2_(Si_2_O_7_)(SiO_4_)O(OH)
##LOCALITY=Pampa Blanca, Castrovirreyna Province, Huancavelica Department, Peru
##OWNER=RRUFF
##SOURCE=Dave Bunk Minerals
##DESCRIPTION=Cluster of green elongated prismatic crystals
##STATUS=The identification of this mineral has been confirmed by X-ray diffraction and chemical analysis
##URL=rruff.info/R050191
##MEASURED CHEMISTRY=Ca_2.00_Al_2.00_(Fe^3+^_0.84_Al_0.16_)(SiO_4_)(Si_2_O_7_)O(OH)
##PIN_ID=L01410
##ORIENTATION=Laser parallel to c* (0 0 1). Fiducial mark perpendicular to laser is parallel to -a [-1 0 0]
53.91000, 0.0000000E+00
55.14900, 59.11725
56.38700, 103.9913
57.62600, 168.2538
58.86400, 239.5900
60.10300, 257.0390
61.34100, 141.6371
62.57900, 57.00360
63.81700, 29.39825
65.05400, 62.02679
66.29200, 51.36133
67.52900, 7.853516
68.76700, 156.0941
70.00400, 271.1290
71.24100, 283.9418
72.47700, 432.2590
73.71400, 774.8308
74.95100, 1277.412
76.18700, 1665.771
77.42300, 2275.709
78.65900, 3221.055
79.89500, 4537.656
81.13100, 6130.386
82.36700, 8045.134
83.60200, 10349.80
84.83700, 12497.30
86.07200, 14643.53
87.30800, 16033.43
88.54200, 16321.91
89.77700, 16000.92
91.01200, 15006.38
92.24600, 13463.21
93.48000, 12324.28
94.71400, 11127.49
95.94800, 9283.766
97.18200, 7957.049
98.41600, 6550.314
99.64900, 5483.558
100.8830, 4587.746
102.1160, 3942.843
103.3490, 3368.809
104.5820, 3241.625
105.8150, 3324.297
107.0470, 3119.217
108.2800, 2881.552
109.5120, 3061.507
110.7440, 2342.556
111.9760, 2078.384
113.2080, 2006.969
114.4400, 2195.287
115.6710, 2036.321
116.9030, 1861.052
118.1340, 1696.461
119.3650, 1637.534
120.5960, 1449.256
121.8270, 1594.613
123.0580, 1596.590
124.2880, 1422.176
125.5190, 1305.359
126.7490, 1238.127
127.9790, 1301.356
129.2090, 1217.684
130.4390, 1287.094
131.6680, 1151.572
132.8980, 1143.105
134.1270, 1177.686
135.3560, 1206.430
136.5850, 1321.382
137.8140, 1412.562
139.0430, 1499.984
140.2710, 1288.739
141.5000, 1323.992
142.7280, 1417.948
143.9560, 1429.637
145.1840, 1561.735
146.4120, 1716.103
147.6390, 1802.748
148.8670, 1977.675
150.0940, 2170.893
151.3210, 2405.408
152.5490, 2600.225
153.7750, 2863.361
155.0020, 3257.088
156.2290, 3736.621
157.4550, 4433.030
158.6810, 5205.264
159.9080, 6486.955
161.1340, 7824.939
162.3590, 9557.188
163.5850, 11535.70
164.8110, 13751.48
166.0360, 16087.53
167.2610, 18499.85
168.4860, 20478.43
169.7110, 22019.28
170.9360, 22071.39
172.1610, 21019.77
173.3850, 19276.42
174.6100, 17188.34
175.8340, 14842.52
177.0580, 12532.97
178.2820, 10745.68
179.5050, 9037.664
180.7290, 7669.906
181.9520, 6477.409
183.1760, 5607.177
184.3990, 4955.203
185.6220, 4544.491
186.8450, 4174.035
188.0670, 3800.836
189.2900, 3581.896
190.5120, 3382.208
191.7340, 3289.775
192.9560, 3249.596
194.1780, 3278.666
195.4000, 3425.988
196.6220, 3554.559
197.8430, 3761.377
199.0640, 3790.442
200.2860, 4094.752
201.5070, 3902.217
202.7270, 3823.404
203.9480, 3559.306
205.1690, 3140.120
206.3890, 3065.622
207.6090, 2974.979
208.8290, 2872.445
210.0490, 2792.995
211.2690, 2850.806
212.4890, 3026.191
213.7080, 3305.065
214.9280, 3618.001
216.1470, 4110.510
217.3660, 4834.486
218.5850, 5711.915
219.8030, 6682.779
221.0220, 7976.066
222.2400, 9552.762
223.4590, 11008.85
224.6770, 12539.50
225.8950, 13771.06
227.1120, 14676.63
228.3300, 15156.86
229.5480, 15073.45
230.7650, 14591.66
231.9820, 14003.40
233.1990, 13225.42
234.4160, 12914.42
235.6330, 12484.91
236.8490, 12365.70
238.0660, 12325.78
239.2820, 11988.14
240.4980, 11525.79
241.7140, 10730.73
242.9300, 9503.992
244.1460, 8141.576
245.3610, 6852.458
246.5770, 5477.637
247.7920, 4601.124
249.0070, 3643.894
250.2220, 2914.938
251.4370, 2393.260
252.6510, 1929.122
253.8660, 1567.611
255.0800, 1455.698
256.2940, 1344.481
257.5080, 1583.394
258.7220, 1882.584
259.9360, 1545.210
261.1490, 1405.796
262.3630, 1595.633
263.5760, 2005.272
264.7890, 2502.188
266.0020, 3064.167
267.2150, 3816.344
268.4270, 4810.712
269.6400, 5734.275
270.8520, 6816.025
272.0640, 7600.963
273.2760, 7510.085
274.4880, 7121.389
275.7000, 6256.877
276.9120, 5388.548
278.1230, 4262.402
279.3340, 3333.439
280.5450, 2708.662
281.7560, 2106.066
282.9670, 1983.655
284.1780, 1730.426
285.3880, 1505.378
286.5980, 1689.511
287.8090, 1652.824
289.0190, 1638.313
290.2290, 1775.975
291.4380, 1785.810
292.6480, 1944.815
293.8570, 1883.992
295.0670, 1910.338
296.2760, 2003.854
297.4850, 1945.539
298.6930, 1759.391
299.9020, 1664.410
301.1110, 1724.594
302.3190, 1522.938
303.5270, 1697.442
304.7350, 1586.101
305.9430, 1496.914
307.1510, 1417.879
308.3580, 1426.997
309.5660, 1170.267
310.7730, 1233.687
311.9800, 1060.258
313.1870, 1093.979
314.3940, 972.8486
315.6010, 912.8672
316.8070, 1066.034
318.0130, 1083.349
319.2200, 1113.810
320.4260, 1054.417
321.6310, 1200.170
322.8370, 1273.068
324.0430, 1231.111
325.2480, 1264.298
326.4540, 1314.627
327.6590, 1426.099
328.8640, 1673.712
330.0680, 1938.467
331.2730, 2315.363
332.4780, 2874.397
333.6820, 3312.571
334.8860, 3959.885
336.0900, 4815.334
337.2940, 5791.920
338.4980, 7172.641
339.7010, 8671.498
340.9050, 10612.49
342.1080, 12681.61
343.3110, 14782.87
344.5140, 16819.26
345.7170, 18235.78
346.9200, 18923.49
348.1220, 19124.38
349.3240, 17776.46
350.5270, 16190.75
351.7290, 14148.22
352.9310, 11984.89
354.1320, 9898.744
355.3340, 8125.794
356.5350, 6422.050
357.7370, 5098.501
358.9380, 3875.143
360.1390, 3066.963
361.3400, 2212.959
362.5400, 1825.130
363.7410, 1222.474
364.9410, 866.9873
366.1410, 577.6714
367.3410, 164.5220
368.5410, 0.4614260
369.7410, 244.2861
370.9400, 181.0229
372.1400, 286.6519
373.3390, 443.2129
374.5380, 381.7661
375.7370, 514.2915
376.9360, 241.8408
378.1350, 155.3145
379.3330, 251.3159
380.5310, 464.0986
381.7300, 948.0312
382.9280, 1320.113
384.1260, 1811.771
385.3230, 2224.167
386.5210, 2333.114
387.7180, 2510.591
388.9160, 2181.717
390.1130, 1857.871
391.3100, 1545.655
392.5060, 962.5859
393.7030, 618.0312
394.9000, 276.7461
396.0960, 17.10059
397.2920, 262.2671
398.4880, 376.4199
399.6840, 403.6860
400.8800, 518.9912
402.0750, 418.3848
403.2710, 619.8276
404.4660, 473.4058
405.6610, 288.0586
406.8560, 99.71191
408.0510, 76.29346
409.2450, 239.2026
410.4400, 468.8188
411.6340, 929.5557
412.8280, 1492.412
414.0220, 2122.386
415.2160, 3039.479
416.4100, 4193.687
417.6030, 5528.011
418.7970, 6940.451
419.9900, 8761.008
421.1830, 10493.67
422.3760, 12159.45
423.5690, 13994.35
424.7610, 15684.36
425.9540, 17851.48
427.1460, 20315.72
428.3380, 23279.07
429.5300, 26302.54
430.7220, 29327.14
431.9140, 31329.85
433.1050, 32472.71
434.2970, 32142.69
435.4880, 30273.79
436.6790, 28082.03
437.8700, 25455.42
439.0610, 23120.94
440.2510, 21154.61
441.4420, 20164.42
442.6320, 19564.36
443.8220, 19249.44
445.0120, 19594.68
446.2020, 20264.05
447.3910, 20980.58
448.5810, 21731.27
449.7700, 22079.10
450.9600, 22162.07
452.1490, 22223.19
453.3370, 21608.45
454.5260, 20489.86
455.7150, 19208.42
456.9030, 17174.13
458.0910, 14976.98
459.2800, 12973.98
460.4670, 11092.13
461.6550, 9130.434
462.8430, 7700.894
464.0300, 6401.502
465.2180, 5241.268
466.4050, 4395.167
467.5920, 3563.196
468.7790, 3103.345
469.9650, 2375.637
471.1520, 2002.060
472.3380, 1774.598
473.5250, 1472.258
474.7110, 1285.019
475.8970, 1136.887
477.0820, 1046.854
478.2680, 1003.982
479.4540, 1032.081
480.6390, 1075.324
481.8240, 1166.648
483.0090, 1341.049
484.1940, 1481.523
485.3780, 1865.070
486.5630, 2173.688
487.7470, 2535.405
488.9320, 2832.129
490.1160, 3440.957
491.3000, 4109.850
492.4830, 4757.810
493.6670, 5709.836
494.8500, 6425.927
496.0340, 7299.084
497.2170, 8129.310
498.4000, 8706.602
499.5820, 9058.960
500.7650, 9479.396
501.9480, 9976.896
503.1300, 10170.46
504.3120, 10533.09
505.4940, 10954.80
506.6760, 10776.57
507.8580, 10613.42
509.0390, 9718.326
510.2210, 8606.288
511.4020, 7270.124
512.5830, 6099.491
513.7640, 4765.247
514.9450, 3956.757
516.1250, 2936.297
517.3060, 2348.603
518.4860, 1666.749
519.6660, 1189.976
520.8460, 923.5815
522.0260, 545.0410
523.2060, 294.5420
524.3850, 213.0845
525.5650, 73.66650
526.7440, 29.27148
527.9230, 138.1201
529.1020, 164.5776
530.2810, 54.11621
531.4590, 90.68945
532.6380, 139.3140
533.8160, 39.01221
534.9940, 25.74268
536.1720, 47.50098
537.3500, 52.70215
538.5270, 15.61963
539.7050, 92.15332
540.8820, 226.3423
542.0590, 224.0903
543.2360, 357.9619
544.4130, 444.8047
545.5900, 488.4561
546.7660, 703.3901
547.9430, 922.3110
549.1190, 1171.665
550.2950, 1581.975
551.4710, 1915.449
552.6470, 2420.952
553.8220, 3227.481
554.9980, 4162.040
556.1730, 5291.623
557.3480, 6809.231
558.5230, 8665.865
559.6980, 10617.52
560.8730, 12526.20
562.0470, 13826.90
563.2220, 14385.63
564.3960, 13368.48
565.5700, 11595.04
566.7440, 10049.39
567.9170, 8496.455
569.0910, 7233.205
570.2640, 6461.098
571.4380, 5806.583
572.6110, 5678.481
573.7840, 5875.647
574.9570, 6234.843
576.1290, 6903.071
577.3020, 7797.515
578.4740, 8679.195
579.6460, 10046.35
580.8180, 11609.81
581.9900, 13070.52
583.1620, 14718.05
584.3330, 16372.84
585.5040, 18176.00
586.6760, 19930.31
587.8470, 21842.47
589.0180, 23905.66
590.1880, 26005.88
591.3590, 28572.52
592.5290, 31387.90
593.7000, 33844.22
594.8700, 35613.42
596.0400, 36787.18
597.2090, 36637.11
598.3790, 35269.41
599.5490, 33716.51
600.7180, 31778.57
601.8870, 29491.89
603.0560, 27633.68
604.2250, 26062.61
605.3940, 24984.73
606.5620, 24115.28
607.7300, 23423.59
608.8990, 22894.30
610.0670, 22306.82
611.2350, 21430.49
612.4020, 20344.94
613.5700, 18921.89
614.7370, 17458.78
615.9050, 15442.58
617.0720, 13630.70
618.2390, 11799.53
619.4060, 10202.81
620.5720, 8717.389
621.7390, 7478.149
622.9050, 6474.271
624.0710, 5553.671
625.2370, 4971.953
626.4030, 4503.122
627.5690, 4088.048
628.7340, 3593.200
629.9000, 3316.981
631.0650, 2996.836
632.2300, 2770.784
633.3950, 2506.039
634.5600, 2264.921
635.7240, 2220.665
636.8890, 2011.293
638.0530, 1896.123
639.2170, 1826.240
640.3810, 1610.094
641.5450, 1535.969
642.7080, 1417.081
643.8720, 1340.021
645.0350, 1251.443
646.1980, 1165.598
647.3610, 1096.838
648.5240, 1012.111
649.6870, 948.6440
650.8490, 865.7778
652.0120, 786.4927
653.1740, 762.6152
654.3360, 696.1558
655.4980, 724.9551
656.6600, 710.4375
657.8210, 699.0044
658.9830, 511.8960
660.1440, 518.9551
661.3050, 482.7812
662.4660, 501.3721
663.6270, 479.8872
664.7870, 503.3340
665.9480, 410.2852
667.1080, 366.5757
668.2680, 433.3906
669.4280, 348.7510
670.5880, 371.5342
671.7480, 430.3608
672.9070, 363.6284
674.0670, 308.8169
675.2260, 405.5586
676.3850, 334.0962
677.5440, 392.2598
678.7030, 295.7964
679.8610, 424.3271
681.0200, 333.9541
682.1780, 332.5952
683.3360, 278.2754
684.4940, 392.9736
685.6520, 337.7314
686.8090, 299.5181
687.9670, 366.2959
689.1240, 332.0283
690.2810, 332.7109
691.4380, 321.3218
692.5950, 427.8608
693.7520, 385.3267
694.9080, 317.7197
696.0650, 317.0391
697.2210, 480.2856
698.3770, 320.4570
699.5330, 367.5552
700.6880, 373.5781
701.8440, 287.5264
702.9990, 264.3989
704.1550, 198.1938
705.3100, 217.9048
706.4650, 251.5327
707.6190, 190.0815
708.7740, 77.54346
709.9290, 59.89990
711.0830, 80.14307
712.2370, 3.279297
713.3910, 72.27881
714.5450, 20.16797
715.6980, 7.1777001E-02
716.8520, 51.45166
718.0050, 26.99902
719.1580, 31.70117
720.3110, 35.56006
721.4640, 16.57910
722.6170, 41.13818
723.7700, 71.07812
724.9220, 77.58691
726.0740, 91.27783
727.2260, 108.1572
728.3780, 77.23486
729.5300, 68.49316
730.6810, 80.92725
731.8330, 96.54492
732.9840, 95.35303
734.1350, 73.35205
735.2860, 156.5278
736.4370, 67.92529
737.5880, 129.4966
738.7380, 98.27393
739.8880, 183.2412
741.0390, 144.4414
742.1890, 131.8535
743.3380, 168.4717
744.4880, 81.31250
745.6380, 79.33008
746.7870, 39.52344
747.9360, 133.8701
749.0850, 90.41846
750.2340, 41.14551
751.3830, 67.02441
752.5310, 11.93311
753.6800, 21.23096
754.8280, 3.466797
755.9760, 9.958984
757.1240, 51.48535
758.2720, 80.84033
759.4190, 124.5293
760.5670, 165.2129
761.7140, 219.2754
762.8610, 229.2588
764.0080, 242.1631
765.1550, 333.9902
766.3020, 219.7427
767.4480, 156.4180
768.5950, 260.0093
769.7410, 222.5254
770.8870, 178.9653
772.0330, 212.3262
773.1780, 126.6108
774.3240, 59.81250
775.4690, 105.9224
776.6140, 77.94775
777.7590, 26.11426
778.9040, 80.70898
780.0490, 4.446777
781.1940, 6.086914
782.3380, 46.36816
783.4820, 75.05615
784.6260, 58.60205
785.7700, 15.61621
786.9140, 53.74512
788.0580, 9.791016
789.2010, 27.74805
790.3450, 64.61963
791.4880, 27.41211
792.6310, 79.12158
793.7730, 101.7534
794.9160, 91.31201
796.0590, 165.7964
797.2010, 139.2124
798.3430, 158.5591
799.4850, 183.8384
800.6270, 241.0522
801.7690, 259.2021
802.9100, 349.2896
804.0520, 361.3223
805.1930, 329.3086
806.3340, 387.2856
807.4750, 381.2593
808.6160, 427.2070
809.7560, 460.1367
810.8970, 483.0596
812.0370, 583.9561
813.1770, 652.8228
814.3170, 729.6650
815.4570, 748.4639
816.5960, 763.2256
817.7360, 911.9370
818.8750, 1060.591
820.0140, 1190.189
821.1530, 1230.730
822.2920, 1461.213
823.4310, 1615.641
824.5690, 1718.011
825.7070, 1936.325
826.8460, 2165.582
827.9840, 2380.784
829.1220, 2417.931
830.2590, 2405.023
831.3970, 2640.062
832.5340, 2485.046
833.6710, 2506.979
834.8080, 2457.858
835.9450, 2500.686
837.0820, 2336.462
838.2190, 2439.188
839.3550, 2269.862
840.4910, 2304.370
841.6270, 2264.150
842.7630, 2194.116
843.8990, 2267.325
845.0350, 2406.821
846.1700, 2367.146
847.3060, 2478.846
848.4410, 2398.104
849.5760, 2517.059
850.7100, 2753.954
851.8450, 2747.784
852.9800, 2880.369
854.1140, 3044.682
855.2480, 3069.486
856.3820, 3304.956
857.5160, 3329.147
858.6500, 3403.499
859.7830, 3559.280
860.9170, 3520.159
862.0500, 3624.609
863.1830, 3766.186
864.3160, 3850.692
865.4480, 3958.135
866.5810, 3967.127
867.7130, 4117.342
868.8460, 4161.587
869.9780, 4283.918
871.1100, 4552.651
872.2410, 4733.185
873.3730, 4854.311
874.5050, 4913.604
875.6360, 5310.896
876.7670, 5326.899
877.8980, 5717.390
879.0290, 5773.738
880.1590, 5969.851
881.2900, 6148.508
882.4200, 6344.358
883.5500, 6659.784
884.6800, 6881.377
885.8100, 7060.789
886.9400, 7244.387
888.0690, 7494.468
889.1990, 7873.585
890.3280, 8278.753
891.4570, 8882.584
892.5860, 9446.672
893.7140, 10317.27
894.8430, 11280.55
895.9710, 12498.62
897.1000, 13502.29
898.2280, 15066.66
899.3560, 16757.11
900.4830, 18577.66
901.6110, 20639.42
902.7380, 23252.92
903.8660, 26071.75
904.9930, 29137.48
906.1200, 32673.09
907.2460, 36623.36
908.3730, 40507.97
909.5000, 44331.71
910.6260, 48573.53
911.7520, 51816.10
912.8780, 54646.36
914.0040, 55340.86
915.1290, 55330.28
916.2550, 53638.45
917.3800, 50410.74
918.5050, 46841.53
919.6300, 41300.12
920.7550, 36705.44
921.8800, 32335.26
923.0040, 28076.80
924.1290, 24315.69
925.2530, 20958.97
926.3770, 18101.85
927.5010, 15596.30
928.6250, 13991.49
929.7480, 11977.05
930.8720, 10737.54
931.9950, 9360.774
933.1180, 8305.846
934.2410, 7334.154
935.3640, 6550.843
936.4860, 5958.214
937.6090, 5483.795
938.7310, 5178.412
939.8530, 4668.238
940.9750, 4219.744
942.0970, 3931.464
943.2180, 3605.225
944.3400, 3434.021
945.4610, 3082.852
946.5820, 2988.716
947.7030, 2980.616
948.8240, 2904.551
949.9450, 2707.520
951.0650, 2701.529
952.1860, 2523.575
953.3060, 2488.661
954.4260, 2464.784
955.5460, 2509.944
956.6650, 2446.145
957.7850, 2419.876
958.9040, 2379.663
960.0230, 2261.981
961.1420, 2175.341
962.2610, 2093.403
963.3800, 2036.188
964.4990, 1924.675
965.6170, 1884.204
966.7350, 1835.775
967.8530, 1760.389
968.9710, 1905.047
970.0890, 1863.749
971.2070, 2029.499
972.3240, 2328.292
973.4410, 2623.131
974.5580, 2703.029
975.6750, 2964.973
976.7920, 3047.972
977.9090, 3061.019
979.0250, 2933.115
980.1410, 2973.266
981.2580, 2595.503
982.3740, 2298.809
983.4890, 1965.185
984.6050, 1712.651
985.7200, 1395.189
986.8360, 1130.802
987.9510, 978.5063
989.0660, 809.3081
990.1810, 818.2139
991.2950, 740.2217
992.4100, 608.3438
993.5240, 484.5864
994.6390, 423.9487
995.7530, 354.4438
996.8660, 329.0591
997.9800, 316.8027
999.0940, 222.6733
1000.207, 159.6514
1001.320, 138.7397
1002.433, 166.9331
1003.546, 163.2358
1004.659, 145.4697
1005.772, 120.8105
1006.884, 114.8809
1007.996, 52.63965
1009.108, 49.51514
1010.220, 57.68311
1011.332, 190.0737
1012.444, 105.9521
1013.555, 203.0264
1014.666, 200.6782
1015.777, 164.2671
1016.888, 346.9624
1017.999, 360.2197
1019.110, 347.5029
1020.220, 383.5815
1021.331, 431.7158
1022.441, 515.6353
1023.551, 584.4038
1024.661, 657.1211
1025.770, 785.5674
1026.880, 768.8315
1027.989, 943.9590
1029.098, 993.6445
1030.207, 1207.191
1031.316, 1357.715
1032.425, 1489.616
1033.533, 1535.545
1034.642, 1875.618
1035.750, 1945.484
1036.858, 2015.164
1037.966, 2320.058
1039.073, 2200.052
1040.181, 2224.647
1041.288, 2335.022
1042.396, 2272.206
1043.503, 2044.284
1044.610, 1964.703
1045.716, 1929.645
1046.823, 1762.179
1047.929, 1788.571
1049.036, 1577.353
1050.142, 1486.079
1051.248, 1392.820
1052.353, 1496.810
1053.459, 1398.729
1054.564, 1392.825
1055.670, 1250.880
1056.775, 1290.601
1057.880, 1373.777
1058.985, 1273.637
1060.089, 1232.924
1061.194, 1063.268
1062.298, 1045.666
1063.402, 1078.115
1064.506, 944.9619
1065.610, 996.8242
1066.713, 937.8975
1067.817, 976.2437
1068.920, 1058.332
1070.023, 1111.071
1071.126, 1372.067
1072.229, 1550.901
1073.332, 1735.694
1074.435, 2173.621
1075.537, 2555.400
1076.639, 3058.764
1077.741, 3533.827
1078.843, 4443.936
1079.945, 5478.096
1081.046, 6559.299
1082.148, 7946.548
1083.249, 8887.568
1084.350, 9864.965
1085.451, 10046.18
1086.551, 9804.613
1087.652, 8786.080
1088.752, 7897.034
1089.853, 6608.587
1090.953, 5403.265
1092.053, 4414.220
1093.152, 3493.895
1094.252, 2753.218
1095.351, 2218.563
1096.451, 1877.358
1097.550, 1492.543
1098.649, 1273.415
1099.748, 1065.325
1100.846, 968.7642
1101.945, 771.7505
1103.043, 844.8066
1104.141, 643.8682
1105.239, 695.0464
1106.337, 557.4951
1107.434, 590.6660
1108.532, 461.7754
1109.629, 483.0181
1110.726, 472.3315
1111.823, 355.2808
1112.920, 487.7974
1114.017, 562.6094
1115.113, 568.7915
1116.210, 862.2456
1117.306, 1203.154
1118.402, 1326.895
1119.498, 1610.044
1120.593, 1832.092
1121.689, 1777.800
1122.784, 1724.290
1123.879, 1643.453
1124.974, 1346.267
1126.069, 1061.322
1127.164, 673.7520
1128.259, 609.5273
1129.353, 321.6187
1130.447, 212.1636
1131.541, 134.8359
1132.635, 64.04297
1133.729, 38.39990
1134.822, 9.531250
1135.916, 19.29590
1137.009, 20.79785
1138.102, 1.237305
1139.195, 33.42773
1140.288, 6.425781
1141.380, 12.54199
1142.473, 17.51367
1143.565, 94.47656
1144.657, 35.66211
1145.749, 50.62891
1146.841, 9.975586
1147.932, 57.17725
1149.024, 84.53369
1150.115, 53.48096
1151.206, 43.41162
1152.297, 113.0269
1153.388, 38.79346
1154.479, 103.7808
1155.569, 48.79297
1156.659, 2.209961
1157.750, 28.80273
1158.839, 76.54688
1159.929, 63.26709
1161.019, 29.31445
1162.108, 53.94189
1163.198, 35.00586
1164.287, 82.83154
1165.376, 34.92773
1166.465, 27.03320
1167.553, 18.93018
1168.642, 49.04688
1169.730, 49.17725
1170.818, 37.32471
1171.906, 0.5156250
1172.994, 110.6113
1174.082, 16.81689
1175.170, 58.96973
1176.257, 57.01416
1177.344, 13.82373
1178.431, 15.41699
1179.518, 4.337891
1180.605, 88.08154
1181.691, 17.17432
1182.778, 20.44629
1183.864, 21.28418
1184.950, 18.00781
1186.036, 40.68408
1187.122, 4.536621
1188.207, 23.09473
1189.292, 3.237305
1190.378, 55.41650
1191.463, 68.06445
1192.548, 29.84033
1193.632, 39.47266
1194.717, 14.87354
1195.801, 13.18115
1196.886, 54.55566
1197.970, 2.074219
1199.054, 10.72412
1200.137, 45.32324
1201.221, 19.05420
1202.305, 65.06445
1203.388, 2.062012
1204.471, 62.80713
1205.554, 13.75244
1206.637, 20.37842
1207.719, 44.05518
1208.802, 71.44287
1209.884, 91.64502
1210.966, 53.44482
1212.048, 129.1816
1213.130, 16.90576
1214.212, 42.62012
1215.293, 16.58838
1216.374, 78.22803
1217.456, 62.71533
1218.536, 31.99805
1219.617, 152.3164
1220.698, 50.62744
1221.778, 40.82617
1222.859, 157.9810
1223.939, 34.11816
1225.019, 36.23047
1226.099, 87.31885
1227.178, 47.38818
1228.258, 154.4346
1229.337, 119.4614
1230.417, 47.54199
1231.496, 76.55371
1232.574, 35.60059
1233.653, 107.7422
1234.732, 72.69727
