##NAMES=Epidote
##RRUFFID=R040092
##IDEAL CHEMISTRY=Ca_2_Fe^3+^Al_2_(Si_2_O_7_)(SiO_4_)O(OH)
##LOCALITY=Nahant, Massachusetts, USA
##OWNER=RRUFF
##SOURCE=University of Arizona Mineral Museum
##DESCRIPTION=Green prismatic crystals imbedded in quartz
##STATUS=The identification of this mineral has been confirmed by X-ray diffraction and chemical analysis
##URL=rruff.info/R040092
##MEASURED CHEMISTRY=Ca_2.01_Al_2.00_Fe_1.00_(Si_1.00_O_4_)(Si_1.97_Fe_0.02_Al_0.01_Ti_0.01_O_7_)O(OH)
##PIN_ID=S00018
##ORIENTATION=Laser parallel to b* (0 1 0). Fiducial mark perpendicular to laser is parallel to c [0 0 1]
51.466, 0.000
52.866, 67.005
54.266, 91.880
55.666, 144.570
57.065, 170.677
58.464, 240.698
59.863, 300.492
61.262, 183.403
62.661, 124.292
64.059, 24.455
65.458, 35.418
66.856, 55.684
68.253, 103.701
69.651, 10.805
71.048, 100.717
72.445, 325.639
73.842, 647.796
75.239, 1104.992
76.635, 1834.012
78.031, 2798.651
79.427, 4459.714
80.823, 6670.030
82.218, 9789.441
83.614, 13194.812
85.009, 17017.016
86.404, 21163.928
87.798, 24624.496
89.193, 27420.701
90.587, 27744.482
91.981, 25591.850
93.375, 21332.951
94.768, 17293.664
96.161, 13888.822
97.554, 11220.271
98.947, 9093.894
100.340, 7186.593
101.732, 5668.293
103.124, 4701.927
104.516, 4057.438
105.908, 3733.780
107.300, 3281.911
108.691, 2887.795
110.082, 2571.401
111.473, 2427.698
112.864, 2283.664
114.254, 2229.401
115.644, 2384.514
117.034, 2371.358
118.424, 2456.794
119.813, 2775.805
121.203, 3233.377
122.592, 3969.497
123.981, 5005.886
125.369, 6569.663
126.758, 8475.867
128.146, 10515.492
129.534, 13341.652
130.922, 15640.623
132.309, 17269.207
133.696, 16233.902
135.083, 13706.885
136.470, 10079.734
137.857, 7534.451
139.243, 5657.026
140.630, 4458.468
142.016, 3675.765
143.401, 3356.905
144.787, 3199.001
146.172, 3138.125
147.557, 2986.298
148.942, 2497.545
150.327, 2079.882
151.711, 1816.326
153.096, 1780.890
154.480, 1848.587
155.863, 2048.430
157.247, 2503.948
158.630, 2997.589
160.013, 3847.922
161.396, 4845.433
162.779, 5912.126
164.161, 7052.010
165.544, 8240.089
166.926, 8889.368
168.308, 8807.849
169.689, 8092.534
171.070, 7103.433
172.452, 5978.544
173.833, 4943.868
175.213, 4186.409
176.594, 3384.168
177.974, 2826.144
179.354, 2449.337
180.734, 2126.750
182.114, 1911.383
183.493, 1951.235
184.872, 1925.310
186.251, 1989.605
187.630, 2051.124
189.008, 2101.864
190.387, 2262.829
191.765, 2397.018
193.143, 2727.431
194.520, 3120.883
195.898, 3768.525
197.275, 4414.302
198.652, 5253.887
200.029, 6069.703
201.405, 6618.752
202.782, 6962.034
204.158, 7048.545
205.534, 6915.290
206.909, 6505.801
208.285, 6522.657
209.660, 6703.599
211.035, 7373.114
212.410, 7888.378
213.784, 7942.630
215.159, 9017.880
216.533, 10245.654
217.907, 11600.062
219.281, 13642.409
220.654, 15367.653
222.027, 17567.734
223.400, 19936.787
224.773, 21792.580
226.146, 23404.066
227.518, 23638.562
228.891, 22734.768
230.263, 20628.945
231.634, 17808.006
233.006, 14846.923
234.377, 12446.963
235.748, 10977.866
237.119, 10128.322
238.490, 10159.176
239.860, 10183.420
241.231, 10469.039
242.601, 10194.020
243.970, 9422.350
245.340, 8003.020
246.709, 6404.018
248.079, 5207.338
249.448, 4119.971
250.816, 3389.909
252.185, 2882.147
253.553, 2550.675
254.921, 2158.488
256.289, 2043.579
257.657, 1810.941
259.024, 1781.568
260.391, 1941.454
261.758, 2031.591
263.125, 2576.976
264.492, 3206.602
265.858, 4248.466
267.224, 5888.565
268.590, 7744.894
269.956, 10546.455
271.321, 13431.234
272.687, 16295.241
274.052, 18630.471
275.416, 20173.908
276.781, 18745.564
278.146, 15400.433
279.510, 12017.511
280.874, 8803.796
282.237, 6712.289
283.601, 5158.983
284.964, 4335.880
286.327, 4097.975
287.690, 4180.270
289.053, 4525.755
290.416, 5101.427
291.778, 5744.284
293.140, 6093.323
294.502, 6127.544
295.863, 6227.940
297.225, 6081.497
298.586, 5695.208
299.947, 5326.069
301.308, 4657.086
302.668, 4144.257
304.029, 3639.584
305.389, 3312.068
306.749, 3038.711
308.108, 2718.514
309.468, 2256.478
310.827, 1997.602
312.186, 1880.887
313.545, 1784.334
314.903, 1756.943
316.262, 1851.713
317.620, 2276.646
318.978, 2670.739
320.336, 3427.993
321.693, 4021.408
323.051, 4578.984
324.408, 4504.720
325.765, 4446.617
327.121, 3538.673
328.478, 2659.889
329.834, 1736.263
331.190, 1022.795
332.546, 336.485
333.902, 57.333
335.257, 280.664
336.612, 381.558
337.967, 519.369
339.322, 314.125
340.677, 157.786
342.031, 70.674
343.385, 462.288
344.739, 904.054
346.093, 1263.972
347.446, 1622.042
348.799, 1808.263
350.153, 1908.634
351.505, 1715.155
352.858, 1374.826
354.210, 865.644
355.563, 605.610
356.915, 237.724
358.267, 51.921
359.618, 239.934
360.969, 364.795
362.321, 514.581
363.672, 583.320
365.022, 650.131
366.373, 695.722
367.723, 696.410
369.073, 706.093
370.423, 677.828
371.773, 711.738
373.122, 629.905
374.471, 337.340
375.821, 216.980
377.169, 100.210
378.518, 421.439
379.866, 1040.819
381.215, 1657.385
382.563, 2300.136
383.910, 3073.073
385.258, 3921.206
386.605, 4711.553
387.952, 4998.136
389.299, 5020.951
390.646, 4590.998
391.992, 3850.287
393.339, 2933.835
394.685, 2308.636
396.031, 1785.724
397.376, 1373.066
398.722, 1222.677
400.067, 977.539
401.412, 972.666
402.757, 1121.064
404.101, 1208.746
405.446, 1389.690
406.790, 1764.885
408.134, 2319.323
409.478, 2985.034
410.821, 3897.005
412.165, 5044.229
413.508, 6803.720
414.851, 9014.461
416.193, 11729.442
417.536, 15396.670
418.878, 19877.143
420.220, 24601.846
421.562, 28528.779
422.904, 33316.938
424.245, 35186.336
425.586, 34052.961
426.927, 32030.805
428.268, 27500.881
429.609, 24463.164
430.949, 21880.666
432.289, 20210.365
433.629, 18255.295
434.969, 17135.416
436.309, 15318.744
437.648, 14145.257
438.987, 13228.958
440.326, 12617.845
441.665, 13206.899
443.003, 14714.124
444.342, 16822.500
445.680, 19523.033
447.018, 23076.711
448.355, 25784.537
449.693, 28328.500
451.030, 29251.613
452.367, 29613.857
453.704, 28412.254
455.041, 27937.775
456.377, 26220.430
457.713, 24113.219
459.049, 20871.135
460.385, 17730.186
461.721, 14839.368
463.056, 11778.674
464.391, 9780.105
465.726, 7951.664
467.061, 6403.350
468.395, 5282.158
469.730, 4705.088
471.064, 3760.142
472.398, 3372.312
473.731, 2693.600
475.065, 2404.003
476.398, 2197.521
477.731, 2052.154
479.064, 1964.900
480.397, 2071.759
481.729, 2156.728
483.062, 2345.809
484.394, 2535.998
485.725, 2878.292
487.057, 3251.739
488.389, 3813.218
489.720, 4406.838
491.051, 5193.562
492.382, 6331.393
493.712, 7589.324
495.043, 8806.359
496.373, 10047.399
497.703, 11326.065
499.032, 12255.452
500.362, 12556.298
501.691, 12702.696
503.020, 12620.336
504.349, 13175.075
505.678, 13619.911
507.007, 14345.847
508.335, 14608.874
509.663, 14725.999
510.991, 14579.223
512.319, 14042.536
513.646, 14280.939
514.973, 14384.438
516.300, 15913.027
517.627, 17476.705
518.954, 19115.471
520.280, 21458.406
521.607, 22168.934
522.933, 21804.635
524.259, 19417.156
525.584, 16419.389
526.910, 13327.399
528.235, 10259.444
529.560, 8048.079
530.885, 5949.213
532.209, 4784.732
533.534, 3812.463
534.858, 3149.059
536.182, 2672.968
537.506, 2362.013
538.829, 2112.153
540.152, 2062.388
541.476, 2065.717
542.799, 2104.290
544.121, 2288.826
545.444, 2504.659
546.766, 2702.518
548.088, 3303.667
549.410, 3901.491
550.732, 4532.321
552.053, 5491.780
553.375, 6927.610
554.696, 8754.857
556.017, 11486.150
557.337, 15710.431
558.658, 20902.352
559.978, 27138.510
561.298, 35103.098
562.618, 41832.418
563.938, 45745.949
565.257, 44732.781
566.576, 37450.875
567.895, 29800.057
569.214, 22756.371
570.533, 17490.721
571.851, 13751.319
573.170, 12042.830
574.488, 10645.322
575.805, 10235.899
577.123, 10176.857
578.440, 10923.207
579.758, 11823.648
581.075, 13137.869
582.391, 14923.266
583.708, 16270.895
585.024, 17499.590
586.341, 18995.227
587.657, 20002.803
588.972, 21115.756
590.288, 22521.363
591.603, 24156.463
592.918, 26549.135
594.233, 29622.174
595.548, 31952.998
596.863, 33087.203
598.177, 32483.900
599.491, 31112.213
600.805, 28207.734
602.119, 25337.361
603.432, 22907.090
604.746, 20599.068
606.059, 18401.537
607.372, 17001.799
608.685, 16197.686
609.997, 14935.264
611.309, 14425.864
612.621, 13369.499
613.933, 12626.539
615.245, 11527.827
616.557, 10260.307
617.868, 8953.332
619.179, 7714.491
620.490, 6414.448
621.801, 5680.224
623.111, 4797.171
624.421, 4160.276
625.731, 3528.037
627.041, 3259.766
628.351, 2771.221
629.660, 2468.563
630.970, 2347.695
632.279, 2033.802
633.588, 1913.884
634.896, 1556.940
636.205, 1506.968
637.513, 1351.968
638.821, 1280.940
640.129, 1155.881
641.437, 1078.793
642.744, 1037.672
644.051, 1013.519
645.358, 907.333
646.665, 794.113
647.972, 706.859
649.278, 732.569
650.584, 698.242
651.890, 696.878
653.196, 633.477
654.502, 679.090
655.807, 669.737
657.113, 670.443
658.418, 679.168
659.722, 704.884
661.027, 769.557
662.331, 772.183
663.636, 847.771
664.940, 807.311
666.244, 842.805
667.547, 852.252
668.851, 953.653
670.154, 907.005
671.457, 887.308
672.760, 1071.562
674.062, 1024.765
675.365, 1114.918
676.667, 1148.021
677.969, 1212.120
679.271, 1297.238
680.572, 1334.757
681.874, 1433.631
683.175, 1440.934
684.476, 1422.319
685.777, 1472.789
687.077, 1415.343
688.378, 1395.976
689.678, 1150.692
690.978, 1050.476
692.278, 787.267
693.577, 683.042
694.877, 447.755
696.176, 328.406
697.475, 184.993
698.774, 153.516
700.072, 97.971
701.371, 11.653
702.669, 74.400
703.967, 59.304
705.265, 50.360
706.562, 110.563
707.860, 132.949
709.157, 103.530
710.454, 234.292
711.751, 104.305
713.047, 228.504
714.344, 171.953
715.640, 236.625
716.936, 256.557
718.232, 313.476
719.527, 234.806
720.823, 189.389
722.118, 175.415
723.413, 286.368
724.708, 238.778
726.002, 221.567
727.297, 271.615
728.591, 220.948
729.885, 171.541
731.179, 219.367
732.472, 192.453
733.766, 165.785
735.059, 182.349
736.352, 146.154
737.645, 164.181
738.937, 135.441
740.230, 183.918
741.522, 166.638
742.814, 133.592
744.106, 75.761
745.397, 118.117
746.689, 173.681
747.980, 71.482
749.271, 93.467
750.562, 42.646
751.853, 64.992
753.143, 25.519
754.433, 4.203
755.723, 7.967
757.013, 85.996
758.303, 81.345
759.592, 114.091
760.881, 90.439
762.170, 151.042
763.459, 116.550
764.748, 130.957
766.036, 188.265
767.325, 185.484
768.613, 230.614
769.901, 209.659
771.188, 193.619
772.476, 228.490
773.763, 216.278
775.050, 230.981
776.337, 243.601
777.624, 228.140
778.910, 213.595
780.196, 238.966
781.482, 239.256
782.768, 266.466
784.054, 286.597
785.339, 375.652
786.625, 361.634
787.910, 394.542
789.195, 406.377
790.479, 398.140
791.764, 488.830
793.048, 477.448
794.332, 529.993
795.616, 578.466
796.900, 695.869
798.183, 682.199
799.467, 711.459
800.750, 829.648
802.033, 880.767
803.316, 1007.815
804.598, 999.794
805.880, 1174.703
807.163, 1238.542
808.445, 1354.313
809.726, 1440.015
811.008, 1537.647
812.289, 1743.211
813.570, 1973.706
814.851, 2151.132
816.132, 2397.490
817.413, 2617.778
818.693, 2982.000
819.973, 3351.153
821.253, 3810.240
822.533, 4373.261
823.813, 4880.215
825.092, 5554.102
826.371, 6132.924
827.650, 6521.682
828.929, 6749.163
830.208, 6910.001
831.486, 6750.566
832.764, 6388.068
834.042, 6007.504
835.320, 5517.877
836.598, 5146.187
837.875, 4725.432
839.152, 4335.612
840.429, 4179.729
841.706, 3844.787
842.983, 3819.780
844.259, 3677.712
845.536, 3743.584
846.812, 3811.394
848.088, 3892.140
849.363, 4095.822
850.639, 4377.440
851.914, 4469.011
853.189, 4794.377
854.464, 5280.822
855.739, 5591.018
857.013, 5892.230
858.288, 6422.191
859.562, 6958.522
860.836, 7558.894
862.110, 8089.161
863.383, 8546.140
864.656, 9135.234
865.930, 9747.329
867.203, 10134.479
868.475, 10502.037
869.748, 10498.403
871.020, 10534.387
872.292, 10352.676
873.564, 9967.797
874.836, 9497.664
876.108, 9094.312
877.379, 8906.897
878.650, 8527.389
879.922, 8282.883
881.192, 7963.165
882.463, 7888.572
883.733, 7812.025
885.004, 7728.422
886.274, 7760.466
887.544, 7796.148
888.813, 7741.759
890.083, 8006.623
891.352, 8484.331
892.621, 8782.842
893.890, 9437.299
895.159, 10160.845
896.427, 11073.469
897.695, 12475.733
898.964, 13511.351
900.232, 15162.492
901.499, 17221.072
902.767, 19377.301
904.034, 21742.736
905.301, 24887.816
906.568, 28444.412
907.835, 32538.391
909.102, 36090.180
910.368, 40824.855
911.634, 45899.453
912.900, 49682.781
914.166, 52787.633
915.432, 52829.699
916.697, 51186.145
917.962, 48124.891
919.227, 42441.629
920.492, 37092.332
921.757, 31515.627
923.021, 26980.674
924.285, 22804.537
925.550, 19317.848
926.813, 16447.023
928.077, 14050.403
929.341, 11898.967
930.604, 10483.351
931.867, 8947.576
933.130, 7937.145
934.393, 7104.741
935.655, 6207.609
936.918, 5682.584
938.180, 5078.770
939.442, 4679.972
940.703, 4312.197
941.965, 4094.446
943.226, 3786.548
944.488, 3465.003
945.749, 3358.315
947.009, 3210.651
948.270, 3091.009
949.530, 3124.392
950.791, 3066.798
952.051, 2998.229
953.311, 2987.688
954.570, 3106.172
955.830, 3092.682
957.089, 3117.219
958.348, 3102.782
959.607, 3038.373
960.866, 2981.992
962.124, 2923.639
963.383, 2997.315
964.641, 2887.021
965.899, 3030.756
967.156, 3009.521
968.414, 3274.317
969.671, 3672.145
970.928, 4067.002
972.185, 4852.893
973.442, 5558.816
974.699, 6843.772
975.955, 8043.760
977.211, 9232.786
978.468, 10337.845
979.723, 10871.938
980.979, 10626.070
982.234, 10015.236
983.490, 8455.438
984.745, 7398.680
986.000, 6201.956
987.254, 5042.271
988.509, 4372.622
989.763, 3637.011
991.017, 3224.453
992.271, 2684.504
993.525, 2386.189
994.779, 2069.331
996.032, 1818.684
997.285, 1577.768
998.538, 1395.449
999.791, 1234.175
1001.044, 1080.945
1002.296, 996.771
1003.548, 945.509
1004.800, 855.238
1006.052, 808.234
1007.304, 736.782
1008.555, 763.516
1009.807, 752.557
1011.058, 733.226
1012.309, 746.615
1013.559, 805.756
1014.810, 830.601
1016.060, 920.145
1017.310, 1033.625
1018.560, 1105.588
1019.810, 1163.412
1021.060, 1234.041
1022.309, 1383.608
1023.558, 1564.032
1024.807, 1639.196
1026.056, 1820.294
1027.305, 2169.491
1028.553, 2504.700
1029.801, 2966.074
1031.049, 3568.236
1032.297, 4061.506
1033.545, 4933.628
1034.793, 5596.589
1036.040, 6501.574
1037.287, 7402.479
1038.534, 7947.324
1039.781, 8491.584
1041.027, 8515.434
1042.274, 8406.042
1043.520, 8048.026
1044.766, 7361.530
1046.012, 6803.179
1047.257, 6157.045
1048.503, 5693.697
1049.748, 5193.172
1050.993, 4904.162
1052.238, 4862.724
1053.483, 4775.386
1054.727, 5007.131
1055.971, 5519.679
1057.216, 6083.594
1058.459, 6696.582
1059.703, 7295.857
1060.947, 7615.967
1062.190, 7540.132
1063.433, 7181.345
1064.676, 6627.610
1065.919, 6117.919
1067.162, 5809.278
1068.404, 5433.682
1069.646, 5387.131
1070.888, 5567.621
1072.130, 5987.149
1073.372, 6502.719
1074.613, 7476.329
1075.855, 8304.066
1077.096, 9637.755
1078.337, 11430.483
1079.578, 13311.247
1080.818, 16160.048
1082.059, 19453.893
1083.299, 23647.764
1084.539, 26895.684
1085.779, 28366.771
1087.018, 26728.758
1088.258, 23193.775
1089.497, 18601.182
1090.736, 14057.257
1091.975, 10398.370
1093.213, 7617.527
1094.452, 5796.719
1095.690, 4313.923
1096.928, 3446.159
1098.166, 2692.425
1099.404, 2154.764
1100.642, 1779.112
1101.879, 1545.781
1103.116, 1301.203
1104.353, 1171.621
1105.590, 915.068
1106.827, 912.544
1108.063, 775.107
1109.299, 705.641
1110.536, 592.203
1111.771, 541.004
1113.007, 490.863
1114.243, 461.097
1115.478, 449.820
1116.713, 423.524
1117.948, 460.358
1119.183, 352.116
1120.418, 435.901
1121.652, 624.711
1122.886, 778.559
1124.120, 722.525
1125.354, 536.688
1126.588, 384.903
1127.821, 243.117
1129.055, 241.388
1130.288, 227.500
1131.521, 175.710
1132.753, 158.828
1133.986, 115.098
1135.218, 130.248
1136.450, 67.441
1137.682, 74.757
1138.914, 7.102
1140.146, 33.641
1141.377, 11.128
1142.609, 32.538
1143.840, 38.346
1145.071, 24.604
1146.301, 104.365
1147.532, 10.738
1148.762, 168.602
1149.992, 96.614
1151.222, 66.521
1152.452, 88.841
1153.682, 114.723
1154.911, 78.332
1156.140, 79.078
1157.369, 104.789
1158.598, 114.415
1159.827, 104.809
1161.055, 95.312
1162.284, 143.924
1163.512, 115.323
1164.740, 128.814
1165.967, 114.606
1167.195, 107.677
1168.422, 117.356
1169.650, 93.086
1170.877, 120.997
1172.103, 111.818
1173.330, 88.802
1174.557, 67.083
1175.783, 80.398
1177.009, 73.414
1178.235, 78.896
1179.461, 86.692
1180.686, 62.549
1181.912, 36.175
1183.137, 51.246
1184.362, 45.423
1185.587, 39.869
1186.811, 43.166
1188.036, 31.797
1189.260, 41.117
1190.484, 26.876
1191.708, 31.921
1192.932, 13.044
1194.155, 13.614
1195.378, 15.510
1196.602, 26.552
1197.825, 15.237
1199.047, 46.991
1200.270, 51.729
1201.492, 60.307
1202.715, 2.567
1203.937, 49.583
1205.159, 84.635
1206.380, 34.517
1207.602, 66.402
1208.823, 63.272
1210.044, 69.045
1211.265, 60.797
1212.486, 99.526
1213.707, 88.233
1214.927, 95.916
1216.147, 75.575
1217.367, 95.211
1218.587, 71.823
1219.807, 96.409
1221.027, 87.971
1222.246, 61.507
1223.465, 133.015
1224.684, 102.497
1225.903, 108.953
1227.121, 81.381
1228.340, 125.782
1229.558, 90.156
1230.776, 126.502
1231.994, 76.819
1233.212, 133.105
1234.429, 116.363
1235.646, 76.591
1236.864, 136.785
1238.081, 146.974
1239.297, 107.143
1240.514, 110.266
1241.730, 159.369
1242.947, 135.612
1244.163, 154.707
1245.378, 117.874
1246.594, 125.921
1247.810, 100.086
1249.025, 129.061
1250.240, 155.203
1251.455, 154.198
1252.670, 169.579
1253.885, 136.091
1255.099, 164.768
1256.313, 174.454
1257.527, 149.935
1258.741, 194.810
1259.955, 171.801
1261.168, 156.988
1262.382, 227.246
1263.595, 150.109
1264.808, 182.882
1266.021, 195.656
1267.233, 206.375
1268.446, 182.967
1269.658, 163.656
1270.870, 145.411
1272.082, 145.564
1273.294, 149.692
1274.505, 149.488
1275.716, 171.841
1276.928, 165.299
1278.139, 186.600
1279.349, 167.662
1280.560, 193.720
1281.770, 190.821
1282.981, 175.940
1284.191, 177.052
1285.401, 196.848
1286.610, 165.259
1287.820, 161.925
1289.029, 133.000
1290.239, 155.077
1291.448, 108.398
1292.656, 128.699
1293.865, 156.167
1295.073, 161.401
1296.282, 142.715
1297.490, 119.125
1298.698, 138.398
1299.906, 123.405
1301.113, 126.893
1302.320, 90.242
1303.528, 116.330
1304.735, 103.833
1305.942, 103.675
1307.148, 103.932
1308.355, 90.129
1309.561, 88.377
1310.767, 62.406
1311.973, 61.067
1313.179, 32.922
1314.384, 45.064
1315.590, 47.399
1316.795, 39.956
1318.000, 38.865
1319.205, 19.920
1320.410, 17.950
1321.614, 105.114
1322.819, 68.389
1324.023, 78.022
1325.227, 37.899
1326.431, 59.456
1327.634, 2.760
1328.838, 14.078
1330.041, 0.891
1331.244, 20.232
1332.447, 8.018
1333.650, 30.275
1334.852, 40.846
1336.055, 31.102
1337.257, 26.913
1338.459, 29.653
1339.661, 33.986
1340.862, 36.132
1342.064, 52.193
1343.265, 46.850
1344.466, 46.989
1345.667, 55.428
1346.868, 98.380
1348.068, 89.676
1349.269, 101.637
1350.469, 137.555
1351.669, 131.212
1352.869, 130.050
1354.069, 156.395
1355.268, 152.586
1356.468, 187.292
1357.667, 208.981
1358.866, 212.608
1360.065, 227.196
1361.263, 195.745
1362.462, 231.256
1363.660, 226.729
1364.858, 221.155
1366.056, 237.551
1367.254, 250.813
1368.451, 251.126
1369.649, 207.403
1370.846, 185.642
1372.043, 229.847
1373.240, 218.017
1374.436, 233.153
1375.633, 164.258
1376.829, 170.188
1378.025, 191.237
1379.221, 179.263
1380.417, 198.914
1381.613, 141.925
1382.808, 143.028
1384.003, 176.062
1385.199, 184.044
1386.393, 111.891
1387.588, 142.370
1388.783, 120.133
1389.977, 143.760
1391.171, 110.375
1392.365, 149.872
1393.559, 104.279
1394.753, 133.541
1395.946, 117.835
1397.140, 184.036
1398.333, 124.737
1399.526, 126.119
1400.719, 104.569
1401.911, 121.100
1403.104, 91.537
1404.296, 64.880
1405.488, 56.120
1406.680, 93.745
1407.872, 102.326
1409.063, 90.080
1410.255, 90.954
1411.446, 108.286
1412.637, 79.817
1413.828, 62.869
1415.018, 57.462
1416.209, 69.982
1417.399, 37.965
1418.589, 73.098
1419.779, 46.356
1420.969, 52.877
1422.159, 76.399
1423.348, 59.499
1424.537, 46.087
1425.726, 35.265
1426.915, 22.583
1428.104, 43.548
1429.293, 12.366
1430.481, 18.516
1431.669, 30.182
1432.857, 6.562
1434.045, 6.840
1435.233, 94.083
1436.420, 24.768
1437.608, 63.800
1438.795, 30.923
1439.982, 29.232
1441.169, 64.489
1442.355, 204.695
1443.542, 138.811
