##NAMES=Epidote
##RRUFFID=R040092
##IDEAL CHEMISTRY=Ca_2_Fe^3+^Al_2_(Si_2_O_7_)(SiO_4_)O(OH)
##LOCALITY=Nahant, Massachusetts, USA
##OWNER=RRUFF
##SOURCE=University of Arizona Mineral Museum
##DESCRIPTION=Green prismatic crystals imbedded in quartz
##STATUS=The identification of this mineral has been confirmed by X-ray diffraction and chemical analysis
##URL=rruff.info/R040092
##MEASURED CHEMISTRY=Ca_2.01_Al_2.00_Fe_1.00_(Si_1.00_O_4_)(Si_1.97_Fe_0.02_Al_0.01_Ti_0.01_O_7_)O(OH)
##PIN_ID=M00185
##ORIENTATION=Laser parallel to -c [0 0 -1]. Fiducial mark perpendicular to laser is parallel to b* (0 1 0)
51.466, 0.000
52.866, 3.299
54.266, 363.515
55.666, 423.199
57.065, 374.689
58.464, 351.656
59.863, 702.013
61.262, 713.790
62.661, 937.747
64.059, 934.171
65.458, 1068.606
66.856, 959.184
68.253, 774.981
69.651, 615.375
71.048, 229.940
72.445, 101.390
73.842, 67.460
75.239, 102.757
76.635, 103.611
78.031, 424.159
79.427, 1257.687
80.823, 2977.296
82.218, 4915.066
83.614, 7185.049
85.009, 9497.283
86.404, 12276.804
87.798, 15095.634
89.193, 18467.867
90.587, 21504.523
91.981, 24102.602
93.375, 25431.258
94.768, 26269.572
96.161, 27306.461
97.554, 27563.877
98.947, 27324.764
100.340, 24810.438
101.732, 20786.812
103.124, 15979.957
104.516, 11859.512
105.908, 8973.593
107.300, 6484.173
108.691, 4793.223
110.082, 3164.719
111.473, 2361.637
112.864, 1758.959
114.254, 1617.668
115.644, 1475.748
117.034, 1426.186
118.424, 941.963
119.813, 542.053
121.203, 468.447
122.592, 605.137
123.981, 680.542
125.369, 953.176
126.758, 1301.013
128.146, 1869.050
129.534, 2473.289
130.922, 2900.777
132.309, 3401.106
133.696, 3429.650
135.083, 3754.944
136.470, 3167.212
137.857, 2968.381
139.243, 2293.479
140.630, 1583.524
142.016, 951.530
143.401, 397.512
144.787, 280.485
146.172, 108.446
147.557, 48.653
148.942, 156.725
150.327, 250.760
151.711, 340.752
153.096, 223.703
154.480, 69.391
155.863, 195.595
157.247, 593.835
158.630, 1080.146
160.013, 1723.526
161.396, 2544.967
162.779, 3160.473
164.161, 3697.049
165.544, 4172.697
166.926, 4519.426
168.308, 4870.235
169.689, 4785.131
171.070, 4979.113
172.452, 4649.189
173.833, 4117.358
175.213, 3557.624
176.594, 2833.987
177.974, 2410.450
179.354, 1920.013
180.734, 1751.677
182.114, 1636.442
183.493, 1945.248
184.872, 2147.913
186.251, 2536.484
187.630, 2808.154
189.008, 3040.941
190.387, 2731.849
191.765, 2391.877
193.143, 2064.024
194.520, 1612.818
195.898, 1552.270
197.275, 1543.667
198.652, 1822.679
200.029, 2084.818
201.405, 2423.088
202.782, 2640.488
204.158, 2861.018
205.534, 2932.348
206.909, 2873.467
208.285, 2908.381
209.660, 2773.246
211.035, 2653.828
212.410, 2776.360
213.784, 3066.257
215.159, 3504.462
216.533, 4413.338
217.907, 5230.287
219.281, 6586.354
220.654, 7513.518
222.027, 8614.092
223.400, 9856.004
224.773, 11185.182
226.146, 12064.628
227.518, 13012.333
228.891, 13143.132
230.263, 13174.975
231.634, 12598.073
233.006, 11311.415
234.377, 10113.979
235.748, 9062.756
237.119, 7899.735
238.490, 7645.914
239.860, 6966.920
241.231, 6812.751
242.601, 6820.454
243.970, 6776.289
245.340, 6636.260
246.709, 6346.365
248.079, 6273.604
249.448, 6003.975
250.816, 6097.479
252.185, 6179.119
253.553, 6326.889
254.921, 6699.790
256.289, 6725.822
257.657, 6591.981
259.024, 6053.270
260.391, 5774.680
261.758, 5397.215
263.125, 5189.871
264.492, 5412.647
265.858, 5867.404
267.224, 6985.896
268.590, 8001.334
269.956, 9743.903
271.321, 11438.607
272.687, 12962.440
274.052, 13921.404
275.416, 13946.865
276.781, 14315.713
278.146, 12528.056
279.510, 10839.526
280.874, 8828.117
282.237, 7252.829
283.601, 5620.662
284.964, 4667.617
286.327, 4088.692
287.690, 3555.883
289.053, 3152.188
290.416, 3257.604
291.778, 3199.128
293.140, 3428.760
294.502, 3309.502
295.863, 3735.350
297.225, 3731.300
298.586, 3767.346
299.947, 3915.479
301.308, 3882.697
302.668, 3962.004
304.029, 4111.401
305.389, 4347.887
306.749, 4576.462
308.108, 5039.126
309.468, 5497.883
310.827, 5950.732
312.186, 6163.757
313.545, 6666.283
314.903, 6554.463
316.262, 6124.229
317.620, 5753.967
318.978, 5060.676
320.336, 4292.175
321.693, 3843.766
323.051, 3638.450
324.408, 3087.229
325.765, 3219.101
327.121, 2644.066
328.478, 2242.125
329.834, 1782.277
331.190, 1318.522
332.546, 719.862
333.902, 499.293
335.257, 63.183
336.612, 141.588
337.967, 352.938
339.322, 377.277
340.677, 181.613
342.031, 221.099
343.385, 642.901
344.739, 1163.796
346.093, 1672.781
347.446, 2246.857
348.799, 2635.026
350.153, 2930.288
351.505, 2970.642
352.858, 2575.088
354.210, 2076.625
355.563, 1600.255
356.915, 1225.976
358.267, 770.760
359.618, 362.499
360.969, 318.180
362.321, 47.952
363.672, 48.816
365.022, 44.229
366.373, 148.202
367.723, 155.120
369.073, 249.986
370.423, 355.819
371.773, 612.645
373.122, 658.539
374.471, 546.570
375.821, 769.775
377.169, 521.357
378.518, 628.264
379.866, 261.474
381.215, 261.310
382.563, 651.208
383.910, 1297.217
385.258, 1839.334
386.605, 2688.564
387.952, 3047.908
389.299, 3621.377
390.646, 3741.965
391.992, 3726.689
393.339, 3377.565
394.685, 2821.590
396.031, 2327.784
397.376, 1676.140
398.722, 1314.669
400.067, 858.393
401.412, 571.285
402.757, 669.371
404.101, 509.612
405.446, 587.021
406.790, 850.589
408.134, 1123.325
409.478, 1634.234
410.821, 2309.334
412.165, 3145.575
413.508, 4544.020
414.851, 6060.641
416.193, 8076.432
417.536, 10654.417
418.878, 13625.600
420.220, 16573.979
421.562, 19137.568
422.904, 22078.348
424.245, 23929.291
425.586, 24431.404
426.927, 24214.709
428.268, 22260.186
429.609, 20980.850
430.949, 19827.676
432.289, 19155.693
433.629, 17982.877
434.969, 17947.230
436.309, 16993.740
437.648, 16640.416
438.987, 15881.260
440.326, 15376.260
441.665, 15194.423
443.003, 15727.679
444.342, 16253.012
445.680, 16994.434
447.018, 18556.924
448.355, 19553.500
449.693, 20981.158
451.030, 21608.883
452.367, 22187.693
453.704, 21327.590
455.041, 21368.605
456.377, 20204.723
457.713, 19552.939
459.049, 17731.240
460.385, 16263.630
461.721, 14658.127
463.056, 12600.708
464.391, 11108.376
465.726, 9930.120
467.061, 8897.951
468.395, 8061.854
469.730, 7536.835
471.064, 6729.889
472.398, 6362.012
473.731, 5484.217
475.065, 4852.527
476.398, 4202.949
477.731, 3651.510
479.064, 3295.138
480.397, 3015.925
481.729, 2804.734
483.062, 2737.606
484.394, 2698.538
485.725, 2756.837
487.057, 2946.574
488.389, 3109.679
489.720, 3372.838
491.051, 3748.053
492.382, 4306.322
493.712, 4975.646
495.043, 5579.021
496.373, 6283.531
497.703, 7393.504
499.032, 8508.090
500.362, 9289.530
501.691, 10455.872
503.020, 10994.553
504.349, 12031.285
505.678, 12247.070
507.007, 12474.899
508.335, 12304.776
509.663, 11985.702
510.991, 11608.674
512.319, 10808.691
513.646, 10703.753
514.973, 10358.859
516.300, 10876.004
517.627, 11291.195
518.954, 11730.426
520.280, 13011.698
521.607, 13755.014
522.933, 14036.365
524.259, 13605.761
525.584, 12413.483
526.910, 10694.635
528.235, 8788.534
529.560, 6979.900
530.885, 5309.021
532.209, 4231.469
533.534, 3505.498
534.858, 2749.697
536.182, 2360.847
537.506, 2056.611
538.829, 1906.677
540.152, 1771.159
541.476, 1856.067
542.799, 1811.018
544.121, 2158.527
545.444, 2185.631
546.766, 2755.285
548.088, 2977.250
549.410, 3460.559
550.732, 3821.775
552.053, 4741.619
553.375, 5566.715
554.696, 6716.401
556.017, 8700.228
557.337, 11097.946
558.658, 14398.449
559.978, 17983.455
561.298, 22891.193
562.618, 26964.186
563.938, 30445.266
565.257, 32570.514
566.576, 30892.215
567.895, 28012.258
569.214, 23567.713
570.533, 18884.285
571.851, 14846.898
573.170, 12430.354
574.488, 10502.433
575.805, 9510.426
577.123, 9064.195
578.440, 9191.810
579.758, 9421.797
581.075, 10108.884
582.391, 11242.089
583.708, 11918.868
585.024, 12964.572
586.341, 14858.234
587.657, 15831.894
588.972, 17511.584
590.288, 18819.873
591.603, 20377.848
592.918, 22317.529
594.233, 24993.812
595.548, 26917.080
596.863, 28508.400
598.177, 29292.666
599.491, 29791.436
600.805, 28548.084
602.119, 27042.193
603.432, 25400.514
604.746, 23359.549
606.059, 20990.082
607.372, 19093.439
608.685, 17804.570
609.997, 16434.088
611.309, 15551.375
612.621, 14523.739
613.933, 13575.040
615.245, 12499.879
616.557, 11379.091
617.868, 10086.626
619.179, 8983.909
620.490, 7688.353
621.801, 6727.384
623.111, 5913.730
624.421, 5161.955
625.731, 4405.932
627.041, 4154.920
628.351, 3403.512
629.660, 3197.090
630.970, 2994.145
632.279, 2637.807
633.588, 2421.174
634.896, 2281.112
636.205, 2034.062
637.513, 1760.675
638.821, 1737.960
640.129, 1565.805
641.437, 1536.596
642.744, 1359.999
644.051, 1311.332
645.358, 1261.596
646.665, 1146.788
647.972, 1116.909
649.278, 1102.957
650.584, 1124.933
651.890, 1075.834
653.196, 1012.662
654.502, 1063.438
655.807, 999.174
657.113, 1187.917
658.418, 1212.669
659.722, 1153.390
661.027, 1239.034
662.331, 1271.598
663.636, 1292.083
664.940, 1281.489
666.244, 1332.814
667.547, 1243.058
668.851, 1391.220
670.154, 1298.301
671.457, 1244.298
672.760, 1432.212
674.062, 1437.042
675.365, 1490.788
676.667, 1417.449
677.969, 1468.024
679.271, 1547.514
680.572, 1565.918
681.874, 1768.237
683.175, 1820.485
684.476, 1705.683
685.777, 1718.829
687.077, 1623.944
688.378, 1501.050
689.678, 1438.204
690.978, 1434.416
692.278, 1006.659
693.577, 947.985
694.877, 682.335
696.176, 625.735
697.475, 470.099
698.774, 427.370
700.072, 285.546
701.371, 206.622
702.669, 165.592
703.967, 42.450
705.265, 97.168
706.562, 9.238
707.860, 47.813
709.157, 49.902
710.454, 121.190
711.751, 105.727
713.047, 150.141
714.344, 224.802
715.640, 135.752
716.936, 193.944
718.232, 21.410
719.527, 133.059
720.823, 102.951
722.118, 141.071
723.413, 161.439
724.708, 231.066
726.002, 40.990
727.297, 280.111
728.591, 181.555
729.885, 159.270
731.179, 253.245
732.472, 265.529
733.766, 263.129
735.059, 317.045
736.352, 239.303
737.645, 177.863
738.937, 155.694
740.230, 266.782
741.522, 187.186
742.814, 235.864
744.106, 141.840
745.397, 248.067
746.689, 196.598
747.980, 145.405
749.271, 172.463
750.562, 157.784
751.853, 192.359
753.143, 161.206
754.433, 171.307
755.723, 143.761
757.013, 863.848
758.303, 460.264
759.592, 1060.578
760.881, 384.792
762.170, 414.903
763.459, 456.912
764.748, 351.818
766.036, 125.621
767.325, 42.697
768.613, 12.198
769.901, 30.138
771.188, 106.332
772.476, 32.405
773.763, 21.660
775.050, 74.111
776.337, 37.758
777.624, 137.273
778.910, 67.674
780.196, 151.953
781.482, 142.121
782.768, 177.177
784.054, 168.125
785.339, 219.966
786.625, 136.704
787.910, 338.333
789.195, 200.866
790.479, 312.295
791.764, 311.628
793.048, 281.866
794.332, 367.007
795.616, 360.054
796.900, 524.010
798.183, 451.876
799.467, 549.655
800.750, 634.345
802.033, 675.948
803.316, 824.465
804.598, 700.896
805.880, 915.240
807.163, 961.500
808.445, 931.674
809.726, 1072.765
811.008, 1248.771
812.289, 1377.694
813.570, 1480.534
814.851, 1756.290
816.132, 1929.963
817.413, 2083.554
818.693, 2374.063
819.973, 2718.492
821.253, 3063.840
822.533, 3610.108
823.813, 3935.296
825.092, 4309.405
826.371, 4647.437
827.650, 5049.391
828.929, 5447.269
830.208, 5476.068
831.486, 5412.794
832.764, 5380.443
834.042, 5152.018
835.320, 5039.519
836.598, 4878.007
837.875, 4747.303
839.152, 4540.585
840.429, 4432.796
841.706, 4298.937
842.983, 4273.005
844.259, 4366.003
845.536, 4204.930
846.812, 4389.784
848.088, 4564.568
849.363, 4693.289
850.639, 4987.938
851.914, 5102.520
853.189, 5333.049
854.464, 5821.008
855.739, 6139.377
857.013, 6397.190
858.288, 6785.413
859.562, 7106.893
860.836, 7631.027
862.110, 7796.602
863.383, 8170.917
864.656, 8537.644
865.930, 8791.225
867.203, 9008.901
868.475, 9120.784
869.748, 8984.158
871.020, 9248.788
872.292, 9084.154
873.564, 8863.427
874.836, 8835.507
876.108, 8611.133
877.379, 8785.405
878.650, 8870.252
879.922, 8897.993
881.192, 9136.671
882.463, 9299.495
883.733, 9754.675
885.004, 9941.920
886.274, 10378.363
887.544, 10715.946
888.813, 10723.128
890.083, 11073.189
891.352, 11311.113
892.621, 11657.438
893.890, 12375.803
895.159, 12859.186
896.427, 13705.537
897.695, 15103.824
898.964, 16058.484
900.232, 17655.424
901.499, 19445.627
902.767, 21547.195
904.034, 23581.752
905.301, 26344.217
906.568, 29502.725
907.835, 32532.682
909.102, 35423.738
910.368, 38912.297
911.634, 42609.613
912.900, 45607.207
914.166, 48571.234
915.432, 49234.434
916.697, 49187.793
917.962, 48427.758
919.227, 45586.918
920.492, 41876.965
921.757, 37740.043
923.021, 34113.531
924.285, 29684.633
925.550, 26344.363
926.813, 22719.322
928.077, 19670.076
929.341, 17288.207
930.604, 15041.000
931.867, 13120.872
933.130, 11478.958
934.393, 10619.994
935.655, 9132.396
936.918, 8577.771
938.180, 7665.639
939.442, 7151.865
940.703, 6593.354
941.965, 6103.242
943.226, 5680.713
944.488, 5488.224
945.749, 5377.654
947.009, 5141.488
948.270, 4996.339
949.530, 5135.541
950.791, 5207.775
952.051, 5198.041
953.311, 5181.357
954.570, 5527.707
955.830, 5664.095
957.089, 5835.531
958.348, 5795.004
959.607, 5797.515
960.866, 5527.075
962.124, 5230.674
963.383, 4938.311
964.641, 4720.986
965.899, 4603.707
967.156, 4294.467
968.414, 4302.270
969.671, 4342.113
970.928, 4597.999
972.185, 5204.926
973.442, 5719.898
974.699, 6656.912
975.955, 7486.976
977.211, 8400.081
978.468, 9500.236
979.723, 9957.435
980.979, 10077.685
982.234, 10088.982
983.490, 8820.333
984.745, 7997.729
986.000, 6966.178
987.254, 5757.672
988.509, 5049.217
989.763, 4249.815
991.017, 3697.463
992.271, 3112.184
993.525, 2780.945
994.779, 2463.762
996.032, 2127.639
997.285, 1882.576
998.538, 1520.576
999.791, 1559.922
1001.044, 1205.098
1002.296, 1078.456
1003.548, 1015.502
1004.800, 888.145
1006.052, 906.927
1007.304, 710.371
1008.555, 758.803
1009.807, 733.812
1011.058, 800.747
1012.309, 719.379
1013.559, 749.564
1014.810, 761.988
1016.060, 938.372
1017.310, 966.256
1018.560, 975.005
1019.810, 1111.349
1021.060, 1156.467
1022.309, 1227.876
1023.558, 1464.492
1024.807, 1409.568
1026.056, 1658.479
1027.305, 1719.546
1028.553, 2122.906
1029.801, 2349.580
1031.049, 2662.329
1032.297, 3072.333
1033.545, 3709.820
1034.793, 4488.662
1036.040, 4941.436
1037.287, 5440.052
1038.534, 5905.969
1039.781, 6482.924
1041.027, 6720.559
1042.274, 7001.036
1043.520, 7161.890
1044.766, 6382.576
1046.012, 6359.405
1047.257, 5855.395
1048.503, 5609.516
1049.748, 5132.802
1050.993, 4965.236
1052.238, 4568.799
1053.483, 4571.648
1054.727, 4588.483
1055.971, 4857.254
1057.216, 4949.358
1058.459, 5232.598
1059.703, 5325.311
1060.947, 5378.669
1062.190, 5361.082
1063.433, 5099.546
1064.676, 4769.277
1065.919, 4557.850
1067.162, 4779.475
1068.404, 4542.154
1069.646, 4733.895
1070.888, 5191.728
1072.130, 5655.646
1073.372, 6432.636
1074.613, 7578.688
1075.855, 8555.810
1077.096, 9807.013
1078.337, 11570.282
1079.578, 13152.618
1080.818, 15622.011
1082.059, 18676.465
1083.299, 20305.979
1084.539, 22418.543
1085.779, 24019.166
1087.018, 24256.955
1088.258, 23076.867
1089.497, 20652.889
1090.736, 17387.506
1091.975, 14060.386
1093.213, 10986.492
1094.452, 8833.464
1095.690, 6799.491
1096.928, 5412.563
1098.166, 4350.681
1099.404, 3595.895
1100.642, 2894.100
1101.879, 2574.956
1103.116, 2219.247
1104.353, 1859.851
1105.590, 1535.063
1106.827, 1426.819
1108.063, 1240.555
1109.299, 1118.706
1110.536, 994.387
1111.771, 852.126
1113.007, 810.873
1114.243, 703.380
1115.478, 645.440
1116.713, 537.346
1117.948, 572.283
1119.183, 510.202
1120.418, 613.238
1121.652, 961.250
1122.886, 1068.400
1124.120, 846.400
1125.354, 675.554
1126.588, 477.774
1127.821, 338.917
1129.055, 360.655
1130.288, 279.175
1131.521, 304.409
1132.753, 280.891
1133.986, 135.432
1135.218, 212.876
1136.450, 161.482
1137.682, 155.474
1138.914, 151.984
1140.146, 6.821
1141.377, 32.108
1142.609, 15.311
1143.840, 67.405
1145.071, 73.637
1146.301, 64.935
1147.532, 60.772
1148.762, 1.604
1149.992, 8.973
1151.222, 130.083
1152.452, 116.321
1153.682, 188.340
1154.911, 154.655
1156.140, 101.452
1157.369, 86.467
1158.598, 131.864
1159.827, 95.600
1161.055, 153.220
1162.284, 154.117
1163.512, 148.420
1164.740, 108.444
1165.967, 123.602
1167.195, 130.871
1168.422, 119.987
1169.650, 97.737
1170.877, 74.594
1172.103, 104.407
1173.330, 159.720
1174.557, 45.813
1175.783, 117.658
1177.009, 177.163
1178.235, 70.486
1179.461, 92.879
1180.686, 29.203
1181.912, 32.888
1183.137, 24.790
1184.362, 62.532
1185.587, 17.081
1186.811, 36.935
1188.036, 24.290
1189.260, 15.888
1190.484, 5.312
1191.708, 62.722
1192.932, 49.040
1194.155, 74.596
1195.378, 48.112
1196.602, 88.873
1197.825, 28.972
1199.047, 51.285
1200.270, 19.917
1201.492, 36.000
1202.715, 18.993
1203.937, 51.276
1205.159, 53.110
1206.380, 6.891
1207.602, 44.252
1208.823, 64.043
1210.044, 117.540
1211.265, 29.433
1212.486, 179.066
1213.707, 63.397
1214.927, 67.729
1216.147, 96.010
1217.367, 109.552
1218.587, 119.011
1219.807, 65.294
1221.027, 103.673
1222.246, 63.904
1223.465, 69.194
1224.684, 104.282
1225.903, 86.590
1227.121, 86.624
1228.340, 148.620
1229.558, 125.586
1230.776, 101.521
1231.994, 97.423
1233.212, 64.205
1234.429, 63.227
1235.646, 34.292
1236.864, 48.041
1238.081, 89.762
1239.297, 73.462
1240.514, 104.167
1241.730, 125.899
1242.947, 129.193
1244.163, 110.789
1245.378, 98.346
1246.594, 162.863
1247.810, 9.608
1249.025, 127.118
1250.240, 92.591
1251.455, 29.051
1252.670, 94.640
1253.885, 100.303
1255.099, 38.831
1256.313, 120.296
1257.527, 120.788
1258.741, 133.235
1259.955, 91.352
1261.168, 112.271
1262.382, 136.773
1263.595, 143.094
1264.808, 160.827
1266.021, 146.065
1267.233, 164.904
1268.446, 144.840
1269.658, 105.748
1270.870, 169.362
1272.082, 165.921
1273.294, 196.407
1274.505, 97.102
1275.716, 144.372
1276.928, 119.621
1278.139, 161.945
1279.349, 158.944
1280.560, 192.999
1281.770, 164.952
1282.981, 146.688
1284.191, 208.833
1285.401, 121.372
1286.610, 109.826
1287.820, 151.774
1289.029, 92.098
1290.239, 119.336
1291.448, 97.852
1292.656, 86.954
1293.865, 120.705
1295.073, 92.621
1296.282, 109.353
1297.490, 145.394
1298.698, 183.840
1299.906, 231.149
1301.113, 116.801
1302.320, 90.471
1303.528, 72.587
1304.735, 149.788
1305.942, 103.095
1307.148, 76.250
1308.355, 56.207
1309.561, 24.153
1310.767, 8.440
1311.973, 2.830
1313.179, 16.417
1314.384, 7.083
1315.590, 25.375
1316.795, 45.492
1318.000, 10.211
1319.205, 43.147
1320.410, 13.988
1321.614, 75.396
1322.819, 35.989
1324.023, 35.337
1325.227, 60.528
1326.431, 18.624
1327.634, 17.127
1328.838, 4.472
1330.041, 63.437
1331.244, 38.146
1332.447, 52.930
1333.650, 61.124
1334.852, 119.550
1336.055, 29.677
1337.257, 120.071
1338.459, 54.406
1339.661, 76.678
1340.862, 31.889
1342.064, 74.032
1343.265, 120.112
1344.466, 98.134
1345.667, 135.944
1346.868, 153.844
1348.068, 117.888
1349.269, 169.667
1350.469, 141.389
1351.669, 122.642
1352.869, 162.246
1354.069, 227.792
1355.268, 143.285
1356.468, 184.510
1357.667, 329.894
1358.866, 246.225
1360.065, 308.504
1361.263, 184.762
1362.462, 198.938
1363.660, 235.064
1364.858, 206.140
1366.056, 235.241
1367.254, 214.609
1368.451, 279.081
1369.649, 196.969
1370.846, 255.861
1372.043, 300.662
1373.240, 348.903
1374.436, 287.625
1375.633, 279.313
1376.829, 223.082
1378.025, 275.671
1379.221, 208.869
1380.417, 291.687
1381.613, 288.950
1382.808, 279.736
1384.003, 308.614
1385.199, 243.350
1386.393, 139.287
1387.588, 617.583
1388.783, 535.698
1389.977, 392.927
1391.171, 207.849
1392.365, 253.935
1393.559, 257.396
1394.753, 255.041
1395.946, 215.538
1397.140, 189.846
1398.333, 216.081
1399.526, 218.627
1400.719, 203.340
1401.911, 206.933
1403.104, 298.530
1404.296, 231.617
1405.488, 247.542
1406.680, 191.210
1407.872, 221.604
1409.063, 286.106
1410.255, 250.986
1411.446, 216.237
1412.637, 210.140
1413.828, 259.080
1415.018, 304.661
1416.209, 291.432
1417.399, 167.425
1418.589, 255.763
1419.779, 200.212
1420.969, 152.365
1422.159, 293.238
1423.348, 147.373
1424.537, 150.316
1425.726, 163.002
1426.915, 64.054
1428.104, 225.627
1429.293, 168.999
1430.481, 55.770
1431.669, 169.263
1432.857, 166.272
1434.045, 70.754
1435.233, 199.341
1436.420, 178.853
1437.608, 174.667
1438.795, 238.578
1439.982, 188.938
1441.169, 170.498
1442.355, 210.496
1443.542, 223.339
