##NAMES=Epidote
##RRUFFID=R040089
##IDEAL CHEMISTRY=Ca_2_Fe^3+^Al_2_(Si_2_O_7_)(SiO_4_)O(OH)
##LOCALITY=Grafton County, New Hampshire, USA
##OWNER=RRUFF
##SOURCE=University of Arizona Mineral Museum
##DESCRIPTION=Dark green coarsely crystalline massive
##STATUS=The identification of this mineral has been confirmed by X-ray diffraction and chemical analysis
##URL=rruff.info/R040089
##MEASURED CHEMISTRY=Ca_2.00_(Al_2.36_Fe^3+^_0.64_)[Si_2.00_O_7_][Si_1.00_O_4_]O(OH)
##PIN_ID=L00423
##ORIENTATION=Laser parallel to c [0 0 1]. Fiducial mark perpendicular to laser is parallel to b* (0 1 0)
53.228, 0.000
54.634, 136.408
56.040, 20.416
57.445, 213.102
58.850, 612.779
60.254, 803.268
61.659, 826.688
63.063, 1118.816
64.467, 1552.762
65.871, 2399.041
67.274, 2967.805
68.678, 3445.488
70.081, 3720.713
71.484, 4229.152
72.886, 5476.047
74.288, 6948.904
75.690, 9013.791
77.092, 9211.119
78.494, 9363.672
79.895, 9283.014
81.296, 9280.984
82.697, 9061.973
84.097, 8786.121
85.498, 8670.312
86.898, 8192.035
88.298, 8017.613
89.697, 8076.592
91.097, 8114.102
92.496, 8096.672
93.895, 8654.032
95.293, 8862.525
96.692, 8505.398
98.090, 7719.754
99.488, 7076.729
100.885, 6697.082
102.283, 6290.997
103.680, 6144.445
105.077, 5608.422
106.473, 5272.742
107.870, 4689.629
109.266, 3984.646
110.662, 3454.461
112.057, 2923.353
113.453, 2912.145
114.848, 2950.793
116.243, 2819.305
117.638, 2307.646
119.032, 1711.220
120.426, 1513.683
121.820, 1223.898
123.214, 1052.277
124.608, 799.410
126.001, 622.479
127.394, 648.896
128.787, 308.984
130.179, 106.297
131.571, 69.220
132.963, 88.040
134.355, 123.333
135.747, 14.720
137.138, 385.090
138.529, 433.326
139.920, 429.824
141.311, 234.979
142.701, 369.032
144.091, 342.135
145.481, 35.597
146.870, 175.952
148.260, 76.864
149.649, 152.850
151.038, 143.441
152.426, 344.934
153.815, 517.133
155.203, 769.549
156.591, 831.994
157.979, 1047.193
159.366, 1077.236
160.753, 1197.316
162.140, 1450.630
163.527, 1781.614
164.913, 2132.260
166.300, 2562.510
167.686, 3242.328
169.071, 3791.711
170.457, 4770.564
171.842, 5598.806
173.227, 6256.440
174.612, 6465.100
175.996, 6750.494
177.381, 6237.688
178.765, 5704.410
180.149, 4980.989
181.532, 4185.357
182.915, 3186.449
184.299, 2614.861
185.681, 2062.651
187.064, 1740.302
188.446, 1559.016
189.828, 1257.828
191.210, 1084.802
192.592, 900.896
193.973, 766.890
195.355, 592.837
196.736, 638.744
198.116, 649.516
199.497, 710.424
200.877, 936.199
202.257, 1111.922
203.637, 1437.524
205.016, 1822.969
206.395, 1928.223
207.774, 2473.250
209.153, 2738.043
210.532, 2872.629
211.910, 2987.065
213.288, 3121.410
214.666, 3066.303
216.043, 2905.108
217.421, 3039.604
218.798, 3041.246
220.175, 3219.759
221.551, 3255.560
222.928, 3558.021
224.304, 3963.915
225.680, 4465.840
227.055, 5202.265
228.431, 5856.574
229.806, 7227.953
231.181, 8427.449
232.556, 9595.696
233.930, 10962.678
235.304, 11478.394
236.678, 11872.851
238.052, 11186.035
239.426, 10637.907
240.799, 9568.733
242.172, 8660.275
243.545, 7941.348
244.917, 7274.022
246.290, 7228.822
247.662, 6768.373
249.034, 6812.514
250.405, 6694.938
251.777, 6334.588
253.148, 6040.659
254.519, 5380.658
255.889, 4638.349
257.260, 3782.469
258.630, 3234.840
260.000, 2855.396
261.370, 2313.919
262.739, 2250.090
264.108, 1984.323
265.477, 1977.024
266.846, 2118.346
268.215, 2358.797
269.583, 2728.602
270.951, 3067.933
272.319, 3786.871
273.686, 4515.493
275.054, 5243.430
276.421, 6019.128
277.788, 6372.627
279.154, 6206.104
280.521, 5489.766
281.887, 4572.896
283.253, 3923.911
284.619, 3251.598
285.984, 2937.635
287.349, 2521.222
288.714, 2513.166
290.079, 2421.874
291.444, 2368.043
292.808, 2384.715
294.172, 2305.109
295.536, 2329.663
296.899, 2043.052
298.263, 2137.671
299.626, 1870.431
300.989, 1880.437
302.351, 1817.600
303.714, 1582.098
305.076, 1617.148
306.438, 1524.746
307.799, 1614.238
309.161, 1665.717
310.522, 1661.042
311.883, 1803.517
313.244, 1762.485
314.604, 1922.883
315.965, 1673.210
317.325, 1638.198
318.684, 1585.994
320.044, 1457.032
321.403, 1418.653
322.762, 1302.096
324.121, 1425.788
325.480, 1440.488
326.838, 1537.162
328.196, 1645.213
329.554, 1934.727
330.912, 2236.039
332.270, 2600.194
333.627, 3094.684
334.984, 3669.118
336.341, 4173.502
337.697, 4767.756
339.053, 5462.123
340.409, 6006.363
341.765, 6620.557
343.121, 7334.703
344.476, 7778.807
345.831, 8372.871
347.186, 10036.920
348.541, 11268.729
349.895, 13538.303
351.250, 15086.602
352.604, 16324.211
353.957, 16459.924
355.311, 16186.229
356.664, 14950.432
358.017, 13043.658
359.370, 10635.567
360.722, 8898.005
362.075, 7270.668
363.427, 5443.983
364.779, 4289.328
366.130, 3335.842
367.482, 2633.796
368.833, 2093.443
370.184, 1793.609
371.535, 1397.138
372.885, 977.855
374.235, 725.893
375.585, 409.933
376.935, 184.968
378.285, 68.006
379.634, 205.229
380.983, 322.124
382.332, 374.415
383.680, 406.097
385.029, 392.163
386.377, 210.596
387.725, 128.333
389.073, 140.657
390.420, 375.424
391.767, 793.979
393.114, 1334.345
394.461, 2066.529
395.808, 2237.538
397.154, 2078.378
398.500, 1949.052
399.846, 1636.567
401.191, 1120.928
402.537, 786.143
403.882, 250.214
405.227, 11.134
406.571, 111.103
407.916, 438.521
409.260, 353.229
410.604, 480.188
411.948, 472.431
413.291, 441.956
414.635, 152.718
415.978, 57.390
417.321, 246.417
418.663, 761.386
420.006, 1305.313
421.348, 2043.215
422.690, 2941.107
424.031, 3867.192
425.373, 5433.072
426.714, 6527.913
428.055, 7962.790
429.396, 8868.363
430.736, 9615.048
432.077, 10083.062
433.417, 10181.122
434.757, 10539.235
436.096, 10857.397
437.436, 11485.601
438.775, 12223.882
440.114, 12812.225
441.452, 14140.629
442.791, 14919.112
444.129, 15907.671
445.467, 16706.275
446.805, 17074.973
448.142, 17403.768
449.480, 17492.666
450.817, 17741.682
452.154, 18410.820
453.490, 18190.031
454.827, 18659.439
456.163, 17318.875
457.499, 17068.646
458.835, 15887.644
460.170, 14997.357
461.505, 14636.359
462.840, 13495.768
464.175, 12985.438
465.510, 12124.665
466.844, 11394.584
468.178, 11034.567
469.512, 10095.419
470.846, 9826.971
472.179, 8798.809
473.512, 8151.483
474.845, 7354.331
476.178, 6407.308
477.511, 5840.365
478.843, 5053.463
480.175, 4696.520
481.507, 4029.173
482.839, 3621.807
484.170, 3364.076
485.501, 2906.982
486.832, 2810.062
488.163, 2483.645
489.493, 2487.322
490.823, 2501.029
492.153, 2324.757
493.483, 2384.495
494.813, 2298.239
496.142, 2284.988
497.471, 2502.744
498.800, 2450.501
500.129, 2777.265
501.457, 2911.032
502.785, 3354.803
504.113, 3918.577
505.441, 4182.354
506.769, 4776.134
508.096, 5199.918
509.423, 6103.715
510.750, 6517.532
512.077, 7081.375
513.403, 7615.249
514.729, 7719.155
516.055, 7723.100
517.381, 7357.086
518.706, 6851.119
520.032, 5995.204
521.357, 4859.338
522.681, 4253.520
524.006, 3347.747
525.330, 2805.010
526.655, 2129.303
527.978, 1574.622
529.302, 1486.958
530.626, 938.307
531.949, 785.661
533.272, 597.435
534.595, 449.200
535.917, 372.686
537.239, 401.274
538.562, 274.196
539.883, 356.270
541.205, 289.364
542.527, 400.056
543.848, 250.230
545.169, 373.239
546.489, 321.410
547.810, 344.748
549.130, 614.574
550.450, 503.437
551.770, 806.105
553.090, 922.473
554.409, 1165.849
555.728, 1451.232
557.047, 1682.624
558.366, 2410.024
559.685, 2806.435
561.003, 3633.482
562.321, 4858.366
563.639, 5991.437
564.956, 8323.828
566.274, 11033.073
567.591, 14409.227
568.908, 18469.432
570.225, 21425.588
571.541, 23870.949
572.857, 22693.545
574.173, 18777.480
575.489, 14895.514
576.805, 11006.062
578.120, 8597.497
579.435, 6740.792
580.750, 5906.103
582.065, 5487.594
583.380, 5242.250
584.694, 5777.063
586.008, 5957.803
587.322, 6705.780
588.635, 7702.619
589.949, 8676.562
591.262, 9951.128
592.575, 11243.152
593.887, 12899.352
595.200, 14424.874
596.512, 16295.686
597.824, 18650.941
599.136, 20486.230
600.447, 22786.072
601.759, 25183.959
603.070, 27243.053
604.381, 29410.676
605.692, 28935.035
607.002, 28761.727
608.312, 27439.062
609.622, 24654.285
610.932, 22480.475
612.242, 19474.570
613.551, 17411.279
614.860, 15289.788
616.169, 13655.718
617.478, 12572.775
618.786, 11047.578
620.094, 10164.657
621.402, 8677.613
622.710, 7768.834
624.018, 6502.599
625.325, 5596.650
626.632, 4817.729
627.939, 4107.544
629.246, 3622.226
630.552, 3253.693
631.859, 2795.250
633.165, 2636.909
634.471, 2315.170
635.776, 2102.083
637.082, 1890.504
638.387, 1698.920
639.692, 1609.923
640.996, 1404.276
642.301, 1305.652
643.605, 1182.030
644.909, 1067.030
646.213, 1104.051
647.516, 1020.908
648.820, 951.629
650.123, 917.404
651.426, 887.813
652.729, 986.050
654.031, 964.778
655.333, 1148.588
656.636, 1126.254
657.937, 1150.843
659.239, 1268.350
660.540, 1264.807
661.842, 1256.213
663.142, 1288.570
664.443, 1220.516
665.744, 1229.128
667.044, 1125.331
668.344, 1045.479
669.644, 1058.577
670.944, 1002.622
672.243, 1001.613
673.542, 935.550
674.841, 907.434
676.140, 810.262
677.438, 797.035
678.737, 856.752
680.035, 894.414
681.333, 900.018
682.630, 987.565
683.928, 970.055
685.225, 1069.487
686.522, 1009.860
687.819, 1146.176
689.115, 1107.432
690.412, 1097.631
691.708, 1074.778
693.004, 1130.878
694.300, 1081.933
695.595, 1183.958
696.890, 1079.975
698.185, 1287.003
699.480, 1236.056
700.775, 1328.137
702.069, 1415.245
703.363, 1506.341
704.657, 1442.415
705.951, 1390.439
707.244, 1279.413
708.538, 1162.326
709.831, 983.177
711.124, 942.965
712.416, 792.689
713.709, 526.350
715.001, 531.947
716.293, 330.479
717.585, 291.942
718.876, 204.335
720.167, 124.664
721.459, 155.931
722.749, 70.151
724.040, 63.382
725.331, 4.396
726.621, 22.820
727.911, 76.960
729.201, 59.792
730.490, 47.722
731.780, 73.769
733.069, 52.949
734.358, 81.262
735.646, 111.725
736.935, 49.353
738.223, 98.115
739.511, 99.037
740.799, 32.121
742.087, 146.333
743.374, 126.732
744.661, 79.312
745.948, 141.044
747.235, 152.965
748.522, 112.081
749.808, 100.371
751.094, 183.828
752.380, 94.498
753.666, 94.334
754.951, 166.337
756.236, 134.543
757.521, 7.061
758.806, 129.449
760.091, 77.144
761.375, 114.000
762.659, 124.033
763.943, 90.250
765.227, 105.634
766.511, 72.194
767.794, 113.910
769.077, 142.805
770.360, 101.894
771.643, 120.156
772.925, 84.600
774.207, 121.208
775.489, 55.998
776.771, 28.936
778.053, 70.007
779.334, 75.234
780.615, 28.618
781.896, 41.135
783.177, 71.790
784.457, 21.599
785.738, 61.463
787.018, 5.436
788.298, 70.295
789.577, 42.067
790.857, 25.745
792.136, 110.321
793.415, 40.817
794.694, 160.220
795.972, 142.544
797.251, 128.790
798.529, 205.957
799.807, 187.048
801.084, 212.064
802.362, 230.006
803.639, 202.875
804.916, 275.668
806.193, 302.393
807.470, 409.046
808.746, 374.635
810.022, 394.158
811.298, 397.616
812.574, 428.009
813.850, 462.339
815.125, 500.251
816.400, 562.353
817.675, 607.950
818.950, 689.029
820.224, 765.047
821.499, 842.303
822.773, 844.897
824.047, 1021.732
825.320, 1134.506
826.594, 1239.221
827.867, 1449.875
829.140, 1575.470
830.413, 1721.006
831.685, 1922.484
832.958, 2073.904
834.230, 2224.266
835.502, 2192.571
836.774, 2377.818
838.045, 2501.009
839.316, 2380.145
840.588, 2560.224
841.858, 2511.247
843.129, 2517.216
844.400, 2673.130
845.670, 2513.990
846.940, 2611.796
848.210, 2664.548
849.479, 2567.248
850.749, 2707.893
852.018, 2708.485
853.287, 2759.024
854.556, 3090.511
855.824, 3373.946
857.093, 3787.329
858.361, 3158.671
859.629, 3199.963
860.896, 3490.211
862.164, 3496.409
863.431, 3712.556
864.698, 3760.662
865.965, 3975.727
867.232, 4253.745
868.498, 4290.714
869.764, 4571.010
871.030, 4810.091
872.296, 5029.762
873.562, 5312.050
874.827, 5660.871
876.092, 6007.389
877.357, 6495.286
878.622, 6861.312
879.886, 7428.595
881.151, 7800.203
882.415, 8292.722
883.679, 8785.819
884.942, 8717.228
886.206, 9189.793
887.469, 9420.468
888.732, 9339.103
889.995, 9911.538
891.258, 10080.795
892.520, 10439.877
893.782, 11263.023
895.044, 11608.920
896.306, 12455.943
897.568, 12825.852
898.829, 13841.792
900.090, 14796.898
901.351, 15844.484
902.612, 17412.729
903.872, 19085.658
905.133, 20584.119
906.393, 23672.535
907.653, 25556.367
908.912, 28562.133
910.172, 31956.670
911.431, 33972.664
912.690, 36981.879
913.949, 38098.758
915.208, 40774.961
916.466, 41333.258
917.724, 41580.586
918.982, 41219.965
920.240, 39546.719
921.498, 38571.648
922.755, 37099.148
924.012, 33705.496
925.269, 31414.080
926.526, 29030.371
927.782, 25760.758
929.039, 24232.863
930.295, 21442.414
931.551, 19691.652
932.806, 17383.863
934.062, 15465.312
935.317, 14014.866
936.572, 12517.611
937.827, 10904.247
939.082, 9808.770
940.336, 8715.651
941.590, 7861.857
942.844, 7127.517
944.098, 6534.902
945.352, 6041.169
946.605, 5598.802
947.859, 5266.388
949.112, 4975.950
950.364, 4602.880
951.617, 4611.767
952.869, 4345.792
954.121, 4308.926
955.373, 4341.978
956.625, 4247.380
957.877, 4342.927
959.128, 4083.953
960.379, 4042.874
961.630, 4074.906
962.881, 3758.988
964.131, 3964.125
965.381, 3704.276
966.631, 3542.450
967.881, 3434.657
969.131, 3478.888
970.380, 3365.151
971.630, 3294.437
972.879, 3468.745
974.128, 3663.080
975.376, 3785.438
976.625, 4127.828
977.873, 4565.238
979.121, 4928.669
980.369, 5767.127
981.616, 6056.604
982.864, 6506.107
984.111, 6865.634
985.358, 6445.182
986.605, 6334.777
987.851, 5474.393
989.097, 4680.031
990.344, 4062.694
991.589, 3381.381
992.835, 2773.094
994.081, 2467.833
995.326, 1992.594
996.571, 1777.381
997.816, 1603.195
999.061, 1374.034
1000.305, 1173.904
1001.550, 989.798
1002.794, 977.718
1004.037, 822.665
1005.281, 759.929
1006.525, 730.965
1007.768, 526.605
1009.011, 538.967
1010.254, 658.026
1011.496, 508.145
1012.739, 618.293
1013.981, 567.716
1015.223, 562.789
1016.465, 740.378
1017.706, 752.945
1018.948, 802.791
1020.189, 941.142
1021.430, 1048.854
1022.671, 1157.991
1023.911, 1339.986
1025.152, 1366.302
1026.392, 1599.728
1027.632, 1550.895
1028.872, 1710.303
1030.111, 1765.659
1031.350, 1822.821
1032.590, 1995.357
1033.829, 1986.719
1035.067, 2159.344
1036.306, 2403.363
1037.544, 2465.463
1038.782, 2716.188
1040.020, 2752.440
1041.258, 2894.772
1042.495, 3250.185
1043.733, 3219.413
1044.970, 3346.130
1046.207, 3519.374
1047.443, 3384.925
1048.680, 3471.491
1049.916, 3303.486
1051.152, 3243.502
1052.388, 3227.637
1053.624, 2947.888
1054.859, 2825.332
1056.094, 2738.764
1057.329, 2375.218
1058.564, 2452.764
1059.799, 2093.438
1061.033, 1831.130
1062.268, 1751.898
1063.502, 1506.752
1064.735, 1369.689
1065.969, 1182.715
1067.202, 1170.787
1068.436, 1036.724
1069.669, 1014.630
1070.902, 1049.994
1072.134, 1174.742
1073.367, 1124.278
1074.599, 1319.893
1075.831, 1355.594
1077.062, 1542.179
1078.294, 1878.702
1079.525, 2050.934
1080.757, 2524.285
1081.988, 2900.330
1083.218, 3541.439
1084.449, 4403.642
1085.679, 5192.733
1086.909, 6168.664
1088.139, 7442.998
1089.369, 8218.574
1090.599, 9242.989
1091.828, 9528.124
1093.057, 8922.620
1094.286, 8567.155
1095.515, 6912.521
1096.744, 5640.005
1097.972, 4505.684
1099.200, 3557.102
1100.428, 2690.201
1101.656, 2194.991
1102.883, 1697.417
1104.111, 1517.731
1105.338, 1277.120
1106.565, 1088.364
1107.791, 1015.922
1109.018, 788.415
1110.244, 889.617
1111.470, 808.646
1112.696, 626.753
1113.922, 613.992
1115.147, 488.431
1116.373, 509.017
1117.598, 507.854
1118.823, 490.042
1120.047, 411.438
1121.272, 338.336
1122.496, 316.802
1123.720, 285.049
1124.944, 242.696
1126.168, 293.083
1127.391, 237.357
1128.615, 301.615
1129.838, 211.716
1131.061, 177.998
1132.283, 144.314
1133.506, 133.615
1134.728, 209.112
1135.950, 143.623
1137.172, 96.852
1138.394, 145.402
1139.615, 9.464
1140.837, 108.522
1142.058, 82.311
1143.279, 72.075
1144.499, 131.051
1145.720, 46.669
1146.940, 110.519
1148.160, 12.140
1149.380, 30.885
1150.600, 28.727
1151.819, 22.697
1153.038, 1.284
1154.257, 99.363
1155.476, 22.723
1156.695, 80.853
1157.913, 48.579
1159.132, 16.647
1160.350, 85.535
1161.568, 74.596
1162.785, 22.430
1164.003, 19.579
1165.220, 30.375
1166.437, 19.023
1167.654, 81.607
1168.871, 35.634
1170.087, 28.191
1171.304, 66.420
1172.520, 67.241
1173.736, 58.636
1174.951, 62.733
1176.167, 30.989
1177.382, 51.717
1178.597, 31.226
1179.812, 52.045
1181.027, 28.601
1182.241, 75.131
1183.455, 33.807
1184.669, 50.093
1185.883, 91.357
1187.097, 15.662
1188.311, 19.884
1189.524, 26.702
1190.737, 5.604
1191.950, 20.604
1193.162, 26.307
1194.375, 23.561
1195.587, 0.995
1196.799, 3.103
1198.011, 0.910
1199.223, 0.666
1200.434, 3.479
1201.646, 0.542
1202.857, 54.825
1204.068, 20.421
1205.279, 1.879
1206.489, 38.279
1207.699, 12.720
1208.909, 95.317
1210.119, 18.844
1211.329, 42.933
1212.539, 16.344
1213.748, 10.840
1214.957, 7.449
1216.166, 32.543
1217.375, 1.785
1218.583, 114.052
1219.792, 16.469
1221.000, 52.729
1222.208, 22.871
1223.415, 1.581
1224.623, 6.609
1225.830, 62.044
1227.037, 66.429
1228.244, 43.530
1229.451, 18.774
1230.658, 31.727
1231.864, 59.544
1233.070, 79.471
1234.276, 0.057
1235.482, 74.292
1236.687, 12.282
1237.893, 151.184
1239.098, 64.417
1240.303, 14.031
1241.508, 21.089
1242.712, 54.279
1243.917, 16.546
1245.121, 9.785
1246.325, 3.176
1247.529, 4.358
1248.732, 40.149
1249.936, 8.450
1251.139, 12.899
1252.342, 7.527
1253.545, 34.773
1254.747, 19.129
1255.950, 5.496
1257.152, 58.702
1258.354, 23.857
1259.556, 28.883
1260.758, 20.198
1261.959, 16.557
1263.160, 32.448
1264.361, 29.487
1265.562, 20.545
1266.763, 31.470
1267.963, 0.657
1269.164, 59.281
1270.364, 77.076
1271.563, 20.837
1272.763, 135.583
1273.963, 52.250
1275.162, 48.875
1276.361, 138.689
1277.560, 39.769
1278.759, 96.864
1279.957, 100.471
1281.155, 59.876
1282.354, 103.243
1283.551, 69.558
1284.749, 71.833
1285.947, 115.103
1287.144, 93.526
1288.341, 71.689
1289.538, 122.011
1290.735, 55.098
1291.931, 132.139
1293.128, 108.148
1294.324, 101.117
1295.520, 203.049
1296.716, 76.718
1297.911, 101.540
1299.107, 147.747
1300.302, 62.224
1301.497, 75.996
1302.692, 93.698
1303.886, 65.361
1305.081, 101.737
1306.275, 8.454
1307.469, 109.647
1308.663, 88.854
1309.856, 47.775
1311.050, 83.184
1312.243, 59.350
1313.436, 45.964
1314.629, 130.721
1315.822, 90.224
1317.014, 42.547
1318.206, 120.128
1319.398, 97.482
1320.590, 45.893
1321.782, 71.527
1322.974, 85.813
1324.165, 72.298
1325.356, 123.549
1326.547, 33.432
1327.738, 50.271
1328.928, 72.524
1330.119, 80.274
1331.309, 84.994
1332.499, 76.667
1333.688, 92.547
1334.878, 130.990
1336.067, 68.956
1337.256, 118.654
1338.445, 159.391
1339.634, 91.758
1340.823, 112.153
1342.011, 116.477
1343.199, 108.750
1344.388, 90.876
1345.575, 88.058
1346.763, 147.280
1347.950, 182.465
1349.138, 77.542
1350.325, 180.656
1351.512, 141.736
1352.698, 109.781
1353.885, 112.800
1355.071, 116.775
1356.257, 149.755
1357.443, 171.940
1358.629, 98.182
1359.814, 210.029
1361.000, 178.596
1362.185, 145.378
1363.370, 193.130
1364.554, 143.853
1365.739, 160.733
1366.923, 220.710
1368.107, 137.494
1369.291, 108.734
1370.475, 186.315
1371.659, 90.871
1372.842, 221.384
1374.025, 128.991
1375.208, 150.771
1376.391, 192.148
1377.574, 166.423
1378.756, 139.594
1379.939, 157.528
1381.121, 147.795
1382.303, 135.295
1383.484, 130.696
1384.666, 135.084
1385.847, 134.007
1387.028, 113.599
1388.209, 141.574
1389.390, 157.087
1390.570, 143.739
1391.751, 99.604
1392.931, 125.560
1394.111, 86.630
1395.291, 137.072
1396.470, 113.883
1397.649, 104.182
1398.829, 155.213
1400.008, 168.127
1401.187, 95.938
1402.365, 148.901
1403.544, 80.839
1404.722, 131.382
1405.900, 110.278
1407.078, 98.524
1408.255, 122.708
1409.433, 126.713
1410.610, 98.428
1411.787, 161.091
1412.964, 147.361
1414.141, 108.522
1415.317, 125.458
1416.494, 128.643
1417.670, 61.893
1418.846, 131.390
1420.022, 73.412
1421.197, 66.497
1422.373, 146.074
1423.548, 99.387
1424.723, 100.349
1425.898, 96.690
1427.072, 85.934
1428.247, 46.366
1429.421, 118.186
1430.595, 47.961
1431.769, 110.071
1432.942, 101.918
1434.116, 142.653
1435.289, 96.942
1436.462, 94.744
1437.635, 66.252
1438.808, 144.604
1439.981, 92.196
1441.153, 162.466
1442.325, 106.639
1443.497, 101.905
1444.669, 149.277
1445.840, 72.417
1447.012, 72.341
1448.183, 117.493
1449.354, 93.487
1450.525, 114.321
1451.696, 94.969
1452.866, 33.760
1454.036, 142.515
