##NAMES=Epididymite
##RRUFFID=R070580
##IDEAL CHEMISTRY=Na_2_Be_2_Si_6_O_15_&#183;H_2_O
##LOCALITY=Narsarsuk, Narsaq, Kitaa, Greenland
##OWNER=RRUFF
##SOURCE=James Shigley
##DESCRIPTION=A translucent to white elongated prism.
##STATUS=The identification of this mineral is confirmed by single-crystal X-ray diffraction and chemical analysis.
##URL=rruff.info/R070580
##MEASURED CHEMISTRY=(Na_1.97_K_0.03_)_Σ=2_Be_2_Si_6.00_O_15_·H_2_O; trace amounts of Al; Be and H_2_O assumed by stoichiometry
##PIN_ID=M01755
##ORIENTATION=Laser parallel to -a* (-1 0 0). Fiducial mark perpendicular to laser is parallel to b [0 1 0]
111.2060, 0.0000000E+00
112.4440, 12.05273
113.6810, 82.07910
114.9180, 478.1201
116.1550, 902.0186
117.3920, 1195.287
118.6290, 1723.327
119.8650, 2236.552
121.1010, 3079.185
122.3370, 3688.068
123.5730, 4521.342
124.8090, 4802.945
126.0450, 4652.662
127.2800, 4919.249
128.5150, 5448.215
129.7500, 6182.877
130.9850, 7163.959
132.2200, 7965.643
133.4540, 8417.056
134.6890, 8125.312
135.9230, 7009.615
137.1570, 5392.127
138.3900, 4210.980
139.6240, 3596.911
140.8580, 3324.379
142.0910, 3060.418
143.3240, 2940.860
144.5570, 2932.869
145.7900, 3057.320
147.0220, 3015.062
148.2550, 3268.207
149.4870, 3423.705
150.7190, 3274.521
151.9510, 3161.629
153.1830, 3001.009
154.4140, 2457.639
155.6460, 1861.505
156.8770, 1205.597
158.1080, 710.3447
159.3390, 344.3223
160.5690, 330.0439
161.8000, 165.6006
163.0300, 95.82812
164.2600, 25.55762
165.4900, 5.562500
166.7200, 46.87207
167.9500, 78.84473
169.1790, 79.24219
170.4080, 61.69629
171.6380, 5.257813
172.8670, 41.92090
174.0950, 164.6738
175.3240, 35.51270
176.5520, 173.4326
177.7810, 109.4277
179.0090, 17.49219
180.2370, 50.62305
181.4640, 11.58301
182.6920, 13.93164
183.9190, 33.62305
185.1460, 95.25098
186.3730, 64.77246
187.6000, 266.2598
188.8270, 407.7461
190.0530, 427.2471
191.2800, 417.7725
192.5060, 578.3281
193.7320, 604.9170
194.9580, 867.5361
196.1830, 979.1836
197.4090, 918.8623
198.6340, 1095.568
199.8590, 1047.300
201.0840, 963.0449
202.3090, 959.0166
203.5340, 798.6689
204.7580, 753.8975
205.9820, 571.9727
207.2060, 528.8164
208.4300, 417.4492
209.6540, 511.1094
210.8780, 419.0498
212.1010, 412.6611
213.3240, 563.2695
214.5470, 434.8828
215.7700, 416.5479
216.9930, 650.0127
218.2150, 595.7119
219.4380, 727.7803
220.6600, 683.3320
221.8820, 915.9229
223.1040, 1033.550
224.3260, 1126.214
225.5470, 1313.912
226.7680, 1388.644
227.9900, 1959.699
229.2110, 2206.469
230.4310, 2759.270
231.6520, 3356.099
232.8720, 3895.949
234.0930, 4657.818
235.3130, 5320.703
236.5330, 6023.602
237.7530, 6926.508
238.9720, 7796.422
240.1920, 8541.345
241.4110, 9254.271
242.6300, 9364.212
243.8490, 8917.155
245.0680, 8220.106
246.2860, 7263.065
247.5040, 6207.031
248.7230, 5168.004
249.9410, 4407.987
251.1590, 3832.979
252.3760, 3251.979
253.5940, 2819.986
254.8110, 2701.002
256.0280, 2418.026
257.2450, 2081.059
258.4620, 2291.785
259.6790, 2106.943
260.8950, 2080.836
262.1120, 1675.333
263.3280, 1318.273
264.5440, 1022.551
265.7600, 830.5986
266.9750, 716.8301
268.1910, 641.7246
269.4060, 488.7422
270.6210, 554.8613
271.8360, 536.0654
273.0510, 352.3232
274.2650, 225.6113
275.4800, 475.9004
276.6940, 361.1904
277.9080, 300.4844
279.1220, 534.7842
280.3360, 418.0908
281.5490, 718.4043
282.7630, 720.7266
283.9760, 961.0547
285.1890, 966.3838
286.4020, 806.5957
287.6150, 631.6855
288.8270, 315.7393
290.0400, 372.6211
291.2520, 275.2695
292.4640, 55.88477
293.6760, 4.521484
294.8870, 7.169922
296.0990, 61.17188
297.3100, 59.50195
298.5210, 108.8799
299.7320, 55.26367
300.9430, 65.56836
302.1540, 24.93457
303.3640, 29.38281
304.5750, 14.54004
305.7850, 25.87305
306.9950, 7.397461
308.2050, 41.87793
309.4140, 71.38770
310.6240, 31.93945
311.8330, 59.53320
313.0420, 54.98438
314.2510, 22.44531
315.4600, 50.57617
316.6680, 4.688477
317.8770, 26.31641
319.0850, 59.01465
320.2930, 85.35645
321.5010, 45.85352
322.7090, 65.66211
323.9160, 31.94824
325.1240, 24.40820
326.3310, 76.54199
327.5380, 189.6279
328.7450, 190.6992
329.9520, 122.7842
331.1580, 242.8555
332.3650, 204.9229
333.5710, 179.9854
334.7770, 220.0439
335.9830, 224.0996
337.1880, 229.1504
338.3940, 104.1963
339.5990, 176.2383
340.8040, 169.2754
342.0090, 8.693359
343.2140, 67.32422
344.4190, 127.3359
345.6230, 132.3418
346.8280, 298.3447
348.0320, 169.3398
349.2360, 94.29688
350.4400, 217.1660
351.6430, 115.9307
352.8470, 139.6201
354.0500, 243.2529
355.2530, 177.8330
356.4560, 141.3311
357.6590, 56.75586
358.8620, 126.1162
360.0640, 122.8750
361.2660, 149.6914
362.4680, 214.8857
363.6700, 295.0469
364.8720, 335.2090
366.0740, 313.3770
367.2750, 299.5488
368.4760, 557.7266
369.6770, 500.9082
370.8780, 688.0957
372.0790, 929.2871
373.2800, 1100.471
374.4800, 1411.657
375.6800, 1479.849
376.8800, 1847.042
378.0800, 1939.260
379.2800, 2487.479
380.4790, 2512.732
381.6790, 2767.990
382.8780, 3041.304
384.0770, 2833.622
385.2760, 2873.943
386.4750, 2651.270
387.6730, 2421.597
388.8720, 2179.926
390.0700, 1747.260
391.2680, 1603.598
392.4660, 1382.941
393.6630, 1208.290
394.8610, 1048.643
396.0580, 1287.998
397.2550, 1463.360
398.4520, 1776.724
399.6490, 2285.098
400.8460, 2876.476
402.0420, 3482.857
403.2390, 4208.247
404.4350, 5210.648
405.6310, 6533.057
406.8270, 7638.469
408.0220, 8645.878
409.2180, 9251.321
410.4130, 8342.782
411.6080, 6774.300
412.8030, 4804.839
413.9980, 3128.373
415.1920, 1944.902
416.3870, 1329.422
417.5810, 834.9375
418.7750, 617.4434
419.9690, 544.9434
421.1630, 306.4355
422.3570, 266.9209
423.5500, 220.4277
424.7430, 189.9502
425.9360, 106.4844
427.1290, 139.0352
428.3220, 114.5791
429.5150, 87.11426
430.7070, 179.6426
431.8990, 116.1641
433.0910, 222.6836
434.2830, 161.1982
435.4750, 246.7090
436.6670, 59.10352
437.8580, 149.7070
439.0490, 149.4629
440.2400, 181.0264
441.4310, 109.6748
442.6220, 84.19922
443.8130, 43.93359
445.0030, 30.19531
446.1930, 62.59766
447.3830, 47.01367
448.5730, 9.986328
449.7630, 41.69727
450.9520, 108.6738
452.1420, 292.8652
453.3310, 164.1875
454.5200, 321.9707
455.7090, 260.0078
456.8980, 321.4141
458.0860, 412.9941
459.2740, 361.9434
460.4630, 647.8711
461.6510, 967.3770
462.8380, 1000.967
464.0260, 1253.213
465.2140, 1763.992
466.4010, 2515.861
467.5880, 3364.184
468.7750, 4350.451
469.9620, 5270.018
471.1490, 6430.586
472.3350, 7863.152
473.5220, 9540.719
474.7080, 11195.28
475.8940, 12789.84
477.0800, 13134.41
478.2650, 12819.97
479.4510, 10595.53
480.6360, 8205.090
481.8210, 5941.648
483.0060, 4337.207
484.1910, 3176.812
485.3760, 2609.537
486.5600, 2166.090
487.7440, 1874.645
488.9290, 1632.223
490.1130, 1566.775
491.2960, 1207.324
492.4800, 1173.873
493.6630, 963.4219
494.8470, 1020.039
496.0300, 1089.588
497.2130, 1007.137
498.3960, 1015.688
499.5780, 1296.236
500.7610, 1199.789
501.9430, 1289.342
503.1250, 1608.896
504.3070, 2311.455
505.4890, 2661.033
506.6710, 3244.596
507.8520, 4230.160
509.0330, 5629.969
510.2140, 7548.668
511.3950, 9958.238
512.5760, 12750.11
513.7570, 15887.86
514.9370, 19350.44
516.1170, 23281.02
517.2980, 28550.60
518.4780, 33045.19
519.6570, 36728.29
520.8370, 38466.88
522.0160, 36779.20
523.1960, 31817.42
524.3750, 25101.96
525.5540, 18761.19
526.7320, 13355.79
527.9110, 9795.375
529.0890, 7514.965
530.2680, 5644.555
531.4460, 4376.143
532.6240, 3781.254
533.8010, 3099.141
534.9790, 2640.465
536.1560, 2228.609
537.3340, 1857.404
538.5110, 1659.332
539.6880, 1485.912
540.8650, 1382.088
542.0410, 1064.031
543.2180, 936.6660
544.3940, 677.2441
545.5700, 794.8203
546.7460, 733.5938
547.9220, 658.4141
549.0970, 637.7129
550.2730, 700.2969
551.4480, 692.5840
552.6230, 602.1895
553.7980, 478.1719
554.9730, 389.9160
556.1470, 259.7949
557.3210, 265.4570
558.4960, 249.4336
559.6700, 301.0371
560.8440, 362.9551
562.0170, 390.5117
563.1910, 319.5684
564.3640, 371.7656
565.5380, 363.0684
566.7110, 334.0371
567.8840, 79.18750
569.0560, 387.8281
570.2290, 162.6836
571.4010, 300.1875
572.5740, 197.2129
573.7460, 285.5645
574.9180, 353.3574
576.0890, 541.3652
577.2610, 426.8672
578.4320, 504.2285
579.6040, 589.3633
580.7750, 665.8926
581.9450, 883.6953
583.1160, 1113.238
584.2870, 1185.811
585.4570, 1202.316
586.6270, 940.3965
587.7980, 1110.145
588.9670, 806.2246
590.1370, 531.8594
591.3070, 628.5137
592.4760, 466.2129
593.6450, 274.6016
594.8140, 342.3574
595.9830, 141.1172
597.1520, 309.0020
598.3210, 325.8027
599.4890, 122.6172
600.6570, 307.4531
601.8250, 73.29492
602.9930, 211.1367
604.1610, 145.9980
605.3290, 179.8848
606.4960, 125.7871
607.6630, 151.7070
608.8300, 47.61914
609.9970, 100.2637
611.1640, 217.4238
612.3300, 172.3125
613.4970, 156.1934
614.6630, 194.0664
615.8290, 109.9316
616.9950, 166.7910
618.1610, 257.6445
619.3260, 142.4863
620.4920, 243.3203
621.6570, 221.1445
622.8220, 124.9590
623.9870, 76.76758
625.1520, 113.5645
626.3160, 167.3594
627.4810, 111.1465
628.6450, 86.92383
629.8090, 325.6914
630.9730, 325.4473
632.1370, 201.1992
633.3000, 363.9375
634.4640, 82.66797
635.6270, 232.3828
636.7900, 322.1523
637.9530, 295.8496
639.1160, 389.5391
640.2780, 345.2168
641.4410, 273.8848
642.6030, 252.5430
643.7650, 275.4727
644.9270, 106.2168
646.0890, 196.8945
647.2500, 195.5078
648.4120, 56.39062
649.5730, 84.98047
650.7340, 164.8262
651.8950, 47.39258
653.0560, 76.94531
654.2160, 125.4844
655.3770, 144.0137
656.5370, 177.5273
657.6970, 146.0332
658.8570, 61.20898
660.0170, 237.2305
661.1760, 95.32617
662.3360, 13.04688
663.4950, 177.5996
664.6540, 13.75000
665.8130, 166.9688
666.9720, 169.1777
668.1310, 215.4434
669.2890, 170.8320
670.4470, 174.0039
671.6050, 31.16406
672.7630, 65.30664
673.9210, 13.07227
675.0790, 122.5352
676.2360, 17.62695
677.3930, 58.70117
678.5510, 178.7578
679.7080, 7.199219
680.8640, 56.81250
682.0210, 131.8086
683.1770, 251.7910
684.3340, 233.7598
685.4900, 99.72070
686.6460, 88.68164
687.8020, 22.64648
688.9570, 106.3848
690.1130, 53.48047
691.2680, 217.5840
692.4230, 79.82617
693.5780, 108.8574
694.7330, 76.66992
695.8880, 316.3203
697.0420, 45.96094
698.1960, 142.5840
699.3510, 67.20312
700.5040, 152.8027
701.6580, 50.38867
702.8120, 80.91992
703.9650, 66.42578
705.1190, 44.99805
706.2720, 63.62305
707.4250, 130.8750
708.5780, 79.36133
709.7300, 224.4375
710.8830, 54.69727
712.0350, 25.21680
713.1870, 96.69141
714.3390, 59.05078
715.4910, 66.94727
716.6430, 0.8339840
717.7940, 44.75391
718.9460, 161.6523
720.0970, 101.6582
721.2480, 297.6445
722.3990, 284.6152
723.5500, 369.5684
724.7000, 62.75781
725.8500, 149.6895
727.0010, 97.62109
728.1510, 159.9746
729.3010, 108.8789
730.4500, 316.7676
731.6000, 51.79297
732.7490, 175.6426
733.8980, 245.4746
735.0470, 14.71289
736.1960, 202.1543
737.3450, 278.9004
738.4940, 194.8926
739.6420, 327.6035
740.7900, 217.3398
741.9380, 233.0117
743.0860, 307.3379
744.2340, 192.9707
745.3810, 408.5859
746.5290, 351.1816
747.6760, 497.6523
748.8230, 502.2109
749.9700, 542.7480
751.1170, 428.2656
752.2630, 719.1270
753.4100, 873.8008
754.5560, 946.2695
755.7020, 830.2852
756.8480, 886.7266
757.9940, 841.1504
759.1390, 812.5527
760.2850, 745.9375
761.4300, 699.4297
762.5750, 677.5918
763.7200, 561.9180
764.8650, 511.2266
766.0100, 393.5117
767.1540, 394.7480
768.2980, 353.9922
769.4420, 213.2188
770.5860, 186.4219
771.7300, 242.6094
772.8740, 190.7051
774.0170, 171.8516
775.1610, 370.9746
776.3040, 228.2637
777.4470, 329.3477
778.5900, 217.5254
779.7320, 299.5723
780.8750, 118.5957
782.0170, 160.5996
783.1590, 173.5645
784.3010, 220.5254
785.4430, 119.4688
786.5850, 293.1484
787.7260, 122.1035
788.8680, 408.9824
790.0090, 270.5566
791.1500, 270.2227
792.2910, 222.0508
793.4310, 220.8516
794.5720, 221.6328
795.7120, 121.4219
796.8520, 346.6348
797.9920, 254.8535
799.1320, 424.8301
800.2720, 334.8750
801.4120, 140.5957
802.5510, 221.5898
803.6900, 372.2148
804.8290, 168.0391
805.9680, 100.6289
807.1070, 259.4336
808.2450, 224.9844
809.3840, 469.9980
810.5220, 552.8223
811.6600, 516.6855
812.7980, 752.3867
813.9360, 571.1504
815.0730, 485.2520
816.2110, 788.6797
817.3480, 716.4961
818.4850, 589.5254
819.6220, 559.8496
820.7590, 590.4043
821.8960, 383.8418
823.0320, 376.4375
824.1680, 579.4609
825.3040, 288.2988
826.4400, 315.1328
827.5760, 357.8926
828.7120, 276.0820
829.8470, 287.9121
830.9830, 121.9258
832.1180, 182.3809
833.2530, 170.4102
834.3880, 217.0195
835.5220, 302.9453
836.6570, 286.6855
837.7910, 324.7148
838.9250, 125.3242
840.0590, 237.7227
841.1930, 402.9961
842.3270, 168.5820
843.4600, 89.96680
844.5940, 87.83984
845.7270, 14.51758
846.8600, 142.4414
847.9930, 65.86523
849.1250, 12.05664
850.2580, 93.54688
851.3900, 12.91602
852.5230, 211.7695
853.6550, 174.7422
854.7870, 32.93164
855.9180, 171.7168
857.0500, 212.2324
858.1810, 269.0176
859.3130, 179.7910
860.4440, 58.55078
861.5750, 228.7852
862.7050, 252.4297
863.8360, 84.16016
864.9660, 234.4180
866.0970, 158.7676
867.2270, 76.39062
868.3570, 243.3320
869.4870, 290.9141
870.6160, 132.5000
871.7460, 83.96875
872.8750, 192.5254
874.0040, 3.929688
875.1330, 211.5938
876.2620, 94.10156
877.3910, 251.5996
878.5190, 5.085938
879.6470, 379.5508
880.7760, 167.0039
881.9040, 185.4492
883.0310, 125.8789
884.1590, 181.2988
885.2870, 136.7090
886.4140, 116.1055
887.5410, 17.49414
888.6680, 53.64844
889.7950, 290.0078
890.9220, 8.623047
892.0480, 163.9941
893.1750, 334.3145
894.3010, 243.6250
895.4270, 117.9258
896.5530, 125.2109
897.6790, 161.4883
898.8040, 136.7559
899.9300, 93.01367
901.0550, 170.2617
902.1800, 275.4961
903.3050, 189.7207
904.4300, 221.9375
905.5540, 186.1445
906.6790, 104.3418
907.8030, 178.5273
908.9270, 173.7051
910.0510, 215.8125
911.1750, 41.96875
912.2990, 197.1172
913.4220, 57.25586
914.5450, 135.3828
915.6690, 128.4980
916.7920, 245.3242
917.9140, 197.6035
919.0370, 223.4062
920.1600, 91.51367
921.2820, 155.3359
922.4040, 34.42773
923.5260, 159.2422
924.6480, 73.31836
925.7700, 236.3848
926.8910, 72.44336
928.0130, 167.4961
929.1340, 81.53906
930.2550, 65.57617
931.3760, 345.3379
932.4970, 46.60156
933.6170, 122.4336
934.7380, 301.4980
935.8580, 108.5566
936.9780, 70.55078
938.0980, 367.6484
939.2180, 13.74219
940.3370, 242.8262
941.4570, 7.630859
942.5760, 63.69727
943.6950, 169.7578
944.8140, 187.8223
945.9330, 214.4531
947.0520, 205.9531
948.1700, 196.0176
949.2890, 182.0820
950.4070, 129.1367
951.5250, 119.4766
952.6430, 79.49023
953.7600, 73.28906
954.8780, 7.332031
955.9950, 11.63281
957.1120, 49.61523
958.2290, 57.63281
959.3460, 94.68945
960.4630, 67.79102
961.5800, 173.9023
962.6960, 174.9043
963.8120, 40.76953
964.9280, 94.66016
966.0440, 23.40234
967.1600, 0.7167970
968.2760, 190.1660
969.3910, 41.95312
970.5060, 61.89648
971.6210, 265.7422
972.7360, 129.5859
973.8510, 95.30078
974.9660, 175.1680
976.0800, 110.6445
977.1950, 133.6895
978.3090, 156.6953
979.4230, 98.42188
980.5370, 180.5391
981.6500, 93.45508
982.7640, 106.0898
983.8770, 116.7480
984.9900, 104.5020
986.1030, 155.4004
987.2160, 276.5254
988.3290, 216.4883
989.4420, 260.0820
990.5540, 218.0586
991.6660, 88.03711
992.7780, 132.6816
993.8900, 188.9844
995.0020, 167.7109
996.1140, 52.68164
997.2250, 160.6504
998.3360, 177.1855
999.4470, 296.1543
1000.558, 354.1211
1001.669, 359.9336
1002.780, 464.9004
1003.890, 436.8906
1005.001, 210.8770
1006.111, 232.7949
1007.221, 267.8125
1008.331, 222.5645
1009.440, 506.5820
1010.550, 546.5527
1011.659, 408.5684
1012.768, 288.9121
1013.877, 506.9258
1014.986, 434.9395
1016.095, 449.9531
1017.204, 285.9688
1018.312, 253.9805
1019.420, 102.9941
1020.528, 167.0098
1021.636, 35.34180
1022.744, 180.4707
1023.852, 59.53320
1024.959, 0.1191410
1026.066, 265.8477
1027.173, 208.8184
1028.280, 154.7891
1029.387, 311.7617
1030.494, 261.7324
1031.600, 388.7090
1032.707, 131.6836
1033.813, 55.65430
1034.919, 241.6328
1036.025, 224.6113
1037.130, 471.5938
1038.236, 531.5762
1039.341, 512.5586
1040.446, 721.5449
1041.552, 466.5312
1042.656, 803.5215
1043.761, 1048.512
1044.866, 889.3223
1045.970, 994.3164
1047.074, 1136.203
1048.179, 1045.203
1049.282, 1060.207
1050.386, 1041.180
1051.490, 1260.188
1052.593, 1183.549
1053.697, 1161.211
1054.800, 1107.229
1055.903, 1066.066
1057.006, 1036.709
1058.108, 950.1055
1059.211, 954.1328
1060.313, 937.1543
1061.415, 857.1855
1062.517, 885.2207
1063.619, 913.2324
1064.721, 1063.785
1065.823, 898.8223
1066.924, 895.7285
1068.025, 833.7773
1069.126, 735.5215
1070.227, 731.1074
1071.328, 596.9453
1072.429, 689.7871
1073.529, 672.8496
1074.629, 691.6816
1075.729, 472.7480
1076.829, 384.7207
1077.929, 429.7949
1079.029, 348.7344
1080.128, 562.8125
1081.228, 467.8945
1082.327, 496.9785
1083.426, 535.0664
1084.525, 550.1543
1085.623, 620.2480
1086.722, 674.3438
1087.820, 348.2441
1088.919, 171.2461
1090.017, 216.8809
1091.115, 353.0234
1092.212, 243.0996
1093.310, 357.6367
1094.407, 238.5293
1095.505, 187.6543
1096.602, 129.7480
1097.699, 373.8828
1098.795, 152.9238
1099.892, 19.87695
1100.989, 282.0234
1102.085, 226.3242
1103.181, 545.4785
1104.277, 300.6387
1105.373, 264.8047
1106.469, 641.9746
1107.564, 485.1484
1108.660, 329.3301
1109.755, 621.5156
1110.850, 475.7031
1111.945, 463.8984
1113.040, 556.1074
1114.134, 603.3242
1115.229, 463.5449
1116.323, 731.7793
1117.417, 588.0195
1118.511, 644.2695
1119.605, 597.0859
1120.698, 542.3438
1121.792, 735.6094
1122.885, 605.8789
1123.978, 705.1523
1125.071, 623.4316
1126.164, 916.7148
1127.257, 740.0020
1128.349, 887.2949
1129.442, 784.5938
1130.534, 962.9238
1131.626, 1318.258
1132.718, 1456.598
1133.810, 1633.943
1134.901, 1677.426
1135.993, 1966.781
1137.084, 1976.100
1138.175, 1870.463
1139.266, 2279.830
1140.357, 2234.211
1141.448, 2095.596
1142.538, 1895.984
1143.628, 1649.379
1144.719, 1730.781
1145.809, 1755.186
1146.898, 1428.596
1147.988, 1390.025
1149.078, 1191.459
1150.167, 851.8984
1151.256, 826.3418
1152.345, 436.7891
1153.434, 557.4609
1154.523, 408.9219
1155.612, 506.1172
1156.700, 208.5508
1157.788, 333.0293
1158.877, 366.5117
1159.964, 366.9980
1161.052, 562.4961
1162.140, 344.0020
1163.227, 401.5117
1164.315, 489.0469
1165.402, 170.6016
1166.489, 277.1641
1167.576, 441.7305
1168.663, 175.3027
1169.749, 143.8809
1170.836, 4.468750
1171.922, 202.0645
1173.008, 304.6602
1174.094, 118.2656
1175.180, 358.8730
1176.265, 148.4863
1177.351, 181.1035
1178.436, 31.73047
1179.521, 33.32031
1180.606, 107.0059
1181.691, 143.5820
1182.776, 105.1758
1183.860, 343.7715
1184.944, 166.3770
1186.029, 91.98242
1187.113, 224.5977
1188.197, 346.2188
1189.280, 396.8418
1190.364, 190.4727
1191.447, 220.1055
1192.531, 143.7480
1193.614, 60.39648
1194.697, 82.95508
1195.779, 49.95703
1196.862, 38.63477
1197.945, 4.876953
1199.027, 147.4844
1200.109, 203.0957
1201.191, 366.7148
1202.273, 450.3379
1203.355, 335.9648
1204.436, 135.6016
1205.518, 209.2441
1206.599, 39.10742
1207.680, 41.52930
1208.761, 55.83008
1209.842, 128.7891
1210.922, 19.41602
1212.003, 281.0488
1213.083, 149.6855
1214.163, 264.3281
1215.243, 309.9766
1216.323, 110.6289
1217.402, 323.2871
1218.482, 356.9531
1219.561, 96.62891
1220.641, 285.3262
1221.720, 44.95508
1222.798, 58.77734
1223.877, 129.5625
1224.956, 51.40234
1226.034, 37.24609
1227.112, 242.0957
1228.191, 119.9531
1229.269, 43.18750
1230.346, 310.6641
1231.424, 292.5195
1232.501, 26.39258
1233.579, 25.27148
1234.656, 36.15234
1235.733, 123.0410
1236.810, 124.7773
1237.886, 168.9004
1238.963, 209.7676
1240.039, 202.6895
1241.116, 283.6172
1242.192, 238.7656
1243.268, 246.7051
1244.343, 215.9258
1245.419, 76.59375
1246.494, 97.54492
1247.570, 16.50195
1248.645, 79.53906
1249.720, 194.3887
1250.795, 122.3203
1251.869, 147.2559
1252.944, 564.1953
1254.018, 211.1406
1255.093, 332.0957
1256.167, 322.0508
1257.240, 243.0176
1258.314, 183.9902
1259.388, 237.9648
1260.461, 399.9434
1261.535, 298.9277
1262.608, 117.9160
1263.681, 87.08594
1264.753, 206.8691
1265.826, 68.17188
1266.899, 387.7598
1267.971, 197.6934
1269.043, 54.95117
1270.115, 476.8945
1271.187, 282.8398
1272.259, 332.7910
1273.330, 155.7441
1274.402, 318.7070
1275.473, 46.66992
1276.544, 228.9668
1277.615, 214.9395
1278.686, 365.9141
1279.756, 206.8926
1280.827, 320.8750
1281.897, 273.8613
1282.967, 205.8574
1284.037, 384.8574
