##NAMES=Epididymite
##RRUFFID=R060773
##IDEAL CHEMISTRY=Na_2_Be_2_Si_6_O_15_&#183;H_2_O
##LOCALITY=unknown
##OWNER=RRUFF
##SOURCE=Michael Scott
##DESCRIPTION=Colorless platy crystals forming a pseudohexagonal aggregate
##STATUS=The identification of this mineral has been confirmed by single-crystal X-ray diffraction.
##URL=rruff.info/R060773
##PIN_ID=M00148
##ORIENTATION=Laser parallel to c* (0 0 1). Fiducial mark perpendicular to laser is parallel to a [1 0 0]
102.1160, 0.0000000E+00
103.3490, 5.088867
104.5820, 24.97412
105.8150, 42.81982
107.0470, 139.3022
108.2800, 246.7432
109.5120, 213.1973
110.7440, 316.5000
111.9760, 216.6523
113.2080, 395.8018
114.4400, 527.1943
115.6710, 671.5522
116.9030, 876.2246
118.1340, 1078.856
119.3650, 1496.170
120.5960, 2023.934
121.8270, 2707.935
123.0580, 3306.989
124.2880, 4202.959
125.5190, 4937.752
126.7490, 6794.343
127.9790, 9271.891
129.2090, 12414.47
130.4390, 15783.78
131.6680, 17734.37
132.8980, 17126.14
134.1270, 14141.46
135.3560, 10438.21
136.5850, 6921.315
137.8140, 4683.676
139.0430, 3029.229
140.2710, 1834.929
141.5000, 1245.736
142.7280, 818.6270
143.9560, 585.5840
145.1840, 406.6353
146.4120, 232.0273
147.6390, 231.5142
148.8670, 163.9985
150.0940, 112.1704
151.3210, 192.7915
152.5490, 52.16406
153.7750, 32.95068
155.0020, 10.10107
156.2290, 39.89551
157.4550, 58.26172
158.6810, 64.75342
159.9080, 11.70117
161.1340, 49.84570
162.3590, 56.91748
163.5850, 319.5415
164.8110, 509.7437
166.0360, 596.5459
167.2610, 659.9678
168.4860, 657.0259
169.7110, 726.7393
170.9360, 646.1230
172.1610, 602.1924
173.3850, 589.9609
174.6100, 649.4419
175.8340, 600.6606
177.0580, 521.6636
178.2820, 598.4951
179.5050, 524.1821
180.7290, 533.7432
181.9520, 694.1914
183.1760, 845.5371
184.3990, 1001.789
185.6220, 1189.114
186.8450, 1256.234
188.0670, 1631.271
189.2900, 1939.745
190.5120, 2299.513
191.7340, 2747.446
192.9560, 2993.125
194.1780, 3354.597
195.4000, 3734.711
196.6220, 3839.812
197.8430, 3977.029
199.0640, 3809.547
200.2860, 3476.482
201.5070, 3274.475
202.7270, 2807.806
203.9480, 2559.311
205.1690, 2088.745
206.3890, 1793.643
207.6090, 1670.245
208.8290, 1373.172
210.0490, 1316.244
211.2690, 1222.078
212.4890, 1100.356
213.7080, 1161.275
214.9280, 1002.244
216.1470, 1094.017
217.3660, 1028.325
218.5850, 1062.633
219.8030, 1103.937
221.0220, 1281.236
222.2400, 1309.529
223.4590, 1532.814
224.6770, 1617.084
225.8950, 1932.334
227.1120, 2159.555
228.3300, 2437.741
229.5480, 3036.892
230.7650, 3460.000
231.9820, 4195.068
233.1990, 4724.097
234.4160, 5615.086
235.6330, 6569.039
236.8490, 7582.954
238.0660, 8337.834
239.2820, 9073.677
240.4980, 9010.490
241.7140, 8683.270
242.9300, 7765.011
244.1460, 6812.727
245.3610, 5729.411
246.5770, 4856.066
247.7920, 3882.692
249.0070, 3198.066
250.2220, 2597.949
251.4370, 2243.827
252.6510, 1837.044
253.8660, 1582.527
255.0800, 1569.220
256.2940, 1420.085
257.5080, 1488.090
258.7220, 1435.210
259.9360, 1394.427
261.1490, 1201.725
262.3630, 1008.089
263.5760, 816.5039
264.7890, 736.9604
266.0020, 556.4502
267.2150, 448.9658
268.4270, 304.5020
269.6400, 232.3940
270.8520, 150.6167
272.0640, 127.1865
273.2760, 51.75879
274.4880, 16.31348
275.7000, 60.85010
276.9120, 72.32471
278.1230, 20.78076
279.3340, 178.2080
280.5450, 161.6167
281.7560, 176.0054
282.9670, 304.3711
284.1780, 226.7139
285.3880, 246.0327
286.5980, 142.3262
287.8090, 160.5942
289.0190, 132.8354
290.2290, 33.95020
291.4380, 53.79053
292.6480, 156.6919
293.8570, 92.68262
295.0670, 43.74414
296.2760, 81.86865
297.4850, 172.0723
298.6930, 154.3857
299.9020, 120.1694
301.1110, 219.7046
302.3190, 145.3784
303.5270, 144.0420
304.7350, 125.9878
305.9430, 102.9351
307.1510, 143.2363
308.3580, 109.4692
309.5660, 128.3198
310.7730, 182.2363
311.9800, 95.78711
313.1870, 121.4277
314.3940, 42.16455
315.6010, 77.97461
316.8070, 35.86523
318.0130, 44.82520
319.2200, 11.14551
320.4260, 88.06250
321.6310, 58.93896
322.8370, 52.77344
324.0430, 35.56592
325.2480, 8.685547
326.4540, 249.0093
327.6590, 143.6709
328.8640, 261.2988
330.0680, 284.8955
331.2730, 326.4600
332.4780, 302.9932
333.6820, 414.4839
334.8860, 412.9160
336.0900, 471.2935
337.2940, 548.6406
338.4980, 624.9580
339.7010, 760.2480
340.9050, 949.5073
342.1080, 1113.694
343.3110, 1265.712
344.5140, 1350.595
345.7170, 1308.298
346.9200, 1095.819
348.1220, 926.1255
349.3240, 791.2598
350.5270, 696.2349
351.7290, 641.0571
352.9310, 659.7153
354.1320, 663.2544
355.3340, 631.6948
356.5350, 704.0674
357.7370, 681.4209
358.9380, 654.7466
360.1390, 637.0415
361.3400, 589.3296
362.5400, 659.6147
363.7410, 690.8950
364.9410, 664.1719
366.1410, 671.4448
367.3410, 805.7148
368.5410, 863.9805
369.7410, 924.2432
370.9400, 1265.502
372.1400, 1410.759
373.3390, 1657.012
374.5380, 2041.264
375.7370, 2347.513
376.9360, 2953.759
378.1350, 3276.004
379.3330, 3772.248
380.5310, 3819.489
381.7300, 3845.730
382.9280, 3678.971
384.1260, 3502.210
385.3230, 3336.450
386.5210, 3134.271
387.7180, 2939.928
388.9160, 2710.167
390.1130, 2410.407
391.3100, 2158.647
392.5060, 2158.890
393.7030, 2303.125
394.9000, 2366.358
396.0960, 2846.583
397.2920, 3444.799
398.4880, 4378.005
399.6840, 5732.200
400.8800, 7242.382
402.0750, 9535.549
403.2710, 12606.71
404.4660, 16451.86
405.6610, 20192.99
406.8560, 21754.12
408.0510, 20109.24
409.2450, 16452.35
410.4400, 12251.43
411.6340, 8672.526
412.8280, 5956.627
414.0220, 4011.740
415.2160, 2939.741
416.4100, 2131.641
417.6030, 1602.794
418.7970, 1487.419
419.9900, 1114.727
421.1830, 1090.200
422.3760, 1004.001
423.5690, 1012.123
424.7610, 1031.177
425.9540, 1118.298
427.1460, 1234.529
428.3380, 1603.785
429.5300, 1943.041
430.7220, 2178.058
431.9140, 2601.150
433.1050, 2767.107
434.2970, 2847.374
435.4880, 2565.381
436.6790, 2225.896
437.8700, 1732.410
439.0610, 1223.963
440.2510, 954.1187
441.4420, 589.5879
442.6320, 577.1406
443.8220, 436.8389
445.0120, 346.2925
446.2020, 300.4326
447.3910, 183.6938
448.5810, 195.1372
449.7700, 211.0278
450.9600, 249.3867
452.1490, 371.8730
453.3370, 474.1792
454.5260, 674.1069
455.7150, 872.4697
456.9030, 898.2334
458.0910, 1054.985
459.2800, 938.5073
460.4670, 933.6919
461.6550, 918.3359
462.8430, 833.5000
464.0300, 864.0371
465.2180, 1082.101
466.4050, 1251.025
467.5920, 1646.447
468.7790, 2127.532
469.9650, 2770.953
471.1520, 3607.022
472.3380, 4584.456
473.5250, 5406.896
474.7110, 6077.342
475.8970, 6276.796
477.0820, 6122.258
478.2680, 6198.725
479.4540, 6357.201
480.6390, 7012.683
481.8240, 8295.173
483.0090, 9767.672
484.1940, 10406.18
485.3780, 10211.69
486.5630, 8974.215
487.7470, 7299.748
488.9320, 5765.292
490.1160, 4384.845
491.3000, 3574.413
492.4830, 2926.993
493.6670, 2454.586
494.8500, 2303.193
496.0340, 2296.816
497.2170, 2253.456
498.4000, 2389.644
499.5820, 2585.780
500.7650, 2847.470
501.9480, 3124.173
503.1300, 3531.895
504.3120, 3957.632
505.4940, 4733.387
506.6760, 5777.160
507.8580, 7221.948
509.0390, 9306.754
510.2210, 12220.58
511.4020, 16047.42
512.5830, 20954.27
513.7640, 27382.15
514.9450, 35676.04
516.1250, 44723.94
517.3060, 53332.87
518.4860, 57811.81
519.6660, 56671.77
520.8460, 50316.75
522.0260, 40969.74
523.2060, 31421.75
524.3850, 23463.78
525.5650, 17199.82
526.7440, 12929.88
527.9230, 9705.959
529.1020, 7448.052
530.2810, 5868.167
531.4590, 4739.295
532.6380, 3850.441
533.8160, 3057.604
534.9940, 2714.784
536.1720, 2326.982
537.3500, 2044.197
538.5270, 1604.429
539.7050, 1660.725
540.8820, 1212.990
542.0590, 1155.273
543.2360, 1091.573
544.4130, 950.8906
545.5900, 879.9692
546.7660, 775.3213
547.9430, 586.2744
549.1190, 636.6611
550.2950, 570.1357
551.4710, 442.5571
552.6470, 542.4580
553.8220, 457.5488
554.9980, 449.7715
556.1730, 371.9937
557.3480, 392.9336
558.5230, 295.0952
559.6980, 365.0273
560.8730, 188.2363
562.0470, 392.9673
563.2220, 288.2163
564.3960, 271.0537
565.5700, 284.9663
566.7440, 213.0908
567.9170, 182.0566
569.0910, 388.9419
570.2640, 410.5581
571.4380, 451.8447
572.6110, 626.7725
573.7840, 832.7065
574.9570, 1132.074
576.1290, 1425.820
577.3020, 2001.203
578.4740, 2545.354
579.6460, 3358.505
580.8180, 4459.560
581.9900, 5282.589
583.1620, 5721.802
584.3330, 5631.153
585.5040, 4980.391
586.6760, 4006.576
587.8470, 3206.150
589.0180, 2437.643
590.1880, 1791.197
591.3590, 1498.035
592.5290, 1241.443
593.7000, 1017.176
594.8700, 894.0391
596.0400, 668.9106
597.2090, 717.8350
598.3790, 639.8184
599.5490, 579.8408
600.7180, 550.3994
601.8870, 531.2720
603.0560, 509.1782
604.2250, 493.6387
605.3940, 469.7935
606.5620, 467.3809
607.7300, 463.1460
608.8990, 447.3750
610.0670, 437.6328
611.2350, 436.8218
612.4020, 428.1797
613.5700, 449.5527
614.7370, 463.9658
615.9050, 492.3774
617.0720, 469.6772
618.2390, 483.9829
619.4060, 514.2949
620.5720, 563.6123
621.7390, 629.9360
622.9050, 696.2656
624.0710, 734.6006
625.2370, 912.9419
626.4030, 989.2881
627.5690, 1190.640
628.7340, 1235.996
629.9000, 1476.358
631.0650, 1669.725
632.2300, 1633.096
633.3950, 1710.472
634.5600, 1405.852
635.7240, 1149.236
636.8890, 1004.625
638.0530, 770.0166
639.2170, 689.4126
640.3810, 613.8125
641.5450, 392.2153
642.7080, 509.6216
643.8720, 425.0312
645.0350, 345.4434
646.1980, 363.8579
647.3610, 377.2754
648.5240, 281.6953
649.6870, 362.1172
650.8490, 282.5410
652.0120, 272.9673
653.1740, 251.3945
654.3360, 243.8232
655.4980, 221.2544
656.6600, 311.6870
657.8210, 160.1240
658.9830, 297.5625
660.1440, 185.0098
661.3050, 128.4570
662.4660, 34.90527
663.6270, 16.35352
664.7870, 148.8013
665.9480, 74.24902
667.1080, 112.7021
668.2680, 232.1548
669.4280, 13.60645
670.5880, 32.05859
671.7480, 135.5107
672.9070, 182.9609
674.0670, 48.42383
675.2260, 235.8853
676.3850, 53.34521
677.5440, 158.8057
678.7030, 9.265137
679.8610, 79.72754
681.0200, 111.2007
682.1780, 44.67920
683.3360, 75.15723
684.4940, 32.36523
685.6520, 108.0894
686.8090, 27.45898
687.9670, 93.00781
689.1240, 22.47217
690.2810, 69.95703
691.4380, 68.55859
692.5950, 70.11426
693.7520, 86.71680
694.9080, 69.37061
696.0650, 63.47363
697.2210, 65.61572
698.3770, 44.58789
699.5330, 63.41016
700.6880, 86.28076
701.8440, 93.21240
702.9990, 85.20898
704.1550, 69.26709
705.3100, 87.37939
706.4650, 115.5562
707.6190, 113.1709
708.7740, 28.14258
709.9290, 101.5098
711.0830, 46.95166
712.2370, 32.56152
713.3910, 51.93506
714.5450, 72.48145
715.6980, 16.91162
716.8520, 43.70996
718.0050, 39.62061
719.1580, 71.05859
720.3110, 11.19824
721.4640, 66.43506
722.6170, 51.66211
723.7700, 51.12256
724.9220, 111.9629
726.0740, 53.10938
727.2260, 96.16846
728.3780, 147.2158
729.5300, 45.25195
730.6810, 4.272949
731.8330, 168.2637
732.9840, 77.24170
734.1350, 120.2061
735.2860, 175.1567
736.4370, 113.0938
737.5880, 140.0166
738.7380, 38.92529
739.8880, 48.81348
741.0390, 55.68359
742.1890, 179.5361
743.3380, 54.37305
744.4880, 98.19287
745.6380, 55.00439
746.7870, 139.7310
747.9360, 174.4502
749.0850, 130.1543
750.2340, 102.8418
751.3830, 83.51270
752.5310, 76.16699
753.6800, 78.80371
754.8280, 141.4229
755.9760, 132.0254
757.1240, 208.6118
758.2720, 186.1816
759.4190, 135.7354
760.5670, 114.2725
761.7140, 152.7925
762.8610, 182.2964
764.0080, 252.7832
765.1550, 141.2529
766.3020, 141.7061
767.4480, 150.1416
768.5950, 200.5610
769.7410, 214.9629
770.8870, 145.3472
772.0330, 194.7153
773.1780, 174.0654
774.3240, 247.3989
775.4690, 324.7153
776.6140, 273.0137
777.7590, 185.2949
778.9040, 206.5581
780.0490, 258.8042
781.1940, 227.0332
782.3380, 240.2441
783.4820, 297.4375
784.6260, 236.6133
785.7700, 228.7710
786.9140, 268.9116
788.0580, 257.0342
789.2010, 186.1387
790.3450, 318.2256
791.4880, 300.2944
792.6310, 198.4033
793.7730, 324.4487
794.9160, 310.9907
796.0590, 297.0146
797.2010, 254.7578
798.3430, 408.7188
799.4850, 413.6611
800.6270, 411.5859
801.7690, 344.4922
802.9100, 407.3804
804.0520, 481.4683
805.1930, 527.3203
806.3340, 568.1533
807.4750, 632.5195
808.6160, 721.1455
809.7560, 797.9238
810.8970, 858.9380
812.0370, 1058.679
813.1770, 1072.402
814.3170, 1512.516
815.4570, 1590.422
816.5960, 1741.099
817.7360, 1878.951
818.8750, 1745.280
820.0140, 1513.372
821.1530, 1352.210
822.2920, 1149.042
823.4310, 921.5986
824.5690, 1029.854
825.7070, 842.5117
826.8460, 682.7310
827.9840, 815.9756
829.1220, 677.1074
830.2590, 624.9175
831.3970, 511.6768
832.5340, 445.3066
833.6710, 419.5845
834.8080, 588.3086
835.9450, 394.2788
837.0820, 471.9829
838.2190, 487.1689
839.3550, 395.8389
840.4910, 381.9326
841.6270, 458.9507
842.7630, 452.7563
843.8990, 414.1133
845.0350, 509.1572
846.1700, 550.4702
847.3060, 515.1118
848.4410, 725.1128
849.5760, 910.1079
850.7100, 881.6709
851.8450, 943.8833
852.9800, 1177.491
854.1140, 1209.391
855.2480, 1220.332
856.3820, 1402.401
857.5160, 1457.538
858.6500, 1520.553
859.7830, 1549.492
860.9170, 1561.595
862.0500, 1438.826
863.1830, 1283.729
864.3160, 1176.768
865.4480, 1092.799
866.5810, 883.5918
867.7130, 834.8735
868.8460, 702.8765
869.9780, 738.8027
871.1100, 723.7881
872.2410, 652.7651
873.3730, 755.7334
874.5050, 587.6938
875.6360, 596.1572
876.7670, 634.7979
877.8980, 643.5107
879.0290, 426.4385
880.1590, 456.0957
881.2900, 450.9932
882.4200, 506.9683
883.5500, 386.8652
884.6800, 503.7554
885.8100, 405.6382
886.9400, 278.5044
888.0690, 412.2808
889.1990, 358.0171
890.3280, 307.7554
891.4570, 138.6050
892.5860, 259.4487
893.7140, 227.2866
894.8430, 330.1177
895.9710, 201.9434
897.1000, 340.7637
898.2280, 222.5771
899.3560, 257.3857
900.4830, 287.1885
901.6110, 187.9863
902.7380, 119.7783
903.8660, 148.5654
904.9930, 139.3477
906.1200, 181.1250
907.2460, 205.8975
908.3730, 141.6650
909.5000, 77.42871
910.6260, 70.18750
911.7520, 123.9424
912.8780, 95.69238
914.0040, 194.4385
915.1290, 155.9043
916.2550, 44.91895
917.3800, 136.6533
918.5050, 59.38477
919.6300, 90.11230
920.7550, 66.83594
921.8800, 80.55762
923.0040, 67.27539
924.1290, 70.99121
925.2530, 50.70312
926.3770, 55.41309
927.5010, 7.119141
928.6250, 8.822266
929.7480, 3.291016
930.8720, 7.435547
931.9950, 26.09961
933.1180, 64.56934
934.2410, 41.23730
935.3640, 87.90234
936.4860, 91.56543
937.6090, 91.94922
938.7310, 18.10938
939.8530, 85.53809
940.9750, 27.18555
942.0970, 3.167969
943.2180, 59.47266
944.3400, 17.11914
945.4610, 55.21680
946.5820, 30.43164
947.7030, 10.08496
948.8240, 5.233398
949.9450, 1.556641
951.0650, 18.17773
952.1860, 56.19336
953.3060, 30.53516
954.4260, 7.878906
955.5460, 3.226563
956.6650, 63.42090
957.7850, 5.080078
958.9040, 140.2598
960.0230, 1.661133
961.1420, 101.0322
962.2610, 15.45312
963.3800, 22.84766
964.4990, 93.76953
965.6170, 22.58398
966.7350, 38.92090
967.8530, 26.75000
968.9710, 7.556641
970.0890, 81.15527
971.2070, 89.88672
972.3240, 141.6465
973.4410, 89.43652
974.5580, 38.25977
975.6750, 89.11328
976.7920, 114.9951
977.9090, 11.09180
979.0250, 25.85742
980.1410, 106.8467
981.2580, 191.8525
982.3740, 187.8965
983.4890, 236.9639
984.6050, 233.0361
985.7200, 256.5410
986.8360, 191.2627
987.9510, 247.3994
989.0660, 264.5605
990.1810, 161.7266
991.2950, 243.9248
992.4100, 257.1328
993.5240, 258.3467
994.6390, 260.5674
995.7530, 325.8145
996.8660, 331.1055
997.9800, 379.4033
999.0940, 624.7061
1000.207, 572.0137
1001.320, 870.3291
1002.433, 789.6602
1003.546, 781.9951
1004.659, 753.3379
1005.772, 662.5908
1006.884, 529.0400
1007.996, 513.4014
1009.108, 484.7676
1010.220, 458.1436
1011.332, 518.5283
1012.444, 632.9209
1013.555, 572.3193
1014.666, 623.7266
1015.777, 537.1406
1016.888, 614.5869
1017.999, 607.0420
1019.110, 575.5029
1020.220, 511.9707
1021.331, 641.4463
1022.441, 685.9287
1023.551, 713.4199
1024.661, 717.9189
1025.770, 816.4258
1026.880, 871.9404
1027.989, 1041.462
1029.098, 961.9912
1030.207, 1025.528
1031.316, 1183.074
1032.425, 1079.627
1033.533, 1326.188
1034.642, 1388.757
1035.750, 1643.334
1036.858, 1698.919
1037.966, 1780.512
1039.073, 2186.113
1040.181, 2120.723
1041.288, 2404.342
1042.396, 2467.969
1043.503, 2636.604
1044.610, 2745.248
1045.716, 2770.602
1046.823, 2726.562
1047.929, 2768.233
1049.036, 2713.913
1050.142, 2615.600
1051.248, 2587.297
1052.353, 2471.854
1053.459, 2345.719
1054.564, 2242.443
1055.670, 2182.827
1056.775, 2103.628
1057.880, 2040.851
1058.985, 1995.433
1060.089, 1946.204
1061.194, 1884.927
1062.298, 1873.704
1063.402, 1870.977
1064.506, 1783.760
1065.610, 1686.814
1066.713, 1758.644
1067.817, 1761.481
1068.920, 1724.330
1070.023, 1645.509
1071.126, 1655.057
1072.229, 1408.718
1073.332, 1298.606
1074.435, 1221.508
1075.537, 1079.195
1076.639, 1045.163
1077.741, 958.2314
1078.843, 922.9521
1079.945, 974.9736
1081.046, 865.3701
1082.148, 709.9316
1083.249, 900.5967
1084.350, 807.5303
1085.451, 865.4932
1086.551, 697.6855
1087.652, 775.2266
1088.752, 707.0127
1089.853, 602.0615
1090.953, 560.1191
1092.053, 609.8965
1093.152, 661.0547
1094.252, 755.3643
1095.351, 764.1260
1096.451, 718.1260
1097.550, 890.4512
1098.649, 791.5361
1099.748, 960.7588
1100.846, 1044.945
1101.945, 957.8340
1103.043, 998.0420
1104.141, 1088.985
1105.239, 1182.212
1106.337, 1223.449
1107.434, 1315.325
1108.532, 1401.682
1109.629, 1509.216
1110.726, 1604.099
1111.823, 1803.382
1112.920, 1947.675
1114.017, 2158.977
1115.113, 2185.287
1116.210, 2375.605
1117.306, 2487.934
1118.402, 2484.270
1119.498, 2827.615
1120.593, 2806.969
1121.689, 3038.331
1122.784, 3316.700
1123.879, 3555.079
1124.974, 3861.465
1126.069, 4188.861
1127.164, 4568.265
1128.259, 5241.677
1129.353, 5712.123
1130.447, 6364.576
1131.541, 6957.037
1132.635, 7750.508
1133.729, 8332.986
1134.822, 9055.474
1135.916, 9597.968
1137.009, 9853.472
1138.102, 9982.984
1139.195, 9877.509
1140.288, 9426.040
1141.380, 9046.581
1142.473, 8164.131
1143.565, 7430.688
1144.657, 6622.254
1145.749, 5770.828
1146.841, 5052.410
1147.932, 4405.000
1149.024, 3731.599
1150.115, 3183.205
1151.206, 2883.818
1152.297, 2454.441
1153.388, 2125.070
1154.479, 1825.710
1155.569, 1738.356
1156.659, 1418.011
1157.750, 1384.672
1158.839, 1372.343
1159.929, 1049.021
1161.019, 973.7090
1162.108, 875.4023
1163.198, 813.1045
1164.287, 757.8145
1165.376, 714.5352
1166.465, 621.2637
1167.553, 538.9990
1168.642, 524.7422
1169.730, 446.4941
1170.818, 509.2529
1171.906, 419.0195
1172.994, 363.7939
1174.082, 417.5771
1175.170, 477.3672
1176.257, 257.1641
1177.344, 282.9688
1178.431, 306.7812
1179.518, 285.6016
1180.605, 375.4297
1181.691, 294.1797
1182.778, 119.1064
1183.864, 177.9561
1184.950, 186.8135
1186.036, 154.6777
1187.122, 181.5488
1188.207, 85.42676
1189.292, 35.31348
1190.378, 73.20703
1191.463, 103.1064
1192.548, 122.0156
1193.632, 126.9307
1194.717, 129.5840
1195.801, 125.5186
1196.886, 109.7393
1197.970, 102.6943
1199.054, 85.65820
1200.137, 70.62793
1201.221, 36.60449
1202.305, 38.13086
1203.388, 55.58301
1204.471, 4.585938
1205.554, 48.59473
1206.637, 24.38672
1207.719, 75.37500
1208.802, 56.39160
1209.884, 21.41504
1210.966, 112.4424
1212.048, 31.48047
1213.130, 53.58887
1214.212, 25.32422
1215.293, 40.75195
1216.374, 52.82715
1217.456, 83.08496
1218.536, 55.00781
1219.617, 28.51758
1220.698, 78.45312
1221.778, 7.624023
1222.859, 121.3828
1223.939, 68.54590
1225.019, 123.1387
1226.099, 141.7666
1227.178, 17.68262
1228.258, 65.22852
1229.337, 76.14844
1230.417, 46.08398
1231.496, 100.0244
1232.574, 179.9717
1233.653, 9.075195
1234.732, 136.8750
1235.810, 180.8301
1236.888, 97.79004
1237.966, 189.7559
1239.044, 145.7266
1240.122, 144.7021
1241.199, 155.6855
1242.277, 166.6738
1243.354, 97.66699
1244.431, 130.6641
1245.508, 217.6670
1246.585, 266.6787
1247.661, 190.6934
1248.738, 265.7129
1249.814, 185.7393
1250.890, 232.7705
1251.966, 196.8057
1253.042, 237.8457
1254.117, 127.8906
1255.193, 45.93945
1256.268, 162.9941
1257.343, 213.0547
1258.418, 214.0908
1259.493, 344.2002
1260.567, 159.3379
1261.642, 335.4805
1262.716, 294.6338
1263.790, 353.7930
1264.864, 365.7568
1265.938, 338.1250
1267.011, 329.2979
1268.085, 314.3906
1269.158, 289.5723
1270.231, 213.7568
1271.304, 224.9463
1272.377, 330.1377
1273.450, 315.3359
1274.522, 233.5371
1275.594, 397.7432
1276.666, 365.9521
1277.738, 283.1650
1278.810, 248.3818
1279.882, 235.7432
1280.953, 219.8281
1282.025, 222.0566
1283.096, 249.2891
1284.167, 228.5254
1285.238, 251.3779
