##NAMES=Epididymite
##RRUFFID=R060773
##IDEAL CHEMISTRY=Na_2_Be_2_Si_6_O_15_&#183;H_2_O
##LOCALITY=unknown
##OWNER=RRUFF
##SOURCE=Michael Scott
##DESCRIPTION=Colorless platy crystals forming a pseudohexagonal aggregate
##STATUS=The identification of this mineral has been confirmed by single-crystal X-ray diffraction.
##URL=rruff.info/R060773
##PIN_ID=M00206
##ORIENTATION=Laser parallel to a* (1 0 0). Fiducial mark perpendicular to laser is parallel to b [0 1 0]
102.1160, 0.0000000E+00
103.3490, 7.863281
104.5820, 171.9727
105.8150, 445.0332
107.0470, 559.3457
108.2800, 934.0605
109.5120, 1269.547
110.7440, 1636.184
111.9760, 2068.055
113.2080, 2490.342
114.4400, 2900.783
115.6710, 3451.529
116.9030, 4091.420
118.1340, 4581.430
119.3650, 4453.471
120.5960, 4560.438
121.8270, 4206.768
123.0580, 3977.941
124.2880, 3227.311
125.5190, 2802.752
126.7490, 2402.303
127.9790, 2057.988
129.2090, 1814.934
130.4390, 1841.182
131.6680, 1615.961
132.8980, 1515.373
134.1270, 1562.355
135.3560, 1269.631
136.5850, 1190.309
137.8140, 1219.057
139.0430, 1275.076
140.2710, 1317.479
141.5000, 1256.016
142.7280, 1473.234
143.9560, 1300.682
145.1840, 1444.936
146.4120, 1444.045
147.6390, 1406.410
148.8670, 1514.068
150.0940, 1144.701
151.3210, 1210.848
152.5490, 797.6504
153.7750, 635.9141
155.0020, 466.4746
156.2290, 324.8711
157.4550, 207.2402
158.6810, 60.63086
159.9080, 99.90234
161.1340, 65.85352
162.3590, 99.80664
163.5850, 2.888672
164.8110, 51.93359
166.0360, 9.708984
167.2610, 66.88672
168.4860, 61.69141
169.7110, 22.32422
170.9360, 78.85938
172.1610, 16.69531
173.3850, 158.0312
174.6100, 18.96680
175.8340, 157.2129
177.0580, 112.2930
178.2820, 190.2441
179.5050, 84.93945
180.7290, 29.75391
181.9520, 136.6582
183.1760, 282.1602
184.3990, 226.7324
185.6220, 460.5781
186.8450, 440.3555
188.0670, 884.2266
189.2900, 898.0977
190.5120, 985.4531
191.7340, 1067.297
192.9560, 1265.539
194.1780, 1315.377
195.4000, 1551.406
196.6220, 1407.699
197.8430, 1492.695
199.0640, 1362.855
200.2860, 1369.865
201.5070, 1325.930
202.7270, 1122.432
203.9480, 981.5332
205.1690, 822.6992
206.3890, 629.1191
207.6090, 507.7480
208.8290, 396.5137
210.0490, 358.6465
211.2690, 408.7402
212.4890, 459.9980
213.7080, 614.2266
214.9280, 640.2246
216.1470, 712.0742
217.3660, 772.9121
218.5850, 912.7266
219.8030, 1000.520
221.0220, 1024.289
222.2400, 1198.180
223.4590, 1420.301
224.6770, 1649.330
225.8950, 2012.988
227.1120, 2242.566
228.3300, 2801.781
229.5480, 3412.578
230.7650, 3871.580
231.9820, 4430.092
233.1990, 4894.273
234.4160, 5744.660
235.6330, 6196.385
236.8490, 6592.012
238.0660, 6803.600
239.2820, 6788.424
240.4980, 6722.988
241.7140, 6397.705
242.9300, 5882.377
244.1460, 5252.006
245.3610, 4625.594
246.5770, 4050.141
247.7920, 3067.646
249.0070, 2831.018
250.2220, 2231.369
251.4370, 2077.359
252.6510, 2001.627
253.8660, 1667.012
255.0800, 1406.402
256.2940, 1391.729
257.5080, 1402.938
258.7220, 1415.975
259.9360, 1297.811
261.1490, 949.4336
262.3630, 935.8398
263.5760, 876.0000
264.7890, 912.8789
266.0020, 727.4531
267.2150, 708.6973
268.4270, 492.6055
269.6400, 539.1914
270.8520, 628.4922
272.0640, 453.5332
273.2760, 423.3320
274.4880, 609.9023
275.7000, 403.2363
276.9120, 358.2500
278.1230, 434.5605
279.3340, 459.1602
280.5450, 392.5488
281.7560, 495.5781
282.9670, 276.2793
284.1780, 363.4883
285.3880, 289.2285
286.5980, 245.4043
287.8090, 151.3633
289.0190, 55.22852
290.2290, 22.00977
291.4380, 39.27148
292.6480, 144.6328
293.8570, 156.0977
295.0670, 213.1445
296.2760, 218.3906
297.4850, 210.6289
298.6930, 119.9434
299.9020, 147.1953
301.1110, 63.85742
302.3190, 140.6055
303.5270, 79.70898
304.7350, 91.92578
305.9430, 4.343750
307.1510, 48.35742
308.3580, 80.79102
309.5660, 129.9160
310.7730, 140.1133
311.9800, 122.8438
313.1870, 175.4102
314.3940, 182.2871
315.6010, 232.2949
316.8070, 273.0820
318.0130, 275.7988
319.2200, 320.6152
320.4260, 390.4512
321.6310, 439.0645
322.8370, 539.1445
324.0430, 618.8730
325.2480, 763.5898
326.4540, 941.4922
327.6590, 1083.756
328.8640, 1232.963
330.0680, 1227.604
331.2730, 1069.750
332.4780, 1077.471
333.6820, 1015.527
334.8860, 765.5293
336.0900, 799.4668
337.2940, 722.3438
338.4980, 588.1582
339.7010, 477.9102
340.9050, 544.5840
342.1080, 468.4297
343.3110, 454.7871
344.5140, 495.5898
345.7170, 428.3828
346.9200, 487.9492
348.1220, 501.4434
349.3240, 548.8066
350.5270, 522.0742
351.7290, 465.9297
352.9310, 356.2285
354.1320, 291.0176
355.3340, 380.6172
356.5350, 240.3984
357.7370, 147.3730
358.9380, 330.9785
360.1390, 127.6855
361.3400, 198.5898
362.5400, 86.47070
363.7410, 70.32422
364.9410, 139.1523
366.1410, 17.95508
367.3410, 117.7305
368.5410, 89.47852
369.7410, 22.19922
370.9400, 162.8926
372.1400, 125.5605
373.3390, 166.2031
374.5380, 263.8164
375.7370, 310.3984
376.9360, 379.2812
378.1350, 466.4707
379.3330, 519.9629
380.5310, 535.4180
381.7300, 622.8418
382.9280, 460.2402
384.1260, 502.6133
385.3230, 695.9668
386.5210, 726.3027
387.7180, 929.6230
388.9160, 708.9277
390.1130, 670.2188
391.3100, 902.4941
392.5060, 1077.758
393.7030, 1367.963
394.9000, 1907.107
396.0960, 2305.193
397.2920, 3198.219
398.4880, 4613.184
399.6840, 5693.080
400.8800, 6562.920
402.0750, 7937.697
403.2710, 8714.430
404.4660, 9527.105
405.6610, 9684.723
406.8560, 9276.289
408.0510, 8495.840
409.2450, 7469.346
410.4400, 5914.836
411.6340, 4304.287
412.8280, 3083.010
414.0220, 1856.891
415.2160, 1324.127
416.4100, 769.5977
417.6030, 441.9082
418.7970, 493.9746
419.9900, 361.1895
421.1830, 124.2305
422.3760, 209.5762
423.5690, 151.0371
424.7610, 367.1914
425.9540, 94.74805
427.1460, 339.3535
428.3380, 415.3223
429.5300, 449.9922
430.7220, 366.3984
431.9140, 509.0723
433.1050, 480.3359
434.2970, 514.3633
435.4880, 372.7012
436.6790, 357.4473
437.8700, 172.5605
439.0610, 193.1445
440.2510, 77.41992
441.4420, 100.7812
442.6320, 195.4004
443.8220, 177.0215
445.0120, 165.7188
446.2020, 199.3984
447.3910, 88.53320
448.5810, 33.01172
449.7700, 143.4434
450.9600, 227.3496
452.1490, 81.07227
453.3370, 370.4277
454.5260, 305.9551
455.7150, 540.3789
456.9030, 325.3457
458.0910, 412.4648
459.2800, 747.8848
460.4670, 791.5508
461.6550, 1014.250
462.8430, 1425.246
464.0300, 1823.553
465.2180, 2434.174
466.4050, 2998.293
467.5920, 3888.520
468.7790, 4321.732
469.9650, 5290.957
471.1520, 5933.170
472.3380, 6535.365
473.5250, 6929.543
474.7110, 6743.701
475.8970, 6478.838
477.0820, 6305.953
478.2680, 5762.047
479.4540, 5073.121
480.6390, 4463.174
481.8240, 4357.205
483.0090, 4108.094
484.1940, 3481.082
485.3780, 3241.906
486.5630, 2799.660
487.7470, 2621.576
488.9320, 2248.199
490.1160, 2059.068
491.3000, 1552.945
492.4830, 1491.805
493.6670, 1504.650
494.8500, 1306.402
496.0340, 1454.695
497.2170, 1636.713
498.4000, 1788.107
499.5820, 2003.916
500.7650, 2224.332
501.9480, 2931.514
503.1300, 3274.840
504.3120, 3934.453
505.4940, 5118.598
506.6760, 6916.666
507.8580, 8881.014
509.0390, 11989.71
510.2210, 15712.96
511.4020, 19870.08
512.5830, 23348.83
513.7640, 27573.24
514.9450, 30830.50
516.1250, 33218.91
517.3060, 34884.73
518.4860, 34133.74
519.6660, 31962.03
520.8460, 28699.53
522.0260, 24248.01
523.2060, 19604.48
524.3850, 14928.94
525.5650, 11297.38
526.7440, 8698.793
527.9230, 6648.195
529.1020, 5100.727
530.2810, 4216.094
531.4590, 3356.117
532.6380, 3001.455
533.8160, 2520.012
534.9940, 1915.311
536.1720, 1866.596
537.3500, 1710.779
538.5270, 1448.113
539.7050, 1266.338
540.8820, 1210.422
542.0590, 1045.969
543.2360, 1055.016
544.4130, 1098.623
545.5900, 739.6816
546.7660, 904.5527
547.9430, 789.0137
549.1190, 741.4180
550.2950, 703.8770
551.4710, 809.1230
552.6470, 610.1270
553.8220, 484.6055
554.9980, 656.5586
556.1730, 506.7520
557.3480, 544.1660
558.5230, 740.8730
559.6980, 525.7129
560.8730, 716.9570
562.0470, 595.2051
563.2220, 581.9609
564.3960, 614.2461
565.5700, 764.5137
566.7440, 733.1543
567.9170, 787.6660
569.0910, 1011.902
570.2640, 1125.098
571.4380, 1098.107
572.6110, 1185.166
573.7840, 1283.312
574.9570, 1774.305
576.1290, 1992.148
577.3020, 2488.951
578.4740, 2461.936
579.6460, 2876.186
580.8180, 3039.902
581.9900, 3360.332
583.1620, 3342.627
584.3330, 3416.979
585.5040, 3207.703
586.6760, 3039.641
587.8470, 2445.059
589.0180, 2399.430
590.1880, 2027.000
591.3590, 2050.793
592.5290, 1715.891
593.7000, 1645.420
594.8700, 1535.631
596.0400, 1609.844
597.2090, 1457.441
598.3790, 1336.543
599.5490, 1410.840
600.7180, 1330.551
601.8870, 1264.807
603.0560, 1331.783
604.2250, 1115.066
605.3940, 1105.314
606.5620, 1043.082
607.7300, 914.7578
608.8990, 1072.430
610.0670, 1196.070
611.2350, 1218.676
612.4020, 1168.248
613.5700, 866.7871
614.7370, 1185.291
615.9050, 1235.762
617.0720, 1603.332
618.2390, 1609.734
619.4060, 1828.104
620.5720, 1727.504
621.7390, 2194.805
622.9050, 2420.070
624.0710, 2820.299
625.2370, 3074.494
626.4030, 3183.656
627.5690, 3246.785
628.7340, 2931.879
629.9000, 2843.963
631.0650, 2551.988
632.2300, 2252.975
633.3950, 1853.930
634.5600, 1822.848
635.7240, 1686.732
636.8890, 1415.582
638.0530, 1582.398
639.2170, 1551.184
640.3810, 1614.934
641.5450, 1444.656
642.7080, 1703.342
643.8720, 1957.000
645.0350, 1755.623
646.1980, 1892.217
647.3610, 2109.785
648.5240, 2101.316
649.6870, 2085.822
650.8490, 2170.299
652.0120, 1942.742
653.1740, 1733.160
654.3360, 1785.543
655.4980, 1574.896
656.6600, 1346.215
657.8210, 1305.498
658.9830, 1100.355
660.1440, 795.9609
661.3050, 815.1348
662.4660, 698.2734
663.6270, 540.3730
664.7870, 613.4355
665.9480, 646.4609
667.1080, 476.4473
668.2680, 356.3965
669.4280, 511.3066
670.5880, 231.1777
671.7480, 470.0059
672.9070, 334.7930
674.0670, 447.5410
675.2260, 433.2520
676.3850, 172.9297
677.5440, 133.5586
678.7030, 156.1406
679.8610, 185.6758
681.0200, 94.16602
682.1780, 186.6035
683.3360, 28.00391
684.4940, 176.2988
685.6520, 58.55469
686.8090, 30.75781
687.9670, 103.1035
689.1240, 8.091797
690.2810, 84.15430
691.4380, 16.33594
692.5950, 39.60352
693.7520, 30.96680
694.9080, 98.42578
696.0650, 38.01367
697.2210, 26.69727
698.3770, 60.47266
699.5330, 194.3574
700.6880, 194.3848
701.8440, 90.58984
702.9990, 188.8223
704.1550, 1.228516
705.3100, 6.318359
706.4650, 27.81055
707.6190, 51.75781
708.7740, 98.43164
709.9290, 107.8086
711.0830, 208.0000
712.2370, 97.98438
713.3910, 207.0977
714.5450, 45.40039
715.6980, 51.19336
716.8520, 190.2695
718.0050, 74.91602
719.1580, 104.3223
720.3110, 0.4882810
721.4640, 147.6211
722.6170, 101.7031
723.7700, 295.7695
724.9220, 141.8203
726.0740, 323.8496
727.2260, 320.8711
728.3780, 294.8652
729.5300, 361.2773
730.6810, 333.6309
731.8330, 369.6016
732.9840, 294.4336
734.1350, 288.2227
735.2860, 189.9688
736.4370, 300.6699
737.5880, 247.3262
738.7380, 139.9395
739.8880, 92.50391
741.0390, 236.0195
742.1890, 217.4902
743.3380, 216.9141
744.4880, 388.2969
745.6380, 396.8086
746.7870, 408.9375
747.9360, 495.2012
749.0850, 478.4238
750.2340, 390.6055
751.3830, 397.7500
752.5310, 474.8535
753.6800, 444.9180
754.8280, 278.9434
755.9760, 393.9297
757.1240, 424.8770
758.2720, 287.7871
759.4190, 529.6562
760.5670, 452.4902
761.7140, 473.2832
762.8610, 477.0391
764.0080, 526.7578
765.1550, 533.4395
766.3020, 548.4941
767.4480, 278.6914
768.5950, 570.2598
769.7410, 463.7930
770.8870, 468.2871
772.0330, 688.7461
773.1780, 576.1699
774.3240, 325.5586
775.4690, 716.9102
776.6140, 329.2246
777.7590, 351.5059
778.9040, 592.7480
780.0490, 418.9570
781.1940, 368.1309
782.3380, 404.2695
783.4820, 492.3770
784.6260, 559.4453
785.7700, 405.4805
786.9140, 513.4824
788.0580, 324.4492
789.2010, 785.3828
790.3450, 616.2852
791.4880, 498.1543
792.6310, 767.9883
793.7730, 747.7910
794.9160, 819.5605
796.0590, 689.2969
797.2010, 819.0039
798.3430, 619.6777
799.4850, 818.3203
800.6270, 759.9316
801.7690, 588.5117
802.9100, 730.0625
804.0520, 836.5840
805.1930, 767.0723
806.3340, 830.4238
807.4750, 918.8555
808.6160, 779.5859
809.7560, 815.9590
810.8970, 1041.064
812.0370, 699.3828
813.1770, 817.3340
814.3170, 1010.676
815.4570, 1275.826
816.5960, 1196.041
817.7360, 1029.352
818.8750, 963.1582
820.0140, 941.4199
821.1530, 709.0781
822.2920, 1049.244
823.4310, 1065.557
824.5690, 1056.234
825.7070, 952.9297
826.8460, 955.0762
827.9840, 909.8809
829.1220, 903.8535
830.2590, 1064.311
831.3970, 847.2598
832.5340, 1027.928
833.6710, 835.3398
834.8080, 1018.420
835.9450, 928.3359
837.0820, 869.4668
838.2190, 881.9043
839.3550, 861.6074
840.4910, 1195.328
841.6270, 1013.525
842.7630, 1352.982
843.8990, 1333.098
845.0350, 1518.309
846.1700, 1480.145
847.3060, 1379.555
848.4410, 1682.885
849.5760, 1675.102
850.7100, 1680.453
851.8450, 1967.943
852.9800, 1869.479
854.1140, 2258.861
855.2480, 2348.482
856.3820, 2343.844
857.5160, 2667.135
858.6500, 2599.789
859.7830, 2865.141
860.9170, 2945.416
862.0500, 2662.051
863.1830, 2711.451
864.3160, 2516.840
865.4480, 2204.121
866.5810, 2134.660
867.7130, 1792.111
868.8460, 1761.641
869.9780, 1508.934
871.1100, 1525.209
872.2410, 1185.076
873.3730, 1383.414
874.5050, 1243.531
875.6360, 1266.207
876.7670, 1098.580
877.8980, 1102.670
879.0290, 1160.689
880.1590, 879.7188
881.2900, 774.2227
882.4200, 1053.732
883.5500, 729.2383
884.6800, 807.7441
885.8100, 934.2500
886.9400, 743.7598
888.0690, 726.2695
889.1990, 607.7793
890.3280, 603.2012
891.4570, 709.6738
892.5860, 647.1895
893.7140, 739.7070
894.8430, 788.1621
895.9710, 956.6836
897.1000, 909.2090
898.2280, 765.7422
899.3560, 864.2754
900.4830, 852.8145
901.6110, 637.3574
902.7380, 711.9062
903.8660, 826.4316
904.9930, 972.9902
906.1200, 778.5547
907.2460, 721.1211
908.3730, 741.6934
909.5000, 692.2754
910.6260, 761.8613
911.7520, 615.4551
912.8780, 706.0566
914.0040, 505.6641
915.1290, 540.2793
916.2550, 445.9023
917.3800, 307.5352
918.5050, 362.2051
919.6300, 185.8887
920.7550, 138.5801
921.8800, 150.2891
923.0040, 88.05078
924.1290, 44.82227
925.2530, 106.6074
926.3770, 81.39648
927.5010, 160.1992
928.6250, 256.0117
929.7480, 256.9453
930.8720, 220.7871
931.9950, 307.7598
933.1180, 187.7422
934.2410, 171.7383
935.3640, 142.7461
936.4860, 115.7695
937.6090, 284.8105
938.7310, 216.8613
939.8530, 140.9570
940.9750, 2.068359
942.0970, 33.23633
943.2180, 205.4277
944.3400, 41.64062
945.4610, 158.9180
946.5820, 85.21094
947.7030, 25.42188
948.8240, 69.95508
949.9450, 115.3496
951.0650, 179.7598
952.1860, 297.1934
953.3060, 328.6465
954.4260, 369.6582
955.5460, 278.6152
956.6650, 379.1523
957.7850, 233.7090
958.9040, 171.2891
960.0230, 323.8984
961.1420, 49.42969
962.2610, 2.261719
963.3800, 34.01953
964.4990, 199.8164
965.6170, 173.4805
966.7350, 197.6953
967.8530, 203.5000
968.9710, 53.50000
970.0890, 79.54297
971.2070, 211.3594
972.3240, 14.74219
973.4410, 418.0625
974.5580, 43.00391
975.6750, 175.8398
976.7920, 93.71094
977.9090, 6.582031
979.0250, 216.5781
980.1410, 228.2070
981.2580, 35.98047
982.3740, 81.80469
983.4890, 121.4766
984.6050, 185.8203
985.7200, 219.2656
986.8360, 384.7617
987.9510, 544.2852
989.0660, 218.8984
990.1810, 308.5781
991.2950, 379.2812
992.4100, 457.0234
993.5240, 535.7969
994.6390, 458.5938
995.7530, 344.4141
996.8660, 771.2617
997.9800, 1036.129
999.0940, 1885.020
1000.207, 1447.938
1001.320, 2006.875
1002.433, 2413.836
1003.546, 2443.816
1004.659, 2208.820
1005.772, 2085.852
1006.884, 1177.906
1007.996, 961.9805
1009.108, 882.0820
1010.220, 503.2109
1011.332, 503.8711
1012.444, 439.5195
1013.555, 253.7617
1014.666, 634.9922
1015.777, 244.2461
1016.888, 656.5273
1017.999, 609.8320
1019.110, 615.1562
1020.220, 822.5078
1021.331, 572.8828
1022.441, 846.2773
1023.551, 907.7031
1024.661, 941.1484
1025.770, 1059.621
1026.880, 892.1133
1027.989, 806.6367
1029.098, 686.1797
1030.207, 957.7500
1031.316, 625.3398
1032.425, 795.9609
1033.533, 835.6055
1034.642, 658.2734
1035.750, 489.9609
1036.858, 1103.684
1037.966, 931.4219
1039.073, 1175.191
1040.181, 1061.984
1041.288, 1188.805
1042.396, 1082.645
1043.503, 1284.512
1044.610, 1305.402
1045.716, 1294.320
1046.823, 1185.266
1047.929, 1232.656
1049.036, 1243.227
1050.142, 1235.246
1051.248, 1191.797
1052.353, 1159.867
1053.459, 1086.961
1054.564, 1178.914
1055.670, 1124.074
1056.775, 946.2422
1057.880, 948.4375
1058.985, 1048.656
1060.089, 978.9023
1061.194, 1016.172
1062.298, 937.8984
1063.402, 963.2148
1064.506, 894.0117
1065.610, 817.3750
1066.713, 611.7617
1067.817, 817.1719
1068.920, 725.8789
1070.023, 983.3359
1071.126, 777.8516
1072.229, 684.2344
1073.332, 699.7578
1074.435, 634.3008
1075.537, 525.1875
1076.639, 718.2773
1077.741, 806.8672
1078.843, 778.5039
1079.945, 994.0938
1081.046, 1094.105
1082.148, 936.8047
1083.249, 1345.523
1084.350, 931.2617
1085.451, 1145.020
1086.551, 1247.801
1087.652, 875.5977
1088.752, 1138.418
1089.853, 926.2617
1090.953, 602.1211
1092.053, 719.0039
1093.152, 485.9023
1094.252, 449.2773
1095.351, 723.3750
1096.451, 632.3320
1097.550, 558.3164
1098.649, 483.3125
1099.748, 549.3320
1100.846, 827.3711
1101.945, 588.4297
1103.043, 978.5039
1104.141, 631.9531
1105.239, 553.0820
1106.337, 870.4375
1107.434, 932.6016
1108.532, 1182.051
1109.629, 946.7070
1110.726, 997.7422
1111.823, 1410.984
1112.920, 974.6680
1114.017, 1122.945
1115.113, 1282.250
1116.210, 1249.574
1117.306, 1317.914
1118.402, 1401.281
1119.498, 1499.656
1120.593, 1596.059
1121.689, 1871.477
1122.784, 2111.918
1123.879, 2223.375
1124.974, 2342.844
1126.069, 2598.344
1127.164, 2442.855
1128.259, 2940.387
1129.353, 2957.938
1130.447, 3310.508
1131.541, 3739.098
1132.635, 3752.707
1133.729, 4113.328
1134.822, 4731.973
1135.916, 5285.637
1137.009, 5128.320
1138.102, 4475.020
1139.195, 5321.734
1140.288, 4545.469
1141.380, 3717.230
1142.473, 3781.000
1143.565, 3312.797
1144.657, 2781.605
1145.749, 2620.438
1146.841, 1838.281
1147.932, 1917.148
1149.024, 1752.031
1150.115, 1363.934
1151.206, 1010.859
1152.297, 1134.793
1153.388, 791.7539
1154.479, 827.7266
1155.569, 666.7500
1156.659, 523.7852
1157.750, 689.8555
1158.839, 588.9492
1159.929, 586.0547
1161.019, 363.1797
1162.108, 300.3242
1163.198, 545.4844
1164.287, 268.6641
1165.376, 389.8594
1166.465, 277.0742
1167.553, 394.3086
1168.642, 589.5586
1169.730, 393.8242
1170.818, 751.1094
1171.906, 549.4141
1172.994, 539.7305
1174.082, 626.0664
1175.170, 238.4219
1176.257, 411.7930
1177.344, 378.1797
1178.431, 110.5820
1179.518, 95.00000
1180.605, 253.4375
1181.691, 126.1055
1182.778, 153.2969
1183.864, 88.71875
1184.950, 19.83984
1186.036, 170.4023
1187.122, 337.9648
1188.207, 268.3438
1189.292, 126.7422
1190.378, 113.1602
1191.463, 65.59375
1192.548, 227.9609
1193.632, 172.3867
1194.717, 262.2500
1195.801, 122.9961
1196.886, 72.26172
1197.970, 29.53516
1199.054, 8.167969
1200.137, 65.12891
1201.221, 22.44531
1202.305, 113.2266
1203.388, 217.0547
1204.471, 186.6484
1205.554, 9.429688
1206.637, 6.789063
1207.719, 202.9805
1208.802, 59.16016
1209.884, 236.6836
1210.966, 41.36719
1212.048, 147.4414
1213.130, 114.5273
1214.212, 168.6328
1215.293, 284.7500
1216.374, 290.8867
1217.456, 215.0352
1218.536, 217.1992
1219.617, 57.38281
1220.698, 135.5859
1221.778, 133.7969
1222.859, 74.02734
1223.939, 196.2734
1225.019, 10.45703
1226.099, 332.8164
1227.178, 43.10156
1228.258, 345.4102
1229.337, 187.7344
1230.417, 355.0703
1231.496, 186.4219
1232.574, 83.79297
1233.653, 638.3008
1234.732, 572.7422
1235.810, 752.1992
1236.888, 602.7695
1237.966, 603.3555
1239.044, 685.9883
1240.122, 770.6562
1241.199, 608.3398
1242.277, 565.0391
1243.354, 722.8008
1244.431, 793.1836
1245.508, 748.0000
1246.585, 648.8320
1247.661, 813.6758
1248.738, 687.5391
1249.814, 930.4180
1250.890, 715.3086
1251.966, 890.2188
1253.042, 592.2031
1254.117, 484.2188
1255.193, 569.2969
1256.268, 590.4023
1257.343, 597.5430
1258.418, 283.6992
1259.493, 593.8672
1260.567, 670.0547
1261.642, 675.2578
1262.716, 1119.473
1263.790, 1065.711
1264.864, 1328.961
1265.938, 1254.223
1267.011, 1371.500
1268.085, 1278.801
1269.158, 1485.113
1270.231, 1084.441
1271.304, 1284.789
1272.377, 1475.148
1273.450, 1272.527
1274.522, 1492.926
1275.594, 1347.336
1276.666, 1419.766
1277.738, 1338.211
1278.810, 1019.672
1279.882, 1188.145
1280.953, 1043.633
1282.025, 1015.141
1283.096, 1017.660
1284.167, 1055.336
1285.238, 1149.887
