##NAMES=Epidote
##RRUFFID=R040092
##IDEAL CHEMISTRY=Ca_2_Fe^3+^Al_2_(Si_2_O_7_)(SiO_4_)O(OH)
##LOCALITY=Nahant, Massachusetts, USA
##OWNER=RRUFF
##SOURCE=University of Arizona Mineral Museum
##DESCRIPTION=Green prismatic crystals imbedded in quartz
##STATUS=The identification of this mineral has been confirmed by X-ray diffraction and chemical analysis
##URL=rruff.info/R040092
##MEASURED CHEMISTRY=Ca_2.01_Al_2.00_Fe_1.00_(Si_1.00_O_4_)(Si_1.97_Fe_0.02_Al_0.01_Ti_0.01_O_7_)O(OH)
##PIN_ID=M00185
##ORIENTATION=Laser parallel to -c [0 0 -1]. Fiducial mark perpendicular to laser is parallel to b* (0 1 0)
51.466, 0.000
52.866, 7.407
54.266, 150.350
55.666, 90.666
57.065, 1.334
58.464, 54.747
59.863, 111.037
61.262, 209.484
62.661, 221.728
64.059, 132.371
65.458, 311.286
66.856, 307.532
68.253, 242.324
69.651, 406.001
71.048, 158.081
72.445, 203.229
73.842, 177.127
75.239, 315.448
76.635, 680.873
78.031, 1364.112
79.427, 2360.905
80.823, 4145.022
82.218, 6325.255
83.614, 8767.426
85.009, 11188.375
86.404, 13415.960
87.798, 15141.092
89.193, 16840.062
90.587, 17555.922
91.981, 17189.521
93.375, 15413.770
94.768, 13085.488
96.161, 10910.484
97.554, 8808.620
98.947, 7141.775
100.340, 5596.855
101.732, 4417.773
103.124, 3292.464
104.516, 2674.863
105.908, 2444.921
107.300, 1914.591
108.691, 1679.833
110.082, 1154.612
111.473, 1055.895
112.864, 977.654
114.254, 965.866
115.644, 905.240
117.034, 1060.551
118.424, 891.984
119.813, 834.786
121.203, 912.941
122.592, 1177.436
123.981, 1645.052
125.369, 2294.580
126.758, 3036.538
128.146, 3913.460
129.534, 4987.261
130.922, 5763.609
132.309, 6593.902
133.696, 7004.592
135.083, 7305.999
136.470, 6354.977
137.857, 5480.594
139.243, 4337.890
140.630, 3339.945
142.016, 2375.804
143.401, 1781.500
144.787, 1567.062
146.172, 1219.520
147.557, 1060.892
148.942, 860.199
150.327, 592.456
151.711, 419.678
153.096, 467.877
154.480, 427.065
155.863, 550.252
157.247, 887.444
158.630, 1316.651
160.013, 2053.877
161.396, 2669.128
162.779, 3484.410
164.161, 4083.727
165.544, 4780.083
166.926, 4996.483
168.308, 5070.928
169.689, 4731.421
171.070, 4174.969
172.452, 3291.568
173.833, 2487.224
175.213, 1866.933
176.594, 1307.043
177.974, 840.518
179.354, 579.393
180.734, 277.324
182.114, 227.312
183.493, 328.357
184.872, 333.460
186.251, 454.622
187.630, 572.842
189.008, 762.575
190.387, 952.464
191.765, 1293.865
193.143, 1683.329
194.520, 2120.651
195.898, 2858.976
197.275, 3447.456
198.652, 4414.950
200.029, 5168.060
201.405, 5866.673
202.782, 6386.345
204.158, 6873.125
205.534, 7210.010
206.909, 6840.085
208.285, 6952.221
209.660, 6888.945
211.035, 6742.529
212.410, 7188.566
213.784, 7405.242
215.159, 8215.601
216.533, 9103.022
217.907, 10349.539
219.281, 11880.614
220.654, 13294.409
222.027, 15002.716
223.400, 16708.461
224.773, 18121.682
226.146, 19173.934
227.518, 19631.707
228.891, 19596.953
230.263, 18733.643
231.634, 17174.734
233.006, 14934.198
234.377, 12768.016
235.748, 10916.161
237.119, 9378.610
238.490, 8588.350
239.860, 7917.362
241.231, 7697.629
242.601, 7569.141
243.970, 7548.881
245.340, 7139.839
246.709, 6540.004
248.079, 5975.368
249.448, 5255.924
250.816, 4697.660
252.185, 4186.571
253.553, 3864.792
254.921, 3502.363
256.289, 3421.288
257.657, 3165.827
259.024, 2936.503
260.391, 3154.312
261.758, 3365.248
263.125, 4137.305
264.492, 5085.479
265.858, 6385.769
267.224, 8349.167
268.590, 10385.676
269.956, 13153.287
271.321, 15855.003
272.687, 17991.822
274.052, 19782.729
275.416, 19804.621
276.781, 20434.840
278.146, 17758.033
279.510, 14930.323
280.874, 11740.700
282.237, 9070.161
283.601, 6663.714
284.964, 5067.353
286.327, 4344.073
287.690, 3586.878
289.053, 3226.756
290.416, 3553.687
291.778, 3319.659
293.140, 3714.674
294.502, 3891.731
295.863, 4350.828
297.225, 4547.960
298.586, 4746.127
299.947, 4697.329
301.308, 4491.568
302.668, 4293.846
304.029, 3959.167
305.389, 3667.529
306.749, 3350.937
308.108, 3181.388
309.468, 2851.885
310.827, 2704.429
312.186, 2316.020
313.545, 2223.657
314.903, 2112.344
316.262, 2097.078
317.620, 2291.861
318.978, 2550.693
320.336, 2769.574
321.693, 3093.504
323.051, 3339.484
324.408, 3396.512
325.765, 3371.590
327.121, 2952.718
328.478, 2428.896
329.834, 1747.122
331.190, 1112.398
332.546, 358.723
333.902, 35.902
335.257, 393.503
336.612, 751.161
337.967, 898.965
339.322, 975.952
340.677, 968.141
342.031, 888.532
343.385, 791.104
344.739, 601.833
346.093, 376.672
347.446, 138.567
348.799, 37.538
350.153, 254.680
351.505, 420.870
352.858, 365.109
354.210, 328.396
355.563, 257.731
356.915, 176.114
358.267, 71.394
359.618, 22.230
360.969, 77.463
362.321, 150.623
363.672, 166.062
365.022, 223.879
366.373, 215.057
367.723, 253.557
369.073, 217.065
370.423, 181.596
371.773, 213.212
373.122, 17.958
374.471, 123.196
375.821, 186.290
377.169, 592.364
378.518, 802.508
379.866, 1188.724
381.215, 1851.035
382.563, 2382.447
383.910, 3192.954
385.258, 3942.552
386.605, 4657.242
387.952, 5155.025
389.299, 5777.893
390.646, 5696.843
391.992, 5536.886
393.339, 5118.030
394.685, 4527.266
396.031, 3863.621
397.376, 3230.092
398.722, 2870.678
400.067, 2555.383
401.412, 2302.221
402.757, 2323.539
404.101, 2436.277
405.446, 2657.473
406.790, 3025.796
408.134, 3495.243
409.478, 4360.830
410.821, 5245.566
412.165, 6528.419
413.508, 8652.428
414.851, 10859.553
416.193, 13764.818
417.536, 17642.227
418.878, 22071.779
420.220, 26772.492
421.562, 30488.342
422.904, 34797.340
424.245, 37442.469
425.586, 37648.742
426.927, 36822.148
428.268, 32925.695
429.609, 29586.383
430.949, 26301.188
432.289, 23920.125
433.629, 21053.191
434.969, 19999.385
436.309, 18201.707
437.648, 17410.160
438.987, 16434.742
440.326, 16036.456
441.665, 16417.281
443.003, 17432.209
444.342, 18604.230
445.680, 20442.346
447.018, 22719.533
448.355, 24332.807
449.693, 26177.160
451.030, 26842.582
452.367, 27506.084
453.704, 26548.646
455.041, 26997.273
456.377, 24957.949
457.713, 23878.682
459.049, 21914.479
460.385, 20478.326
461.721, 18524.230
463.056, 15723.196
464.391, 13985.210
465.726, 12356.270
467.061, 10751.381
468.395, 9520.538
469.730, 8751.740
471.064, 7632.992
472.398, 7130.287
473.731, 6346.625
475.065, 5800.006
476.398, 5463.426
477.731, 5241.888
479.064, 5008.388
480.397, 4956.929
481.729, 4958.508
483.062, 5082.128
484.394, 5136.783
485.725, 5194.479
487.057, 5417.211
488.389, 5774.981
489.720, 5936.786
491.051, 6247.629
492.382, 6758.507
493.712, 7431.422
495.043, 8011.112
496.373, 8562.817
497.703, 9415.646
499.032, 10153.788
500.362, 10694.196
501.691, 11157.078
503.020, 11535.795
504.349, 12285.228
505.678, 12629.761
507.007, 13317.398
508.335, 13681.015
509.663, 13958.326
510.991, 14222.779
512.319, 14029.276
513.646, 14321.824
514.973, 14540.410
516.300, 15915.045
517.627, 17269.727
518.954, 18584.279
520.280, 21086.252
521.607, 22360.361
522.933, 23114.758
524.259, 22554.412
525.584, 20436.014
526.910, 17823.178
528.235, 14572.352
529.560, 11929.604
530.885, 9466.890
532.209, 7580.555
533.534, 6458.469
534.858, 5507.815
536.182, 4792.217
537.506, 4406.673
538.829, 4114.183
540.152, 3974.747
541.476, 3973.362
542.799, 4008.321
544.121, 4299.751
545.444, 4428.521
546.766, 4842.342
548.088, 5292.402
549.410, 5963.319
550.732, 6648.232
552.053, 7698.727
553.375, 8918.485
554.696, 10705.040
556.017, 13444.438
557.337, 16801.932
558.658, 21392.529
559.978, 26813.236
561.298, 33454.199
562.618, 39079.000
563.938, 43653.102
565.257, 46658.793
566.576, 43678.000
567.895, 38921.027
569.214, 32050.727
570.533, 25526.855
571.851, 20072.748
573.170, 16872.270
574.488, 14224.857
575.805, 12750.193
577.123, 12031.350
578.440, 12033.705
579.758, 12348.939
581.075, 13060.399
582.391, 14213.932
583.708, 15080.324
585.024, 16109.194
586.341, 17781.924
587.657, 18808.039
588.972, 20434.691
590.288, 21598.439
591.603, 22997.254
592.918, 25369.611
594.233, 27897.492
595.548, 29623.779
596.863, 31369.684
598.177, 31909.021
599.491, 31944.217
600.805, 30138.213
602.119, 28297.158
603.432, 26184.244
604.746, 23979.256
606.059, 21395.822
607.372, 19534.160
608.685, 17960.896
609.997, 16431.867
611.309, 15345.689
612.621, 14201.149
613.933, 13077.851
615.245, 12112.129
616.557, 11071.596
617.868, 9858.537
619.179, 8848.737
620.490, 7623.440
621.801, 6655.238
623.111, 6087.699
624.421, 5443.317
625.731, 4639.260
627.041, 4461.053
628.351, 3748.555
629.660, 3433.436
630.970, 3164.014
632.279, 2818.234
633.588, 2608.425
634.896, 2281.588
636.205, 2112.855
637.513, 1943.822
638.821, 1807.893
640.129, 1714.934
641.437, 1606.942
642.744, 1573.919
644.051, 1460.862
645.358, 1475.773
646.665, 1349.650
647.972, 1310.495
649.278, 1233.305
650.584, 1325.081
651.890, 1362.820
653.196, 1309.550
654.502, 1412.350
655.807, 1394.308
657.113, 1444.462
658.418, 1490.270
659.722, 1649.412
661.027, 1589.186
662.331, 1715.125
663.636, 1817.185
664.940, 1838.310
666.244, 1820.443
667.547, 1739.548
668.851, 1845.612
670.154, 1737.635
671.457, 1743.616
672.760, 1850.554
674.062, 1840.449
675.365, 1997.302
676.667, 2034.116
677.969, 2044.900
679.271, 2173.677
680.572, 2068.460
681.874, 2281.254
683.175, 2267.069
684.476, 2280.905
685.777, 2258.770
687.077, 2129.653
688.378, 2122.548
689.678, 1932.458
690.978, 1685.343
692.278, 1343.177
693.577, 1209.962
694.877, 1008.696
696.176, 831.379
697.475, 692.011
698.774, 685.416
700.072, 443.338
701.371, 371.165
702.669, 143.016
703.967, 112.383
705.265, 160.692
706.562, 19.947
707.860, 2.884
709.157, 11.188
710.454, 78.831
711.751, 89.990
713.047, 73.296
714.344, 104.740
715.640, 152.341
716.936, 170.125
718.232, 70.102
719.527, 89.220
720.823, 144.490
722.118, 134.942
723.413, 194.571
724.708, 235.410
726.002, 113.481
727.297, 267.720
728.591, 117.209
729.885, 196.869
731.179, 223.743
732.472, 251.844
733.766, 254.189
735.059, 219.778
736.352, 238.782
737.645, 191.647
738.937, 236.913
740.230, 212.415
741.522, 210.140
742.814, 232.087
744.106, 145.269
745.397, 194.637
746.689, 180.220
747.980, 205.008
749.271, 198.015
750.562, 205.082
751.853, 199.675
753.143, 191.328
754.433, 158.191
755.723, 92.247
757.013, 92.457
758.303, 79.824
759.592, 15.659
760.881, 73.955
762.170, 23.713
763.459, 0.411
764.748, 36.568
766.036, 34.538
767.325, 16.535
768.613, 90.864
769.901, 50.516
771.188, 3.907
772.476, 63.568
773.763, 44.972
775.050, 20.300
776.337, 154.543
777.624, 82.726
778.910, 65.842
780.196, 121.890
781.482, 46.876
782.768, 168.793
784.054, 112.652
785.339, 143.451
786.625, 256.192
787.910, 273.879
789.195, 303.514
790.479, 350.096
791.764, 320.625
793.048, 350.103
794.332, 434.527
795.616, 399.901
796.900, 529.225
798.183, 447.497
799.467, 604.718
800.750, 681.889
802.033, 694.011
803.316, 765.083
804.598, 740.106
805.880, 948.080
807.163, 1087.006
808.445, 1106.883
809.726, 1231.712
811.008, 1408.491
812.289, 1568.221
813.570, 1771.900
814.851, 2029.529
816.132, 2230.105
817.413, 2475.629
818.693, 2913.102
819.973, 3311.520
821.253, 3767.886
822.533, 4416.201
823.813, 4838.462
825.092, 5301.673
826.371, 5856.833
827.650, 6184.941
828.929, 6655.000
830.208, 6730.009
831.486, 6553.968
832.764, 6221.878
834.042, 6124.740
835.320, 5561.552
836.598, 5374.317
837.875, 5017.033
839.152, 4676.698
840.429, 4620.318
841.706, 4350.888
842.983, 4230.411
844.259, 4289.887
845.536, 4249.313
846.812, 4252.696
848.088, 4403.035
849.363, 4530.889
850.639, 4749.655
851.914, 5018.812
853.189, 5363.000
854.464, 5752.147
855.739, 6234.267
857.013, 6738.359
858.288, 7115.246
859.562, 7317.292
860.836, 7810.369
862.110, 8044.898
863.383, 8725.187
864.656, 9091.710
865.930, 9451.410
867.203, 9768.028
868.475, 10011.561
869.748, 10027.991
871.020, 9979.211
872.292, 9844.620
873.564, 9639.251
874.836, 9250.439
876.108, 8996.409
877.379, 8416.668
878.650, 7906.306
879.922, 7752.558
881.192, 7393.073
882.463, 7293.988
883.733, 7342.857
885.004, 7344.999
886.274, 7560.340
887.544, 7834.506
888.813, 8015.813
890.083, 8549.910
891.352, 9108.955
892.621, 9692.149
893.890, 10703.885
895.159, 11591.772
896.427, 12586.300
897.695, 14214.308
898.964, 15609.250
900.232, 17127.131
901.499, 19260.498
902.767, 21818.348
904.034, 23932.797
905.301, 26770.645
906.568, 30209.066
907.835, 33614.629
909.102, 36867.391
910.368, 40566.227
911.634, 44500.910
912.900, 47207.676
914.166, 50738.887
915.432, 51136.371
916.697, 49973.449
917.962, 48690.297
919.227, 45214.305
920.492, 41084.672
921.757, 36485.809
923.021, 32570.369
924.285, 28538.742
925.550, 24949.648
926.813, 21558.299
928.077, 18672.455
929.341, 16169.582
930.604, 14244.909
931.867, 12328.156
933.130, 10973.084
934.393, 10049.160
935.655, 8798.538
936.918, 8178.535
938.180, 7369.841
939.442, 6753.507
940.703, 6367.209
941.965, 5935.941
943.226, 5550.709
944.488, 5305.509
945.749, 5202.343
947.009, 4923.209
948.270, 4824.114
949.530, 4639.053
950.791, 4700.028
952.051, 4659.038
953.311, 4602.083
954.570, 4740.172
955.830, 4741.296
957.089, 4713.459
958.348, 4701.659
959.607, 4728.897
960.866, 4529.176
962.124, 4397.490
963.383, 4286.847
964.641, 4259.242
965.899, 4189.680
967.156, 4257.158
968.414, 4303.675
969.671, 4574.236
970.928, 4971.838
972.185, 5699.488
973.442, 6499.180
974.699, 7605.915
975.955, 8834.693
977.211, 10100.516
978.468, 11458.380
979.723, 12151.290
980.979, 12184.243
982.234, 12005.245
983.490, 10622.294
984.745, 9710.385
986.000, 8272.528
987.254, 6915.719
988.509, 5970.958
989.763, 5054.247
991.017, 4365.586
992.271, 3758.980
993.525, 3258.429
994.779, 2892.932
996.032, 2470.490
997.285, 2246.155
998.538, 1802.302
999.791, 1696.021
1001.044, 1439.945
1002.296, 1276.422
1003.548, 1146.436
1004.800, 1033.638
1006.052, 938.243
1007.304, 885.209
1008.555, 749.102
1009.807, 712.720
1011.058, 763.030
1012.309, 761.964
1013.559, 697.221
1014.810, 728.951
1016.060, 748.534
1017.310, 850.057
1018.560, 853.364
1019.810, 997.883
1021.060, 1096.793
1022.309, 1257.804
1023.558, 1415.246
1024.807, 1373.474
1026.056, 1698.912
1027.305, 1834.957
1028.553, 2206.422
1029.801, 2582.089
1031.049, 2936.063
1032.297, 3467.933
1033.545, 4173.190
1034.793, 4676.578
1036.040, 5415.470
1037.287, 6202.754
1038.534, 6819.832
1039.781, 7560.501
1041.027, 7631.023
1042.274, 7803.731
1043.520, 7757.248
1044.766, 7538.524
1046.012, 7188.882
1047.257, 6566.705
1048.503, 6283.321
1049.748, 5815.887
1050.993, 5503.616
1052.238, 5228.195
1053.483, 5123.092
1054.727, 5230.989
1055.971, 5647.605
1057.216, 5778.339
1058.459, 6387.183
1059.703, 6479.119
1060.947, 6709.145
1062.190, 6666.260
1063.433, 6453.285
1064.676, 6087.923
1065.919, 5715.254
1067.162, 5759.724
1068.404, 5597.194
1069.646, 5830.814
1070.888, 6406.395
1072.130, 7157.024
1073.372, 7853.699
1074.613, 9157.438
1075.855, 10211.220
1077.096, 12019.053
1078.337, 14176.941
1079.578, 15885.866
1080.818, 18576.836
1082.059, 21645.852
1083.299, 24788.904
1084.539, 27628.160
1085.779, 29647.301
1087.018, 29983.475
1088.258, 28351.689
1089.497, 25086.438
1090.736, 20876.721
1091.975, 16762.076
1093.213, 12819.431
1094.452, 10169.860
1095.690, 7658.377
1096.928, 6051.942
1098.166, 4779.435
1099.404, 3940.959
1100.642, 3181.628
1101.879, 2721.377
1103.116, 2208.691
1104.353, 1938.408
1105.590, 1684.096
1106.827, 1486.958
1108.063, 1301.844
1109.299, 1136.792
1110.536, 1029.452
1111.771, 876.522
1113.007, 798.394
1114.243, 704.709
1115.478, 696.643
1116.713, 612.691
1117.948, 596.741
1119.183, 523.761
1120.418, 519.298
1121.652, 785.399
1122.886, 901.501
1124.120, 822.921
1125.354, 590.111
1126.588, 456.290
1127.821, 356.494
1129.055, 340.744
1130.288, 345.604
1131.521, 299.063
1132.753, 281.936
1133.986, 305.463
1135.218, 265.776
1136.450, 185.407
1137.682, 278.548
1138.914, 101.059
1140.146, 113.007
1141.377, 126.999
1142.609, 93.180
1143.840, 12.186
1145.071, 1.120
1146.301, 26.024
1147.532, 40.352
1148.762, 102.670
1149.992, 30.660
1151.222, 74.215
1152.452, 12.604
1153.682, 107.273
1154.911, 89.327
1156.140, 149.630
1157.369, 75.182
1158.598, 110.709
1159.827, 140.866
1161.055, 102.948
1162.284, 130.067
1163.512, 72.609
1164.740, 36.874
1165.967, 67.354
1167.195, 68.012
1168.422, 113.191
1169.650, 110.897
1170.877, 133.453
1172.103, 87.157
1173.330, 66.833
1174.557, 54.188
1175.783, 116.862
1177.009, 180.737
1178.235, 80.504
1179.461, 92.511
1180.686, 77.269
1181.912, 56.206
1183.137, 61.163
1184.362, 44.296
1185.587, 73.884
1186.811, 23.517
1188.036, 36.461
1189.260, 16.298
1190.484, 28.386
1191.708, 39.209
1192.932, 36.745
1194.155, 41.305
1195.378, 51.011
1196.602, 29.334
1197.825, 28.550
1199.047, 2.862
1200.270, 15.839
1201.492, 1.787
1202.715, 55.615
1203.937, 51.712
1205.159, 54.043
1206.380, 72.039
1207.602, 70.178
1208.823, 52.125
1210.044, 19.049
1211.265, 21.915
1212.486, 103.916
1213.707, 19.734
1214.927, 69.499
1216.147, 51.237
1217.367, 96.050
1218.587, 65.730
1219.807, 75.381
1221.027, 91.003
1222.246, 106.596
1223.465, 123.306
1224.684, 133.838
1225.903, 142.033
1227.121, 93.810
1228.340, 137.248
1229.558, 111.655
1230.776, 74.030
1231.994, 135.370
1233.212, 101.676
1234.429, 108.949
1235.646, 71.188
1236.864, 124.387
1238.081, 106.562
1239.297, 129.713
1240.514, 113.932
1241.730, 104.033
1242.947, 105.323
1244.163, 134.441
1245.378, 157.481
1246.594, 115.489
1247.810, 109.453
1249.025, 90.503
1250.240, 138.521
1251.455, 205.660
1252.670, 126.738
1253.885, 167.636
1255.099, 147.632
1256.313, 156.517
1257.527, 128.358
1258.741, 182.029
1259.955, 123.059
1261.168, 226.219
1262.382, 168.736
1263.595, 178.719
1264.808, 198.307
1266.021, 93.990
1267.233, 196.688
1268.446, 217.086
1269.658, 151.637
1270.870, 204.037
1272.082, 218.245
1273.294, 241.676
1274.505, 217.062
1275.716, 143.217
1276.928, 184.282
1278.139, 149.496
1279.349, 184.364
1280.560, 134.029
1281.770, 181.175
1282.981, 147.588
1284.191, 133.543
1285.401, 119.302
1286.610, 119.855
1287.820, 115.417
1289.029, 123.426
1290.239, 127.814
1291.448, 132.936
1292.656, 155.360
1293.865, 131.287
1295.073, 178.051
1296.282, 113.255
1297.490, 143.831
1298.698, 159.428
1299.906, 127.958
1301.113, 135.593
1302.320, 101.753
1303.528, 111.741
1304.735, 104.043
1305.942, 108.736
1307.148, 106.438
1308.355, 81.379
1309.561, 70.901
1310.767, 51.920
1311.973, 77.421
1313.179, 38.864
1314.384, 73.920
1315.590, 17.895
1316.795, 62.536
1318.000, 32.372
1319.205, 46.054
1320.410, 52.332
1321.614, 26.958
1322.819, 39.606
1324.023, 41.993
1325.227, 30.596
1326.431, 63.831
1327.634, 8.997
1328.838, 7.741
1330.041, 40.167
1331.244, 80.887
1332.447, 97.093
1333.650, 91.629
1334.852, 106.952
1336.055, 79.547
1337.257, 58.458
1338.459, 76.792
1339.661, 40.972
1340.862, 98.755
1342.064, 27.674
1343.265, 27.502
1344.466, 85.551
1345.667, 33.356
1346.868, 104.229
1348.068, 166.524
1349.269, 108.701
1350.469, 195.829
1351.669, 141.908
1352.869, 182.939
1354.069, 189.922
1355.268, 147.011
1356.468, 219.526
1357.667, 176.369
1358.866, 222.094
1360.065, 258.849
1361.263, 154.458
1362.462, 190.123
1363.660, 233.744
1364.858, 220.319
1366.056, 229.853
1367.254, 145.344
1368.451, 288.795
1369.649, 240.206
1370.846, 220.577
1372.043, 283.910
1373.240, 238.376
1374.436, 191.638
1375.633, 196.750
1376.829, 199.948
1378.025, 191.222
1379.221, 223.293
1380.417, 190.661
1381.613, 229.290
1382.808, 183.838
1384.003, 162.139
1385.199, 199.561
1386.393, 134.620
1387.588, 169.083
1388.783, 182.094
1389.977, 184.076
1391.171, 188.233
1392.365, 160.191
1393.559, 160.894
1394.753, 125.531
1395.946, 130.092
1397.140, 165.613
1398.333, 134.979
1399.526, 154.269
1400.719, 155.566
1401.911, 186.765
1403.104, 102.311
1404.296, 79.983
1405.488, 227.048
1406.680, 83.732
1407.872, 138.814
1409.063, 103.348
1410.255, 92.630
1411.446, 140.443
1412.637, 94.203
1413.828, 106.566
1415.018, 135.238
1416.209, 77.374
1417.399, 68.794
1418.589, 81.831
1419.779, 76.822
1420.969, 43.960
1422.159, 76.668
1423.348, 100.409
1424.537, 17.329
1425.726, 123.591
1426.915, 110.664
1428.104, 80.048
1429.293, 34.848
1430.481, 79.443
1431.669, 17.567
1432.857, 67.763
1434.045, 44.850
1435.233, 126.378
1436.420, 73.954
1437.608, 63.787
1438.795, 65.826
1439.982, 87.590
1441.169, 37.550
1442.355, 126.297
1443.542, 90.164
