##NAMES=Epidote
##RRUFFID=R050303
##IDEAL CHEMISTRY=Ca_2_Fe^3+^Al_2_(Si_2_O_7_)(SiO_4_)O(OH)
##LOCALITY=San Martin mine, Zacatecas, Mexico
##OWNER=RRUFF
##SOURCE=Eugene Schlepp
##DESCRIPTION=Green elongated prismatic crystals
##STATUS=The identification of this mineral has been confirmed by X-ray diffraction and chemical analysis
##URL=rruff.info/R050303
##MEASURED CHEMISTRY=Ca_2.00_Al_2.00_(Fe^3+^_0.97_Al_0.03_)(SiO_4_)(Si_2_O_7_)O(OH)
##PIN_ID=L01741
##ORIENTATION=Laser parallel to -a* (-1 0 0). Fiducial mark perpendicular to laser is parallel to -b [0 -1 0]
53.91000, 0.0000000E+00
55.14900, 107.7317
56.38700, 175.7911
57.62600, 332.5566
58.86400, 357.5024
60.10300, 596.1620
61.34100, 414.4076
62.57900, 195.7808
63.81700, 84.27173
65.05400, 96.76538
66.29200, 108.0491
67.52900, 110.2778
68.76700, 181.9114
70.00400, 392.9514
71.24100, 426.3438
72.47700, 584.6504
73.71400, 751.4736
74.95100, 1221.417
76.18700, 1770.106
77.42300, 2071.204
78.65900, 2718.432
79.89500, 3539.537
81.13100, 4648.299
82.36700, 6222.527
83.60200, 7882.042
84.83700, 9678.693
86.07200, 11355.34
87.30800, 13530.86
88.54200, 15324.13
89.77700, 16623.06
91.01200, 17612.55
92.24600, 17911.44
93.48000, 17736.54
94.71400, 17651.67
95.94800, 16872.71
97.18200, 14989.53
98.41600, 12969.07
99.64900, 10878.31
100.8830, 8928.227
102.1160, 7302.771
103.3490, 6421.886
104.5820, 5960.528
105.8150, 6194.664
107.0470, 6960.264
108.2800, 6055.347
109.5120, 6831.731
110.7440, 5044.537
111.9760, 4440.693
113.2080, 4430.173
114.4400, 4644.953
115.6710, 4478.015
116.9030, 4160.338
118.1340, 3955.904
119.3650, 3856.695
120.5960, 4029.693
121.8270, 4201.883
123.0580, 4578.253
124.2880, 4920.781
125.5190, 5136.459
126.7490, 5166.270
127.9790, 5574.002
129.2090, 5857.018
130.4390, 5887.271
131.6680, 5531.720
132.8980, 5019.340
134.1270, 4540.047
135.3560, 4050.002
136.5850, 4030.378
137.8140, 3990.208
139.0430, 4119.525
140.2710, 4300.354
141.5000, 4374.719
142.7280, 4399.860
143.9560, 4522.186
145.1840, 4642.820
146.4120, 4460.365
147.6390, 4127.479
148.8670, 3970.167
150.0940, 4086.444
151.3210, 4454.329
152.5490, 4646.836
153.7750, 5042.974
155.0020, 6044.781
156.2290, 6638.387
157.4550, 7970.703
158.6810, 9203.680
159.9080, 10887.32
161.1340, 12636.62
162.3590, 14330.57
163.5850, 16007.17
164.8110, 16635.43
166.0360, 16832.35
167.2610, 16678.92
168.4860, 16383.14
169.7110, 16344.00
170.9360, 15794.51
172.1610, 14480.67
173.3850, 12994.48
174.6100, 11017.92
175.8340, 9193.998
177.0580, 7687.718
178.2820, 6609.072
179.5050, 5649.059
180.7290, 4929.677
181.9520, 4464.920
183.1760, 4602.789
184.3990, 4407.283
185.6220, 4232.393
186.8450, 4033.119
188.0670, 3553.461
189.2900, 3054.413
190.5120, 2436.972
191.7340, 2475.137
192.9560, 2475.901
194.1780, 2340.266
195.4000, 2528.225
196.6220, 2628.775
197.8430, 2724.915
199.0640, 3150.639
200.2860, 2961.946
201.5070, 2979.536
202.7270, 2710.601
203.9480, 1931.081
205.1690, 1345.134
206.3890, 1024.604
207.6090, 849.3789
208.8290, 697.9824
210.0490, 503.9902
211.2690, 550.6104
212.4890, 799.4355
213.7080, 745.9043
214.9280, 962.7344
216.1470, 1241.447
217.3660, 1377.039
218.5850, 1797.479
219.8030, 2283.739
221.0220, 2870.798
222.2400, 3460.631
223.4590, 4290.217
224.6770, 5250.539
225.8950, 5922.576
227.1120, 6891.314
228.3300, 7218.736
229.5480, 7746.209
230.7650, 8457.524
231.9820, 8966.213
233.1990, 9832.498
234.4160, 11025.37
235.6330, 12624.80
236.8490, 14099.96
238.0660, 15639.23
239.2820, 16365.22
240.4980, 16110.80
241.7140, 14645.02
242.9300, 12791.89
244.1460, 10684.44
245.3610, 8558.677
246.5770, 7117.613
247.7920, 6263.256
249.0070, 5531.589
250.2220, 5055.611
251.4370, 5145.309
252.6510, 5055.684
253.8660, 4713.693
255.0800, 4431.645
256.2940, 3969.933
257.5080, 3865.705
258.7220, 3340.383
259.9360, 3225.638
261.1490, 2519.920
262.3630, 2260.653
263.5760, 2086.834
264.7890, 2185.455
266.0020, 2498.516
267.2150, 2758.009
268.4270, 3082.930
269.6400, 3821.274
270.8520, 4442.039
272.0640, 5028.220
273.2760, 5366.811
274.4880, 5368.811
275.7000, 5025.217
276.9120, 4852.033
278.1230, 4328.256
279.3340, 4179.889
280.5450, 4224.930
281.7560, 4434.381
282.9670, 4728.130
284.1780, 5239.506
285.3880, 5811.180
286.5980, 6538.258
287.8090, 7492.740
289.0190, 8335.623
290.2290, 8938.904
291.4380, 8936.578
292.6480, 8462.643
293.8570, 7358.094
295.0670, 6281.932
296.2760, 5292.154
297.4850, 4238.762
298.6930, 3643.750
299.9020, 2999.117
301.1110, 2556.863
302.3190, 2513.984
303.5270, 2360.479
304.7350, 2621.347
305.9430, 2733.581
307.1510, 3256.184
308.3580, 3956.150
309.5660, 4470.481
310.7730, 5226.172
311.9800, 5572.223
313.1870, 5786.631
314.3940, 5832.395
315.6010, 5623.510
316.8070, 5711.979
318.0130, 6235.797
319.2200, 6779.961
320.4260, 7844.471
321.6310, 8797.320
322.8370, 9531.518
324.0430, 10610.05
325.2480, 11383.92
326.4540, 11704.12
327.6590, 11823.66
328.8640, 11438.53
330.0680, 10936.73
331.2730, 9790.250
332.4780, 9234.102
333.6820, 8962.270
334.8860, 8936.762
336.0900, 9279.570
337.2940, 10046.70
338.4980, 11356.14
339.7010, 13016.89
340.9050, 15026.95
342.1080, 17455.32
343.3110, 19985.00
344.5140, 22249.98
345.7170, 23951.26
346.9200, 24661.94
348.1220, 23709.04
349.3240, 21710.53
350.5270, 18947.43
351.7290, 15847.76
352.9310, 13622.49
354.1320, 11263.64
355.3340, 9493.211
356.5350, 8276.197
357.7370, 7218.627
358.9380, 6605.477
360.1390, 6345.738
361.3400, 5958.385
362.5400, 5810.416
363.7410, 5452.826
364.9410, 5101.611
366.1410, 4412.770
367.3410, 3560.297
368.5410, 2486.191
369.7410, 1688.447
370.9400, 824.0625
372.1400, 245.0391
373.3390, 367.6309
374.5380, 681.0117
375.7370, 759.1680
376.9360, 1109.135
378.1350, 998.0234
379.3330, 745.7969
380.5310, 627.3926
381.7300, 73.77734
382.9280, 544.4941
384.1260, 867.9727
385.3230, 1485.684
386.5210, 2039.150
387.7180, 2294.102
388.9160, 2486.982
390.1130, 2158.477
391.3100, 1949.771
392.5060, 1547.123
393.7030, 1167.516
394.9000, 733.1621
396.0960, 97.96484
397.2920, 110.3594
398.4880, 94.97266
399.6840, 223.6719
400.8800, 147.9453
402.0750, 11.94922
403.2710, 24.09180
404.4660, 540.6172
405.6610, 935.0098
406.8560, 1264.662
408.0510, 1804.570
409.2450, 2427.734
410.4400, 2978.148
411.6340, 3432.812
412.8280, 3957.729
414.0220, 4253.891
415.2160, 4650.301
416.4100, 4908.961
417.6030, 5324.863
418.7970, 6227.010
419.9900, 7216.406
421.1830, 8168.055
422.3760, 8806.949
423.5690, 9167.098
424.7610, 10102.49
425.9540, 11095.15
427.1460, 12502.07
428.3380, 14423.26
429.5300, 16750.73
430.7220, 19104.44
431.9140, 21093.43
433.1050, 21681.68
434.2970, 21221.20
435.4880, 19770.99
436.6790, 18334.09
437.8700, 17315.44
439.0610, 17090.07
440.2510, 17661.98
441.4420, 18723.14
442.6320, 20451.57
443.8220, 22867.28
445.0120, 25242.26
446.2020, 27251.47
447.3910, 28633.90
448.5810, 27919.58
449.7700, 26856.48
450.9600, 25318.64
452.1490, 23659.07
453.3370, 21607.72
454.5260, 19514.61
455.7150, 16947.72
456.9030, 14189.05
458.0910, 11735.59
459.2800, 9647.343
460.4670, 7872.332
461.6550, 6291.549
462.8430, 5224.959
464.0300, 4074.598
465.2180, 3532.455
466.4050, 2998.500
467.5920, 2430.761
468.7790, 2041.190
469.9650, 1681.799
471.1520, 1363.582
472.3380, 1017.545
473.5250, 993.7080
474.7110, 715.0449
475.8970, 724.5449
477.0820, 741.2295
478.2680, 884.0703
479.4540, 963.0625
480.6390, 1087.207
481.8240, 1608.521
483.0090, 1843.022
484.1940, 2400.690
485.3780, 2960.508
486.5630, 3643.463
487.7470, 4531.566
488.9320, 5429.807
490.1160, 6350.177
491.3000, 7884.676
492.4830, 8994.302
493.6670, 10427.05
494.8500, 11307.91
496.0340, 12185.89
497.2170, 12546.99
498.4000, 12091.21
499.5820, 11355.53
500.7650, 10766.95
501.9480, 10241.44
503.1300, 9400.110
504.3120, 9144.830
505.4940, 8599.646
506.6760, 8005.553
507.8580, 7261.548
509.0390, 6240.623
510.2210, 4981.779
511.4020, 3936.012
512.5830, 3002.318
513.7640, 2498.057
514.9450, 1922.548
516.1250, 1551.066
517.3060, 1398.662
518.4860, 1213.770
519.6660, 1146.520
520.8460, 798.3633
522.0260, 635.7578
523.2060, 433.1016
524.3850, 233.5889
525.5650, 59.32031
526.7440, 118.0518
527.9230, 281.2021
529.1020, 377.4365
530.2810, 475.2080
531.4590, 530.6729
532.6380, 571.5527
533.8160, 562.1826
534.9940, 552.8408
536.1720, 510.9775
537.3500, 559.4277
538.5270, 377.2178
539.7050, 373.2686
540.8820, 212.8945
542.0590, 100.4609
543.2360, 52.10059
544.4130, 129.4434
545.5900, 354.5127
546.7660, 656.6953
547.9430, 968.8955
549.1190, 1393.112
550.2950, 1939.345
551.4710, 2439.590
552.6470, 3281.846
553.8220, 4516.113
554.9980, 5742.654
556.1730, 7210.937
557.3480, 8963.744
558.5230, 10972.27
559.6980, 13097.78
560.8730, 14943.52
562.0470, 15726.04
563.2220, 14997.06
564.3960, 13039.36
565.5700, 10512.18
566.7440, 8379.477
567.9170, 6759.801
569.0910, 5513.758
570.2640, 4894.244
571.4380, 4247.756
572.6110, 4108.863
573.7840, 4280.748
574.9570, 4287.743
576.1290, 4691.182
577.3020, 5337.646
578.4740, 6068.447
579.6460, 6900.170
580.8180, 7671.232
581.9900, 8485.558
583.1620, 9301.382
584.3330, 10346.79
585.5040, 10922.18
586.6760, 11898.44
587.8470, 12659.51
589.0180, 13785.51
590.1880, 14998.91
591.3590, 16465.39
592.5290, 18283.61
593.7000, 19321.69
594.8700, 19946.33
596.0400, 19671.89
597.2090, 19301.74
598.3790, 18157.15
599.5490, 17557.61
600.7180, 16242.50
601.8870, 15121.91
603.0560, 14928.41
604.2250, 14672.15
605.3940, 14635.66
606.5620, 14931.95
607.7300, 15381.29
608.8990, 15420.34
610.0670, 14916.94
611.2350, 14054.98
612.4020, 13061.13
613.5700, 11479.40
614.7370, 10200.32
615.9050, 8893.192
617.0720, 7467.926
618.2390, 6570.541
619.4060, 5497.375
620.5720, 4696.858
621.7390, 3974.430
622.9050, 3582.096
624.0710, 3168.007
625.2370, 2883.029
626.4030, 2729.676
627.5690, 2307.741
628.7340, 2191.841
629.9000, 2129.638
631.0650, 1830.397
632.2300, 1912.859
633.3950, 1585.251
634.5600, 1647.329
635.7240, 1399.194
636.8890, 1409.854
638.0530, 1206.128
639.2170, 1194.098
640.3810, 1214.634
641.5450, 1277.388
642.7080, 1190.871
643.8720, 921.1621
645.0350, 1055.031
646.1980, 957.9570
647.3610, 910.4463
648.5240, 953.2031
649.6870, 1053.797
650.8490, 979.1670
652.0120, 1001.140
653.1740, 855.2393
654.3360, 898.6934
655.4980, 855.2393
656.6600, 653.7178
657.8210, 694.0430
658.9830, 718.2822
660.1440, 670.4941
661.3050, 755.6494
662.4660, 755.7832
663.6270, 780.7617
664.7870, 825.2578
665.9480, 826.0957
667.1080, 786.1357
668.2680, 861.9639
669.4280, 782.4795
670.5880, 847.2344
671.7480, 866.5449
672.9070, 896.2168
674.0670, 863.9990
675.2260, 846.8994
676.3850, 924.7012
677.5440, 1014.505
678.7030, 964.8682
679.8610, 914.1055
681.0200, 1010.845
682.1780, 1076.271
683.3360, 1077.026
684.4940, 1163.230
685.6520, 1177.921
686.8090, 1191.201
687.9670, 1089.354
689.1240, 905.3799
690.2810, 892.2793
691.4380, 717.0488
692.5950, 651.6914
693.7520, 441.2051
694.9080, 618.5850
696.0650, 332.8359
697.2210, 449.9424
698.3770, 356.9141
699.5330, 275.7441
700.6880, 234.4199
701.8440, 256.9336
702.9990, 154.2910
704.1550, 214.4688
705.3100, 84.48438
706.4650, 37.30176
707.6190, 23.90039
708.7740, 2.722656
709.9290, 130.4170
711.0830, 31.62500
712.2370, 2.083008
713.3910, 14.55762
714.5450, 74.19238
715.6980, 172.2148
716.8520, 11.44434
718.0050, 101.1230
719.1580, 92.97168
720.3110, 4.097656
721.4640, 80.45312
722.6170, 152.0762
723.7700, 109.0039
724.9220, 65.78711
726.0740, 39.38672
727.2260, 32.21582
728.3780, 5.946289
729.5300, 110.1074
730.6810, 125.4346
731.8330, 63.04297
732.9840, 27.89746
734.1350, 14.39746
735.2860, 6.856445
736.4370, 3.785156
737.5880, 24.50293
738.7380, 99.43750
739.8880, 95.62695
741.0390, 41.93359
742.1890, 109.6865
743.3380, 94.55957
744.4880, 27.32324
745.6380, 100.9727
746.7870, 157.4883
747.9360, 27.79688
749.0850, 41.93359
750.2340, 3.099609
751.3830, 92.31348
752.5310, 9.753906
753.6800, 56.62500
754.8280, 67.15527
755.9760, 101.8594
757.1240, 77.72461
758.2720, 87.43945
759.4190, 53.99316
760.5670, 140.6143
761.7140, 54.46582
762.8610, 20.50000
764.0080, 145.3008
765.1550, 35.03223
766.3020, 85.46875
767.4480, 90.83398
768.5950, 80.06348
769.7410, 87.15723
770.8870, 157.1172
772.0330, 166.9551
773.1780, 20.67090
774.3240, 89.24902
775.4690, 19.29883
776.6140, 217.0107
777.7590, 51.20801
778.9040, 97.27832
780.0490, 176.2295
781.1940, 116.0693
782.3380, 117.7939
783.4820, 96.40430
784.6260, 114.1318
785.7700, 199.2881
786.9140, 198.5693
788.0580, 211.7480
789.2010, 296.8262
790.3450, 195.8076
791.4880, 101.3320
792.6310, 284.0703
793.7730, 225.3682
794.9160, 263.3789
796.0590, 308.1113
797.2010, 295.2012
798.3430, 324.1982
799.4850, 174.6562
800.6270, 428.9863
801.7690, 340.6104
802.9100, 219.8203
804.0520, 378.0557
805.1930, 594.9570
806.3340, 482.7920
807.4750, 393.3379
808.6160, 724.4082
809.7560, 578.5703
810.8970, 613.8350
812.0370, 516.2031
813.1770, 680.6729
814.3170, 794.2383
815.4570, 1092.913
816.5960, 921.6553
817.7360, 1242.466
818.8750, 1220.312
820.0140, 1245.166
821.1530, 1321.021
822.2920, 1627.840
823.4310, 1685.597
824.5690, 1734.281
825.7070, 1789.897
826.8460, 1907.442
827.9840, 2038.920
829.1220, 2080.330
830.2590, 2256.674
831.3970, 2326.684
832.5340, 2486.437
833.6710, 2615.223
834.8080, 2766.370
835.9450, 2865.178
837.0820, 2901.691
838.2190, 2973.365
839.3550, 3116.474
840.4910, 3280.238
841.6270, 3681.415
842.7630, 3742.054
843.8990, 3721.601
845.0350, 4146.447
846.1700, 4631.697
847.3060, 4854.854
848.4410, 5328.347
849.5760, 5685.994
850.7100, 6307.463
851.8450, 7075.414
852.9800, 7885.270
854.1140, 8678.718
855.2480, 9671.172
856.3820, 10748.21
857.5160, 12138.92
858.6500, 13064.92
859.7830, 14360.53
860.9170, 15012.94
862.0500, 15670.42
863.1830, 16345.00
864.3160, 16513.58
865.4480, 17003.69
866.5810, 17585.65
867.7130, 17807.80
868.8460, 19293.00
869.9780, 20432.56
871.1100, 22208.13
872.2410, 24051.34
873.3730, 26746.90
874.5050, 29182.37
875.6360, 31841.32
876.7670, 34623.70
877.8980, 37067.93
879.0290, 40024.83
880.1590, 42507.90
881.2900, 44625.11
882.4200, 46121.23
883.5500, 46848.55
884.6800, 46001.25
885.8100, 44350.48
886.9400, 41832.50
888.0690, 38841.35
889.1990, 34558.46
890.3280, 30940.59
891.4570, 27479.78
892.5860, 24943.06
893.7140, 22497.03
894.8430, 20598.28
895.9710, 19032.35
897.1000, 18283.26
898.2280, 17419.84
899.3560, 17218.22
900.4830, 16920.91
901.6110, 17112.11
902.7380, 17430.21
903.8660, 17940.52
904.9930, 18737.79
906.1200, 19689.26
907.2460, 20944.72
908.3730, 22137.43
909.5000, 23503.26
910.6260, 24677.20
911.7520, 25793.44
912.8780, 26501.90
914.0040, 26258.69
915.1290, 25580.18
916.2550, 24269.66
917.3800, 22416.62
918.5050, 20064.73
919.6300, 17978.69
920.7550, 15782.00
921.8800, 13919.95
923.0040, 12109.97
924.1290, 10507.12
925.2530, 9001.587
926.3770, 8133.828
927.5010, 6975.622
928.6250, 6286.240
929.7480, 5516.863
930.8720, 4846.604
931.9950, 4458.420
933.1180, 4089.303
934.2410, 3456.256
935.3640, 3188.214
936.4860, 3052.293
937.6090, 2616.185
938.7310, 2424.582
939.8530, 2183.912
940.9750, 1824.261
942.0970, 1904.669
943.2180, 1486.140
944.3400, 1377.666
945.4610, 1479.248
946.5820, 1303.893
947.7030, 1236.591
948.8240, 1027.349
949.9450, 1033.170
951.0650, 1059.065
952.1860, 1008.020
953.3060, 926.0293
954.4260, 897.0947
955.5460, 862.0654
956.6650, 829.6631
957.7850, 807.6260
958.9040, 764.9170
960.0230, 770.2832
961.1420, 758.1973
962.2610, 752.2100
963.3800, 766.7695
964.4990, 772.3887
965.6170, 803.0674
966.7350, 778.8438
967.8530, 982.6826
968.9710, 1083.604
970.0890, 1284.592
971.2070, 1501.660
972.3240, 1639.832
973.4410, 2146.085
974.5580, 2042.419
975.6750, 2347.875
976.7920, 2374.411
977.9090, 2355.049
979.0250, 2403.794
980.1410, 2158.660
981.2580, 1759.646
982.3740, 1453.724
983.4890, 1339.928
984.6050, 1168.250
985.7200, 954.6895
986.8360, 834.2666
987.9510, 721.0078
989.0660, 647.5430
990.1810, 740.9346
991.2950, 585.1748
992.4100, 617.5508
993.5240, 603.0664
994.6390, 508.7490
995.7530, 629.5859
996.8660, 826.5254
997.9800, 703.5713
999.0940, 820.7412
1000.207, 884.4102
1001.320, 916.1455
1002.433, 849.8477
1003.546, 1128.135
1004.659, 1201.980
1005.772, 1417.941
1006.884, 1580.016
1007.996, 1915.129
1009.108, 2413.374
1010.220, 2796.422
1011.332, 3356.589
1012.444, 4090.376
1013.555, 4614.473
1014.666, 5349.595
1015.777, 5618.590
1016.888, 6112.510
1017.999, 6039.355
1019.110, 5612.224
1020.220, 5117.357
1021.331, 4838.746
1022.441, 4117.799
1023.551, 3412.683
1024.661, 3221.329
1025.770, 2712.194
1026.880, 2384.336
1027.989, 2334.491
1029.098, 2136.930
1030.207, 2065.031
1031.316, 2118.290
1032.425, 2121.895
1033.533, 1914.991
1034.642, 2096.564
1035.750, 2079.123
1036.858, 2020.068
1037.966, 2156.172
1039.073, 2064.416
1040.181, 2038.596
1041.288, 1931.658
1042.396, 1812.980
1043.503, 1719.900
1044.610, 1535.377
1045.716, 1453.933
1046.823, 1254.557
1047.929, 1249.254
1049.036, 1088.021
1050.142, 899.8555
1051.248, 889.8145
1052.353, 873.7861
1053.459, 833.8242
1054.564, 823.5098
1055.670, 808.0986
1056.775, 773.3301
1057.880, 839.7002
1058.985, 799.0547
1060.089, 634.4707
1061.194, 748.9248
1062.298, 663.4658
1063.402, 749.0674
1064.506, 650.9443
1065.610, 740.3779
1066.713, 794.1553
1067.817, 740.9902
1068.920, 895.8828
1070.023, 1144.840
1071.126, 1275.794
1072.229, 1401.137
1073.332, 1631.893
1074.435, 2234.627
1075.537, 2432.070
1076.639, 3155.361
1077.741, 3440.716
1078.843, 4099.822
1079.945, 5065.282
1081.046, 6009.049
1082.148, 6573.180
1083.249, 6985.343
1084.350, 6853.471
1085.451, 6208.199
1086.551, 5539.979
1087.652, 4499.811
1088.752, 3804.691
1089.853, 2832.623
1090.953, 2347.602
1092.053, 1827.763
1093.152, 1528.642
1094.252, 1276.832
1095.351, 1062.509
1096.451, 842.7344
1097.550, 600.0039
1098.649, 702.1982
1099.748, 587.7295
1100.846, 590.1445
1101.945, 459.6963
1103.043, 482.5918
1104.141, 370.0586
1105.239, 352.6377
1106.337, 321.2627
1107.434, 192.6113
1108.532, 284.3105
1109.629, 143.2158
1110.726, 172.9951
1111.823, 201.6689
1112.920, 214.5215
1114.017, 304.4131
1115.113, 435.4229
1116.210, 393.3848
1117.306, 534.7031
1118.402, 636.8184
1119.498, 830.8809
1120.593, 902.7031
1121.689, 846.4131
1122.784, 950.4873
1123.879, 739.1064
1124.974, 707.3193
1126.069, 635.8398
1127.164, 456.3164
1128.259, 236.6055
1129.353, 110.9521
1130.447, 102.2881
1131.541, 101.3525
1132.635, 26.67188
1133.729, 22.70215
1134.822, 32.72461
1135.916, 115.0293
1137.009, 76.45410
1138.102, 49.94141
1139.195, 180.5977
1140.288, 131.5098
1141.380, 65.23438
1142.473, 166.8096
1143.565, 46.42285
1144.657, 107.9854
1145.749, 46.60449
1146.841, 188.2236
1147.932, 61.80273
1149.024, 83.48047
1150.115, 193.0215
1151.206, 24.77148
1152.297, 132.5195
1153.388, 71.70117
1154.479, 250.0205
1155.569, 78.91211
1156.659, 223.9414
1157.750, 82.93750
1158.839, 52.04395
1159.929, 3.3202998E-02
1161.019, 115.9814
1162.108, 18.31348
1163.198, 52.01270
1164.287, 121.8311
1165.376, 40.89844
1166.465, 124.0264
1167.553, 77.49414
1168.642, 18.68750
1169.730, 19.20117
1170.818, 48.63184
1171.906, 77.57910
1172.994, 21.17090
1174.082, 1.820313
1175.170, 216.5547
1176.257, 35.28516
1177.344, 180.0107
1178.431, 107.7305
1179.518, 229.4453
1180.605, 141.1533
1181.691, 26.14551
1182.778, 264.5264
1183.864, 108.1924
1184.950, 93.84766
1186.036, 113.4951
1187.122, 101.1338
1188.207, 34.76172
1189.292, 138.3789
1190.378, 77.98535
1191.463, 11.41895
1192.548, 67.14551
1193.632, 154.6982
1194.717, 11.76172
1195.801, 22.93750
1196.886, 126.4541
1197.970, 208.9248
1199.054, 73.38281
1200.137, 78.44629
1201.221, 24.87402
1202.305, 48.27734
1203.388, 23.65039
1204.471, 41.68359
1205.554, 56.99316
1206.637, 182.4541
1207.719, 93.28711
1208.802, 44.60547
1209.884, 206.9053
1210.966, 65.34180
1212.048, 28.53125
1213.130, 23.31543
1214.212, 62.77637
1215.293, 162.8438
1216.374, 165.8906
1217.456, 200.7285
1218.536, 165.2607
1219.617, 134.2441
1220.698, 149.2041
1221.778, 3.857422
1222.859, 43.01953
1223.939, 101.5693
1225.019, 54.38281
1226.099, 260.1562
1227.178, 201.9053
1228.258, 53.36914
1229.337, 105.2617
1230.417, 29.86523
1231.496, 113.4150
1232.574, 45.93848
1233.653, 30.58887
1234.732, 324.0107
1235.810, 88.37012
1236.888, 38.30859
1237.966, 189.9180
