##NAMES=Epididymite
##RRUFFID=R060773
##IDEAL CHEMISTRY=Na_2_Be_2_Si_6_O_15_&#183;H_2_O
##LOCALITY=unknown
##OWNER=RRUFF
##SOURCE=Michael Scott
##DESCRIPTION=Colorless platy crystals forming a pseudohexagonal aggregate
##STATUS=The identification of this mineral has been confirmed by single-crystal X-ray diffraction.
##URL=rruff.info/R060773
##PIN_ID=M00206
##ORIENTATION=Laser parallel to a* (1 0 0). Fiducial mark perpendicular to laser is parallel to b [0 1 0]
102.1160, 0.0000000E+00
103.3490, 11.62891
104.5820, 37.36914
105.8150, 302.2539
107.0470, 636.0020
108.2800, 1090.008
109.5120, 1386.578
110.7440, 1187.535
111.9760, 1507.127
113.2080, 1925.930
114.4400, 2411.754
115.6710, 2860.801
116.9030, 3284.852
118.1340, 3999.482
119.3650, 4644.309
120.5960, 5478.609
121.8270, 6255.291
123.0580, 7126.791
124.2880, 7254.965
125.5190, 7074.580
126.7490, 7595.531
127.9790, 7625.256
129.2090, 7816.549
130.4390, 7468.510
131.6680, 6671.459
132.8980, 5692.781
134.1270, 5067.891
135.3560, 4361.859
136.5850, 3893.008
137.8140, 3679.488
139.0430, 3712.939
140.2710, 3551.264
141.5000, 3562.430
142.7280, 3376.088
143.9560, 3315.834
145.1840, 3378.693
146.4120, 3222.057
147.6390, 3384.646
148.8670, 2846.342
150.0940, 2475.430
151.3210, 2327.727
152.5490, 1712.875
153.7750, 1481.473
155.0020, 1221.586
156.2290, 743.9258
157.4550, 597.7891
158.6810, 412.1504
159.9080, 258.8984
161.1340, 34.49414
162.3590, 148.2148
163.5850, 178.6699
164.8110, 53.18359
166.0360, 85.34766
167.2610, 56.81250
168.4860, 101.4316
169.7110, 8.400391
170.9360, 109.9004
172.1610, 208.4512
173.3850, 126.2500
174.6100, 82.28125
175.8340, 166.4414
177.0580, 204.3965
178.2820, 7.125000
179.5050, 212.6250
180.7290, 150.0879
181.9520, 2.013672
183.1760, 58.05078
184.3990, 239.2539
185.6220, 297.8281
186.8450, 512.7031
188.0670, 576.1191
189.2900, 350.5840
190.5120, 531.0977
191.7340, 493.6855
192.9560, 719.2773
194.1780, 830.6113
195.4000, 855.7852
196.6220, 682.1680
197.8430, 657.3926
199.0640, 689.3047
200.2860, 827.9102
201.5070, 609.3867
202.7270, 662.6621
203.9480, 370.8848
205.1690, 196.0020
206.3890, 215.3438
207.6090, 106.2969
208.8290, 81.35938
210.0490, 233.5176
211.2690, 187.7871
212.4890, 219.9043
213.7080, 416.0020
214.9280, 416.9746
216.1470, 467.8105
217.3660, 581.5742
218.5850, 704.3164
219.8030, 1128.547
221.0220, 1234.041
222.2400, 1369.791
223.4590, 1868.252
224.6770, 2003.949
225.8950, 2619.381
227.1120, 3024.742
228.3300, 3977.004
229.5480, 4675.146
230.7650, 5758.195
231.9820, 6828.166
233.1990, 7343.070
234.4160, 8058.928
235.6330, 8696.740
236.8490, 8763.508
238.0660, 8908.232
239.2820, 8625.912
240.4980, 8237.547
241.7140, 7753.145
242.9300, 6987.697
244.1460, 6264.209
245.3610, 5456.680
246.5770, 4742.109
247.7920, 4045.500
249.0070, 3696.498
250.2220, 3254.770
251.4370, 2896.957
252.6510, 2639.654
253.8660, 2374.938
255.0800, 2183.441
256.2940, 2091.850
257.5080, 1902.098
258.7220, 2045.133
259.9360, 1650.914
261.1490, 1606.426
262.3630, 1282.664
263.5760, 1143.176
264.7890, 1041.250
266.0020, 837.5312
267.2150, 753.4082
268.4270, 542.8691
269.6400, 508.9199
270.8520, 780.5957
272.0640, 732.9375
273.2760, 794.7422
274.4880, 813.8086
275.7000, 802.1113
276.9120, 896.2949
278.1230, 839.1270
279.3340, 851.8086
280.5450, 871.4922
281.7560, 727.2422
282.9670, 786.7109
284.1780, 663.2598
285.3880, 668.1562
286.5980, 404.8789
287.8090, 318.4727
289.0190, 75.08008
290.2290, 294.9805
291.4380, 161.4121
292.6480, 236.4473
293.8570, 42.26562
295.0670, 33.01562
296.2760, 19.14648
297.4850, 54.98633
298.6930, 39.11914
299.9020, 10.71289
301.1110, 42.16797
302.3190, 121.2871
303.5270, 50.62695
304.7350, 70.68555
305.9430, 45.56641
307.1510, 56.53516
308.3580, 109.3184
309.5660, 80.25195
310.7730, 24.08594
311.9800, 21.07031
313.1870, 60.58594
314.3940, 10.73242
315.6010, 148.5488
316.8070, 17.01367
318.0130, 106.2695
319.2200, 46.75781
320.4260, 60.05469
321.6310, 113.8867
322.8370, 5.195313
324.0430, 1.083984
325.2480, 95.16016
326.4540, 2.927734
327.6590, 84.59375
328.8640, 66.74609
330.0680, 103.4648
331.2730, 183.3652
332.4780, 145.3379
333.6820, 17.86719
334.8860, 26.91992
336.0900, 154.9902
337.2940, 149.6934
338.4980, 248.2656
339.7010, 165.7812
340.9050, 353.2227
342.1080, 225.4609
343.3110, 326.5195
344.5140, 219.5391
345.7170, 484.5195
346.9200, 591.8770
348.1220, 741.3125
349.3240, 708.3633
350.5270, 678.1270
351.7290, 635.8398
352.9310, 496.1328
354.1320, 597.8926
355.3340, 572.5039
356.5350, 442.7012
357.7370, 608.0312
358.9380, 681.5293
360.1390, 602.9980
361.3400, 598.6562
362.5400, 659.6562
363.7410, 617.0645
364.9410, 839.6914
366.1410, 1041.285
367.3410, 928.8516
368.5410, 1255.387
369.7410, 1114.896
370.9400, 1379.383
372.1400, 1864.852
373.3390, 1907.303
374.5380, 2453.730
375.7370, 2569.141
376.9360, 2883.531
378.1350, 2989.906
379.3330, 2856.258
380.5310, 2961.592
381.7300, 2897.908
382.9280, 2725.209
384.1260, 2511.490
385.3230, 2327.754
386.5210, 2047.998
387.7180, 1806.225
388.9160, 1742.434
390.1130, 1720.623
391.3100, 1605.795
392.5060, 1425.953
393.7030, 1913.039
394.9000, 2235.057
396.0960, 2925.006
397.2920, 3836.883
398.4880, 5170.711
399.6840, 6066.477
400.8800, 6691.164
402.0750, 7259.781
403.2710, 7521.328
404.4660, 7816.857
405.6610, 7517.352
406.8560, 6744.779
408.0510, 5536.145
409.2450, 4582.449
410.4400, 3525.695
411.6340, 2484.914
412.8280, 1758.355
414.0220, 1238.619
415.2160, 828.7148
416.4100, 479.7832
417.6030, 283.8281
418.7970, 104.6270
419.9900, 56.88086
421.1830, 29.89844
422.3760, 104.0742
423.5690, 39.93164
424.7610, 21.06836
425.9540, 34.11914
427.1460, 101.8027
428.3380, 102.4668
429.5300, 9.199219
430.7220, 55.18945
431.9140, 102.0312
433.1050, 166.4844
434.2970, 93.54883
435.4880, 164.7383
436.6790, 88.50195
437.8700, 36.24609
439.0610, 20.60352
440.2510, 47.13281
441.4420, 127.3574
442.6320, 27.61914
443.8220, 12.16602
445.0120, 20.01562
446.2020, 66.29688
447.3910, 54.50586
448.5810, 84.02148
449.7700, 231.8887
450.9600, 299.9609
452.1490, 380.1387
453.3370, 634.5156
454.5260, 577.2266
455.7150, 843.6035
456.9030, 947.1719
458.0910, 1348.873
459.2800, 1448.266
460.4670, 1717.754
461.6550, 2228.160
462.8430, 2913.229
464.0300, 4041.529
465.2180, 5361.744
466.4050, 7013.650
467.5920, 8752.766
468.7790, 10407.84
469.9650, 11076.18
471.1520, 11743.25
472.3380, 12069.26
473.5250, 11907.42
474.7110, 11155.92
475.8970, 9763.840
477.0820, 8262.582
478.2680, 6361.221
479.4540, 5188.551
480.6390, 4242.848
481.8240, 3291.547
483.0090, 3000.883
484.1940, 2447.994
485.3780, 2091.557
486.5630, 1803.529
487.7470, 1692.043
488.9320, 1668.557
490.1160, 1541.049
491.3000, 1526.525
492.4830, 1755.982
493.6670, 1616.434
494.8500, 1723.875
496.0340, 1713.314
497.2170, 2007.754
498.4000, 2269.186
499.5820, 2461.605
500.7650, 2712.021
501.9480, 3383.424
503.1300, 3966.812
504.3120, 5200.188
505.4940, 6431.545
506.6760, 8834.889
507.8580, 11544.21
509.0390, 15986.52
510.2210, 20575.79
511.4020, 25384.06
512.5830, 29087.31
513.7640, 31792.54
514.9450, 34381.75
516.1250, 34956.94
517.3060, 34557.11
518.4860, 32206.27
519.6660, 28396.40
520.8460, 23860.52
522.0260, 19363.61
523.2060, 15493.69
524.3850, 12215.75
525.5650, 9608.781
526.7440, 7275.797
527.9230, 5716.795
529.1020, 4647.771
530.2810, 3819.729
531.4590, 3041.664
532.6380, 2654.582
533.8160, 2419.562
534.9940, 1911.707
536.1720, 1940.564
537.3500, 1573.605
538.5270, 1586.609
539.7050, 1330.436
540.8820, 1186.117
542.0590, 1023.971
543.2360, 922.4688
544.4130, 765.3613
545.5900, 876.7344
546.7660, 738.9434
547.9430, 584.8848
549.1190, 743.3184
550.2950, 784.7793
551.4710, 565.2461
552.6470, 765.4629
553.8220, 549.1367
554.9980, 564.4609
556.1730, 584.2012
557.3480, 514.8379
558.5230, 571.6680
559.6980, 547.3594
560.8730, 522.2539
562.0470, 706.8555
563.2220, 564.3418
564.3960, 651.2773
565.5700, 654.2109
566.7440, 604.4434
567.9170, 602.2383
569.0910, 739.6230
570.2640, 789.9336
571.4380, 1005.428
572.6110, 940.6816
573.7840, 1204.750
574.9570, 1213.926
576.1290, 1404.279
577.3020, 1495.070
578.4740, 1538.939
579.6460, 1903.498
580.8180, 1848.969
581.9900, 1841.627
583.1620, 1686.020
584.3330, 1857.381
585.5040, 1687.807
586.6760, 1653.590
587.8470, 1443.615
589.0180, 1192.174
590.1880, 1462.674
591.3590, 1276.721
592.5290, 1176.754
593.7000, 1458.811
594.8700, 1140.846
596.0400, 1301.873
597.2090, 1355.896
598.3790, 1369.900
599.5490, 1325.893
600.7180, 1306.863
601.8870, 1323.486
603.0560, 1141.764
604.2250, 1352.682
605.3940, 1243.578
606.5620, 1249.484
607.7300, 1356.367
608.8990, 1276.232
610.0670, 1183.070
611.2350, 1204.885
612.4020, 1148.672
613.5700, 1365.436
614.7370, 1492.170
615.9050, 1571.924
617.0720, 1644.686
618.2390, 2027.422
619.4060, 2280.139
620.5720, 2530.824
621.7390, 2723.484
622.9050, 3192.113
624.0710, 3593.713
625.2370, 3918.279
626.4030, 4122.814
627.5690, 4018.318
628.7340, 3826.791
629.9000, 3595.229
631.0650, 2862.629
632.2300, 2673.996
633.3950, 2357.326
634.5600, 2073.625
635.7240, 2070.889
636.8890, 1864.113
638.0530, 1683.303
639.2170, 1932.457
640.3810, 1991.576
641.5450, 2288.660
642.7080, 2395.705
643.8720, 2639.719
645.0350, 2802.861
646.1980, 2968.631
647.3610, 3058.531
648.5240, 3150.396
649.6870, 3145.227
650.8490, 2961.020
652.0120, 2986.775
653.1740, 2817.496
654.3360, 2626.180
655.4980, 2603.826
656.6600, 2275.367
657.8210, 1839.010
658.9830, 1698.545
660.1440, 1341.045
661.3050, 1056.508
662.4660, 962.9355
663.6270, 792.3242
664.7870, 658.6758
665.9480, 379.9922
667.1080, 641.2695
668.2680, 763.5117
669.4280, 1009.715
670.5880, 422.8848
671.7480, 481.0137
672.9070, 339.1074
674.0670, 295.1621
675.2260, 364.1777
676.3850, 99.15820
677.5440, 101.0918
678.7030, 51.02539
679.8610, 16.75781
681.0200, 333.4746
682.1780, 58.15430
683.3360, 103.7812
684.4940, 154.6406
685.6520, 72.21875
686.8090, 38.09180
687.9670, 162.3418
689.1240, 3.548828
690.2810, 56.68164
691.4380, 72.24219
692.5950, 17.72266
693.7520, 49.38086
694.9080, 28.58594
696.0650, 59.88281
697.2210, 66.27344
698.3770, 97.48828
699.5330, 144.6367
700.6880, 159.1895
701.8440, 207.1133
702.9990, 202.2051
704.1550, 134.4434
705.3100, 34.23242
706.4650, 67.10352
707.6190, 122.5078
708.7740, 264.9980
709.9290, 3.667969
711.0830, 37.39453
712.2370, 39.20703
713.3910, 0.1015630
714.5450, 2.958984
715.6980, 17.94727
716.8520, 68.87500
718.0050, 82.24609
719.1580, 23.52344
720.3110, 197.2363
721.4640, 249.9160
722.6170, 23.57617
723.7700, 7.818359
724.9220, 151.7168
726.0740, 177.2109
727.2260, 231.6797
728.3780, 284.1133
729.5300, 338.5137
730.6810, 347.8789
731.8330, 311.2090
732.9840, 374.2344
734.1350, 410.3809
735.2860, 448.9863
736.4370, 528.1758
737.5880, 567.3301
738.7380, 589.4492
739.8880, 565.5352
741.0390, 480.5840
742.1890, 661.5996
743.3380, 472.5820
744.4880, 863.5273
745.6380, 812.4395
746.7870, 1167.318
747.9360, 1056.160
749.0850, 1094.971
750.2340, 1270.746
751.3830, 1216.488
752.5310, 1176.197
753.6800, 1113.875
754.8280, 1266.516
755.9760, 1177.125
757.1240, 1258.699
758.2720, 1087.242
759.4190, 886.7520
760.5670, 863.2285
761.7140, 941.6719
762.8610, 854.0859
764.0080, 891.4648
765.1550, 768.8105
766.3020, 846.1250
767.4480, 736.4102
768.5950, 719.6641
769.7410, 836.8848
770.8870, 548.0742
772.0330, 737.2344
773.1780, 677.3633
774.3240, 716.4609
775.4690, 711.5312
776.6140, 911.5684
777.7590, 861.5762
778.9040, 845.5586
780.0490, 491.5078
781.1940, 748.4297
782.3380, 802.3223
783.4820, 1027.188
784.6260, 787.0234
785.7700, 783.8320
786.9140, 828.6133
788.0580, 736.3633
789.2010, 703.0898
790.3450, 951.7871
791.4880, 950.4570
792.6310, 851.1016
793.7730, 1149.721
794.9160, 1166.312
796.0590, 1075.881
797.2010, 928.4238
798.3430, 876.9395
799.4850, 850.0020
800.6270, 857.2305
801.7690, 916.3457
802.9100, 1014.766
804.0520, 1177.166
805.1930, 1363.541
806.3340, 1213.896
807.4750, 1247.227
808.6160, 1447.537
809.7560, 1600.828
810.8970, 1790.010
812.0370, 1630.990
813.1770, 1711.219
814.3170, 1614.221
815.4570, 1523.219
816.5960, 1614.357
817.7360, 1665.602
818.8750, 1428.635
820.0140, 1527.986
821.1530, 1534.904
822.2920, 1365.305
823.4310, 1502.887
824.5690, 1501.648
825.7070, 1418.879
826.8460, 1316.051
827.9840, 1456.184
829.1220, 1254.523
830.2590, 1314.379
831.3970, 1397.092
832.5340, 1413.082
833.6710, 1192.568
834.8080, 979.1406
835.9450, 1249.729
837.0820, 1308.340
838.2190, 1378.615
839.3550, 1446.582
840.4910, 1488.533
841.6270, 1536.230
842.7630, 1705.926
843.8990, 1771.529
845.0350, 1949.205
846.1700, 2004.492
847.3060, 2244.932
848.4410, 2435.232
849.5760, 2360.287
850.7100, 2482.941
851.8450, 2724.795
852.9800, 3039.500
854.1140, 3100.795
855.2480, 3321.330
856.3820, 3302.320
857.5160, 3785.721
858.6500, 3831.354
859.7830, 3781.391
860.9170, 4098.674
862.0500, 4102.934
863.1830, 3604.314
864.3160, 3433.938
865.4480, 3196.799
866.5810, 2737.691
867.7130, 2371.590
868.8460, 2378.492
869.9780, 1990.400
871.1100, 1793.316
872.2410, 1866.234
873.3730, 1774.164
874.5050, 1767.096
875.6360, 1681.053
876.7670, 1590.979
877.8980, 1504.932
879.0290, 1421.895
880.1590, 1424.863
881.2900, 1520.840
882.4200, 1448.824
883.5500, 1369.818
884.6800, 1256.822
885.8100, 1130.836
886.9400, 1092.855
888.0690, 1298.889
889.1990, 1132.930
890.3280, 1268.980
891.4570, 1219.045
892.5860, 1232.119
893.7140, 1256.635
894.8430, 1220.363
895.9710, 1206.410
897.1000, 1184.531
898.2280, 1070.668
899.3560, 1041.812
900.4830, 963.9746
901.6110, 979.1465
902.7380, 1186.334
903.8660, 1164.535
904.9930, 1353.750
906.1200, 1092.979
907.2460, 837.2227
908.3730, 998.4805
909.5000, 984.7578
910.6260, 863.0469
911.7520, 609.3535
912.8780, 980.6738
914.0040, 680.0137
915.1290, 779.3711
916.2550, 847.7441
917.3800, 721.1367
918.5050, 603.5430
919.6300, 416.9688
920.7550, 355.4121
921.8800, 289.8730
923.0040, 154.3555
924.1290, 108.8555
925.2530, 323.4062
926.3770, 381.9922
927.5010, 334.5996
928.6250, 444.6465
929.7480, 406.8711
930.8720, 489.5391
931.9950, 381.2500
933.1180, 380.0195
934.2410, 419.8789
935.3640, 474.7910
936.4860, 432.1543
937.6090, 193.7012
938.7310, 325.7188
939.8530, 248.8008
940.9750, 108.9297
942.0970, 223.1309
943.2180, 117.3633
944.3400, 160.6211
945.4610, 174.9004
946.5820, 225.2285
947.7030, 222.1953
948.8240, 107.9863
949.9450, 240.4062
951.0650, 188.8574
952.1860, 239.3633
953.3060, 394.9199
954.4260, 381.5020
955.5460, 63.11719
956.6650, 319.7656
957.7850, 1.498047
958.9040, 304.2930
960.0230, 172.1270
961.1420, 356.9883
962.2610, 204.8984
963.3800, 46.83984
964.4990, 345.8496
965.6170, 108.9023
966.7350, 221.0137
967.8530, 69.81836
968.9710, 57.38672
970.0890, 168.6582
971.2070, 70.00391
972.3240, 71.56445
973.4410, 65.06836
974.5580, 101.4922
975.6750, 274.8516
976.7920, 194.2383
977.9090, 182.6641
979.0250, 250.0957
980.1410, 166.5449
981.2580, 79.94141
982.3740, 40.68164
983.4890, 53.63281
984.6050, 153.0898
985.7200, 13.86719
986.8360, 176.6895
987.9510, 495.5625
989.0660, 294.4707
990.1810, 318.4492
991.2950, 240.4727
992.4100, 316.5332
993.5240, 141.6211
994.6390, 430.7539
995.7530, 487.9414
996.8660, 550.1602
997.9800, 1015.416
999.0940, 1149.703
1000.207, 1768.021
1001.320, 2356.371
1002.433, 3110.754
1003.546, 3181.168
1004.659, 3092.613
1005.772, 2164.092
1006.884, 1510.602
1007.996, 963.1426
1009.108, 826.7168
1010.220, 578.3223
1011.332, 541.9629
1012.444, 503.6348
1013.555, 402.5996
1014.666, 737.0762
1015.777, 493.8477
1016.888, 415.6484
1017.999, 821.4844
1019.110, 842.3555
1020.220, 872.2559
1021.331, 923.1914
1022.441, 883.1582
1023.551, 930.1602
1024.661, 1101.197
1025.770, 917.2656
1026.880, 1017.369
1027.989, 887.5039
1029.098, 831.6758
1030.207, 781.8809
1031.316, 659.1191
1032.425, 760.3906
1033.533, 656.6973
1034.642, 631.5664
1035.750, 465.4102
1036.858, 579.8184
1037.966, 574.2617
1039.073, 621.7363
1040.181, 730.2461
1041.288, 751.7930
1042.396, 711.3730
1043.503, 712.9863
1044.610, 1041.637
1045.716, 782.3184
1046.823, 1024.035
1047.929, 987.7891
1049.036, 998.5762
1050.142, 914.3965
1051.248, 858.2539
1052.353, 1036.145
1053.459, 1132.068
1054.564, 748.0312
1055.670, 905.0254
1056.775, 754.0566
1057.880, 703.2910
1058.985, 634.9570
1060.089, 572.4902
1061.194, 558.0781
1062.298, 536.4629
1063.402, 525.6992
1064.506, 596.6914
1065.610, 561.4453
1066.713, 598.9551
1067.817, 687.2129
1068.920, 635.0488
1070.023, 562.4863
1071.126, 626.4062
1072.229, 634.0000
1073.332, 321.6172
1074.435, 611.5977
1075.537, 809.4082
1076.639, 571.0312
1077.741, 866.6855
1078.843, 923.4883
1079.945, 1228.697
1081.046, 1165.439
1082.148, 1155.211
1083.249, 1153.014
1084.350, 991.8477
1085.451, 1266.688
1086.551, 1006.578
1087.652, 1123.496
1088.752, 1154.445
1089.853, 991.4258
1090.953, 693.3809
1092.053, 717.4160
1093.152, 725.4805
1094.252, 793.5742
1095.351, 642.6973
1096.451, 536.8438
1097.550, 560.0234
1098.649, 658.2285
1099.748, 657.4629
1100.846, 693.2383
1101.945, 596.5352
1103.043, 652.8613
1104.141, 671.2148
1105.239, 854.0098
1106.337, 1024.121
1107.434, 996.5781
1108.532, 1363.932
1109.629, 1405.693
1110.726, 1339.107
1111.823, 1361.879
1112.920, 1373.270
1114.017, 1328.777
1115.113, 1408.404
1116.210, 1263.209
1117.306, 1235.904
1118.402, 1178.627
1119.498, 1270.381
1120.593, 1469.162
1121.689, 1232.971
1122.784, 1216.807
1123.879, 1474.672
1124.974, 1317.564
1126.069, 1352.484
1127.164, 1264.432
1128.259, 1009.408
1129.353, 1382.416
1130.447, 1271.447
1131.541, 1684.510
1132.635, 1448.600
1133.729, 1651.715
1134.822, 1842.859
1135.916, 2091.033
1137.009, 1914.234
1138.102, 2128.465
1139.195, 1817.723
1140.288, 1694.008
1141.380, 1799.320
1142.473, 1430.660
1143.565, 1255.031
1144.657, 1401.426
1145.749, 835.8516
1146.841, 677.3047
1147.932, 878.7812
1149.024, 456.2891
1150.115, 261.8242
1151.206, 331.3867
1152.297, 204.9766
1153.388, 120.5938
1154.479, 48.23438
1155.569, 238.9062
1156.659, 138.6055
1157.750, 457.3320
1158.839, 251.1016
1159.929, 425.8984
1161.019, 276.7227
1162.108, 251.5742
1163.198, 58.45312
1164.287, 312.3594
1165.376, 279.2930
1166.465, 264.2539
1167.553, 453.2383
1168.642, 580.2500
1169.730, 353.2891
1170.818, 274.3555
1171.906, 192.4453
1172.994, 463.5625
1174.082, 451.7070
1175.170, 156.8789
1176.257, 363.0703
1177.344, 99.29297
1178.431, 72.54297
1179.518, 260.8164
1180.605, 230.1133
1181.691, 313.4375
1182.778, 242.7891
1183.864, 264.1641
1184.950, 374.5664
1186.036, 213.9922
1187.122, 95.44531
1188.207, 125.0781
1189.292, 57.64062
1190.378, 98.78516
1191.463, 192.2422
1192.548, 62.71875
1193.632, 102.2227
1194.717, 79.25391
1195.801, 147.7422
1196.886, 285.2852
1197.970, 118.9375
1199.054, 34.63281
1200.137, 58.67188
1201.221, 110.9961
1202.305, 159.6992
1203.388, 104.4570
1204.471, 184.2461
1205.554, 31.10156
1206.637, 125.0469
1207.719, 186.2109
1208.802, 87.59375
1209.884, 37.41797
1210.966, 126.7539
1212.048, 48.94922
1213.130, 181.1680
1214.212, 288.4141
1215.293, 28.31641
1216.374, 316.9531
1217.456, 154.2500
1218.536, 256.5664
1219.617, 347.9102
1220.698, 127.2773
1221.778, 181.6680
1222.859, 52.07812
1223.939, 95.51562
1225.019, 390.9766
1226.099, 213.4609
1227.178, 461.9688
1228.258, 178.5000
1229.337, 193.0547
1230.417, 62.63672
1231.496, 490.9102
1232.574, 469.5469
1233.653, 685.2109
1234.732, 660.7578
1235.810, 662.4766
1236.888, 777.2344
1237.966, 675.0273
1239.044, 546.9062
1240.122, 1020.848
1241.199, 569.8477
1242.277, 790.9219
1243.354, 853.0586
1244.431, 671.2305
1245.508, 891.4414
1246.585, 541.6914
1247.661, 854.9648
1248.738, 764.2891
1249.814, 949.6406
1250.890, 1005.012
1251.966, 896.4102
1253.042, 674.8281
1254.117, 701.3359
1255.193, 825.8711
1256.268, 909.4375
1257.343, 605.1055
1258.418, 824.7969
1259.493, 721.5312
1260.567, 843.2891
1261.642, 910.0742
1262.716, 1181.875
1263.790, 1338.707
1264.864, 1412.562
1265.938, 1564.441
1267.011, 1426.352
1268.085, 1660.285
1269.158, 1435.246
1270.231, 1613.230
1271.304, 1613.238
1272.377, 1818.266
1273.450, 1704.320
1274.522, 1934.395
1275.594, 1711.492
1276.666, 1759.613
1277.738, 1773.754
1278.810, 1867.918
1279.882, 1382.109
1280.953, 1512.320
1282.025, 1286.551
1283.096, 1171.809
1284.167, 1240.086
1285.238, 962.3828
