##NAMES=Epidote
##RRUFFID=R050064
##IDEAL CHEMISTRY=Ca_2_Fe^3+^Al_2_(Si_2_O_7_)(SiO_4_)O(OH)
##LOCALITY=East Xichang City, Meigu County, Sichuan Province, China
##OWNER=RRUFF
##SOURCE=Rock Currier
##DESCRIPTION=Green prismatic crystals
##STATUS=The identification of this mineral has been confirmed by X-ray diffraction and chemical analysis
##URL=rruff.info/R050064
##MEASURED CHEMISTRY=(Ca_1.99_Mn_0.01_)_Î£=2_Fe^3+^_1.00_Al_2.00_(Si_2.00_O_7_)(Si_1.00_O_4_)O(OH); 
##PIN_ID=L00552
##ORIENTATION=Laser parallel to a* (1 0 0). Fiducial mark perpendicular to laser is parallel to -b [0 -1 0]
73.319, 0.000
74.721, 3.871
76.123, 22.415
77.525, 89.800
78.926, 117.164
80.327, 227.036
81.728, 447.121
83.128, 472.097
84.529, 631.394
85.929, 837.062
87.329, 1155.071
88.728, 1123.300
90.128, 1170.229
91.527, 1576.771
92.926, 2164.458
94.324, 2412.224
95.723, 2641.815
97.121, 3234.767
98.519, 3633.515
99.917, 3625.510
101.314, 3249.615
102.712, 2474.694
104.109, 1681.982
105.505, 1186.189
106.902, 918.890
108.298, 849.761
109.694, 525.751
111.090, 517.918
112.486, 346.398
113.881, 426.937
115.277, 339.972
116.672, 309.755
118.066, 249.743
119.461, 197.263
120.855, 116.836
122.249, 122.593
123.643, 200.599
125.036, 337.911
126.430, 533.583
127.823, 692.665
129.216, 853.196
130.608, 808.997
132.001, 649.277
133.393, 429.994
134.785, 180.264
136.176, 133.742
137.568, 66.135
138.959, 100.152
140.350, 115.933
141.741, 67.665
143.131, 73.697
144.521, 95.554
145.911, 289.773
147.301, 327.622
148.691, 381.696
150.080, 332.354
151.469, 236.021
152.858, 157.688
154.247, 76.357
155.635, 119.030
157.024, 273.808
158.411, 411.995
159.799, 597.567
161.187, 825.488
162.574, 1299.721
163.961, 1828.238
165.348, 2495.008
166.734, 3181.997
168.121, 3773.177
169.507, 4363.052
170.893, 4697.587
172.278, 5334.159
173.664, 5748.826
175.049, 6100.554
176.434, 5654.317
177.819, 4760.084
179.203, 3781.835
180.587, 2668.541
181.971, 1908.191
183.355, 1342.820
184.739, 967.455
186.122, 728.096
187.505, 573.713
188.888, 477.208
190.271, 375.397
191.653, 238.338
193.035, 72.141
194.417, 25.853
195.799, 2.525
197.180, 6.046
198.562, 77.292
199.943, 219.577
201.324, 434.849
202.704, 573.116
204.084, 588.378
205.465, 518.636
206.844, 370.891
208.224, 133.142
209.603, 71.610
210.983, 150.364
212.362, 234.120
213.740, 202.883
215.119, 236.670
216.497, 182.514
217.875, 186.481
219.253, 74.581
220.631, 82.277
222.008, 211.129
223.385, 440.977
224.762, 702.803
226.139, 1048.438
227.515, 1592.822
228.891, 1972.010
230.267, 2419.127
231.643, 2582.281
233.018, 2560.470
234.394, 2555.685
235.769, 2384.924
237.144, 2636.187
238.518, 3026.475
239.893, 3865.028
241.267, 4655.062
242.641, 5256.089
244.014, 5210.849
245.388, 4559.274
246.761, 3634.278
248.134, 2547.035
249.507, 1791.522
250.879, 1298.714
252.252, 998.591
253.624, 921.163
254.996, 911.449
256.367, 988.419
257.739, 971.049
259.110, 990.317
260.481, 861.204
261.852, 714.707
263.222, 622.804
264.592, 533.532
265.962, 522.008
267.332, 541.295
268.702, 612.406
270.071, 816.268
271.440, 1048.667
272.809, 1430.373
274.178, 1935.627
275.546, 2524.566
276.915, 2953.178
278.283, 3172.761
279.650, 3100.211
281.018, 2790.969
282.385, 2630.453
283.752, 2311.539
285.119, 2377.094
286.486, 2255.783
287.852, 2202.466
289.218, 2145.825
290.584, 2254.991
291.950, 2543.922
293.316, 2896.263
294.681, 3206.563
296.046, 3317.812
297.411, 3065.991
298.775, 3024.116
300.140, 2667.470
301.504, 2335.060
302.868, 1951.136
304.231, 1616.099
305.595, 1550.085
306.958, 1500.542
308.321, 1623.278
309.684, 1790.767
311.047, 2257.627
312.409, 2904.711
313.771, 3306.287
315.133, 3692.515
316.495, 3673.712
317.856, 3385.625
319.217, 2936.243
320.578, 2672.461
321.939, 2639.477
323.299, 2829.761
324.660, 3275.945
326.020, 3620.117
327.380, 4201.401
328.739, 4789.693
330.099, 5006.991
331.458, 5112.293
332.817, 4791.601
334.176, 4280.909
335.534, 3710.215
336.892, 3124.524
338.251, 2877.836
339.608, 2598.150
340.966, 2672.467
342.323, 2824.786
343.681, 3219.106
345.037, 3908.432
346.394, 4888.759
347.751, 5975.090
349.107, 7016.424
350.463, 7965.594
351.819, 8288.136
353.174, 7670.300
354.530, 6680.058
355.885, 5401.883
357.240, 4569.539
358.594, 3697.702
359.949, 3204.389
361.303, 2897.977
362.657, 2724.080
364.011, 2950.007
365.365, 2980.228
366.718, 3371.054
368.071, 3512.972
369.424, 3404.851
370.777, 3208.251
372.129, 2661.914
373.481, 2202.354
374.833, 1576.823
376.185, 1213.870
377.537, 860.164
378.888, 657.460
380.239, 559.530
381.590, 312.764
382.941, 386.665
384.291, 417.919
385.642, 552.405
386.992, 706.072
388.341, 898.613
389.691, 1059.357
391.040, 1164.978
392.389, 1141.608
393.738, 1111.257
395.087, 978.934
396.435, 885.635
397.784, 605.358
399.132, 484.105
400.479, 260.869
401.827, 186.663
403.174, 80.421
404.521, 87.150
405.868, 118.853
407.215, 152.518
408.561, 233.160
409.908, 354.977
411.254, 469.385
412.599, 696.978
413.945, 907.547
415.290, 1169.107
416.636, 1346.644
417.980, 1436.156
419.325, 1569.654
420.670, 1670.135
422.014, 2064.607
423.358, 2393.059
424.702, 2879.497
426.045, 3298.917
427.389, 3489.018
428.732, 3722.068
430.075, 3923.190
431.417, 4783.581
432.760, 6354.975
434.102, 8291.363
435.444, 10614.752
436.786, 11368.149
438.127, 10981.552
439.469, 9234.968
440.810, 7294.383
442.151, 5913.812
443.492, 5262.254
444.832, 5324.700
446.172, 5746.160
447.512, 6749.628
448.852, 8109.108
450.192, 9372.611
451.531, 10876.128
452.870, 11309.653
454.209, 12003.186
455.548, 11996.719
456.887, 11660.250
458.225, 10643.782
459.563, 8647.322
460.901, 7009.868
462.238, 5209.430
463.576, 3788.012
464.913, 2886.640
466.250, 2077.324
467.587, 1687.067
468.923, 1293.859
470.259, 1022.676
471.596, 842.524
472.931, 753.392
474.267, 618.279
475.603, 385.182
476.938, 301.102
478.273, 282.044
479.608, 182.012
480.942, 252.018
482.276, 188.053
483.611, 230.106
484.944, 228.170
486.278, 258.243
487.612, 371.320
488.945, 439.400
490.278, 610.483
491.611, 694.569
492.943, 1041.658
494.276, 1469.750
495.608, 2012.844
496.940, 3005.941
498.271, 3631.077
499.603, 4476.342
500.934, 4638.561
502.265, 4234.818
503.596, 3728.049
504.927, 3129.518
506.257, 2796.766
507.587, 2617.258
508.917, 2674.546
510.247, 2835.127
511.577, 2597.689
512.906, 2388.167
514.235, 1861.449
515.564, 1365.818
516.892, 980.249
518.221, 646.729
519.549, 508.211
520.877, 385.573
522.205, 350.977
523.533, 353.413
524.860, 277.829
526.187, 266.120
527.514, 133.412
528.841, 41.706
530.167, 13.999
531.493, 81.706
532.820, 94.430
534.145, 111.146
535.471, 123.838
536.796, 88.494
538.122, 158.105
539.447, 112.698
540.771, 150.264
542.096, 108.801
543.420, 73.044
544.744, 71.401
546.068, 21.718
547.392, 20.697
548.715, 59.095
550.039, 91.884
551.362, 145.219
552.684, 202.634
554.007, 285.696
555.329, 428.240
556.652, 564.335
557.973, 794.613
559.295, 1103.669
560.617, 1516.128
561.938, 2357.121
563.259, 3279.858
564.580, 4603.386
565.901, 5553.225
567.221, 5284.800
568.541, 4593.948
569.861, 3247.180
571.181, 2369.231
572.501, 1857.598
573.820, 1396.181
575.139, 1376.205
576.458, 1220.579
577.777, 1234.151
579.095, 1349.491
580.414, 1489.117
581.732, 1919.778
583.049, 2188.203
584.367, 2806.020
585.685, 3450.698
587.002, 3918.039
588.319, 4475.788
589.636, 4608.705
590.952, 4886.793
592.268, 5113.606
593.585, 5543.026
594.900, 6504.437
596.216, 7338.144
597.532, 8383.651
598.847, 8828.887
600.162, 8616.190
601.477, 8243.169
602.792, 7219.685
604.106, 6638.344
605.420, 5981.738
606.734, 5631.547
608.048, 5736.270
609.361, 5970.053
610.675, 6623.843
611.988, 7044.387
613.301, 7436.717
614.614, 7507.153
615.926, 6844.389
617.238, 6273.102
618.550, 5188.293
619.862, 4272.777
621.174, 3604.154
622.485, 2830.279
623.797, 2366.482
625.108, 1915.490
626.418, 1665.693
627.729, 1371.687
629.039, 1151.540
630.349, 1068.578
631.659, 873.446
632.969, 805.147
634.279, 693.794
635.588, 642.434
636.897, 597.043
638.206, 512.634
639.515, 446.204
640.823, 489.761
642.131, 405.292
643.439, 420.802
644.747, 334.293
646.055, 380.763
647.362, 336.213
648.669, 250.642
649.976, 287.050
651.283, 256.438
652.589, 215.805
653.896, 221.151
655.202, 189.475
656.508, 159.779
657.814, 171.059
659.119, 162.317
660.424, 169.553
661.729, 112.765
663.034, 165.953
664.339, 108.118
665.643, 157.258
666.947, 87.375
668.251, 92.465
669.555, 113.530
670.859, 161.569
672.162, 142.585
673.465, 130.576
674.768, 123.543
676.071, 129.484
677.373, 166.399
678.676, 164.291
679.978, 161.158
681.280, 168.000
682.581, 240.817
683.883, 212.610
685.184, 293.380
686.485, 301.901
687.786, 367.284
689.087, 429.709
690.387, 394.490
691.687, 405.390
692.987, 392.544
694.287, 286.500
695.586, 219.422
696.886, 178.054
698.185, 158.362
699.484, 84.115
700.783, 104.593
702.081, 77.108
703.379, 0.444
704.677, 53.986
705.975, 53.198
707.273, 6.480
708.570, 8.812
709.868, 33.930
711.165, 9.729
712.462, 2.573
713.758, 21.457
715.055, 17.608
716.351, 40.358
717.647, 16.615
718.943, 21.442
720.238, 33.548
721.533, 13.291
722.829, 29.901
724.124, 20.148
725.418, 69.444
726.713, 50.816
728.007, 8.254
729.301, 59.735
730.595, 3.287
731.889, 7.120
733.182, 28.507
734.476, 9.189
735.769, 45.914
737.061, 30.298
738.354, 11.517
739.647, 18.624
740.939, 16.265
742.231, 27.201
743.523, 2.188
744.814, 21.215
746.106, 40.290
747.397, 20.423
748.688, 14.605
749.978, 46.831
751.269, 36.118
752.559, 33.460
753.849, 2.144
755.139, 31.287
756.429, 26.771
757.719, 18.697
759.008, 22.863
760.297, 26.531
761.586, 5.898
762.875, 25.765
764.163, 11.476
765.451, 12.226
766.739, 9.016
768.027, 17.156
769.315, 10.302
770.602, 25.422
771.890, 30.484
773.177, 25.564
774.463, 12.413
775.750, 11.427
777.036, 25.522
778.323, 10.448
779.609, 42.348
780.894, 7.226
782.180, 34.078
783.465, 61.908
784.750, 11.716
786.035, 46.500
787.320, 80.263
788.605, 118.006
789.889, 82.728
791.173, 108.431
792.457, 88.114
793.741, 88.777
795.024, 77.422
796.307, 106.046
797.591, 87.652
798.873, 116.239
800.156, 167.808
801.439, 128.358
802.721, 111.889
804.003, 151.402
805.285, 156.898
806.566, 187.375
807.848, 208.854
809.129, 192.277
810.410, 238.663
811.691, 238.908
812.971, 224.182
814.252, 231.403
815.532, 268.637
816.812, 299.617
818.092, 297.803
819.371, 344.731
820.651, 328.848
821.930, 429.657
823.209, 449.472
824.488, 481.359
825.766, 547.433
827.045, 568.411
828.323, 659.325
829.601, 697.195
830.878, 768.076
832.156, 880.097
833.433, 835.095
834.710, 982.067
835.987, 952.053
837.264, 938.156
838.540, 985.246
839.817, 958.323
841.093, 1027.391
842.369, 1038.448
843.644, 1081.507
844.920, 1179.577
846.195, 1190.656
847.470, 1283.755
848.745, 1391.864
850.020, 1483.000
851.294, 1640.158
852.568, 1741.316
853.842, 1879.193
855.116, 2328.172
856.390, 2476.050
857.663, 2985.658
858.936, 3336.437
860.209, 3841.206
861.482, 4599.418
862.755, 4984.541
864.027, 5692.001
865.299, 5875.970
866.571, 5995.375
867.843, 6167.587
869.115, 5804.008
870.386, 5912.014
871.657, 5991.386
872.928, 6067.563
874.199, 6635.975
875.470, 7003.205
876.740, 7974.836
878.010, 9090.075
879.280, 10233.219
880.550, 12297.531
881.820, 13654.521
883.089, 16178.278
884.358, 18575.580
885.627, 20423.531
886.896, 22419.266
888.164, 22556.223
889.433, 21360.879
890.701, 19879.488
891.969, 16476.332
893.236, 14274.767
894.504, 12221.334
895.771, 10147.228
897.038, 9004.703
898.305, 7741.003
899.572, 7088.121
900.838, 6627.506
902.105, 6275.274
903.371, 6146.042
904.637, 6200.503
905.902, 6155.157
907.168, 6679.069
908.433, 6921.908
909.698, 7597.058
910.963, 8263.667
912.228, 9320.121
913.492, 10398.831
914.757, 11427.119
916.021, 13083.481
917.285, 13610.775
918.548, 13908.062
919.812, 13455.586
921.075, 12054.312
922.338, 10812.927
923.601, 9221.731
924.864, 7522.054
926.126, 6302.887
927.388, 5383.417
928.650, 4450.051
929.912, 3885.927
931.174, 3268.715
932.435, 3013.689
933.697, 2546.460
934.958, 2240.430
936.218, 2060.531
937.479, 1772.442
938.739, 1605.514
940.000, 1461.742
941.260, 1286.015
942.520, 1232.287
943.779, 1099.579
945.039, 995.881
946.298, 916.198
947.557, 854.521
948.816, 802.862
950.074, 725.216
951.333, 702.580
952.591, 691.962
953.849, 623.355
955.107, 628.759
956.365, 600.182
957.622, 571.617
958.879, 568.064
960.136, 469.528
961.393, 450.007
962.650, 527.503
963.906, 422.018
965.162, 474.552
966.418, 459.105
967.674, 466.676
968.930, 482.263
970.185, 453.863
971.441, 494.477
972.696, 541.105
973.950, 613.748
975.205, 706.406
976.459, 792.083
977.714, 908.783
978.968, 1024.499
980.222, 1115.235
981.475, 1218.987
982.729, 1115.754
983.982, 1259.537
985.235, 1330.334
986.488, 663.151
987.740, 593.982
988.993, 439.827
990.245, 375.687
991.497, 364.220
992.749, 303.107
994.000, 307.026
995.252, 278.851
996.503, 199.781
997.754, 332.071
999.005, 233.181
1000.256, 264.197
1001.506, 237.488
1002.756, 282.808
1004.006, 364.061
1005.256, 361.828
1006.506, 359.869
1007.755, 454.948
1009.005, 417.440
1010.254, 646.102
1011.502, 753.054
1012.751, 883.644
1014.000, 1216.275
1015.248, 1456.912
1016.496, 2010.441
1017.744, 2501.065
1018.991, 2910.060
1020.239, 3057.204
1021.486, 3214.158
1022.733, 2927.516
1023.980, 2553.152
1025.227, 1949.790
1026.473, 1587.228
1027.719, 1206.694
1028.965, 872.256
1030.211, 794.016
1031.457, 682.881
1032.702, 579.480
1033.948, 536.118
1035.193, 550.778
1036.438, 535.463
1037.682, 504.177
1038.927, 497.918
1040.171, 599.691
1041.415, 578.787
1042.659, 620.600
1043.903, 600.432
1045.146, 510.290
1046.390, 517.175
1047.633, 405.130
1048.876, 350.064
1050.118, 360.029
1051.361, 288.056
1052.603, 268.071
1053.845, 240.124
1055.087, 211.208
1056.329, 256.320
1057.571, 223.454
1058.812, 271.616
1060.053, 286.806
1061.294, 280.066
1062.535, 379.296
1063.775, 360.542
1065.016, 326.804
1066.256, 356.094
1067.496, 317.218
1068.736, 331.551
1069.975, 297.905
1071.214, 282.464
1072.454, 329.848
1073.693, 324.245
1074.931, 355.687
1076.170, 468.123
1077.408, 473.941
1078.647, 684.417
1079.885, 802.906
1081.122, 1037.408
1082.360, 1445.924
1083.597, 1928.453
1084.835, 2635.996
1086.072, 3336.394
1087.308, 3485.968
1088.545, 3339.548
1089.781, 2634.139
1091.018, 1967.852
1092.254, 1488.466
1093.490, 1019.092
1094.725, 738.928
1095.961, 639.149
1097.196, 441.178
1098.431, 403.416
1099.666, 303.094
1100.900, 310.636
1102.135, 257.335
1103.369, 189.081
1104.603, 194.820
1105.837, 185.574
1107.071, 131.879
1108.304, 125.514
1109.538, 122.403
1110.771, 112.363
1112.004, 78.650
1113.236, 24.942
1114.469, 96.298
1115.701, 59.284
1116.933, 44.613
1118.165, 70.501
1119.397, 58.471
1120.629, 54.346
1121.860, 52.484
1123.091, 35.381
1124.322, 132.285
1125.553, 110.560
1126.783, 97.911
1128.014, 23.033
1129.244, 33.253
1130.474, 48.207
1131.704, 64.741
1132.933, 19.645
1134.163, 30.844
1135.392, 8.836
1136.621, 16.758
1137.850, 45.075
1139.079, 28.992
1140.307, 37.949
1141.535, 0.890
1142.763, 34.948
1143.991, 4.068
1145.219, 44.958
1146.446, 39.968
1147.674, 37.035
1148.901, 64.110
1150.128, 16.079
1151.354, 12.967
1152.581, 28.058
1153.807, 35.952
1155.033, 1.350
1156.259, 18.133
1157.485, 21.198
1158.710, 27.955
1159.936, 17.476
1161.161, 17.837
1162.386, 16.871
1163.611, 12.686
1164.835, 14.643
1166.060, 23.492
1167.284, 4.027
1168.508, 13.904
1169.732, 18.736
1170.955, 9.599
1172.179, 8.556
1173.402, 15.544
1174.625, 43.434
1175.848, 2.591
1177.070, 7.841
1178.293, 9.683
1179.515, 14.965
1180.737, 3.472
1181.959, 6.878
1183.181, 37.472
1184.402, 6.509
1185.624, 1.387
1186.845, 13.890
1188.066, 8.092
1189.286, 7.830
1190.507, 25.325
1191.727, 14.262
1192.947, 25.142
1194.167, 0.305
1195.387, 57.304
1196.607, 9.271
1197.826, 1.189
1199.045, 37.053
1200.264, 19.116
1201.483, 23.190
1202.702, 48.090
1203.920, 22.685
1205.138, 22.511
1206.356, 18.603
1207.574, 2.419
1208.792, 26.391
1210.009, 46.272
1211.227, 17.072
1212.444, 9.291
1213.661, 27.754
1214.877, 12.013
1216.094, 43.775
1217.310, 1.530
1218.526, 46.277
1219.742, 36.020
1220.958, 7.756
1222.173, 12.554
1223.389, 0.276
1224.604, 23.988
1225.819, 54.694
1227.034, 30.392
1228.248, 29.084
1229.463, 24.795
1230.677, 62.472
1231.891, 4.789
1233.105, 14.869
1234.318, 57.514
1235.532, 54.241
1236.745, 11.974
1237.958, 24.593
1239.171, 33.208
1240.384, 7.190
1241.596, 3.397
1242.809, 7.968
1244.021, 4.533
1245.233, 34.080
1246.444, 15.383
1247.656, 54.206
1248.867, 23.735
1250.079, 16.771
1251.290, 28.686
1252.500, 8.139
1253.711, 2.572
1254.921, 1.023
1256.132, 1.639
1257.342, 6.338
1258.552, 5.886
1259.761, 6.418
1260.971, 0.021
1262.180, 13.279
1263.389, 29.603
1264.598, 25.881
1265.807, 37.401
1267.015, 21.521
1268.223, 37.710
1269.432, 4.950
1270.640, 16.846
1271.847, 18.333
1273.055, 2.502
1274.262, 23.686
1275.470, 39.811
1276.677, 16.094
1277.883, 72.237
1279.090, 3.311
1280.296, 40.453
1281.503, 69.488
1282.709, 25.556
1283.915, 63.556
1285.120, 58.882
1286.326, 32.855
1287.531, 87.794
1288.736, 43.828
1289.941, 55.758
1291.146, 49.339
1292.350, 61.083
1293.555, 72.027
1294.759, 35.584
1295.963, 31.114
1297.167, 96.710
1298.370, 37.792
1299.574, 58.599
1300.777, 43.372
1301.980, 42.261
1303.183, 25.938
1304.386, 16.850
1305.588, 12.133
1306.790, 47.393
1307.993, 27.650
1309.195, 36.025
1310.396, 29.312
1311.598, 4.758
1312.799, 0.786
1314.000, 11.017
1315.201, 10.608
1316.402, 36.376
1317.603, 32.637
1318.803, 64.956
1320.003, 45.488
1321.203, 8.936
1322.403, 30.210
1323.603, 11.426
1324.802, 15.891
1326.002, 61.340
1327.201, 1.775
1328.400, 39.190
1329.599, 71.589
1330.797, 16.969
1331.995, 41.336
1333.194, 53.382
1334.392, 17.722
1335.589, 53.046
1336.787, 66.355
1337.985, 31.651
1339.182, 42.884
1340.379, 46.152
1341.576, 55.406
1342.772, 67.612
1343.969, 2.840
1345.165, 37.050
1346.361, 57.246
1347.557, 14.428
1348.753, 87.595
1349.949, 35.747
1351.144, 91.884
1352.339, 43.954
1353.534, 56.065
1354.729, 84.164
1355.924, 28.250
1357.118, 44.323
1358.312, 105.571
1359.506, 125.619
1360.700, 78.656
1361.894, 91.490
1363.088, 102.930
1364.281, 92.933
1365.474, 57.904
1366.667, 86.911
1367.860, 116.520
1369.052, 75.659
1370.245, 80.611
1371.437, 95.554
1372.629, 68.459
1373.821, 82.352
1375.013, 58.229
1376.204, 73.235
1377.395, 79.047
1378.586, 52.841
1379.777, 50.613
1380.968, 75.258
1382.159, 88.999
1383.349, 90.443
1384.539, 90.637
1385.729, 104.377
1386.919, 100.960
1388.109, 121.408
1389.298, 70.425
1390.487, 50.461
1391.676, 57.680
1392.865, 59.114
1394.054, 63.422
1395.242, 63.003
1396.431, 77.950
1397.619, 73.341
1398.807, 61.621
1399.995, 62.370
1401.182, 40.810
1402.370, 38.356
1403.557, 39.060
1404.744, 100.088
1405.931, 50.889
1407.118, 68.815
1408.304, 84.799
1409.490, 47.710
1410.676, 82.516
1411.862, 68.418
1413.048, 68.150
1414.234, 70.935
1415.419, 52.828
1416.604, 44.812
1417.789, 92.626
1418.974, 20.793
1420.159, 35.335
1421.343, 60.830
1422.528, 28.258
1423.712, 73.511
1424.896, 35.267
1426.079, 75.923
1427.263, 68.611
1428.446, 53.881
1429.629, 56.400
1430.812, 65.431
1431.995, 48.527
1433.178, 39.859
1434.360, 44.966
1435.543, 18.003
1436.725, 84.901
1437.907, 46.944
1439.088, 41.100
1440.270, 96.341
1441.451, 38.582
1442.632, 93.799
1443.813, 91.983
1444.994, 63.015
1446.175, 52.147
1447.355, 55.247
1448.535, 30.267
1449.715, 64.171
1450.895, 44.018
1452.075, 51.801
1453.255, 79.754
1454.434, 34.697
1455.613, 53.613
1456.792, 44.363
1457.971, 7.204
1459.149, 58.137
1460.328, 68.095
1461.506, 50.085
1462.684, 93.656
1463.862, 44.397
1465.040, 19.207
1466.217, 98.929
1467.395, 56.728
1468.572, 33.604
1469.749, 74.357
1470.925, 37.777
1472.102, 67.538
1473.278, 100.215
1474.455, 49.030
1475.631, 75.998
1476.807, 26.971
1477.982, 45.901
1479.158, 54.561
1480.333, 53.584
1481.508, 63.822
1482.683, 77.638
1483.858, 67.655
1485.033, 72.663
1486.207, 68.506
1487.381, 43.628
1488.555, 46.645
1489.729, 26.670
1490.903, 21.081
1492.076, 37.095
1493.250, 28.130
1494.423, 55.050
1495.596, 48.117
1496.769, 18.214
1497.941, 43.350
1499.114, 49.514
1500.286, 26.695
1501.458, 58.912
1502.630, 35.146
1503.802, 5.600
1504.973, 18.685
1506.145, 45.001
1507.316, 7.403
1508.487, 59.864
1509.657, 0.607
1510.828, 55.988
1511.999, 22.660
