##NAMES=Epidote
##RRUFFID=R040092
##IDEAL CHEMISTRY=Ca_2_Fe^3+^Al_2_(Si_2_O_7_)(SiO_4_)O(OH)
##LOCALITY=Nahant, Massachusetts, USA
##OWNER=RRUFF
##SOURCE=University of Arizona Mineral Museum
##DESCRIPTION=Green prismatic crystals imbedded in quartz
##STATUS=The identification of this mineral has been confirmed by X-ray diffraction and chemical analysis
##URL=rruff.info/R040092
##MEASURED CHEMISTRY=Ca_2.01_Al_2.00_Fe_1.00_(Si_1.00_O_4_)(Si_1.97_Fe_0.02_Al_0.01_Ti_0.01_O_7_)O(OH)
##PIN_ID=M00463
##ORIENTATION=Laser parallel to [-1 0 -1]. Fiducial mark perpendicular to laser is parallel to b* (0 1 0)
51.466, 0.000
52.866, 122.078
54.266, 397.481
55.666, 900.667
57.065, 852.903
58.464, 1109.949
59.863, 870.536
61.262, 745.521
62.661, 419.683
64.059, 23.514
65.458, 92.587
66.856, 74.038
68.253, 49.678
69.651, 306.151
71.048, 632.053
72.445, 998.154
73.842, 1787.266
75.239, 2500.174
76.635, 3620.651
78.031, 5080.482
79.427, 7497.474
80.823, 11123.445
82.218, 15885.241
83.614, 20611.719
85.009, 25167.756
86.404, 28972.238
87.798, 31482.074
89.193, 32909.324
90.587, 32319.986
91.981, 30816.141
93.375, 27951.799
94.768, 24056.812
96.161, 20427.035
97.554, 17122.320
98.947, 14036.553
100.340, 11224.639
101.732, 8743.521
103.124, 6733.127
104.516, 5397.410
105.908, 4740.325
107.300, 3956.830
108.691, 3294.896
110.082, 2497.487
111.473, 2137.580
112.864, 1992.149
114.254, 2192.174
115.644, 2477.632
117.034, 2805.508
118.424, 2758.784
119.813, 3101.447
121.203, 3577.480
122.592, 4892.873
123.981, 6493.949
125.369, 8539.224
126.758, 10906.466
128.146, 13358.068
129.534, 15544.896
130.922, 16505.664
132.309, 16830.057
133.696, 16069.049
135.083, 15195.947
136.470, 12812.718
137.857, 10805.344
139.243, 8288.774
140.630, 6460.014
142.016, 4890.906
143.401, 3675.492
144.787, 2933.992
146.172, 2334.438
147.557, 1814.846
148.942, 1288.235
150.327, 958.622
151.711, 618.640
153.096, 372.440
154.480, 209.892
155.863, 136.386
157.247, 123.929
158.630, 209.526
160.013, 484.186
161.396, 759.910
162.779, 1095.707
164.161, 1310.579
165.544, 1570.531
166.926, 1731.565
168.308, 1723.685
169.689, 1910.892
171.070, 2048.189
172.452, 1891.580
173.833, 1728.065
175.213, 1569.644
176.594, 1335.317
177.974, 1437.085
179.354, 1470.946
180.734, 1631.902
182.114, 1875.954
183.493, 2234.102
184.872, 2407.344
186.251, 2610.685
187.630, 2476.119
189.008, 2539.651
190.387, 2455.281
191.765, 2203.009
193.143, 2200.834
194.520, 2250.758
195.898, 2512.117
197.275, 3009.942
198.652, 3528.390
200.029, 3884.490
201.405, 4149.793
202.782, 4460.986
204.158, 4681.574
205.534, 4944.199
206.909, 4901.818
208.285, 5075.939
209.660, 5525.312
211.035, 5685.105
212.410, 6351.221
213.784, 7227.435
215.159, 8123.107
216.533, 9347.875
217.907, 10833.903
219.281, 12410.569
220.654, 14113.709
222.027, 16182.074
223.400, 17683.133
224.773, 18796.562
226.146, 19196.715
227.518, 19013.326
228.891, 17947.174
230.263, 16847.330
231.634, 15040.346
233.006, 13376.575
234.377, 12136.262
235.748, 11240.077
237.119, 10748.190
238.490, 10929.589
239.860, 10977.260
241.231, 10933.188
242.601, 10687.361
243.970, 10342.773
245.340, 9817.411
246.709, 9009.266
248.079, 8400.326
249.448, 7451.590
250.816, 7070.047
252.185, 6440.691
253.553, 5933.518
254.921, 5482.520
256.289, 5019.691
257.657, 4539.027
259.024, 3969.519
260.391, 3672.160
261.758, 3257.947
263.125, 3298.875
264.492, 3383.940
265.858, 3775.139
267.224, 4395.468
268.590, 5238.924
269.956, 6420.506
271.321, 7280.209
272.687, 7818.031
274.052, 7852.972
275.416, 7797.030
276.781, 6941.199
278.146, 5730.482
279.510, 4632.877
280.874, 3668.379
282.237, 3067.988
283.601, 2497.701
284.964, 2398.521
286.327, 2516.443
287.690, 2793.468
289.053, 2968.592
290.416, 3371.804
291.778, 3533.100
293.140, 3803.479
294.502, 3561.937
295.863, 3463.461
297.225, 3086.049
298.586, 2704.693
299.947, 2378.400
301.308, 2056.166
302.668, 1938.992
304.029, 1950.883
305.389, 1780.837
306.749, 1943.857
308.108, 2156.943
309.468, 2157.100
310.827, 2406.324
312.186, 2561.618
313.545, 2696.980
314.903, 2945.413
316.262, 3288.916
317.620, 3927.488
318.978, 4339.130
320.336, 4971.844
321.693, 5408.625
323.051, 5687.479
324.408, 5412.399
325.765, 5492.393
327.121, 4543.454
328.478, 3684.586
329.834, 2828.786
331.190, 2006.057
332.546, 1304.395
333.902, 643.801
335.257, 222.786
336.612, 199.180
337.967, 331.618
339.322, 437.068
340.677, 469.556
342.031, 440.087
343.385, 341.656
344.739, 70.241
346.093, 121.785
347.446, 28.703
348.799, 48.252
350.153, 49.862
351.505, 44.535
352.858, 72.730
354.210, 143.956
355.563, 184.156
356.915, 278.342
358.267, 337.533
359.618, 377.893
360.969, 458.522
362.321, 450.407
363.672, 454.397
365.022, 508.438
366.373, 433.540
367.723, 374.749
369.073, 364.107
370.423, 227.672
371.773, 280.454
373.122, 51.477
374.471, 184.351
375.821, 389.104
377.169, 843.843
378.518, 1259.918
379.866, 1675.550
381.215, 2394.522
382.563, 3179.576
383.910, 3949.716
385.258, 4941.943
386.605, 5640.264
387.952, 5953.711
389.299, 6200.278
390.646, 5862.959
391.992, 5635.746
393.339, 5013.725
394.685, 4344.865
396.031, 3923.188
397.376, 3123.646
398.722, 2793.259
400.067, 2443.008
401.412, 2332.897
402.757, 2290.645
404.101, 2392.123
405.446, 2591.448
406.790, 2909.913
408.134, 3386.485
409.478, 4107.186
410.821, 4854.967
412.165, 5455.883
413.508, 7016.957
414.851, 8622.174
416.193, 10659.539
417.536, 13186.064
418.878, 16225.767
420.220, 19166.629
421.562, 21003.635
422.904, 22996.783
424.245, 23868.055
425.586, 23668.459
426.927, 23272.988
428.268, 21543.639
429.609, 20453.428
430.949, 19777.338
432.289, 19249.381
433.629, 17875.537
434.969, 17277.812
436.309, 15432.194
437.648, 14737.695
438.987, 13498.302
440.326, 12868.016
441.665, 13009.836
443.003, 13722.766
444.342, 14838.809
445.680, 16180.961
447.018, 17610.199
448.355, 17984.539
449.693, 18152.953
451.030, 17669.434
452.367, 16368.999
453.704, 14280.626
455.041, 13165.313
456.377, 11395.064
457.713, 10283.884
459.049, 8909.760
460.385, 7873.701
461.721, 7110.706
463.056, 6403.770
464.391, 5715.892
465.726, 5431.075
467.061, 4935.314
468.395, 4576.612
469.730, 4353.965
471.064, 3875.370
472.398, 3727.829
473.731, 3280.338
475.065, 3069.896
476.398, 2894.502
477.731, 2884.157
479.064, 2874.857
480.397, 3101.604
481.729, 3412.392
483.062, 3510.227
484.394, 4041.105
485.725, 4334.026
487.057, 5000.992
488.389, 5671.000
489.720, 6342.049
491.051, 7312.141
492.382, 8510.271
493.712, 9700.445
495.043, 10994.653
496.373, 12153.906
497.703, 13583.951
499.032, 14873.115
500.362, 15197.545
501.691, 16226.208
503.020, 16481.479
504.349, 17101.111
505.678, 16905.434
507.007, 17057.396
508.335, 16801.807
509.663, 16155.452
510.991, 15165.136
512.319, 14100.859
513.646, 13516.172
514.973, 12821.135
516.300, 12969.095
517.627, 13309.274
518.954, 13325.253
520.280, 13968.055
521.607, 13646.505
522.933, 12985.438
524.259, 11709.200
525.584, 10066.068
526.910, 8508.070
528.235, 6818.329
529.560, 5647.232
530.885, 4524.478
532.209, 3697.090
533.534, 3189.043
534.858, 2879.481
536.182, 2713.969
537.506, 2625.503
538.829, 2461.087
540.152, 2579.717
541.476, 2644.395
542.799, 2706.301
544.121, 3080.350
545.444, 3117.146
546.766, 3552.619
548.088, 4143.954
549.410, 4667.653
550.732, 5287.844
552.053, 6356.223
553.375, 7554.256
554.696, 9200.216
556.017, 12034.430
557.337, 15308.009
558.658, 19674.916
559.978, 24554.932
561.298, 29939.264
562.618, 33297.500
563.938, 34670.441
565.257, 33984.320
566.576, 30124.236
567.895, 25355.578
569.214, 20497.400
570.533, 16568.418
571.851, 13263.875
573.170, 11547.168
574.488, 10505.087
575.805, 10019.071
577.123, 9875.643
578.440, 10469.590
579.758, 10972.480
581.075, 11798.516
582.391, 13375.214
583.708, 14049.452
585.024, 14982.935
586.341, 16629.381
587.657, 17529.803
588.972, 19129.107
590.288, 20369.123
591.603, 22034.154
592.918, 24140.652
594.233, 26519.250
595.548, 27968.090
596.863, 28741.914
598.177, 28422.162
599.491, 27860.426
600.805, 25754.754
602.119, 23682.863
603.432, 21536.547
604.746, 19671.617
606.059, 17953.842
607.372, 16214.385
608.685, 15036.467
609.997, 13670.965
611.309, 12789.819
612.621, 11936.610
613.933, 10849.205
615.245, 10036.524
616.557, 9062.666
617.868, 7906.777
619.179, 6928.461
620.490, 5948.751
621.801, 5313.227
623.111, 4626.217
624.421, 4280.423
625.731, 3572.736
627.041, 3549.750
628.351, 2935.634
629.660, 2839.084
630.970, 2597.439
632.279, 2387.532
633.588, 2201.259
634.896, 1955.060
636.205, 1978.624
637.513, 1718.149
638.821, 1697.635
640.129, 1663.081
641.437, 1569.484
642.744, 1438.846
644.051, 1410.166
645.358, 1365.442
646.665, 1280.676
647.972, 1284.865
649.278, 1243.277
650.584, 1184.111
651.890, 1222.167
653.196, 1248.177
654.502, 1266.933
655.807, 1269.446
657.113, 1285.104
658.418, 1262.157
659.722, 1243.274
661.027, 1253.447
662.331, 1312.653
663.636, 1363.835
664.940, 1243.000
666.244, 1333.119
667.547, 1316.190
668.851, 1418.212
670.154, 1415.186
671.457, 1446.130
672.760, 1578.062
674.062, 1543.988
675.365, 1551.930
676.667, 1568.665
677.969, 1541.905
679.271, 1537.967
680.572, 1381.081
681.874, 1359.247
683.175, 1471.479
684.476, 1319.758
685.777, 1367.069
687.077, 1109.412
688.378, 960.751
689.678, 1042.102
690.978, 904.413
692.278, 579.663
693.577, 589.852
694.877, 417.979
696.176, 330.043
697.475, 251.044
698.774, 194.982
700.072, 177.854
701.371, 80.659
702.669, 35.612
703.967, 15.006
705.265, 13.485
706.562, 29.877
707.860, 183.825
709.157, 16.732
710.454, 156.760
711.751, 78.981
713.047, 178.358
714.344, 117.943
715.640, 117.706
716.936, 200.647
718.232, 101.810
719.527, 159.146
720.823, 140.685
722.118, 12.417
723.413, 97.299
724.708, 110.689
726.002, 121.429
727.297, 222.734
728.591, 155.281
729.885, 196.034
731.179, 228.016
732.472, 300.242
733.766, 241.754
735.059, 192.519
736.352, 146.512
737.645, 140.710
738.937, 117.109
740.230, 120.755
741.522, 120.001
742.814, 151.453
744.106, 117.634
745.397, 145.005
746.689, 113.582
747.980, 73.348
749.271, 91.280
750.562, 95.389
751.853, 79.687
753.143, 55.134
754.433, 87.750
755.723, 73.539
757.013, 118.494
758.303, 80.639
759.592, 7.954
760.881, 78.400
762.170, 43.987
763.459, 102.270
764.748, 18.538
766.036, 112.519
767.325, 114.487
768.613, 126.368
769.901, 75.162
771.188, 82.215
772.476, 81.469
773.763, 49.985
775.050, 133.403
776.337, 114.737
777.624, 75.984
778.910, 128.140
780.196, 115.632
781.482, 138.416
782.768, 148.103
784.054, 199.927
785.339, 212.509
786.625, 264.945
787.910, 341.941
789.195, 313.466
790.479, 363.920
791.764, 387.305
793.048, 366.621
794.332, 531.867
795.616, 383.044
796.900, 598.153
798.183, 523.194
799.467, 634.167
800.750, 687.073
802.033, 627.912
803.316, 852.683
804.598, 784.388
805.880, 999.026
807.163, 1021.599
808.445, 1058.104
809.726, 1218.544
811.008, 1370.918
812.289, 1493.229
813.570, 1740.472
814.851, 1936.649
816.132, 2121.760
817.413, 2316.806
818.693, 2813.785
819.973, 3058.699
821.253, 3418.546
822.533, 3942.329
823.813, 4267.046
825.092, 4709.700
826.371, 4893.289
827.650, 5179.812
828.929, 5480.273
830.208, 5317.667
831.486, 5130.002
832.764, 4681.269
834.042, 4486.473
835.320, 4206.610
836.598, 3934.686
837.875, 3760.695
839.152, 3465.641
840.429, 3479.530
841.706, 3581.356
842.983, 3195.134
844.259, 3210.856
845.536, 3031.520
846.812, 3173.127
848.088, 3257.680
849.363, 3352.177
850.639, 3514.626
851.914, 3614.032
853.189, 3765.220
854.464, 4030.267
855.739, 4271.585
857.013, 4437.222
858.288, 4691.005
859.562, 5108.429
860.836, 5477.371
862.110, 5481.112
863.383, 5856.194
864.656, 6065.337
865.930, 6267.224
867.203, 6374.738
868.475, 6344.911
869.748, 6218.968
871.020, 6285.693
872.292, 6264.500
873.564, 5969.592
874.836, 5833.736
876.108, 5554.826
877.379, 5657.487
878.650, 5647.650
879.922, 5656.599
881.192, 5651.095
882.463, 5635.729
883.733, 5647.722
885.004, 5731.144
886.274, 5850.921
887.544, 5988.821
888.813, 5825.753
890.083, 6062.520
891.352, 6191.604
892.621, 6446.127
893.890, 6798.383
895.159, 7211.654
896.427, 7744.923
897.695, 8607.292
898.964, 9314.930
900.232, 10265.524
901.499, 11367.633
902.767, 12819.617
904.034, 14138.342
905.301, 15853.055
906.568, 17971.320
907.835, 20213.549
909.102, 22453.688
910.368, 25077.029
911.634, 27620.766
912.900, 29308.092
914.166, 30058.881
915.432, 30205.691
916.697, 29466.297
917.962, 27972.102
919.227, 25471.525
920.492, 22338.994
921.757, 19741.627
923.021, 17437.518
924.285, 15068.554
925.550, 13175.605
926.813, 11499.054
928.077, 9957.871
929.341, 8688.482
930.604, 7693.552
931.867, 6828.377
933.130, 6098.072
934.393, 5574.041
935.655, 4936.115
936.918, 4651.598
938.180, 4215.150
939.442, 3889.938
940.703, 3708.070
941.965, 3435.098
943.226, 3209.337
944.488, 2985.590
945.749, 3106.855
947.009, 3029.137
948.270, 2870.434
949.530, 3085.745
950.791, 3054.072
952.051, 3073.416
953.311, 3144.778
954.570, 3472.156
955.830, 3512.554
957.089, 3477.967
958.348, 3335.399
959.607, 3253.853
960.866, 3161.324
962.124, 3027.816
963.383, 2886.330
964.641, 2780.864
965.899, 2756.423
967.156, 2647.002
968.414, 2624.604
969.671, 2822.229
970.928, 2980.883
972.185, 3376.561
973.442, 3699.264
974.699, 4398.990
975.955, 4954.742
977.211, 5396.520
978.468, 5988.321
979.723, 5894.149
980.979, 5740.006
982.234, 5511.890
983.490, 4636.803
984.745, 4205.746
986.000, 3684.723
987.254, 3079.731
988.509, 2709.771
989.763, 2423.840
991.017, 2064.608
992.271, 1894.101
993.525, 1568.629
994.779, 1529.701
996.032, 1250.892
997.285, 1112.733
998.538, 874.392
999.791, 899.571
1001.044, 686.754
1002.296, 706.340
1003.548, 563.426
1004.800, 462.837
1006.052, 487.878
1007.304, 413.828
1008.555, 459.362
1009.807, 543.172
1011.058, 591.798
1012.309, 611.333
1013.559, 679.036
1014.810, 758.720
1016.060, 798.461
1017.310, 810.385
1018.560, 871.613
1019.810, 973.692
1021.060, 943.205
1022.309, 820.892
1023.558, 1012.073
1024.807, 853.842
1026.056, 878.679
1027.305, 930.415
1028.553, 1066.242
1029.801, 1088.246
1031.049, 1102.734
1032.297, 1208.227
1033.545, 1381.826
1034.793, 1363.561
1036.040, 1473.448
1037.287, 1550.510
1038.534, 1567.712
1039.781, 1740.037
1041.027, 1678.476
1042.274, 1666.021
1043.520, 1715.683
1044.766, 1569.447
1046.012, 1599.312
1047.257, 1569.311
1048.503, 1695.408
1049.748, 1644.102
1050.993, 1711.920
1052.238, 1660.314
1053.483, 1849.799
1054.727, 1979.381
1055.971, 2244.047
1057.216, 2518.794
1058.459, 2812.628
1059.703, 2844.548
1060.947, 2934.566
1062.190, 2945.672
1063.433, 2826.842
1064.676, 2727.096
1065.919, 2548.401
1067.162, 2766.751
1068.404, 2607.170
1069.646, 2738.634
1070.888, 3276.141
1072.130, 3562.689
1073.372, 4075.283
1074.613, 4902.921
1075.855, 5417.604
1077.096, 6311.334
1078.337, 7607.105
1079.578, 8924.919
1080.818, 10529.774
1082.059, 12349.669
1083.299, 14394.604
1084.539, 15885.576
1085.779, 16698.586
1087.018, 16343.635
1088.258, 14953.724
1089.497, 12716.842
1090.736, 10419.995
1091.975, 8027.182
1093.213, 6292.400
1094.452, 4904.649
1095.690, 3674.931
1096.928, 2882.243
1098.166, 2293.589
1099.404, 1884.966
1100.642, 1510.374
1101.879, 1431.906
1103.116, 1115.379
1104.353, 974.884
1105.590, 790.421
1106.827, 787.987
1108.063, 618.587
1109.299, 607.215
1110.536, 589.066
1111.771, 448.754
1113.007, 396.591
1114.243, 474.738
1115.478, 276.516
1116.713, 348.322
1117.948, 228.157
1119.183, 299.577
1120.418, 297.469
1121.652, 686.450
1122.886, 957.407
1124.120, 797.380
1125.354, 561.379
1126.588, 342.402
1127.821, 250.573
1129.055, 206.932
1130.288, 144.222
1131.521, 133.002
1132.753, 98.176
1133.986, 40.513
1135.218, 138.781
1136.450, 13.140
1137.682, 64.690
1138.914, 64.855
1140.146, 18.386
1141.377, 107.924
1142.609, 68.289
1143.840, 39.597
1145.071, 57.819
1146.301, 50.483
1147.532, 63.596
1148.762, 87.946
1149.992, 119.497
1151.222, 150.210
1152.452, 111.189
1153.682, 186.352
1154.911, 95.958
1156.140, 129.102
1157.369, 132.367
1158.598, 147.797
1159.827, 22.140
1161.055, 75.929
1162.284, 47.875
1163.512, 69.647
1164.740, 70.428
1165.967, 50.038
1167.195, 41.995
1168.422, 23.229
1169.650, 23.539
1170.877, 33.221
1172.103, 43.913
1173.330, 41.534
1174.557, 36.604
1175.783, 34.728
1177.009, 11.846
1178.235, 6.482
1179.461, 17.461
1180.686, 74.676
1181.912, 144.607
1183.137, 151.870
1184.362, 47.460
1185.587, 71.678
1186.811, 144.005
1188.036, 91.434
1189.260, 171.227
1190.484, 163.098
1191.708, 182.093
1192.932, 215.000
1194.155, 182.095
1195.378, 212.201
1196.602, 172.860
1197.825, 60.222
1199.047, 154.131
1200.270, 208.516
1201.492, 263.547
1202.715, 141.329
1203.937, 171.699
1205.159, 184.282
1206.380, 308.454
1207.602, 158.104
1208.823, 200.883
1210.044, 280.882
1211.265, 200.780
1212.486, 293.443
1213.707, 162.263
1214.927, 180.640
1216.147, 256.750
1217.367, 234.521
1218.587, 250.023
1219.807, 210.554
1221.027, 190.226
1222.246, 166.846
1223.465, 175.156
1224.684, 209.786
1225.903, 182.264
1227.121, 216.658
1228.340, 162.975
1229.558, 221.248
1230.776, 206.534
1231.994, 199.711
1233.212, 211.108
1234.429, 192.540
1235.646, 135.802
1236.864, 244.906
1238.081, 325.276
1239.297, 239.270
1240.514, 138.463
1241.730, 116.500
1242.947, 230.738
1244.163, 205.811
1245.378, 163.127
1246.594, 215.320
1247.810, 110.681
1249.025, 250.024
1250.240, 166.292
1251.455, 230.508
1252.670, 163.556
1253.885, 149.534
1255.099, 198.547
1256.313, 110.491
1257.527, 253.591
1258.741, 135.573
1259.955, 94.521
1261.168, 190.660
1262.382, 223.627
1263.595, 278.545
1264.808, 66.426
1266.021, 200.986
1267.233, 172.681
1268.446, 188.116
1269.658, 335.458
1270.870, 229.043
1272.082, 230.279
1273.294, 174.541
1274.505, 138.638
1275.716, 163.657
1276.928, 112.643
1278.139, 208.683
1279.349, 97.845
1280.560, 102.568
1281.770, 189.789
1282.981, 151.525
1284.191, 182.316
1285.401, 102.722
1286.610, 187.777
1287.820, 143.732
1289.029, 137.127
1290.239, 132.238
1291.448, 116.823
1292.656, 115.405
1293.865, 95.518
1295.073, 100.544
1296.282, 90.146
1297.490, 55.233
1298.698, 75.130
1299.906, 52.086
1301.113, 102.275
1302.320, 36.896
1303.528, 64.254
1304.735, 7.200
1305.942, 40.438
1307.148, 18.968
1308.355, 18.470
1309.561, 3.916
1310.767, 12.485
1311.973, 23.364
1313.179, 0.022
1314.384, 0.922
1315.590, 6.749
1316.795, 27.108
1318.000, 9.075
1319.205, 29.715
1320.410, 22.391
1321.614, 9.440
1322.819, 21.072
1324.023, 8.750
1325.227, 56.482
1326.431, 23.348
1327.634, 60.259
1328.838, 65.259
1330.041, 4.683
1331.244, 23.517
1332.447, 21.279
1333.650, 38.976
1334.852, 21.390
1336.055, 33.170
1337.257, 87.669
1338.459, 60.885
1339.661, 64.479
1340.862, 86.788
1342.064, 23.043
1343.265, 73.239
1344.466, 104.378
1345.667, 31.463
1346.868, 203.488
1348.068, 103.461
1349.269, 88.380
1350.469, 119.243
1351.669, 83.052
1352.869, 75.808
1354.069, 134.509
1355.268, 148.159
1356.468, 199.760
1357.667, 157.313
1358.866, 93.819
1360.065, 112.275
1361.263, 153.685
1362.462, 213.048
1363.660, 200.367
1364.858, 161.642
1366.056, 167.872
1367.254, 203.061
1368.451, 187.209
1369.649, 184.317
1370.846, 198.332
1372.043, 210.422
1373.240, 215.898
1374.436, 205.866
1375.633, 225.804
1376.829, 166.716
1378.025, 151.534
1379.221, 185.305
1380.417, 216.022
1381.613, 146.713
1382.808, 180.844
1384.003, 275.910
1385.199, 219.909
1386.393, 169.837
1387.588, 206.596
1388.783, 151.375
1389.977, 173.079
1391.171, 144.502
1392.365, 145.494
1393.559, 153.178
1394.753, 158.358
1395.946, 187.943
1397.140, 201.080
1398.333, 188.979
1399.526, 200.967
1400.719, 162.599
1401.911, 181.712
1403.104, 180.900
1404.296, 148.083
1405.488, 165.057
1406.680, 168.990
1407.872, 171.408
1409.063, 237.893
1410.255, 195.192
1411.446, 243.815
1412.637, 261.477
1413.828, 181.456
1415.018, 271.932
1416.209, 221.448
1417.399, 232.169
1418.589, 290.905
1419.779, 206.655
1420.969, 172.639
1422.159, 124.432
1423.348, 207.810
1424.537, 85.949
1425.726, 145.030
1426.915, 208.046
1428.104, 147.247
1429.293, 128.115
1430.481, 121.670
1431.669, 100.505
1432.857, 147.729
1434.045, 90.766
1435.233, 155.851
1436.420, 108.312
1437.608, 127.557
1438.795, 124.413
1439.982, 188.557
1441.169, 187.155
1442.355, 132.756
1443.542, 276.188
1444.728, 232.479
