##NAMES=Epididymite
##RRUFFID=R070580
##IDEAL CHEMISTRY=Na_2_Be_2_Si_6_O_15_&#183;H_2_O
##LOCALITY=Narsarsuk, Narsaq, Kitaa, Greenland
##OWNER=RRUFF
##SOURCE=James Shigley
##DESCRIPTION=A translucent to white elongated prism.
##STATUS=The identification of this mineral is confirmed by single-crystal X-ray diffraction and chemical analysis.
##URL=rruff.info/R070580
##MEASURED CHEMISTRY=(Na_1.97_K_0.03_)_Σ=2_Be_2_Si_6.00_O_15_·H_2_O; trace amounts of Al; Be and H_2_O assumed by stoichiometry
##PIN_ID=M01839
##ORIENTATION=Laser parallel to b* (0 1 0). Fiducial mark perpendicular to laser is parallel to -c [0 0 -1]
111.2060, 0.0000000E+00
112.4440, 13.02197
113.6810, 211.4131
114.9180, 409.5220
116.1550, 583.3555
117.3920, 965.8555
118.6290, 1456.945
119.8650, 1986.275
121.1010, 3084.126
122.3370, 3814.512
123.5730, 4642.648
124.8090, 4765.345
126.0450, 4221.629
127.2800, 3868.854
128.5150, 4170.247
129.7500, 4784.854
130.9850, 5852.457
132.2200, 7095.646
133.4540, 7593.887
134.6890, 7285.613
135.9230, 6113.289
137.1570, 4544.650
138.3900, 2784.603
139.6240, 1719.736
140.8580, 1154.815
142.0910, 666.7559
143.3240, 346.5762
144.5570, 279.0728
145.7900, 305.5469
147.0220, 315.4023
148.2550, 347.6079
149.4870, 491.1372
150.7190, 572.9717
151.9510, 466.0991
153.1830, 519.5059
154.4140, 433.1782
155.6460, 281.1274
156.8770, 199.3560
158.1080, 38.08154
159.3390, 6.488770
160.5690, 86.38672
161.8000, 142.2568
163.0300, 170.7051
164.2600, 155.2603
165.4900, 140.7534
166.7200, 34.18555
167.9500, 21.55908
169.1790, 101.8740
170.4080, 31.86865
171.6380, 78.66553
172.8670, 16.48242
174.0950, 16.42139
175.3240, 4.623047
176.5520, 13.61816
177.7810, 83.43359
179.0090, 129.5312
180.2370, 229.6748
181.4640, 159.8623
182.6920, 375.0908
183.9190, 502.3613
185.1460, 381.6641
186.3730, 634.0156
187.6000, 969.4629
188.8270, 1209.021
190.0530, 1348.689
191.2800, 1576.464
192.5060, 1792.337
193.7320, 1987.297
194.9580, 2331.334
196.1830, 2475.441
197.4090, 2683.611
198.6340, 2751.820
199.8590, 2728.396
201.0840, 2650.767
202.3090, 2410.920
203.5340, 2166.613
204.7580, 1824.120
205.9820, 1518.135
207.2060, 1233.081
208.4300, 1039.859
209.6540, 951.0352
210.8780, 775.3311
212.1010, 686.3418
213.3240, 587.7871
214.5470, 451.1064
215.7700, 465.9668
216.9930, 440.8311
218.2150, 480.6934
219.4380, 377.5840
220.6600, 394.5029
221.8820, 413.4492
223.1040, 376.4229
224.3260, 467.6504
225.5470, 574.4482
226.7680, 736.5000
227.9900, 817.5762
229.2110, 1183.677
230.4310, 1309.800
231.6520, 1636.943
232.8720, 1920.107
234.0930, 2140.289
235.3130, 2613.486
236.5330, 2884.700
237.7530, 3229.928
238.9720, 3761.171
240.1920, 4072.430
241.4110, 4437.701
242.6300, 4494.987
243.8490, 4389.288
245.0680, 4025.604
246.2860, 3547.932
247.5040, 3136.273
248.7230, 2784.629
249.9410, 2534.996
251.1590, 2287.379
252.3760, 2065.773
253.5940, 2020.180
254.8110, 1914.600
256.0280, 1840.033
257.2450, 1656.477
258.4620, 1600.260
259.6790, 1662.425
260.8950, 1753.316
262.1120, 1434.643
263.3280, 1275.238
264.5440, 1102.006
265.7600, 822.8643
266.9750, 637.7588
268.1910, 354.6602
269.4060, 357.5566
270.6210, 454.4287
271.8360, 388.1953
273.0510, 251.8408
274.2650, 160.3760
275.4800, 171.8174
276.6940, 199.1816
277.9080, 108.4824
279.1220, 119.7314
280.3360, 131.9355
281.5490, 97.09961
282.7630, 122.0068
283.9760, 186.3711
285.1890, 74.27148
286.4020, 61.07129
287.6150, 5.977539
288.8270, 105.6582
290.0400, 99.33301
291.2520, 16.56445
292.4640, 131.5762
293.6760, 38.68066
294.8870, 23.07812
296.0990, 3.875000
297.3100, 5.315430
298.5210, 72.23828
299.7320, 35.12109
300.9430, 3.504883
302.1540, 26.12402
303.3640, 21.16895
304.5750, 109.5283
305.7850, 18.49707
306.9950, 20.12598
308.2050, 50.66406
309.4140, 141.8770
310.6240, 114.1387
311.8330, 121.8838
313.0420, 164.7871
314.2510, 166.5000
315.4600, 92.41406
316.6680, 172.3555
317.8770, 54.30566
319.0850, 201.5488
320.2930, 257.4404
321.5010, 151.4375
322.7090, 170.9971
323.9160, 164.9941
325.1240, 233.0000
326.3310, 264.0146
327.5380, 352.0381
328.7450, 469.0684
329.9520, 722.1074
331.1580, 771.1543
332.3650, 858.2080
333.5710, 1206.270
334.7770, 1510.338
335.9830, 1881.412
337.1880, 2348.491
338.3940, 2703.576
339.5990, 3089.665
340.8040, 3605.760
342.0090, 3991.857
343.2140, 4746.957
344.4190, 5576.063
345.6230, 6073.164
346.8280, 6371.268
348.0320, 5780.369
349.2360, 4946.440
350.4400, 3940.494
351.6430, 3015.482
352.8470, 2438.459
354.0500, 2002.373
355.2530, 1762.257
356.4560, 1643.144
357.6590, 1410.035
358.8620, 1461.931
360.0640, 1438.833
361.2660, 1625.739
362.4680, 1589.650
363.6700, 1722.568
364.8720, 1749.489
366.0740, 1980.416
367.2750, 2194.348
368.4760, 2473.284
369.6770, 2804.226
370.8780, 3450.172
372.0790, 4122.119
373.2800, 4692.074
374.4800, 5420.033
375.6800, 5956.993
376.8800, 6660.958
378.0800, 7348.928
379.2800, 8182.902
380.4790, 8704.875
381.6790, 9265.855
382.8780, 8855.840
384.0770, 8135.827
385.2760, 7195.818
386.4750, 5787.812
387.6730, 4885.811
388.8720, 3918.823
390.0700, 3220.840
391.2680, 2427.876
392.4660, 1997.913
393.6630, 1729.953
394.8610, 1732.997
396.0580, 1843.042
397.2550, 2363.091
398.4520, 2922.142
399.6490, 3508.095
400.8460, 4232.199
402.0420, 5092.338
403.2390, 5919.413
404.4350, 6918.486
405.6310, 8105.557
406.8270, 9861.624
408.0220, 11005.71
409.2180, 11257.80
410.4130, 10513.88
411.6080, 8427.946
412.8030, 5920.004
413.9980, 3934.063
415.1920, 2659.136
416.3870, 1485.200
417.5810, 1097.291
418.7750, 802.3789
419.9690, 511.4580
421.1630, 386.5352
422.3570, 322.6074
423.5500, 208.6865
424.7430, 191.7852
425.9360, 47.88672
427.1290, 180.9814
428.3220, 58.07617
429.5150, 50.16895
430.7070, 153.7354
431.8990, 22.49805
433.0910, 65.52539
434.2830, 95.42188
435.4750, 11.83496
436.6670, 111.1719
437.8580, 53.47461
439.0490, 20.27637
440.2400, 26.26660
441.4310, 45.31348
442.6220, 16.67871
443.8130, 105.8164
445.0030, 26.25098
446.1930, 64.69922
447.3830, 180.4121
448.5730, 128.5479
449.7630, 18.99512
450.9520, 129.5361
452.1420, 6.209961
453.3310, 18.03027
454.5200, 12.10156
455.7090, 129.8018
456.8980, 224.7197
458.0860, 234.6475
459.2740, 301.1982
460.4630, 304.8369
461.6510, 334.5273
462.8380, 288.4951
464.0260, 303.4629
465.2140, 281.4375
466.4010, 373.5186
467.5880, 494.4014
468.7750, 602.3818
469.9620, 759.3623
471.1490, 903.3418
472.3350, 994.3213
473.5220, 1269.300
474.7080, 1486.275
475.8940, 1738.252
477.0800, 2075.226
478.2650, 2088.200
479.4510, 2170.172
480.6360, 1926.143
481.8210, 1909.113
483.0060, 1842.081
484.1910, 2109.047
485.3760, 2147.012
486.5600, 2156.976
487.7440, 2156.938
488.9290, 1741.899
490.1130, 1624.859
491.2960, 1246.815
492.4800, 1091.772
493.6630, 903.7275
494.8470, 885.6807
496.0300, 926.6328
497.2130, 928.5840
498.3960, 1071.535
499.5780, 1283.485
500.7610, 1381.435
501.9430, 1487.383
503.1250, 1806.331
504.3070, 2166.277
505.4890, 2483.224
506.6710, 3250.169
507.8520, 4357.111
509.0330, 5661.055
510.2140, 7691.996
511.3950, 10481.94
512.5760, 13342.88
513.7570, 16109.82
514.9370, 18591.75
516.1170, 21434.69
517.2980, 25412.63
518.4780, 29133.55
519.6570, 32256.49
520.8370, 33490.41
522.0160, 31084.34
523.1960, 26947.27
524.3750, 21187.33
525.5540, 15806.25
526.7320, 11849.17
527.9110, 8691.093
529.0890, 6472.440
530.2680, 5009.787
531.4460, 4088.701
532.6240, 3116.070
533.8010, 2607.170
534.9790, 2087.075
536.1560, 2050.979
537.3340, 1623.879
538.5110, 1536.777
539.6880, 1403.672
540.8650, 1126.449
542.0410, 1054.594
543.2180, 974.4795
544.3940, 897.3633
545.5700, 722.2432
546.7460, 804.1211
547.9220, 771.5068
549.0970, 622.9238
550.2730, 599.8652
551.4480, 597.7295
552.6230, 500.5908
553.7980, 526.4600
554.9730, 480.0986
556.1470, 413.0508
557.3210, 517.0059
558.4960, 489.8857
559.6700, 555.4131
560.8440, 578.6318
562.0170, 404.8955
563.1910, 556.9180
564.3640, 574.6113
565.5380, 429.6855
566.7110, 489.9229
567.8840, 614.7324
569.0560, 540.8613
570.2290, 718.6611
571.4010, 854.7051
572.5740, 859.2705
573.7460, 1307.620
574.9180, 1590.295
576.0890, 1894.584
577.2610, 2392.391
578.4320, 2799.417
579.6040, 3365.669
580.7750, 3781.447
581.9450, 4508.236
583.1160, 5164.782
584.2870, 5459.315
585.4570, 5624.559
586.6270, 5304.668
587.7980, 4470.837
588.9670, 3543.876
590.1370, 2592.849
591.3070, 1968.992
592.4760, 1487.031
593.6450, 1078.908
594.8140, 1033.781
595.9830, 669.1543
597.1520, 654.0195
598.3210, 528.8779
599.4890, 597.7334
600.6570, 575.5840
601.8250, 383.4297
602.9930, 283.2705
604.1610, 365.1064
605.3290, 250.9385
606.4960, 367.7646
607.6630, 277.8770
608.8300, 269.6934
609.9970, 159.5039
611.1640, 170.4209
612.3300, 169.4902
613.4970, 181.9062
614.6630, 219.6953
615.8290, 240.4805
616.9950, 271.2598
618.1610, 304.0332
619.3260, 361.8018
620.4920, 577.5645
621.6570, 472.3232
622.8220, 729.0752
623.9870, 733.8213
625.1520, 898.5625
626.3160, 1068.299
627.4810, 1167.028
628.6450, 1260.753
629.8090, 1371.472
630.9730, 1401.186
632.1370, 1477.893
633.3000, 1697.595
634.4640, 1666.291
635.6270, 1568.981
636.7900, 1369.666
637.9530, 1191.344
639.1160, 858.0166
640.2780, 707.6826
641.4410, 579.3428
642.6030, 550.9980
643.7650, 616.6465
644.9270, 447.2900
646.0890, 535.9258
647.2500, 450.5557
648.4120, 560.1807
649.5730, 456.7998
650.7340, 425.6182
651.8950, 456.2236
653.0560, 473.8232
654.2160, 311.4180
655.3770, 417.0039
656.5370, 352.5850
657.6970, 113.1602
658.8570, 301.7275
660.0170, 179.2891
661.1760, 148.8438
662.3360, 109.3936
663.4950, 37.93555
664.6540, 192.4688
665.8130, 75.99609
666.9720, 189.5176
668.1310, 11.03223
669.2890, 26.46387
670.4470, 66.00977
671.6050, 42.51953
672.7630, 32.91113
673.9210, 111.3389
675.0790, 159.7598
676.2360, 66.17383
677.3930, 106.5791
678.5510, 90.99805
679.7080, 16.59082
680.8640, 26.80859
682.0210, 87.19824
683.1770, 89.58203
684.3340, 72.95703
685.4900, 196.3262
686.6460, 9.688477
687.8020, 89.95410
688.9570, 2.659180
690.1130, 96.61719
691.2680, 88.89551
692.4230, 65.17090
693.5780, 13.56250
694.7330, 66.30762
695.8880, 45.89453
697.0420, 112.8887
698.1960, 4.250977
699.3510, 50.37598
700.5040, 3.525391
701.6580, 35.65820
702.8120, 30.18750
703.9650, 84.06641
705.1190, 7.006836
706.2720, 88.04492
707.4250, 24.08984
708.5780, 119.1279
709.7300, 30.16211
710.8830, 71.20996
712.0350, 56.70605
713.1870, 77.66895
714.3390, 0.6914060
715.4910, 52.70215
716.6430, 30.26172
717.7940, 15.21680
718.9460, 102.1875
720.0970, 107.1562
721.2480, 227.1182
722.3990, 64.08691
723.5500, 34.05566
724.7000, 55.04492
725.8500, 70.96582
727.0010, 25.01172
728.1510, 57.95898
729.3010, 115.0439
730.4500, 31.12012
731.6000, 100.8018
732.7490, 116.7178
733.8980, 72.62402
735.0470, 137.5264
736.1960, 190.4209
737.3450, 64.30762
738.4940, 192.1865
739.6420, 105.0557
740.7900, 140.9180
741.9380, 108.7734
743.0860, 76.62012
744.2340, 143.4590
745.3810, 27.28906
746.5290, 181.1084
747.6760, 146.9199
748.8230, 187.7246
749.9700, 145.5205
751.1170, 220.3086
752.2630, 357.0889
753.4100, 390.8604
754.5560, 387.6240
755.7020, 287.3789
756.8480, 196.1270
757.9940, 277.8672
759.1390, 215.5986
760.2850, 322.3242
761.4300, 385.0420
762.5750, 265.7510
763.7200, 380.4521
764.8650, 253.1465
766.0100, 373.8320
767.1540, 329.5098
768.2980, 235.1787
769.4420, 216.8428
770.5860, 258.4980
771.7300, 260.1445
772.8740, 140.7832
774.0170, 168.4160
775.1610, 98.04004
776.3040, 102.6562
777.4470, 170.2646
778.5900, 99.86621
779.7320, 104.4609
780.8750, 221.0459
782.0170, 122.6250
783.1590, 187.1973
784.3010, 216.7598
785.4430, 75.40918
786.5850, 230.9580
787.7260, 30.49902
788.8680, 166.0303
790.0090, 78.55566
791.1500, 157.0723
792.2910, 157.5811
793.4310, 190.0840
794.5720, 226.5791
795.7120, 292.0674
796.8520, 175.5479
797.9920, 277.0225
799.1320, 158.4893
800.2720, 259.9473
801.4120, 199.2656
802.5510, 259.7119
803.6900, 171.1494
804.8290, 189.5801
805.9680, 153.5742
807.1070, 219.5576
808.2450, 219.4727
809.3840, 152.4180
810.5220, 249.3818
811.6600, 191.7725
812.7980, 219.1572
813.9360, 102.5342
815.0730, 174.9756
816.2110, 226.3408
817.3480, 172.6885
818.4850, 220.7861
819.6220, 184.1328
820.7590, 248.4736
821.8960, 182.8086
823.0320, 112.1357
824.1680, 134.6914
825.3040, 71.01074
826.4400, 161.6973
827.5760, 108.1172
828.7120, 136.8564
829.8470, 335.1367
830.9830, 303.1807
832.1180, 149.3594
833.2530, 261.6152
834.3880, 182.8506
835.5220, 249.4268
836.6570, 250.0020
837.7910, 164.5137
838.9250, 315.4785
840.0590, 385.8545
841.1930, 253.8379
842.3270, 278.6836
843.4600, 234.9141
844.5940, 251.6328
845.7270, 289.3516
846.8600, 316.4580
847.9930, 371.6699
849.1250, 466.3086
850.2580, 305.6221
851.3900, 386.7598
852.5230, 284.5732
853.6550, 483.5117
854.7870, 445.8535
855.9180, 574.9385
857.0500, 501.1133
858.1810, 483.2832
859.3130, 598.4414
860.4440, 516.3975
861.5750, 589.5078
862.7050, 550.1465
863.8360, 537.6602
864.9660, 606.7725
866.0970, 464.6133
867.2270, 447.7139
868.3570, 613.8447
869.4870, 482.9727
870.6160, 382.0967
871.7460, 430.2168
872.8750, 315.3330
874.0040, 367.4463
875.1330, 340.5557
876.2620, 507.6631
877.3910, 315.7656
878.5190, 268.8662
879.6470, 514.9619
880.7760, 406.0557
881.9040, 487.8555
883.0310, 447.9434
884.1590, 309.0273
885.2870, 237.1104
886.4140, 357.1895
887.5410, 437.2656
888.6680, 382.3398
889.7950, 383.4121
890.9220, 234.4814
892.0480, 284.8477
893.1750, 445.6113
894.3010, 287.6748
895.4270, 369.7334
896.5530, 297.7910
897.6790, 253.8467
898.8040, 204.9004
899.9300, 178.2832
901.0550, 280.0029
902.1800, 158.0518
903.3050, 223.0977
904.4300, 249.1436
905.5540, 229.1885
906.6790, 143.2305
907.8030, 211.2715
908.9270, 313.3125
910.0510, 219.3516
911.1750, 95.39062
912.2990, 332.4268
913.4220, 182.4639
914.5450, 186.4990
915.6690, 138.5332
916.7920, 87.00781
917.9140, 154.6016
919.0370, 116.6338
920.1600, 12.66602
921.2820, 197.6963
922.4040, 131.7266
923.5260, 271.5518
924.6480, 90.58105
925.7700, 70.61035
926.8910, 199.6396
928.0130, 53.66992
929.1340, 193.6992
930.2550, 181.7295
931.3760, 112.7598
932.4970, 182.7910
933.6170, 76.82227
934.7380, 66.85352
935.8580, 217.8857
936.9780, 84.92480
938.0980, 194.9639
939.2180, 214.0059
940.3370, 103.0508
941.4570, 137.1016
942.5760, 0.1630860
943.6950, 59.22070
944.8140, 4.705078
945.9330, 42.36426
947.0520, 112.4336
948.1700, 160.5049
949.2890, 62.42188
950.4070, 160.6191
951.5250, 42.33789
952.6430, 162.6895
953.7600, 56.72949
954.8780, 98.77344
955.9950, 40.81836
957.1120, 95.86426
958.2290, 24.08594
959.3460, 61.95020
960.4630, 126.0186
961.5800, 30.90527
962.6960, 0.8134770
963.8120, 60.27344
964.9280, 38.62793
966.0440, 72.45801
967.1600, 82.42969
968.2760, 27.64355
969.3910, 31.75684
970.5060, 120.1230
971.6210, 123.9355
972.7360, 112.9971
973.8510, 18.01562
974.9660, 83.04395
976.0800, 48.89844
977.1950, 133.1436
978.3090, 9.810547
979.4230, 3.767578
980.5370, 85.72559
981.6500, 46.27539
982.7640, 36.28125
983.8770, 152.3105
984.9900, 59.37207
986.1030, 49.55859
987.2160, 191.5098
988.3290, 112.4189
989.4420, 13.39648
990.5540, 110.6201
991.6660, 28.64355
992.7780, 19.67090
993.8900, 180.7021
995.0020, 171.7412
996.1140, 105.7861
997.2250, 159.8604
998.3360, 253.9512
999.4470, 272.0488
1000.558, 451.1875
1001.669, 444.3457
1002.780, 706.5088
1003.890, 621.6777
1005.001, 591.8516
1006.111, 506.0332
1007.221, 402.2197
1008.331, 390.4131
1009.440, 443.6123
1010.550, 523.8184
1011.659, 334.0303
1012.768, 262.2490
1013.877, 354.4736
1014.986, 215.7061
1016.095, 223.9453
1017.204, 270.1924
1018.312, 168.4453
1019.420, 268.7070
1020.528, 231.9746
1021.636, 312.2490
1022.744, 292.5312
1023.852, 207.8203
1024.959, 481.1182
1026.066, 300.4219
1027.173, 260.7344
1028.280, 50.05566
1029.387, 162.4072
1030.494, 110.7695
1031.600, 403.1367
1032.707, 313.5137
1033.813, 318.8975
1034.919, 305.2910
1036.025, 277.6924
1037.130, 480.1016
1038.236, 414.5186
1039.341, 556.9463
1040.446, 425.3809
1041.552, 641.8262
1042.656, 609.2793
1043.761, 839.7412
1044.866, 739.2109
1045.970, 781.6914
1047.074, 888.1807
1048.179, 839.6797
1049.282, 920.1875
1050.386, 863.7041
1051.490, 868.2305
1052.593, 827.7666
1053.697, 786.2197
1054.800, 694.7754
1055.903, 693.5000
1057.006, 662.4658
1058.108, 682.5020
1059.211, 672.0967
1060.313, 707.7021
1061.415, 765.3174
1062.517, 781.9424
1063.619, 710.5781
1064.721, 744.3848
1065.823, 906.8809
1066.924, 751.5479
1068.025, 776.2246
1069.126, 842.7451
1070.227, 729.4434
1071.328, 854.3223
1072.429, 693.9473
1073.529, 753.6777
1074.629, 688.4180
1075.729, 525.6650
1076.829, 710.4268
1077.929, 523.4424
1079.029, 491.2246
1080.128, 421.0195
1081.228, 450.8242
1082.327, 523.0381
1083.426, 499.8652
1084.525, 478.8330
1085.623, 518.7344
1086.722, 491.1191
1087.820, 489.4766
1088.919, 504.3643
1090.017, 468.2637
1091.115, 526.4365
1092.212, 430.3594
1093.310, 485.2939
1094.407, 513.4199
1095.505, 432.9375
1096.602, 375.3555
1097.699, 446.2607
1098.795, 537.8027
1099.892, 527.5381
1100.989, 547.5801
1102.085, 485.6338
1103.181, 556.3301
1104.277, 632.3896
1105.373, 689.5703
1106.469, 801.6738
1107.564, 902.7891
1108.660, 1100.885
1109.755, 1270.026
1110.850, 1244.363
1111.945, 1242.032
1113.040, 1538.073
1114.134, 1752.268
1115.229, 1856.474
1116.323, 1977.694
1117.417, 2197.929
1118.511, 2460.227
1119.605, 2620.486
1120.698, 2715.140
1121.792, 2853.521
1122.885, 3241.821
1123.978, 3456.137
1125.071, 3854.467
1126.164, 4160.922
1127.257, 4637.280
1128.349, 5366.652
1129.442, 5951.037
1130.534, 6524.438
1131.626, 7410.852
1132.718, 8131.277
1133.810, 8707.718
1134.901, 9262.174
1135.993, 9887.654
1137.084, 9703.155
1138.175, 10012.67
1139.266, 9757.199
1140.357, 9440.737
1141.448, 8678.297
1142.538, 7985.870
1143.628, 7152.455
1144.719, 6473.057
1145.809, 5758.674
1146.898, 4728.304
1147.988, 4118.946
1149.078, 3487.604
1150.167, 3108.291
1151.256, 2444.991
1152.345, 2286.707
1153.434, 2047.471
1154.523, 1634.248
1155.612, 1668.040
1156.700, 1339.847
1157.788, 1214.668
1158.877, 1108.505
1159.964, 989.9736
1161.052, 886.2783
1162.140, 738.7158
1163.227, 705.6084
1164.315, 602.5146
1165.402, 569.4365
1166.489, 594.3701
1167.576, 518.3330
1168.663, 479.3096
1169.749, 437.3008
1170.836, 377.3271
1171.922, 318.3672
1173.008, 259.4219
1174.094, 306.4912
1175.180, 333.5732
1176.265, 431.6699
1177.351, 333.7803
1178.436, 415.9053
1179.521, 392.0430
1180.606, 338.1953
1181.691, 386.3613
1182.776, 111.5420
1183.860, 351.7363
1184.944, 260.9453
1186.029, 117.1680
1187.113, 245.4053
1188.197, 238.6562
1189.280, 159.9209
1190.364, 185.1992
1191.447, 227.4912
1192.531, 124.7979
1193.614, 169.1191
1194.697, 35.45312
1195.779, 158.8018
1196.862, 161.1631
1197.945, 240.5400
1199.027, 33.07031
1200.109, 80.32520
1201.191, 10.26660
1202.273, 34.84375
1203.355, 20.58203
1204.436, 41.02246
1205.518, 108.4756
1206.599, 38.94434
1207.680, 110.4287
1208.761, 98.92969
1209.842, 206.4453
1210.922, 69.97363
1212.003, 21.48438
1213.083, 97.08496
1214.163, 42.42676
1215.243, 60.95801
1216.323, 63.64453
1217.402, 135.2617
1218.482, 255.8936
1219.561, 142.5361
1220.641, 1.193359
1221.720, 15.87109
1222.798, 112.5635
1223.877, 158.7314
1224.956, 59.93262
1226.034, 46.27734
1227.112, 37.40332
1228.191, 61.17383
1229.269, 28.55859
1230.346, 84.18652
1231.424, 190.9453
1232.501, 163.7168
1233.579, 171.5332
1234.656, 242.2012
1235.733, 16.23242
1236.810, 286.1162
1237.886, 254.0117
1238.963, 142.9326
1240.039, 241.8672
1241.116, 137.8174
1242.192, 333.7822
1243.268, 356.7812
1244.343, 229.7920
1245.419, 138.8164
1246.494, 218.8525
1247.570, 201.9004
1248.645, 128.9736
1249.720, 188.0586
1250.795, 18.18457
1251.869, 138.3252
1252.944, 193.4785
1254.018, 216.6445
1255.093, 5.175781
1256.167, 114.0127
1257.240, 160.2129
1258.314, 49.42480
1259.388, 185.6533
1260.461, 200.8936
1261.535, 139.1436
1262.608, 335.4121
1263.681, 127.6934
1264.753, 239.2842
1265.826, 131.9580
1266.899, 217.2705
1267.971, 271.5938
1269.043, 306.9277
1270.115, 315.6006
1271.187, 279.0527
1272.259, 348.4180
1273.330, 263.7930
1274.402, 276.1777
1275.473, 366.5742
1276.544, 163.9795
1277.615, 262.4268
1278.686, 343.1338
1279.756, 180.5996
1280.827, 256.0771
1281.897, 263.5215
1282.967, 166.0664
1284.037, 275.5732
