##NAMES=Epidote
##RRUFFID=R040092
##IDEAL CHEMISTRY=Ca_2_Fe^3+^Al_2_(Si_2_O_7_)(SiO_4_)O(OH)
##LOCALITY=Nahant, Massachusetts, USA
##OWNER=RRUFF
##SOURCE=University of Arizona Mineral Museum
##DESCRIPTION=Green prismatic crystals imbedded in quartz
##STATUS=The identification of this mineral has been confirmed by X-ray diffraction and chemical analysis
##URL=rruff.info/R040092
##MEASURED CHEMISTRY=Ca_2.01_Al_2.00_Fe_1.00_(Si_1.00_O_4_)(Si_1.97_Fe_0.02_Al_0.01_Ti_0.01_O_7_)O(OH)
##PIN_ID=M00463
##ORIENTATION=Laser parallel to [-1 0 -1]. Fiducial mark perpendicular to laser is parallel to b* (0 1 0)
51.466, 0.000
52.866, 139.564
54.266, 704.803
55.666, 1205.556
57.065, 1134.001
58.464, 1324.168
59.863, 1165.919
61.262, 988.644
62.661, 511.957
64.059, 83.848
65.458, 40.915
66.856, 107.597
68.253, 25.548
69.651, 2.291
71.048, 197.428
72.445, 351.786
73.842, 780.257
75.239, 1071.728
76.635, 1483.187
78.031, 2041.382
79.427, 3079.182
80.823, 4905.480
82.218, 7195.182
83.614, 9669.198
85.009, 11667.451
86.404, 13661.877
87.798, 15240.404
89.193, 16395.990
90.587, 17012.572
91.981, 16911.121
93.375, 16147.772
94.768, 14478.568
96.161, 12753.407
97.554, 10855.183
98.947, 9175.793
100.340, 7384.454
101.732, 5676.744
103.124, 4310.473
104.516, 3434.838
105.908, 3373.805
107.300, 2485.346
108.691, 1918.436
110.082, 1294.051
111.473, 1031.174
112.864, 1008.787
114.254, 1143.876
115.644, 1402.429
117.034, 1679.430
118.424, 1238.870
119.813, 1136.738
121.203, 1100.027
122.592, 1138.727
123.981, 1425.830
125.369, 1696.329
126.758, 2119.219
128.146, 2428.490
129.534, 3025.144
130.922, 3137.168
132.309, 3086.980
133.696, 2724.529
135.083, 2522.016
136.470, 2103.702
137.857, 1839.405
139.243, 1326.062
140.630, 983.645
142.016, 620.046
143.401, 338.161
144.787, 237.230
146.172, 195.334
147.557, 121.487
148.942, 46.292
150.327, 1.994
151.711, 48.395
153.096, 175.784
154.480, 422.153
155.863, 678.200
157.247, 1126.042
158.630, 1570.014
160.013, 2149.124
161.396, 3026.374
162.779, 3826.771
164.161, 4877.321
165.544, 6038.023
166.926, 7073.886
168.308, 7913.909
169.689, 8549.098
171.070, 8974.452
172.452, 8870.979
173.833, 8337.674
175.213, 7632.544
176.594, 6496.590
177.974, 5776.812
179.354, 5016.211
180.734, 4464.786
182.114, 4255.539
183.493, 4044.470
184.872, 3779.574
186.251, 3673.861
187.630, 3197.330
189.008, 2878.979
190.387, 2296.812
191.765, 2331.830
193.143, 1904.030
194.520, 1106.415
195.898, 804.985
197.275, 737.740
198.652, 797.679
200.029, 996.805
201.405, 1126.116
202.782, 864.613
204.158, 981.298
205.534, 896.169
206.909, 824.225
208.285, 1022.467
209.660, 1157.895
211.035, 650.497
212.410, 830.205
213.784, 1044.554
215.159, 1507.582
216.533, 2060.355
217.907, 2473.259
219.281, 3235.814
220.654, 4066.567
222.027, 5118.346
223.400, 6078.504
224.773, 7165.246
226.146, 7749.016
227.518, 8267.948
228.891, 8676.771
230.263, 8716.228
231.634, 8736.378
233.006, 8549.056
234.377, 8318.071
235.748, 8453.723
237.119, 8339.653
238.490, 8621.223
239.860, 8501.064
241.231, 8621.186
242.601, 8216.567
243.970, 7803.207
245.340, 7233.092
246.709, 6443.224
248.079, 6052.592
249.448, 5500.195
250.816, 5272.023
252.185, 4934.074
253.553, 4645.348
254.921, 4629.835
256.289, 4132.535
257.657, 3768.441
259.024, 3212.554
260.391, 2828.866
261.758, 2367.373
263.125, 2214.074
264.492, 1968.963
265.858, 2000.031
267.224, 2219.282
268.590, 2522.715
269.956, 3184.330
271.321, 3346.120
272.687, 3740.090
274.052, 3642.232
275.416, 3677.551
276.781, 3094.039
278.146, 2445.699
279.510, 1987.527
280.874, 1329.523
282.237, 1019.686
283.601, 586.011
284.964, 561.502
286.327, 720.154
287.690, 775.968
289.053, 846.940
290.416, 1179.073
291.778, 1154.361
293.140, 1337.807
294.502, 1281.407
295.863, 1318.160
297.225, 985.063
298.586, 930.106
299.947, 908.280
301.308, 827.585
302.668, 813.020
304.029, 977.586
305.389, 1027.284
306.749, 1171.116
308.108, 1305.784
309.468, 1414.188
310.827, 1583.428
312.186, 1584.803
313.545, 1697.936
314.903, 1615.516
316.262, 1581.303
317.620, 1464.225
318.978, 1481.284
320.336, 1643.479
321.693, 1593.812
323.051, 1678.278
324.408, 1691.881
325.765, 1689.500
327.121, 1707.492
328.478, 1718.499
329.834, 1765.641
331.190, 1823.916
332.546, 1785.326
333.902, 2023.868
335.257, 2057.544
336.612, 2441.350
337.967, 2770.288
339.322, 3501.357
340.677, 4476.558
342.031, 5630.889
343.385, 6914.348
344.739, 8323.938
346.093, 9344.653
347.446, 10297.502
348.799, 10559.474
350.153, 10613.573
351.505, 10026.801
352.858, 8643.154
354.210, 7504.633
355.563, 6079.234
356.915, 4626.962
358.267, 3610.812
359.618, 2584.786
360.969, 1872.882
362.321, 1210.100
363.672, 827.438
365.022, 618.897
366.373, 98.477
367.723, 86.825
369.073, 410.024
370.423, 555.175
371.773, 858.304
373.122, 934.476
374.471, 854.725
375.821, 972.187
377.169, 723.056
378.518, 593.281
379.866, 370.727
381.215, 242.829
382.563, 638.516
383.910, 1199.334
385.258, 1864.292
386.605, 2528.390
387.952, 2816.637
389.299, 3178.036
390.646, 3186.586
391.992, 3145.291
393.339, 2689.169
394.685, 2343.242
396.031, 1991.550
397.376, 1359.029
398.722, 1087.693
400.067, 631.545
401.412, 470.604
402.757, 511.889
404.101, 384.396
405.446, 487.104
406.790, 614.028
408.134, 919.156
409.478, 1310.486
410.821, 1400.040
412.165, 1610.821
413.508, 2302.836
414.851, 2760.064
416.193, 3321.535
417.536, 4052.236
418.878, 5040.154
420.220, 5994.295
421.562, 6829.615
422.904, 8281.146
424.245, 9319.872
425.586, 10142.785
426.927, 11476.907
428.268, 12473.233
429.609, 13774.747
430.949, 15245.463
432.289, 16932.377
433.629, 17480.486
434.969, 18269.789
436.309, 17903.273
437.648, 17759.930
438.987, 16883.779
440.326, 15751.794
441.665, 15111.969
443.003, 15050.322
444.342, 14841.813
445.680, 15192.471
447.018, 15677.283
448.355, 16138.243
449.693, 16387.340
451.030, 15927.561
452.367, 15482.908
453.704, 14460.374
455.041, 14001.959
456.377, 12753.663
457.713, 11815.492
459.049, 10468.436
460.385, 9509.499
461.721, 8384.672
463.056, 10737.958
464.391, 9536.350
465.726, 7546.846
467.061, 4919.449
468.395, 4304.154
469.730, 3890.961
471.064, 3258.866
472.398, 2850.871
473.731, 2218.970
475.065, 1804.167
476.398, 1494.456
477.731, 1239.837
479.064, 1138.308
480.397, 1133.866
481.729, 1180.511
483.062, 1184.239
484.394, 1274.053
485.725, 1501.948
487.057, 1672.925
488.389, 2039.982
489.720, 2377.119
491.051, 2883.337
492.382, 3480.631
493.712, 4291.000
495.043, 5092.447
496.373, 5828.969
497.703, 6759.567
499.032, 7745.236
500.362, 8288.978
501.691, 8920.792
503.020, 9163.674
504.349, 9628.626
505.678, 9774.650
507.007, 9626.737
508.335, 9170.893
509.663, 8527.114
510.991, 7934.398
512.319, 6893.750
513.646, 5976.162
514.973, 4983.637
516.300, 4258.174
517.627, 3621.768
518.954, 2841.424
520.280, 2767.135
521.607, 2359.906
522.933, 2020.731
524.259, 1629.613
525.584, 1307.549
526.910, 1130.537
528.235, 797.689
529.560, 753.533
530.885, 424.944
532.209, 396.857
533.534, 306.972
534.858, 214.122
536.182, 209.416
537.506, 295.273
538.829, 218.191
540.152, 337.056
541.476, 446.640
542.799, 478.280
544.121, 681.977
545.444, 828.729
546.766, 1022.795
548.088, 1278.965
549.410, 1563.889
550.732, 1853.247
552.053, 2334.849
553.375, 2858.691
554.696, 3658.883
556.017, 4749.492
557.337, 6057.207
558.658, 7789.264
559.978, 9582.628
561.298, 11746.356
562.618, 13165.688
563.938, 14071.377
565.257, 14124.836
566.576, 12694.296
567.895, 11167.024
569.214, 9456.053
570.533, 7931.062
571.851, 6610.274
573.170, 6100.948
574.488, 5709.967
575.805, 5833.185
577.123, 5907.792
578.440, 6582.572
579.758, 7212.362
581.075, 7920.801
582.391, 9181.108
583.708, 9878.295
585.024, 10808.850
586.341, 12496.857
587.657, 13346.469
588.972, 14824.894
590.288, 15843.436
591.603, 17458.000
592.918, 19058.318
594.233, 20938.727
595.548, 22434.414
596.863, 22891.412
598.177, 23073.318
599.491, 22859.922
600.805, 21540.605
602.119, 20351.756
603.432, 19044.482
604.746, 17892.109
606.059, 16547.459
607.372, 15840.391
608.685, 15129.772
609.997, 14410.533
611.309, 14038.421
612.621, 13297.851
613.933, 12700.173
615.245, 11517.715
616.557, 10773.779
617.868, 9490.695
619.179, 8277.355
620.490, 7118.937
621.801, 6291.047
623.111, 5321.479
624.421, 4765.783
625.731, 3914.975
627.041, 3814.415
628.351, 3209.176
629.660, 3141.161
630.970, 2801.811
632.279, 2469.164
633.588, 2451.467
634.896, 2129.314
636.205, 2158.913
637.513, 1826.578
638.821, 1799.819
640.129, 1664.962
641.437, 1577.959
642.744, 1450.895
644.051, 1408.766
645.358, 1427.574
646.665, 1259.316
647.972, 1201.994
649.278, 1039.604
650.584, 1035.146
651.890, 1015.620
653.196, 947.024
654.502, 1016.359
655.807, 927.560
657.113, 717.816
658.418, 824.937
659.722, 759.984
661.027, 730.958
662.331, 751.856
663.636, 728.682
664.940, 726.429
666.244, 658.102
667.547, 700.695
668.851, 811.211
670.154, 800.648
671.457, 746.006
672.760, 915.283
674.062, 832.479
675.365, 894.595
676.667, 849.627
677.969, 844.578
679.271, 922.443
680.572, 827.227
681.874, 911.925
683.175, 893.536
684.476, 837.062
685.777, 852.517
687.077, 702.954
688.378, 851.400
689.678, 769.918
690.978, 757.522
692.278, 546.194
693.577, 761.960
694.877, 612.766
696.176, 604.584
697.475, 498.374
698.774, 426.071
700.072, 358.675
701.371, 298.186
702.669, 216.601
703.967, 212.748
705.265, 293.138
706.562, 210.260
707.860, 126.280
709.157, 122.186
710.454, 23.024
711.751, 69.588
713.047, 6.065
714.344, 28.619
715.640, 126.488
716.936, 193.595
718.232, 184.801
719.527, 108.624
720.823, 166.503
722.118, 116.647
723.413, 119.029
724.708, 201.651
726.002, 215.559
727.297, 249.021
728.591, 175.271
729.885, 275.056
731.179, 245.169
732.472, 186.595
733.766, 220.301
735.059, 60.309
736.352, 165.533
737.645, 131.030
738.937, 80.783
740.230, 197.765
741.522, 141.037
742.814, 118.571
744.106, 163.354
745.397, 133.411
746.689, 165.726
747.980, 114.316
749.271, 116.155
750.562, 73.241
751.853, 126.554
753.143, 46.121
754.433, 41.899
755.723, 91.888
757.013, 29.889
758.303, 62.506
759.592, 30.119
760.881, 5.066
762.170, 29.068
763.459, 103.901
764.748, 87.589
766.036, 167.128
767.325, 137.536
768.613, 96.808
769.901, 85.934
771.188, 101.877
772.476, 104.889
773.763, 161.443
775.050, 162.008
776.337, 186.442
777.624, 231.750
778.910, 166.938
780.196, 240.998
781.482, 215.940
782.768, 273.763
784.054, 241.471
785.339, 272.062
786.625, 299.541
787.910, 297.907
789.195, 378.162
790.479, 422.312
791.764, 391.355
793.048, 477.294
794.332, 485.131
795.616, 521.867
796.900, 682.502
798.183, 511.038
799.467, 589.476
800.750, 697.814
802.033, 693.055
803.316, 754.180
804.598, 831.242
805.880, 797.190
807.163, 960.041
808.445, 985.795
809.726, 1161.455
811.008, 1192.019
812.289, 1280.488
813.570, 1363.861
814.851, 1430.142
816.132, 1680.327
817.413, 1730.421
818.693, 1976.123
819.973, 2158.331
821.253, 2352.148
822.533, 2651.874
823.813, 2655.509
825.092, 2907.055
826.371, 3206.510
827.650, 3260.876
828.929, 3473.153
830.208, 3612.342
831.486, 3551.444
832.764, 3543.458
834.042, 3687.389
835.320, 3630.233
836.598, 3650.993
837.875, 3700.675
839.152, 3577.272
840.429, 3655.797
841.706, 3685.238
842.983, 3720.605
844.259, 3830.894
845.536, 3748.109
846.812, 3928.249
848.088, 4082.308
849.363, 4221.288
850.639, 4480.202
851.914, 4573.053
853.189, 4915.828
854.464, 5176.525
855.739, 5657.167
857.013, 5873.478
858.288, 6028.673
859.562, 6622.100
860.836, 7034.084
862.110, 7146.810
863.383, 7570.281
864.656, 7766.384
865.930, 8012.056
867.203, 8097.593
868.475, 8202.769
869.748, 8045.605
871.020, 8554.048
872.292, 8972.860
873.564, 9579.279
874.836, 10789.897
876.108, 11366.496
877.379, 12204.248
878.650, 12689.751
879.922, 13747.696
881.192, 14583.408
882.463, 15451.624
883.733, 16178.454
885.004, 16640.055
886.274, 16643.227
887.544, 16866.186
888.813, 16172.102
890.083, 15599.332
891.352, 15044.653
892.621, 14474.059
893.890, 14354.058
895.159, 14117.562
896.427, 14203.426
897.695, 14780.438
898.964, 15306.294
900.232, 15906.089
901.499, 17157.088
902.767, 18347.951
904.034, 19681.494
905.301, 21602.697
906.568, 23592.934
907.835, 25982.445
909.102, 27988.822
910.368, 30495.705
911.634, 32775.961
912.900, 34305.273
914.166, 34932.168
915.432, 34983.277
916.697, 34052.160
917.962, 32665.166
919.227, 29932.000
920.492, 26723.248
921.757, 23926.551
923.021, 21089.592
924.285, 18427.066
925.550, 16096.641
926.813, 14060.433
928.077, 12230.249
929.341, 10952.492
930.604, 9760.367
931.867, 8527.327
933.130, 7616.346
934.393, 7028.069
935.655, 6150.426
936.918, 5774.510
938.180, 5034.883
939.442, 4648.498
940.703, 4528.117
941.965, 4127.146
943.226, 3749.372
944.488, 3582.481
945.749, 3492.965
947.009, 3385.500
948.270, 3247.127
949.530, 3167.766
950.791, 3270.420
952.051, 3045.089
953.311, 3156.777
954.570, 3323.490
955.830, 3310.219
957.089, 3213.967
958.348, 3055.729
959.607, 2990.511
960.866, 2777.311
962.124, 2590.142
963.383, 2567.992
964.641, 2259.865
965.899, 2283.782
967.156, 2154.721
968.414, 2152.692
969.671, 2043.686
970.928, 2211.702
972.185, 2342.742
973.442, 2478.812
974.699, 2905.909
975.955, 2926.030
977.211, 3155.180
978.468, 3435.361
979.723, 3324.576
980.979, 3060.826
982.234, 3203.109
983.490, 2522.434
984.745, 2290.212
986.000, 2149.600
987.254, 1653.021
988.509, 1605.062
989.763, 1375.550
991.017, 1276.032
992.271, 1243.684
993.525, 1123.453
994.779, 1004.444
996.032, 885.994
997.285, 924.946
998.538, 747.502
999.791, 838.250
1001.044, 654.680
1002.296, 829.545
1003.548, 674.241
1004.800, 737.441
1006.052, 730.258
1007.304, 698.386
1008.555, 856.527
1009.807, 914.907
1011.058, 1071.874
1012.309, 1188.819
1013.559, 1346.383
1014.810, 1589.133
1016.060, 2002.604
1017.310, 2102.061
1018.560, 2257.099
1019.810, 2210.844
1021.060, 2348.873
1022.309, 2068.900
1023.558, 1972.074
1024.807, 1738.729
1026.056, 1674.578
1027.305, 1676.150
1028.553, 1803.858
1029.801, 1627.716
1031.049, 1597.717
1032.297, 1861.903
1033.545, 1934.224
1034.793, 1985.703
1036.040, 2234.335
1037.287, 2300.139
1038.534, 2346.081
1039.781, 2634.145
1041.027, 2402.340
1042.274, 2586.662
1043.520, 2503.103
1044.766, 2205.684
1046.012, 2172.396
1047.257, 2013.228
1048.503, 1955.196
1049.748, 1854.137
1050.993, 1720.519
1052.238, 1652.869
1053.483, 1525.344
1054.727, 1411.932
1055.971, 1423.621
1057.216, 1493.446
1058.459, 1446.358
1059.703, 1453.378
1060.947, 1450.476
1062.190, 1373.676
1063.433, 1297.967
1064.676, 1219.348
1065.919, 1144.801
1067.162, 1171.322
1068.404, 1150.908
1069.646, 1193.550
1070.888, 1436.251
1072.130, 1551.021
1073.372, 1749.855
1074.613, 2186.756
1075.855, 2395.720
1077.096, 2889.738
1078.337, 3548.812
1079.578, 4161.938
1080.818, 5150.115
1082.059, 6096.346
1083.299, 7058.627
1084.539, 8068.959
1085.779, 8807.340
1087.018, 8874.770
1088.258, 8409.251
1089.497, 7473.772
1090.736, 6169.342
1091.975, 4948.955
1093.213, 4094.611
1094.452, 3215.311
1095.690, 2453.049
1096.928, 2090.829
1098.166, 1617.664
1099.404, 1390.642
1100.642, 1150.944
1101.879, 969.601
1103.116, 859.731
1104.353, 821.824
1105.590, 593.059
1106.827, 571.299
1108.063, 519.611
1109.299, 375.838
1110.536, 459.729
1111.771, 394.048
1113.007, 461.781
1114.243, 396.533
1115.478, 210.966
1116.713, 226.731
1117.948, 231.166
1119.183, 136.755
1120.418, 297.255
1121.652, 656.352
1122.886, 887.025
1124.120, 762.972
1125.354, 468.764
1126.588, 326.945
1127.821, 60.826
1129.055, 96.309
1130.288, 118.313
1131.521, 53.738
1132.753, 29.688
1133.986, 36.582
1135.218, 89.270
1136.450, 78.735
1137.682, 29.844
1138.914, 89.946
1140.146, 4.944
1141.377, 95.640
1142.609, 23.132
1143.840, 114.838
1145.071, 61.258
1146.301, 42.171
1147.532, 47.753
1148.762, 130.401
1149.992, 166.026
1151.222, 38.684
1152.452, 55.938
1153.682, 181.946
1154.911, 82.158
1156.140, 109.502
1157.369, 113.773
1158.598, 127.376
1159.827, 124.532
1161.055, 111.408
1162.284, 86.839
1163.512, 102.535
1164.740, 36.872
1165.967, 82.463
1167.195, 20.100
1168.422, 41.361
1169.650, 44.562
1170.877, 37.946
1172.103, 10.150
1173.330, 72.709
1174.557, 128.967
1175.783, 30.194
1177.009, 15.057
1178.235, 126.998
1179.461, 102.541
1180.686, 56.035
1181.912, 115.717
1183.137, 160.496
1184.362, 98.611
1185.587, 146.816
1186.811, 135.780
1188.036, 221.268
1189.260, 190.473
1190.484, 188.704
1191.708, 171.937
1192.932, 186.032
1194.155, 213.510
1195.378, 135.602
1196.602, 132.277
1197.825, 246.594
1199.047, 194.243
1200.270, 126.776
1201.492, 212.788
1202.715, 78.541
1203.937, 215.943
1205.159, 177.138
1206.380, 247.275
1207.602, 155.587
1208.823, 251.029
1210.044, 168.826
1211.265, 202.019
1212.486, 203.884
1213.707, 192.459
1214.927, 275.532
1216.147, 149.347
1217.367, 207.147
1218.587, 154.965
1219.807, 112.940
1221.027, 157.723
1222.246, 179.652
1223.465, 176.174
1224.684, 185.437
1225.903, 183.969
1227.121, 159.742
1228.340, 181.580
1229.558, 154.103
1230.776, 166.471
1231.994, 138.495
1233.212, 140.951
1234.429, 120.754
1235.646, 105.113
1236.864, 121.587
1238.081, 109.932
1239.297, 106.672
1240.514, 106.722
1241.730, 91.590
1242.947, 92.909
1244.163, 77.061
1245.378, 59.227
1246.594, 47.409
1247.810, 38.755
1249.025, 7.971
1250.240, 84.966
1251.455, 66.409
1252.670, 77.579
1253.885, 73.701
1255.099, 107.942
1256.313, 8.969
1257.527, 112.911
1258.741, 63.688
1259.955, 30.564
1261.168, 124.166
1262.382, 22.825
1263.595, 149.433
1264.808, 124.979
1266.021, 172.492
1267.233, 46.146
1268.446, 141.564
1269.658, 89.182
1270.870, 137.513
1272.082, 54.777
1273.294, 64.688
1274.505, 53.185
1275.716, 67.015
1276.928, 37.876
1278.139, 84.632
1279.349, 99.865
1280.560, 86.444
1281.770, 185.916
1282.981, 93.740
1284.191, 149.056
1285.401, 57.324
1286.610, 138.383
1287.820, 71.290
1289.029, 78.944
1290.239, 102.005
1291.448, 16.370
1292.656, 130.620
1293.865, 79.390
1295.073, 76.462
1296.282, 26.085
1297.490, 95.855
1298.698, 87.101
1299.906, 57.720
1301.113, 36.002
1302.320, 91.252
1303.528, 122.253
1304.735, 36.656
1305.942, 1.933
1307.148, 72.853
1308.355, 21.557
1309.561, 76.664
1310.767, 8.752
1311.973, 60.151
1313.179, 42.899
1314.384, 17.308
1315.590, 23.806
1316.795, 15.328
1318.000, 23.442
1319.205, 12.562
1320.410, 30.395
1321.614, 5.313
1322.819, 43.688
1324.023, 88.382
1325.227, 60.444
1326.431, 55.199
1327.634, 52.882
1328.838, 79.505
1330.041, 185.009
1331.244, 12.536
1332.447, 66.840
1333.650, 41.153
1334.852, 20.403
1336.055, 79.585
1337.257, 48.707
1338.459, 70.766
1339.661, 49.765
1340.862, 114.701
1342.064, 18.581
1343.265, 117.393
1344.466, 38.146
1345.667, 53.836
1346.868, 109.463
1348.068, 142.032
1349.269, 48.545
1350.469, 185.996
1351.669, 150.394
1352.869, 133.737
1354.069, 258.028
1355.268, 85.270
1356.468, 234.458
1357.667, 119.598
1358.866, 176.688
1360.065, 234.730
1361.263, 233.729
1362.462, 101.682
1363.660, 182.588
1364.858, 102.449
1366.056, 184.268
1367.254, 296.046
1368.451, 283.789
1369.649, 244.498
1370.846, 314.808
1372.043, 183.457
1373.240, 253.082
1374.436, 220.709
1375.633, 186.297
1376.829, 251.636
1378.025, 170.876
1379.221, 261.982
1380.417, 227.987
1381.613, 259.214
1382.808, 280.371
1384.003, 326.458
1385.199, 346.499
1386.393, 261.113
1387.588, 362.628
1388.783, 291.052
1389.977, 223.486
1391.171, 302.116
1392.365, 255.204
1393.559, 298.876
1394.753, 191.996
1395.946, 248.426
1397.140, 257.006
1398.333, 222.101
1399.526, 264.625
1400.719, 269.909
1401.911, 311.212
1403.104, 372.738
1404.296, 298.156
1405.488, 363.742
1406.680, 394.688
1407.872, 309.783
1409.063, 393.858
1410.255, 253.128
1411.446, 357.077
1412.637, 237.431
1413.828, 325.962
1415.018, 315.191
1416.209, 332.628
1417.399, 518.631
1418.589, 446.800
1419.779, 410.753
1420.969, 265.308
1422.159, 232.226
1423.348, 298.924
1424.537, 263.343
1425.726, 253.420
1426.915, 321.598
1428.104, 221.652
1429.293, 276.904
1430.481, 232.075
1431.669, 275.605
1432.857, 244.172
1434.045, 250.706
1435.233, 319.606
1436.420, 259.464
1437.608, 247.582
1438.795, 349.809
1439.982, 235.372
1441.169, 297.338
1442.355, 339.827
1443.542, 268.926
1444.728, 357.822
1445.914, 263.483
1447.100, 431.756
1448.286, 290.160
1449.472, 295.154
1450.657, 437.037
1451.842, 303.387
