##NAMES=Epidote
##RRUFFID=R040089
##IDEAL CHEMISTRY=Ca_2_Fe^3+^Al_2_(Si_2_O_7_)(SiO_4_)O(OH)
##LOCALITY=Grafton County, New Hampshire, USA
##OWNER=RRUFF
##SOURCE=University of Arizona Mineral Museum
##DESCRIPTION=Dark green coarsely crystalline massive
##STATUS=The identification of this mineral has been confirmed by X-ray diffraction and chemical analysis
##URL=rruff.info/R040089
##MEASURED CHEMISTRY=Ca_2.00_(Al_2.36_Fe^3+^_0.64_)[Si_2.00_O_7_][Si_1.00_O_4_]O(OH)
##PIN_ID=M00383
##ORIENTATION=Laser parallel to a [1 0 0]. Fiducial mark perpendicular to laser is parallel to b* (0 1 0)
53.228, 0.000
54.634, 241.797
56.040, 466.982
57.445, 163.072
58.850, 163.091
60.254, 350.475
61.659, 514.229
63.063, 492.867
64.467, 458.382
65.871, 413.150
67.274, 205.472
68.678, 199.585
70.081, 139.629
71.484, 7.701
72.886, 22.940
74.288, 0.034
75.690, 38.790
77.092, 104.688
78.494, 84.843
79.895, 40.390
81.296, 81.615
82.697, 419.169
84.097, 903.578
85.498, 1325.270
86.898, 2068.367
88.298, 2991.231
89.697, 4241.646
91.097, 5782.257
92.496, 6889.027
93.895, 7210.938
95.293, 6825.004
96.692, 5987.390
98.090, 4955.139
99.488, 4169.688
100.885, 3546.041
102.283, 3040.287
103.680, 2716.494
105.077, 2462.139
106.473, 2435.637
107.870, 2296.908
109.266, 2433.370
110.662, 2337.560
112.057, 2401.936
113.453, 2236.670
114.848, 2201.175
116.243, 1825.997
117.638, 1710.916
119.032, 1455.905
120.426, 1280.951
121.820, 1126.050
123.214, 941.200
124.608, 1098.735
126.001, 895.614
127.394, 600.842
128.787, 636.120
130.179, 361.452
131.571, 286.834
132.963, 302.269
134.355, 27.752
135.747, 3.470
137.138, 109.227
138.529, 100.102
139.920, 120.166
141.311, 129.731
142.701, 149.621
144.091, 49.416
145.481, 29.418
146.870, 110.284
148.260, 259.661
149.649, 398.951
151.038, 588.502
152.426, 698.520
153.815, 778.855
155.203, 1019.183
156.591, 1209.480
157.979, 1479.741
159.366, 1339.945
160.753, 1780.078
162.140, 1810.136
163.527, 2140.125
164.913, 2750.049
166.300, 3149.914
167.686, 4209.723
169.071, 4769.477
170.457, 6089.182
171.842, 6708.809
173.227, 7598.355
174.612, 7737.801
175.996, 7157.123
177.381, 6696.309
178.765, 5565.283
180.149, 4933.948
181.532, 3722.281
182.915, 3080.389
184.299, 2548.384
185.681, 2176.320
187.064, 1770.604
188.446, 1452.127
189.828, 1280.047
191.210, 1047.985
192.592, 1015.939
193.973, 963.914
195.355, 721.908
196.736, 899.921
198.116, 817.956
199.497, 1056.013
200.877, 1134.092
202.257, 1432.193
203.637, 1930.320
205.016, 2228.473
206.395, 2666.649
207.774, 2894.849
209.153, 3273.066
210.532, 3311.311
211.910, 3369.584
213.288, 3397.887
214.666, 3266.219
216.043, 3224.919
217.421, 3141.617
218.798, 3316.885
220.175, 3640.245
221.551, 3735.312
222.928, 4055.235
224.304, 4358.215
225.680, 5042.740
227.055, 5893.409
228.431, 7031.152
229.806, 8495.198
231.181, 9685.866
232.556, 11234.573
233.930, 11909.925
235.304, 12294.803
236.678, 11908.892
238.052, 10830.153
239.426, 10029.692
240.799, 8600.756
242.172, 8109.395
243.545, 7108.285
244.917, 6859.807
246.290, 6668.680
247.662, 6423.633
249.034, 6440.342
250.405, 6016.244
251.777, 5720.836
253.148, 4952.787
254.519, 4363.725
255.889, 3384.541
257.260, 2745.191
258.630, 2215.651
260.000, 1695.898
261.370, 1575.786
262.739, 1275.236
264.108, 1304.226
265.477, 1272.979
266.846, 1391.630
268.215, 1790.231
269.583, 2088.814
270.951, 2807.426
272.319, 3716.076
273.686, 4494.762
275.054, 5423.484
276.421, 5782.243
277.788, 5971.035
279.154, 5099.863
280.521, 4248.725
281.887, 3287.620
283.253, 2476.549
284.619, 2175.466
285.984, 1773.736
287.349, 1521.448
288.714, 1558.472
290.079, 1326.232
291.444, 1463.223
292.808, 1429.065
294.172, 1475.142
295.536, 1280.155
296.899, 1204.941
298.263, 1229.878
299.626, 1152.723
300.989, 1155.361
302.351, 954.462
303.714, 998.291
305.076, 796.007
306.438, 936.268
307.799, 1073.426
309.161, 1094.019
310.522, 1326.002
311.883, 1340.396
313.244, 1455.858
314.604, 1221.967
315.965, 1188.928
317.325, 1096.404
318.684, 1004.271
320.044, 1043.196
321.403, 927.883
322.762, 1102.592
324.121, 1102.320
325.480, 1232.072
326.838, 1391.846
328.196, 1571.641
329.554, 1991.460
330.912, 2301.301
332.270, 2641.166
333.627, 3401.054
334.984, 3840.969
336.341, 4570.904
337.697, 5120.867
339.053, 5820.855
340.409, 6150.869
341.765, 6620.910
343.121, 7430.979
344.476, 8101.076
345.831, 9371.205
347.186, 11181.366
348.541, 12781.557
349.895, 15441.783
351.250, 16452.037
352.604, 17682.328
353.957, 17152.652
355.311, 15853.008
356.664, 13833.399
358.017, 11393.806
359.370, 9423.268
360.722, 7263.542
362.075, 5693.539
363.427, 4474.090
364.779, 3594.674
366.130, 2855.290
367.482, 2205.939
368.833, 1806.619
370.184, 1377.332
371.535, 1064.076
372.885, 704.853
374.235, 433.661
375.585, 187.501
376.935, 111.629
378.285, 217.759
379.634, 338.913
380.983, 498.207
382.332, 444.805
383.680, 410.758
385.029, 260.026
386.377, 54.505
387.725, 120.924
389.073, 596.314
390.420, 854.686
391.767, 1389.050
393.114, 1840.422
394.461, 2299.818
395.808, 2409.246
397.154, 2318.719
398.500, 2038.238
399.846, 1519.810
401.191, 982.442
402.537, 521.149
403.882, 140.922
405.227, 110.228
406.571, 174.374
407.916, 330.542
409.260, 420.797
410.604, 396.185
411.948, 345.692
413.291, 292.293
414.635, 1.019
415.978, 317.374
417.321, 677.794
418.663, 1237.263
420.006, 1881.793
421.348, 2821.387
422.690, 3701.055
424.031, 5340.797
425.373, 6780.615
426.714, 8070.520
428.055, 9410.506
429.396, 10090.569
430.736, 10750.701
432.077, 10880.915
433.417, 11271.214
434.757, 11781.599
436.096, 12052.068
437.436, 13052.630
438.775, 13703.273
440.114, 14943.995
441.452, 15904.815
442.791, 16825.734
444.129, 17539.131
445.467, 18087.832
446.805, 18559.018
448.142, 18490.291
449.480, 18671.658
450.817, 19093.127
452.154, 19374.688
453.490, 19266.344
454.827, 18808.100
456.163, 17939.961
457.499, 17391.900
458.835, 15863.937
460.170, 15466.058
461.505, 14508.291
462.840, 13780.626
464.175, 13013.089
465.510, 12315.665
466.844, 11838.364
468.178, 11011.195
469.512, 10084.154
470.846, 9507.209
472.179, 8550.346
473.512, 7793.543
474.845, 6896.800
476.178, 6140.101
477.511, 5323.447
478.843, 4776.836
480.175, 4440.263
481.507, 3743.723
482.839, 3607.209
484.170, 3130.724
485.501, 3014.262
486.832, 2877.825
488.163, 2631.411
489.493, 2715.020
490.823, 2578.650
492.153, 2642.304
493.483, 2615.977
494.813, 2519.669
496.142, 2673.379
497.471, 2807.108
498.800, 2920.854
500.129, 3104.617
501.457, 3458.396
502.785, 3862.191
504.113, 4116.003
505.441, 4729.830
506.769, 5193.674
508.096, 5937.530
509.423, 6821.401
510.750, 7215.287
512.077, 7949.186
513.403, 8353.095
514.729, 8287.019
516.055, 8230.954
517.381, 7324.904
518.706, 6688.863
520.032, 5542.838
521.357, 4706.823
522.681, 3850.821
524.006, 3044.828
525.330, 2592.845
526.655, 1931.871
527.978, 1672.904
529.302, 1290.946
530.626, 1011.995
531.949, 863.051
533.272, 668.113
534.595, 571.182
535.917, 526.926
537.239, 581.633
538.562, 554.938
539.883, 492.494
541.205, 570.125
542.527, 532.171
543.848, 558.425
545.169, 524.665
546.489, 450.229
547.810, 668.928
549.130, 733.085
550.450, 842.255
551.770, 1095.436
553.090, 1297.627
554.409, 1630.830
555.728, 1958.042
557.047, 2400.263
558.366, 3010.493
559.685, 3594.731
561.003, 4729.577
562.321, 6084.500
563.639, 7909.557
564.956, 10529.316
566.274, 13946.111
567.591, 18265.053
568.908, 21999.033
570.225, 24737.127
571.541, 24440.363
572.857, 20934.238
574.173, 16394.881
575.489, 12358.288
576.805, 9537.814
578.120, 7570.368
579.435, 6482.755
580.750, 6048.183
582.065, 5722.454
583.380, 6007.748
584.694, 6393.799
586.008, 7029.529
587.322, 8042.807
588.635, 8875.773
589.949, 10460.764
591.262, 11816.456
592.575, 13252.605
593.887, 15069.795
595.200, 16455.830
596.512, 18902.598
597.824, 21196.715
599.136, 24886.227
600.447, 26235.674
601.759, 28271.746
603.070, 30750.340
604.381, 31466.891
605.692, 30864.664
607.002, 29601.406
608.312, 27249.574
609.622, 24646.725
610.932, 21694.061
612.242, 19260.713
613.551, 17217.057
614.860, 15260.721
616.169, 14275.035
617.478, 12827.431
618.786, 11664.192
620.094, 10177.921
621.402, 8761.515
622.710, 7872.331
624.018, 6464.150
625.325, 5977.479
626.632, 4818.932
627.939, 4089.144
629.246, 3813.365
630.552, 3307.658
631.859, 2984.614
633.165, 2640.408
634.471, 2382.953
635.776, 2180.594
637.082, 1974.213
638.387, 1872.271
639.692, 1724.679
640.996, 1596.033
642.301, 1460.175
643.605, 1452.069
644.909, 1250.593
646.213, 1252.278
647.516, 1144.710
648.820, 1096.093
650.123, 1046.188
651.426, 1105.113
652.729, 1133.815
654.031, 1106.463
655.333, 1137.059
656.636, 1159.600
657.937, 1346.087
659.239, 1304.521
660.540, 1308.899
661.842, 1375.223
663.142, 1274.491
664.443, 1292.703
665.744, 1309.859
667.044, 1174.958
668.344, 1210.001
669.644, 1046.988
670.944, 1066.917
672.243, 1064.789
673.542, 938.601
674.841, 1019.356
676.140, 889.053
677.438, 913.689
678.737, 908.268
680.035, 1016.787
681.333, 1097.245
682.630, 1069.644
683.928, 1141.981
685.225, 1179.259
686.522, 1184.476
687.819, 1264.630
689.115, 1197.724
690.412, 1203.756
691.708, 1228.726
693.004, 1204.378
694.300, 1248.513
695.595, 1234.384
696.890, 1286.275
698.185, 1356.228
699.480, 1413.229
700.775, 1512.268
702.069, 1494.307
703.363, 1577.300
704.657, 1473.231
705.951, 1526.098
707.244, 1331.899
708.538, 1094.635
709.831, 997.306
711.124, 867.912
712.416, 684.451
713.709, 604.924
715.001, 508.331
716.293, 305.672
717.585, 289.939
718.876, 227.135
720.167, 205.256
721.459, 182.329
722.749, 80.365
724.040, 54.396
725.331, 3.561
726.621, 36.558
727.911, 2.433
729.201, 45.642
730.490, 74.847
731.780, 12.205
733.069, 59.684
734.358, 56.310
735.646, 104.081
736.935, 85.022
738.223, 100.817
739.511, 112.398
740.799, 106.847
742.087, 67.469
743.374, 62.245
744.661, 94.171
745.948, 105.265
747.235, 112.443
748.522, 128.979
749.808, 110.611
751.094, 122.420
752.380, 80.413
753.666, 166.566
754.951, 165.926
756.236, 112.492
757.521, 153.235
758.806, 121.177
760.091, 141.301
761.375, 125.618
762.659, 149.118
763.943, 133.814
765.227, 137.697
766.511, 127.770
767.794, 124.025
769.077, 82.462
770.360, 94.056
771.643, 64.815
772.925, 135.722
774.207, 88.814
775.489, 88.065
776.771, 45.474
778.053, 63.019
779.334, 88.707
780.615, 60.552
781.896, 42.536
783.177, 12.652
784.457, 17.118
785.738, 3.791
787.018, 88.360
788.298, 29.853
789.577, 20.256
790.857, 107.568
792.136, 37.804
793.415, 106.957
794.694, 105.035
795.972, 140.038
797.251, 183.969
798.529, 256.829
799.807, 202.621
801.084, 247.345
802.362, 243.001
803.639, 295.592
804.916, 320.118
806.193, 393.582
807.470, 360.984
808.746, 395.327
810.022, 491.611
811.298, 489.836
812.574, 478.002
813.850, 563.292
815.125, 637.160
816.400, 695.153
817.675, 780.089
818.950, 873.969
820.224, 960.792
821.499, 1047.560
822.773, 1102.272
824.047, 1320.930
825.320, 1404.533
826.594, 1573.082
827.867, 1775.578
829.140, 1898.021
830.413, 2084.411
831.685, 2242.749
832.958, 2412.035
834.230, 2497.269
835.502, 2425.453
836.774, 2671.585
838.045, 2691.669
839.316, 2755.702
840.588, 2884.685
841.858, 2797.620
843.129, 2878.508
844.400, 2919.347
845.670, 2905.139
846.940, 3099.882
848.210, 3042.581
849.479, 3035.231
850.749, 3215.840
852.018, 3213.400
853.287, 3391.919
854.556, 3677.394
855.824, 3704.825
857.093, 3998.210
858.361, 4035.558
859.629, 4326.867
860.896, 4509.144
862.164, 4762.376
863.431, 5121.569
864.698, 5164.722
865.965, 5667.841
867.232, 5966.921
868.498, 6185.968
869.764, 6484.383
871.030, 6732.696
872.296, 6920.715
873.562, 7098.608
874.827, 7196.367
876.092, 7903.661
877.357, 8220.565
878.622, 8954.938
879.886, 9457.151
881.151, 9941.726
882.415, 10573.498
883.679, 11172.753
884.942, 11626.157
886.206, 12276.506
887.469, 12646.991
888.732, 13104.411
889.995, 13632.968
891.258, 14250.473
892.520, 14767.195
893.782, 15364.209
895.044, 15903.649
896.306, 16033.366
897.568, 16431.041
898.829, 17427.980
900.090, 17824.439
901.351, 19039.828
902.612, 20726.344
903.872, 21862.104
905.133, 24300.477
906.393, 26163.434
907.653, 29246.432
908.912, 31802.781
910.172, 34596.578
911.431, 37942.410
912.690, 39806.992
913.949, 40612.582
915.208, 44056.707
916.466, 42891.848
917.724, 43946.758
918.982, 42452.332
920.240, 40318.180
921.498, 40076.703
922.755, 36654.535
924.012, 34174.254
925.269, 31279.588
926.526, 28467.926
927.782, 25906.385
929.039, 23557.596
930.295, 21107.781
931.551, 19426.422
932.806, 16616.918
934.062, 15808.629
935.317, 13352.310
936.572, 12067.891
937.827, 10812.785
939.082, 9309.811
940.336, 8756.056
941.590, 7732.089
942.844, 6929.308
944.098, 6615.971
945.352, 5723.264
946.605, 5570.603
947.859, 5178.121
949.112, 4837.739
950.364, 4687.949
951.617, 4484.871
952.869, 4297.042
954.121, 4249.259
955.373, 4112.753
956.625, 4063.414
957.877, 3921.289
959.128, 3886.204
960.379, 3900.160
961.630, 3777.166
962.881, 3749.210
964.131, 3830.297
965.381, 3506.411
966.631, 3561.558
967.881, 3327.742
969.131, 3351.961
970.380, 3353.214
971.630, 3378.505
972.879, 3628.833
974.128, 3797.189
975.376, 3940.576
976.625, 4523.997
977.873, 4801.447
979.121, 5420.934
980.369, 6200.458
981.616, 6310.019
982.864, 6969.614
984.111, 6769.248
985.358, 6188.914
986.605, 5918.612
987.851, 4868.349
989.097, 4233.117
990.344, 3588.918
991.589, 2956.751
992.835, 2684.620
994.081, 2241.521
995.326, 2005.455
996.571, 1692.423
997.816, 1519.426
999.061, 1309.467
1000.305, 1214.015
1001.550, 1014.130
1002.794, 912.115
1004.037, 833.956
1005.281, 806.263
1006.525, 720.702
1007.768, 681.807
1009.011, 645.178
1010.254, 745.252
1011.496, 715.673
1012.739, 817.583
1013.981, 825.033
1015.223, 992.079
1016.465, 1072.468
1017.706, 1241.729
1018.948, 1457.289
1020.189, 1669.815
1021.430, 1863.477
1022.671, 2116.146
1023.911, 2228.629
1025.152, 2429.587
1026.392, 2506.436
1027.632, 2497.141
1028.872, 2570.199
1030.111, 2521.332
1031.350, 2435.525
1032.590, 2513.795
1033.829, 2562.148
1035.067, 2685.566
1036.306, 2712.357
1037.544, 2923.361
1038.782, 3190.387
1040.020, 3136.013
1041.258, 3395.873
1042.495, 3498.830
1043.733, 3564.113
1044.970, 3749.243
1046.207, 3692.454
1047.443, 3666.928
1048.680, 3725.322
1049.916, 3374.065
1051.152, 3270.954
1052.388, 3245.639
1053.624, 2975.457
1054.859, 2832.325
1056.094, 2544.227
1057.329, 2534.314
1058.564, 2800.633
1059.799, 2531.547
1061.033, 2285.934
1062.268, 1693.420
1063.502, 1467.409
1064.735, 1384.373
1065.969, 1170.155
1067.202, 1206.676
1068.436, 1140.654
1069.669, 1023.955
1070.902, 1181.112
1072.134, 1163.355
1073.367, 1283.753
1074.599, 1407.275
1075.831, 1495.775
1077.062, 1815.190
1078.294, 2116.845
1079.525, 2425.775
1080.757, 3027.772
1081.988, 3427.656
1083.218, 4183.057
1084.449, 5201.208
1085.679, 6106.391
1086.909, 7331.791
1088.139, 8276.953
1089.369, 9173.041
1090.599, 9971.811
1091.828, 9387.104
1093.057, 8815.560
1094.286, 7855.089
1095.515, 6020.508
1096.744, 5005.988
1097.972, 3823.121
1099.200, 3138.117
1100.428, 2446.451
1101.656, 1927.109
1102.883, 1597.542
1104.111, 1322.628
1105.338, 1159.293
1106.565, 1100.015
1107.791, 834.408
1109.018, 807.230
1110.244, 850.522
1111.470, 732.928
1112.696, 625.475
1113.922, 610.428
1115.147, 567.750
1116.373, 475.875
1117.598, 439.809
1118.823, 384.083
1120.047, 346.507
1121.272, 303.413
1122.496, 305.185
1123.720, 302.312
1124.944, 315.882
1126.168, 241.506
1127.391, 183.135
1128.615, 264.794
1129.838, 257.348
1131.061, 143.342
1132.283, 187.780
1133.506, 110.371
1134.728, 174.252
1135.950, 151.700
1137.172, 79.060
1138.394, 94.554
1139.615, 93.434
1140.837, 32.814
1142.058, 93.232
1143.279, 50.850
1144.499, 16.513
1145.720, 51.779
1146.940, 33.675
1148.160, 6.014
1149.380, 48.833
1150.600, 41.121
1151.819, 6.482
1153.038, 14.387
1154.257, 78.710
1155.476, 53.135
1156.695, 101.054
1157.913, 9.731
1159.132, 27.679
1160.350, 47.190
1161.568, 64.360
1162.785, 41.085
1164.003, 66.700
1165.220, 72.935
1166.437, 69.944
1167.654, 96.554
1168.871, 69.518
1170.087, 62.441
1171.304, 45.028
1172.520, 56.312
1173.736, 7.880
1174.951, 31.541
1176.167, 59.161
1177.382, 105.677
1178.597, 126.365
1179.812, 122.652
1181.027, 120.129
1182.241, 12.513
1183.455, 17.165
1184.669, 43.882
1185.883, 29.616
1187.097, 17.445
1188.311, 9.555
1189.524, 7.262
1190.737, 17.402
1191.950, 8.208
1193.162, 32.912
1194.375, 31.931
1195.587, 5.215
1196.799, 6.192
1198.011, 51.078
1199.223, 4.458
1200.434, 66.606
1201.646, 42.815
1202.857, 37.417
1204.068, 2.877
1205.279, 89.124
1206.489, 78.355
1207.699, 62.790
1208.909, 24.764
1210.119, 2.617
1211.329, 69.922
1212.539, 4.486
1213.748, 62.726
1214.957, 15.480
1216.166, 26.692
1217.375, 27.871
1218.583, 27.809
1219.792, 16.416
1221.000, 52.506
1222.208, 53.230
1223.415, 54.791
1224.623, 17.793
1225.830, 3.068
1227.037, 54.880
1228.244, 22.097
1229.451, 1.883
1230.658, 28.105
1231.864, 24.315
1233.070, 76.143
1234.276, 12.941
1235.482, 30.291
1236.687, 72.406
1237.893, 20.933
1239.098, 35.919
1240.303, 58.556
1241.508, 54.006
1242.712, 7.619
1243.917, 51.297
1245.121, 54.757
1246.325, 58.062
1247.529, 36.690
1248.732, 45.283
1249.936, 36.784
1251.139, 20.039
1252.342, 13.112
1253.545, 50.124
1254.747, 8.179
1255.950, 8.345
1257.152, 49.350
1258.354, 41.065
1259.556, 2.256
1260.758, 41.452
1261.959, 25.876
1263.160, 16.870
1264.361, 32.498
1265.562, 76.965
1266.763, 62.375
1267.963, 54.743
1269.164, 74.067
1270.364, 46.350
1271.563, 48.243
1272.763, 49.462
1273.963, 54.115
1275.162, 45.260
1276.361, 99.302
1277.560, 92.375
1278.759, 53.489
1279.957, 118.377
1281.155, 146.229
1282.354, 121.040
1283.551, 92.811
1284.749, 161.663
1285.947, 159.408
1287.144, 118.096
1288.341, 115.844
1289.538, 89.393
1290.735, 153.900
1291.931, 123.892
1293.128, 99.310
1294.324, 126.854
1295.520, 83.535
1296.716, 105.745
1297.911, 147.818
1299.107, 88.220
1300.302, 46.349
1301.497, 123.764
1302.692, 57.826
1303.886, 92.396
1305.081, 125.417
1306.275, 100.838
1307.469, 96.992
1308.663, 82.194
1309.856, 114.091
1311.050, 94.019
1312.243, 107.814
1313.436, 104.600
1314.629, 88.574
1315.822, 76.974
1317.014, 53.736
1318.206, 88.451
1319.398, 77.030
1320.590, 123.257
1321.782, 98.592
1322.974, 113.883
1324.165, 141.129
1325.356, 98.333
1326.547, 99.345
1327.738, 102.890
1328.928, 64.607
1330.119, 70.766
1331.309, 88.739
1332.499, 145.668
1333.688, 154.323
1334.878, 134.172
1336.067, 128.980
1337.256, 130.574
1338.445, 130.301
1339.634, 118.731
1340.823, 105.074
1342.011, 128.676
1343.199, 151.202
1344.388, 167.724
1345.575, 105.282
1346.763, 187.739
1347.950, 74.006
1349.138, 164.745
1350.325, 174.145
1351.512, 169.435
1352.698, 178.284
1353.885, 193.226
1355.071, 136.411
1356.257, 268.926
1357.443, 119.070
1358.629, 228.929
1359.814, 204.643
1361.000, 167.664
1362.185, 180.579
1363.370, 241.440
1364.554, 163.377
1365.739, 238.361
1366.923, 231.283
1368.107, 168.763
1369.291, 214.027
1370.475, 183.087
1371.659, 188.259
1372.842, 139.349
1374.025, 135.120
1375.208, 257.087
1376.391, 211.846
1377.574, 210.045
1378.756, 191.942
1379.939, 175.967
1381.121, 96.228
1382.303, 177.252
1383.484, 152.959
1384.666, 162.321
1385.847, 220.282
1387.028, 154.588
1388.209, 151.448
1389.390, 179.001
1390.570, 85.852
1391.751, 188.854
1392.931, 91.872
1394.111, 158.800
1395.291, 117.662
1396.470, 116.560
1397.649, 152.769
1398.829, 212.707
1400.008, 156.942
1401.187, 192.698
1402.365, 126.288
1403.544, 84.172
1404.722, 204.782
1405.900, 107.442
1407.078, 131.694
1408.255, 147.311
1409.433, 142.361
1410.610, 146.164
1411.787, 154.302
1412.964, 79.214
1414.141, 163.575
1415.317, 195.217
1416.494, 108.340
1417.670, 151.939
1418.846, 101.946
1420.022, 76.483
1421.197, 126.650
1422.373, 115.283
1423.548, 128.281
1424.723, 146.106
1425.898, 76.777
1427.072, 91.549
1428.247, 92.650
1429.421, 63.409
1430.595, 163.581
1431.769, 106.713
1432.942, 154.506
1434.116, 133.868
1435.289, 104.204
1436.462, 147.935
1437.635, 139.764
1438.808, 116.928
1439.981, 130.695
1441.153, 114.321
1442.325, 118.717
1443.497, 218.463
1444.669, 94.196
1445.840, 103.089
1447.012, 167.185
1448.183, 55.455
1449.354, 102.752
1450.525, 114.263
1451.696, 98.931
