##NAMES=Epidote
##RRUFFID=R040089
##IDEAL CHEMISTRY=Ca_2_Fe^3+^Al_2_(Si_2_O_7_)(SiO_4_)O(OH)
##LOCALITY=Grafton County, New Hampshire, USA
##OWNER=RRUFF
##SOURCE=University of Arizona Mineral Museum
##DESCRIPTION=Dark green coarsely crystalline massive
##STATUS=The identification of this mineral has been confirmed by X-ray diffraction and chemical analysis
##URL=rruff.info/R040089
##MEASURED CHEMISTRY=Ca_2.00_(Al_2.36_Fe^3+^_0.64_)[Si_2.00_O_7_][Si_1.00_O_4_]O(OH)
##PIN_ID=L00423
##ORIENTATION=Laser parallel to c [0 0 1]. Fiducial mark perpendicular to laser is parallel to b* (0 1 0)
53.228, 0.000
54.634, 8.617
56.040, 3.898
57.445, 92.858
58.850, 245.029
60.254, 108.642
61.659, 32.167
63.063, 227.996
64.467, 461.842
65.871, 566.225
67.274, 573.089
68.678, 406.586
70.081, 119.910
71.484, 114.042
72.886, 12.462
74.288, 435.242
75.690, 1113.515
77.092, 1295.045
78.494, 1499.519
79.895, 1902.597
81.296, 1722.775
82.697, 1812.916
84.097, 2212.923
85.498, 2964.738
86.898, 3780.210
88.298, 4943.625
89.697, 6844.601
91.097, 9553.062
92.496, 12159.521
93.895, 14064.174
95.293, 14307.235
96.692, 13318.858
98.090, 11549.163
99.488, 9038.270
100.885, 7436.275
102.283, 6423.272
103.680, 5469.344
105.077, 4934.561
106.473, 4688.990
107.870, 4372.688
109.266, 4125.706
110.662, 3898.094
112.057, 3659.891
113.453, 3971.133
114.848, 3769.407
116.243, 4372.549
117.638, 3958.062
119.032, 3672.979
120.426, 4097.659
121.820, 3865.623
123.214, 3808.717
124.608, 3664.724
126.001, 3710.970
127.394, 3770.295
128.787, 3952.902
130.179, 4225.642
131.571, 4678.027
132.963, 5380.250
134.355, 6102.735
135.747, 7445.580
137.138, 8328.262
138.529, 9090.891
139.920, 9563.493
141.311, 9466.077
142.701, 8978.644
144.091, 7921.202
145.481, 7013.753
146.870, 6046.236
148.260, 5188.720
149.649, 4711.205
151.038, 4153.689
152.426, 3876.172
153.815, 3418.652
155.203, 3201.125
156.591, 2933.584
157.979, 2946.027
159.366, 2948.449
160.753, 2920.848
162.140, 3033.223
163.527, 3195.572
164.913, 3427.896
166.300, 3610.192
167.686, 3762.463
169.071, 3774.705
170.457, 3546.892
171.842, 3048.993
173.227, 2531.009
174.612, 1903.945
175.996, 1390.805
177.381, 672.593
178.765, 351.312
180.149, 38.967
181.532, 192.439
182.915, 346.903
184.299, 473.420
185.681, 519.988
187.064, 490.604
188.446, 270.264
189.828, 235.965
191.210, 11.296
192.592, 216.521
193.973, 301.715
195.355, 454.879
196.736, 752.017
198.116, 1046.818
199.497, 1432.932
200.877, 1918.506
202.257, 2348.712
203.637, 2841.585
205.016, 3349.047
206.395, 3774.374
207.774, 4339.756
209.153, 4805.208
210.532, 5131.291
211.910, 5308.215
213.288, 5665.888
214.666, 5627.838
216.043, 5523.729
217.421, 5687.562
218.798, 5812.737
220.175, 6187.166
221.551, 6560.491
222.928, 6854.494
224.304, 7638.868
225.680, 8073.329
227.055, 9117.889
228.431, 9622.546
229.806, 10506.982
231.181, 10991.521
232.556, 11266.140
233.930, 11390.819
235.304, 10675.555
236.678, 10330.322
238.052, 9120.993
239.426, 8265.775
240.799, 7430.551
242.172, 7235.307
243.545, 7210.041
244.917, 7504.750
246.290, 8509.431
247.662, 9174.087
249.034, 10438.713
250.405, 11523.311
251.777, 12137.876
253.148, 12271.423
254.519, 12236.684
255.889, 11380.907
257.260, 10215.019
258.630, 8729.035
260.000, 7842.958
261.370, 6736.802
262.739, 6400.567
264.108, 5734.262
265.477, 5707.895
266.846, 6101.468
268.215, 6504.988
269.583, 7648.459
270.951, 8961.887
272.319, 11355.271
273.686, 13758.623
275.054, 16401.938
276.421, 19445.227
277.788, 21718.488
279.154, 21711.725
280.521, 19874.943
281.887, 16338.142
283.253, 12640.939
284.619, 9442.919
285.984, 7054.000
287.349, 5224.546
288.714, 4265.008
290.079, 3345.519
291.444, 3016.078
292.808, 2712.674
294.172, 2415.291
295.536, 2497.931
296.899, 2374.594
298.263, 2677.284
299.626, 2739.997
300.989, 2920.732
302.351, 3321.493
303.714, 3212.277
305.076, 3513.089
306.438, 3443.927
307.799, 3494.792
309.161, 3165.684
310.522, 2886.605
311.883, 2791.556
313.244, 2296.536
314.604, 1891.548
315.965, 1567.590
317.325, 1259.663
318.684, 1178.769
320.044, 1071.906
321.403, 1227.076
322.762, 1278.279
324.121, 1562.516
325.480, 1845.787
326.838, 2078.093
328.196, 2468.434
329.554, 2735.810
330.912, 2894.223
332.270, 2487.672
333.627, 2173.158
334.984, 1570.682
336.341, 919.243
337.697, 587.844
339.053, 89.484
340.409, 268.844
341.765, 429.232
343.121, 579.904
344.476, 684.088
345.831, 766.702
347.186, 663.035
348.541, 701.299
349.895, 408.478
351.250, 234.718
352.604, 9.981
353.957, 372.114
355.311, 458.948
356.664, 550.300
358.017, 599.071
359.370, 390.963
360.722, 317.909
362.075, 116.784
363.427, 33.348
364.779, 10.515
366.130, 160.752
367.482, 135.146
368.833, 164.499
370.184, 161.803
371.535, 203.056
372.885, 225.267
374.235, 211.449
375.585, 308.652
376.935, 173.901
378.285, 107.184
379.634, 37.496
380.983, 269.210
382.332, 432.010
383.680, 935.858
385.029, 1221.760
386.377, 1821.713
387.725, 2487.713
389.073, 3238.762
390.420, 4178.861
391.767, 5069.008
393.114, 6349.205
394.461, 7119.452
395.808, 8109.749
397.154, 8750.094
398.500, 8420.489
399.846, 8000.933
401.191, 6781.448
402.537, 5992.014
403.882, 4962.633
405.227, 4153.304
406.571, 3744.031
407.916, 3294.813
409.260, 3145.674
410.604, 2896.595
411.948, 3007.609
413.291, 3208.705
414.635, 3659.918
415.978, 4541.268
417.321, 5452.731
418.663, 7054.312
420.006, 9006.026
421.348, 11527.864
422.690, 15189.853
424.031, 19341.979
425.373, 24864.256
426.714, 29656.697
428.055, 34879.297
429.396, 38032.062
430.736, 39034.984
432.077, 37838.074
433.417, 34221.320
434.757, 30774.744
436.096, 26818.324
437.436, 23282.070
438.775, 20995.988
440.114, 18890.076
441.452, 17694.324
442.791, 16638.738
444.129, 16483.307
445.467, 16718.041
446.805, 17032.939
448.142, 18608.000
449.480, 20403.232
450.817, 22798.615
452.154, 25814.172
453.490, 27389.891
454.827, 29235.760
456.163, 28991.773
457.499, 29027.920
458.835, 27764.199
460.170, 26310.625
461.505, 25737.186
462.840, 23953.871
464.175, 23020.695
465.510, 22077.656
466.844, 20924.732
468.178, 20591.924
469.512, 19219.223
470.846, 19336.623
472.179, 17864.119
473.512, 17031.721
474.845, 15989.407
476.178, 14247.182
477.511, 13345.035
478.843, 12052.989
480.175, 11281.019
481.507, 10369.125
482.839, 9637.309
484.170, 9115.569
485.501, 8783.902
486.832, 8732.308
488.163, 8530.784
489.493, 8819.330
490.823, 8887.946
492.153, 8826.633
493.483, 9185.389
494.813, 8844.213
496.142, 8683.109
497.471, 8642.071
498.800, 8151.101
500.129, 8269.547
501.457, 8226.903
502.785, 8304.452
504.113, 8392.813
505.441, 8605.091
506.769, 9133.132
508.096, 9548.948
509.423, 10283.906
510.750, 10918.887
512.077, 11576.351
513.403, 12546.224
514.729, 12407.209
516.055, 12788.315
517.381, 12699.507
518.706, 12310.775
520.032, 12262.118
521.357, 11993.533
522.681, 12725.025
524.006, 13906.595
525.330, 15547.695
526.655, 17683.316
527.978, 19190.326
529.302, 19202.830
530.626, 19462.395
531.949, 17676.857
533.272, 15000.448
534.595, 12154.970
535.917, 9664.709
537.239, 8061.409
538.562, 6830.943
539.883, 6233.456
541.205, 5686.049
542.527, 5598.719
543.848, 5571.467
545.169, 5564.292
546.489, 5537.192
547.810, 5710.170
549.130, 6003.224
550.450, 6214.012
551.770, 6749.555
553.090, 6972.831
554.409, 7516.182
555.728, 8139.604
557.047, 8783.098
558.366, 9706.665
559.685, 10710.303
561.003, 11974.263
562.321, 13928.395
563.639, 15942.735
564.956, 19587.391
566.274, 24372.215
567.591, 30440.285
568.908, 37875.586
570.225, 44387.215
571.541, 49676.418
572.857, 48303.969
574.173, 41735.797
575.489, 33762.938
576.805, 24999.926
578.120, 18940.961
579.435, 14519.094
580.750, 11674.429
582.065, 9905.996
583.380, 8880.450
584.694, 8459.747
586.008, 7805.049
587.322, 7882.263
588.635, 8260.457
589.949, 8707.442
591.262, 9594.672
592.575, 10224.415
593.887, 11379.650
595.200, 12438.922
596.512, 14067.283
597.824, 16225.995
599.136, 18173.445
600.447, 20911.146
601.759, 23665.955
603.070, 26633.469
604.381, 29639.314
605.692, 30494.182
607.002, 31320.854
608.312, 30823.477
609.622, 28408.422
610.932, 25573.621
612.242, 22533.867
613.551, 19754.945
614.860, 16973.088
616.169, 14908.576
617.478, 13130.494
618.786, 11497.882
620.094, 10273.811
621.402, 9042.617
622.710, 8290.295
624.018, 7274.471
625.325, 6576.398
626.632, 6129.284
627.939, 5388.557
629.246, 4918.043
630.552, 4643.008
631.859, 4228.843
633.165, 3866.646
634.471, 3675.036
635.776, 3175.609
637.082, 2925.648
638.387, 2638.842
639.692, 2341.030
640.996, 2041.729
642.301, 1918.247
643.605, 1676.673
644.909, 1576.698
646.213, 1496.698
647.516, 1369.672
648.820, 1293.619
650.123, 1217.539
651.426, 1193.431
652.729, 1280.294
654.031, 1282.127
655.333, 1403.932
656.636, 1615.705
657.937, 1814.455
659.239, 2128.274
660.540, 2331.204
661.842, 2625.280
663.142, 3063.530
664.443, 3122.971
665.744, 3600.569
667.044, 3676.327
668.344, 3808.164
669.644, 3837.023
670.944, 3810.850
672.243, 3653.634
673.542, 3426.373
674.841, 3403.068
676.140, 3311.717
677.438, 3273.318
678.737, 3436.873
680.035, 3562.380
681.333, 3721.839
682.630, 3896.257
683.928, 4094.659
685.225, 4385.036
686.522, 4338.397
687.819, 4563.737
689.115, 4592.064
690.412, 4611.382
691.708, 4494.688
693.004, 4494.999
694.300, 4099.286
695.595, 3826.537
696.890, 3474.731
698.185, 3215.868
699.480, 2782.946
700.775, 2489.966
702.069, 2203.926
703.363, 2024.826
704.657, 1683.666
705.951, 1538.444
707.244, 1306.160
708.538, 965.812
709.831, 803.402
711.124, 685.928
712.416, 535.390
713.709, 403.786
715.001, 374.117
716.293, 180.381
717.585, 162.576
718.876, 135.699
720.167, 82.749
721.459, 68.723
722.749, 21.382
724.040, 41.394
725.331, 70.918
726.621, 28.379
727.911, 157.969
729.201, 222.756
730.490, 144.777
731.780, 138.993
733.069, 200.402
734.358, 151.037
735.646, 262.875
736.935, 199.975
738.223, 243.305
739.511, 317.891
740.799, 251.771
742.087, 279.912
743.374, 293.331
744.661, 272.035
745.948, 274.014
747.235, 312.270
748.522, 238.824
749.808, 301.637
751.094, 285.743
752.380, 290.135
753.666, 268.815
754.951, 272.082
756.236, 225.010
757.521, 267.501
758.806, 240.271
760.091, 224.303
761.375, 252.590
762.659, 188.147
763.943, 224.940
765.227, 228.988
766.511, 150.292
767.794, 163.812
769.077, 117.554
770.360, 75.493
771.643, 178.607
772.925, 106.949
774.207, 84.482
775.489, 131.193
776.771, 114.106
778.053, 59.212
779.334, 24.480
780.615, 40.893
781.896, 15.543
783.177, 10.857
784.457, 13.953
785.738, 76.103
787.018, 36.067
788.298, 104.923
789.577, 2.694
790.857, 137.342
792.136, 113.909
793.415, 109.394
794.694, 193.796
795.972, 229.122
797.251, 242.372
798.529, 369.548
799.807, 359.654
801.084, 383.690
802.362, 498.656
803.639, 492.553
804.916, 532.382
806.193, 726.143
807.470, 704.835
808.746, 745.459
810.022, 926.016
811.298, 948.506
812.574, 1086.929
813.850, 1143.285
815.125, 1294.573
816.400, 1480.794
817.675, 1589.947
818.950, 1818.031
820.224, 2134.045
821.499, 2383.989
822.773, 2662.863
824.047, 3045.667
825.320, 3489.402
826.594, 4000.067
827.867, 4651.664
829.140, 5177.190
830.413, 5673.651
831.685, 6314.045
832.958, 6524.370
834.230, 6614.629
835.502, 6694.821
836.774, 6444.948
838.045, 6395.009
839.316, 6052.004
840.588, 5869.936
841.858, 5548.803
843.129, 5350.604
844.400, 5240.341
845.670, 4952.017
846.940, 4996.625
848.210, 4959.172
849.479, 4795.658
850.749, 5027.079
852.018, 4927.438
853.287, 5127.737
854.556, 5593.976
855.824, 5466.152
857.093, 5723.270
858.361, 5960.329
859.629, 6146.330
860.896, 6495.272
862.164, 6754.163
863.431, 7122.996
864.698, 7221.776
865.965, 7450.507
867.232, 7869.188
868.498, 7997.818
869.764, 8346.154
871.030, 8724.343
872.296, 8612.357
873.562, 9070.074
874.827, 9057.663
876.092, 9232.048
877.357, 9289.222
878.622, 9220.112
879.886, 9213.469
881.151, 9088.501
882.415, 8779.296
883.679, 8614.801
884.942, 8250.504
886.206, 8162.201
887.469, 8046.833
888.732, 7794.295
889.995, 8005.564
891.258, 7943.979
892.520, 8217.593
893.782, 8685.239
895.044, 9041.013
896.306, 9555.843
897.568, 10201.928
898.829, 11077.809
900.090, 12061.228
901.351, 13169.198
902.612, 14473.175
903.872, 16018.094
905.133, 17452.697
906.393, 19748.617
907.653, 21284.311
908.912, 23272.949
910.172, 26308.938
911.431, 27596.629
912.690, 30065.350
913.949, 31472.311
915.208, 33803.340
916.466, 35012.102
917.724, 35620.641
918.982, 35804.160
920.240, 35286.887
921.498, 34852.559
922.755, 33930.953
924.012, 31752.938
925.269, 29769.504
926.526, 28157.562
927.782, 25782.758
929.039, 24359.109
930.295, 22628.994
931.551, 21341.141
932.806, 19622.352
934.062, 18177.209
935.317, 17241.865
936.572, 16305.072
937.827, 15042.423
939.082, 14538.831
940.336, 13896.670
941.590, 13211.340
942.844, 12679.559
944.098, 12027.643
945.352, 11245.746
946.605, 10854.351
947.859, 10143.150
949.112, 9952.064
950.364, 9431.388
951.617, 9520.751
952.869, 9240.156
954.121, 9239.602
955.373, 9379.087
956.625, 9228.612
957.877, 9448.177
959.128, 9627.779
960.379, 9727.428
961.630, 10117.115
962.881, 9686.849
964.131, 9926.620
965.381, 9516.431
966.631, 9116.286
967.881, 8716.179
969.131, 8296.120
970.380, 7996.099
971.630, 7796.122
972.879, 7766.189
974.128, 7906.299
975.376, 8136.457
976.625, 8756.659
977.873, 9556.905
979.121, 10567.199
980.369, 11927.544
981.616, 13337.931
982.864, 14468.367
984.111, 15518.849
985.358, 15349.382
986.605, 14949.962
987.851, 13550.592
989.097, 12041.270
990.344, 10502.001
991.589, 8862.780
992.835, 7593.613
994.081, 6694.496
995.326, 5725.428
996.571, 5113.418
997.816, 4497.461
999.061, 3867.557
1000.305, 3476.707
1001.550, 2942.910
1002.794, 2611.167
1004.037, 2338.477
1005.281, 2001.841
1006.525, 1721.261
1007.768, 1463.738
1009.011, 1241.375
1010.254, 1105.036
1011.496, 1072.502
1012.739, 925.211
1013.981, 877.087
1015.223, 835.621
1016.465, 844.094
1017.706, 873.476
1018.948, 880.229
1020.189, 935.703
1021.430, 963.466
1022.671, 1130.936
1023.911, 1244.487
1025.152, 1413.738
1026.392, 1645.040
1027.632, 1694.650
1028.872, 1983.756
1030.111, 2237.309
1031.350, 2351.930
1032.590, 2824.421
1033.829, 3074.807
1035.067, 3457.147
1036.306, 3891.672
1037.544, 4317.745
1038.782, 4908.303
1040.020, 5403.899
1041.258, 5765.882
1042.495, 6702.951
1043.733, 6992.846
1044.970, 7310.632
1046.207, 7691.868
1047.443, 7601.720
1048.680, 7883.775
1049.916, 7604.647
1051.152, 7255.945
1052.388, 7314.196
1053.624, 6824.767
1054.859, 6514.839
1056.094, 6376.691
1057.329, 6099.067
1058.564, 6233.702
1059.799, 5794.075
1061.033, 5747.858
1062.268, 5739.216
1063.502, 5442.230
1064.735, 5473.710
1065.969, 5413.453
1067.202, 5486.176
1068.436, 5745.030
1069.669, 5985.280
1070.902, 6498.805
1072.134, 7160.759
1073.367, 7705.132
1074.599, 8677.004
1075.831, 9975.768
1077.062, 11087.363
1078.294, 12916.181
1079.525, 14216.095
1080.757, 16467.193
1081.988, 18628.732
1083.218, 20847.057
1084.449, 24388.508
1085.679, 27367.043
1086.909, 30299.074
1088.139, 34678.555
1089.369, 36817.723
1090.599, 39737.387
1091.828, 40227.238
1093.057, 37576.426
1094.286, 35286.137
1095.515, 28695.475
1096.744, 23006.025
1097.972, 18294.996
1099.200, 13675.236
1100.428, 10464.415
1101.656, 8085.012
1102.883, 6394.295
1104.111, 5146.200
1105.338, 4143.444
1106.565, 3371.957
1107.791, 2873.010
1109.018, 2473.319
1110.244, 2170.129
1111.470, 1900.621
1112.696, 1669.088
1113.922, 1577.542
1115.147, 1365.870
1116.373, 1289.225
1117.598, 1212.608
1118.823, 1072.252
1120.047, 1022.801
1121.272, 967.417
1122.496, 823.219
1123.720, 892.961
1124.944, 782.907
1126.168, 789.626
1127.391, 780.684
1128.615, 655.445
1129.838, 680.200
1131.061, 647.057
1132.283, 521.740
1133.506, 624.820
1134.728, 523.866
1135.950, 508.736
1137.172, 540.904
1138.394, 491.850
1139.615, 496.974
1140.837, 581.207
1142.058, 436.128
1143.279, 453.251
1144.499, 351.653
1145.720, 290.005
1146.940, 311.360
1148.160, 280.420
1149.380, 189.596
1150.600, 224.764
1151.819, 175.943
1153.038, 138.221
1154.257, 119.198
1155.476, 4.861
1156.695, 75.949
1157.913, 49.118
1159.132, 15.200
1160.350, 5.659
1161.568, 73.334
1162.785, 33.289
1164.003, 25.249
1165.220, 95.148
1166.437, 58.234
1167.654, 88.428
1168.871, 51.460
1170.087, 120.006
1171.304, 130.038
1172.520, 62.761
1173.736, 146.791
1174.951, 50.082
1176.167, 79.128
1177.382, 132.753
1178.597, 45.390
1179.812, 101.259
1181.027, 129.577
1182.241, 54.302
1183.455, 80.903
1184.669, 83.908
1185.883, 79.426
1187.097, 113.550
1188.311, 59.554
1189.524, 101.120
1190.737, 61.058
1191.950, 111.660
1193.162, 84.319
1194.375, 114.170
1195.587, 89.963
1196.799, 91.497
1198.011, 37.394
1199.223, 69.490
1200.434, 56.378
1201.646, 79.713
1202.857, 83.039
1204.068, 114.289
1205.279, 41.483
1206.489, 91.063
1207.699, 47.815
1208.909, 37.638
1210.119, 72.530
1211.329, 8.511
1212.539, 35.549
1213.748, 1.661
1214.957, 3.831
1216.166, 52.061
1217.375, 23.379
1218.583, 57.771
1219.792, 14.259
1221.000, 46.181
1222.208, 2.425
1223.415, 55.898
1224.623, 35.175
1225.830, 16.397
1227.037, 12.552
1228.244, 118.638
1229.451, 20.684
1230.658, 109.662
1231.864, 16.599
1233.070, 76.504
1234.276, 91.330
1235.482, 80.112
1236.687, 78.850
1237.893, 105.541
1239.098, 91.188
1240.303, 108.786
1241.508, 75.341
1242.712, 155.846
1243.917, 91.310
1245.121, 135.729
1246.325, 88.166
1247.529, 140.499
1248.732, 117.802
1249.936, 163.047
1251.139, 143.309
1252.342, 124.602
1253.545, 181.708
1254.747, 142.882
1255.950, 165.130
1257.152, 177.093
1258.354, 191.169
1259.556, 542.119
1260.758, 535.929
1261.959, 853.760
1263.160, 187.614
1264.361, 220.271
1265.562, 214.235
1266.763, 189.774
1267.963, 203.253
1269.164, 188.771
1270.364, 227.151
1271.563, 190.544
1272.763, 234.963
1273.963, 245.113
1275.162, 229.358
1276.361, 287.577
1277.560, 210.548
1278.759, 217.532
1279.957, 258.399
1281.155, 216.275
1282.354, 255.270
1283.551, 207.072
1284.749, 270.797
1285.947, 282.592
1287.144, 181.340
1288.341, 221.281
1289.538, 228.881
1290.735, 232.138
1291.931, 284.900
1293.128, 265.284
1294.324, 272.546
1295.520, 275.667
1296.716, 260.624
1297.911, 212.742
1299.107, 216.795
1300.302, 226.535
1301.497, 221.739
1302.692, 270.545
1303.886, 314.160
1305.081, 275.285
1306.275, 219.737
1307.469, 220.873
1308.663, 219.067
1309.856, 226.816
1311.050, 232.730
1312.243, 220.605
1313.436, 196.469
1314.629, 171.371
1315.822, 194.458
1317.014, 207.601
1318.206, 214.406
1319.398, 199.810
1320.590, 231.684
1321.782, 223.662
1322.974, 240.802
1324.165, 196.042
1325.356, 212.396
1326.547, 201.538
1327.738, 225.381
1328.928, 185.902
1330.119, 222.295
1331.309, 202.440
1332.499, 170.547
1333.688, 183.898
1334.878, 250.697
1336.067, 240.891
1337.256, 267.563
1338.445, 228.123
1339.634, 124.976
1340.823, 208.488
1342.011, 242.166
1343.199, 185.599
1344.388, 260.628
1345.575, 234.971
1346.763, 191.886
1347.950, 162.623
1349.138, 220.711
1350.325, 251.478
1351.512, 258.752
1352.698, 238.455
1353.885, 262.763
1355.071, 243.888
1356.257, 278.110
1357.443, 272.802
1358.629, 282.113
1359.814, 278.716
1361.000, 289.928
1362.185, 307.795
1363.370, 334.208
1364.554, 262.031
1365.739, 371.826
1366.923, 272.450
1368.107, 247.015
1369.291, 294.425
1370.475, 256.404
1371.659, 204.597
1372.842, 269.671
1374.025, 268.679
1375.208, 164.737
1376.391, 213.571
1377.574, 215.262
1378.756, 224.968
1379.939, 243.226
1381.121, 247.598
1382.303, 218.496
1383.484, 214.178
1384.666, 200.423
1385.847, 197.160
1387.028, 206.084
1388.209, 157.220
1389.390, 225.420
1390.570, 168.120
1391.751, 179.566
1392.931, 155.697
1394.111, 136.713
1395.291, 193.018
1396.470, 142.283
1397.649, 111.828
1398.829, 179.447
1400.008, 127.635
1401.187, 145.393
1402.365, 164.033
1403.544, 144.623
1404.722, 125.747
1405.900, 168.665
1407.078, 85.329
1408.255, 163.237
1409.433, 160.682
1410.610, 128.064
1411.787, 142.105
1412.964, 120.057
1414.141, 95.122
1415.317, 159.621
1416.494, 92.458
1417.670, 78.821
1418.846, 120.242
1420.022, 98.266
1421.197, 107.157
1422.373, 86.025
1423.548, 53.461
1424.723, 65.557
1425.898, 67.013
1427.072, 47.674
1428.247, 42.940
1429.421, 24.315
1430.595, 41.397
1431.769, 92.636
1432.942, 5.089
1434.116, 0.602
1435.289, 61.964
1436.462, 49.571
