##NAMES=Epidote
##RRUFFID=R040089
##IDEAL CHEMISTRY=Ca_2_Fe^3+^Al_2_(Si_2_O_7_)(SiO_4_)O(OH)
##LOCALITY=Grafton County, New Hampshire, USA
##OWNER=RRUFF
##SOURCE=University of Arizona Mineral Museum
##DESCRIPTION=Dark green coarsely crystalline massive
##STATUS=The identification of this mineral has been confirmed by X-ray diffraction and chemical analysis
##URL=rruff.info/R040089
##MEASURED CHEMISTRY=Ca_2.00_(Al_2.36_Fe^3+^_0.64_)[Si_2.00_O_7_][Si_1.00_O_4_]O(OH)
##PIN_ID=L00423
##ORIENTATION=Laser parallel to c [0 0 1]. Fiducial mark perpendicular to laser is parallel to b* (0 1 0)
53.228, 0.000
54.634, 105.211
56.040, 9.131
57.445, 210.754
58.850, 300.668
60.254, 78.967
61.659, 97.771
63.063, 210.160
64.467, 418.846
65.871, 691.963
67.274, 1047.799
68.678, 1324.967
70.081, 1425.621
71.484, 1739.074
72.886, 2515.199
74.288, 3540.852
75.690, 4829.918
77.092, 6073.012
78.494, 6484.117
79.895, 7516.051
81.296, 7707.430
82.697, 7364.789
84.097, 7748.070
85.498, 9451.891
86.898, 9403.363
88.298, 10632.887
89.697, 11015.113
91.097, 12036.242
92.496, 13450.746
93.895, 14881.590
95.293, 14443.492
96.692, 14306.883
98.090, 14542.543
99.488, 14925.930
100.885, 16860.035
102.283, 19556.133
103.680, 22397.762
105.077, 23503.137
106.473, 22754.854
107.870, 20214.754
109.266, 15995.580
110.662, 11781.705
112.057, 8240.695
113.453, 6259.498
114.848, 5497.533
116.243, 4216.910
117.638, 3457.123
119.032, 2962.920
120.426, 2689.289
121.820, 2229.145
123.214, 1823.217
124.608, 1562.248
126.001, 1348.619
127.394, 1211.545
128.787, 1387.021
130.179, 1633.338
131.571, 1814.674
132.963, 2539.012
134.355, 2766.680
135.747, 3625.746
137.138, 4220.787
138.529, 4609.695
139.920, 4999.594
141.311, 4920.109
142.701, 4631.262
144.091, 3563.004
145.481, 3085.277
146.870, 2478.010
148.260, 2091.138
149.649, 1884.600
151.038, 1488.361
152.426, 1322.373
153.815, 1096.554
155.203, 1000.844
156.591, 785.171
157.979, 939.487
159.366, 693.756
160.753, 847.951
162.140, 792.040
163.527, 855.986
164.913, 1039.759
166.300, 1223.329
167.686, 1256.676
169.071, 1209.762
170.457, 1302.475
171.842, 1174.677
173.227, 1086.279
174.612, 887.215
175.996, 587.545
177.381, 77.386
178.765, 243.161
180.149, 524.072
181.532, 735.341
182.915, 996.964
184.299, 939.002
185.681, 821.514
187.064, 564.562
188.446, 132.778
189.828, 639.613
191.210, 1355.036
192.592, 1779.603
193.973, 1913.696
195.355, 1477.592
196.736, 1512.642
198.116, 1128.574
199.497, 4.113
200.877, 42.329
202.257, 24.162
203.637, 272.248
205.016, 427.873
206.395, 653.232
207.774, 1198.394
209.153, 1495.078
210.532, 1586.688
211.910, 1673.677
213.288, 1934.011
214.666, 2096.668
216.043, 1955.729
217.421, 2225.051
218.798, 2304.653
220.175, 2764.052
221.551, 3141.465
222.928, 3481.915
224.304, 4151.469
225.680, 4719.658
227.055, 5688.020
228.431, 5951.537
229.806, 7144.882
231.181, 7798.383
232.556, 8381.294
233.930, 8963.520
235.304, 8785.055
236.678, 9095.877
238.052, 8105.934
239.426, 7755.162
240.799, 7123.568
242.172, 6691.178
243.545, 6588.012
244.917, 6774.075
246.290, 7600.711
247.662, 8136.123
249.034, 9381.207
250.405, 10224.229
251.777, 10806.465
253.148, 11187.149
254.519, 11527.869
255.889, 11166.805
257.260, 10704.500
258.630, 10211.146
260.000, 9836.979
261.370, 9062.148
262.739, 8756.698
264.108, 8020.662
265.477, 7674.043
266.846, 7586.763
268.215, 7548.766
269.583, 8109.989
270.951, 8890.373
272.319, 10469.931
273.686, 12008.718
275.054, 13906.811
276.421, 15674.314
277.788, 16971.262
279.154, 16497.654
280.521, 14533.408
281.887, 12087.901
283.253, 9930.466
284.619, 7930.078
285.984, 6865.438
287.349, 5728.158
288.714, 5558.721
290.079, 4977.014
291.444, 4933.390
292.808, 4876.738
294.172, 4711.193
295.536, 4797.430
296.899, 4505.152
298.263, 4646.215
299.626, 4428.179
300.989, 4353.080
302.351, 4357.869
303.714, 4252.568
305.076, 4137.175
306.438, 3931.688
307.799, 3926.104
309.161, 3610.422
310.522, 3413.324
311.883, 3473.628
313.244, 2992.253
314.604, 2949.951
315.965, 2774.965
317.325, 2558.573
318.684, 2530.082
320.044, 2420.410
321.403, 2367.396
322.762, 2355.606
324.121, 2333.302
325.480, 2381.774
326.838, 2389.454
328.196, 2488.062
329.554, 2518.994
330.912, 2491.119
332.270, 2424.365
333.627, 2356.771
334.984, 2259.937
336.341, 2072.022
337.697, 2123.356
339.053, 1942.550
340.409, 1887.389
341.765, 1866.015
343.121, 1705.051
344.476, 1736.659
345.831, 1645.215
347.186, 1977.563
348.541, 2073.773
349.895, 2827.584
351.250, 3247.759
352.604, 3670.793
353.957, 4437.424
355.311, 4171.197
356.664, 3926.938
358.017, 3353.239
359.370, 2527.718
360.722, 1802.342
362.075, 1154.455
363.427, 842.564
364.779, 498.042
366.130, 45.000
367.482, 34.252
368.833, 219.604
370.184, 201.483
371.535, 347.505
372.885, 503.720
374.235, 528.855
375.585, 613.761
376.935, 647.848
378.285, 851.723
379.634, 716.841
380.983, 671.616
382.332, 636.755
383.680, 330.625
385.029, 253.789
386.377, 262.739
387.725, 549.059
389.073, 1225.181
390.420, 1781.159
391.767, 2766.972
393.114, 3422.618
394.461, 3898.098
395.808, 4543.414
397.154, 5048.570
398.500, 4723.574
399.846, 4208.426
401.191, 3313.136
402.537, 2717.705
403.882, 1802.141
405.227, 1296.443
406.571, 1060.626
407.916, 684.706
409.260, 778.689
410.604, 662.559
411.948, 1496.343
413.291, 3010.060
414.635, 4543.729
415.978, 4607.361
417.321, 4030.965
418.663, 3964.544
420.006, 5328.113
421.348, 7381.669
422.690, 9925.243
424.031, 13048.812
425.373, 17212.395
426.714, 20285.984
428.055, 23879.596
429.396, 25433.252
430.736, 25986.938
432.077, 24800.664
433.417, 22424.447
434.757, 20418.252
436.096, 18032.096
437.436, 16315.987
438.775, 15198.859
440.114, 14169.552
441.452, 13977.926
442.791, 13521.977
444.129, 13906.065
445.467, 14400.227
446.805, 14974.448
448.142, 16038.759
449.480, 17393.156
450.817, 19097.625
452.154, 21062.195
453.490, 21866.875
454.827, 23271.662
456.163, 22656.576
457.499, 22491.570
458.835, 21286.617
460.170, 20361.746
461.505, 19846.928
462.840, 18322.152
464.175, 17757.424
465.510, 16752.734
466.844, 16238.088
468.178, 15903.478
469.512, 14798.899
470.846, 14844.348
472.179, 13719.811
473.512, 13505.305
474.845, 12760.837
476.178, 11566.409
477.511, 11122.029
478.843, 9947.700
480.175, 9373.429
481.507, 8318.884
482.839, 7364.273
484.170, 6709.750
485.501, 6045.291
486.832, 5881.176
488.163, 5527.236
489.493, 5783.430
490.823, 5819.674
492.153, 5555.959
493.483, 5852.285
494.813, 5648.654
496.142, 5574.838
497.471, 5430.340
498.800, 5396.166
500.129, 5871.359
501.457, 6016.474
502.785, 6501.783
504.113, 7096.865
505.441, 7702.660
506.769, 8858.760
508.096, 9466.816
509.423, 10365.278
510.750, 10974.115
512.077, 11263.249
513.403, 11552.509
514.729, 10941.828
516.055, 10961.176
517.381, 10170.545
518.706, 9929.935
520.032, 9309.347
521.357, 8808.784
522.681, 9246.608
524.006, 9563.410
525.330, 10709.067
526.655, 11583.117
527.978, 12466.155
529.302, 13082.568
530.626, 11860.037
531.949, 10380.528
533.272, 8421.628
534.595, 6801.432
535.917, 5336.184
537.239, 4249.082
538.562, 3549.476
539.883, 3148.644
541.205, 2800.971
542.527, 2875.822
543.848, 2659.164
545.169, 2696.338
546.489, 2732.637
547.810, 2790.209
549.130, 3100.604
550.450, 3161.018
551.770, 3781.447
553.090, 3901.897
554.409, 4342.367
555.728, 5023.223
557.047, 5444.652
558.366, 6236.521
559.685, 7048.663
561.003, 8311.497
562.321, 10014.571
563.639, 11707.473
564.956, 14910.949
566.274, 19057.895
567.591, 24266.172
568.908, 30270.219
570.225, 35259.711
571.541, 38611.574
572.857, 36568.293
574.173, 30705.229
575.489, 24203.443
576.805, 17961.768
578.120, 13762.148
579.435, 10560.966
580.750, 8725.629
582.065, 7465.105
583.380, 6747.254
584.694, 6650.136
586.008, 6461.502
587.322, 6800.470
588.635, 7315.373
589.949, 7911.747
591.262, 8988.914
592.575, 9799.796
593.887, 11225.010
595.200, 12466.279
596.512, 13941.590
597.824, 16433.857
599.136, 18553.727
600.447, 20982.830
601.759, 24031.689
603.070, 26566.086
604.381, 29165.863
605.692, 29506.928
607.002, 29624.338
608.312, 28458.293
609.622, 26136.574
610.932, 23304.494
612.242, 20266.725
613.551, 17826.641
614.860, 15266.805
616.169, 13464.567
617.478, 12098.974
618.786, 10497.923
620.094, 9467.947
621.402, 8310.685
622.710, 7477.232
624.018, 6509.274
625.325, 5826.084
626.632, 5163.506
627.939, 4540.480
629.246, 4132.799
630.552, 3756.064
631.859, 3399.189
633.165, 3077.534
634.471, 2754.770
635.776, 2515.731
637.082, 2243.489
638.387, 2038.113
639.692, 1910.528
640.996, 1596.774
642.301, 1472.678
643.605, 1326.366
644.909, 1132.847
646.213, 1208.910
647.516, 1024.953
648.820, 1034.532
650.123, 896.802
651.426, 1018.944
652.729, 1081.027
654.031, 1081.049
655.333, 1295.015
656.636, 1305.919
657.937, 1419.768
659.239, 1666.559
660.540, 1927.291
661.842, 2077.966
663.142, 2433.579
664.443, 2388.128
665.744, 2855.605
667.044, 2971.360
668.344, 3286.334
669.644, 3274.583
670.944, 2940.753
672.243, 2873.843
673.542, 2505.853
674.841, 2400.782
676.140, 2298.629
677.438, 2453.395
678.737, 2448.080
680.035, 2517.688
681.333, 2745.224
682.630, 2933.692
683.928, 2935.101
685.225, 3198.456
686.522, 3212.790
687.819, 3264.096
689.115, 3479.406
690.412, 3292.760
691.708, 3271.163
693.004, 3142.636
694.300, 2875.187
695.595, 2798.866
696.890, 2495.637
698.185, 2364.486
699.480, 2167.404
700.775, 1974.308
702.069, 1793.182
703.363, 1692.980
704.657, 1438.694
705.951, 1310.315
707.244, 1193.840
708.538, 908.270
709.831, 751.604
711.124, 600.841
712.416, 470.978
713.709, 373.009
715.001, 315.931
716.293, 156.740
717.585, 107.433
718.876, 156.005
720.167, 25.458
721.459, 43.221
722.749, 83.068
724.040, 2.099
725.331, 96.276
726.621, 110.647
727.911, 185.229
729.201, 186.060
730.490, 204.142
731.780, 203.487
733.069, 234.096
734.358, 206.986
735.646, 298.144
736.935, 213.619
738.223, 254.368
739.511, 264.413
740.799, 238.760
742.087, 358.397
743.374, 292.387
744.661, 314.697
745.948, 326.339
747.235, 225.319
748.522, 293.585
749.808, 230.173
751.094, 294.051
752.380, 245.252
753.666, 206.750
754.951, 194.526
756.236, 190.573
757.521, 278.890
758.806, 205.522
760.091, 226.432
761.375, 168.629
762.659, 114.083
763.943, 183.766
765.227, 178.713
766.511, 88.922
767.794, 212.344
769.077, 58.045
770.360, 20.943
771.643, 128.017
772.925, 42.324
774.207, 60.817
775.489, 105.505
776.771, 8.412
778.053, 97.486
779.334, 15.773
780.615, 27.228
781.896, 21.858
783.177, 97.342
784.457, 38.422
785.738, 39.366
787.018, 37.173
788.298, 54.998
789.577, 99.390
790.857, 130.819
792.136, 145.134
793.415, 177.336
794.694, 200.427
795.972, 264.408
797.251, 297.612
798.529, 328.944
799.807, 409.714
801.084, 395.279
802.362, 486.744
803.639, 541.112
804.916, 606.387
806.193, 691.569
807.470, 698.660
808.746, 741.660
810.022, 818.365
811.298, 941.388
812.574, 973.118
813.850, 1098.757
815.125, 1200.309
816.400, 1380.771
817.675, 1451.147
818.950, 1629.434
820.224, 1871.634
821.499, 2072.748
822.773, 2345.777
824.047, 2670.715
825.320, 3012.578
826.594, 3379.352
827.867, 3850.043
829.140, 4217.649
830.413, 4789.175
831.685, 5149.618
832.958, 5299.979
834.230, 5530.260
835.502, 5530.460
836.774, 5350.580
838.045, 5362.884
839.316, 5260.586
840.588, 5130.471
841.858, 4870.278
843.129, 4800.007
844.400, 4819.659
845.670, 4549.232
846.940, 4648.728
848.210, 4708.145
849.479, 4577.484
850.749, 4806.745
852.018, 4785.926
853.287, 4855.030
854.556, 5264.056
855.824, 5173.003
857.093, 5481.873
858.361, 5740.668
859.629, 5959.391
860.896, 6378.042
862.164, 6566.616
863.431, 6835.122
864.698, 6993.196
865.965, 7410.654
867.232, 7647.642
868.498, 7984.324
869.764, 8450.268
871.030, 8705.945
872.296, 8811.761
873.562, 9166.958
874.827, 9208.651
876.092, 9377.625
877.357, 9551.256
878.622, 9658.997
879.886, 9775.648
881.151, 9747.428
882.415, 9818.972
883.679, 10129.199
884.942, 9909.289
886.206, 10247.307
887.469, 10336.864
888.732, 10330.556
889.995, 10739.740
891.258, 11645.585
892.520, 11440.994
893.782, 12327.891
895.044, 12807.169
896.306, 13260.488
897.568, 14042.319
898.829, 14733.331
900.090, 15640.611
901.351, 16643.564
902.612, 17880.449
903.872, 19503.281
905.133, 20649.158
906.393, 23267.402
907.653, 25036.396
908.912, 27205.607
910.172, 30369.264
911.431, 32157.535
912.690, 34894.520
913.949, 36385.137
915.208, 38939.215
916.466, 40278.961
917.724, 40559.039
918.982, 39874.816
920.240, 39112.859
921.498, 38260.664
922.755, 37120.840
924.012, 34234.375
925.269, 32203.334
926.526, 30331.211
927.782, 27586.350
929.039, 25997.646
930.295, 23793.434
931.551, 22314.422
932.806, 20304.783
934.062, 18695.562
935.317, 17430.967
936.572, 16255.404
937.827, 14969.953
939.082, 14194.516
940.336, 13279.681
941.590, 12525.334
942.844, 11911.184
944.098, 11337.143
945.352, 10613.288
946.605, 10269.591
947.859, 9866.220
949.112, 9713.036
950.364, 9502.247
951.617, 9427.449
952.869, 9414.862
954.121, 9442.710
955.373, 9710.846
956.625, 9719.094
957.877, 9877.380
959.128, 9935.708
960.379, 9794.077
961.630, 9982.483
962.881, 9340.922
964.131, 9479.407
965.381, 9007.925
966.631, 8516.485
967.881, 8005.080
969.131, 7783.715
970.380, 7412.394
971.630, 7171.113
972.879, 7189.871
974.128, 7218.669
975.376, 7577.506
976.625, 7996.387
977.873, 8835.306
979.121, 9584.270
980.369, 11053.276
981.616, 12212.325
982.864, 13141.424
984.111, 13930.567
985.358, 13569.751
986.605, 13238.995
987.851, 11898.285
989.097, 10367.623
990.344, 9097.011
991.589, 7666.440
992.835, 6635.920
994.081, 5835.449
995.326, 4955.024
996.571, 4454.652
997.816, 3994.336
999.061, 3304.071
1000.305, 3007.858
1001.550, 2651.696
1002.794, 2307.588
1004.037, 1978.532
1005.281, 1717.530
1006.525, 1434.584
1007.768, 1322.948
1009.011, 1213.882
1010.254, 1156.118
1011.496, 995.738
1012.739, 906.250
1013.981, 940.398
1015.223, 924.171
1016.465, 965.429
1017.706, 1056.274
1018.948, 1061.018
1020.189, 1166.927
1021.430, 1286.841
1022.671, 1539.758
1023.911, 1647.612
1025.152, 1748.451
1026.392, 2112.977
1027.632, 2066.952
1028.872, 2226.290
1030.111, 2591.650
1031.350, 2587.619
1032.590, 2886.972
1033.829, 3272.724
1035.067, 3461.176
1036.306, 3924.916
1037.544, 4252.252
1038.782, 4807.650
1040.020, 5185.688
1041.258, 5609.516
1042.495, 6304.851
1043.733, 6570.976
1044.970, 6767.251
1046.207, 7224.512
1047.443, 7068.854
1048.680, 7366.228
1049.916, 6968.449
1051.152, 6618.033
1052.388, 6665.937
1053.624, 6277.158
1054.859, 6021.734
1056.094, 5771.676
1057.329, 5446.532
1058.564, 5582.710
1059.799, 5084.317
1061.033, 5006.454
1062.268, 4915.109
1063.502, 4585.722
1064.735, 4697.262
1065.969, 4604.303
1067.202, 4572.531
1068.436, 4780.128
1069.669, 4942.829
1070.902, 5290.950
1072.134, 5820.067
1073.367, 6327.802
1074.599, 7158.192
1075.831, 8175.176
1077.062, 8972.666
1078.294, 10610.171
1079.525, 11777.995
1080.757, 13475.906
1081.988, 15553.032
1083.218, 17300.688
1084.449, 20228.184
1085.679, 22875.482
1086.909, 25396.852
1088.139, 29364.662
1089.369, 31032.271
1090.599, 33324.086
1091.828, 33612.559
1093.057, 31360.512
1094.286, 29310.947
1095.515, 23740.262
1096.744, 18918.566
1097.972, 15008.378
1099.200, 11517.443
1100.428, 8608.043
1101.656, 6956.744
1102.883, 5385.729
1104.111, 4776.828
1105.338, 4156.738
1106.565, 3469.272
1107.791, 2600.118
1109.018, 2160.621
1110.244, 1943.605
1111.470, 1705.015
1112.696, 1525.585
1113.922, 1394.666
1115.147, 1295.459
1116.373, 1104.983
1117.598, 1037.229
1118.823, 976.388
1120.047, 996.080
1121.272, 905.783
1122.496, 844.448
1123.720, 759.157
1124.944, 723.029
1126.168, 658.855
1127.391, 691.900
1128.615, 655.928
1129.838, 678.738
1131.061, 554.875
1132.283, 487.680
1133.506, 534.665
1134.728, 517.157
1135.950, 405.116
1137.172, 461.441
1138.394, 433.440
1139.615, 459.664
1140.837, 417.898
1142.058, 369.999
1143.279, 293.021
1144.499, 329.797
1145.720, 297.429
1146.940, 250.898
1148.160, 170.708
1149.380, 155.405
1150.600, 191.982
1151.819, 105.671
1153.038, 73.001
1154.257, 18.113
1155.476, 45.320
1156.695, 59.601
1157.913, 21.751
1159.132, 10.112
1160.350, 74.999
1161.568, 89.421
1162.785, 144.507
1164.003, 109.286
1165.220, 78.295
1166.437, 103.814
1167.654, 100.303
1168.871, 43.906
1170.087, 67.026
1171.304, 62.539
1172.520, 98.281
1173.736, 104.263
1174.951, 127.648
1176.167, 103.743
1177.382, 90.433
1178.597, 72.163
1179.812, 27.433
1181.027, 160.971
1182.241, 42.762
1183.455, 113.248
1184.669, 69.262
1185.883, 115.775
1187.097, 23.823
1188.311, 52.689
1189.524, 63.492
1190.737, 60.866
1191.950, 75.296
1193.162, 8.679
1194.375, 66.826
1195.587, 144.050
1196.799, 94.356
1198.011, 60.778
1199.223, 112.323
1200.434, 61.591
1201.646, 80.848
1202.857, 43.518
1204.068, 4.718
1205.279, 94.662
1206.489, 98.424
1207.699, 35.531
1208.909, 64.643
1210.119, 75.679
1211.329, 5.014
1212.539, 11.276
1213.748, 3.330
1214.957, 77.108
1216.166, 2.368
1217.375, 11.203
1218.583, 17.177
1219.792, 25.493
1221.000, 44.771
1222.208, 35.998
1223.415, 40.185
1224.623, 37.332
1225.830, 39.779
1227.037, 74.495
1228.244, 56.519
1229.451, 67.502
1230.658, 95.446
1231.864, 7.645
1233.070, 71.201
1234.276, 87.004
1235.482, 6.241
1236.687, 63.453
1237.893, 86.105
1239.098, 25.713
1240.303, 52.264
1241.508, 86.757
1242.712, 48.202
1243.917, 69.597
1245.121, 37.944
1246.325, 89.379
1247.529, 83.637
1248.732, 36.931
1249.936, 66.092
1251.139, 79.209
1252.342, 74.502
1253.545, 126.533
1254.747, 107.511
1255.950, 97.457
1257.152, 138.371
1258.354, 116.199
1259.556, 134.963
1260.758, 173.696
1261.959, 122.571
1263.160, 130.196
1264.361, 168.861
1265.562, 177.522
1266.763, 197.976
1267.963, 198.656
1269.164, 172.799
1270.364, 192.252
1271.563, 168.446
1272.763, 175.000
1273.963, 139.049
1275.162, 176.178
1276.361, 249.666
1277.560, 109.514
1278.759, 127.823
1279.957, 241.702
1281.155, 185.324
1282.354, 250.020
1283.551, 205.549
1284.749, 211.124
1285.947, 251.708
1287.144, 167.140
1288.341, 140.827
1289.538, 194.172
1290.735, 208.281
1291.931, 190.646
1293.128, 200.855
1294.324, 211.823
1295.520, 208.166
1296.716, 176.991
1297.911, 156.797
1299.107, 162.481
1300.302, 125.519
1301.497, 226.357
1302.692, 229.552
1303.886, 156.981
1305.081, 237.775
1306.275, 128.815
1307.469, 147.372
1308.663, 153.346
1309.856, 173.428
1311.050, 131.354
1312.243, 172.283
1313.436, 117.215
1314.629, 167.223
1315.822, 177.278
1317.014, 186.688
1318.206, 153.660
1319.398, 183.314
1320.590, 157.996
1321.782, 156.412
1322.974, 134.011
1324.165, 144.519
1325.356, 147.528
1326.547, 132.740
1327.738, 150.722
1328.928, 175.589
1330.119, 142.229
1331.309, 193.225
1332.499, 126.751
1333.688, 151.582
1334.878, 280.486
1336.067, 142.400
1337.256, 197.346
1338.445, 199.426
1339.634, 121.692
1340.823, 199.701
1342.011, 215.023
1343.199, 142.593
1344.388, 173.559
1345.575, 192.590
1346.763, 145.791
1347.950, 265.766
1349.138, 187.399
1350.325, 257.588
1351.512, 230.346
1352.698, 191.285
1353.885, 359.295
1355.071, 218.881
1356.257, 253.358
1357.443, 265.579
1358.629, 242.725
1359.814, 302.476
1361.000, 219.198
1362.185, 294.362
1363.370, 268.291
1364.554, 267.948
1365.739, 247.478
1366.923, 287.001
1368.107, 255.240
1369.291, 279.422
1370.475, 341.405
1371.659, 222.914
1372.842, 300.563
1374.025, 263.575
1375.208, 209.188
1376.391, 277.471
1377.574, 267.916
1378.756, 223.331
1379.939, 266.599
1381.121, 229.611
1382.303, 261.202
1383.484, 285.973
1384.666, 237.417
1385.847, 233.045
1387.028, 256.639
1388.209, 169.065
1389.390, 206.892
1390.570, 182.532
1391.751, 258.327
1392.931, 211.176
1394.111, 150.682
1395.291, 201.772
1396.470, 224.845
1397.649, 195.906
1398.829, 189.339
1400.008, 226.110
1401.187, 67.714
1402.365, 261.484
1403.544, 148.617
1404.722, 457.110
1405.900, 171.567
1407.078, 158.016
1408.255, 388.224
1409.433, 351.438
1410.610, 157.603
1411.787, 133.615
1412.964, 212.402
1414.141, 84.242
1415.317, 187.431
1416.494, 125.532
1417.670, 62.542
1418.846, 156.859
1420.022, 59.754
1421.197, 101.829
1422.373, 184.822
1423.548, 106.067
1424.723, 127.179
1425.898, 99.738
1427.072, 79.562
1428.247, 98.016
1429.421, 49.365
1430.595, 84.625
1431.769, 147.108
1432.942, 57.657
1434.116, 69.642
1435.289, 112.424
1436.462, 40.438
1437.635, 122.559
