##NAMES=Epidote
##RRUFFID=R040092
##IDEAL CHEMISTRY=Ca_2_Fe^3+^Al_2_(Si_2_O_7_)(SiO_4_)O(OH)
##LOCALITY=Nahant, Massachusetts, USA
##OWNER=RRUFF
##SOURCE=University of Arizona Mineral Museum
##DESCRIPTION=Green prismatic crystals imbedded in quartz
##STATUS=The identification of this mineral has been confirmed by X-ray diffraction and chemical analysis
##URL=rruff.info/R040092
##MEASURED CHEMISTRY=Ca_2.01_Al_2.00_Fe_1.00_(Si_1.00_O_4_)(Si_1.97_Fe_0.02_Al_0.01_Ti_0.01_O_7_)O(OH)
##PIN_ID=M00265
##ORIENTATION=Laser parallel to -a [-1 0 0]. Fiducial mark perpendicular to laser is parallel to -b* (0 -1 0)
51.466, 0.000
52.866, 0.337
54.266, 119.707
55.666, 190.580
57.065, 225.425
58.464, 230.202
59.863, 358.690
61.262, 676.454
62.661, 492.733
64.059, 517.078
65.458, 370.188
66.856, 212.844
68.253, 40.539
69.651, 23.635
71.048, 133.562
72.445, 38.813
73.842, 266.523
75.239, 546.588
76.635, 1081.005
78.031, 2037.747
79.427, 3600.769
80.823, 5794.176
82.218, 8778.690
83.614, 11612.753
85.009, 14764.089
86.404, 17549.621
87.798, 20006.289
89.193, 22168.029
90.587, 21604.793
91.981, 19211.523
93.375, 14882.200
94.768, 10829.857
96.161, 7644.493
97.554, 5097.072
98.947, 3559.550
100.340, 2445.881
101.732, 1427.003
103.124, 890.859
104.516, 638.403
105.908, 596.591
107.300, 377.389
108.691, 52.760
110.082, 169.326
111.473, 185.894
112.864, 126.963
114.254, 95.445
115.644, 450.315
117.034, 635.633
118.424, 697.383
119.813, 1028.554
121.203, 1820.133
122.592, 2893.110
123.981, 4540.475
125.369, 6389.218
126.758, 8780.333
128.146, 11218.808
129.534, 14431.636
130.922, 17309.818
132.309, 19631.336
133.696, 19187.256
135.083, 17177.248
136.470, 13229.150
137.857, 10569.852
139.243, 8322.073
140.630, 6928.688
142.016, 6256.627
143.401, 6356.889
144.787, 6683.413
146.172, 7317.220
147.557, 7494.177
148.942, 6692.179
150.327, 5703.225
151.711, 5540.320
153.096, 5179.473
154.480, 5463.697
155.863, 6514.998
157.247, 8052.385
158.630, 10096.866
160.013, 13028.447
161.396, 16014.129
162.779, 19229.920
164.161, 22481.803
165.544, 25665.691
166.926, 26809.689
168.308, 26554.814
169.689, 24243.068
171.070, 21720.459
172.452, 19093.984
173.833, 16461.645
175.213, 13919.447
176.594, 10901.390
177.974, 8893.473
179.354, 7031.700
180.734, 5506.068
182.114, 4402.582
183.493, 3632.239
184.872, 2973.038
186.251, 2617.983
187.630, 2169.073
189.008, 1913.307
190.387, 1873.686
191.765, 1663.210
193.143, 1912.880
194.520, 2068.695
195.898, 2499.656
197.275, 2858.762
198.652, 3502.014
200.029, 3803.412
201.405, 4396.954
202.782, 4408.643
204.158, 4238.477
205.534, 4016.455
206.909, 3394.579
208.285, 3133.847
209.660, 2852.259
211.035, 2683.815
212.410, 2741.516
213.784, 2823.359
215.159, 3195.516
216.533, 3687.251
217.907, 4308.933
219.281, 4909.557
220.654, 5529.441
222.027, 6449.787
223.400, 7294.112
224.773, 7952.646
226.146, 8496.897
227.518, 9134.457
228.891, 9372.351
230.263, 10173.365
231.634, 10852.977
233.006, 12400.905
234.377, 14879.091
235.748, 18186.500
237.119, 21841.873
238.490, 26550.121
239.860, 30280.588
241.231, 34008.156
242.601, 35451.809
243.970, 33907.766
245.340, 29748.932
246.709, 23871.205
248.079, 19084.516
249.448, 13876.036
250.816, 10532.767
252.185, 7840.699
253.553, 5787.830
254.921, 4487.153
256.289, 3232.669
257.657, 2567.370
259.024, 1971.252
260.391, 1618.314
261.758, 1180.551
263.125, 1005.957
264.492, 1025.531
265.858, 835.268
267.224, 1111.166
268.590, 1095.222
269.956, 1412.433
271.321, 1587.795
272.687, 1966.309
274.052, 2216.971
275.416, 2666.792
276.781, 2983.223
278.146, 3413.858
279.510, 3913.094
280.874, 4743.468
282.237, 6258.981
283.601, 7837.628
284.964, 10172.412
286.327, 13423.326
287.690, 16463.379
289.053, 19747.547
290.416, 23553.855
291.778, 25811.285
293.140, 26351.840
294.502, 23480.527
295.863, 19747.326
297.225, 15579.253
298.586, 11804.299
299.947, 8950.459
301.308, 6724.729
302.668, 5130.111
304.029, 4034.598
305.389, 3192.189
306.749, 2548.884
308.108, 2138.761
309.468, 2043.581
310.827, 1933.579
312.186, 2196.677
313.545, 2538.875
314.903, 3031.173
316.262, 3662.572
317.620, 4936.070
318.978, 6001.668
320.336, 7466.366
321.693, 8953.166
323.051, 10372.062
324.408, 11101.060
325.765, 12212.155
327.121, 11570.351
328.478, 11124.646
329.834, 10569.039
331.190, 10443.529
332.546, 10109.117
333.902, 10729.810
335.257, 11435.595
336.612, 12604.479
337.967, 14286.459
339.322, 17032.533
340.677, 20228.709
342.031, 24170.975
343.385, 29064.340
344.739, 33916.797
346.093, 38034.344
347.446, 42037.000
348.799, 43590.734
350.153, 42846.570
351.505, 39172.480
352.858, 33341.500
354.210, 27424.611
355.563, 21955.811
356.915, 17222.100
358.267, 13435.473
359.618, 10358.941
360.969, 8323.495
362.321, 6289.141
363.672, 5046.873
365.022, 3854.692
366.373, 2865.598
367.723, 2204.590
369.073, 1564.668
370.423, 1091.831
371.773, 665.951
373.122, 377.409
374.471, 73.824
375.821, 130.678
377.169, 271.129
378.518, 352.589
379.866, 462.182
381.215, 532.867
382.563, 461.675
383.910, 468.577
385.258, 411.573
386.605, 254.640
387.952, 287.709
389.299, 228.795
390.646, 228.862
391.992, 224.913
393.339, 122.933
394.685, 210.887
396.031, 272.792
397.376, 264.660
398.722, 197.491
400.067, 239.208
401.412, 196.864
402.757, 8.432
404.101, 3.855
405.446, 102.867
406.790, 288.764
408.134, 508.830
409.478, 973.068
410.821, 1399.486
412.165, 1870.074
413.508, 2717.856
414.851, 3507.811
416.193, 4704.946
417.536, 6201.250
418.878, 7852.734
420.220, 9789.387
421.562, 11227.197
422.904, 13407.165
424.245, 15105.284
425.586, 16550.543
426.927, 18043.971
428.268, 19039.543
429.609, 20892.256
430.949, 22987.117
432.289, 25835.102
433.629, 26851.227
434.969, 28047.480
436.309, 26364.857
437.648, 24769.391
438.987, 22824.070
440.326, 21831.875
441.665, 22114.791
443.003, 24510.801
444.342, 27702.906
445.680, 32521.104
447.018, 37786.387
448.355, 41463.762
449.693, 43856.211
451.030, 42184.746
452.367, 37690.340
453.704, 30901.027
455.041, 26431.793
456.377, 21342.629
457.713, 17829.537
459.049, 14657.523
460.385, 12225.586
461.721, 9971.726
463.056, 7979.942
464.391, 6734.238
465.726, 5711.608
467.061, 4749.053
468.395, 4194.577
469.730, 3834.174
471.064, 3479.845
472.398, 3265.587
473.731, 3111.401
475.065, 3273.284
476.398, 3319.234
477.731, 3642.250
479.064, 3845.333
480.397, 4315.480
481.729, 4785.688
483.062, 5596.958
484.394, 6385.290
485.725, 7323.680
487.057, 8755.127
488.389, 10316.635
489.720, 12327.197
491.051, 14798.813
492.382, 17725.482
493.712, 21438.211
495.043, 24406.986
496.373, 27514.820
497.703, 30272.705
499.032, 31833.637
500.362, 31406.619
501.691, 30330.652
503.020, 27821.736
504.349, 26035.873
505.678, 23948.051
507.007, 22571.271
508.335, 20455.545
509.663, 18342.867
510.991, 15773.229
512.319, 12749.638
513.646, 10103.085
514.973, 7820.580
516.300, 6160.116
517.627, 4857.694
518.954, 3706.313
520.280, 3310.972
521.607, 2782.671
522.933, 2304.409
524.259, 2032.185
525.584, 1654.998
526.910, 1400.849
528.235, 1113.735
529.560, 905.657
530.885, 704.614
532.209, 562.604
533.534, 529.629
534.858, 435.687
536.182, 431.659
537.506, 427.013
538.829, 470.276
540.152, 476.996
541.476, 495.878
542.799, 582.643
544.121, 766.049
545.444, 1014.433
546.766, 1293.820
548.088, 1702.686
549.410, 2249.958
550.732, 2868.165
552.053, 3657.875
553.375, 4717.804
554.696, 6369.065
556.017, 8700.492
557.337, 11678.089
558.658, 15847.869
559.978, 20414.279
561.298, 26171.436
562.618, 30734.551
563.938, 33381.121
565.257, 32835.410
566.576, 27382.062
567.895, 21837.287
569.214, 16472.588
570.533, 12563.716
571.851, 9620.386
573.170, 8063.952
574.488, 7077.625
575.805, 6786.970
577.123, 6773.878
578.440, 7371.101
579.758, 8112.944
581.075, 8958.125
582.391, 10251.572
583.708, 11035.241
585.024, 12077.594
586.341, 13326.238
587.657, 14176.800
588.972, 15863.436
590.288, 16233.749
591.603, 17527.902
592.918, 19760.312
594.233, 22373.889
595.548, 24182.598
596.863, 25324.123
598.177, 24788.428
599.491, 24063.223
600.805, 22039.990
602.119, 19771.980
603.432, 17625.312
604.746, 15860.781
606.059, 14207.931
607.372, 12692.145
608.685, 11723.913
609.997, 10771.125
611.309, 10281.517
612.621, 9473.079
613.933, 8678.229
615.245, 7875.396
616.557, 7030.433
617.868, 6059.184
619.179, 5277.310
620.490, 4429.237
621.801, 3683.138
623.111, 3069.952
624.421, 2663.535
625.731, 2213.295
627.041, 2034.512
628.351, 1711.678
629.660, 1465.544
630.970, 1410.359
632.279, 1183.928
633.588, 1086.233
634.896, 970.375
636.205, 933.439
637.513, 792.174
638.821, 801.640
640.129, 732.189
641.437, 778.584
642.744, 722.875
644.051, 690.865
645.358, 628.792
646.665, 594.601
647.972, 507.297
649.278, 424.948
650.584, 374.553
651.890, 422.111
653.196, 355.624
654.502, 364.088
655.807, 276.504
657.113, 337.873
658.418, 376.191
659.722, 310.460
661.027, 325.680
662.331, 372.849
663.636, 409.965
664.940, 380.031
666.244, 433.044
667.547, 445.004
668.851, 510.910
670.154, 521.763
671.457, 528.561
672.760, 650.305
674.062, 614.993
675.365, 713.625
676.667, 666.201
677.969, 703.720
679.271, 861.182
680.572, 844.585
681.874, 1073.931
683.175, 1154.218
684.476, 1294.445
685.777, 1414.612
687.077, 1383.720
688.378, 1476.768
689.678, 1417.754
690.978, 1280.679
692.278, 1000.542
693.577, 962.375
694.877, 747.206
696.176, 608.050
697.475, 438.933
698.774, 356.205
700.072, 304.843
701.371, 248.855
702.669, 210.892
703.967, 191.920
705.265, 85.942
706.562, 93.935
707.860, 15.895
709.157, 29.798
710.454, 42.370
711.751, 75.632
713.047, 21.992
714.344, 114.425
715.640, 137.996
716.936, 179.708
718.232, 127.595
719.527, 130.663
720.823, 173.917
722.118, 162.390
723.413, 170.075
724.708, 201.977
726.002, 166.113
727.297, 253.467
728.591, 187.085
729.885, 203.931
731.179, 182.016
732.472, 206.328
733.766, 194.880
735.059, 124.668
736.352, 145.654
737.645, 117.850
738.937, 89.241
740.230, 163.813
741.522, 136.604
742.814, 71.601
744.106, 120.770
745.397, 52.136
746.689, 81.663
747.980, 54.368
749.271, 73.234
750.562, 60.044
751.853, 57.478
753.143, 22.845
754.433, 0.642
755.723, 42.996
757.013, 71.239
758.303, 101.577
759.592, 93.417
760.881, 155.356
762.170, 194.207
763.459, 208.970
764.748, 278.650
766.036, 248.250
767.325, 224.768
768.613, 277.204
769.901, 266.560
771.188, 168.836
772.476, 189.024
773.763, 156.127
775.050, 169.141
776.337, 98.066
777.624, 171.896
778.910, 111.639
780.196, 98.289
781.482, 129.843
782.768, 130.305
784.054, 150.678
785.339, 150.963
786.625, 166.760
787.910, 189.271
789.195, 203.299
790.479, 207.245
791.764, 241.110
793.048, 286.896
794.332, 256.604
795.616, 283.236
796.900, 303.792
798.183, 352.274
799.467, 361.696
800.750, 379.016
802.033, 410.279
803.316, 470.472
804.598, 532.595
805.880, 546.647
807.163, 600.630
808.445, 629.542
809.726, 655.385
811.008, 668.161
812.289, 767.866
813.570, 837.503
814.851, 827.072
816.132, 958.572
817.413, 1027.005
818.693, 1176.371
819.973, 1172.668
821.253, 1196.900
822.533, 1419.064
823.813, 1449.163
825.092, 1520.194
826.371, 1561.161
827.650, 1640.062
828.929, 1699.779
830.208, 1753.557
831.486, 1818.376
832.764, 1854.019
834.042, 1881.599
835.320, 1904.122
836.598, 1955.581
837.875, 1978.984
839.152, 2083.325
840.429, 2246.610
841.706, 2290.845
842.983, 2515.029
844.259, 2682.161
845.536, 2783.235
846.812, 3047.258
848.088, 3259.231
849.363, 3530.155
850.639, 3816.030
851.914, 4147.856
853.189, 4532.631
854.464, 4995.361
855.739, 5545.051
857.013, 6172.593
858.288, 6829.987
859.562, 7538.922
860.836, 8427.910
862.110, 9200.576
863.383, 10313.711
864.656, 11208.452
865.930, 12044.979
867.203, 13389.743
868.475, 14459.568
869.748, 15550.786
871.020, 17222.250
872.292, 18950.859
873.564, 20473.152
874.836, 21739.607
876.108, 22556.674
877.379, 23203.148
878.650, 23065.510
879.922, 22617.035
881.192, 21960.986
882.463, 21324.008
883.733, 20693.902
885.004, 19620.094
886.274, 18326.701
887.544, 17225.961
888.813, 15429.576
890.083, 13822.823
891.352, 12396.773
892.621, 10913.480
893.890, 9908.471
895.159, 8923.139
896.427, 8379.859
897.695, 8039.480
898.964, 7543.389
900.232, 7511.434
901.499, 7571.181
902.767, 7951.741
904.034, 7952.126
905.301, 8629.677
906.568, 9336.405
907.835, 10072.618
909.102, 10693.818
910.368, 11188.769
911.634, 11743.343
912.900, 11456.749
914.166, 11292.150
915.432, 10623.031
916.697, 9546.034
917.962, 8804.560
919.227, 7785.869
920.492, 6897.971
921.757, 5886.456
923.021, 5328.884
924.285, 4618.411
925.550, 4064.185
926.813, 3672.547
928.077, 3335.074
929.341, 2964.590
930.604, 2630.155
931.867, 2458.915
933.130, 2204.461
934.393, 2027.512
935.655, 1793.577
936.918, 1751.904
938.180, 1549.243
939.442, 1404.791
940.703, 1256.565
941.965, 1116.462
943.226, 1116.399
944.488, 1016.626
945.749, 1009.083
947.009, 935.417
948.270, 842.868
949.530, 819.410
950.791, 837.161
952.051, 772.958
953.311, 671.834
954.570, 829.785
955.830, 719.743
957.089, 760.707
958.348, 770.676
959.607, 749.652
960.866, 709.635
962.124, 758.626
963.383, 764.625
964.641, 805.632
965.899, 895.650
967.156, 893.680
968.414, 981.719
969.671, 1151.767
970.928, 1168.824
972.185, 1451.896
973.442, 1651.981
974.699, 1986.093
975.955, 2259.215
977.211, 2428.350
978.468, 2724.500
979.723, 2759.662
980.979, 2580.839
982.234, 2371.029
983.490, 1988.238
984.745, 1804.807
986.000, 1503.979
987.254, 1227.237
988.509, 1099.950
989.763, 879.369
991.017, 828.610
992.271, 731.647
993.525, 771.062
994.779, 675.383
996.032, 675.552
997.285, 635.720
998.538, 613.125
999.791, 642.216
1001.044, 551.795
1002.296, 554.956
1003.548, 557.249
1004.800, 612.747
1006.052, 666.432
1007.304, 734.032
1008.555, 831.299
1009.807, 941.072
1011.058, 1066.896
1012.309, 1362.280
1013.559, 1572.941
1014.810, 1952.164
1016.060, 2329.894
1017.310, 2539.339
1018.560, 2617.750
1019.810, 2694.294
1021.060, 2539.487
1022.309, 2321.821
1023.558, 2224.471
1024.807, 2146.968
1026.056, 2142.396
1027.305, 2159.267
1028.553, 2314.074
1029.801, 2543.001
1031.049, 2777.034
1032.297, 3159.195
1033.545, 3632.469
1034.793, 4034.854
1036.040, 4403.353
1037.287, 4814.974
1038.534, 5020.709
1039.781, 5282.541
1041.027, 5089.466
1042.274, 4976.481
1043.520, 4695.570
1044.766, 4238.771
1046.012, 3852.069
1047.257, 3413.444
1048.503, 3039.911
1049.748, 2626.448
1050.993, 2344.062
1052.238, 2208.747
1053.483, 1862.505
1054.727, 1738.335
1055.971, 1748.235
1057.216, 1622.194
1058.459, 1533.208
1059.703, 1434.266
1060.947, 1424.363
1062.190, 1357.496
1063.433, 1242.665
1064.676, 1157.868
1065.919, 1006.100
1067.162, 1025.361
1068.404, 1052.649
1069.646, 1017.964
1070.888, 1095.309
1072.130, 1154.679
1073.372, 1310.077
1074.613, 1446.505
1075.855, 1572.962
1077.096, 1802.451
1078.337, 2157.970
1079.578, 2461.523
1080.818, 2892.108
1082.059, 3323.726
1083.299, 3949.378
1084.539, 4416.062
1085.779, 4663.778
1087.018, 4540.525
1088.258, 4050.303
1089.497, 3421.110
1090.736, 2708.947
1091.975, 2099.812
1093.213, 1639.705
1094.452, 1348.625
1095.690, 1093.569
1096.928, 911.567
1098.166, 778.765
1099.404, 653.788
1100.642, 587.833
1101.879, 548.982
1103.116, 495.181
1104.353, 405.966
1105.590, 446.133
1106.827, 321.395
1108.063, 279.652
1109.299, 316.917
1110.536, 235.653
1111.771, 241.946
1113.007, 238.213
1114.243, 222.076
1115.478, 178.184
1116.713, 126.573
1117.948, 185.925
1119.183, 138.357
1120.418, 253.521
1121.652, 454.808
1122.886, 645.421
1124.120, 508.034
1125.354, 224.577
1126.588, 181.823
1127.821, 76.461
1129.055, 69.176
1130.288, 49.950
1131.521, 58.656
1132.753, 20.495
1133.986, 43.934
1135.218, 66.800
1136.450, 59.505
1137.682, 7.583
1138.914, 41.796
1140.146, 93.125
1141.377, 75.364
1142.609, 71.555
1143.840, 34.684
1145.071, 64.659
1146.301, 69.939
1147.532, 86.767
1148.762, 71.831
1149.992, 86.085
1151.222, 61.781
1152.452, 91.481
1153.682, 140.158
1154.911, 37.532
1156.140, 105.754
1157.369, 92.007
1158.598, 67.180
1159.827, 53.948
1161.055, 58.677
1162.284, 14.051
1163.512, 79.801
1164.740, 45.181
1165.967, 41.727
1167.195, 12.159
1168.422, 13.691
1169.650, 5.277
1170.877, 3.769
1172.103, 8.515
1173.330, 14.458
1174.557, 15.561
1175.783, 41.669
1177.009, 41.130
1178.235, 62.712
1179.461, 57.060
1180.686, 93.478
1181.912, 103.495
1183.137, 101.955
1184.362, 69.475
1185.587, 122.001
1186.811, 85.836
1188.036, 101.656
1189.260, 390.634
1190.484, 246.792
1191.708, 357.011
1192.932, 197.450
1194.155, 136.070
1195.378, 187.013
1196.602, 239.296
1197.825, 100.119
1199.047, 181.235
1200.270, 141.128
1201.492, 188.859
1202.715, 153.738
1203.937, 191.312
1205.159, 130.152
1206.380, 170.785
1207.602, 113.246
1208.823, 179.618
1210.044, 172.104
1211.265, 173.665
1212.486, 112.132
1213.707, 159.455
1214.927, 154.837
1216.147, 232.131
1217.367, 187.581
1218.587, 153.849
1219.807, 141.103
1221.027, 161.342
1222.246, 137.868
1223.465, 130.776
1224.684, 129.970
1225.903, 123.149
1227.121, 126.312
1228.340, 123.459
1229.558, 140.592
1230.776, 173.708
1231.994, 137.807
1233.212, 135.889
1234.429, 159.954
1235.646, 73.259
1236.864, 179.391
1238.081, 81.498
1239.297, 60.500
1240.514, 150.528
1241.730, 131.648
1242.947, 61.621
1244.163, 44.584
1245.378, 72.703
1246.594, 84.824
1247.810, 58.771
1249.025, 55.704
1250.240, 34.594
1251.455, 78.471
1252.670, 63.329
1253.885, 72.152
1255.099, 77.961
1256.313, 44.933
1257.527, 86.735
1258.741, 113.712
1259.955, 46.477
1261.168, 42.254
1262.382, 93.942
1263.595, 132.743
1264.808, 98.392
1266.021, 48.008
1267.233, 46.799
1268.446, 2.353
1269.658, 84.006
1270.870, 107.639
1272.082, 55.076
1273.294, 98.608
1274.505, 87.062
1275.716, 79.523
1276.928, 49.835
1278.139, 78.614
1279.349, 56.443
1280.560, 110.605
1281.770, 125.928
1282.981, 79.464
1284.191, 110.237
1285.401, 140.156
1286.610, 115.327
1287.820, 49.988
1289.029, 86.751
1290.239, 43.604
1291.448, 124.448
1292.656, 38.037
1293.865, 41.926
1295.073, 111.370
1296.282, 57.167
1297.490, 28.821
1298.698, 53.260
1299.906, 15.501
1301.113, 82.818
1302.320, 6.539
1303.528, 27.589
1304.735, 16.666
1305.942, 18.819
1307.148, 9.569
1308.355, 19.308
1309.561, 27.343
1310.767, 9.123
1311.973, 27.534
1313.179, 0.031
1314.384, 43.128
1315.590, 18.697
1316.795, 21.724
1318.000, 20.037
1319.205, 0.758
1320.410, 4.566
1321.614, 22.940
1322.819, 1.635
1324.023, 1.162
1325.227, 5.360
1326.431, 22.068
1327.634, 5.510
1328.838, 22.178
1330.041, 11.099
1331.244, 5.325
1332.447, 29.503
1333.650, 63.642
1334.852, 65.746
1336.055, 3.710
1337.257, 14.336
1338.459, 37.325
1339.661, 27.279
1340.862, 50.195
1342.064, 77.135
1343.265, 57.984
1344.466, 70.799
1345.667, 86.580
1346.868, 71.385
1348.068, 115.043
1349.269, 73.726
1350.469, 96.374
1351.669, 134.989
1352.869, 161.573
1354.069, 124.126
1355.268, 103.648
1356.468, 123.139
1357.667, 178.605
1358.866, 165.039
1360.065, 138.430
1361.263, 115.793
1362.462, 212.125
1363.660, 192.428
1364.858, 191.704
1366.056, 163.953
1367.254, 180.175
1368.451, 200.370
1369.649, 163.541
1370.846, 209.685
1372.043, 204.807
1373.240, 163.246
1374.436, 192.326
1375.633, 160.389
1376.829, 196.436
1378.025, 195.421
1379.221, 99.379
1380.417, 133.306
1381.613, 135.221
1382.808, 180.336
1384.003, 152.408
1385.199, 129.199
1386.393, 168.177
1387.588, 173.913
1388.783, 124.061
1389.977, 121.701
1391.171, 160.870
1392.365, 162.550
1393.559, 174.736
1394.753, 168.294
1395.946, 188.943
1397.140, 197.909
1398.333, 176.621
1399.526, 124.435
1400.719, 161.273
1401.911, 113.895
1403.104, 159.817
1404.296, 152.537
1405.488, 185.457
1406.680, 137.004
1407.872, 167.112
1409.063, 171.175
1410.255, 119.432
1411.446, 204.457
1412.637, 129.930
1413.828, 123.541
1415.018, 166.616
1416.209, 116.514
1417.399, 119.318
1418.589, 96.217
1419.779, 108.701
1420.969, 44.003
1422.159, 109.040
1423.348, 104.864
1424.537, 51.034
1425.726, 98.718
1426.915, 91.469
1428.104, 85.802
1429.293, 67.761
1430.481, 108.176
1431.669, 75.867
1432.857, 86.500
1434.045, 80.265
1435.233, 84.240
1436.420, 80.347
1437.608, 65.269
1438.795, 118.100
1439.982, 116.432
1441.169, 122.046
1442.355, 87.705
1443.542, 86.135
1444.728, 107.800
1445.914, 108.409
1447.100, 112.959
1448.286, 100.451
1449.472, 81.876
1450.657, 93.239
1451.842, 88.122
