##NAMES=Epidote
##RRUFFID=R040092
##IDEAL CHEMISTRY=Ca_2_Fe^3+^Al_2_(Si_2_O_7_)(SiO_4_)O(OH)
##LOCALITY=Nahant, Massachusetts, USA
##OWNER=RRUFF
##SOURCE=University of Arizona Mineral Museum
##DESCRIPTION=Green prismatic crystals imbedded in quartz
##STATUS=The identification of this mineral has been confirmed by X-ray diffraction and chemical analysis
##URL=rruff.info/R040092
##MEASURED CHEMISTRY=Ca_2.01_Al_2.00_Fe_1.00_(Si_1.00_O_4_)(Si_1.97_Fe_0.02_Al_0.01_Ti_0.01_O_7_)O(OH)
##PIN_ID=M00185
##ORIENTATION=Laser parallel to -c [0 0 -1]. Fiducial mark perpendicular to laser is parallel to b* (0 1 0)
51.466, 0.000
52.866, 6.987
54.266, 275.674
55.666, 666.259
57.065, 628.887
58.464, 578.972
59.863, 866.707
61.262, 1301.449
62.661, 1461.062
64.059, 1698.561
65.458, 1598.248
66.856, 1516.257
68.253, 1168.552
69.651, 661.968
71.048, 227.268
72.445, 4.132
73.842, 58.788
75.239, 19.017
76.635, 88.314
78.031, 283.516
79.427, 1107.833
80.823, 2798.453
82.218, 4573.530
83.614, 5986.180
85.009, 7400.498
86.404, 9083.564
87.798, 11216.446
89.193, 12441.812
90.587, 13909.787
91.981, 14565.555
93.375, 14102.567
94.768, 12848.247
96.161, 11679.489
97.554, 10620.286
98.947, 9309.833
100.340, 7723.797
101.732, 6322.170
103.124, 4892.928
104.516, 3602.051
105.908, 2901.514
107.300, 2273.302
108.691, 1708.398
110.082, 1109.791
111.473, 892.470
112.864, 783.417
114.254, 794.617
115.644, 951.056
117.034, 879.725
118.424, 614.622
119.813, 353.743
121.203, 149.087
122.592, 128.650
123.981, 72.435
125.369, 72.563
126.758, 110.345
128.146, 75.909
129.534, 15.743
130.922, 7.391
132.309, 46.308
133.696, 158.183
135.083, 7.656
136.470, 172.775
137.857, 142.218
139.243, 123.307
140.630, 124.474
142.016, 60.312
143.401, 42.045
144.787, 206.277
146.172, 373.554
147.557, 417.843
148.942, 315.447
150.327, 529.260
151.711, 605.138
153.096, 823.081
154.480, 998.088
155.863, 1375.155
157.247, 1749.279
158.630, 2224.463
160.013, 2928.710
161.396, 3788.024
162.779, 4930.991
164.161, 6270.875
165.544, 7724.419
166.926, 9245.045
168.308, 10933.763
169.689, 12815.568
171.070, 14283.469
172.452, 15443.354
173.833, 15093.233
175.213, 14599.178
176.594, 12749.102
177.974, 11119.021
179.354, 9377.060
180.734, 7984.162
182.114, 6555.376
183.493, 5429.710
184.872, 5217.170
186.251, 4968.755
187.630, 4112.467
189.008, 3530.307
190.387, 3507.273
191.765, 2832.370
193.143, 2725.598
194.520, 2235.956
195.898, 2037.447
197.275, 1924.070
198.652, 2012.828
200.029, 2112.720
201.405, 2388.746
202.782, 2461.910
204.158, 2679.209
205.534, 2661.645
206.909, 2451.219
208.285, 2370.931
209.660, 2324.782
211.035, 1870.772
212.410, 1811.900
213.784, 1971.752
215.159, 2127.602
216.533, 2484.862
217.907, 2910.171
219.281, 3525.690
220.654, 4251.223
222.027, 5266.612
223.400, 6478.805
224.773, 7627.753
226.146, 8940.572
227.518, 10353.315
228.891, 11258.288
230.263, 12213.940
231.634, 12755.704
233.006, 12622.584
234.377, 12353.569
235.748, 12010.668
237.119, 11713.155
238.490, 11316.874
239.860, 10845.159
241.231, 10575.987
242.601, 9925.110
243.970, 9135.261
245.340, 8051.064
246.709, 6640.377
248.079, 5543.271
249.448, 4250.191
250.816, 3484.210
252.185, 2793.328
253.553, 2391.549
254.921, 2145.629
256.289, 1878.716
257.657, 1478.833
259.024, 1420.893
260.391, 1277.919
261.758, 1236.073
263.125, 1277.261
264.492, 1467.576
265.858, 1743.021
267.224, 2357.592
268.590, 2913.290
269.956, 3843.114
271.321, 4656.061
272.687, 5315.132
274.052, 5661.326
275.416, 5751.053
276.781, 6084.080
278.146, 5168.641
279.510, 4453.322
280.874, 3507.124
282.237, 2828.046
283.601, 2324.229
284.964, 1601.252
286.327, 1572.534
287.690, 1381.935
289.053, 1240.455
290.416, 1471.886
291.778, 1347.510
293.140, 1668.355
294.502, 1469.083
295.863, 1622.045
297.225, 1597.307
298.586, 1626.810
299.947, 1582.333
301.308, 1699.460
302.668, 1600.115
304.029, 1806.877
305.389, 1789.745
306.749, 1959.577
308.108, 2261.442
309.468, 2224.630
310.827, 2332.924
312.186, 2264.326
313.545, 2445.836
314.903, 2328.451
316.262, 2089.172
317.620, 2006.000
318.978, 1758.935
320.336, 1570.975
321.693, 1607.121
323.051, 1523.375
324.408, 1334.735
325.765, 1724.203
327.121, 1412.777
328.478, 1606.458
329.834, 1716.246
331.190, 2089.141
332.546, 2198.143
333.902, 2682.251
335.257, 2961.465
336.612, 3437.787
337.967, 3833.216
339.322, 4727.752
340.677, 5896.396
342.031, 7204.148
343.385, 8667.011
344.739, 10533.979
346.093, 12199.055
347.446, 13929.238
348.799, 15054.529
350.153, 15680.926
351.505, 15260.431
352.858, 13902.042
354.210, 12044.761
355.563, 10078.583
356.915, 7965.510
358.267, 6270.543
359.618, 4714.683
360.969, 3641.923
362.321, 2790.271
363.672, 2079.721
365.022, 1479.274
366.373, 958.932
367.723, 666.689
369.073, 423.552
370.423, 46.514
371.773, 261.422
373.122, 415.299
374.471, 411.147
375.821, 595.966
377.169, 469.910
378.518, 603.018
379.866, 349.324
381.215, 182.646
382.563, 128.074
383.910, 470.896
385.258, 989.818
386.605, 1399.843
387.952, 1711.973
389.299, 2188.206
390.646, 2227.544
391.992, 2150.990
393.339, 1796.551
394.685, 1503.224
396.031, 1179.010
397.376, 646.909
398.722, 431.943
400.067, 78.107
401.412, 78.562
402.757, 43.070
404.101, 225.426
405.446, 286.695
406.790, 200.923
408.134, 186.057
409.478, 9.921
410.821, 266.062
412.165, 369.344
413.508, 917.818
414.851, 1282.439
416.193, 1988.234
417.536, 2916.219
418.878, 4032.396
420.220, 5209.771
421.562, 6234.348
422.904, 8045.098
424.245, 9767.033
425.586, 11142.137
426.927, 13001.430
428.268, 14260.918
429.609, 16371.573
430.949, 18609.398
432.289, 21676.398
433.629, 23352.590
434.969, 25526.934
436.309, 26054.467
437.648, 26334.172
438.987, 25179.045
440.326, 23656.082
441.665, 21930.301
443.003, 20923.680
444.342, 19761.225
445.680, 19315.924
447.018, 19383.760
448.355, 19097.748
449.693, 19692.846
451.030, 19904.078
452.367, 20437.486
453.704, 19463.043
455.041, 19519.742
456.377, 18304.568
457.713, 17691.518
459.049, 15932.606
460.385, 14664.849
461.721, 12745.198
463.056, 10756.693
464.391, 9102.291
465.726, 7831.988
467.061, 6400.791
468.395, 5529.705
469.730, 4805.736
471.064, 4122.857
472.398, 3695.072
473.731, 3084.380
475.065, 2693.782
476.398, 2143.271
477.731, 1883.844
479.064, 1655.501
480.397, 1648.241
481.729, 1589.063
483.062, 1526.966
484.394, 1554.949
485.725, 1719.010
487.057, 1860.148
488.389, 2232.363
489.720, 2263.652
491.051, 2538.018
492.382, 2964.457
493.712, 3604.970
495.043, 4018.555
496.373, 4848.212
497.703, 5621.220
499.032, 7021.738
500.362, 7265.607
501.691, 8119.541
503.020, 8618.547
504.349, 9323.619
505.678, 9836.760
507.007, 10386.962
508.335, 10395.231
509.663, 10124.566
510.991, 9632.964
512.319, 8461.425
513.646, 7453.945
514.973, 6130.529
516.300, 5243.172
517.627, 4324.875
518.954, 3285.635
520.280, 2892.455
521.607, 2293.330
522.933, 1908.263
524.259, 1625.251
525.584, 1300.294
526.910, 1137.391
528.235, 1028.540
529.560, 876.742
530.885, 789.356
532.209, 696.105
533.534, 625.501
534.858, 637.153
536.182, 609.040
537.506, 638.130
538.829, 723.828
540.152, 815.636
541.476, 892.281
542.799, 1003.750
544.121, 1121.862
545.444, 1236.677
546.766, 1425.542
548.088, 1610.455
549.410, 1885.416
550.732, 2144.424
552.053, 2626.002
553.375, 3032.396
554.696, 3619.152
556.017, 4541.193
557.337, 5582.178
558.658, 6957.379
559.978, 8553.926
561.298, 10707.551
562.618, 12629.527
563.938, 14310.023
565.257, 14500.360
566.576, 14693.800
567.895, 13547.377
569.214, 11688.877
570.533, 9807.906
571.851, 8203.847
573.170, 7440.679
574.488, 6880.793
575.805, 6807.246
577.123, 7068.160
578.440, 7613.798
579.758, 8442.101
581.075, 9329.490
582.391, 10771.506
583.708, 11816.825
585.024, 13250.236
586.341, 15217.670
587.657, 16524.424
588.972, 18463.211
590.288, 20061.064
591.603, 21744.834
592.918, 23819.721
594.233, 26585.689
595.548, 28462.234
596.863, 30171.432
598.177, 30840.084
599.491, 31119.230
600.805, 29773.855
602.119, 28148.232
603.432, 26589.461
604.746, 24992.197
606.059, 22743.900
607.372, 21597.799
608.685, 20638.740
609.997, 19728.098
611.309, 19126.545
612.621, 18525.979
613.933, 17875.734
615.245, 16814.791
616.557, 15729.356
617.868, 13858.214
619.179, 12341.929
620.490, 10738.169
621.801, 9401.733
623.111, 8074.341
624.421, 6978.393
625.731, 6091.543
627.041, 5613.209
628.351, 4770.119
629.660, 4451.631
630.970, 4097.387
632.279, 3685.736
633.588, 3392.584
634.896, 3117.005
636.205, 2866.760
637.513, 2646.775
638.821, 2523.921
640.129, 2356.867
641.437, 2301.982
642.744, 2076.622
644.051, 2020.210
645.358, 1889.747
646.665, 1752.230
647.972, 1658.661
649.278, 1525.037
650.584, 1443.178
651.890, 1334.625
653.196, 1294.835
654.502, 1299.988
655.807, 1260.385
657.113, 1030.121
658.418, 1164.099
659.722, 958.017
661.027, 876.875
662.331, 900.672
663.636, 861.408
664.940, 738.081
666.244, 781.690
667.547, 667.236
668.851, 678.719
670.154, 653.135
671.457, 639.486
672.760, 695.771
674.062, 641.989
675.365, 705.139
676.667, 595.221
677.969, 669.234
679.271, 705.179
680.572, 575.053
681.874, 685.856
683.175, 746.588
684.476, 708.249
685.777, 686.838
687.077, 701.354
688.378, 645.796
689.678, 721.208
690.978, 674.617
692.278, 537.021
693.577, 638.458
694.877, 612.900
696.176, 613.376
697.475, 609.834
698.774, 683.243
700.072, 430.573
701.371, 531.824
702.669, 400.997
703.967, 398.090
705.265, 393.103
706.562, 275.035
707.860, 154.885
709.157, 204.648
710.454, 155.325
711.751, 139.912
713.047, 11.405
714.344, 28.767
715.640, 40.998
716.936, 56.924
718.232, 13.011
719.527, 36.242
720.823, 25.398
722.118, 63.049
723.413, 102.648
724.708, 107.420
726.002, 17.396
727.297, 205.532
728.591, 26.925
729.885, 141.485
731.179, 193.271
732.472, 199.313
733.766, 225.615
735.059, 235.188
736.352, 124.042
737.645, 165.117
738.937, 121.435
740.230, 185.973
741.522, 201.768
742.814, 126.826
744.106, 95.109
745.397, 175.600
746.689, 158.342
747.980, 112.326
749.271, 161.528
750.562, 138.973
751.853, 165.651
753.143, 93.575
754.433, 165.706
755.723, 126.083
757.013, 138.685
758.303, 73.517
759.592, 34.546
760.881, 66.751
762.170, 85.852
763.459, 40.667
764.748, 80.364
766.036, 60.741
767.325, 4.281
768.613, 22.539
769.901, 15.217
771.188, 10.250
772.476, 38.124
773.763, 72.365
775.050, 141.484
776.337, 72.495
777.624, 112.386
778.910, 49.165
780.196, 131.817
781.482, 56.361
782.768, 137.784
784.054, 164.100
785.339, 139.314
786.625, 98.424
787.910, 214.422
789.195, 283.326
790.479, 303.136
791.764, 241.855
793.048, 309.482
794.332, 344.019
795.616, 289.467
796.900, 434.825
798.183, 410.098
799.467, 435.285
800.750, 460.388
802.033, 439.407
803.316, 602.341
804.598, 579.192
805.880, 754.960
807.163, 725.646
808.445, 828.248
809.726, 762.770
811.008, 902.209
812.289, 1070.568
813.570, 1166.847
814.851, 1211.045
816.132, 1324.164
817.413, 1402.204
818.693, 1592.165
819.973, 1718.048
821.253, 1855.853
822.533, 2045.581
823.813, 2380.231
825.092, 2483.806
826.371, 2707.305
827.650, 2809.729
828.929, 3192.075
830.208, 3315.350
831.486, 3387.549
832.764, 3515.266
834.042, 3566.819
835.320, 3537.708
836.598, 3621.616
837.875, 3587.453
839.152, 3500.219
840.429, 3560.917
841.706, 3475.546
842.983, 3471.108
844.259, 3634.604
845.536, 3514.030
846.812, 3529.389
848.088, 3582.681
849.363, 3729.913
850.639, 3926.080
851.914, 3973.182
853.189, 4133.233
854.464, 4446.221
855.739, 4555.149
857.013, 4678.021
858.288, 4833.827
859.562, 5058.585
860.836, 5238.285
862.110, 5256.401
863.383, 5498.691
864.656, 5630.617
865.930, 5683.155
867.203, 5842.912
868.475, 5841.355
869.748, 5835.431
871.020, 5990.359
872.292, 6107.897
873.564, 6249.836
874.836, 6488.399
876.108, 6729.377
877.379, 7241.730
878.650, 7505.652
879.922, 7935.096
881.192, 8325.606
882.463, 8496.209
883.733, 9057.506
885.004, 9332.445
886.274, 9738.906
887.544, 10249.621
888.813, 10400.646
890.083, 10698.571
891.352, 11045.843
892.621, 11557.788
893.890, 12125.622
895.159, 12830.409
896.427, 13719.854
897.695, 15060.248
898.964, 16063.553
900.232, 17512.910
901.499, 19217.133
902.767, 21283.246
904.034, 23260.768
905.301, 26060.604
906.568, 29147.965
907.835, 32022.807
909.102, 35036.148
910.368, 38661.707
911.634, 42390.398
912.900, 44934.543
914.166, 48332.707
915.432, 49147.645
916.697, 48695.504
917.962, 48187.938
919.227, 44888.250
920.492, 41174.547
921.757, 37126.492
923.021, 33362.113
924.285, 29151.203
925.550, 25442.961
926.813, 22167.840
928.077, 19220.166
929.341, 16809.135
930.604, 14775.036
931.867, 12736.460
933.130, 11353.760
934.393, 9980.510
935.655, 8799.987
936.918, 8025.833
938.180, 7135.403
939.442, 6365.351
940.703, 6029.769
941.965, 5405.583
943.226, 4939.506
944.488, 4543.201
945.749, 4505.207
947.009, 4118.380
948.270, 4022.362
949.530, 3873.788
950.791, 3787.237
952.051, 3699.708
953.311, 3603.211
954.570, 3612.748
955.830, 3608.327
957.089, 3550.947
958.348, 3467.597
959.607, 3406.281
960.866, 3244.008
962.124, 2985.778
963.383, 2869.575
964.641, 2743.418
965.899, 2713.316
967.156, 2522.243
968.414, 2474.201
969.671, 2501.192
970.928, 2520.222
972.185, 2661.286
973.442, 2765.382
974.699, 3091.517
975.955, 3287.700
977.211, 3606.915
978.468, 3835.164
979.723, 3800.446
980.979, 3800.760
982.234, 3598.109
983.490, 3170.497
984.745, 2841.926
986.000, 2352.397
987.254, 1975.915
988.509, 1769.470
989.763, 1504.070
991.017, 1326.268
992.271, 1145.042
993.525, 1015.432
994.779, 933.363
996.032, 789.161
997.285, 695.998
998.538, 552.621
999.791, 628.268
1001.044, 449.802
1002.296, 526.219
1003.548, 364.972
1004.800, 301.312
1006.052, 472.807
1007.304, 870.635
1008.555, 1294.983
1009.807, 977.899
1011.058, 1253.661
1012.309, 659.427
1013.559, 506.746
1014.810, 487.701
1016.060, 711.472
1017.310, 732.297
1018.560, 695.705
1019.810, 759.562
1021.060, 874.525
1022.309, 828.589
1023.558, 955.997
1024.807, 892.261
1026.056, 1026.024
1027.305, 1139.473
1028.553, 1187.111
1029.801, 1322.792
1031.049, 1564.567
1032.297, 1615.504
1033.545, 1890.532
1034.793, 2113.686
1036.040, 2364.982
1037.287, 2535.098
1038.534, 2638.020
1039.781, 2826.761
1041.027, 2829.628
1042.274, 2916.623
1043.520, 2950.739
1044.766, 2748.003
1046.012, 2692.407
1047.257, 2439.935
1048.503, 2392.583
1049.748, 2187.370
1050.993, 2120.284
1052.238, 1889.314
1053.483, 1786.475
1054.727, 1664.762
1055.971, 1713.180
1057.216, 1628.709
1058.459, 1652.373
1059.703, 1576.152
1060.947, 1478.054
1062.190, 1446.057
1063.433, 1304.154
1064.676, 1243.352
1065.919, 1128.616
1067.162, 1123.244
1068.404, 1189.433
1069.646, 1181.960
1070.888, 1356.569
1072.130, 1488.254
1073.372, 1696.013
1074.613, 2019.855
1075.855, 2369.820
1077.096, 2833.797
1078.337, 3660.830
1079.578, 4314.928
1080.818, 5298.083
1082.059, 6415.305
1083.299, 7647.583
1084.539, 8946.927
1085.779, 9919.326
1087.018, 10372.777
1088.258, 10205.287
1089.497, 9243.850
1090.736, 7726.465
1091.975, 6512.693
1093.213, 5038.642
1094.452, 4197.461
1095.690, 3226.271
1096.928, 2514.065
1098.166, 2018.188
1099.404, 1769.785
1100.642, 1400.779
1101.879, 1239.049
1103.116, 1087.429
1104.353, 1006.526
1105.590, 794.664
1106.827, 760.302
1108.063, 564.034
1109.299, 573.558
1110.536, 573.940
1111.771, 443.762
1113.007, 429.558
1114.243, 309.098
1115.478, 361.797
1116.713, 372.058
1117.948, 269.917
1119.183, 269.659
1120.418, 313.334
1121.652, 615.545
1122.886, 816.472
1124.120, 688.095
1125.354, 484.147
1126.588, 227.575
1127.821, 131.507
1129.055, 88.500
1130.288, 43.090
1131.521, 102.857
1132.753, 29.604
1133.986, 25.509
1135.218, 114.752
1136.450, 35.737
1137.682, 45.726
1138.914, 43.502
1140.146, 9.108
1141.377, 49.347
1142.609, 16.934
1143.840, 30.530
1145.071, 21.366
1146.301, 50.743
1147.532, 92.029
1148.762, 40.930
1149.992, 31.242
1151.222, 152.803
1152.452, 69.645
1153.682, 73.515
1154.911, 84.536
1156.140, 8.808
1157.369, 146.615
1158.598, 74.711
1159.827, 26.587
1161.055, 88.441
1162.284, 137.494
1163.512, 62.775
1164.740, 12.902
1165.967, 77.497
1167.195, 37.520
1168.422, 21.238
1169.650, 6.907
1170.877, 14.858
1172.103, 45.960
1173.330, 23.546
1174.557, 32.788
1175.783, 3.687
1177.009, 10.328
1178.235, 128.969
1179.461, 9.602
1180.686, 34.313
1181.912, 151.416
1183.137, 79.784
1184.362, 145.291
1185.587, 93.854
1186.811, 15.998
1188.036, 113.601
1189.260, 95.794
1190.484, 112.474
1191.708, 43.005
1192.932, 118.884
1194.155, 123.497
1195.378, 105.494
1196.602, 124.053
1197.825, 129.426
1199.047, 153.435
1200.270, 147.183
1201.492, 139.837
1202.715, 178.039
1203.937, 171.083
1205.159, 166.330
1206.380, 165.869
1207.602, 170.434
1208.823, 154.432
1210.044, 139.416
1211.265, 168.579
1212.486, 71.540
1213.707, 47.344
1214.927, 89.118
1216.147, 83.728
1217.367, 110.304
1218.587, 94.914
1219.807, 53.339
1221.027, 118.161
1222.246, 9.548
1223.465, 37.018
1224.684, 24.367
1225.903, 71.961
1227.121, 63.461
1228.340, 43.754
1229.558, 45.307
1230.776, 82.618
1231.994, 24.890
1233.212, 122.121
1234.429, 48.347
1235.646, 24.646
1236.864, 108.049
1238.081, 1.323
1239.297, 14.286
1240.514, 20.859
1241.730, 43.013
1242.947, 24.698
1244.163, 16.359
1245.378, 4.344
1246.594, 41.250
1247.810, 41.863
1249.025, 24.023
1250.240, 66.218
1251.455, 48.481
1252.670, 3.783
1253.885, 21.088
1255.099, 47.452
1256.313, 42.829
1257.527, 23.714
1258.741, 44.789
1259.955, 86.219
1261.168, 37.169
1262.382, 22.522
1263.595, 11.832
1264.808, 0.858
1266.021, 20.358
1267.233, 34.540
1268.446, 2.680
1269.658, 22.266
1270.870, 49.758
1272.082, 39.636
1273.294, 91.396
1274.505, 89.067
1275.716, 43.670
1276.928, 42.223
1278.139, 23.692
1279.349, 22.799
1280.560, 18.537
1281.770, 47.593
1282.981, 27.744
1284.191, 58.833
1285.401, 92.289
1286.610, 64.130
1287.820, 105.336
1289.029, 48.980
1290.239, 69.738
1291.448, 43.429
1292.656, 80.324
1293.865, 19.187
1295.073, 89.149
1296.282, 1.779
1297.490, 66.949
1298.698, 69.085
1299.906, 76.058
1301.113, 95.692
1302.320, 19.797
1303.528, 82.326
1304.735, 1.002
1305.942, 14.333
1307.148, 84.773
1308.355, 25.769
1309.561, 28.131
1310.767, 51.556
1311.973, 93.548
1313.179, 23.978
1314.384, 10.517
1315.590, 46.057
1316.795, 31.048
1318.000, 0.676
1319.205, 46.111
1320.410, 75.246
1321.614, 6.765
1322.819, 18.229
1324.023, 46.852
1325.227, 74.980
1326.431, 33.752
1327.634, 28.458
1328.838, 6.098
1330.041, 51.668
1331.244, 66.177
1332.447, 26.627
1333.650, 115.014
1334.852, 52.347
1336.055, 9.622
1337.257, 81.829
1338.459, 56.979
1339.661, 22.069
1340.862, 60.093
1342.064, 111.059
1343.265, 80.970
1344.466, 92.824
1345.667, 59.623
1346.868, 126.363
1348.068, 82.050
1349.269, 74.683
1350.469, 162.261
1351.669, 126.826
1352.869, 147.272
1354.069, 148.706
1355.268, 131.094
1356.468, 150.436
1357.667, 171.733
1358.866, 176.350
1360.065, 213.200
1361.263, 218.373
1362.462, 207.509
1363.660, 248.608
1364.858, 160.676
1366.056, 309.710
1367.254, 227.665
1368.451, 260.646
1369.649, 190.610
1370.846, 209.559
1372.043, 275.500
1373.240, 189.853
1374.436, 243.813
1375.633, 248.377
1376.829, 285.033
1378.025, 277.628
1379.221, 247.583
1380.417, 221.706
1381.613, 250.067
1382.808, 220.453
1384.003, 278.245
1385.199, 255.580
1386.393, 211.734
1387.588, 251.283
1388.783, 258.070
1389.977, 284.948
1391.171, 307.337
1392.365, 312.392
1393.559, 308.114
1394.753, 304.436
1395.946, 284.454
1397.140, 248.200
1398.333, 274.329
1399.526, 242.754
1400.719, 247.691
1401.911, 250.207
1403.104, 223.676
1404.296, 265.347
1405.488, 289.211
1406.680, 295.818
1407.872, 237.308
1409.063, 264.224
1410.255, 259.096
1411.446, 249.423
1412.637, 278.338
1413.828, 226.413
1415.018, 244.107
1416.209, 227.823
1417.399, 245.907
1418.589, 263.805
1419.779, 243.484
1420.969, 252.024
1422.159, 252.250
1423.348, 207.465
1424.537, 240.523
1425.726, 234.338
1426.915, 164.829
1428.104, 206.118
1429.293, 239.770
1430.481, 225.437
1431.669, 223.147
1432.857, 241.439
1434.045, 238.717
1435.233, 279.439
1436.420, 231.143
1437.608, 214.356
1438.795, 265.286
1439.982, 258.680
1441.169, 293.106
1442.355, 213.949
1443.542, 291.252
1444.728, 261.743
1445.914, 300.409
1447.100, 250.284
1448.286, 267.098
1449.472, 209.067
1450.657, 215.735
1451.842, 299.763
1453.027, 273.272
1454.212, 314.339
1455.397, 294.322
