##NAMES=Epidote
##RRUFFID=R050064
##IDEAL CHEMISTRY=Ca_2_Fe^3+^Al_2_(Si_2_O_7_)(SiO_4_)O(OH)
##LOCALITY=East Xichang City, Meigu County, Sichuan Province, China
##OWNER=RRUFF
##SOURCE=Rock Currier
##DESCRIPTION=Green prismatic crystals
##STATUS=The identification of this mineral has been confirmed by X-ray diffraction and chemical analysis
##URL=rruff.info/R050064
##MEASURED CHEMISTRY=(Ca_1.99_Mn_0.01_)_Î£=2_Fe^3+^_1.00_Al_2.00_(Si_2.00_O_7_)(Si_1.00_O_4_)O(OH); 
##PIN_ID=L00111
##ORIENTATION=Laser parallel to (-1 0 -1). Fiducial mark perpendicular to laser is parallel to -b [0 -1 0]
84.529, 0.000
85.929, 6.244
87.329, 166.917
88.728, 529.488
90.128, 1149.926
91.527, 2020.502
92.926, 2748.485
94.324, 3475.381
95.723, 4359.996
97.121, 5019.730
98.519, 5445.895
99.917, 5253.697
101.314, 4793.527
102.712, 3868.312
104.109, 3032.124
105.505, 2352.344
106.902, 1718.260
108.298, 1266.081
109.694, 811.945
111.090, 704.732
112.486, 553.718
113.881, 544.795
115.277, 430.006
116.672, 309.268
118.066, 174.139
119.461, 137.426
120.855, 54.932
122.249, 127.386
123.643, 153.491
125.036, 211.223
126.430, 316.663
127.823, 323.792
129.216, 331.878
130.608, 356.872
132.001, 242.727
133.393, 195.070
134.785, 63.870
136.176, 29.094
137.568, 4.717
138.959, 48.286
140.350, 14.936
141.741, 167.258
143.131, 155.277
144.521, 131.008
145.911, 72.461
147.301, 41.646
148.691, 9.570
150.080, 14.242
151.469, 34.670
152.858, 90.140
154.247, 135.181
155.635, 292.446
157.024, 451.932
158.411, 626.632
159.799, 1042.542
161.187, 1476.657
162.574, 2110.973
163.961, 3026.485
165.348, 4009.881
166.734, 5386.859
168.121, 6655.326
169.507, 8283.722
170.893, 9542.095
172.278, 10380.471
173.664, 10508.869
175.049, 9827.294
176.434, 8565.755
177.819, 6984.256
179.203, 5622.800
180.587, 4358.393
181.971, 3580.036
183.355, 2911.723
184.739, 1921.450
186.122, 1584.220
187.505, 1213.039
188.888, 838.910
190.271, 655.838
191.653, 512.827
193.035, 275.877
194.417, 296.992
195.799, 306.135
197.180, 393.201
198.562, 448.205
199.943, 556.247
201.324, 724.352
202.704, 774.532
204.084, 711.797
205.465, 640.148
206.844, 563.586
208.224, 400.109
209.603, 226.720
210.983, 209.416
212.362, 225.198
213.740, 299.066
215.119, 352.020
216.497, 356.059
217.875, 663.183
219.253, 735.391
220.631, 1237.685
222.008, 1715.062
223.385, 2379.524
224.762, 3238.070
226.139, 4327.699
227.515, 5354.411
228.891, 6145.208
230.267, 6762.876
231.643, 7287.047
233.018, 7498.090
234.394, 7589.216
235.769, 7540.421
237.144, 7451.711
238.518, 7513.078
239.893, 7504.528
241.267, 7136.058
242.641, 6717.669
244.014, 5857.171
245.388, 4878.775
246.761, 3935.438
248.134, 3132.655
249.507, 2333.603
250.879, 1870.577
252.252, 1616.949
253.624, 1313.183
254.996, 1078.869
256.367, 970.909
257.739, 866.236
259.110, 650.797
260.481, 620.554
261.852, 580.485
263.222, 636.575
264.592, 759.807
265.962, 970.128
267.332, 1397.529
268.702, 1787.015
270.071, 2587.589
271.440, 3426.255
272.809, 4074.017
274.178, 4522.873
275.546, 4582.823
276.915, 4544.860
278.283, 4187.906
279.650, 3566.694
281.018, 2849.390
282.385, 2465.153
283.752, 2115.991
285.119, 1885.944
286.486, 1720.010
287.852, 1547.185
289.218, 1461.465
290.584, 1308.849
291.950, 1407.333
293.316, 1455.916
294.681, 1438.593
296.046, 1441.363
297.411, 1420.125
298.775, 1371.665
300.140, 1371.209
301.504, 1288.329
302.868, 1310.404
304.231, 1339.534
305.595, 1522.168
306.958, 1778.026
308.321, 2126.661
309.684, 2643.660
311.047, 3087.498
312.409, 3382.760
313.771, 3460.278
315.133, 3430.758
316.495, 3053.643
317.856, 2698.681
319.217, 2417.788
320.578, 2197.965
321.939, 2126.210
323.299, 2019.522
324.660, 2226.900
326.020, 2306.345
327.380, 2510.853
328.739, 2795.425
330.099, 2900.057
331.458, 3036.742
332.817, 3109.477
334.176, 3055.265
335.534, 3078.102
336.892, 3051.992
338.251, 3136.933
339.608, 3299.925
340.966, 3848.969
342.323, 4686.064
343.681, 5780.208
345.037, 7054.406
346.394, 8528.651
347.751, 9822.949
349.107, 10347.299
350.463, 10291.698
351.819, 10046.143
353.174, 8750.646
354.530, 7445.191
355.885, 6109.790
357.240, 4874.436
358.594, 3999.132
359.949, 3275.877
361.303, 2810.670
362.657, 2381.515
364.011, 2210.408
365.365, 2147.351
366.718, 1992.343
368.071, 1809.384
369.424, 1487.472
370.777, 1197.608
372.129, 842.793
373.481, 528.024
374.833, 373.303
376.185, 198.626
377.537, 161.997
378.888, 48.414
380.239, 78.875
381.590, 142.383
382.941, 355.936
384.291, 723.534
385.642, 1118.177
386.992, 1499.865
388.341, 1815.600
389.691, 1934.380
391.040, 1928.208
392.389, 1538.084
393.738, 1202.017
395.087, 908.005
396.435, 475.060
397.784, 128.173
399.132, 99.649
400.479, 259.429
401.827, 363.205
403.174, 404.988
404.521, 436.796
405.868, 412.641
407.215, 373.605
408.561, 298.772
409.908, 170.136
411.254, 33.370
412.599, 372.900
413.945, 554.521
415.290, 993.222
416.636, 1522.008
417.980, 2297.855
419.325, 3255.776
420.670, 4214.778
422.014, 5402.836
423.358, 6378.980
424.702, 7345.204
426.045, 8031.506
427.389, 8917.888
428.732, 10184.352
430.075, 11860.894
431.417, 13987.510
432.760, 16814.189
434.102, 19170.926
435.444, 20637.715
436.786, 20664.553
438.127, 20031.459
439.469, 18258.434
440.810, 16365.473
442.151, 14872.568
443.492, 13449.753
444.832, 13097.003
446.172, 12994.325
447.512, 13041.707
448.852, 13819.151
450.192, 14426.665
451.531, 15344.241
452.870, 15821.886
454.209, 16049.587
455.548, 16467.355
456.887, 15845.175
458.225, 14693.054
459.563, 12940.977
460.901, 11088.949
462.238, 9186.969
463.576, 7365.041
464.913, 5883.166
466.250, 4631.351
467.587, 3691.577
468.923, 2952.876
470.259, 2423.242
471.596, 1874.667
472.931, 1574.140
474.267, 1291.657
475.603, 1055.212
476.938, 912.803
478.273, 804.428
479.608, 718.083
480.942, 714.767
482.276, 616.479
483.611, 680.218
484.944, 720.983
486.278, 770.774
487.612, 950.590
488.945, 1014.428
490.278, 1205.290
491.611, 1504.174
492.943, 1795.080
494.276, 2356.007
495.608, 3047.955
496.940, 3610.922
498.271, 4406.910
499.603, 5022.918
500.934, 5607.945
502.265, 6136.991
503.596, 6776.054
504.927, 7135.135
506.257, 7584.234
507.587, 8023.350
508.917, 7912.482
510.247, 7721.631
511.577, 6870.795
512.906, 5889.974
514.235, 4793.167
515.564, 3851.377
516.892, 3028.599
518.221, 2381.833
519.549, 1993.082
520.877, 1463.342
522.205, 1203.645
523.533, 997.929
524.860, 760.225
526.187, 522.531
527.514, 326.848
528.841, 251.174
530.167, 204.510
531.493, 110.854
532.820, 93.208
534.145, 91.569
535.471, 56.937
536.796, 135.313
538.122, 46.746
539.447, 125.135
540.771, 133.679
542.096, 273.078
543.420, 269.961
544.744, 285.431
546.068, 416.065
547.392, 490.338
548.715, 582.386
550.039, 640.911
551.362, 824.431
552.684, 1079.079
554.007, 1317.492
555.329, 1659.629
556.652, 2142.785
557.973, 2790.665
559.295, 3920.109
560.617, 5343.563
561.938, 7304.218
563.259, 9398.930
564.580, 10951.219
565.901, 11503.193
567.221, 10857.395
568.541, 9037.287
569.861, 7452.040
571.181, 5956.130
572.501, 4944.230
573.820, 4231.391
575.139, 3846.568
576.458, 3931.197
577.777, 3957.835
579.095, 4410.189
580.414, 5014.237
581.732, 5907.155
583.049, 6921.907
584.367, 8088.131
585.685, 9186.594
587.002, 10174.473
588.319, 11281.150
589.636, 12287.694
590.952, 13811.353
592.268, 15463.125
593.585, 17366.484
594.900, 19496.816
596.216, 21361.059
597.532, 22878.643
598.847, 23851.797
600.162, 22854.654
601.477, 21994.441
602.792, 20489.875
604.106, 18765.023
605.420, 17539.395
606.734, 16463.189
608.048, 15969.414
609.361, 15694.060
610.675, 15489.702
611.988, 15712.646
613.301, 15208.855
614.614, 14511.745
615.926, 13225.084
617.238, 11736.489
618.550, 10078.347
619.862, 8680.105
621.174, 7142.953
622.485, 5917.081
623.797, 5036.234
625.108, 4272.579
626.418, 3641.904
627.729, 3118.893
629.039, 2668.450
630.349, 2376.224
631.659, 2096.283
632.969, 1818.403
634.279, 1664.764
635.588, 1468.782
636.897, 1361.687
638.206, 1263.754
639.515, 1129.648
640.823, 1055.372
642.131, 951.940
643.439, 881.415
644.747, 840.814
646.055, 712.058
647.362, 665.178
648.669, 549.237
649.976, 603.257
651.283, 520.236
652.589, 495.175
653.896, 456.073
655.202, 414.930
656.508, 448.746
657.814, 354.521
659.119, 336.254
660.424, 361.945
661.729, 282.593
663.034, 313.199
664.339, 277.762
665.643, 223.281
666.947, 230.758
668.251, 186.190
669.555, 165.579
670.859, 151.923
672.162, 133.580
673.465, 163.479
674.768, 143.689
676.071, 139.854
677.373, 198.974
678.676, 124.048
679.978, 209.076
681.280, 148.058
682.581, 204.993
683.883, 361.882
685.184, 302.003
686.485, 323.519
687.786, 305.267
689.087, 271.967
690.387, 270.620
691.687, 229.226
692.987, 193.783
694.287, 149.292
695.586, 168.752
696.886, 130.487
698.185, 168.525
699.484, 86.836
700.783, 158.094
702.081, 122.302
703.379, 63.458
704.677, 79.557
705.975, 51.599
707.273, 52.581
708.570, 3.498
709.868, 0.402
711.165, 42.897
712.462, 11.238
713.758, 38.665
715.055, 40.193
716.351, 26.799
717.647, 72.442
718.943, 46.124
720.238, 36.820
721.533, 9.517
722.829, 11.207
724.124, 36.900
725.418, 5.628
726.713, 25.402
728.007, 57.272
729.301, 26.252
730.595, 58.328
731.889, 16.484
733.182, 33.777
734.476, 61.138
735.769, 35.387
737.061, 102.155
738.354, 67.833
739.647, 59.628
740.939, 95.537
742.231, 86.578
743.523, 67.746
744.814, 66.031
746.106, 20.433
747.397, 9.418
748.688, 16.640
749.978, 64.842
751.269, 31.880
752.559, 85.699
753.849, 15.644
755.139, 11.678
756.429, 122.798
757.719, 54.062
759.008, 50.433
760.297, 38.911
761.586, 30.487
762.875, 70.158
764.163, 45.944
765.451, 62.831
766.739, 20.829
768.027, 73.914
769.315, 22.114
770.602, 30.401
771.890, 0.780
773.177, 9.161
774.463, 8.767
775.750, 27.378
777.036, 33.076
778.323, 18.864
779.609, 12.266
780.894, 10.331
782.180, 23.463
783.465, 49.269
784.750, 29.150
786.035, 9.972
787.320, 4.731
788.605, 47.426
789.889, 79.064
791.173, 86.649
792.457, 61.183
793.741, 75.663
795.024, 92.092
796.307, 118.469
797.591, 129.799
798.873, 137.080
800.156, 163.313
801.439, 181.500
802.721, 192.725
804.003, 208.738
805.285, 205.790
806.566, 226.799
807.848, 207.763
809.129, 247.684
810.410, 292.562
811.691, 357.397
812.971, 351.190
814.252, 398.941
815.532, 433.650
816.812, 509.317
818.092, 531.943
819.371, 632.529
820.651, 719.074
821.930, 747.578
823.209, 845.043
824.488, 1040.468
825.766, 1130.854
827.045, 1245.200
828.323, 1351.508
829.601, 1472.778
830.878, 1538.009
832.156, 1611.203
833.433, 1669.636
834.710, 1717.449
835.987, 1750.532
837.264, 1751.578
838.540, 1782.479
839.817, 1828.562
841.093, 1846.500
842.369, 1949.404
843.644, 1930.272
844.920, 1942.106
846.195, 2083.906
847.470, 2154.673
848.745, 2169.362
850.020, 2337.066
851.294, 2393.591
852.568, 2619.237
853.842, 2718.375
855.116, 2980.900
856.390, 3219.237
857.663, 3491.314
858.936, 3957.785
860.209, 4193.162
861.482, 4643.519
862.755, 5140.728
864.027, 5213.145
865.299, 5496.811
866.571, 5590.437
867.843, 5579.308
869.115, 5628.059
870.386, 5395.626
871.657, 5659.304
872.928, 5774.609
874.199, 6033.474
875.470, 6676.028
876.740, 7208.444
878.010, 8130.795
879.280, 9215.913
880.550, 10449.339
881.820, 11720.729
883.089, 13384.041
884.358, 14725.313
885.627, 15911.109
886.896, 16343.873
888.164, 16964.904
889.433, 16641.211
890.701, 15919.630
891.969, 15060.188
893.236, 13931.246
894.504, 13240.050
895.771, 12549.408
897.038, 11979.949
898.305, 12230.598
899.572, 12144.111
900.838, 12649.482
902.105, 13523.247
903.371, 14080.011
904.637, 15552.841
905.902, 16612.305
907.168, 18706.186
908.433, 20540.334
909.698, 22447.518
910.963, 24849.053
912.228, 26690.828
913.492, 29293.363
914.757, 31006.455
916.021, 31097.086
917.285, 32189.273
918.548, 30000.441
919.812, 28624.287
921.075, 25684.834
922.338, 22678.684
923.601, 20192.049
924.864, 17367.332
926.126, 15142.134
927.388, 13367.013
928.650, 11250.773
929.912, 9874.235
931.174, 8728.645
932.435, 7574.836
933.697, 6701.030
934.958, 5786.533
936.218, 5217.443
937.479, 4768.112
938.739, 4224.471
940.000, 3787.754
941.260, 3494.771
942.520, 3180.111
943.779, 3034.540
945.039, 2770.782
946.298, 2672.186
947.557, 2547.747
948.816, 2409.000
950.074, 2319.208
951.333, 2212.030
952.591, 2145.988
953.849, 2050.051
955.107, 2066.156
956.365, 2146.286
957.622, 2007.440
958.879, 1982.617
960.136, 1955.821
961.393, 1794.055
962.650, 1805.318
963.906, 1669.611
965.162, 1544.937
966.418, 1544.292
967.674, 1448.675
968.930, 1558.080
970.185, 1565.501
971.441, 1648.939
972.696, 1829.396
973.950, 1941.875
975.205, 2209.375
976.459, 2516.895
977.714, 2797.440
978.968, 2956.010
980.222, 3105.599
981.475, 2937.215
982.729, 2763.858
983.982, 2328.523
985.235, 2029.208
986.488, 1736.914
987.740, 1394.641
988.993, 1203.389
990.245, 955.164
991.497, 869.962
992.749, 739.786
994.000, 660.633
995.252, 600.504
996.503, 465.398
997.754, 460.315
999.005, 487.467
1000.256, 416.431
1001.506, 441.427
1002.756, 339.673
1004.006, 337.710
1005.256, 381.753
1006.506, 383.849
1007.755, 461.590
1009.005, 460.124
1010.254, 533.575
1011.502, 669.934
1012.751, 763.171
1014.000, 998.469
1015.248, 1381.253
1016.496, 1631.212
1017.744, 1811.669
1018.991, 1897.971
1020.239, 1940.200
1021.486, 1993.294
1022.733, 1787.484
1023.980, 1608.091
1025.227, 1388.238
1026.473, 1160.167
1027.719, 1061.057
1028.965, 1046.038
1030.211, 1004.027
1031.457, 1061.075
1032.702, 1043.603
1033.948, 1138.764
1035.193, 1226.071
1036.438, 1373.340
1037.682, 1483.666
1038.927, 1667.049
1040.171, 1728.467
1041.415, 1819.970
1042.659, 1761.535
1043.903, 1858.161
1045.146, 1670.917
1046.390, 1643.682
1047.633, 1573.511
1048.876, 1341.405
1050.118, 1330.349
1051.361, 1177.336
1052.603, 1016.652
1053.845, 988.720
1055.087, 927.840
1056.329, 840.024
1057.571, 898.254
1058.812, 858.529
1060.053, 910.286
1061.294, 853.691
1062.535, 746.149
1063.775, 815.658
1065.016, 695.216
1066.256, 734.843
1067.496, 847.511
1068.736, 801.237
1069.975, 925.007
1071.214, 994.869
1072.454, 1171.744
1073.693, 1469.665
1074.931, 1643.626
1076.170, 2029.628
1077.408, 2508.669
1078.647, 3006.241
1079.885, 3814.374
1081.122, 4570.550
1082.360, 5713.727
1083.597, 6948.972
1084.835, 7741.252
1086.072, 8343.854
1087.308, 7786.194
1088.545, 6991.363
1089.781, 6036.769
1091.018, 4883.380
1092.254, 3810.037
1093.490, 3076.934
1094.725, 2303.406
1095.961, 1916.022
1097.196, 1480.608
1098.431, 1246.579
1099.666, 1061.004
1100.900, 896.608
1102.135, 765.150
1103.369, 731.917
1104.603, 593.335
1105.837, 520.088
1107.071, 482.874
1108.304, 364.128
1109.538, 378.667
1110.771, 296.301
1112.004, 255.516
1113.236, 252.396
1114.469, 194.033
1115.701, 262.788
1116.933, 225.376
1118.165, 159.392
1119.397, 193.356
1120.629, 145.453
1121.860, 263.411
1123.091, 285.956
1124.322, 142.150
1125.553, 163.788
1126.783, 73.132
1128.014, 131.301
1129.244, 93.908
1130.474, 67.851
1131.704, 61.229
1132.933, 48.447
1134.163, 18.677
1135.392, 47.972
1136.621, 19.256
1137.850, 29.777
1139.079, 33.177
1140.307, 32.311
1141.535, 53.278
1142.763, 42.746
1143.991, 63.176
1145.219, 59.606
1146.446, 58.988
1147.674, 34.451
1148.901, 1.874
1150.128, 58.379
1151.354, 9.254
1152.581, 48.753
1153.807, 2.791
1155.033, 35.047
1156.259, 60.435
1157.485, 56.587
1158.710, 10.954
1159.936, 75.319
1161.161, 10.274
1162.386, 24.776
1163.611, 29.386
1164.835, 8.760
1166.060, 37.119
1167.284, 32.541
1168.508, 25.184
1169.732, 26.233
1170.955, 38.313
1172.179, 51.624
1173.402, 5.653
1174.625, 10.759
1175.848, 1.588
1177.070, 24.077
1178.293, 52.976
1179.515, 19.877
1180.737, 52.997
1181.959, 4.244
1183.181, 62.215
1184.402, 63.947
1185.624, 41.526
1186.845, 57.930
1188.066, 41.341
1189.286, 33.367
1190.507, 22.740
1191.727, 1.568
1192.947, 17.141
1194.167, 5.757
1195.387, 38.469
1196.607, 79.687
1197.826, 14.985
1199.045, 9.042
1200.264, 46.611
1201.483, 9.294
1202.702, 42.804
1203.920, 100.332
1205.138, 51.938
1206.356, 10.629
1207.574, 41.935
1208.792, 32.314
1210.009, 64.693
1211.227, 20.057
1212.444, 4.439
1213.661, 55.789
1214.877, 38.213
1216.094, 26.547
1217.310, 4.951
1218.526, 35.389
1219.742, 59.698
1220.958, 26.997
1222.173, 15.287
1223.389, 52.568
1224.604, 5.035
1225.819, 54.220
1227.034, 29.465
1228.248, 14.130
1229.463, 68.084
1230.677, 13.719
1231.891, 2.911
1233.105, 27.087
1234.318, 41.636
1235.532, 18.492
1236.745, 12.343
1237.958, 9.017
1239.171, 4.088
1240.384, 38.860
1241.596, 39.698
1242.809, 20.292
1244.021, 26.610
1245.233, 0.322
1246.444, 1.670
1247.656, 15.764
1248.867, 1.979
1250.079, 27.195
1251.290, 15.349
1252.500, 14.633
1253.711, 20.883
1254.921, 40.151
1256.132, 24.538
1257.342, 32.632
1258.552, 42.068
1259.761, 21.154
1260.971, 21.888
1262.180, 15.573
1263.389, 36.017
1264.598, 63.668
1265.807, 35.081
1267.015, 13.569
1268.223, 23.937
1269.432, 36.282
1270.640, 4.617
1271.847, 11.000
1273.055, 51.193
1274.262, 8.429
1275.470, 3.592
1276.677, 39.707
1277.883, 62.793
1279.090, 65.853
1280.296, 55.868
1281.503, 63.846
1282.709, 17.790
1283.915, 49.707
1285.120, 24.655
1286.326, 39.483
1287.531, 52.284
1288.736, 60.042
1289.941, 64.767
1291.146, 75.467
1292.350, 67.929
1293.555, 76.579
1294.759, 49.195
1295.963, 53.562
1297.167, 42.137
1298.370, 60.708
1299.574, 38.224
1300.777, 59.096
1301.980, 48.179
1303.183, 11.655
1304.386, 25.606
1305.588, 59.990
1306.790, 32.674
1307.993, 127.188
1309.195, 13.897
1310.396, 41.123
1311.598, 68.527
1312.799, 10.025
1314.000, 47.677
1315.201, 49.266
1316.402, 12.538
1317.603, 46.141
1318.803, 32.052
1320.003, 26.017
1321.203, 64.911
1322.403, 0.810
1323.603, 15.669
1324.802, 55.075
1326.002, 3.867
1327.201, 34.540
1328.400, 27.260
1329.599, 83.946
1330.797, 89.605
1331.995, 18.764
1333.194, 52.823
1334.392, 40.382
1335.589, 30.911
1336.787, 72.353
1337.985, 33.823
1339.182, 31.263
1340.379, 47.671
1341.576, 45.050
1342.772, 58.775
1343.969, 79.441
1345.165, 76.735
1346.361, 105.003
1347.557, 100.246
1348.753, 85.463
1349.949, 121.654
1351.144, 89.411
1352.339, 131.553
1353.534, 130.672
1354.729, 145.767
1355.924, 127.840
1357.118, 153.880
1358.312, 114.909
1359.506, 141.917
1360.700, 116.915
1361.894, 106.849
1363.088, 177.796
1364.281, 156.724
1365.474, 147.635
1366.667, 185.529
1367.860, 107.408
1369.052, 167.790
1370.245, 148.642
1371.437, 97.484
1372.629, 150.351
1373.821, 72.251
1375.013, 144.077
1376.204, 205.617
1377.395, 112.810
1378.586, 164.467
1379.777, 125.892
1380.968, 86.844
1382.159, 136.185
1383.349, 162.145
1384.539, 99.679
1385.729, 206.897
1386.919, 95.140
1388.109, 122.492
1389.298, 88.506
1390.487, 95.437
1391.676, 142.145
1392.865, 105.109
1394.054, 85.711
1395.242, 159.723
1396.431, 133.369
1397.619, 76.385
1398.807, 140.036
1399.995, 49.124
1401.182, 120.326
1402.370, 120.021
1403.557, 65.826
1404.744, 120.186
1405.931, 142.049
1407.118, 59.942
1408.304, 109.436
1409.490, 84.341
1410.676, 133.124
1411.862, 141.203
1413.048, 95.224
1414.234, 134.734
1415.419, 72.157
1416.604, 86.667
1417.789, 116.907
1418.974, 134.228
1420.159, 142.539
1421.343, 129.875
1422.528, 118.189
1423.712, 96.397
1424.896, 96.129
1426.079, 107.825
1427.263, 50.165
1428.446, 70.701
1429.629, 63.251
1430.812, 123.721
1431.995, 112.094
1433.178, 104.845
1434.360, 136.989
1435.543, 100.031
1436.725, 91.127
1437.907, 135.458
1439.088, 106.705
1440.270, 137.789
1441.451, 144.599
1442.632, 138.700
1443.813, 169.737
1444.994, 176.475
1446.175, 144.058
1447.355, 113.069
1448.535, 70.837
1449.715, 131.333
1450.895, 172.359
1452.075, 137.992
1453.255, 104.282
1454.434, 151.573
1455.613, 138.850
1456.792, 145.614
1457.971, 139.094
1459.149, 140.654
1460.328, 148.338
1461.506, 139.873
1462.684, 168.933
1463.862, 158.740
1465.040, 93.754
1466.217, 143.937
1467.395, 110.133
1468.572, 131.063
1469.749, 118.400
1470.925, 155.773
1472.102, 72.278
1473.278, 123.841
1474.455, 66.304
1475.631, 96.079
1476.807, 94.946
1477.982, 101.800
1479.158, 106.634
1480.333, 110.441
1481.508, 105.235
1482.683, 103.014
1483.858, 107.812
1485.033, 92.627
1486.207, 90.354
1487.381, 110.361
1488.555, 68.278
1489.729, 85.223
1490.903, 64.229
1492.076, 73.309
1493.250, 122.481
1494.423, 26.747
1495.596, 63.108
1496.769, 38.554
1497.941, 78.090
1499.114, 63.697
