##NAMES=Epidote
##RRUFFID=R050191
##IDEAL CHEMISTRY=Ca_2_Fe^3+^Al_2_(Si_2_O_7_)(SiO_4_)O(OH)
##LOCALITY=Pampa Blanca, Castrovirreyna Province, Huancavelica Department, Peru
##OWNER=RRUFF
##SOURCE=Dave Bunk Minerals
##DESCRIPTION=Cluster of green elongated prismatic crystals
##STATUS=The identification of this mineral has been confirmed by X-ray diffraction and chemical analysis
##URL=rruff.info/R050191
##MEASURED CHEMISTRY=Ca_2.00_Al_2.00_(Fe^3+^_0.84_Al_0.16_)(SiO_4_)(Si_2_O_7_)O(OH)
##PIN_ID=L01284
##ORIENTATION=Laser parallel to -a* (-1 0 0). Fiducial mark perpendicular to laser is parallel to b [0 1 0]
53.91000, 0.0000000E+00
55.14900, 35.69843
56.38700, 102.0929
57.62600, 158.9346
58.86400, 202.2689
60.10300, 302.7082
61.34100, 247.9855
62.57900, 150.5916
63.81700, 60.02869
65.05400, 24.90686
66.29200, 29.61676
67.52900, 48.39392
68.76700, 11.48865
70.00400, 72.77966
71.24100, 8.249634
72.47700, 59.30981
73.71400, 20.09399
74.95100, 212.7000
76.18700, 350.8813
77.42300, 403.2809
78.65900, 548.7656
79.89500, 784.2251
81.13100, 1079.560
82.36700, 1606.678
83.60200, 2177.491
84.83700, 2876.917
86.07200, 3205.881
87.30800, 3843.313
88.54200, 4361.151
89.77700, 4631.333
91.01200, 4632.803
92.24600, 4410.480
93.48000, 3951.260
94.71400, 3649.056
95.94800, 3437.792
97.18200, 2990.414
98.41600, 2797.881
99.64900, 2550.174
100.8830, 2160.321
102.1160, 1815.342
103.3490, 1556.227
104.5820, 1557.952
105.8150, 1576.501
107.0470, 2275.842
108.2800, 1851.074
109.5120, 2584.791
110.7440, 1497.342
111.9760, 1244.582
113.2080, 1264.487
114.4400, 1305.040
115.6710, 1425.220
116.9030, 1414.014
118.1340, 1371.403
119.3650, 1215.375
120.5960, 1336.916
121.8270, 1246.012
123.0580, 1553.653
124.2880, 1626.826
125.5190, 1759.521
126.7490, 2002.729
127.9790, 2230.345
129.2090, 2516.077
130.4390, 2775.902
131.6680, 3197.803
132.8980, 3090.997
134.1270, 3050.150
135.3560, 2937.805
136.5850, 2697.041
137.8140, 2717.452
139.0430, 2839.070
140.2710, 3025.912
141.5000, 3340.990
142.7280, 3767.336
143.9560, 4432.190
145.1840, 4968.825
146.4120, 5344.428
147.6390, 5305.812
148.8670, 5051.920
150.0940, 4903.494
151.3210, 4724.542
152.5490, 4727.951
153.7750, 5203.666
155.0020, 5836.766
156.2290, 6750.248
157.4550, 7957.982
158.6810, 9341.957
159.9080, 11036.15
161.1340, 13132.57
162.3590, 15347.21
163.5850, 17530.07
164.8110, 19059.16
166.0360, 19682.48
167.2610, 19011.02
168.4860, 17361.78
169.7110, 15516.77
170.9360, 13370.99
172.1610, 11255.43
173.3850, 9530.105
174.6100, 8172.006
175.8340, 6796.135
177.0580, 5772.488
178.2820, 4830.067
179.5050, 4122.871
180.7290, 3666.901
181.9520, 3170.154
183.1760, 2925.629
184.3990, 2577.328
185.6220, 2443.247
186.8450, 2362.389
188.0670, 2219.749
189.2900, 2223.329
190.5120, 2214.128
191.7340, 2153.143
192.9560, 2379.376
194.1780, 2491.824
195.4000, 2765.488
196.6220, 3000.366
197.8430, 3072.455
199.0640, 3374.758
200.2860, 3641.271
201.5070, 3694.346
202.7270, 3618.059
203.9480, 3378.638
205.1690, 2904.973
206.3890, 2500.112
207.6090, 2080.776
208.8290, 1741.521
210.0490, 1337.451
211.2690, 1232.463
212.4890, 1068.285
213.7080, 1125.124
214.9280, 1043.832
216.1470, 1124.564
217.3660, 1062.708
218.5850, 1136.252
219.8030, 1205.230
221.0220, 1274.359
222.2400, 1529.022
223.4590, 1882.035
224.6770, 2041.388
225.8950, 2367.073
227.1120, 2762.080
228.3300, 3395.835
229.5480, 4100.029
230.7650, 5082.269
231.9820, 6230.082
233.1990, 7497.966
234.4160, 8973.411
235.6330, 11027.47
236.8490, 12835.07
238.0660, 15192.98
239.2820, 17671.63
240.4980, 19991.20
241.7140, 22142.38
242.9300, 22961.78
244.1460, 22693.88
245.3610, 21190.98
246.5770, 18594.58
247.7920, 15797.82
249.0070, 13356.82
250.2220, 10804.78
251.4370, 8698.337
252.6510, 7037.127
253.8660, 5754.372
255.0800, 4718.421
256.2940, 4117.232
257.5080, 3768.321
258.7220, 3631.048
259.9360, 3180.750
261.1490, 2659.615
262.3630, 2550.683
263.5760, 2547.929
264.7890, 2590.352
266.0020, 2760.948
267.2150, 3145.716
268.4270, 3275.654
269.6400, 3866.760
270.8520, 4254.030
272.0640, 4638.464
273.2760, 5011.060
274.4880, 5295.817
275.7000, 5427.732
276.9120, 5117.809
278.1230, 4943.045
279.3340, 4500.442
280.5450, 4645.000
281.7560, 4691.716
282.9670, 4957.596
284.1780, 5381.634
285.3880, 6052.831
286.5980, 7149.190
287.8090, 8069.704
289.0190, 9391.377
290.2290, 10792.20
291.4380, 12061.18
292.6480, 13078.31
293.8570, 13408.59
295.0670, 12977.00
296.2760, 12114.56
297.4850, 11044.26
298.6930, 10002.10
299.9020, 8781.069
301.1110, 7727.179
302.3190, 6581.424
303.5270, 5615.802
304.7350, 4694.317
305.9430, 3989.965
307.1510, 3319.806
308.3580, 2727.659
309.5660, 2341.706
310.7730, 2000.885
311.9800, 1761.195
313.1870, 1644.638
314.3940, 1689.211
315.6010, 1635.915
316.8070, 1821.750
318.0130, 1953.211
319.2200, 2104.807
320.4260, 2385.028
321.6310, 2623.379
322.8370, 2863.856
324.0430, 3179.272
325.2480, 3451.515
326.4540, 3801.052
327.6590, 4054.035
328.8640, 4355.144
330.0680, 4641.377
331.2730, 4982.733
332.4780, 5421.213
333.6820, 6130.814
334.8860, 7078.536
336.0900, 7977.380
337.2940, 9156.344
338.4980, 10766.43
339.7010, 12694.41
340.9050, 14973.95
342.1080, 17586.38
343.3110, 20612.93
344.5140, 23851.61
345.7170, 27040.39
346.9200, 29286.33
348.1220, 30948.44
349.3240, 30563.71
350.5270, 29197.15
351.7290, 26576.75
352.9310, 23075.52
354.1320, 19406.46
355.3340, 16093.57
356.5350, 12992.85
357.7370, 10434.31
358.9380, 8338.951
360.1390, 6624.756
361.3400, 5451.719
362.5400, 4353.837
363.7410, 3518.119
364.9410, 2885.566
366.1410, 2220.177
367.3410, 1724.997
368.5410, 1460.868
369.7410, 960.9434
370.9400, 672.1680
372.1400, 473.5449
373.3390, 49.06641
374.5380, 59.27246
375.7370, 187.4937
376.9360, 354.6431
378.1350, 358.7964
379.3330, 562.9570
380.5310, 586.2129
381.7300, 505.5757
382.9280, 394.0137
384.1260, 425.4814
385.3230, 450.9946
386.5210, 242.5620
387.7180, 164.1025
388.9160, 201.5869
390.1130, 206.0308
391.3100, 192.4380
392.5060, 65.80420
393.7030, 81.40234
394.9000, 13.39893
396.0960, 129.9180
397.2920, 84.23730
398.4880, 136.4751
399.6840, 120.8428
400.8800, 27.21533
402.0750, 44.01416
403.2710, 79.54199
404.4660, 20.20654
405.6610, 208.7417
406.8560, 226.3892
408.0510, 356.1475
409.2450, 715.0166
410.4400, 848.9956
411.6340, 1301.084
412.8280, 1711.282
414.0220, 2371.587
415.2160, 2986.999
416.4100, 3906.520
417.6030, 4909.144
418.7970, 6129.876
419.9900, 7615.711
421.1830, 9336.652
422.3760, 10807.70
423.5690, 12309.84
424.7610, 13292.09
425.9540, 13971.44
427.1460, 14254.90
428.3380, 14542.45
429.5300, 14901.11
430.7220, 15469.87
431.9140, 16113.73
433.1050, 17306.70
434.2970, 18332.80
435.4880, 19236.01
436.6790, 19997.36
437.8700, 20890.82
439.0610, 22237.42
440.2510, 23565.15
441.4420, 25657.02
442.6320, 28302.04
443.8220, 31905.23
445.0120, 36869.59
446.2020, 41622.07
447.3910, 46851.75
448.5810, 51035.59
449.7700, 53247.58
450.9600, 54371.74
452.1490, 53929.07
453.3370, 53234.54
454.5260, 51725.18
455.7150, 50298.97
456.9030, 47407.88
458.0910, 44910.94
459.2800, 40757.13
460.4670, 36449.48
461.6550, 31813.96
462.8430, 27473.57
464.0300, 23701.32
465.2180, 20301.21
466.4050, 16973.23
467.5920, 14620.38
468.7790, 12314.61
469.9650, 10628.94
471.1520, 9370.367
472.3380, 8543.873
473.5250, 7513.468
474.7110, 6992.138
475.8970, 6504.884
477.0820, 6151.705
478.2680, 5898.809
479.4540, 5746.566
480.6390, 5682.605
481.8240, 5728.456
483.0090, 5927.588
484.1940, 6089.149
485.3780, 6428.471
486.5630, 6810.861
487.7470, 7235.320
488.9320, 7849.848
490.1160, 8389.438
491.3000, 9439.098
492.4830, 10286.82
493.6670, 11309.61
494.8500, 12251.46
496.0340, 13265.37
497.2170, 14145.34
498.4000, 15078.38
499.5820, 15623.47
500.7650, 15398.71
501.9480, 15169.92
503.1300, 14169.40
504.3120, 13610.00
505.4940, 12526.22
506.6760, 11755.81
507.8580, 10727.80
509.0390, 9956.810
510.2210, 8785.067
511.4020, 7569.444
512.5830, 6389.175
513.7640, 5332.911
514.9450, 4465.255
516.1250, 3892.140
517.3060, 3492.973
518.4860, 3311.045
519.6660, 3305.692
520.8460, 3253.098
522.0260, 3340.207
523.2060, 3137.089
524.3850, 2837.965
525.5650, 2376.396
526.7440, 2163.201
527.9230, 1465.963
529.1020, 980.5371
530.2810, 751.6680
531.4590, 485.0586
532.6380, 172.2305
533.8160, 98.01514
534.9940, 36.68359
536.1720, 1.105469
537.3500, 202.8774
538.5270, 164.6816
539.7050, 186.7383
540.8820, 186.3984
542.0590, 108.6265
543.2360, 34.92432
544.4130, 2.359375
545.5900, 99.89014
546.7660, 203.4829
547.9430, 588.0957
549.1190, 883.7476
550.2950, 1091.439
551.4710, 1647.170
552.6470, 2236.938
553.8220, 2999.742
554.9980, 4172.583
556.1730, 5570.460
557.3480, 7225.374
558.5230, 9341.318
559.6980, 11753.30
560.8730, 14495.31
562.0470, 17658.36
563.2220, 20945.43
564.3960, 22521.53
565.5700, 21849.67
566.7440, 19550.83
567.9170, 15904.03
569.0910, 12420.31
570.2640, 9430.598
571.4380, 7122.335
572.6110, 5589.702
573.7840, 4593.323
574.9570, 4021.454
576.1290, 3715.811
577.3020, 3470.642
578.4740, 3626.239
579.6460, 3847.226
580.8180, 4301.242
581.9900, 4754.545
583.1620, 5281.631
584.3330, 5760.354
585.5040, 6335.975
586.6760, 7001.873
587.8470, 7578.935
589.0180, 8338.236
590.1880, 9042.912
591.3590, 9942.294
592.5290, 11048.21
593.7000, 12147.31
594.8700, 13548.78
596.0400, 14715.03
597.2090, 15744.99
598.3790, 16101.39
599.5490, 16025.35
600.7180, 15222.32
601.8870, 14338.99
603.0560, 13035.40
604.2250, 11963.47
605.3940, 10782.43
606.5620, 9870.370
607.7300, 9005.951
608.8990, 8417.122
610.0670, 7914.943
611.2350, 7342.896
612.4020, 6930.582
613.5700, 6439.083
614.7370, 5782.690
615.9050, 5099.079
617.0720, 4477.409
618.2390, 3872.691
619.4060, 3368.993
620.5720, 2902.609
621.7390, 2490.392
622.9050, 2135.578
624.0710, 1801.737
625.2370, 1519.871
626.4030, 1224.979
627.5690, 1101.060
628.7340, 826.1123
629.9000, 826.1377
631.0650, 715.1338
632.2300, 474.1011
633.3950, 507.0381
634.5600, 503.9458
635.7240, 292.8228
636.8890, 247.6675
638.0530, 244.4814
639.2170, 278.2622
640.3810, 214.0107
641.5450, 256.7241
642.7080, 202.4038
643.8720, 195.1396
645.0350, 109.1113
646.1980, 98.83545
647.3610, 87.71826
648.5240, 126.6099
649.6870, 84.39062
650.8490, 165.1685
652.0120, 150.6694
653.1740, 110.0884
654.3360, 181.8896
655.4980, 248.4858
656.6600, 144.7676
657.8210, 123.3369
658.9830, 277.8174
660.1440, 268.0166
661.3050, 316.8101
662.4660, 296.2529
663.6270, 328.4878
664.7870, 312.0718
665.9480, 386.3892
667.1080, 216.7500
668.2680, 255.1558
669.4280, 297.5664
670.5880, 413.9678
671.7480, 464.3672
672.9070, 544.7642
674.0670, 603.1572
675.2260, 698.8408
676.3850, 810.1792
677.5440, 947.7046
678.7030, 1225.274
679.8610, 1279.811
681.0200, 1618.514
682.1780, 1771.258
683.3360, 2085.454
684.4940, 2356.189
685.6520, 2513.306
686.8090, 2632.383
687.9670, 2754.414
689.1240, 2656.396
690.2810, 2588.330
691.4380, 2398.217
692.5950, 2141.054
693.7520, 1939.842
694.9080, 1680.581
696.0650, 1496.271
697.2210, 1244.909
698.3770, 1142.498
699.5330, 1016.036
700.6880, 860.5225
701.8440, 777.9580
702.9990, 661.6348
704.1550, 653.6738
705.3100, 452.9536
706.4650, 425.1807
707.6190, 282.3545
708.7740, 290.4751
709.9290, 143.5410
711.0830, 175.5391
712.2370, 97.47314
713.3910, 10.66943
714.5450, 71.06982
715.6980, 4.273438
716.8520, 15.73389
718.0050, 5.316406
719.1580, 37.01611
720.3110, 72.85010
721.4640, 84.83740
722.6170, 221.9849
723.7700, 140.3652
724.9220, 48.93408
726.0740, 226.6455
727.2260, 182.5918
728.3780, 156.7510
729.5300, 152.1079
730.6810, 208.6611
731.8330, 116.4404
732.9840, 170.3955
734.1350, 119.5552
735.2860, 51.89160
736.4370, 123.3711
737.5880, 85.02979
738.7380, 101.8481
739.8880, 161.8335
741.0390, 47.01807
742.1890, 122.3403
743.3380, 89.83936
744.4880, 122.4980
745.6380, 38.33252
746.7870, 81.70117
747.9360, 20.65381
749.0850, 87.50830
750.2340, 156.2817
751.3830, 104.9868
752.5310, 266.6162
753.6800, 312.1870
754.8280, 319.7017
755.9760, 534.1602
757.1240, 636.5635
758.2720, 750.9116
759.4190, 810.2056
760.5670, 975.4443
761.7140, 1127.628
762.8610, 1424.759
764.0080, 1379.835
765.1550, 1714.857
766.3020, 1700.827
767.4480, 1569.744
768.5950, 1686.607
769.7410, 1699.418
770.8870, 1569.175
772.0330, 1283.880
773.1780, 1156.533
774.3240, 949.1357
775.4690, 759.6855
776.6140, 753.1836
777.7590, 491.6313
778.9040, 447.9346
780.0490, 307.2798
781.1940, 261.3643
782.3380, 193.3242
783.4820, 235.6738
784.6260, 179.6528
785.7700, 88.22852
786.9140, 27.79004
788.0580, 20.65039
789.2010, 96.25635
790.3450, 30.06885
791.4880, 59.86621
792.6310, 67.04492
793.7730, 86.67725
794.9160, 137.0396
796.0590, 138.8765
797.2010, 196.3491
798.3430, 113.7744
799.4850, 157.1465
800.6270, 222.4702
801.7690, 150.7476
802.9100, 305.9751
804.0520, 293.1572
805.1930, 229.0146
806.3340, 344.0664
807.4750, 428.1104
808.6160, 283.1084
809.7560, 460.0605
810.8970, 403.9673
812.0370, 447.8291
813.1770, 345.6597
814.3170, 498.4541
815.4570, 439.2524
816.5960, 443.0469
817.7360, 393.8423
818.8750, 425.6377
820.0140, 445.4165
821.1530, 523.1641
822.2920, 447.8726
823.4310, 525.5391
824.5690, 635.1626
825.7070, 568.7437
826.8460, 569.2832
827.9840, 509.7812
829.1220, 639.2383
830.2590, 575.6543
831.3970, 668.0298
832.5340, 715.3657
833.6710, 776.6621
834.8080, 861.9199
835.9450, 757.1382
837.0820, 906.3184
838.2190, 1021.461
839.3550, 996.5659
840.4910, 1215.633
841.6270, 1137.663
842.7630, 1199.658
843.8990, 1447.616
845.0350, 1434.478
846.1700, 1541.324
847.3060, 1660.714
848.4410, 2001.467
849.5760, 2055.955
850.7100, 2294.923
851.8450, 2532.656
852.9800, 2749.906
854.1140, 2928.378
855.2480, 3258.451
856.3820, 3644.484
857.5160, 4031.220
858.6500, 4464.162
859.7830, 5115.454
860.9170, 5485.837
862.0500, 6173.933
863.1830, 6895.851
864.3160, 7316.517
865.4480, 8002.794
866.5810, 8792.361
867.7130, 9238.376
868.8460, 10304.43
869.9780, 10935.87
871.1100, 11795.87
872.2410, 12709.79
873.3730, 13367.25
874.5050, 14177.15
875.6360, 14632.03
876.7670, 14950.18
877.8980, 15200.58
879.0290, 15139.31
880.1590, 14750.14
881.2900, 14542.99
882.4200, 14103.18
883.5500, 13933.79
884.6800, 13452.72
885.8100, 13051.50
886.9400, 12596.55
888.0690, 12080.76
889.1990, 11398.85
890.3280, 10397.17
891.4570, 9272.542
892.5860, 8438.942
893.7140, 7534.355
894.8430, 6568.779
895.9710, 5917.212
897.1000, 5335.662
898.2280, 4856.138
899.3560, 4333.646
900.4830, 4243.183
901.6110, 4129.757
902.7380, 4025.344
903.8660, 3890.948
904.9930, 3835.562
906.1200, 4074.186
907.2460, 4069.822
908.3730, 4323.471
909.5000, 4313.130
910.6260, 4619.810
911.7520, 4697.502
912.8780, 4725.208
914.0040, 4698.930
915.1290, 4533.682
916.2550, 4486.448
917.3800, 4208.136
918.5050, 3985.568
919.6300, 3484.220
920.7550, 3003.686
921.8800, 2726.117
923.0040, 2305.630
924.1290, 1911.118
925.2530, 1708.857
926.3770, 1473.653
927.5010, 1310.039
928.6250, 1150.615
929.7480, 1026.492
930.8720, 839.0693
931.9950, 802.7437
933.1180, 723.7485
934.2410, 684.2144
935.3640, 561.1250
936.4860, 582.3433
937.6090, 396.2949
938.7310, 406.5859
939.8530, 372.9014
940.9750, 263.2480
942.0970, 270.6201
943.2180, 292.0156
944.3400, 263.4355
945.4610, 292.8833
946.5820, 216.3555
947.7030, 298.8545
948.8240, 166.3789
949.9450, 263.9297
951.0650, 173.5068
952.1860, 318.1099
953.3060, 315.7397
954.4260, 299.3960
955.5460, 334.0879
956.6650, 261.8066
957.7850, 339.5532
958.9040, 339.3364
960.0230, 318.1514
961.1420, 445.9946
962.2610, 534.8662
963.3800, 600.7773
964.4990, 628.7192
965.6170, 788.7124
966.7350, 849.7363
967.8530, 977.7896
968.9710, 1165.874
970.0890, 1357.988
971.2070, 1670.135
972.3240, 2095.312
973.4410, 2591.530
974.5580, 3090.778
975.6750, 3545.061
976.7920, 4081.374
977.9090, 4779.719
979.0250, 5181.102
980.1410, 5402.520
981.2580, 5374.970
982.3740, 5218.464
983.4890, 4585.998
984.6050, 3930.574
985.7200, 3467.226
986.8360, 2616.947
987.9510, 2147.734
989.0660, 1752.916
990.1810, 1377.512
991.2950, 1123.508
992.4100, 871.5923
993.5240, 607.7725
994.6390, 638.0771
995.7530, 448.4844
996.8660, 302.9922
997.9800, 128.6250
999.0940, 143.3730
1000.207, 65.23633
1001.320, 36.20605
1002.433, 34.70020
1003.546, 32.95752
1004.659, 46.73535
1005.772, 39.68457
1006.884, 42.18457
1007.996, 61.78418
1009.108, 76.47607
1010.220, 108.2622
1011.332, 173.1641
1012.444, 274.2480
1013.555, 498.4956
1014.666, 626.9556
1015.777, 707.9575
1016.888, 935.4800
1017.999, 1064.906
1019.110, 1100.391
1020.220, 1333.665
1021.331, 1314.252
1022.441, 1207.708
1023.551, 1108.797
1024.661, 790.3975
1025.770, 734.1528
1026.880, 674.4775
1027.989, 566.7788
1029.098, 671.0273
1030.207, 499.3354
1031.316, 678.2769
1032.425, 630.3022
1033.533, 655.8506
1034.642, 710.5659
1035.750, 791.1577
1036.858, 790.7476
1037.966, 923.9360
1039.073, 949.1650
1040.181, 1041.428
1041.288, 1001.726
1042.396, 974.0601
1043.503, 963.0034
1044.610, 839.4077
1045.716, 886.9087
1046.823, 787.5562
1047.929, 781.4458
1049.036, 790.9854
1050.142, 685.5581
1051.248, 623.1646
1052.353, 629.8047
1053.459, 785.8599
1054.564, 835.5254
1055.670, 824.2734
1056.775, 898.7378
1057.880, 930.5747
1058.985, 1037.451
1060.089, 1065.370
1061.194, 1200.850
1062.298, 1251.972
1063.402, 1239.092
1064.506, 1249.158
1065.610, 1266.256
1066.713, 1217.240
1067.817, 1153.405
1068.920, 1288.603
1070.023, 1312.832
1071.126, 1522.797
1072.229, 1748.188
1073.332, 1856.780
1074.435, 2255.128
1075.537, 2500.505
1076.639, 3021.910
1077.741, 3506.677
1078.843, 4040.141
1079.945, 4604.746
1081.046, 5152.269
1082.148, 5771.818
1083.249, 6540.396
1084.350, 7100.000
1085.451, 7669.631
1086.551, 7739.288
1087.652, 7556.795
1088.752, 7021.504
1089.853, 6126.241
1090.953, 5143.038
1092.053, 4234.523
1093.152, 3306.335
1094.252, 2702.172
1095.351, 2117.571
1096.451, 1662.457
1097.550, 1373.734
1098.649, 1014.668
1099.748, 853.6260
1100.846, 683.6055
1101.945, 631.8877
1103.043, 619.6782
1104.141, 602.8511
1105.239, 587.7515
1106.337, 400.8433
1107.434, 332.9585
1108.532, 375.0938
1109.629, 466.2510
1110.726, 301.2075
1111.823, 271.6523
1112.920, 234.8809
1114.017, 240.5381
1115.113, 241.7979
1116.210, 215.1084
1117.306, 238.7432
1118.402, 253.2983
1119.498, 285.6343
1120.593, 269.9883
1121.689, 306.3594
1122.784, 330.7964
1123.879, 264.3794
1124.974, 179.1895
1126.069, 138.6260
1127.164, 197.0771
1128.259, 163.4058
1129.353, 170.8853
1130.447, 234.3975
1131.541, 71.81787
1132.635, 22.33398
1133.729, 78.40283
1134.822, 58.67480
1135.916, 9.857910
1137.009, 10.39941
1138.102, 70.03027
1139.195, 59.64795
1140.288, 17.09521
1141.380, 37.16846
1142.473, 7.266602
1143.565, 4.228027
1144.657, 70.59326
1145.749, 72.73584
1146.841, 28.14600
1147.932, 68.05322
1149.024, 52.43896
1150.115, 92.97412
1151.206, 26.18799
1152.297, 35.34326
1153.388, 55.05420
1154.479, 131.2856
1155.569, 28.13184
1156.659, 20.46094
1157.750, 44.30420
1158.839, 13.77637
1159.929, 10.21924
1161.019, 62.32178
1162.108, 94.91309
1163.198, 113.5410
1164.287, 103.1323
1165.376, 138.1475
1166.465, 10.54883
1167.553, 35.28125
1168.642, 110.2319
1169.730, 49.92432
1170.818, 70.16357
1171.906, 22.44287
1172.994, 110.1401
1174.082, 33.01709
1175.170, 125.1377
1176.257, 8.287598
1177.344, 4.430176
1178.431, 66.43652
1179.518, 33.97900
1180.605, 34.14258
1181.691, 58.23535
1182.778, 63.31250
1183.864, 21.61816
1184.950, 11.56885
1186.036, 46.46289
1187.122, 3.513672
1188.207, 28.25244
1189.292, 133.6714
1190.378, 130.7432
1191.463, 38.06787
1192.548, 10.11914
1193.632, 17.80859
1194.717, 44.73096
1195.801, 46.63721
1196.886, 1.378906
1197.970, 53.57227
1199.054, 101.0161
1200.137, 45.97705
1201.221, 31.11182
1202.305, 23.81396
1203.388, 5.331543
1204.471, 84.54883
1205.554, 144.4800
1206.637, 67.42773
1207.719, 19.68750
1208.802, 54.49512
1209.884, 29.69824
1210.966, 82.40967
1212.048, 80.08105
1213.130, 98.06152
1214.212, 305.4497
1215.293, 78.08008
1216.374, 131.6968
1217.456, 0.7026370
1218.536, 150.8647
1219.617, 89.41846
1220.698, 1.036621
1221.778, 24.47461
1222.859, 110.9619
1223.939, 73.43311
1225.019, 5.113281
1226.099, 87.30127
1227.178, 48.30176
1228.258, 97.03174
1229.337, 82.34717
1230.417, 103.6450
1231.496, 70.92578
1232.574, 57.62012
1233.653, 55.43262
1234.732, 15.65674
1235.810, 120.8540
