##NAMES=Epididymite
##RRUFFID=R060773
##IDEAL CHEMISTRY=Na_2_Be_2_Si_6_O_15_&#183;H_2_O
##LOCALITY=unknown
##OWNER=RRUFF
##SOURCE=Michael Scott
##DESCRIPTION=Colorless platy crystals forming a pseudohexagonal aggregate
##STATUS=The identification of this mineral has been confirmed by single-crystal X-ray diffraction.
##URL=rruff.info/R060773
##PIN_ID=M00206
##ORIENTATION=Laser parallel to a* (1 0 0). Fiducial mark perpendicular to laser is parallel to b [0 1 0]
102.1160, 0.0000000E+00
103.3490, 3.742188
104.5820, 25.95703
105.8150, 442.6094
107.0470, 442.1836
108.2800, 644.8809
109.5120, 520.3691
110.7440, 339.3496
111.9760, 735.0605
113.2080, 517.8340
114.4400, 758.6895
115.6710, 1129.486
116.9030, 1203.467
118.1340, 1354.293
119.3650, 1826.959
120.5960, 2176.385
121.8270, 2838.557
123.0580, 3524.439
124.2880, 3647.754
125.5190, 4004.152
126.7490, 4263.748
127.9790, 4741.373
129.2090, 5236.639
130.4390, 4979.537
131.6680, 4982.148
132.8980, 4316.525
134.1270, 3536.902
135.3560, 2877.939
136.5850, 2277.178
137.8140, 1551.092
139.0430, 837.2461
140.2710, 475.4551
141.5000, 299.1504
142.7280, 82.08984
143.9560, 0.2421880
145.1840, 35.60547
146.4120, 188.6191
147.6390, 47.08008
148.8670, 149.6758
150.0940, 152.7832
151.3210, 203.1621
152.5490, 25.13867
153.7750, 2.664063
155.0020, 59.26758
156.2290, 76.75586
157.4550, 30.44727
158.6810, 263.9121
159.9080, 108.6465
161.1340, 337.8945
162.3590, 359.6836
163.5850, 428.0781
164.8110, 567.1270
166.0360, 469.8398
167.2610, 679.2832
168.4860, 327.4688
169.7110, 604.3984
170.9360, 666.0039
172.1610, 386.2676
173.3850, 78.20312
174.6100, 173.8242
175.8340, 44.21289
177.0580, 102.5879
178.2820, 200.9570
179.5050, 506.3203
180.7290, 304.6602
181.9520, 411.9688
183.1760, 699.2363
184.3990, 632.0547
185.6220, 728.2676
186.8450, 1104.051
188.0670, 1268.354
189.2900, 1382.068
190.5120, 1557.234
191.7340, 1718.941
192.9560, 1820.299
194.1780, 2007.602
195.4000, 2109.982
196.6220, 2125.049
197.8430, 2124.781
199.0640, 2095.951
200.2860, 1849.352
201.5070, 1825.730
202.7270, 1682.012
203.9480, 1313.953
205.1690, 1186.113
206.3890, 808.2676
207.6090, 944.8086
208.8290, 633.4414
210.0490, 568.4414
211.2690, 540.0879
212.4890, 770.5371
213.7080, 614.1621
214.9280, 525.7480
216.1470, 743.3066
217.3660, 751.9023
218.5850, 707.3984
219.8030, 981.8555
221.0220, 921.2812
222.2400, 1277.668
223.4590, 1206.283
224.6770, 1533.924
225.8950, 1665.289
227.1120, 1901.352
228.3300, 2565.111
229.5480, 2734.844
230.7650, 3187.328
231.9820, 3695.016
233.1990, 3849.564
234.4160, 4259.824
235.6330, 4847.461
236.8490, 5073.770
238.0660, 5035.621
239.2820, 5033.090
240.4980, 4903.393
241.7140, 4712.646
242.9300, 4270.850
244.1460, 3836.004
245.3610, 3244.109
246.5770, 2713.168
247.7920, 2068.178
249.0070, 1995.699
250.2220, 1557.258
251.4370, 1347.965
252.6510, 1318.633
253.8660, 1098.207
255.0800, 1022.652
256.2940, 936.9355
257.5080, 853.0410
258.7220, 1102.975
259.9360, 932.7090
261.1490, 960.2227
262.3630, 681.4883
263.5760, 690.5195
264.7890, 578.3359
266.0020, 481.9609
267.2150, 381.4062
268.4270, 326.6758
269.6400, 337.6113
270.8520, 176.3184
272.0640, 190.6895
273.2760, 344.5996
274.4880, 494.1855
275.7000, 210.4844
276.9120, 190.5664
278.1230, 62.55273
279.3340, 58.46875
280.5450, 140.3145
281.7560, 185.0938
282.9670, 183.8125
284.1780, 69.43359
285.3880, 8.064453
286.5980, 5.318359
287.8090, 70.29688
289.0190, 39.80078
290.2290, 84.81445
291.4380, 144.6367
292.6480, 177.3984
293.8570, 72.44727
295.0670, 105.6699
296.2760, 78.46875
297.4850, 40.29102
298.6930, 63.89258
299.9020, 14.23047
301.1110, 80.42383
302.3190, 107.6934
303.5270, 189.9082
304.7350, 28.81836
305.9430, 26.49023
307.1510, 37.19336
308.3580, 31.30664
309.5660, 313.6777
310.7730, 113.2051
311.9800, 112.8340
313.1870, 58.43750
314.3940, 85.25781
315.6010, 172.2168
316.8070, 110.4980
318.0130, 341.3770
319.2200, 303.3516
320.4260, 397.1875
321.6310, 436.4922
322.8370, 556.6328
324.0430, 548.4785
325.2480, 546.2285
326.4540, 582.4062
327.6590, 581.9883
328.8640, 589.5996
330.0680, 939.1641
331.2730, 454.6699
332.4780, 935.1133
333.6820, 738.4922
334.8860, 594.8164
336.0900, 695.0625
337.2940, 742.2344
338.4980, 539.3418
339.7010, 577.3496
340.9050, 570.2656
342.1080, 310.1074
343.3110, 339.7148
344.5140, 387.1504
345.7170, 234.4492
346.9200, 211.6309
348.1220, 237.6562
349.3240, 342.5195
350.5270, 139.3086
351.7290, 266.8965
352.9310, 247.3301
354.1320, 382.7207
355.3340, 106.8145
356.5350, 195.7695
357.7370, 104.0645
358.9380, 18.69336
360.1390, 31.15820
361.3400, 62.37500
362.5400, 151.5684
363.7410, 139.9805
364.9410, 102.8887
366.1410, 156.0156
367.3410, 8.121094
368.5410, 46.19531
369.7410, 119.2422
370.9400, 292.2598
372.1400, 418.2500
373.3390, 359.2168
374.5380, 434.1621
375.7370, 534.0781
376.9360, 648.9609
378.1350, 764.4551
379.3330, 854.6445
380.5310, 1013.447
381.7300, 1104.223
382.9280, 1195.984
384.1260, 1285.734
385.3230, 1463.469
386.5210, 1470.191
387.7180, 1421.904
388.9160, 1526.607
390.1130, 1312.295
391.3100, 1490.971
392.5060, 1558.639
393.7030, 1794.262
394.9000, 2180.838
396.0960, 2956.367
397.2920, 3718.854
398.4880, 4956.287
399.6840, 6127.682
400.8800, 7271.031
402.0750, 8368.402
403.2710, 9761.734
404.4660, 10452.03
405.6610, 10841.27
406.8560, 10157.48
408.0510, 9398.656
409.2450, 8003.807
410.4400, 6352.594
411.6340, 4489.021
412.8280, 3015.217
414.0220, 2096.455
415.2160, 1352.859
416.4100, 745.3691
417.6030, 646.6934
418.7970, 576.6152
419.9900, 590.2988
421.1830, 525.0879
422.3760, 346.0371
423.5690, 495.2031
424.7610, 368.3535
425.9540, 388.9844
427.1460, 909.6113
428.3380, 758.1797
429.5300, 1084.871
430.7220, 914.4219
431.9140, 943.0488
433.1050, 995.2480
434.2970, 1035.219
435.4880, 813.6543
436.6790, 710.0801
437.8700, 540.2695
439.0610, 490.4453
440.2510, 125.7324
441.4420, 120.4668
442.6320, 37.14648
443.8220, 132.4043
445.0120, 160.9766
446.2020, 0.2539060
447.3910, 1.457031
448.5810, 282.3203
449.7700, 37.62891
450.9600, 293.2598
452.1490, 225.0527
453.3370, 140.1602
454.5260, 338.8945
455.7150, 433.6934
456.9030, 452.8086
458.0910, 750.1504
459.2800, 488.0859
460.4670, 281.6367
461.6550, 614.2637
462.8430, 580.7324
464.0300, 999.5938
465.2180, 1325.627
466.4050, 1444.844
467.5920, 1768.055
468.7790, 2154.250
469.9650, 2526.432
471.1520, 2967.602
472.3380, 3282.266
473.5250, 3666.893
474.7110, 3975.957
475.8970, 4274.068
477.0820, 4698.164
478.2680, 4631.246
479.4540, 4817.314
480.6390, 5063.367
481.8240, 5252.410
483.0090, 5224.438
484.1940, 5054.451
485.3780, 4679.859
486.5630, 4384.391
487.7470, 3739.117
488.9320, 3046.205
490.1160, 2311.193
491.3000, 1852.293
492.4830, 1593.832
493.6670, 1394.523
494.8500, 1323.730
496.0340, 1267.898
497.2170, 1546.619
498.4000, 1552.188
499.5820, 1957.135
500.7650, 2067.703
501.9480, 2479.979
503.1300, 2780.129
504.3120, 3677.533
505.4940, 4477.318
506.6760, 5896.059
507.8580, 7675.645
509.0390, 10623.46
510.2210, 13679.50
511.4020, 17418.86
512.5830, 20460.53
513.7640, 24349.92
514.9450, 27619.73
516.1250, 30246.41
517.3060, 31409.20
518.4860, 30690.98
519.6660, 29167.74
520.8460, 25367.51
522.0260, 21674.27
523.2060, 17124.02
524.3850, 13117.76
525.5650, 9598.492
526.7440, 7083.217
527.9230, 5744.934
529.1020, 4373.131
530.2810, 3462.834
531.4590, 2755.527
532.6380, 2296.232
533.8160, 2090.570
534.9940, 1750.926
536.1720, 1441.588
537.3500, 1390.121
538.5270, 1043.926
539.7050, 1025.562
540.8820, 938.4453
542.0590, 658.7188
543.2360, 842.1836
544.4130, 867.7852
545.5900, 995.8633
546.7660, 498.5938
547.9430, 558.8242
549.1190, 423.6914
550.2950, 577.5781
551.4710, 256.6016
552.6470, 398.8477
553.8220, 496.4844
554.9980, 675.3320
556.1730, 625.5586
557.3480, 659.1719
558.5230, 407.6133
559.6980, 340.5859
560.8730, 471.0664
562.0470, 333.0977
563.2220, 516.8242
564.3960, 230.5352
565.5700, 641.3594
566.7440, 652.3711
567.9170, 575.9219
569.0910, 745.9531
570.2640, 861.8359
571.4380, 973.3281
572.6110, 1296.992
573.7840, 1511.184
574.9570, 1792.414
576.1290, 2246.438
577.3020, 2603.703
578.4740, 3033.496
579.6460, 3635.414
580.8180, 3921.988
581.9900, 3759.586
583.1620, 4151.918
584.3330, 3922.316
585.5040, 3398.379
586.6760, 3297.629
587.8470, 2958.922
589.0180, 2473.598
590.1880, 2517.723
591.3590, 1646.215
592.5290, 1516.891
593.7000, 1433.566
594.8700, 1210.316
596.0400, 1141.090
597.2090, 1059.082
598.3790, 1080.664
599.5490, 954.4336
600.7180, 931.1797
601.8870, 887.7891
603.0560, 892.9961
604.2250, 951.7656
605.3940, 939.4297
606.5620, 964.1758
607.7300, 931.7930
608.8990, 1053.383
610.0670, 1017.688
611.2350, 890.7461
612.4020, 1034.262
613.5700, 1064.754
614.7370, 1102.219
615.9050, 1259.660
617.0720, 1310.078
618.2390, 1710.469
619.4060, 1911.832
620.5720, 1966.371
621.7390, 2431.680
622.9050, 2893.969
624.0710, 3124.285
625.2370, 3662.520
626.4030, 3389.730
627.5690, 3441.914
628.7340, 3171.078
629.9000, 3267.219
631.0650, 2690.336
632.2300, 2546.426
633.3950, 2477.496
634.5600, 2099.539
635.7240, 1776.562
636.8890, 1634.559
638.0530, 1819.527
639.2170, 1791.473
640.3810, 1852.402
641.5450, 1900.309
642.7080, 1944.195
643.8720, 1834.059
645.0350, 2079.906
646.1980, 2228.727
647.3610, 2037.523
648.5240, 2186.301
649.6870, 2108.051
650.8490, 2252.781
652.0120, 1960.488
653.1740, 2177.168
654.3360, 1915.828
655.4980, 1515.453
656.6600, 1407.055
657.8210, 1190.621
658.9830, 1176.164
660.1440, 785.6758
661.3050, 649.1641
662.4660, 806.6133
663.6270, 643.0391
664.7870, 695.4336
665.9480, 474.7969
667.1080, 547.1328
668.2680, 210.4375
669.4280, 373.7109
670.5880, 382.9570
671.7480, 323.1719
672.9070, 170.3516
674.0670, 164.3672
675.2260, 385.6055
676.3850, 127.6875
677.5440, 290.7266
678.7030, 454.7305
679.8610, 85.71094
681.0200, 172.6445
682.1780, 214.4609
683.3360, 374.2617
684.4940, 70.95312
685.6520, 295.5977
686.8090, 173.2070
687.9670, 27.78125
689.1240, 5.304688
690.2810, 3.761719
691.4380, 333.8477
692.5950, 68.69922
693.7520, 55.65234
694.9080, 204.7070
696.0650, 13.06250
697.2210, 223.2305
698.3770, 213.2930
699.5330, 122.8086
700.6880, 24.70703
701.8440, 12.72266
702.9990, 18.87891
704.1550, 195.5234
705.3100, 405.3398
706.4650, 15.44141
707.6190, 134.5820
708.7740, 179.8672
709.9290, 113.7148
711.0830, 43.28516
712.2370, 184.1953
713.3910, 152.7734
714.5450, 166.5000
715.6980, 9.257813
716.8520, 239.8984
718.0050, 113.9766
719.1580, 113.0352
720.3110, 17.99609
721.4640, 104.8984
722.6170, 249.7461
723.7700, 28.56641
724.9220, 327.3281
726.0740, 101.0820
727.2260, 35.79688
728.3780, 302.4570
729.5300, 355.0820
730.6810, 360.6797
731.8330, 435.4648
732.9840, 290.7773
734.1350, 420.2773
735.2860, 300.7344
736.4370, 299.1641
737.5880, 327.5625
738.7380, 348.9219
739.8880, 374.2461
741.0390, 377.5391
742.1890, 151.7969
743.3380, 383.0195
744.4880, 233.2031
745.6380, 294.3555
746.7870, 374.4766
747.9360, 415.5586
749.0850, 188.6094
750.2340, 535.6250
751.3830, 253.6055
752.5310, 625.5586
753.6800, 364.4766
754.8280, 592.3594
755.9760, 346.2109
757.1240, 329.0273
758.2720, 181.8125
759.4190, 404.5664
760.5670, 231.2930
761.7140, 207.9766
762.8610, 537.6367
764.0080, 554.2578
765.1550, 572.8477
766.3020, 412.4102
767.4480, 338.9336
768.5950, 311.4375
769.7410, 360.9023
770.8870, 508.3438
772.0330, 555.7500
773.1780, 569.1250
774.3240, 593.4648
775.4690, 652.7812
776.6140, 631.0664
777.7590, 535.3242
778.9040, 735.5469
780.0490, 433.7383
781.1940, 753.9062
782.3380, 466.0391
783.4820, 459.1484
784.6260, 691.2227
785.7700, 810.2656
786.9140, 632.2852
788.0580, 741.2734
789.2010, 866.2383
790.3450, 533.1680
791.4880, 462.0742
792.6310, 638.9492
793.7730, 736.7969
794.9160, 767.6172
796.0590, 920.4062
797.2010, 685.1719
798.3430, 881.9102
799.4850, 513.6211
800.6270, 438.3086
801.7690, 804.9688
802.9100, 741.6016
804.0520, 763.5586
805.1930, 929.1406
806.3340, 985.2109
807.4750, 1146.746
808.6160, 1225.254
809.7560, 1268.715
810.8970, 1146.520
812.0370, 1225.273
813.1770, 1631.684
814.3170, 1639.195
815.4570, 1518.402
816.5960, 1248.750
817.7360, 1263.816
818.8750, 1304.461
820.0140, 1528.887
821.1530, 1235.145
822.2920, 1114.902
823.4310, 1228.973
824.5690, 1090.766
825.7070, 1141.398
826.8460, 1112.230
827.9840, 1085.277
829.1220, 1312.316
830.2590, 1076.320
831.3970, 1168.090
832.5340, 1217.453
833.6710, 1077.414
834.8080, 923.5273
835.9450, 1142.590
837.0820, 1019.609
838.2190, 1074.109
839.3550, 1112.039
840.4910, 1438.855
841.6270, 1423.484
842.7630, 1444.895
843.8990, 1390.184
845.0350, 1782.535
846.1700, 1525.086
847.3060, 1683.039
848.4410, 1600.738
849.5760, 2010.992
850.7100, 1890.098
851.8450, 1830.395
852.9800, 2038.480
854.1140, 1940.086
855.2480, 2441.312
856.3820, 2434.176
857.5160, 2587.133
858.6500, 2718.902
859.7830, 3001.570
860.9170, 2786.707
862.0500, 2649.562
863.1830, 2731.305
864.3160, 2428.699
865.4480, 2624.555
866.5810, 2242.406
867.7130, 1928.258
868.8460, 1672.113
869.9780, 1540.109
871.1100, 1656.812
872.2410, 1446.664
873.3730, 1490.516
874.5050, 1530.363
875.6360, 1278.211
876.7670, 1375.062
877.8980, 1140.914
879.0290, 1409.309
880.1590, 1192.164
881.2900, 1168.918
882.4200, 1334.777
883.5500, 1074.641
884.6800, 926.5039
885.8100, 1112.121
886.9400, 1074.996
888.0690, 1063.871
889.1990, 932.7500
890.3280, 956.1016
891.4570, 922.5430
892.5860, 937.4141
893.7140, 900.3125
894.8430, 882.4648
895.9710, 839.9297
897.1000, 928.8438
898.2280, 926.7070
899.3560, 1064.637
900.4830, 831.5703
901.6110, 754.5117
902.7380, 810.4648
903.8660, 901.4180
904.9930, 913.3828
906.1200, 795.3555
907.2460, 775.3359
908.3730, 733.3242
909.5000, 513.3242
910.6260, 827.3281
911.7520, 793.3477
912.8780, 557.3711
914.0040, 652.4102
915.1290, 781.4570
916.2550, 455.5078
917.3800, 704.5820
918.5050, 465.6641
919.6300, 338.7500
920.7550, 510.8555
921.8800, 185.9688
923.0040, 302.0938
924.1290, 360.2344
925.2530, 45.38281
926.3770, 427.5508
927.5010, 167.7305
928.6250, 544.9414
929.7480, 355.1914
930.8720, 309.4688
931.9950, 227.7852
933.1180, 508.1406
934.2410, 327.5117
935.3640, 366.9531
936.4860, 288.4023
937.6090, 337.8867
938.7310, 6.593750
939.8530, 466.9336
940.9750, 17.49219
942.0970, 152.0664
943.2180, 379.6602
944.3400, 369.2812
945.4610, 353.9453
946.5820, 414.1211
947.7030, 155.3672
948.8240, 315.1133
949.9450, 359.9414
951.0650, 154.7852
952.1860, 257.6523
953.3060, 131.5430
954.4260, 366.4531
955.5460, 547.4570
956.6650, 275.4805
957.7850, 427.5312
958.9040, 377.6055
960.0230, 358.7031
961.1420, 153.8281
962.2610, 477.9922
963.3800, 13.19141
964.4990, 231.5234
965.6170, 124.9062
966.7350, 97.34766
967.8530, 174.8828
968.9710, 111.4570
970.0890, 146.8711
971.2070, 20.23828
972.3240, 138.3594
973.4410, 140.9648
974.5580, 157.3594
975.6750, 6.218750
976.7920, 69.89062
977.9090, 182.2852
979.0250, 25.50000
980.1410, 138.6328
981.2580, 138.7383
982.3740, 159.1211
983.4890, 335.9844
984.6050, 246.8477
985.7200, 301.7617
986.8360, 389.7031
987.9510, 405.6914
989.0660, 95.28906
990.1810, 479.7578
991.2950, 7.164063
992.4100, 15.95312
993.5240, 544.1133
994.6390, 532.2930
995.7530, 286.5117
996.8660, 386.7539
997.9800, 809.0352
999.0940, 853.3477
1000.207, 1715.691
1001.320, 1832.059
1002.433, 2324.453
1003.546, 2005.879
1004.659, 1799.324
1005.772, 1358.805
1006.884, 727.3047
1007.996, 691.8359
1009.108, 491.3984
1010.220, 521.9844
1011.332, 380.6016
1012.444, 362.2461
1013.555, 345.8594
1014.666, 366.6211
1015.777, 384.3594
1016.888, 446.1172
1017.999, 606.9062
1019.110, 647.7305
1020.220, 657.5742
1021.331, 782.4531
1022.441, 1168.363
1023.551, 1151.301
1024.661, 1222.578
1025.770, 1161.266
1026.880, 1140.293
1027.989, 1006.352
1029.098, 911.4375
1030.207, 1099.555
1031.316, 1144.707
1032.425, 1171.887
1033.533, 1091.098
1034.642, 1115.344
1035.750, 1183.617
1036.858, 1439.922
1037.966, 1467.258
1039.073, 1483.629
1040.181, 1670.031
1041.288, 1615.457
1042.396, 1480.926
1043.503, 1424.418
1044.610, 1671.941
1045.716, 1682.504
1046.823, 1701.094
1047.929, 1827.723
1049.036, 1450.375
1050.142, 1368.066
1051.248, 1482.785
1052.353, 1399.539
1053.459, 1371.328
1054.564, 1166.148
1055.670, 1111.000
1056.775, 1061.887
1057.880, 1054.805
1058.985, 991.7617
1060.089, 1124.648
1061.194, 1231.445
1062.298, 1117.113
1063.402, 941.0938
1064.506, 1009.930
1065.610, 1203.848
1066.713, 1169.031
1067.817, 721.0078
1068.920, 1143.254
1070.023, 674.3203
1071.126, 950.5664
1072.229, 1013.562
1073.332, 991.1914
1074.435, 957.5977
1075.537, 980.0352
1076.639, 909.9922
1077.741, 1241.590
1078.843, 1129.121
1079.945, 1320.609
1081.046, 1092.199
1082.148, 1255.312
1083.249, 1150.980
1084.350, 990.6641
1085.451, 1323.379
1086.551, 1363.125
1087.652, 1091.898
1088.752, 1077.703
1089.853, 901.5430
1090.953, 875.4102
1092.053, 1037.309
1093.152, 687.2305
1094.252, 667.1953
1095.351, 465.1836
1096.451, 904.1992
1097.550, 680.2500
1098.649, 824.3281
1099.748, 692.4336
1100.846, 757.5703
1101.945, 1023.738
1103.043, 1039.434
1104.141, 899.6641
1105.239, 886.8750
1106.337, 1022.973
1107.434, 1147.207
1108.532, 1068.547
1109.629, 1330.922
1110.726, 1256.895
1111.823, 1479.332
1112.920, 1698.738
1114.017, 1529.168
1115.113, 1594.711
1116.210, 1555.176
1117.306, 1785.777
1118.402, 2213.410
1119.498, 2250.070
1120.593, 2365.766
1121.689, 2555.758
1122.784, 2618.516
1123.879, 2793.844
1124.974, 3393.668
1126.069, 3374.520
1127.164, 3994.406
1128.259, 4366.324
1129.353, 4488.273
1130.447, 5131.250
1131.541, 5305.266
1132.635, 5593.309
1133.729, 6337.387
1134.822, 6251.496
1135.916, 6531.637
1137.009, 6722.809
1138.102, 6469.016
1139.195, 6268.254
1140.288, 5809.523
1141.380, 5390.902
1142.473, 4755.164
1143.565, 4254.527
1144.657, 3814.930
1145.749, 3339.410
1146.841, 2846.840
1147.932, 2514.344
1149.024, 2105.879
1150.115, 1659.445
1151.206, 1596.047
1152.297, 1405.691
1153.388, 980.3906
1154.479, 655.1289
1155.569, 891.9023
1156.659, 861.7070
1157.750, 579.5508
1158.839, 696.4219
1159.929, 580.3242
1161.019, 659.2656
1162.108, 545.2305
1163.198, 383.2305
1164.287, 484.2656
1165.376, 647.3320
1166.465, 516.4609
1167.553, 458.6172
1168.642, 798.8086
1169.730, 262.0352
1170.818, 662.2930
1171.906, 327.5820
1172.994, 277.9062
1174.082, 38.26172
1175.170, 274.6484
1176.257, 421.0664
1177.344, 279.5195
1178.431, 371.0078
1179.518, 497.5195
1180.605, 135.0703
1181.691, 146.6484
1182.778, 208.2656
1183.864, 101.9102
1184.950, 195.5898
1186.036, 185.2383
1187.122, 154.0195
1188.207, 173.8164
1189.292, 111.6211
1190.378, 10.54297
1191.463, 50.67969
1192.548, 107.2109
1193.632, 52.96484
1194.717, 129.1133
1195.801, 90.28516
1196.886, 20.52734
1197.970, 222.6289
1199.054, 27.14844
1200.137, 71.04297
1201.221, 74.23828
1202.305, 215.5625
1203.388, 40.60156
1204.471, 191.2422
1205.554, 28.11719
1206.637, 45.97656
1207.719, 138.0547
1208.802, 110.8281
1209.884, 75.25391
1210.966, 357.6602
1212.048, 256.3906
1213.130, 10.46484
1214.212, 443.3555
1215.293, 209.2773
1216.374, 280.2344
1217.456, 113.2148
1218.536, 445.2344
1219.617, 64.28516
1220.698, 122.3711
1221.778, 239.4844
1222.859, 20.62891
1223.939, 89.80469
1225.019, 24.01953
1226.099, 192.2539
1227.178, 232.5312
1228.258, 181.8359
1229.337, 293.1758
1230.417, 357.5430
1231.496, 241.9453
1232.574, 249.3789
1233.653, 580.8789
1234.732, 473.4141
1235.810, 713.0156
1236.888, 699.6797
1237.966, 679.4102
1239.044, 620.1797
1240.122, 677.9766
1241.199, 841.8477
1242.277, 789.6250
1243.354, 474.6250
1244.431, 426.6836
1245.508, 846.7852
1246.585, 637.9883
1247.661, 797.2227
1248.738, 714.4922
1249.814, 898.7891
1250.890, 620.1172
1251.966, 434.5039
1253.042, 783.9219
1254.117, 592.3633
1255.193, 351.8594
1256.268, 579.3867
1257.343, 275.9453
1258.418, 476.5312
1259.493, 434.1523
1260.567, 668.8398
1261.642, 621.5625
1262.716, 1008.320
1263.790, 998.1250
1264.864, 994.9648
1265.938, 1413.863
1267.011, 1308.789
1268.085, 1191.746
1269.158, 1183.734
1270.231, 1006.758
1271.304, 1346.816
1272.377, 1362.902
1273.450, 1360.020
1274.522, 1399.438
1275.594, 1145.617
1276.666, 996.8281
1277.738, 669.0742
1278.810, 864.3477
1279.882, 821.6523
1280.953, 466.3320
1282.025, 769.8945
1283.096, 369.0586
1284.167, 485.4883
1285.238, 672.9492
