##NAMES=Epidote
##RRUFFID=R050191
##IDEAL CHEMISTRY=Ca_2_Fe^3+^Al_2_(Si_2_O_7_)(SiO_4_)O(OH)
##LOCALITY=Pampa Blanca, Castrovirreyna Province, Huancavelica Department, Peru
##OWNER=RRUFF
##SOURCE=Dave Bunk Minerals
##DESCRIPTION=Cluster of green elongated prismatic crystals
##STATUS=The identification of this mineral has been confirmed by X-ray diffraction and chemical analysis
##URL=rruff.info/R050191
##MEASURED CHEMISTRY=Ca_2.00_Al_2.00_(Fe^3+^_0.84_Al_0.16_)(SiO_4_)(Si_2_O_7_)O(OH)
##PIN_ID=L01284
##ORIENTATION=Laser parallel to -a* (-1 0 0). Fiducial mark perpendicular to laser is parallel to b [0 1 0]
53.91000, 0.0000000E+00
55.14900, 166.4478
56.38700, 178.3428
57.62600, 305.9775
58.86400, 468.7725
60.10300, 738.3909
61.34100, 745.5422
62.57900, 524.9960
63.81700, 213.9746
65.05400, 48.74561
66.29200, 63.10815
67.52900, 149.0010
68.76700, 54.68823
70.00400, 190.6243
71.24100, 51.51196
72.47700, 21.90845
73.71400, 127.1250
74.95100, 306.3816
76.18700, 549.6316
77.42300, 593.6616
78.65900, 741.2876
79.89500, 1158.350
81.13100, 1797.716
82.36700, 2749.275
83.60200, 4005.927
84.83700, 5274.581
86.07200, 6386.151
87.30800, 7778.561
88.54200, 9433.742
89.77700, 10704.62
91.01200, 11388.15
92.24600, 11828.23
93.48000, 11838.76
94.71400, 12325.64
95.94800, 13044.75
97.18200, 13537.01
98.41600, 13375.37
99.64900, 12123.77
100.8830, 10164.21
102.1160, 8158.655
103.3490, 6403.075
104.5820, 5328.446
105.8150, 4713.770
107.0470, 5909.076
108.2800, 4401.194
109.5120, 5580.595
110.7440, 3087.758
111.9760, 2269.828
113.2080, 2215.783
114.4400, 2415.605
115.6710, 2521.280
116.9030, 2257.787
118.1340, 2123.113
119.3650, 1865.245
120.5960, 1704.168
121.8270, 1884.870
123.0580, 2295.340
124.2880, 2421.566
125.5190, 2459.537
126.7490, 2558.242
127.9790, 2959.579
129.2090, 3299.223
130.4390, 3500.093
131.6680, 3594.121
132.8980, 3390.335
134.1270, 3087.691
135.3560, 2911.900
136.5850, 2579.228
137.8140, 2609.840
139.0430, 2493.761
140.2710, 2661.010
141.5000, 2595.601
142.7280, 2701.547
143.9560, 3012.857
145.1840, 3275.621
146.4120, 3554.082
147.6390, 3637.078
148.8670, 3354.457
150.0940, 3275.222
151.3210, 3346.380
152.5490, 3587.938
153.7750, 3531.907
155.0020, 4048.347
156.2290, 4482.602
157.4550, 5307.876
158.6810, 6145.159
159.9080, 7406.146
161.1340, 8766.562
162.3590, 10183.38
163.5850, 11727.58
164.8110, 12832.46
166.0360, 13675.21
167.2610, 14293.10
168.4860, 14549.33
169.7110, 14476.49
170.9360, 14011.05
172.1610, 13089.99
173.3850, 12207.33
174.6100, 10588.06
175.8340, 9165.169
177.0580, 7661.671
178.2820, 6461.559
179.5050, 5389.833
180.7290, 4466.492
181.9520, 3839.704
183.1760, 3286.958
184.3990, 2994.763
185.6220, 2778.945
186.8450, 2593.507
188.0670, 2402.442
189.2900, 2242.753
190.5120, 1803.438
191.7340, 1626.493
192.9560, 1455.919
194.1780, 1479.711
195.4000, 1322.871
196.6220, 1404.395
197.8430, 1553.281
199.0640, 1707.529
200.2860, 1958.136
201.5070, 2138.764
202.7270, 2096.320
203.9480, 1742.744
205.1690, 1368.095
206.3890, 1116.962
207.6090, 788.4731
208.8290, 530.1099
210.0490, 370.0107
211.2690, 17.27148
212.4890, 151.4053
213.7080, 1.947266
214.9280, 88.73926
216.1470, 46.33789
217.3660, 200.6104
218.5850, 435.4248
219.8030, 627.5117
221.0220, 1007.359
222.2400, 1312.703
223.4590, 1929.530
224.6770, 2628.826
225.8950, 3272.583
227.1120, 4139.787
228.3300, 5035.432
229.5480, 5942.506
230.7650, 6596.999
231.9820, 7246.906
233.1990, 7948.221
234.4160, 8422.853
235.6330, 9285.379
236.8490, 10084.06
238.0660, 11468.23
239.2820, 12833.34
240.4980, 14473.96
241.7140, 15792.90
242.9300, 16617.20
244.1460, 16263.84
245.3610, 14630.82
246.5770, 13153.20
247.7920, 11294.97
249.0070, 9255.189
250.2220, 7897.848
251.4370, 6647.965
252.6510, 5882.516
253.8660, 5215.507
255.0800, 4723.750
256.2940, 4542.910
257.5080, 4638.554
258.7220, 4044.689
259.9360, 4256.775
261.1490, 3263.169
262.3630, 2949.076
263.5760, 2788.943
264.7890, 2852.223
266.0020, 3028.792
267.2150, 3208.637
268.4270, 3394.752
269.6400, 3826.134
270.8520, 4720.781
272.0640, 6173.691
273.2760, 5597.861
274.4880, 6046.289
275.7000, 6384.973
276.9120, 6161.912
278.1230, 5970.109
279.3340, 5762.562
280.5450, 5489.657
281.7560, 5385.227
282.9670, 5112.441
284.1780, 5284.916
285.3880, 5519.645
286.5980, 5747.627
287.8090, 6207.867
289.0190, 6696.540
290.2290, 7839.104
291.4380, 7680.099
292.6480, 8240.342
293.8570, 8241.834
295.0670, 7859.570
296.2760, 7207.553
297.4850, 6414.779
298.6930, 5719.250
299.9020, 5206.963
301.1110, 4643.918
302.3190, 4302.877
303.5270, 4019.965
304.7350, 3842.193
305.9430, 3771.080
307.1510, 3758.197
308.3580, 3895.537
309.5660, 4212.107
310.7730, 4773.900
311.9800, 5497.919
313.1870, 5932.161
314.3940, 6267.667
315.6010, 6711.313
316.8070, 6584.221
318.0130, 6531.348
319.2200, 6344.694
320.4260, 6291.258
321.6310, 6608.040
322.8370, 7101.036
324.0430, 7731.248
325.2480, 8334.673
326.4540, 9007.310
327.6590, 9678.163
328.8640, 10213.22
330.0680, 10713.49
331.2730, 10797.96
332.4780, 10745.65
333.6820, 10607.53
334.8860, 10246.63
336.0900, 10096.92
337.2940, 9909.419
338.4980, 10421.12
339.7010, 11408.01
340.9050, 12441.10
342.1080, 14072.39
343.3110, 15886.88
344.5140, 18154.55
345.7170, 20457.42
346.9200, 22332.52
348.1220, 23738.88
349.3240, 23800.47
350.5270, 23078.31
351.7290, 21219.42
352.9310, 18915.78
354.1320, 16038.41
355.3340, 13348.29
356.5350, 11206.41
357.7370, 9119.854
358.9380, 7863.466
360.1390, 6694.879
361.3400, 5925.166
362.5400, 5645.699
363.7410, 5303.473
364.9410, 5126.487
366.1410, 5260.741
367.3410, 4982.229
368.5410, 4972.952
369.7410, 3935.904
370.9400, 3221.087
372.1400, 2627.498
373.3390, 1821.134
374.5380, 1293.994
375.7370, 691.0771
376.9360, 384.3828
378.1350, 111.0908
379.3330, 245.3652
380.5310, 472.4746
381.7300, 392.4873
382.9280, 221.3789
384.1260, 19.89160
385.3230, 352.3730
386.5210, 726.0615
387.7180, 1011.956
388.9160, 1420.055
390.1130, 1404.292
391.3100, 1486.068
392.5060, 1318.995
393.7030, 1004.154
394.9000, 569.5068
396.0960, 277.3525
397.2920, 39.33008
398.4880, 219.5928
399.6840, 448.6992
400.8800, 510.6582
402.0750, 613.3721
403.2710, 610.9355
404.4660, 606.2744
405.6610, 498.2354
406.8560, 279.5898
408.0510, 126.9355
409.2450, 177.8281
410.4400, 441.7520
411.6340, 970.8340
412.8280, 1278.073
414.0220, 1872.469
415.2160, 2399.021
416.4100, 2703.726
417.6030, 3511.582
418.7970, 4035.592
419.9900, 4967.752
421.1830, 6141.061
422.3760, 7383.516
423.5690, 8568.119
424.7610, 9793.866
425.9540, 10560.76
427.1460, 11233.79
428.3380, 12075.98
429.5300, 13071.31
430.7220, 14026.79
431.9140, 15337.43
433.1050, 16718.23
434.2970, 17699.21
435.4880, 18609.37
436.6790, 18920.72
437.8700, 19070.26
439.0610, 18766.01
440.2510, 18870.00
441.4420, 19342.18
442.6320, 19869.59
443.8220, 21437.22
445.0120, 23166.07
446.2020, 25646.16
447.3910, 28699.46
448.5810, 30725.97
449.7700, 32230.72
450.9600, 32153.68
452.1490, 32600.90
453.3370, 31594.33
454.5260, 30968.97
455.7150, 29711.81
456.9030, 28341.85
458.0910, 26640.07
459.2800, 24516.50
460.4670, 21834.12
461.6550, 19427.90
462.8430, 16448.88
464.0300, 14331.88
465.2180, 12105.27
466.4050, 10291.82
467.5920, 8397.482
468.7790, 7175.316
469.9650, 6027.273
471.1520, 4891.352
472.3380, 4418.553
473.5250, 3892.859
474.7110, 3430.271
475.8970, 3035.784
477.0820, 2829.400
478.2680, 2718.111
479.4540, 2422.907
480.6390, 2689.785
481.8240, 2482.745
483.0090, 2785.786
484.1940, 2668.905
485.3780, 3177.104
486.5630, 3649.377
487.7470, 3878.726
488.9320, 4394.148
490.1160, 5017.643
491.3000, 5564.207
492.4830, 6223.842
493.6670, 6980.543
494.8500, 7894.310
496.0340, 8658.140
497.2170, 9545.033
498.4000, 10372.99
499.5820, 11040.00
500.7650, 11247.07
501.9480, 11349.19
503.1300, 11254.38
504.3120, 10728.61
505.4940, 10287.89
506.6760, 10157.23
507.8580, 9808.606
509.0390, 9181.041
510.2210, 8419.527
511.4020, 7403.059
512.5830, 6371.638
513.7640, 5348.261
514.9450, 4217.924
516.1250, 3458.626
517.3060, 2864.417
518.4860, 2366.333
519.6660, 2297.542
520.8460, 2167.347
522.0260, 1962.450
523.2060, 1847.068
524.3850, 1588.983
525.5650, 1373.603
526.7440, 1084.126
527.9230, 793.1074
529.1020, 506.1104
530.2810, 350.1323
531.4590, 9.935547
532.6380, 52.98584
533.8160, 251.1479
534.9940, 285.5137
536.1720, 356.1016
537.3500, 266.9473
538.5270, 300.0127
539.7050, 314.3140
540.8820, 292.6758
542.0590, 302.7588
543.2360, 243.4468
544.4130, 130.9634
545.5900, 75.20996
546.7660, 90.31885
547.9430, 263.6069
549.1190, 474.2202
550.2950, 921.7065
551.4710, 1107.184
552.6470, 1696.664
553.8220, 2272.146
554.9980, 3111.627
556.1730, 3981.108
557.3480, 5145.588
558.5230, 6758.064
559.6980, 8661.538
560.8730, 10769.00
562.0470, 13188.46
563.2220, 15900.92
564.3960, 17609.36
565.5700, 17721.79
566.7440, 16345.21
567.9170, 13724.66
569.0910, 11400.24
570.2640, 8933.566
571.4380, 7074.129
572.6110, 5672.886
573.7840, 4655.795
574.9570, 4268.528
576.1290, 4301.439
577.3020, 4248.956
578.4740, 4445.349
579.6460, 4806.361
580.8180, 5441.736
581.9900, 6086.126
583.1620, 6858.411
584.3330, 7600.008
585.5040, 8588.310
586.6760, 9555.203
587.8470, 10391.44
589.0180, 11299.64
590.1880, 12319.55
591.3590, 13586.21
592.5290, 14848.53
593.7000, 16552.75
594.8700, 18464.09
596.0400, 19913.75
597.2090, 21348.65
598.3790, 22250.06
599.5490, 22401.99
600.7180, 21847.25
601.8870, 20697.16
603.0560, 19610.95
604.2250, 18507.53
605.3940, 17365.61
606.5620, 16532.02
607.7300, 16152.59
608.8990, 15938.75
610.0670, 15651.44
611.2350, 15452.67
612.4020, 14943.15
613.5700, 14062.76
614.7370, 12811.13
615.9050, 11434.16
617.0720, 10145.45
618.2390, 8677.413
619.4060, 7468.368
620.5720, 6208.226
621.7390, 5412.988
622.9050, 4661.652
624.0710, 3992.220
625.2370, 3481.689
626.4030, 2866.060
627.5690, 2667.330
628.7340, 2446.500
629.9000, 2119.568
631.0650, 1887.535
632.2300, 1822.398
633.3950, 1776.159
634.5600, 1441.814
635.7240, 1393.365
636.8890, 1319.812
638.0530, 1308.151
639.2170, 1176.384
640.3810, 986.5098
641.5450, 1077.527
642.7080, 936.4355
643.8720, 942.2349
645.0350, 857.9248
646.1980, 846.5034
647.3610, 852.7192
648.5240, 784.7051
649.6870, 785.0815
650.8490, 756.2690
652.0120, 786.2686
653.1740, 780.5728
654.3360, 763.8921
655.4980, 750.2344
656.6600, 728.3179
657.8210, 711.7573
658.9830, 685.0771
660.1440, 647.2734
661.3050, 666.3540
662.4660, 647.2080
663.6270, 619.2490
664.7870, 676.0791
665.9480, 676.8081
667.1080, 750.4106
668.2680, 841.8916
669.4280, 781.2529
670.5880, 656.4932
671.7480, 815.6709
672.9070, 826.3896
674.0670, 911.0352
675.2260, 966.5635
676.3850, 968.8945
677.5440, 1056.844
678.7030, 1206.732
679.8610, 1265.588
681.0200, 1335.661
682.1780, 1385.578
683.3360, 1456.226
684.4940, 1713.673
685.6520, 1684.848
686.8090, 1823.590
687.9670, 1938.692
689.1240, 1875.790
690.2810, 1670.807
691.4380, 1646.717
692.5950, 1523.521
693.7520, 1478.215
694.9080, 1323.804
696.0650, 1168.283
697.2210, 1116.655
698.3770, 1048.919
699.5330, 978.0747
700.6880, 860.1211
701.8440, 792.0596
702.9990, 686.8892
704.1550, 527.6099
705.3100, 535.2207
706.4650, 506.7236
707.6190, 354.1157
708.7740, 309.3843
709.9290, 294.5244
711.0830, 233.5322
712.2370, 145.3979
713.3910, 40.10107
714.5450, 55.60596
715.6980, 42.07959
716.8520, 5.994141
718.0050, 117.1465
719.1580, 188.5654
720.3110, 63.29980
721.4640, 191.2817
722.6170, 166.5781
723.7700, 196.1763
724.9220, 208.0889
726.0740, 184.3213
727.2260, 138.8608
728.3780, 248.6812
729.5300, 215.8389
730.6810, 293.3149
731.8330, 279.1499
732.9840, 125.3340
734.1350, 165.7837
735.2860, 157.5200
736.4370, 169.5361
737.5880, 149.8364
738.7380, 159.3120
739.8880, 94.25537
741.0390, 160.3408
742.1890, 113.6978
743.3380, 94.29834
744.4880, 120.1309
745.6380, 159.2061
746.7870, 141.5425
747.9360, 26.87207
749.0850, 34.12842
750.2340, 17.23193
751.3830, 133.1782
752.5310, 135.9951
753.6800, 144.6865
754.8280, 118.2549
755.9760, 190.6973
757.1240, 444.0254
758.2720, 559.2593
759.4190, 673.3994
760.5670, 676.4458
761.7140, 975.4009
762.8610, 1096.264
764.0080, 1163.035
765.1550, 1362.716
766.3020, 1361.308
767.4480, 1438.811
768.5950, 1515.226
769.7410, 1386.553
770.8870, 1312.793
772.0330, 1172.949
773.1780, 952.0190
774.3240, 933.0054
775.4690, 747.9072
776.6140, 525.7275
777.7590, 555.4653
778.9040, 467.1226
780.0490, 292.7002
781.1940, 301.1973
782.3380, 261.6167
783.4820, 239.9585
784.6260, 135.2212
785.7700, 142.4009
786.9140, 2.497559
788.0580, 77.49854
789.2010, 79.41504
790.3450, 34.24805
791.4880, 142.9951
792.6310, 71.66699
793.7730, 105.2593
794.9160, 172.7271
796.0590, 251.0303
797.2010, 176.0059
798.3430, 278.4243
799.4850, 234.0005
800.6270, 388.2563
801.7690, 321.0820
802.9100, 452.5439
804.0520, 506.9399
805.1930, 515.8711
806.3340, 484.7422
807.4750, 570.5527
808.6160, 595.4106
809.7560, 774.1577
810.8970, 729.9102
812.0370, 847.7144
813.1770, 879.5811
814.3170, 866.5264
815.4570, 955.5322
816.5960, 990.6074
817.7360, 1064.757
818.8750, 1144.976
820.0140, 1128.265
821.1530, 1270.608
822.2920, 1238.979
823.4310, 1419.362
824.5690, 1388.719
825.7070, 1473.028
826.8460, 1515.289
827.9840, 1602.610
829.1220, 1720.669
830.2590, 1826.789
831.3970, 1948.864
832.5340, 2068.895
833.6710, 2094.881
834.8080, 2287.825
835.9450, 2191.727
837.0820, 2349.589
838.2190, 2482.409
839.3550, 2567.191
840.4910, 2601.934
841.6270, 2742.640
842.7630, 2929.309
843.8990, 3185.903
845.0350, 3372.313
846.1700, 3591.934
847.3060, 3866.269
848.4410, 4153.354
849.5760, 4531.243
850.7100, 5039.255
851.8450, 5423.039
852.9800, 5903.168
854.1140, 6675.370
855.2480, 7371.902
856.3820, 8211.021
857.5160, 9315.074
858.6500, 10289.17
859.7830, 11817.92
860.9170, 13763.90
862.0500, 14451.25
863.1830, 15775.20
864.3160, 16982.12
865.4480, 17918.28
866.5810, 18481.66
867.7130, 18921.30
868.8460, 19314.01
869.9780, 19414.54
871.1100, 20151.71
872.2410, 21022.57
873.3730, 21997.88
874.5050, 23457.65
875.6360, 25208.03
876.7670, 27489.73
877.8980, 29837.51
879.0290, 32311.46
880.1590, 35196.91
881.2900, 38046.99
882.4200, 40794.89
883.5500, 43714.17
884.6800, 46765.89
885.8100, 48632.03
886.9400, 49485.90
888.0690, 49151.61
889.1990, 47777.50
890.3280, 44777.69
891.4570, 40959.61
892.5860, 36966.79
893.7140, 32576.97
894.8430, 28609.20
895.9710, 25258.49
897.1000, 22564.85
898.2280, 20365.25
899.3560, 18663.71
900.4830, 17351.22
901.6110, 16797.78
902.7380, 16149.39
903.8660, 15943.07
904.9930, 16192.79
906.1200, 16651.61
907.2460, 17179.47
908.3730, 18043.41
909.5000, 19461.39
910.6260, 20252.44
911.7520, 21163.55
912.8780, 22588.74
914.0040, 23384.00
915.1290, 23858.31
916.2550, 23871.22
917.3800, 23785.13
918.5050, 22478.62
919.6300, 21095.19
920.7550, 19111.05
921.8800, 17238.10
923.0040, 15145.71
924.1290, 13240.44
925.2530, 11649.33
926.3770, 10078.88
927.5010, 8987.573
928.6250, 7871.813
929.7480, 7007.472
930.8720, 6096.724
931.9950, 5427.042
933.1180, 4713.425
934.2410, 4306.877
935.3640, 3780.398
936.4860, 3420.990
937.6090, 3091.650
938.7310, 2704.395
939.8530, 2481.208
940.9750, 2396.096
942.0970, 2010.074
943.2180, 1835.122
944.3400, 1490.243
945.4610, 1647.432
946.5820, 1355.688
947.7030, 1399.014
948.8240, 1219.406
949.9450, 1072.867
951.0650, 1082.399
952.1860, 984.0015
953.3060, 1025.682
954.4260, 956.4287
955.5460, 940.2422
956.6650, 994.1235
957.7850, 920.0713
958.9040, 870.0859
960.0230, 908.1689
961.1420, 892.3184
962.2610, 894.5405
963.3800, 824.8320
964.4990, 893.1909
965.6170, 913.6260
966.7350, 817.1304
967.8530, 922.7070
968.9710, 1017.354
970.0890, 1164.074
971.2070, 1409.863
972.3240, 1709.726
973.4410, 2008.831
974.5580, 2290.673
975.6750, 2717.763
976.7920, 3132.926
977.9090, 3473.172
979.0250, 3667.499
980.1410, 4014.923
981.2580, 3970.430
982.3740, 3816.034
983.4890, 3541.729
984.6050, 3021.550
985.7200, 2639.504
986.8360, 2232.582
987.9510, 1718.801
989.0660, 1327.157
990.1810, 1174.677
991.2950, 1001.377
992.4100, 907.2285
993.5240, 786.2627
994.6390, 672.5171
995.7530, 542.8569
996.8660, 495.4351
997.9800, 425.1895
999.0940, 387.1182
1000.207, 430.2676
1001.320, 407.6909
1002.433, 439.5386
1003.546, 399.7681
1004.659, 538.6543
1005.772, 561.7109
1006.884, 676.0039
1007.996, 885.7114
1009.108, 1112.555
1010.220, 1383.015
1011.332, 1689.276
1012.444, 2247.487
1013.555, 2841.379
1014.666, 3652.143
1015.777, 4201.156
1016.888, 4900.045
1017.999, 5586.350
1019.110, 6080.448
1020.220, 6384.718
1021.331, 6284.137
1022.441, 5735.884
1023.551, 5206.934
1024.661, 4577.675
1025.770, 3774.494
1026.880, 3171.157
1027.989, 2730.710
1029.098, 2584.498
1030.207, 2210.719
1031.316, 1923.140
1032.425, 1789.701
1033.533, 1691.550
1034.642, 1720.492
1035.750, 1768.504
1036.858, 1875.214
1037.966, 1876.239
1039.073, 1808.816
1040.181, 1774.069
1041.288, 1743.301
1042.396, 1839.418
1043.503, 1688.783
1044.610, 1720.742
1045.716, 1749.937
1046.823, 1494.757
1047.929, 1347.700
1049.036, 1341.502
1050.142, 1106.851
1051.248, 1127.723
1052.353, 1105.466
1053.459, 974.4541
1054.564, 887.9009
1055.670, 893.7983
1056.775, 925.9834
1057.880, 976.6753
1058.985, 921.4653
1060.089, 997.7290
1061.194, 1032.512
1062.298, 913.2778
1063.402, 886.7515
1064.506, 966.5337
1065.610, 896.1851
1066.713, 953.8643
1067.817, 937.7832
1068.920, 1001.560
1070.023, 1100.386
1071.126, 1072.243
1072.229, 1252.162
1073.332, 1426.509
1074.435, 1600.806
1075.537, 1902.263
1076.639, 2207.362
1077.741, 2656.811
1078.843, 3214.835
1079.945, 3778.066
1081.046, 4377.338
1082.148, 5146.653
1083.249, 5986.841
1084.350, 6933.673
1085.451, 7461.341
1086.551, 7965.817
1087.652, 8011.326
1088.752, 7512.877
1089.853, 6994.464
1090.953, 5974.089
1092.053, 5031.750
1093.152, 3823.447
1094.252, 3065.114
1095.351, 2491.881
1096.451, 1951.683
1097.550, 1500.846
1098.649, 1189.715
1099.748, 1031.145
1100.846, 839.0786
1101.945, 770.3018
1103.043, 734.2988
1104.141, 643.4883
1105.239, 561.0356
1106.337, 422.0278
1107.434, 372.3701
1108.532, 311.5132
1109.629, 271.2500
1110.726, 280.2109
1111.823, 250.7349
1112.920, 225.3765
1114.017, 274.0278
1115.113, 330.0649
1116.210, 428.0005
1117.306, 437.7563
1118.402, 411.7852
1119.498, 435.3784
1120.593, 431.9829
1121.689, 495.4287
1122.784, 381.4297
1123.879, 555.0576
1124.974, 404.6631
1126.069, 293.1514
1127.164, 328.3306
1128.259, 139.7969
1129.353, 71.64502
1130.447, 49.87842
1131.541, 2.712891
1132.635, 6.732422
1133.729, 36.71973
1134.822, 76.86914
1135.916, 31.87695
1137.009, 164.4800
1138.102, 1.770508
1139.195, 157.0835
1140.288, 82.37695
1141.380, 92.62305
1142.473, 151.8242
1143.565, 123.0850
1144.657, 173.5776
1145.749, 185.1411
1146.841, 124.2271
1147.932, 156.9243
1149.024, 196.5659
1150.115, 38.47461
1151.206, 150.3433
1152.297, 87.39893
1153.388, 68.23779
1154.479, 93.30957
1155.569, 142.2046
1156.659, 6.199219
1157.750, 167.8057
1158.839, 67.74023
1159.929, 89.78369
1161.019, 94.94922
1162.108, 7.309082
1163.198, 32.58838
1164.287, 96.16504
1165.376, 29.31592
1166.465, 66.02881
1167.553, 83.11182
1168.642, 26.80762
1169.730, 108.4443
1170.818, 25.54150
1171.906, 56.57031
1172.994, 21.29297
1174.082, 2.756836
1175.170, 80.79443
1176.257, 47.30664
1177.344, 37.34863
1178.431, 1.826172
1179.518, 12.40771
1180.605, 0.4868160
1181.691, 97.19482
1182.778, 20.65283
1183.864, 127.0518
1184.950, 34.62988
1186.036, 25.17676
1187.122, 57.03076
1188.207, 4.294434
1189.292, 34.89502
1190.378, 39.23730
1191.463, 28.53955
1192.548, 9.146484
1193.632, 35.94043
1194.717, 61.67627
1195.801, 74.75879
1196.886, 104.2119
1197.970, 69.33105
1199.054, 116.4458
1200.137, 116.0962
1201.221, 13.01709
1202.305, 130.8765
1203.388, 48.70312
1204.471, 18.31836
1205.554, 78.37842
1206.637, 225.1113
1207.719, 94.14502
1208.802, 222.0435
1209.884, 138.5923
1210.966, 168.1445
1212.048, 162.6201
1213.130, 86.06055
1214.212, 100.4556
1215.293, 56.99512
1216.374, 214.2886
1217.456, 196.5439
1218.536, 207.7607
1219.617, 193.9390
1220.698, 217.0776
1221.778, 146.1763
1222.859, 181.2354
1223.939, 110.2539
1225.019, 160.2388
1226.099, 216.3154
1227.178, 106.2031
1228.258, 230.0371
1229.337, 137.8369
1230.417, 199.5889
1231.496, 155.2988
1232.574, 214.9648
1233.653, 166.5869
1234.732, 153.1646
1235.810, 139.6943
