##NAMES=Epidote
##RRUFFID=R040092
##IDEAL CHEMISTRY=Ca_2_Fe^3+^Al_2_(Si_2_O_7_)(SiO_4_)O(OH)
##LOCALITY=Nahant, Massachusetts, USA
##OWNER=RRUFF
##SOURCE=University of Arizona Mineral Museum
##DESCRIPTION=Green prismatic crystals imbedded in quartz
##STATUS=The identification of this mineral has been confirmed by X-ray diffraction and chemical analysis
##URL=rruff.info/R040092
##MEASURED CHEMISTRY=Ca_2.01_Al_2.00_Fe_1.00_(Si_1.00_O_4_)(Si_1.97_Fe_0.02_Al_0.01_Ti_0.01_O_7_)O(OH)
##PIN_ID=M00265
##ORIENTATION=Laser parallel to -a [-1 0 0]. Fiducial mark perpendicular to laser is parallel to -b* (0 -1 0)
51.466, 0.000
52.866, 133.913
54.266, 702.459
55.666, 1089.840
57.065, 1289.447
58.464, 1331.498
59.863, 1615.181
61.262, 2138.086
62.661, 2278.399
64.059, 2054.103
65.458, 1689.346
66.856, 1035.068
68.253, 650.540
69.651, 279.878
71.048, 56.003
72.445, 40.392
73.842, 127.965
75.239, 72.913
76.635, 259.106
78.031, 370.410
79.427, 1343.412
80.823, 2890.725
82.218, 4826.348
83.614, 6372.775
85.009, 7919.412
86.404, 9662.771
87.798, 11324.580
89.193, 12733.027
90.587, 12885.084
91.981, 11681.713
93.375, 9395.699
94.768, 7163.146
96.161, 5471.062
97.554, 4063.439
98.947, 2917.248
100.340, 1878.447
101.732, 995.021
103.124, 581.956
104.516, 447.239
105.908, 449.864
107.300, 288.821
108.691, 63.087
110.082, 318.371
111.473, 262.556
112.864, 305.467
114.254, 578.898
115.644, 511.539
117.034, 378.457
118.424, 73.653
119.813, 10.131
121.203, 268.888
122.592, 530.927
123.981, 1023.247
125.369, 1732.852
126.758, 2563.738
128.146, 3388.910
129.534, 4438.367
130.922, 5184.777
132.309, 5826.656
133.696, 5727.056
135.083, 4923.531
136.470, 3548.579
137.857, 2753.086
139.243, 1961.969
140.630, 1402.129
142.016, 1044.496
143.401, 1053.040
144.787, 1206.583
146.172, 1461.949
147.557, 1324.318
148.942, 902.807
150.327, 810.454
151.711, 542.235
153.096, 720.155
154.480, 890.217
155.863, 1433.424
157.247, 2189.781
158.630, 3333.294
160.013, 4721.963
161.396, 6135.777
162.779, 7780.723
164.161, 9466.612
165.544, 11235.082
166.926, 12118.591
168.308, 12970.278
169.689, 13243.640
171.070, 13049.136
172.452, 12522.365
173.833, 11383.791
175.213, 9865.419
176.594, 7562.242
177.974, 6041.262
179.354, 4790.479
180.734, 3718.893
182.114, 2939.502
183.493, 2785.310
184.872, 2574.313
186.251, 2880.516
187.630, 2858.916
189.008, 2420.513
190.387, 1757.309
191.765, 947.301
193.143, 479.490
194.520, 218.878
195.898, 289.464
197.275, 413.245
198.652, 525.227
200.029, 635.404
201.405, 736.778
202.782, 688.350
204.158, 661.118
205.534, 423.082
206.909, 230.241
208.285, 26.596
209.660, 192.855
211.035, 328.105
212.410, 294.027
213.784, 166.501
215.159, 90.650
216.533, 507.107
217.907, 851.439
219.281, 1441.600
220.654, 2012.929
222.027, 2894.345
223.400, 3698.607
224.773, 4529.886
226.146, 5421.359
227.518, 6040.074
228.891, 6510.381
230.263, 6995.047
231.634, 7219.616
233.006, 7473.128
234.377, 8013.186
235.748, 9151.480
237.119, 10321.492
238.490, 12118.576
239.860, 13489.832
241.231, 14871.978
242.601, 15279.731
243.970, 14469.701
245.340, 12806.340
246.709, 10440.354
248.079, 8851.438
249.448, 7125.704
250.816, 6536.098
252.185, 6005.602
253.553, 5816.285
254.921, 5615.150
256.289, 5241.197
257.657, 4601.414
259.024, 3855.797
260.391, 3235.346
261.758, 2639.058
263.125, 2167.932
264.492, 1752.969
265.858, 1603.166
267.224, 1675.521
268.590, 1681.338
269.956, 2123.853
271.321, 2603.641
272.687, 2904.013
274.052, 3313.439
275.416, 3673.586
276.781, 3490.896
278.146, 2964.166
279.510, 2678.920
280.874, 2535.744
282.237, 2654.259
283.601, 2740.548
284.964, 3351.513
286.327, 4518.301
287.690, 5277.961
289.053, 6361.768
290.416, 7717.722
291.778, 8526.825
293.140, 8500.071
294.502, 7377.461
295.863, 6298.951
297.225, 4791.430
298.586, 3535.021
299.947, 2510.752
301.308, 1790.622
302.668, 1299.630
304.029, 1036.773
305.389, 1031.053
306.749, 870.467
308.108, 883.013
309.468, 1190.695
310.827, 1422.513
312.186, 1733.467
313.545, 2083.555
314.903, 2281.780
316.262, 2588.140
317.620, 3049.633
318.978, 3586.260
320.336, 4467.021
321.693, 5123.916
323.051, 6143.943
324.408, 6945.103
325.765, 8208.397
327.121, 8800.820
328.478, 8488.374
329.834, 8275.064
331.190, 8115.889
332.546, 7444.846
333.902, 7334.936
335.257, 7009.160
336.612, 7044.516
337.967, 7335.001
339.322, 8271.616
340.677, 9641.366
342.031, 11486.241
343.385, 13758.243
344.739, 16258.375
346.093, 18309.633
347.446, 20303.020
348.799, 20960.531
350.153, 20769.164
351.505, 18870.922
352.858, 16097.807
354.210, 13166.807
355.563, 10774.934
356.915, 8618.180
358.267, 6836.549
359.618, 5657.033
360.969, 4788.641
362.321, 4242.365
363.672, 3724.205
365.022, 3365.164
366.373, 2875.236
367.723, 2503.412
369.073, 1752.498
370.423, 1300.985
371.773, 645.494
373.122, 276.486
374.471, 17.084
375.821, 429.445
377.169, 272.082
378.518, 395.815
379.866, 174.521
381.215, 176.638
382.563, 505.822
383.910, 1014.337
385.258, 1627.480
386.605, 2439.711
387.952, 2821.037
389.299, 3149.011
390.646, 3540.989
391.992, 3363.633
393.339, 3139.421
394.685, 2929.352
396.031, 2082.438
397.376, 1397.673
398.722, 1144.083
400.067, 788.721
401.412, 565.586
402.757, 617.646
404.101, 532.910
405.446, 643.367
406.790, 1035.007
408.134, 1428.826
409.478, 1917.841
410.821, 2466.059
412.165, 2850.467
413.508, 3476.073
414.851, 3896.867
416.193, 3996.855
417.536, 4680.026
418.878, 5181.384
420.220, 6050.922
421.562, 6692.637
422.904, 8064.525
424.245, 9065.583
425.586, 10066.809
426.927, 11388.197
428.268, 12281.740
429.609, 13956.430
430.949, 15907.265
432.289, 18553.258
433.629, 19608.398
434.969, 20595.693
436.309, 19465.154
437.648, 18078.859
438.987, 16483.795
440.326, 15058.966
441.665, 13923.263
443.003, 14605.683
444.342, 15453.216
445.680, 17232.863
447.018, 19512.625
448.355, 20966.494
449.693, 22025.451
451.030, 21873.508
452.367, 20677.645
453.704, 17926.873
455.041, 16516.184
456.377, 14128.583
457.713, 12350.064
459.049, 10438.627
460.385, 8771.273
461.721, 7113.004
463.056, 5594.812
464.391, 4628.703
465.726, 3855.670
467.061, 3177.714
468.395, 2838.834
469.730, 2572.028
471.064, 2122.297
472.398, 1766.639
473.731, 1430.053
475.065, 1084.536
476.398, 1065.089
477.731, 940.710
479.064, 929.396
480.397, 1073.146
481.729, 1263.959
483.062, 1477.834
484.394, 1882.770
485.725, 2195.765
487.057, 2908.820
488.389, 3602.934
489.720, 4393.103
491.051, 5660.328
492.382, 7040.608
493.712, 8653.946
495.043, 9974.331
496.373, 11579.772
497.703, 13060.261
499.032, 13925.803
500.362, 14107.395
501.691, 13760.030
503.020, 12972.715
504.349, 12328.447
505.678, 11702.222
507.007, 11158.040
508.335, 10308.904
509.663, 9428.810
510.991, 7956.756
512.319, 6310.742
513.646, 4997.769
514.973, 3663.832
516.300, 2791.933
517.627, 2027.069
518.954, 1274.242
520.280, 1036.449
521.607, 709.688
522.933, 413.961
524.259, 215.264
525.584, 71.598
526.910, 9.039
528.235, 160.662
529.560, 299.322
530.885, 338.074
532.209, 386.937
533.534, 285.910
534.858, 258.181
536.182, 293.234
537.506, 199.805
538.829, 250.007
540.152, 180.900
541.476, 178.806
542.799, 59.720
544.121, 96.592
545.444, 179.120
546.766, 387.164
548.088, 726.677
549.410, 1147.029
550.732, 1379.604
552.053, 1812.134
553.375, 2455.004
554.696, 3348.044
556.017, 4625.908
557.337, 6176.663
558.658, 8316.541
559.978, 10569.863
561.298, 13502.564
562.618, 15744.536
563.938, 16976.283
565.257, 16896.002
566.576, 14136.704
567.895, 11578.781
569.214, 9096.425
570.533, 7284.124
571.851, 5916.161
573.170, 5295.901
574.488, 5006.620
575.805, 5134.001
577.123, 5287.373
578.440, 5993.041
579.758, 6650.209
581.075, 7637.161
582.391, 8786.077
583.708, 9542.398
585.024, 10559.009
586.341, 11924.134
587.657, 12599.530
588.972, 13784.808
590.288, 14795.724
591.603, 16115.405
592.918, 17978.061
594.233, 20176.314
595.548, 21511.213
596.863, 22696.488
598.177, 22456.121
599.491, 22056.996
600.805, 20429.566
602.119, 19021.758
603.432, 17916.803
604.746, 16944.953
606.059, 16083.600
607.372, 15857.031
608.685, 16006.100
609.997, 15856.080
611.309, 15476.420
612.621, 14703.768
613.933, 13680.246
615.245, 12297.352
616.557, 11099.632
617.868, 9391.594
619.179, 8057.998
620.490, 6639.966
621.801, 5637.892
623.111, 4729.625
624.421, 3950.204
625.731, 3340.766
627.041, 3059.109
628.351, 2636.470
629.660, 2369.844
630.970, 2186.121
632.279, 1971.042
633.588, 1793.628
634.896, 1598.609
636.205, 1582.801
637.513, 1383.095
638.821, 1438.133
640.129, 1352.094
641.437, 1318.976
642.744, 1254.373
644.051, 1158.526
645.358, 1083.147
646.665, 983.710
647.972, 913.192
649.278, 872.591
650.584, 742.908
651.890, 759.143
653.196, 691.293
654.502, 740.359
655.807, 576.341
657.113, 620.237
658.418, 590.047
659.722, 558.771
661.027, 573.408
662.331, 639.957
663.636, 720.417
664.940, 585.791
666.244, 728.074
667.547, 619.269
668.851, 781.372
670.154, 787.386
671.457, 744.309
672.760, 942.139
674.062, 886.879
675.365, 872.526
676.667, 884.081
677.969, 951.542
679.271, 979.910
680.572, 1184.184
681.874, 1127.313
683.175, 1159.979
684.476, 1084.450
685.777, 1116.561
687.077, 1064.288
688.378, 1070.011
689.678, 957.095
690.978, 868.945
692.278, 788.943
693.577, 662.527
694.877, 563.503
696.176, 478.382
697.475, 346.352
698.774, 334.273
700.072, 279.843
701.371, 238.765
702.669, 149.587
703.967, 177.293
705.265, 188.889
706.562, 135.375
707.860, 9.741
709.157, 4.940
710.454, 45.031
711.751, 22.801
713.047, 55.528
714.344, 73.059
715.640, 95.802
716.936, 85.771
718.232, 105.958
719.527, 118.375
720.823, 102.028
722.118, 133.910
723.413, 188.036
724.708, 197.436
726.002, 151.114
727.297, 189.044
728.591, 153.249
729.885, 169.707
731.179, 149.428
732.472, 150.400
733.766, 140.411
735.059, 133.770
736.352, 115.805
737.645, 116.748
738.937, 108.923
740.230, 83.324
741.522, 77.396
742.814, 35.760
744.106, 51.768
745.397, 47.969
746.689, 46.361
747.980, 79.942
749.271, 75.728
750.562, 7.284
751.853, 48.861
753.143, 25.193
754.433, 0.303
755.723, 13.359
757.013, 95.815
758.303, 26.868
759.592, 135.780
760.881, 62.580
762.170, 167.252
763.459, 188.817
764.748, 188.280
766.036, 267.640
767.325, 247.903
768.613, 214.070
769.901, 270.139
771.188, 216.113
772.476, 266.990
773.763, 179.773
775.050, 227.458
776.337, 218.048
777.624, 244.544
778.910, 261.571
780.196, 245.260
781.482, 277.481
782.768, 252.612
784.054, 228.653
785.339, 230.604
786.625, 294.466
787.910, 353.241
789.195, 236.931
790.479, 428.535
791.764, 357.057
793.048, 504.498
794.332, 430.859
795.616, 535.141
796.900, 601.344
798.183, 592.469
799.467, 690.517
800.750, 692.488
802.033, 703.381
803.316, 841.200
804.598, 717.943
805.880, 1068.612
807.163, 1351.207
808.445, 1010.728
809.726, 1059.176
811.008, 1231.552
812.289, 1201.856
813.570, 1332.090
814.851, 1521.252
816.132, 1507.345
817.413, 1654.369
818.693, 1841.324
819.973, 1839.211
821.253, 2009.031
822.533, 2155.783
823.813, 2309.470
825.092, 2415.091
826.371, 2548.646
827.650, 2698.137
828.929, 2919.564
830.208, 3013.930
831.486, 3092.233
832.764, 3104.475
834.042, 3212.660
835.320, 3366.799
836.598, 3305.889
837.875, 3583.929
839.152, 3523.924
840.429, 3778.909
841.706, 3895.917
842.983, 4023.941
844.259, 4472.997
845.536, 4521.068
846.812, 4918.145
848.088, 5173.241
849.363, 5813.333
850.639, 6199.434
851.914, 6753.104
853.189, 7454.737
854.464, 8389.118
855.739, 9448.281
857.013, 10412.920
858.288, 11851.062
859.562, 13234.351
860.836, 15171.405
862.110, 16160.475
863.383, 17513.184
864.656, 18052.707
865.930, 18571.395
867.203, 18959.158
868.475, 19372.766
869.748, 19811.896
871.020, 21112.629
872.292, 22645.051
873.564, 24531.680
874.836, 27202.305
876.108, 30005.908
877.379, 33478.094
878.650, 36695.695
879.922, 40133.180
881.192, 42897.301
882.463, 45776.668
883.733, 47403.047
885.004, 47771.699
886.274, 46233.344
887.544, 43264.645
888.813, 38694.402
890.083, 34620.336
891.352, 30406.264
892.621, 26636.752
893.890, 23564.908
895.159, 21172.512
896.427, 19494.803
897.695, 18565.170
898.964, 17542.861
900.232, 17189.742
901.499, 17108.609
902.767, 17740.842
904.034, 17996.383
905.301, 19084.502
906.568, 20714.229
907.835, 22319.656
909.102, 23677.344
910.368, 25435.383
911.634, 27583.514
912.900, 28828.492
914.166, 30081.930
915.432, 29317.539
916.697, 28153.467
917.962, 26517.432
919.227, 23598.994
920.492, 20820.506
921.757, 18029.838
923.021, 15831.497
924.285, 13642.931
925.550, 11818.637
926.813, 10305.855
928.077, 9021.464
929.341, 7997.066
930.604, 7174.812
931.867, 6330.667
933.130, 5629.488
934.393, 5130.483
935.655, 4524.415
936.918, 4129.313
938.180, 3792.200
939.442, 3501.425
940.703, 3176.937
941.965, 3037.004
943.226, 2763.811
944.488, 2583.467
945.749, 2604.331
947.009, 2426.224
948.270, 2297.146
949.530, 2228.100
950.791, 2165.093
952.051, 2087.124
953.311, 2077.195
954.570, 2070.317
955.830, 1999.480
957.089, 2041.678
958.348, 2016.923
959.607, 1975.202
960.866, 1847.523
962.124, 1738.890
963.383, 1737.313
964.641, 1619.777
965.899, 1660.288
967.156, 1644.841
968.414, 1594.445
969.671, 1777.086
970.928, 1766.768
972.185, 1882.489
973.442, 2164.248
974.699, 2397.047
975.955, 2563.885
977.211, 2813.768
978.468, 2954.692
979.723, 2964.685
980.979, 2815.690
982.234, 2797.843
983.490, 2273.946
984.745, 2124.124
986.000, 1979.162
987.254, 1704.607
988.509, 1521.135
989.763, 1429.392
991.017, 1422.064
992.271, 1363.439
993.525, 1410.449
994.779, 1354.275
996.032, 1389.085
997.285, 1376.758
998.538, 1455.413
999.791, 1656.523
1001.044, 1665.624
1002.296, 1686.114
1003.548, 1665.886
1004.800, 1721.360
1006.052, 1867.077
1007.304, 1969.612
1008.555, 2261.392
1009.807, 2470.434
1011.058, 3009.836
1012.309, 3634.336
1013.559, 4495.840
1014.810, 5349.407
1016.060, 6250.398
1017.310, 6786.498
1018.560, 6847.495
1019.810, 6455.330
1021.060, 6114.250
1022.309, 5237.383
1023.558, 4414.282
1024.807, 3719.120
1026.056, 3282.534
1027.305, 3010.089
1028.553, 2767.707
1029.801, 2796.635
1031.049, 2736.621
1032.297, 2887.744
1033.545, 3127.001
1034.793, 3372.396
1036.040, 3382.920
1037.287, 3647.576
1038.534, 3795.356
1039.781, 3869.254
1041.027, 3775.266
1042.274, 3601.398
1043.520, 3494.641
1044.766, 3105.992
1046.012, 2759.453
1047.257, 2538.012
1048.503, 2322.675
1049.748, 2033.439
1050.993, 1897.302
1052.238, 1714.266
1053.483, 1581.328
1054.727, 1458.466
1055.971, 1401.695
1057.216, 1307.008
1058.459, 1255.349
1059.703, 1191.871
1060.947, 1166.399
1062.190, 1079.995
1063.433, 1025.644
1064.676, 923.355
1065.919, 839.118
1067.162, 1096.928
1068.404, 829.787
1069.646, 895.689
1070.888, 1175.638
1072.130, 1115.058
1073.372, 1249.669
1074.613, 1447.752
1075.855, 1656.876
1077.096, 2057.046
1078.337, 2410.258
1079.578, 2910.514
1080.818, 3644.811
1082.059, 4481.149
1083.299, 5424.645
1084.539, 6246.503
1085.779, 6657.961
1087.018, 6540.463
1088.258, 5903.005
1089.497, 5010.586
1090.736, 4008.271
1091.975, 3114.927
1093.213, 2342.619
1094.452, 1944.779
1095.690, 1500.543
1096.928, 1180.398
1098.166, 1005.804
1099.404, 861.645
1100.642, 681.272
1101.879, 635.301
1103.116, 523.564
1104.353, 518.586
1105.590, 382.021
1106.827, 365.545
1108.063, 297.702
1109.299, 255.756
1110.536, 253.378
1111.771, 197.802
1113.007, 169.131
1114.243, 179.848
1115.478, 149.564
1116.713, 141.994
1117.948, 57.653
1119.183, 94.559
1120.418, 332.294
1121.652, 576.924
1122.886, 787.512
1124.120, 657.164
1125.354, 381.871
1126.588, 201.643
1127.821, 2.397
1129.055, 33.203
1130.288, 5.467
1131.521, 60.665
1132.753, 52.946
1133.986, 108.697
1135.218, 89.413
1136.450, 89.438
1137.682, 45.702
1138.914, 115.978
1140.146, 155.266
1141.377, 28.010
1142.609, 86.048
1143.840, 83.285
1145.071, 77.090
1146.301, 101.234
1147.532, 84.558
1148.762, 82.044
1149.992, 89.898
1151.222, 119.066
1152.452, 133.007
1153.682, 157.460
1154.911, 151.118
1156.140, 57.610
1157.369, 111.931
1158.598, 94.057
1159.827, 41.923
1161.055, 65.160
1162.284, 110.432
1163.512, 116.273
1164.740, 13.680
1165.967, 5.440
1167.195, 61.509
1168.422, 79.141
1169.650, 3.846
1170.877, 71.392
1172.103, 12.351
1173.330, 9.979
1174.557, 20.661
1175.783, 34.422
1177.009, 15.624
1178.235, 32.303
1179.461, 18.045
1180.686, 18.900
1181.912, 94.905
1183.137, 70.895
1184.362, 95.551
1185.587, 36.167
1186.811, 117.989
1188.036, 48.759
1189.260, 531.016
1190.484, 486.550
1191.708, 573.135
1192.932, 353.800
1194.155, 385.035
1195.378, 105.081
1196.602, 88.487
1197.825, 62.719
1199.047, 166.424
1200.270, 100.949
1201.492, 134.253
1202.715, 131.000
1203.937, 140.643
1205.159, 134.538
1206.380, 144.880
1207.602, 180.028
1208.823, 89.386
1210.044, 93.529
1211.265, 130.533
1212.486, 112.603
1213.707, 182.888
1214.927, 95.942
1216.147, 155.929
1217.367, 99.033
1218.587, 115.148
1219.807, 148.092
1221.027, 154.038
1222.246, 176.085
1223.465, 178.361
1224.684, 184.203
1225.903, 180.902
1227.121, 130.577
1228.340, 138.222
1229.558, 46.836
1230.776, 37.508
1231.994, 89.023
1233.212, 150.657
1234.429, 74.228
1235.646, 90.661
1236.864, 61.065
1238.081, 89.438
1239.297, 82.933
1240.514, 51.271
1241.730, 107.585
1242.947, 77.882
1244.163, 52.111
1245.378, 22.306
1246.594, 28.671
1247.810, 23.218
1249.025, 12.397
1250.240, 27.689
1251.455, 68.741
1252.670, 4.771
1253.885, 109.840
1255.099, 35.704
1256.313, 26.486
1257.527, 18.784
1258.741, 58.916
1259.955, 30.709
1261.168, 54.354
1262.382, 20.965
1263.595, 90.613
1264.808, 84.113
1266.021, 93.708
1267.233, 108.242
1268.446, 127.545
1269.658, 121.220
1270.870, 73.008
1272.082, 110.146
1273.294, 123.225
1274.505, 119.026
1275.716, 42.167
1276.928, 104.057
1278.139, 96.950
1279.349, 71.809
1280.560, 100.651
1281.770, 77.069
1282.981, 83.377
1284.191, 168.938
1285.401, 168.077
1286.610, 18.501
1287.820, 112.286
1289.029, 77.229
1290.239, 98.158
1291.448, 126.208
1292.656, 165.274
1293.865, 80.880
1295.073, 33.487
1296.282, 66.702
1297.490, 30.629
1298.698, 38.853
1299.906, 54.834
1301.113, 32.004
1302.320, 113.923
1303.528, 17.596
1304.735, 67.915
1305.942, 32.854
1307.148, 1.591
1308.355, 26.645
1309.561, 39.503
1310.767, 53.505
1311.973, 69.067
1313.179, 51.372
1314.384, 65.500
1315.590, 34.469
1316.795, 14.270
1318.000, 48.118
1319.205, 40.011
1320.410, 31.789
1321.614, 46.466
1322.819, 10.203
1324.023, 36.810
1325.227, 7.358
1326.431, 4.846
1327.634, 30.273
1328.838, 12.644
1330.041, 44.056
1331.244, 84.311
1332.447, 88.835
1333.650, 23.939
1334.852, 112.775
1336.055, 46.831
1337.257, 13.834
1338.459, 25.205
1339.661, 5.686
1340.862, 20.518
1342.064, 25.303
1343.265, 93.035
1344.466, 108.719
1345.667, 144.357
1346.868, 87.950
1348.068, 95.495
1349.269, 77.992
1350.469, 123.442
1351.669, 163.847
1352.869, 118.208
1354.069, 156.524
1355.268, 68.797
1356.468, 165.021
1357.667, 119.205
1358.866, 159.345
1360.065, 170.444
1361.263, 137.502
1362.462, 130.520
1363.660, 165.497
1364.858, 159.434
1366.056, 215.333
1367.254, 193.372
1368.451, 212.825
1369.649, 195.874
1370.846, 195.629
1372.043, 196.865
1373.240, 198.043
1374.436, 177.586
1375.633, 209.776
1376.829, 172.596
1378.025, 181.168
1379.221, 219.716
1380.417, 210.170
1381.613, 214.464
1382.808, 176.753
1384.003, 262.534
1385.199, 220.036
1386.393, 206.278
1387.588, 245.575
1388.783, 226.859
1389.977, 151.859
1391.171, 111.787
1392.365, 119.437
1393.559, 167.547
1394.753, 162.006
1395.946, 160.160
1397.140, 141.812
1398.333, 183.202
1399.526, 203.548
1400.719, 194.902
1401.911, 186.098
1403.104, 152.069
1404.296, 173.741
1405.488, 174.062
1406.680, 146.729
1407.872, 172.036
1409.063, 142.015
1410.255, 142.019
1411.446, 191.572
1412.637, 175.614
1413.828, 195.361
1415.018, 186.421
1416.209, 157.085
1417.399, 176.047
1418.589, 181.964
1419.779, 141.577
1420.969, 142.269
1422.159, 118.027
1423.348, 159.171
1424.537, 139.639
1425.726, 182.653
1426.915, 131.743
1428.104, 144.854
1429.293, 143.892
1430.481, 155.086
1431.669, 154.787
1432.857, 170.295
1434.045, 149.409
1435.233, 120.621
1436.420, 160.707
1437.608, 207.792
1438.795, 168.841
1439.982, 184.563
1441.169, 168.361
1442.355, 191.444
1443.542, 153.951
1444.728, 114.768
1445.914, 158.037
1447.100, 191.229
1448.286, 182.246
1449.472, 87.026
1450.657, 215.747
1451.842, 208.428
