##NAMES=Epididymite
##RRUFFID=R060773
##IDEAL CHEMISTRY=Na_2_Be_2_Si_6_O_15_&#183;H_2_O
##LOCALITY=unknown
##OWNER=RRUFF
##SOURCE=Michael Scott
##DESCRIPTION=Colorless platy crystals forming a pseudohexagonal aggregate
##STATUS=The identification of this mineral has been confirmed by single-crystal X-ray diffraction.
##URL=rruff.info/R060773
##PIN_ID=M00395
##ORIENTATION=Laser parallel to b* (0 1 0). Fiducial mark perpendicular to laser is parallel to -c [0 0 -1]
102.1160, 0.0000000E+00
103.3490, 68.31348
104.5820, 7.057617
105.8150, 191.0254
107.0470, 293.7900
108.2800, 311.0605
109.5120, 612.8760
110.7440, 449.4004
111.9760, 399.7212
113.2080, 576.2715
114.4400, 845.0884
115.6710, 965.2427
116.9030, 1501.321
118.1340, 1851.171
119.3650, 2467.921
120.5960, 3348.006
121.8270, 4434.576
123.0580, 5342.721
124.2880, 5958.023
125.5190, 5628.118
126.7490, 4986.537
127.9790, 4577.810
129.2090, 5003.286
130.4390, 5753.220
131.6680, 7952.899
132.8980, 10418.94
134.1270, 12696.32
135.3560, 12840.38
136.5850, 10365.69
137.8140, 7263.869
139.0430, 4585.504
140.2710, 2669.750
141.5000, 1738.530
142.7280, 994.1895
143.9560, 817.4551
145.1840, 598.8560
146.4120, 483.4468
147.6390, 458.2861
148.8670, 520.3022
150.0940, 680.5137
151.3210, 880.5400
152.5490, 1005.648
153.7750, 935.1562
155.0020, 760.7202
156.2290, 459.2339
157.4550, 284.6514
158.6810, 234.9561
159.9080, 60.14893
161.1340, 12.76221
162.3590, 100.7720
163.5850, 181.8740
164.8110, 66.06348
166.0360, 50.33643
167.2610, 116.6890
168.4860, 35.88135
169.7110, 80.37939
170.9360, 103.8071
172.1610, 25.16846
173.3850, 14.53516
174.6100, 66.69922
175.8340, 10.08740
177.0580, 38.78125
178.2820, 68.62500
179.5050, 19.13086
180.7290, 34.73047
181.9520, 117.4150
183.1760, 106.1738
184.3990, 354.9966
185.6220, 452.8701
186.8450, 680.7842
188.0670, 1030.271
189.2900, 1083.537
190.5120, 1351.332
191.7340, 1606.073
192.9560, 1978.018
194.1780, 2475.115
195.4000, 2800.181
196.6220, 3302.862
197.8430, 3722.148
199.0640, 3964.648
200.2860, 4011.463
201.5070, 3973.170
202.7270, 3622.133
203.9480, 3150.907
205.1690, 2681.362
206.3890, 2249.353
207.6090, 1957.871
208.8290, 1584.525
210.0490, 1367.724
211.2690, 1100.337
212.4890, 897.5537
213.7080, 878.6587
214.9280, 718.7065
216.1470, 697.7202
217.3660, 620.7236
218.5850, 587.7246
219.8030, 504.7212
221.0220, 405.7129
222.2400, 519.6992
223.4590, 530.6802
224.6770, 551.6528
225.8950, 717.6133
227.1120, 808.5591
228.3300, 956.4897
229.5480, 1239.405
230.7650, 1401.305
231.9820, 1617.191
233.1990, 1927.062
234.4160, 2264.919
235.6330, 2803.761
236.8490, 3291.589
238.0660, 3899.404
239.2820, 4948.205
240.4980, 5615.993
241.7140, 6361.768
242.9300, 6775.529
244.1460, 6620.280
245.3610, 6239.017
246.5770, 5551.742
247.7920, 4867.456
249.0070, 4122.965
250.2220, 3609.520
251.4370, 3200.020
252.6510, 2885.863
253.8660, 2635.738
255.0800, 2534.603
256.2940, 2452.429
257.5080, 2530.187
258.7220, 2546.854
259.9360, 2570.418
261.1490, 2338.878
262.3630, 2136.232
263.5760, 1890.479
264.7890, 1705.563
266.0020, 1460.212
267.2150, 1230.303
268.4270, 1021.798
269.6400, 743.2310
270.8520, 597.5312
272.0640, 336.7148
273.2760, 260.1875
274.4880, 318.7695
275.7000, 168.6572
276.9120, 180.4370
278.1230, 227.9736
279.3340, 166.9102
280.5450, 104.4922
281.7560, 72.77832
282.9670, 181.2207
284.1780, 324.0435
285.3880, 148.5552
286.5980, 246.0811
287.8090, 219.1187
289.0190, 242.4927
290.2290, 114.8369
291.4380, 53.78711
292.6480, 24.58887
293.8570, 13.25684
295.0670, 104.3291
296.2760, 82.85889
297.4850, 86.54395
298.6930, 110.3027
299.9020, 71.58984
301.1110, 76.70312
302.3190, 12.50391
303.5270, 1.034668
304.7350, 10.60498
305.9430, 46.03027
307.1510, 75.82227
308.3580, 88.03076
309.5660, 130.7256
310.7730, 173.8818
311.9800, 167.0913
313.1870, 204.8066
314.3940, 215.3760
315.6010, 182.8311
316.8070, 296.5933
318.0130, 259.9658
319.2200, 296.3418
320.4260, 319.6714
321.6310, 341.4331
322.8370, 329.4453
324.0430, 446.8545
325.2480, 452.2759
326.4540, 568.1328
327.6590, 497.0757
328.8640, 609.9263
330.0680, 619.9639
331.2730, 750.9883
332.4780, 975.0000
333.6820, 1207.997
334.8860, 1439.975
336.0900, 1628.931
337.2940, 1890.863
338.4980, 2313.769
339.7010, 2628.654
340.9050, 3383.524
342.1080, 4550.372
343.3110, 5947.188
344.5140, 7567.922
345.7170, 8855.545
346.9200, 9454.053
348.1220, 8530.483
349.3240, 6949.862
350.5270, 5440.214
351.7290, 3961.542
352.9310, 3060.855
354.1320, 2479.155
355.3340, 2246.445
356.5350, 2092.727
357.7370, 1860.001
358.9380, 1935.270
360.1390, 1891.532
361.3400, 1853.789
362.5400, 1839.041
363.7410, 1923.286
364.9410, 2103.526
366.1410, 2198.761
367.3410, 2538.988
368.5410, 2692.211
369.7410, 3093.428
370.9400, 3412.639
372.1400, 4106.843
373.3390, 4594.043
374.5380, 5191.236
375.7370, 6160.424
376.9360, 7390.606
378.1350, 8777.785
379.3330, 10505.95
380.5310, 12022.12
381.7300, 12893.28
382.9280, 13199.43
384.1260, 12187.58
385.3230, 10157.72
386.5210, 8479.865
387.7180, 6911.997
388.9160, 5517.126
390.1130, 4446.249
391.3100, 3571.369
392.5060, 2950.481
393.7030, 2493.571
394.9000, 2241.638
396.0960, 2257.682
397.2920, 2462.704
398.4880, 2592.699
399.6840, 3153.669
400.8800, 3639.613
402.0750, 4472.532
403.2710, 5606.427
404.4660, 7496.297
405.6610, 10070.14
406.8560, 13539.97
408.0510, 16679.77
409.2450, 18306.58
410.4400, 17048.37
411.6340, 13673.13
412.8280, 9236.889
414.0220, 6143.621
415.2160, 3835.333
416.4100, 2468.037
417.6030, 1658.418
418.7970, 1168.065
419.9900, 881.1094
421.1830, 584.2236
422.3760, 500.5317
423.5690, 366.5967
424.7610, 331.3516
425.9540, 145.8462
427.1460, 17.98877
428.3380, 63.72656
429.5300, 26.75537
430.7220, 123.2256
431.9140, 33.58398
433.1050, 40.04590
434.2970, 132.9902
435.4880, 166.4790
436.6790, 217.6899
437.8700, 13.77783
439.0610, 24.11182
440.2510, 6.325684
441.4420, 62.45264
442.6320, 49.82861
443.8220, 142.8550
445.0120, 176.4995
446.2020, 85.48389
447.3910, 169.7715
448.5810, 151.8335
449.7700, 92.14502
450.9600, 227.1548
452.1490, 21.15771
453.3370, 53.30713
454.5260, 25.98828
455.7150, 139.7231
456.9030, 206.6772
458.0910, 405.6880
459.2800, 391.5684
460.4670, 509.9277
461.6550, 456.1489
462.8430, 412.5522
464.0300, 342.9863
465.2180, 476.4321
466.4050, 448.8960
467.5920, 544.3589
468.7790, 657.8247
469.9650, 835.4131
471.1520, 1125.755
472.3380, 1328.215
473.5250, 1800.666
474.7110, 2113.108
475.8970, 2784.543
477.0820, 3102.968
478.2680, 3082.385
479.4540, 2785.793
480.6390, 2500.192
481.8240, 2377.584
483.0090, 2372.966
484.1940, 2674.340
485.3780, 3119.706
486.5630, 3297.063
487.7470, 3186.412
488.9320, 2893.754
490.1160, 2359.088
491.3000, 1703.415
492.4830, 1405.735
493.6670, 1160.049
494.8500, 1219.355
496.0340, 1157.656
497.2170, 1260.949
498.4000, 1381.236
499.5820, 1444.516
500.7650, 1682.789
501.9480, 1946.055
503.1300, 2169.314
504.3120, 2330.567
505.4940, 2954.812
506.6760, 3511.051
507.8580, 4384.283
509.0390, 5726.506
510.2210, 7066.725
511.4020, 9079.934
512.5830, 11483.14
513.7640, 14529.33
514.9450, 18525.52
516.1250, 24273.70
517.3060, 31696.88
518.4860, 39897.03
519.6660, 47354.20
520.8460, 50789.35
522.0260, 48662.49
523.2060, 41672.62
524.3850, 32534.76
525.5650, 24059.87
526.7440, 17285.98
527.9230, 12665.12
529.1020, 9460.218
530.2810, 7477.801
531.4590, 5811.880
532.6380, 4714.962
533.8160, 3961.026
534.9940, 3298.269
536.1720, 2832.905
537.3500, 2501.637
538.5270, 2153.336
539.7050, 1956.632
540.8820, 1704.106
542.0590, 1674.332
543.2360, 1391.753
544.4130, 1246.118
545.5900, 1237.796
546.7660, 1075.175
547.9430, 1000.505
549.1190, 942.2969
550.2950, 837.8228
551.4710, 852.8232
552.6470, 904.6733
553.8220, 740.1567
554.9980, 631.4106
556.1730, 658.6465
557.3480, 689.8140
558.5230, 672.5298
559.6980, 755.3164
560.8730, 614.4004
562.0470, 715.7925
563.2220, 790.3945
564.3960, 625.1294
565.5700, 696.4111
566.7440, 749.2559
567.9170, 915.9502
569.0910, 975.2178
570.2640, 815.4731
571.4380, 1178.958
572.6110, 1252.636
573.7840, 1347.396
574.9570, 1794.770
576.1290, 2013.110
577.3020, 2395.814
578.4740, 2976.658
579.6460, 3656.517
580.8180, 4666.111
581.9900, 5889.348
583.1620, 7358.858
584.3330, 8443.401
585.5040, 8655.088
586.6760, 8464.261
587.8470, 7064.840
589.0180, 5509.137
590.1880, 4221.543
591.3590, 3121.812
592.5290, 2607.597
593.7000, 1950.626
594.8700, 1650.362
596.0400, 1422.849
597.2090, 1303.655
598.3790, 1110.468
599.5490, 1088.270
600.7180, 940.0605
601.8870, 952.8379
603.0560, 823.6045
604.2250, 823.3584
605.3940, 747.2236
606.5620, 602.9521
607.7300, 700.6660
608.8990, 672.3672
610.0670, 571.0557
611.2350, 570.7295
612.4020, 587.5186
613.5700, 605.8877
614.7370, 680.6709
615.9050, 788.2910
617.0720, 847.8975
618.2390, 1069.490
619.4060, 1054.067
620.5720, 1156.633
621.7390, 1408.182
622.9050, 1577.720
624.0710, 1909.242
625.2370, 2204.750
626.4030, 2271.244
627.5690, 2266.725
628.7340, 2419.191
629.9000, 2516.644
631.0650, 2571.081
632.2300, 2578.504
633.3950, 2827.912
634.5600, 2797.308
635.7240, 2785.688
636.8890, 2413.053
638.0530, 2003.404
639.2170, 1856.740
640.3810, 1744.062
641.5450, 1463.369
642.7080, 1407.661
643.8720, 1460.938
645.0350, 1527.201
646.1980, 1615.449
647.3610, 1580.241
648.5240, 1523.899
649.6870, 1478.103
650.8490, 1402.290
652.0120, 1281.463
653.1740, 1290.619
654.3360, 1221.762
655.4980, 1008.890
656.6600, 963.0000
657.8210, 682.0977
658.9830, 759.1787
660.1440, 644.2441
661.3050, 401.2949
662.4660, 343.3291
663.6270, 338.3496
664.7870, 258.3535
665.9480, 259.3418
667.1080, 164.3145
668.2680, 227.2715
669.4280, 54.21289
670.5880, 206.1328
671.7480, 170.0391
672.9070, 205.9316
674.0670, 127.8076
675.2260, 41.66699
676.3850, 29.50488
677.5440, 32.68066
678.7030, 107.1143
679.8610, 88.88867
681.0200, 93.64551
682.1780, 71.38379
683.3360, 82.86621
684.4940, 31.80078
685.6520, 75.47754
686.8090, 85.13379
687.9670, 22.77051
689.1240, 93.61426
690.2810, 157.9160
691.4380, 19.43555
692.5950, 2.934570
693.7520, 90.41406
694.9080, 92.87500
696.0650, 7.683594
697.2210, 32.27148
698.3770, 128.8779
699.5330, 133.5869
700.6880, 122.5010
701.8440, 14.30664
702.9990, 64.25684
704.1550, 9.273438
705.3100, 2.318359
706.4650, 67.37305
707.6190, 12.47070
708.7740, 106.5713
709.9290, 135.7500
711.0830, 5.020508
712.2370, 28.31250
713.3910, 69.63184
714.5450, 63.00293
715.6980, 66.59375
716.8520, 66.92676
718.0050, 47.49023
719.1580, 44.44629
720.3110, 13.22168
721.4640, 8.472656
722.6170, 52.81055
723.7700, 101.0869
724.9220, 36.38086
726.0740, 86.69727
727.2260, 91.01562
728.3780, 99.35742
729.5300, 72.71875
730.6810, 76.47754
731.8330, 56.48633
732.9840, 84.87402
734.1350, 138.2451
735.2860, 201.6045
736.4370, 154.9473
737.5880, 157.2734
738.7380, 152.5830
739.8880, 282.8750
741.0390, 322.1504
742.1890, 223.4092
743.3380, 114.6514
744.4880, 242.8750
745.6380, 198.0830
746.7870, 355.2725
747.9360, 345.4453
749.0850, 216.6025
750.2340, 415.7432
751.3830, 251.8672
752.5310, 374.9746
753.6800, 347.0654
754.8280, 436.1396
755.9760, 446.1982
757.1240, 415.2402
758.2720, 491.2656
759.4190, 457.2744
760.5670, 525.2676
761.7140, 451.2451
762.8610, 479.2070
764.0080, 310.1523
765.1550, 426.0820
766.3020, 318.9951
767.4480, 412.8936
768.5950, 402.7754
769.7410, 446.6416
770.8870, 359.4922
772.0330, 375.3281
773.1780, 300.1475
774.3240, 315.9512
775.4690, 197.7393
776.6140, 290.5127
777.7590, 261.2705
778.9040, 333.0137
780.0490, 289.7412
781.1940, 295.4541
782.3380, 306.1514
783.4820, 325.8340
784.6260, 242.5020
785.7700, 392.1543
786.9140, 289.7920
788.0580, 279.4150
789.2010, 386.0234
790.3450, 392.6172
791.4880, 323.1973
792.6310, 361.7637
793.7730, 402.3145
794.9160, 500.8516
796.0590, 427.3750
797.2010, 374.8828
798.3430, 529.3770
799.4850, 500.8574
800.6270, 512.3242
801.7690, 430.7783
802.9100, 550.2178
804.0520, 444.6436
805.1930, 494.0215
806.3340, 430.4209
807.4750, 418.3115
808.6160, 561.6846
809.7560, 496.3994
810.8970, 519.7471
812.0370, 369.8945
813.1770, 357.6289
814.3170, 448.2471
815.4570, 515.8770
816.5960, 551.8887
817.7360, 483.8125
818.8750, 507.7451
820.0140, 522.5742
821.1530, 501.4385
822.2920, 584.9688
823.4310, 536.7793
824.5690, 707.6201
825.7070, 672.9795
826.8460, 715.7656
827.9840, 730.7188
829.1220, 723.9424
830.2590, 641.2129
831.3970, 512.0137
832.5340, 537.8164
833.6710, 473.6846
834.8080, 641.6934
835.9450, 503.8906
837.0820, 562.7715
838.2190, 712.1963
839.3550, 718.5293
840.4910, 661.9033
841.6270, 782.9648
842.7630, 811.8887
843.8990, 816.0967
845.0350, 815.4102
846.1700, 823.4922
847.3060, 965.7090
848.4410, 775.6162
849.5760, 966.3574
850.7100, 1019.873
851.8450, 987.3027
852.9800, 933.5342
854.1140, 1075.803
855.2480, 1134.911
856.3820, 1196.208
857.5160, 1345.990
858.6500, 1466.545
859.7830, 1473.031
860.9170, 1638.759
862.0500, 1638.068
863.1830, 1587.735
864.3160, 1550.421
865.4480, 1346.142
866.5810, 1148.749
867.7130, 1218.372
868.8460, 1120.891
869.9780, 1034.546
871.1100, 1022.426
872.2410, 1147.352
873.3730, 826.2734
874.5050, 812.1943
875.6360, 966.1104
876.7670, 988.0234
877.8980, 913.9346
879.0290, 998.8418
880.1590, 804.6221
881.2900, 936.5244
882.4200, 819.4238
883.5500, 711.3213
884.6800, 840.2158
885.8100, 602.1094
886.9400, 729.0000
888.0690, 581.8896
889.1990, 822.7764
890.3280, 625.6621
891.4570, 764.5469
892.5860, 722.4297
893.7140, 637.3125
894.8430, 740.1924
895.9710, 609.0713
897.1000, 655.9502
898.2280, 652.8291
899.3560, 713.7070
900.4830, 599.5840
901.6110, 647.4600
902.7380, 602.3369
903.8660, 653.2129
904.9930, 605.0889
906.1200, 619.9658
907.2460, 568.8438
908.3730, 466.7207
909.5000, 547.5986
910.6260, 587.4775
911.7520, 677.3574
912.8780, 492.2373
914.0040, 478.1201
915.1290, 396.0020
916.2550, 358.8867
917.3800, 361.7734
918.5050, 254.6602
919.6300, 263.6289
920.7550, 244.4395
921.8800, 258.3330
923.0040, 233.2285
924.1290, 294.1250
925.2530, 201.0244
926.3770, 148.9268
927.5010, 228.8311
928.6250, 258.7393
929.7480, 318.6494
930.8720, 299.5654
931.9950, 231.4854
933.1180, 194.4082
934.2410, 236.3330
935.3640, 354.2705
936.4860, 269.2119
937.6090, 224.1562
938.7310, 254.2568
939.8530, 203.0605
940.9750, 214.0225
942.0970, 125.0088
943.2180, 47.03711
944.3400, 0.9179690
945.4610, 159.1299
946.5820, 139.2109
947.7030, 144.2969
948.8240, 87.39062
949.9450, 252.5000
951.0650, 198.6172
952.1860, 210.7402
953.3060, 94.87305
954.4260, 87.01074
955.5460, 277.1572
956.6650, 118.3105
957.7850, 322.4727
958.9040, 161.6436
960.0230, 117.8223
961.1420, 37.01074
962.2610, 14.33105
963.3800, 13.53613
964.4990, 45.31055
965.6170, 39.90527
966.7350, 83.12891
967.8530, 29.63867
968.9710, 137.4043
970.0890, 72.78418
971.2070, 46.03320
972.3240, 11.66602
973.4410, 29.67480
974.5580, 2.037109
975.6750, 41.57129
976.7920, 103.1816
977.9090, 109.8262
979.0250, 138.4883
980.1410, 45.20020
981.2580, 44.88965
982.3740, 54.12012
983.4890, 78.21973
984.6050, 66.90137
985.7200, 39.57910
986.8360, 1.244141
987.9510, 2.717773
989.0660, 7.519531
990.1810, 19.94824
991.2950, 49.40723
992.4100, 92.88086
993.5240, 69.37695
994.6390, 80.88477
995.7530, 88.40430
996.8660, 241.9355
997.9800, 462.4785
999.0940, 572.0332
1000.207, 868.5996
1001.320, 1325.178
1002.433, 1443.769
1003.546, 1686.371
1004.659, 1309.985
1005.772, 942.6113
1006.884, 841.2471
1007.996, 538.8945
1009.108, 578.5527
1010.220, 496.2217
1011.332, 514.9023
1012.444, 556.5947
1013.555, 420.2979
1014.666, 430.0137
1015.777, 371.7402
1016.888, 321.4785
1017.999, 273.2285
1019.110, 278.9902
1020.220, 407.7646
1021.331, 456.5518
1022.441, 633.3496
1023.551, 581.1621
1024.661, 583.9854
1025.770, 606.8398
1026.880, 489.6699
1027.989, 540.5322
1029.098, 480.4072
1030.207, 403.2949
1031.316, 355.1953
1032.425, 363.1104
1033.533, 496.0371
1034.642, 420.9785
1035.750, 462.9326
1036.858, 371.9014
1037.966, 455.8818
1039.073, 587.8770
1040.181, 743.8857
1041.288, 765.9082
1042.396, 745.9443
1043.503, 907.9951
1044.610, 969.0596
1045.716, 1013.138
1046.823, 1198.229
1047.929, 1305.337
1049.036, 1304.458
1050.142, 1279.594
1051.248, 1292.375
1052.353, 1357.909
1053.459, 1172.088
1054.564, 1105.282
1055.670, 914.4902
1056.775, 886.7129
1057.880, 902.9521
1058.985, 822.2051
1060.089, 845.4736
1061.194, 903.7568
1062.298, 911.0557
1063.402, 919.7627
1064.506, 940.0918
1065.610, 895.4355
1066.713, 1044.795
1067.817, 947.9541
1068.920, 1061.345
1070.023, 997.7598
1071.126, 889.1816
1072.229, 970.6182
1073.332, 960.7598
1074.435, 771.0820
1075.537, 810.2764
1076.639, 750.8047
1077.741, 917.1338
1078.843, 897.4307
1079.945, 955.9727
1081.046, 952.5293
1082.148, 942.4307
1083.249, 849.0166
1084.350, 990.6182
1085.451, 704.2334
1086.551, 930.8633
1087.652, 801.5078
1088.752, 698.1670
1089.853, 699.8418
1090.953, 665.5303
1092.053, 660.2354
1093.152, 589.9541
1094.252, 616.6885
1095.351, 579.4180
1096.451, 502.2041
1097.550, 545.3047
1098.649, 562.0996
1099.748, 709.9082
1100.846, 581.9180
1101.945, 877.8340
1103.043, 845.7119
1104.141, 1015.583
1105.239, 1068.635
1106.337, 1053.570
1107.434, 1103.359
1108.532, 1409.914
1109.629, 1500.046
1110.726, 1571.826
1111.823, 1835.951
1112.920, 1752.403
1114.017, 1995.895
1115.113, 2208.907
1116.210, 2615.631
1117.306, 2864.996
1118.402, 2930.873
1119.498, 3214.730
1120.593, 3418.544
1121.689, 3459.751
1122.784, 3963.976
1123.879, 4129.217
1124.974, 4625.475
1126.069, 4722.751
1127.164, 5512.043
1128.259, 5871.352
1129.353, 6802.678
1130.447, 7504.020
1131.541, 8605.379
1132.635, 9661.757
1133.729, 10481.15
1134.822, 11361.56
1135.916, 12287.99
1137.009, 12873.44
1138.102, 13099.90
1139.195, 13342.38
1140.288, 13059.88
1141.380, 12513.39
1142.473, 11568.92
1143.565, 10849.47
1144.657, 9619.038
1145.749, 8401.623
1146.841, 7285.224
1147.932, 6363.841
1149.024, 5461.477
1150.115, 4666.143
1151.206, 4072.825
1152.297, 3452.524
1153.388, 3009.273
1154.479, 2468.053
1155.569, 2083.849
1156.659, 1956.662
1157.750, 1711.495
1158.839, 1483.344
1159.929, 1365.215
1161.019, 1231.107
1162.108, 1073.017
1163.198, 1019.943
1164.287, 915.8867
1165.376, 832.8486
1166.465, 745.8262
1167.553, 711.8223
1168.642, 474.8359
1169.730, 513.8672
1170.818, 648.9150
1171.906, 504.9805
1172.994, 657.0625
1174.082, 545.1621
1175.170, 544.2793
1176.257, 577.4131
1177.344, 523.5635
1178.431, 370.7314
1179.518, 219.9160
1180.605, 324.1191
1181.691, 253.3369
1182.778, 289.5732
1183.864, 264.8262
1184.950, 301.0967
1186.036, 291.4932
1187.122, 328.6846
1188.207, 275.0049
1189.292, 241.3408
1190.378, 218.6943
1191.463, 263.0654
1192.548, 94.45215
1193.632, 13.14453
1194.717, 47.27051
1195.801, 75.70215
1196.886, 48.15137
1197.970, 46.38281
1199.054, 17.08203
1200.137, 2.562500
1201.221, 102.0596
1202.305, 122.5732
1203.388, 20.89648
1204.471, 106.3564
1205.554, 158.8447
1206.637, 71.38184
1207.719, 5.932617
1208.802, 141.4639
1209.884, 51.95996
1210.966, 12.40137
1212.048, 36.14160
1213.130, 73.31934
1214.212, 41.79590
1215.293, 46.28906
1216.374, 123.7979
1217.456, 115.3232
1218.536, 72.86426
1219.617, 152.4209
1220.698, 139.9941
1221.778, 5.582031
1222.859, 16.18652
1223.939, 16.80664
1225.019, 98.44238
1226.099, 102.0986
1227.178, 22.77637
1228.258, 16.48145
1229.337, 31.20410
1230.417, 25.94141
1231.496, 69.61230
1232.574, 51.48633
1233.653, 130.3223
1234.732, 180.7422
1235.810, 139.5859
1236.888, 278.2266
1237.966, 199.1016
1239.044, 358.0029
1240.122, 385.2285
1241.199, 180.2119
1242.277, 247.2461
1243.354, 321.3057
1244.431, 338.3906
1245.508, 241.5049
1246.585, 320.6523
1247.661, 169.8311
1248.738, 273.0352
1249.814, 210.2588
1250.890, 452.5088
1251.966, 330.7734
1253.042, 423.0713
1254.117, 238.3828
1255.193, 302.7080
1256.268, 217.0498
1257.343, 330.4043
1258.418, 204.7861
1259.493, 191.1816
1260.567, 165.5918
1261.642, 313.0303
1262.716, 537.4854
1263.790, 625.9766
1264.864, 452.4863
1265.938, 658.0117
1267.011, 598.5508
1268.085, 711.1025
1269.158, 602.6689
1270.231, 648.2490
1271.304, 667.8408
1272.377, 785.4473
1273.450, 720.0664
1274.522, 676.6973
1275.594, 813.3418
1276.666, 670.9990
1277.738, 597.6689
1278.810, 560.9492
1279.882, 598.6445
1280.953, 575.3516
1282.025, 420.6611
1283.096, 611.8291
1284.167, 543.8008
1285.238, 512.5557
