##NAMES=Epididymite
##RRUFFID=R060773
##IDEAL CHEMISTRY=Na_2_Be_2_Si_6_O_15_&#183;H_2_O
##LOCALITY=unknown
##OWNER=RRUFF
##SOURCE=Michael Scott
##DESCRIPTION=Colorless platy crystals forming a pseudohexagonal aggregate
##STATUS=The identification of this mineral has been confirmed by single-crystal X-ray diffraction.
##URL=rruff.info/R060773
##PIN_ID=M00395
##ORIENTATION=Laser parallel to b* (0 1 0). Fiducial mark perpendicular to laser is parallel to -c [0 0 -1]
102.1160, 0.0000000E+00
103.3490, 472.1270
104.5820, 808.3926
105.8150, 1447.938
107.0470, 1375.986
108.2800, 1566.102
109.5120, 1124.973
110.7440, 607.5449
111.9760, 182.8828
113.2080, 97.32812
114.4400, 217.1094
115.6710, 591.7832
116.9030, 676.0781
118.1340, 1139.490
119.3650, 1670.822
120.5960, 2525.984
121.8270, 3335.389
123.0580, 4326.229
124.2880, 4907.094
125.5190, 5157.477
126.7490, 4939.246
127.9790, 5335.127
129.2090, 6079.721
130.4390, 7192.580
131.6680, 8641.258
132.8980, 10159.14
134.1270, 10659.29
135.3560, 9793.209
136.5850, 8036.420
137.8140, 6008.428
139.0430, 4265.779
140.2710, 3049.382
141.5000, 2388.716
142.7280, 2078.620
143.9560, 1890.395
145.1840, 1661.832
146.4120, 1458.203
147.6390, 1626.704
148.8670, 1974.362
150.0940, 2161.422
151.3210, 2188.044
152.5490, 2218.988
153.7750, 2017.307
155.0020, 1518.723
156.2290, 986.8066
157.4550, 834.6777
158.6810, 287.2617
159.9080, 239.9473
161.1340, 168.6299
162.3590, 27.53320
163.5850, 10.60742
164.8110, 19.87500
166.0360, 6.363281
167.2610, 76.86328
168.4860, 120.3730
169.7110, 175.8906
170.9360, 136.4678
172.1610, 22.04883
173.3850, 53.49219
174.6100, 37.96289
175.8340, 26.99805
177.0580, 48.24414
178.2820, 129.6211
179.5050, 81.04102
180.7290, 136.6328
181.9520, 95.17773
183.1760, 147.8652
184.3990, 304.6934
185.6220, 337.6387
186.8450, 628.6836
188.0670, 751.8125
189.2900, 888.0625
190.5120, 1239.301
191.7340, 1212.682
192.9560, 1461.361
194.1780, 1726.166
195.4000, 2160.117
196.6220, 2465.129
197.8430, 2579.920
199.0640, 2643.480
200.2860, 2589.354
201.5070, 2613.072
202.7270, 2413.027
203.9480, 2139.164
205.1690, 1524.896
206.3890, 1212.912
207.6090, 1001.090
208.8290, 796.8379
210.0490, 547.1816
211.2690, 456.3105
212.4890, 326.2930
213.7080, 417.1699
214.9280, 435.9688
216.1470, 333.6973
217.3660, 370.3867
218.5850, 188.0684
219.8030, 467.7598
221.0220, 535.4590
222.2400, 347.1680
223.4590, 550.8848
224.6770, 479.6074
225.8950, 709.3340
227.1120, 902.0664
228.3300, 1209.799
229.5480, 1436.533
230.7650, 1775.250
231.9820, 2252.947
233.1990, 2518.627
234.4160, 3007.283
235.6330, 3625.930
236.8490, 4655.570
238.0660, 5312.215
239.2820, 6081.861
240.4980, 7081.520
241.7140, 7611.180
242.9300, 7909.844
244.1460, 7925.518
245.3610, 7293.197
246.5770, 6474.885
247.7920, 5727.578
249.0070, 5361.342
250.2220, 5020.625
251.4370, 5007.160
252.6510, 4760.770
253.8660, 4893.590
255.0800, 4817.738
256.2940, 5116.760
257.5080, 5165.639
258.7220, 5354.402
259.9360, 5693.732
261.1490, 5665.373
262.3630, 5875.523
263.5760, 5905.494
264.7890, 6195.254
266.0020, 6132.754
267.2150, 6069.984
268.4270, 6022.957
269.6400, 5343.699
270.8520, 4989.227
272.0640, 4294.572
273.2760, 3347.746
274.4880, 2876.771
275.7000, 2118.660
276.9120, 1347.348
278.1230, 1143.574
279.3340, 1014.164
280.5450, 596.3203
281.7560, 662.5000
282.9670, 541.6348
284.1780, 724.8945
285.3880, 633.8359
286.5980, 591.8809
287.8090, 401.8984
289.0190, 409.4004
290.2290, 215.8809
291.4380, 146.5020
292.6480, 79.68945
293.8570, 7.507813
295.0670, 32.21680
296.2760, 19.32422
297.4850, 90.51953
298.6930, 63.72852
299.9020, 149.5820
301.1110, 89.07031
302.3190, 210.7031
303.5270, 54.21289
304.7350, 174.0859
305.9430, 80.19336
307.1510, 161.0000
308.3580, 380.3535
309.5660, 447.2637
310.7730, 356.0293
311.9800, 383.6934
313.1870, 564.2617
314.3940, 598.8652
315.6010, 837.1426
316.8070, 662.0508
318.0130, 775.5742
319.2200, 938.9980
320.4260, 953.1074
321.6310, 1055.088
322.8370, 1185.578
324.0430, 1185.271
325.2480, 1210.420
326.4540, 1505.328
327.6590, 1396.785
328.8640, 1686.877
330.0680, 1726.262
331.2730, 2125.805
332.4780, 2142.586
333.6820, 2463.906
334.8860, 2809.268
336.0900, 2829.633
337.2940, 3037.996
338.4980, 3411.352
339.7010, 3677.705
340.9050, 4070.051
342.1080, 4578.379
343.3110, 5270.643
344.5140, 5803.869
345.7170, 5939.062
346.9200, 6105.232
348.1220, 5779.381
349.3240, 4973.484
350.5270, 4260.570
351.7290, 3689.648
352.9310, 3262.721
354.1320, 2946.793
355.3340, 2657.250
356.5350, 2390.346
357.7370, 2180.252
358.9380, 2060.902
360.1390, 1833.982
361.3400, 1810.660
362.5400, 1688.512
363.7410, 1656.629
364.9410, 1773.938
366.1410, 1723.555
367.3410, 1659.404
368.5410, 1599.129
369.7410, 1720.578
370.9400, 1846.738
372.1400, 2079.826
373.3390, 2408.953
374.5380, 2746.086
375.7370, 3307.219
376.9360, 3935.359
378.1350, 4680.502
379.3330, 5395.648
380.5310, 6124.797
381.7300, 6615.949
382.9280, 6443.109
384.1260, 5957.273
385.3230, 5218.441
386.5210, 4521.613
387.7180, 3819.791
388.9160, 3153.977
390.1130, 2435.170
391.3100, 1960.367
392.5060, 1646.586
393.7030, 1464.789
394.9000, 1269.949
396.0960, 1298.072
397.2920, 1403.193
398.4880, 1697.279
399.6840, 2135.383
400.8800, 2532.457
402.0750, 3165.510
403.2710, 4241.551
404.4660, 5630.641
405.6610, 7564.730
406.8560, 9677.797
408.0510, 11274.88
409.2450, 11759.97
410.4400, 10470.09
411.6340, 8082.203
412.8280, 5419.299
414.0220, 3423.422
415.2160, 2063.527
416.4100, 1279.617
417.6030, 1032.742
418.7970, 302.9199
419.9900, 273.1152
421.1830, 80.66992
422.3760, 77.49609
423.5690, 49.33398
424.7610, 310.1660
425.9540, 100.1465
427.1460, 109.1406
428.3380, 106.1621
429.5300, 232.1797
430.7220, 281.2871
431.9140, 59.08008
433.1050, 33.86523
434.2970, 138.4648
435.4880, 14.58203
436.6790, 35.63672
437.8700, 141.5020
439.0610, 49.03516
440.2510, 25.51367
441.4420, 20.47266
442.6320, 103.3281
443.8220, 221.5527
445.0120, 149.5410
446.2020, 221.0488
447.3910, 177.1230
448.5810, 133.5215
449.7700, 80.44531
450.9600, 31.08398
452.1490, 125.7754
453.3370, 97.80078
454.5260, 15.93555
455.7150, 83.48828
456.9030, 349.2988
458.0910, 578.1680
459.2800, 444.1133
460.4670, 776.1211
461.6550, 790.1504
462.8430, 1147.221
464.0300, 1270.307
465.2180, 1718.412
466.4050, 1535.533
467.5920, 2001.664
468.7790, 2307.811
469.9650, 2671.967
471.1520, 3319.133
472.3380, 4456.307
473.5250, 5612.484
474.7110, 7165.662
475.8970, 8174.840
477.0820, 8377.008
478.2680, 7780.172
479.4540, 6456.328
480.6390, 4905.480
481.8240, 3817.625
483.0090, 2956.764
484.1940, 2571.895
485.3780, 2467.020
486.5630, 2254.137
487.7470, 2058.248
488.9320, 1756.352
490.1160, 1186.449
491.3000, 1195.543
492.4830, 1094.627
493.6670, 767.7051
494.8500, 813.7793
496.0340, 741.8438
497.2170, 690.9023
498.4000, 928.9531
499.5820, 853.0039
500.7650, 1042.902
501.9480, 1272.107
503.1300, 1464.139
504.3120, 1895.180
505.4940, 2328.217
506.6760, 2868.256
507.8580, 3801.287
509.0390, 4772.314
510.2210, 6046.338
511.4020, 7876.352
512.5830, 10491.36
513.7640, 13149.36
514.9450, 17273.35
516.1250, 21795.33
517.3060, 28018.30
518.4860, 34585.27
519.6660, 39208.22
520.8460, 40548.23
522.0260, 37911.18
523.2060, 31854.21
524.3850, 24642.26
525.5650, 18189.53
526.7440, 13291.07
527.9230, 9667.949
529.1020, 7240.109
530.2810, 6054.391
531.4590, 4336.938
532.6380, 3701.312
533.8160, 3006.037
534.9940, 2505.729
536.1720, 2153.102
537.3500, 1715.686
538.5270, 1567.891
539.7050, 1337.244
540.8820, 1198.266
542.0590, 1176.764
543.2360, 1163.586
544.4130, 972.5938
545.5900, 646.8262
546.7660, 904.9102
547.9430, 658.5820
549.1190, 553.0957
550.2950, 566.2422
551.4710, 420.1504
552.6470, 558.1504
553.8220, 552.4902
554.9980, 491.7227
556.1730, 434.6387
557.3480, 436.5039
558.5230, 378.9805
559.6980, 369.1270
560.8730, 449.3887
562.0470, 416.2461
563.2220, 370.4902
564.3960, 536.1016
565.5700, 571.9082
566.7440, 384.9199
567.9170, 577.0039
569.0910, 480.0234
570.2640, 793.5078
571.4380, 533.2676
572.6110, 554.3965
573.7840, 671.6992
574.9570, 776.7500
576.1290, 880.2578
577.3020, 1300.223
578.4740, 1508.656
579.6460, 1979.146
580.8180, 2533.650
581.9900, 3139.455
583.1620, 3858.586
584.3330, 4307.891
585.5040, 4077.982
586.6760, 4008.113
587.8470, 3415.953
589.0180, 2777.020
590.1880, 1865.877
591.3590, 1346.730
592.5290, 1179.043
593.7000, 960.6230
594.8700, 912.3750
596.0400, 727.2539
597.2090, 828.9258
598.3790, 737.0391
599.5490, 658.0410
600.7180, 407.3691
601.8870, 598.2617
603.0560, 627.1289
604.2250, 506.9258
605.3940, 690.6914
606.5620, 653.7578
607.7300, 602.4688
608.8990, 669.1543
610.0670, 458.8125
611.2350, 451.4414
612.4020, 439.0449
613.5700, 368.6191
614.7370, 539.1680
615.9050, 686.6875
617.0720, 931.1777
618.2390, 1074.410
619.4060, 1218.793
620.5720, 1423.479
621.7390, 1538.855
622.9050, 1724.205
624.0710, 2032.523
625.2370, 2235.812
626.4030, 2054.072
627.5690, 1901.303
628.7340, 1865.506
629.9000, 1747.678
631.0650, 1614.820
632.2300, 1736.932
633.3950, 1545.955
634.5600, 1570.066
635.7240, 1377.090
636.8890, 1366.082
638.0530, 1395.045
639.2170, 1228.977
640.3810, 1040.877
641.5450, 1194.746
642.7080, 1060.586
643.8720, 1280.396
645.0350, 1169.174
646.1980, 1191.918
647.3610, 1084.633
648.5240, 884.3164
649.6870, 1346.969
650.8490, 1107.588
652.0120, 889.1738
653.1740, 932.7305
654.3360, 701.2539
655.4980, 783.7461
656.6600, 630.2051
657.8210, 538.6328
658.9830, 562.0273
660.1440, 315.3906
661.3050, 369.7188
662.4660, 305.0137
663.6270, 300.2773
664.7870, 245.5059
665.9480, 178.6973
667.1080, 336.8516
668.2680, 264.9727
669.4280, 53.05859
670.5880, 167.0957
671.7480, 206.0977
672.9070, 7.941406
674.0670, 55.04883
675.2260, 197.7480
676.3850, 144.5059
677.5440, 78.77539
678.7030, 193.8340
679.8610, 91.59570
681.0200, 151.8613
682.1780, 87.27344
683.3360, 68.64648
684.4940, 31.02930
685.6520, 3.212891
686.8090, 99.38672
687.9670, 51.48242
689.1240, 93.44531
690.2810, 137.5254
691.4380, 65.25195
692.5950, 47.98242
693.7520, 95.33789
694.9080, 242.2344
696.0650, 69.76758
697.2210, 115.7207
698.3770, 206.3105
699.5330, 65.06445
700.6880, 58.87695
701.8440, 176.2539
702.9990, 16.63281
704.1550, 51.55859
705.3100, 17.46484
706.4650, 59.49805
707.6190, 33.51367
708.7740, 134.5684
709.9290, 15.74023
711.0830, 34.06250
712.2370, 98.88281
713.3910, 135.6836
714.5450, 109.4531
715.6980, 171.7852
716.8520, 107.8281
718.0050, 25.40039
719.1580, 66.07812
720.3110, 237.3457
721.4640, 149.7344
722.6170, 188.0840
723.7700, 96.39844
724.9220, 267.6738
726.0740, 130.9082
727.2260, 92.10547
728.3780, 420.2617
729.5300, 196.3828
730.6810, 344.4824
731.8330, 220.5586
732.9840, 278.6230
734.1350, 268.6543
735.2860, 272.6562
736.4370, 254.0078
737.5880, 274.5625
738.7380, 188.4609
739.8880, 286.3223
741.0390, 284.1523
742.1890, 293.9453
743.3380, 422.7070
744.4880, 214.4355
745.6380, 392.1250
746.7870, 424.7832
747.9360, 575.4102
749.0850, 654.0039
750.2340, 750.5645
751.3830, 467.0938
752.5310, 761.5898
753.6800, 605.0508
754.8280, 658.4824
755.9760, 773.8809
757.1240, 960.2480
758.2720, 927.5820
759.4190, 974.8828
760.5670, 702.1562
761.7140, 951.3945
762.8610, 884.6016
764.0080, 728.7773
765.1550, 860.9199
766.3020, 851.0332
767.4480, 858.1133
768.5950, 774.1660
769.7410, 874.1855
770.8870, 639.1719
772.0330, 789.1309
773.1780, 774.0586
774.3240, 505.9551
775.4690, 804.8242
776.6140, 442.6582
777.7590, 707.4648
778.9040, 585.2402
780.0490, 619.9863
781.1940, 626.7031
782.3380, 574.3906
783.4820, 561.0488
784.6260, 756.6758
785.7700, 547.2754
786.9140, 772.8438
788.0580, 831.3867
789.2010, 884.8984
790.3450, 914.3809
791.4880, 706.8359
792.6310, 843.2637
793.7730, 1006.662
794.9160, 1225.033
796.0590, 1421.375
797.2010, 1295.691
798.3430, 1230.902
799.4850, 1283.160
800.6270, 1338.271
801.7690, 1233.336
802.9100, 1210.371
804.0520, 802.6387
805.1930, 985.7637
806.3340, 839.5664
807.4750, 630.2129
808.6160, 713.5527
809.7560, 561.0293
810.8970, 784.1191
812.0370, 726.2031
813.1770, 774.5684
814.3170, 866.6875
815.4570, 697.1465
816.5960, 837.4238
817.7360, 775.9902
818.8750, 1025.047
820.0140, 835.7441
821.1530, 855.2207
822.2920, 752.4355
823.4310, 811.7637
824.5690, 704.4688
825.7070, 776.2949
826.8460, 850.4512
827.9840, 826.8145
829.1220, 511.0488
830.2590, 573.9062
831.3970, 610.8555
832.5340, 561.0684
833.6710, 675.5312
834.8080, 570.3398
835.9450, 704.2441
837.0820, 510.6719
838.2190, 813.8340
839.3550, 503.6914
840.4910, 756.6602
841.6270, 972.9863
842.7630, 663.1367
843.8990, 923.5527
845.0350, 728.2188
846.1700, 997.4375
847.3060, 841.1016
848.4410, 786.2793
849.5760, 928.3750
850.7100, 1077.953
851.8450, 1077.402
852.9800, 1109.053
854.1140, 1119.465
855.2480, 1127.842
856.3820, 1058.621
857.5160, 1348.576
858.6500, 1294.154
859.7830, 1569.891
860.9170, 1899.166
862.0500, 1713.223
863.1830, 1322.699
864.3160, 1293.912
865.4480, 1366.125
866.5810, 1097.861
867.7130, 1198.057
868.8460, 884.8848
869.9780, 974.9531
871.1100, 813.9785
872.2410, 968.0137
873.3730, 907.9688
874.5050, 878.0059
875.6360, 802.6797
876.7670, 803.7617
877.8980, 805.8320
879.0290, 753.9434
880.1590, 720.0488
881.2900, 841.8242
882.4200, 977.9180
883.5500, 775.0059
884.6800, 692.0879
885.8100, 555.1641
886.9400, 527.2344
888.0690, 528.3008
889.1990, 667.3613
890.3280, 709.4141
891.4570, 573.4648
892.5860, 502.5078
893.7140, 555.5488
894.8430, 416.5859
895.9710, 693.6211
897.1000, 432.6504
898.2280, 548.6738
899.3560, 719.6973
900.4830, 605.7188
901.6110, 539.7324
902.7380, 368.7480
903.8660, 635.7598
904.9930, 455.7715
906.1200, 602.7773
907.2460, 498.7832
908.3730, 631.7871
909.5000, 664.7910
910.6260, 584.7930
911.7520, 486.7949
912.8780, 595.7969
914.0040, 297.7988
915.1290, 284.7988
916.2550, 299.7988
917.3800, 493.8008
918.5050, 479.8027
919.6300, 161.8027
920.7550, 326.8086
921.8800, 621.8105
923.0040, 344.8184
924.1290, 528.4570
925.2530, 266.8340
926.3770, 459.8477
927.5010, 324.8613
928.6250, 126.8789
929.7480, 333.8965
930.8720, 257.9238
931.9950, 41.95312
933.1180, 150.9863
934.2410, 88.02148
935.3640, 301.0625
936.4860, 491.1094
937.6090, 222.1602
938.7310, 46.21484
939.8530, 276.2793
940.9750, 66.36719
942.0970, 315.4629
943.2180, 23.57617
944.3400, 278.7363
945.4610, 171.9219
946.5820, 123.1641
947.7030, 143.4434
948.8240, 240.7305
949.9450, 99.02734
951.0650, 48.36914
952.1860, 220.7207
953.3060, 231.1191
954.4260, 267.5293
955.5460, 297.9512
956.6650, 446.3867
957.7850, 245.8555
958.9040, 80.34961
960.0230, 229.8555
961.1420, 151.4004
962.2610, 247.9941
963.3800, 90.65234
964.4990, 104.3262
965.6170, 36.98438
966.7350, 32.73828
967.8530, 97.52734
968.9710, 115.8242
970.0890, 57.11719
971.2070, 194.3574
972.3240, 183.6465
973.4410, 10.01953
974.5580, 170.3008
975.6750, 127.6699
976.7920, 6.054688
977.9090, 84.42578
979.0250, 114.7891
980.1410, 73.83008
981.2580, 15.51953
982.3740, 98.24219
983.4890, 53.01367
984.6050, 31.72266
985.7200, 5.476563
986.8360, 36.75781
987.9510, 66.06641
989.0660, 10.09180
990.1810, 6.236328
991.2950, 9.667969
992.4100, 47.50195
993.5240, 28.51367
994.6390, 231.4629
995.7530, 326.4297
996.8660, 500.4121
997.9800, 733.6992
999.0940, 725.4277
1000.207, 1224.459
1001.320, 1539.510
1002.433, 1796.572
1003.546, 1836.652
1004.659, 1594.748
1005.772, 1257.861
1006.884, 1348.990
1007.996, 1243.135
1009.108, 1231.295
1010.220, 929.4727
1011.332, 1116.666
1012.444, 932.8770
1013.555, 927.1055
1014.666, 952.3496
1015.777, 796.6113
1016.888, 588.8906
1017.999, 852.1875
1019.110, 799.5000
1020.220, 675.8301
1021.331, 824.1797
1022.441, 610.5430
1023.551, 455.9258
1024.661, 372.3281
1025.770, 243.7480
1026.880, 444.1816
1027.989, 338.6387
1029.098, 527.1094
1030.207, 482.6016
1031.316, 314.1113
1032.425, 397.6426
1033.533, 319.1895
1034.642, 262.7578
1035.750, 407.3438
1036.858, 486.9492
1037.966, 207.5723
1039.073, 383.2188
1040.181, 443.8809
1041.288, 453.5645
1042.396, 632.2676
1043.503, 710.6191
1044.610, 853.9531
1045.716, 993.4980
1046.823, 1121.281
1047.929, 1300.086
1049.036, 1330.912
1050.142, 1367.326
1051.248, 1281.621
1052.353, 1226.508
1053.459, 1195.418
1054.564, 905.3477
1055.670, 940.2969
1056.775, 974.2695
1057.880, 770.2656
1058.985, 859.2773
1060.089, 972.3164
1061.194, 753.3750
1062.298, 827.4531
1063.402, 872.5391
1064.506, 779.6641
1065.610, 976.8086
1066.713, 965.9766
1067.817, 851.1680
1068.920, 875.3750
1070.023, 927.6133
1071.126, 988.8672
1072.229, 684.1445
1073.332, 797.6406
1074.435, 675.3359
1075.537, 596.5703
1076.639, 615.6289
1077.741, 604.4492
1078.843, 822.7695
1079.945, 1050.199
1081.046, 999.6523
1082.148, 972.1250
1083.249, 1052.621
1084.350, 845.1367
1085.451, 935.6719
1086.551, 588.2344
1087.652, 640.8320
1088.752, 546.4492
1089.853, 467.0859
1090.953, 455.7461
1092.053, 398.3828
1093.152, 439.1250
1094.252, 382.8438
1095.351, 426.2500
1096.451, 495.3516
1097.550, 458.1367
1098.649, 535.9297
1099.748, 510.7617
1100.846, 402.4180
1101.945, 556.1094
1103.043, 797.0234
1104.141, 960.2812
1105.239, 750.1953
1106.337, 774.1992
1107.434, 982.9688
1108.532, 821.1914
1109.629, 951.8047
1110.726, 992.4727
1111.823, 1302.520
1112.920, 1428.551
1114.017, 1450.730
1115.113, 1720.938
1116.210, 1560.441
1117.306, 1726.707
1118.402, 1892.996
1119.498, 2023.438
1120.593, 1974.773
1121.689, 2258.547
1122.784, 2160.516
1123.879, 2719.918
1124.974, 2857.348
1126.069, 2932.801
1127.164, 3425.273
1128.259, 3707.773
1129.353, 4240.297
1130.447, 4526.836
1131.541, 4941.418
1132.635, 5808.016
1133.729, 6320.641
1134.822, 6754.297
1135.916, 7184.984
1137.009, 7463.691
1138.102, 7527.430
1139.195, 7578.309
1140.288, 7586.961
1141.380, 7159.766
1142.473, 6841.590
1143.565, 6181.477
1144.657, 5744.387
1145.749, 5033.316
1146.841, 4289.281
1147.932, 3785.266
1149.024, 3078.273
1150.115, 2832.309
1151.206, 2350.363
1152.297, 2163.449
1153.388, 1718.559
1154.479, 1467.691
1155.569, 1472.844
1156.659, 1037.027
1157.750, 1267.227
1158.839, 844.4531
1159.929, 741.6953
1161.019, 534.9648
1162.108, 809.2617
1163.198, 699.5781
1164.287, 597.9375
1165.376, 489.3242
1166.465, 333.7383
1167.553, 503.1719
1168.642, 386.6250
1169.730, 524.1289
1170.818, 462.6562
1171.906, 463.6758
1172.994, 381.8125
1174.082, 419.4492
1175.170, 490.1016
1176.257, 401.7812
1177.344, 426.4258
1178.431, 233.2031
1179.518, 351.9492
1180.605, 326.7148
1181.691, 254.5000
1182.778, 385.3125
1183.864, 225.1445
1184.950, 536.0000
1186.036, 380.8711
1187.122, 291.7695
1188.207, 354.6875
1189.292, 118.6250
1190.378, 216.5898
1191.463, 4.566406
1192.548, 45.57422
1193.632, 37.40234
1194.717, 97.63281
1195.801, 39.83984
1196.886, 107.7656
1197.970, 56.86719
1199.054, 16.98828
1200.137, 125.1250
1201.221, 173.2891
1202.305, 153.4688
1203.388, 109.3320
1204.471, 17.14453
1205.554, 29.94531
1206.637, 196.7305
1207.719, 113.5742
1208.802, 161.4336
1209.884, 10.66406
1210.966, 7.941406
1212.048, 100.9180
1213.130, 90.07812
1214.212, 22.25391
1215.293, 55.37500
1216.374, 77.67188
1217.456, 125.4648
1218.536, 181.7266
1219.617, 80.00000
1220.698, 326.2930
1221.778, 168.6133
1222.859, 223.9492
1223.939, 32.30469
1225.019, 94.67578
1226.099, 276.0703
1227.178, 232.4805
1228.258, 123.9258
1229.337, 214.3828
1230.417, 250.3281
1231.496, 34.85156
1232.574, 310.4102
1233.653, 291.0117
1234.732, 479.6719
1235.810, 233.3945
1236.888, 587.1328
1237.966, 319.9297
1239.044, 193.6602
1240.122, 467.5273
1241.199, 206.4297
1242.277, 26.62109
1243.354, 131.3398
1244.431, 521.3203
1245.508, 453.3203
1246.585, 264.0352
1247.661, 422.0742
1248.738, 376.1367
1249.814, 486.2344
1250.890, 529.3477
1251.966, 387.4727
1253.042, 144.6250
1254.117, 285.7891
1255.193, 88.96875
1256.268, 202.1641
1257.343, 497.3906
1258.418, 223.6484
1259.493, 361.9258
1260.567, 257.0664
1261.642, 580.3711
1262.716, 553.6914
1263.790, 454.8438
1264.864, 656.1992
1265.938, 602.5664
1267.011, 868.9453
1268.085, 619.3359
1269.158, 820.7422
1270.231, 759.5703
1271.304, 761.0000
1272.377, 794.8164
1273.450, 734.4570
1274.522, 608.7500
1275.594, 628.6211
1276.666, 583.1172
1277.738, 463.1797
1278.810, 524.1445
1279.882, 381.6797
1280.953, 573.9805
1282.025, 612.6445
1283.096, 631.2109
1284.167, 695.7891
1285.238, 518.3828
