##NAMES=Epididymite
##RRUFFID=R070580
##IDEAL CHEMISTRY=Na_2_Be_2_Si_6_O_15_&#183;H_2_O
##LOCALITY=Narsarsuk, Narsaq, Kitaa, Greenland
##OWNER=RRUFF
##SOURCE=James Shigley
##DESCRIPTION=A translucent to white elongated prism.
##STATUS=The identification of this mineral is confirmed by single-crystal X-ray diffraction and chemical analysis.
##URL=rruff.info/R070580
##MEASURED CHEMISTRY=(Na_1.97_K_0.03_)_Σ=2_Be_2_Si_6.00_O_15_·H_2_O; trace amounts of Al; Be and H_2_O assumed by stoichiometry
##PIN_ID=M01839
##ORIENTATION=Laser parallel to b* (0 1 0). Fiducial mark perpendicular to laser is parallel to -c [0 0 -1]
111.2060, 0.0000000E+00
112.4440, 10.21094
113.6810, 114.1680
114.9180, 306.5830
116.1550, 501.6064
117.3920, 992.0273
118.6290, 1451.637
119.8650, 2032.635
121.1010, 2710.784
122.3370, 3623.728
123.5730, 4343.884
124.8090, 4697.697
126.0450, 4498.004
127.2800, 4806.039
128.5150, 5327.266
129.7500, 6116.072
130.9850, 6791.559
132.2200, 7536.104
133.4540, 7768.404
134.6890, 7239.011
135.9230, 6217.420
137.1570, 4856.713
138.3900, 3505.826
139.6240, 2726.067
140.8580, 2392.839
142.0910, 2272.152
143.3240, 2004.616
144.5570, 2021.123
145.7900, 2018.022
147.0220, 2313.694
148.2550, 2498.507
149.4870, 2723.688
150.7190, 2881.116
151.9510, 2926.778
153.1830, 2596.667
154.4140, 2014.771
155.6460, 1551.080
156.8770, 1140.577
158.1080, 677.4517
159.3390, 532.8838
160.5690, 316.0176
161.8000, 79.72510
163.0300, 18.77734
164.2600, 12.01123
165.4900, 82.77393
166.7200, 30.43213
167.9500, 101.4072
169.1790, 105.4541
170.4080, 15.38232
171.6380, 1.110352
172.8670, 99.26074
174.0950, 192.7241
175.3240, 18.72754
176.5520, 56.90039
177.7810, 6.601074
179.0090, 110.3716
180.2370, 26.79297
181.4640, 154.1025
182.6920, 15.05322
183.9190, 136.9443
185.1460, 16.09473
186.3730, 189.9062
187.6000, 279.9956
188.8270, 348.1880
190.0530, 519.4854
191.2800, 486.8833
192.5060, 726.3721
193.7320, 658.9429
194.9580, 960.5815
196.1830, 999.2788
197.4090, 1082.025
198.6340, 1061.813
199.8590, 980.6274
201.0840, 1025.452
202.3090, 956.2656
203.5340, 768.5156
204.7580, 675.7266
205.9820, 611.1885
207.2060, 481.6660
208.4300, 483.3232
209.6540, 470.5767
210.8780, 439.4707
212.1010, 450.7754
213.3240, 451.8921
214.5470, 489.4365
215.7700, 468.7148
216.9930, 542.8267
218.2150, 617.8203
219.4380, 718.0874
220.6600, 848.4429
221.8820, 915.5557
223.1040, 992.4341
224.3260, 1328.339
225.5470, 1547.062
226.7680, 2086.340
227.9900, 2229.577
229.2110, 2744.842
230.4310, 3350.135
231.6520, 3948.452
232.8720, 4704.794
234.0930, 5506.158
235.3130, 6116.537
236.5330, 6936.935
237.7530, 7638.348
238.9720, 8495.772
240.1920, 9010.209
241.4110, 9500.656
242.6300, 9594.115
243.8490, 8974.583
245.0680, 8174.062
246.2860, 7190.552
247.5040, 6257.053
248.7230, 5247.564
249.9410, 4532.086
251.1590, 4034.619
252.3760, 3204.165
253.5940, 3116.722
254.8110, 2667.290
256.0280, 2651.871
257.2450, 2301.465
258.4620, 2049.031
259.6790, 2014.399
260.8950, 1958.727
262.1120, 1647.495
263.3280, 1389.538
264.5440, 1218.750
265.7600, 1009.056
266.9750, 832.3975
268.1910, 809.7295
269.4060, 661.0273
270.6210, 601.2773
271.8360, 456.4668
273.0510, 510.5547
274.2650, 439.5107
275.4800, 451.3174
276.6940, 560.9697
277.9080, 712.4863
279.1220, 599.8818
280.3360, 607.1758
281.5490, 567.3750
282.7630, 782.4912
283.9760, 1012.478
285.1890, 965.3389
286.4020, 949.8301
287.6150, 763.2939
288.8270, 515.2314
290.0400, 466.8320
291.2520, 269.2471
292.4640, 229.4697
293.6760, 210.4248
294.8870, 89.33691
296.0990, 28.26367
297.3100, 72.80078
298.5210, 90.11816
299.7320, 19.04785
300.9430, 66.19434
302.1540, 81.72070
303.3640, 58.35449
304.5750, 60.55078
305.7850, 1.540039
306.9950, 66.64062
308.2050, 7.934570
309.4140, 29.83203
310.6240, 113.9678
311.8330, 4.320313
313.0420, 52.89844
314.2510, 58.32031
315.4600, 27.79883
316.6680, 84.22168
317.8770, 26.46191
319.0850, 62.42676
320.2930, 7.554688
321.5010, 93.17480
322.7090, 66.49219
323.9160, 111.6406
325.1240, 39.70117
326.3310, 48.66699
327.5380, 49.99121
328.7450, 130.4160
329.9520, 81.96094
331.1580, 13.45996
332.3650, 79.93848
333.5710, 46.35840
334.7770, 38.79102
335.9830, 66.76465
337.1880, 8.678711
338.3940, 127.8730
339.5990, 127.4229
340.8040, 24.97168
342.0090, 207.5176
343.2140, 210.0615
344.4190, 118.6016
345.6230, 200.1406
346.8280, 143.6758
348.0320, 160.2070
349.2360, 150.7363
350.4400, 169.2012
351.6430, 93.65039
352.8470, 247.0498
354.0500, 117.4023
355.2530, 261.6914
356.4560, 200.9307
357.6590, 167.1523
358.8620, 143.3369
360.0640, 163.8750
361.2660, 307.6670
362.4680, 248.7891
363.6700, 307.8428
364.8720, 361.8818
366.0740, 371.9297
367.2750, 552.9561
368.4760, 467.9463
369.6770, 769.9326
370.8780, 792.9258
372.0790, 1092.930
373.2800, 1305.941
374.4800, 1552.964
375.6800, 1751.995
376.8800, 1992.037
378.0800, 2201.088
379.2800, 2750.146
380.4790, 2838.216
381.6790, 2920.293
382.8780, 2850.389
384.0770, 2907.494
385.2760, 2779.609
386.4750, 2566.746
387.6730, 2573.891
388.8720, 2280.044
390.0700, 1791.208
391.2680, 1530.380
392.4660, 1330.562
393.6630, 1336.755
394.8610, 1225.984
396.0580, 1341.223
397.2550, 1751.506
398.4520, 2300.797
399.6490, 3199.101
400.8460, 3793.414
402.0420, 4324.736
403.2390, 4894.064
404.4350, 5560.387
405.6310, 6618.717
406.8270, 8033.043
408.0220, 8576.375
409.2180, 8773.697
410.4130, 7734.012
411.6080, 6095.311
412.8030, 4316.602
413.9980, 3020.888
415.1920, 1908.186
416.3870, 1107.475
417.5810, 863.7520
418.7750, 546.0479
419.9690, 501.3359
421.1630, 250.6279
422.3570, 256.9092
423.5500, 190.1855
424.7430, 6.452148
425.9360, 45.71094
427.1290, 41.98047
428.3220, 24.24414
429.5150, 155.5195
430.7070, 20.20020
431.8990, 103.1074
433.0910, 12.41406
434.2830, 232.7383
435.4750, 74.07715
436.6670, 112.4492
437.8580, 161.8340
439.0490, 58.94141
440.2400, 46.01465
441.4310, 142.1553
442.6220, 82.33203
443.8130, 75.81250
445.0030, 89.78711
446.1930, 73.92090
447.3830, 100.0830
448.5730, 247.0361
449.7630, 85.82812
450.9520, 115.5664
452.1420, 145.0303
453.3310, 158.1816
454.5200, 195.2979
455.7090, 232.4531
456.8980, 353.5381
458.0860, 436.4639
459.2740, 731.6162
460.4630, 846.1514
461.6510, 1035.279
462.8380, 1354.833
464.0260, 1913.088
465.2140, 2472.137
466.4010, 3289.066
467.5880, 4399.264
468.7750, 5744.049
469.9620, 6663.570
471.1490, 7723.523
472.3350, 8742.517
473.5220, 10393.51
474.7080, 11850.40
475.8940, 12872.67
477.0800, 13366.09
478.2650, 12120.02
479.4510, 10322.07
480.6360, 7853.703
481.8210, 5675.764
483.0060, 4084.830
484.1910, 3177.850
485.3760, 2680.930
486.5600, 2199.017
487.7440, 1937.111
488.9290, 1739.213
490.1130, 1448.319
491.2960, 1341.413
492.4800, 1213.555
493.6630, 1160.682
494.8470, 1111.816
496.0300, 1103.957
497.2130, 1204.106
498.3960, 1164.263
499.5780, 1400.428
500.7610, 1361.600
501.9430, 1734.780
503.1250, 1982.968
504.3070, 2512.164
505.4890, 3152.368
506.6710, 4110.582
507.8520, 5297.803
509.0330, 7047.035
510.2140, 9631.271
511.3950, 12878.52
512.5760, 16436.78
513.7570, 19513.04
514.9370, 22791.32
516.1170, 25885.60
517.2980, 30416.89
518.4780, 34300.19
519.6570, 37597.48
520.8370, 38255.81
522.0160, 35407.14
523.1960, 30157.47
524.3750, 23580.73
525.5540, 17641.08
526.7320, 13072.54
527.9110, 9462.425
529.0890, 7212.796
530.2680, 5531.182
531.4460, 4417.565
532.6240, 3671.072
533.8010, 3030.473
534.9790, 2465.211
536.1560, 2166.037
537.3340, 1925.456
538.5110, 1641.980
539.6880, 1412.450
540.8650, 1337.515
542.0410, 1174.041
543.2180, 1118.729
544.3940, 889.1885
545.5700, 810.8096
546.7460, 767.7852
547.9220, 669.7012
549.0970, 589.9492
550.2730, 635.7461
551.4480, 574.5215
552.6230, 470.0137
553.7980, 556.6396
554.9730, 337.4941
556.1470, 346.3105
557.3210, 564.0723
558.4960, 351.5898
559.6700, 414.8271
560.8440, 338.8916
562.0170, 328.9580
563.1910, 268.4932
564.3640, 281.7422
565.5380, 341.5771
566.7110, 332.1250
567.8840, 350.4160
569.0560, 396.9717
570.2290, 327.6826
571.4010, 415.0947
572.5740, 300.7969
573.7460, 459.7031
574.9180, 461.8877
576.0890, 555.7236
577.2610, 659.4189
578.4320, 693.0000
579.6040, 727.2373
580.7750, 902.3867
581.9450, 983.6113
583.1160, 936.6318
584.2870, 1028.471
585.4570, 1007.861
586.6270, 987.4473
587.7980, 917.5947
588.9670, 782.2988
590.1370, 693.9609
591.3070, 354.8604
592.4760, 422.3115
593.6450, 345.0771
594.8140, 189.8623
595.9830, 280.6826
597.1520, 151.4805
598.3210, 12.28320
599.4890, 200.1094
600.6570, 134.9512
601.8250, 36.79199
602.9930, 194.6348
604.1610, 186.5312
605.3290, 27.37598
606.4960, 49.24902
607.6630, 117.1426
608.8300, 98.06738
609.9970, 97.99023
611.1640, 63.92871
612.3300, 76.86230
613.4970, 72.79395
614.6630, 174.7441
615.8290, 41.69336
616.9950, 252.6592
618.1610, 162.6367
619.3260, 183.6201
620.4920, 239.6035
621.6570, 234.5859
622.8220, 310.5654
623.9870, 341.5400
625.1520, 301.5117
626.3160, 432.4805
627.4810, 346.4453
628.6450, 474.4043
629.8090, 227.3604
630.9730, 368.3115
632.1370, 364.2588
633.3000, 193.2002
634.4640, 272.1387
635.6270, 270.0723
636.7900, 179.0010
637.9530, 206.9248
639.1160, 188.8428
640.2780, 249.7568
641.4410, 139.6660
642.6030, 182.5693
643.7650, 117.4668
644.9270, 119.3594
646.0890, 344.2461
647.2500, 206.1279
648.4120, 145.0049
649.5730, 323.8750
650.7340, 171.7432
651.8950, 268.6035
653.0560, 251.4590
654.2160, 257.3076
655.3770, 218.1504
656.5370, 216.0166
657.6970, 149.8164
658.8570, 183.6406
660.0170, 93.46191
661.1760, 53.27734
662.3360, 113.0850
663.4950, 28.11328
664.6540, 76.66406
665.8130, 16.43262
666.9720, 35.80566
668.1310, 69.92383
669.2890, 40.64844
670.4470, 75.36426
671.6050, 21.07227
672.7630, 74.77246
673.9210, 4.463867
675.0790, 93.85547
676.2360, 96.76074
677.3930, 119.6309
678.5510, 39.91406
679.7080, 0.4492190
680.8640, 31.96973
682.0210, 17.48047
683.1770, 50.98145
684.3340, 25.47363
685.4900, 27.04590
686.6460, 9.594727
687.8020, 46.15723
688.9570, 17.26953
690.1130, 19.68457
691.2680, 94.10254
692.4230, 34.51172
693.5780, 21.06055
694.7330, 67.66309
695.8880, 26.67871
697.0420, 97.00879
698.1960, 88.67188
699.3510, 13.59180
700.5040, 21.15918
701.6580, 87.05664
702.8120, 153.2637
703.9650, 73.46094
705.1190, 87.65918
706.2720, 38.15137
707.4250, 65.99512
708.5780, 43.86816
709.7300, 6.777344
710.8830, 94.71387
712.0350, 31.27832
713.1870, 33.74414
714.3390, 27.80762
715.4910, 88.90918
716.6430, 7.084961
717.7940, 1.287109
718.9460, 0.4843750
720.0970, 21.22949
721.2480, 44.04004
722.3990, 80.35938
723.5500, 82.25391
724.7000, 66.86523
725.8500, 3.465820
727.0010, 172.0410
728.1510, 50.60645
729.3010, 167.1582
730.4500, 0.7001950
731.6000, 268.2148
732.7490, 208.7178
733.8980, 61.21094
735.0470, 284.6914
736.1960, 238.1602
737.3450, 197.6191
738.4940, 210.0664
739.6420, 267.5020
740.7900, 244.9248
741.9380, 59.33691
743.0860, 190.7363
744.2340, 195.1240
745.3810, 244.5010
746.5290, 471.8652
747.6760, 421.2188
748.8230, 533.5586
749.9700, 687.8867
751.1170, 641.2041
752.2630, 706.5078
753.4100, 872.7998
754.5560, 782.0811
755.7020, 915.3496
756.8480, 911.6045
757.9940, 802.5518
759.1390, 642.7920
760.2850, 592.0186
761.4300, 487.9541
762.5750, 406.4375
763.7200, 391.6279
764.8650, 406.8057
766.0100, 473.9707
767.1540, 299.1250
768.2980, 411.2656
769.4420, 338.3945
770.5860, 318.5107
771.7300, 271.6162
772.8740, 277.7080
774.0170, 166.7881
775.1610, 231.8564
776.3040, 190.9131
777.4470, 247.9561
778.5900, 227.9883
779.7320, 216.0088
780.8750, 243.0166
782.0170, 211.2734
783.1590, 221.8770
784.3010, 187.9697
785.4430, 194.9297
786.5850, 208.9219
787.7260, 140.2021
788.8680, 299.1260
790.0090, 276.0400
791.1500, 284.9424
792.2910, 200.8320
793.4310, 170.7119
794.5720, 179.5801
795.7120, 74.43652
796.8520, 191.3633
797.9920, 325.1963
799.1320, 270.0176
800.2720, 214.8291
801.4120, 358.7061
802.5510, 297.5166
803.6900, 260.1816
804.8290, 285.4326
805.9680, 341.1885
807.1070, 341.9268
808.2450, 359.6621
809.3840, 413.2705
810.5220, 464.9854
811.6600, 436.3545
812.7980, 532.6357
813.9360, 660.3193
815.0730, 635.9258
816.2110, 731.5508
817.3480, 621.5781
818.4850, 683.1387
819.6220, 777.5361
820.7590, 803.1562
821.8960, 601.6123
823.0320, 431.7207
824.1680, 381.1250
825.3040, 242.1660
826.4400, 376.4316
827.5760, 403.1055
828.7120, 303.6680
829.8470, 334.6738
830.9830, 184.8662
832.1180, 99.09375
833.2530, 354.3701
834.3880, 158.8877
835.5220, 313.9395
836.6570, 171.9023
837.7910, 206.8613
838.9250, 361.3467
840.0590, 262.8242
841.1930, 169.7285
842.3270, 250.1914
843.4600, 292.9072
844.5940, 295.3555
845.7270, 175.6455
846.8600, 343.2314
847.9930, 235.2686
849.1250, 352.3545
850.2580, 224.1592
851.3900, 312.3086
852.5230, 326.5967
853.6550, 263.9961
854.7870, 336.7363
855.9180, 339.5645
857.0500, 417.3184
858.1810, 382.6074
859.3130, 328.9980
860.4440, 317.3682
861.5750, 342.7334
862.7050, 322.6270
863.8360, 339.9893
864.9660, 420.2119
866.0970, 290.5674
867.2270, 420.2197
868.3570, 275.5703
869.4870, 192.9170
870.6160, 190.2285
871.7460, 237.5703
872.8750, 270.9102
874.0040, 240.2471
875.1330, 232.5830
876.2620, 286.9170
877.3910, 241.2490
878.5190, 238.5244
879.6470, 52.85254
880.7760, 147.1797
881.9040, 59.50391
883.0310, 181.8281
884.1590, 261.1494
885.2870, 38.46973
886.4140, 215.7891
887.5410, 301.1074
888.6680, 68.42578
889.7950, 65.74219
890.9220, 73.05859
892.0480, 165.3730
893.1750, 3.311523
894.3010, 236.8945
895.4270, 108.2021
896.5530, 179.5078
897.6790, 224.8125
898.8040, 127.1191
899.9300, 99.42383
901.0550, 189.7305
902.1800, 236.0352
903.3050, 133.3408
904.4300, 130.6475
905.5540, 199.9541
906.6790, 78.26270
907.8030, 88.57129
908.9270, 217.8809
910.0510, 108.1895
911.1750, 153.5010
912.2990, 47.81250
913.4220, 186.1377
914.5450, 148.4629
915.6690, 160.7900
916.7920, 168.1260
917.9140, 121.7842
919.0370, 117.8037
920.1600, 55.15527
921.2820, 10.50684
922.4040, 0.8115230
923.5260, 31.21191
924.6480, 64.56543
925.7700, 111.9219
926.8910, 185.2930
928.0130, 98.66699
929.1340, 45.04395
930.2550, 179.4229
931.3760, 14.19434
932.4970, 75.18164
933.6170, 93.56250
934.7380, 149.9463
935.8580, 36.33496
936.9780, 8.743164
938.0980, 48.15527
939.2180, 124.5703
940.3370, 140.0020
941.4570, 69.43652
942.5760, 173.8770
943.6950, 101.3193
944.8140, 115.7676
945.9330, 36.21973
947.0520, 105.6777
948.1700, 49.16895
949.2890, 52.33691
950.4070, 10.17188
951.5250, 77.68555
952.6430, 66.20898
953.7600, 61.73828
954.8780, 74.27246
955.9950, 156.8135
957.1120, 6.360352
958.2290, 39.07520
959.3460, 126.5205
960.4630, 58.99609
961.5800, 60.48145
962.6960, 67.01953
963.8120, 116.4727
964.9280, 102.9893
966.0440, 128.4824
967.1600, 75.00586
968.2760, 158.5371
969.3910, 40.92676
970.5060, 30.62695
971.6210, 56.18848
972.7360, 76.76855
973.8510, 150.3555
974.9660, 45.05078
976.0800, 55.52930
977.1950, 90.11523
978.3090, 25.72656
979.4230, 105.3438
980.5370, 93.24707
981.6500, 45.64746
982.7640, 98.35547
983.8770, 111.0742
984.9900, 60.81445
986.1030, 78.57910
987.2160, 154.3818
988.3290, 252.2021
989.4420, 170.0391
990.5540, 270.8906
991.6660, 127.7549
992.7780, 173.6455
993.8900, 171.5742
995.0020, 209.5117
996.1140, 298.4580
997.2250, 235.4209
998.3360, 151.3916
999.4470, 248.3711
1000.558, 348.3604
1001.669, 436.3828
1002.780, 607.4141
1003.890, 412.4541
1005.001, 367.5039
1006.111, 468.5635
1007.221, 402.6318
1008.331, 382.7109
1009.440, 302.7998
1010.550, 294.6475
1011.659, 379.0049
1012.768, 300.1221
1013.877, 343.2490
1014.986, 420.3867
1016.095, 374.5342
1017.204, 268.6914
1018.312, 218.8604
1019.420, 337.0371
1020.528, 270.2256
1021.636, 272.4238
1022.744, 311.6338
1023.852, 186.8535
1024.959, 328.0830
1026.066, 45.32422
1027.173, 40.12695
1028.280, 91.11816
1029.387, 261.3740
1030.494, 149.6426
1031.600, 289.9209
1032.707, 87.21191
1033.813, 323.5127
1034.919, 240.8252
1036.025, 301.1494
1037.130, 284.4844
1038.236, 334.8320
1039.341, 425.1904
1040.446, 324.5605
1041.552, 586.9424
1042.656, 795.3359
1043.761, 686.7412
1044.866, 731.1582
1045.970, 941.0020
1047.074, 1116.441
1048.179, 1119.895
1049.282, 1192.122
1050.386, 1200.729
1051.490, 964.0879
1052.593, 1139.494
1053.697, 911.0068
1054.800, 826.4873
1055.903, 941.6826
1057.006, 767.2295
1058.108, 893.7900
1059.211, 967.1465
1060.313, 765.7314
1061.415, 783.3271
1062.517, 990.9346
1063.619, 714.5557
1064.721, 1043.431
1065.823, 691.0752
1066.924, 747.9287
1068.025, 855.5996
1069.126, 764.0410
1070.227, 726.7139
1071.328, 669.4199
1072.429, 596.4082
1073.529, 547.8701
1074.629, 478.6143
1075.729, 497.3701
1076.829, 477.1387
1077.929, 547.9199
1079.029, 521.7139
1080.128, 502.5215
1081.228, 542.3408
1082.327, 416.1416
1083.426, 300.9873
1084.525, 393.0908
1085.623, 340.9697
1086.722, 326.8594
1087.820, 188.7637
1088.919, 334.6797
1090.017, 313.5967
1091.115, 116.2871
1092.212, 168.0195
1093.310, 229.9873
1094.407, 168.5771
1095.505, 227.5713
1096.602, 195.9512
1097.699, 259.3838
1098.795, 39.41895
1099.892, 120.4688
1100.989, 141.5293
1102.085, 277.3467
1103.181, 180.4365
1104.277, 216.5381
1105.373, 221.6543
1106.469, 397.7881
1107.564, 381.5010
1108.660, 248.6709
1109.755, 379.8555
1110.850, 229.0518
1111.945, 393.2617
1113.040, 537.4873
1114.134, 678.6641
1115.229, 501.9248
1116.323, 552.2002
1117.417, 489.4883
1118.511, 460.7900
1119.605, 541.1045
1120.698, 601.4326
1121.792, 566.7734
1122.885, 564.1289
1123.978, 545.4941
1125.071, 510.8760
1126.164, 623.2676
1127.257, 702.6738
1128.349, 703.0938
1129.442, 858.5244
1130.534, 953.9697
1131.626, 1103.427
1132.718, 1218.520
1133.810, 1326.017
1134.901, 1478.525
1135.993, 1614.047
1137.084, 1831.581
1138.175, 1879.129
1139.266, 1987.688
1140.357, 2047.261
1141.448, 1960.756
1142.538, 1871.444
1143.628, 1668.055
1144.719, 1654.680
1145.809, 1356.316
1146.898, 1094.983
1147.988, 1071.662
1149.078, 1000.354
1150.167, 646.0576
1151.256, 726.7744
1152.345, 656.5137
1153.434, 622.2666
1154.523, 365.0566
1155.612, 423.8584
1156.700, 280.6738
1157.788, 438.5020
1158.877, 262.4521
1159.964, 68.31934
1161.052, 179.1992
1162.140, 253.0908
1163.227, 263.9961
1164.315, 187.9141
1165.402, 94.84473
1166.489, 87.78906
1167.576, 68.27539
1168.663, 133.7148
1169.749, 112.6973
1170.836, 164.6924
1171.922, 216.6992
1173.008, 45.72070
1174.094, 181.7539
1175.180, 51.79980
1176.265, 53.14160
1177.351, 272.9082
1178.436, 42.97168
1179.521, 39.95215
1180.606, 196.1201
1181.691, 268.2051
1182.776, 42.69727
1183.860, 27.39648
1184.944, 26.50293
1186.029, 162.6221
1187.113, 44.75488
1188.197, 129.9014
1189.280, 59.93848
1190.364, 45.20801
1191.447, 88.36816
1192.531, 5.540039
1193.614, 97.72559
1194.697, 7.077148
1195.779, 102.1338
1196.862, 3.642578
1197.945, 88.59180
1199.027, 39.16211
1200.109, 41.08105
1201.191, 117.3369
1202.273, 97.60547
1203.355, 148.8857
1204.436, 106.1777
1205.518, 112.0537
1206.599, 101.3809
1207.680, 100.1318
1208.761, 51.67480
1209.842, 64.02930
1210.922, 20.39551
1212.003, 45.77344
1213.083, 130.1787
1214.163, 3.559570
1215.243, 164.8672
1216.323, 190.3057
1217.402, 117.7559
1218.482, 161.2178
1219.561, 170.6914
1220.641, 141.1777
1221.720, 151.9951
1222.798, 108.6260
1223.877, 115.7988
1224.956, 19.38867
1226.034, 20.00977
1227.112, 70.37598
1228.191, 42.23926
1229.269, 117.8662
1230.346, 212.5059
1231.424, 212.2871
1232.501, 204.8193
1233.579, 177.5127
1234.656, 114.2090
1235.733, 83.89160
1236.810, 56.61035
1237.886, 17.26074
1238.963, 57.01270
1240.039, 97.77637
1241.116, 31.55078
1242.192, 134.3359
1243.268, 38.86816
1244.343, 129.2324
1245.419, 218.0332
1246.494, 171.8438
1247.570, 121.6650
1248.645, 80.49805
1249.720, 147.3408
1250.795, 96.19531
1251.869, 57.05957
1252.944, 112.9365
1254.018, 71.82227
1255.093, 57.71973
1256.167, 191.6318
1257.240, 95.55469
1258.314, 116.4893
1259.388, 262.4355
1260.461, 131.3906
1261.535, 70.64258
1262.608, 76.27539
1263.681, 113.2334
1264.753, 108.2012
1265.826, 153.1807
1266.899, 132.1729
1267.971, 239.1748
1269.043, 32.18750
1270.115, 250.2119
1271.187, 133.2480
1272.259, 369.2930
1273.330, 237.5811
1274.402, 84.64648
1275.473, 275.2568
1276.544, 179.3438
1277.615, 208.4395
1278.686, 312.5459
1279.756, 180.6631
1280.827, 127.1201
1281.897, 150.2549
1282.967, 170.0693
1284.037, 192.2246
