##NAMES=Epididymite
##RRUFFID=R070580
##IDEAL CHEMISTRY=Na_2_Be_2_Si_6_O_15_&#183;H_2_O
##LOCALITY=Narsarsuk, Narsaq, Kitaa, Greenland
##OWNER=RRUFF
##SOURCE=James Shigley
##DESCRIPTION=A translucent to white elongated prism.
##STATUS=The identification of this mineral is confirmed by single-crystal X-ray diffraction and chemical analysis.
##URL=rruff.info/R070580
##MEASURED CHEMISTRY=(Na_1.97_K_0.03_)_Σ=2_Be_2_Si_6.00_O_15_·H_2_O; trace amounts of Al; Be and H_2_O assumed by stoichiometry
##PIN_ID=M01011
##ORIENTATION=Laser parallel to c* (0 0 1). Fiducial mark perpendicular to laser is parallel to a [1 0 0]
111.2060, 0.0000000E+00
112.4440, 5.588379
113.6810, 139.1499
114.9180, 474.3516
116.1550, 815.9380
117.3920, 1031.918
118.6290, 1362.831
119.8650, 1638.245
121.1010, 1822.830
122.3370, 2343.468
123.5730, 2579.749
124.8090, 2621.848
126.0450, 2487.813
127.2800, 2463.587
128.5150, 2851.781
129.7500, 3339.138
130.9850, 3984.849
132.2200, 4128.889
133.4540, 4234.259
134.6890, 4603.215
135.9230, 3165.063
137.1570, 2247.572
138.3900, 1384.357
139.6240, 1000.641
140.8580, 566.3408
142.0910, 325.3892
143.3240, 56.73389
144.5570, 73.12158
145.7900, 1.301758
147.0220, 9.216309
148.2550, 153.8042
149.4870, 142.5601
150.7190, 154.4624
151.9510, 232.4980
153.1830, 130.6553
154.4140, 203.0054
155.6460, 72.93701
156.8770, 2.041504
158.1080, 39.08447
159.3390, 74.71875
160.5690, 87.50293
161.8000, 2.381348
163.0300, 128.7202
164.2600, 334.6558
165.4900, 466.4380
166.7200, 423.0771
167.9500, 625.5840
169.1790, 631.9678
170.4080, 561.2393
171.6380, 407.4033
172.8670, 290.4683
174.0950, 94.44043
175.3240, 108.3247
176.5520, 231.1250
177.7810, 43.15283
179.0090, 38.49414
180.2370, 29.92969
181.4640, 59.42041
182.6920, 71.02539
183.9190, 106.4106
185.1460, 214.7358
186.3730, 350.9741
187.6000, 431.1680
188.8270, 510.3350
190.0530, 713.4863
191.2800, 788.6279
192.5060, 851.7646
193.7320, 1043.899
194.9580, 1127.034
196.1830, 1364.168
197.4090, 1361.555
198.6340, 1407.108
199.8590, 1480.646
201.0840, 1284.000
202.3090, 1219.832
203.5340, 1260.482
204.7580, 987.8237
205.9820, 880.1655
207.2060, 708.5615
208.4300, 626.5654
209.6540, 472.7915
210.8780, 413.5796
212.1010, 426.6025
213.3240, 259.1167
214.5470, 344.6543
215.7700, 400.2124
216.9930, 431.7915
218.2150, 449.7285
219.4380, 401.9727
220.6600, 443.5518
221.8820, 526.1479
223.1040, 541.7607
224.3260, 687.7681
225.5470, 802.0332
226.7680, 972.6909
227.9900, 1082.362
229.2110, 1220.046
230.4310, 1361.437
231.6520, 1541.430
232.8720, 1650.588
234.0930, 1880.817
235.3130, 2072.508
236.5330, 2228.194
237.7530, 2419.877
238.9720, 2709.556
240.1920, 2888.232
241.4110, 3044.905
242.6300, 2984.575
243.8490, 2822.242
245.0680, 2556.907
246.2860, 2435.568
247.5040, 2100.228
248.7230, 1735.885
249.9410, 1655.540
251.1590, 1282.193
252.3760, 1336.845
253.5940, 1245.495
254.8110, 1189.145
256.0280, 1061.791
257.2450, 1181.437
258.4620, 1033.097
259.6790, 1165.331
260.8950, 1053.349
262.1120, 1215.980
263.3280, 927.1929
264.5440, 771.5864
265.7600, 827.1221
266.9750, 691.7720
268.1910, 534.5156
269.4060, 606.3379
270.6210, 490.2173
271.8360, 316.1392
273.0510, 273.1006
274.2650, 190.0962
275.4800, 79.11816
276.6940, 88.16357
277.9080, 83.22998
279.1220, 79.31494
280.3360, 87.41699
281.5490, 102.5371
282.7630, 19.42822
283.9760, 88.21875
285.1890, 19.19434
286.4020, 101.8213
287.6150, 71.86328
288.8270, 62.92529
290.0400, 104.0059
291.2520, 10.14600
292.4640, 7.320801
293.6760, 54.53076
294.8870, 92.75928
296.0990, 19.01660
297.3100, 14.71436
298.5210, 145.9014
299.7320, 5.781250
300.9430, 73.84375
302.1540, 16.09180
303.3640, 59.88379
304.5750, 79.76855
305.7850, 69.03809
306.9950, 50.73291
308.2050, 11.21631
309.4140, 5.730469
310.6240, 94.64746
311.8330, 226.6992
313.0420, 125.1211
314.2510, 197.5303
315.4600, 112.9268
316.6680, 171.3115
317.8770, 302.6826
319.0850, 341.0420
320.2930, 403.3916
321.5010, 554.7295
322.7090, 719.0566
323.9160, 783.0410
325.1240, 800.3496
326.3310, 868.7949
327.5380, 914.0518
328.7450, 972.3330
329.9520, 1238.623
331.1580, 1232.906
332.3650, 1470.181
333.5710, 1535.448
334.7770, 1590.707
335.9830, 1645.958
337.1880, 1631.201
338.3940, 1741.438
339.5990, 1745.666
340.8040, 1808.246
342.0090, 1846.099
343.2140, 1942.278
344.4190, 2057.441
345.6230, 2163.492
346.8280, 2104.430
348.0320, 1850.324
349.2360, 1688.120
350.4400, 1301.876
351.6430, 1052.541
352.8470, 842.1338
354.0500, 662.2129
355.2530, 572.2266
356.4560, 493.7383
357.6590, 489.1943
358.8620, 528.6504
360.0640, 605.1055
361.2660, 477.5596
362.4680, 545.0107
363.6700, 570.4629
364.8720, 565.9131
366.0740, 773.3662
367.2750, 776.7168
368.4760, 640.2773
369.6770, 852.7363
370.8780, 1080.194
372.0790, 982.2168
373.2800, 1847.106
374.4800, 1839.564
375.6800, 2081.020
376.8800, 2252.474
378.0800, 2583.927
379.2800, 3046.386
380.4790, 3091.339
381.6790, 3212.310
382.8780, 3188.786
384.0770, 2995.262
385.2760, 2753.737
386.4750, 2508.211
387.6730, 2166.690
388.8720, 1909.167
390.0700, 1669.644
391.2680, 1472.131
392.4660, 1086.619
393.6630, 929.1074
394.8610, 971.5977
396.0580, 1014.085
397.2550, 1322.570
398.4520, 1417.054
399.6490, 2026.535
400.8460, 2516.014
402.0420, 2974.491
403.2390, 3565.967
404.4350, 4315.447
405.6310, 5082.927
406.8270, 5818.408
408.0220, 6407.885
409.2180, 6423.357
410.4130, 5604.836
411.6080, 4553.311
412.8030, 3434.793
413.9980, 2226.278
415.1920, 1286.788
416.3870, 920.3184
417.5810, 528.8662
418.7750, 455.4277
419.9690, 272.9912
421.1630, 124.5508
422.3570, 236.1016
423.5500, 141.6455
424.7430, 110.1787
425.9360, 100.7021
427.1290, 37.12012
428.3220, 285.6221
429.5150, 347.2295
430.7070, 316.3623
431.8990, 230.3408
433.0910, 382.8457
434.2830, 512.7402
435.4750, 361.4961
436.6670, 432.4004
437.8580, 234.3145
439.0490, 441.8047
440.2400, 151.8965
441.4310, 0.9970700
442.6220, 100.0605
443.8130, 37.38477
445.0030, 26.06055
446.1930, 55.89258
447.3830, 129.7334
448.5730, 30.54492
449.7630, 82.21191
450.9520, 74.67773
452.1420, 125.9961
453.3310, 7.985352
454.5200, 37.33984
455.7090, 124.8701
456.8980, 142.0752
458.0860, 257.2773
459.2740, 290.3672
460.4630, 233.6680
461.6510, 339.8584
462.8380, 293.0430
464.0260, 319.2217
465.2140, 614.3975
466.4010, 568.5674
467.5880, 854.8652
468.7750, 899.0391
469.9620, 1188.333
471.1490, 1453.529
472.3350, 1741.011
473.5220, 1904.326
474.7080, 2382.492
475.8940, 2513.713
477.0800, 2346.871
478.2650, 2386.023
479.4510, 2127.170
480.6360, 2096.464
481.8210, 2095.601
483.0060, 1978.731
484.1910, 2065.855
485.3760, 2095.975
486.5600, 2096.091
487.7440, 1897.201
488.9290, 1691.307
490.1130, 1336.407
491.2960, 1144.505
492.4800, 873.5996
493.6630, 754.6895
494.8470, 560.7793
496.0300, 639.8662
497.2130, 632.9521
498.3960, 559.0361
499.5780, 637.1172
500.7610, 765.1963
501.9430, 823.2715
503.1250, 1065.348
504.3070, 1220.419
505.4890, 1430.621
506.6710, 1849.799
507.8520, 2453.678
509.0330, 3305.624
510.2140, 4274.842
511.3950, 5928.938
512.5760, 7597.068
513.7570, 9578.344
514.9370, 11487.61
516.1170, 13530.35
517.2980, 15909.39
518.4780, 17854.76
519.6570, 19463.07
520.8370, 19638.56
522.0160, 18231.91
523.1960, 15460.08
524.3750, 12554.39
525.5540, 9261.447
526.7320, 6981.827
527.9110, 5019.200
529.0890, 3680.512
530.2680, 2995.820
531.4460, 2199.967
532.6240, 1941.914
533.8010, 1525.779
534.9790, 1320.968
536.1560, 1012.621
537.3340, 955.6904
538.5110, 811.6641
539.6880, 557.8818
540.8650, 471.8467
542.0410, 453.8057
543.2180, 430.7607
544.3940, 383.8164
545.5700, 410.7207
546.7460, 335.6582
547.9220, 262.6875
549.0970, 259.7412
550.2730, 154.0010
551.4480, 180.4590
552.6230, 227.8418
553.7980, 178.4141
554.9730, 168.9238
556.1470, 177.0615
557.3210, 229.9199
558.4960, 223.1230
559.6700, 233.4160
560.8440, 259.2051
562.0170, 149.6846
563.1910, 184.7617
564.3640, 216.8262
565.5380, 116.6641
566.7110, 109.4609
567.8840, 171.5127
569.0560, 193.9492
570.2290, 122.0361
571.4010, 423.4238
572.5740, 289.4863
573.7460, 521.6240
574.9180, 446.9736
576.0890, 697.0859
577.2610, 1091.553
578.4320, 1329.702
579.6040, 1472.072
580.7750, 1584.386
581.9450, 1818.845
583.1160, 2296.173
584.2870, 2570.198
585.4570, 2503.960
586.6270, 2283.169
587.7980, 1844.878
588.9670, 1645.375
590.1370, 1197.556
591.3070, 740.0977
592.4760, 729.4678
593.6450, 594.6006
594.8140, 383.7158
595.9830, 332.4922
597.1520, 258.6016
598.3210, 228.0557
599.4890, 175.4355
600.6570, 156.6953
601.8250, 99.99219
602.9930, 152.1494
604.1610, 197.3115
605.3290, 141.3545
606.4960, 130.4951
607.6630, 54.77051
608.8300, 193.1914
609.9970, 58.17480
611.1640, 83.55273
612.3300, 68.48340
613.4970, 53.89062
614.6630, 146.1152
615.8290, 76.62891
616.9950, 156.5146
618.1610, 173.3906
619.3260, 291.2578
620.4920, 56.23633
621.6570, 152.0820
622.8220, 189.9199
623.9870, 261.7490
625.1520, 331.5703
626.3160, 319.6240
627.4810, 407.7285
628.6450, 357.5264
629.8090, 421.3174
630.9730, 484.0986
632.1370, 665.9893
633.3000, 678.7500
634.4640, 659.9873
635.6270, 591.7754
636.7900, 419.1670
637.9530, 453.1221
639.1160, 367.8662
640.2780, 156.6143
641.4410, 157.3516
642.6030, 247.4727
643.7650, 203.1904
644.9270, 74.89844
646.0890, 80.59961
647.2500, 7.531250
648.4120, 8.445313
649.5730, 72.12109
650.7340, 10.44141
651.8950, 93.17480
653.0560, 58.77832
654.2160, 60.36816
655.3770, 4.052734
656.5370, 117.5068
657.6970, 35.05664
658.8570, 50.85742
660.0170, 15.60938
661.1760, 13.09961
662.3360, 85.38379
663.4950, 60.14551
664.6540, 110.5195
665.8130, 33.22754
666.9720, 33.90918
668.1310, 11.68945
669.2890, 48.89453
670.4470, 88.25781
671.6050, 37.39160
672.7630, 4.079102
673.9210, 76.20996
675.0790, 0.5146480
676.2360, 103.7383
677.3930, 170.9805
678.5510, 67.20801
679.7080, 228.4229
680.8640, 275.6387
682.0210, 171.8428
683.1770, 113.0332
684.3340, 245.2109
685.4900, 131.3779
686.6460, 5.467773
687.8020, 101.6641
688.9570, 51.78613
690.1130, 27.94043
691.2680, 21.12988
692.4230, 45.49414
693.5780, 28.48535
694.7330, 102.1406
695.8880, 97.67383
697.0420, 76.41992
698.1960, 67.65820
699.3510, 32.91992
700.5040, 4.159180
701.6580, 84.72461
702.8120, 86.45703
703.9650, 141.3115
705.1190, 161.4170
706.2720, 68.04004
707.4250, 70.64648
708.5780, 77.82910
709.7300, 10.15332
710.8830, 90.89844
712.0350, 78.45410
713.1870, 34.16504
714.3390, 98.71680
715.4910, 15.79004
716.6430, 93.30371
717.7940, 44.80078
718.9460, 65.49805
720.0970, 32.95605
721.2480, 169.3945
722.3990, 173.8193
723.5500, 43.22656
724.7000, 83.62500
725.8500, 35.94336
727.0010, 33.40625
728.1510, 108.7695
729.3010, 20.11328
730.4500, 74.45508
731.6000, 131.7764
732.7490, 105.0771
733.8980, 13.35938
735.0470, 144.6250
736.1960, 60.87109
737.3450, 77.09473
738.4940, 104.2949
739.6420, 93.93359
740.7900, 125.5801
741.9380, 122.7646
743.0860, 149.8799
744.2340, 124.9727
745.3810, 91.04492
746.5290, 5.031250
747.6760, 186.1631
748.8230, 61.03809
749.9700, 158.9941
751.1170, 45.63965
752.2630, 79.41992
753.4100, 13.32324
754.5560, 176.1465
755.7020, 180.0371
756.8480, 252.9082
757.9940, 128.7246
759.1390, 241.3672
760.2850, 359.7373
761.4300, 221.6436
762.5750, 199.9688
763.7200, 103.9463
764.8650, 89.70312
766.0100, 213.8398
767.1540, 191.1572
768.2980, 249.7793
769.4420, 133.8311
770.5860, 207.4082
771.7300, 46.96387
772.8740, 152.8232
774.0170, 13.59961
775.1610, 108.7334
776.3040, 370.6699
777.4470, 194.7627
778.5900, 265.3145
779.7320, 81.43848
780.8750, 228.8027
782.0170, 277.4648
783.1590, 194.0996
784.3010, 134.2842
785.4430, 159.1221
786.5850, 115.7559
787.7260, 14.11914
788.8680, 266.6973
790.0090, 234.9277
791.1500, 216.2402
792.2910, 204.8262
793.4310, 201.3975
794.5720, 312.0684
795.7120, 115.7930
796.8520, 257.8867
797.9920, 199.1465
799.1320, 201.8164
800.2720, 287.0098
801.4120, 120.0654
802.5510, 115.6748
803.6900, 120.6230
804.8290, 184.1260
805.9680, 134.2822
807.1070, 199.0586
808.2450, 223.1152
809.3840, 242.4990
810.5220, 249.3721
811.6600, 252.6982
812.7980, 345.3545
813.9360, 254.4668
815.0730, 339.4541
816.2110, 374.5254
817.3480, 513.7764
818.4850, 521.8594
819.6220, 452.8330
820.7590, 321.7803
821.8960, 309.0557
823.0320, 236.2432
824.1680, 340.4258
825.3040, 310.6699
826.4400, 147.4805
827.5760, 188.0439
828.7120, 109.5166
829.8470, 338.8320
830.9830, 93.06250
832.1180, 205.7676
833.2530, 392.6992
834.3880, 233.2588
835.5220, 199.4023
836.6570, 188.3838
837.7910, 103.4668
838.9250, 153.0938
840.0590, 120.0596
841.1930, 56.41113
842.3270, 201.1602
843.4600, 190.1582
844.5940, 202.4678
845.7270, 94.86719
846.8600, 130.5869
847.9930, 403.2012
849.1250, 3.204102
850.2580, 243.5410
851.3900, 50.99023
852.5230, 186.6270
853.6550, 277.8604
854.7870, 127.8145
855.9180, 235.4209
857.0500, 196.3799
858.1810, 330.1367
859.3130, 384.0684
860.4440, 318.4756
861.5750, 168.0449
862.7050, 217.8848
863.8360, 188.6416
864.9660, 249.3193
866.0970, 264.4551
867.2270, 285.7168
868.3570, 345.1924
869.4870, 271.0176
870.6160, 397.9287
871.7460, 262.3857
872.8750, 449.4678
874.0040, 383.5918
875.1330, 397.8057
876.2620, 413.9521
877.3910, 311.2061
878.5190, 376.4248
879.6470, 232.7314
880.7760, 257.9092
881.9040, 290.1396
883.0310, 138.9932
884.1590, 316.3301
885.2870, 267.1436
886.4140, 256.3398
887.5410, 191.0742
888.6680, 237.9277
889.7950, 196.4600
890.9220, 174.5869
892.0480, 174.6924
893.1750, 286.7754
894.3010, 196.7148
895.4270, 40.75391
896.5530, 146.7666
897.6790, 41.75586
898.8040, 4.282227
899.9300, 167.4092
901.0550, 71.01660
902.1800, 22.89746
903.3050, 257.7500
904.4300, 76.58203
905.5540, 204.2676
906.6790, 225.0518
907.8030, 106.3271
908.9270, 121.0186
910.0510, 29.07324
911.1750, 103.4727
912.2990, 44.86719
913.4220, 221.6826
914.5450, 13.21289
915.6690, 256.3252
916.7920, 108.8066
917.9140, 7.733398
919.0370, 282.6953
920.1600, 94.92383
921.2820, 121.2354
922.4040, 115.3467
923.5260, 84.89551
924.6480, 154.2236
925.7700, 93.53125
926.8910, 23.81836
928.0130, 149.0820
929.1340, 44.32812
930.2550, 200.5508
931.3760, 38.51270
932.4970, 15.64258
933.6170, 193.7900
934.7380, 98.92285
935.8580, 88.03418
936.9780, 61.10156
938.0980, 8.443359
939.2180, 223.4180
940.3370, 38.41309
941.4570, 123.1875
942.5760, 89.14453
943.6950, 51.08008
944.8140, 197.0039
945.9330, 89.92676
947.0520, 179.8623
948.1700, 60.78516
949.2890, 106.6836
950.4070, 21.56250
951.5250, 44.58203
952.6430, 67.26758
953.7600, 88.09668
954.8780, 73.11035
955.9950, 9.123047
957.1120, 21.59082
958.2290, 3.425781
959.3460, 1.039063
960.4630, 14.65234
961.5800, 19.15039
962.6960, 52.19238
963.8120, 37.23047
964.9280, 65.73047
966.0440, 33.96875
967.1600, 39.59277
968.2760, 77.22168
969.3910, 122.1475
970.5060, 23.41406
971.6210, 66.96289
972.7360, 13.77344
973.8510, 179.6562
974.9660, 133.9346
976.0800, 32.92480
977.1950, 135.3584
978.3090, 57.77344
979.4230, 44.83203
980.5370, 122.2129
981.6500, 1.408203
982.7640, 17.23047
983.8770, 87.07129
984.9900, 14.18262
986.1030, 118.8750
987.2160, 48.08887
988.3290, 60.29004
989.4420, 158.2686
990.5540, 35.48633
991.6660, 209.6924
992.7780, 144.8818
993.8900, 161.0498
995.0020, 157.2002
996.1140, 92.27539
997.2250, 72.39844
998.3360, 117.5020
999.4470, 174.5840
1000.558, 457.6504
1001.669, 233.6973
1002.780, 77.72559
1003.890, 320.7305
1005.001, 202.7188
1006.111, 498.6953
1007.221, 199.6533
1008.331, 550.5938
1009.440, 371.5166
1010.550, 422.4199
1011.659, 203.3037
1012.768, 202.6377
1013.877, 375.0332
1014.986, 143.8691
1016.095, 191.6826
1017.204, 173.3047
1018.312, 359.0820
1019.420, 387.8486
1020.528, 221.5947
1021.636, 344.3242
1022.744, 226.0410
1023.852, 479.7422
1024.959, 640.3906
1026.066, 417.0186
1027.173, 505.6592
1028.280, 659.2773
1029.387, 704.2803
1030.494, 695.7041
1031.600, 828.6689
1032.707, 858.9365
1033.813, 938.3848
1034.919, 1127.764
1036.025, 1374.564
1037.130, 1387.318
1038.236, 1409.998
1039.341, 1465.412
1040.446, 1485.967
1041.552, 1483.011
1042.656, 1439.566
1043.761, 1508.246
1044.866, 1474.785
1045.970, 1451.328
1047.074, 1361.057
1048.179, 1428.952
1049.282, 1199.183
1050.386, 1204.689
1051.490, 1092.938
1052.593, 1119.691
1053.697, 1103.459
1054.800, 1051.338
1055.903, 930.7568
1057.006, 916.4727
1058.108, 853.6924
1059.211, 865.5566
1060.313, 824.1396
1061.415, 926.5703
1062.517, 1027.527
1063.619, 1055.931
1064.721, 998.5381
1065.823, 677.9609
1066.924, 896.8721
1068.025, 724.7920
1069.126, 780.2695
1070.227, 755.3740
1071.328, 901.7686
1072.429, 850.0293
1073.529, 588.0156
1074.629, 454.6699
1075.729, 536.4102
1076.829, 523.1895
1077.929, 530.2266
1079.029, 376.3105
1080.128, 503.8359
1081.228, 274.4062
1082.327, 401.6816
1083.426, 212.2656
1084.525, 495.6562
1085.623, 232.0801
1086.722, 163.0195
1087.820, 161.1621
1088.919, 125.4668
1090.017, 160.3320
1091.115, 210.4844
1092.212, 269.3418
1093.310, 247.5605
1094.407, 315.5410
1095.505, 280.5469
1096.602, 272.7031
1097.699, 360.1289
1098.795, 427.7695
1099.892, 469.0352
1100.989, 525.3438
1102.085, 594.4824
1103.181, 603.1191
1104.277, 664.4766
1105.373, 676.7051
1106.469, 728.6543
1107.564, 696.0547
1108.660, 682.5488
1109.755, 680.2129
1110.850, 809.6113
1111.945, 955.7930
1113.040, 1031.695
1114.134, 1145.592
1115.229, 1041.848
1116.323, 1273.664
1117.417, 1083.428
1118.511, 1421.365
1119.605, 1499.092
1120.698, 1549.941
1121.792, 1978.178
1122.885, 1878.570
1123.978, 2126.010
1125.071, 2176.994
1126.164, 2564.480
1127.257, 2784.010
1128.349, 3029.088
1129.442, 3429.883
1130.534, 3685.568
1131.626, 4050.016
1132.718, 4380.629
1133.810, 4874.490
1134.901, 4790.723
1135.993, 5129.625
1137.084, 5530.121
1138.175, 5307.082
1139.266, 5197.000
1140.357, 5009.977
1141.448, 4728.305
1142.538, 4482.695
1143.628, 4054.627
1144.719, 3508.412
1145.809, 3209.025
1146.898, 2875.006
1147.988, 2361.176
1149.078, 2133.227
1150.167, 1784.424
1151.256, 1373.523
1152.345, 1346.361
1153.434, 1157.926
1154.523, 1059.588
1155.612, 877.4141
1156.700, 668.3809
1157.788, 546.3750
1158.877, 434.5020
1159.964, 364.7070
1161.052, 350.2109
1162.140, 311.6816
1163.227, 417.4961
1164.315, 418.2949
1165.402, 156.2129
1166.489, 260.9590
1167.576, 337.8281
1168.663, 250.5195
1169.749, 338.7344
1170.836, 202.3750
1171.922, 325.9863
1173.008, 128.5762
1174.094, 263.1309
1175.180, 72.66406
1176.265, 229.1953
1177.351, 131.7148
1178.436, 150.2031
1179.521, 295.6660
1180.606, 93.10156
1181.691, 119.5078
1182.776, 100.8867
1183.860, 271.2344
1184.944, 235.5586
1186.029, 95.85547
1187.113, 229.1211
1188.197, 139.3633
1189.280, 72.60352
1190.364, 98.78125
1191.447, 101.9336
1192.531, 105.0527
1193.614, 135.1426
1194.697, 248.2031
1195.779, 20.75195
1196.862, 237.2422
1197.945, 143.2090
1199.027, 24.14648
1200.109, 271.0488
1201.191, 282.9473
1202.273, 129.1016
1203.355, 46.94727
1204.436, 200.7617
1205.518, 140.9746
1206.599, 88.73438
1207.680, 22.53711
1208.761, 109.7090
1209.842, 37.86328
1210.922, 126.4004
1212.003, 25.91016
1213.083, 72.38086
1214.163, 152.1289
1215.243, 145.2070
1216.323, 44.51562
1217.402, 3.417969
1218.482, 119.9629
1219.561, 169.7969
1220.641, 117.7461
1221.720, 143.8809
1222.798, 98.00586
1223.877, 154.3047
1224.956, 175.3730
1226.034, 118.4180
1227.112, 76.48828
1228.191, 2.525391
1229.269, 77.41797
1230.346, 136.3301
1231.424, 89.21875
1232.501, 192.1094
1233.579, 93.97656
1234.656, 183.8145
1235.733, 3.046875
1236.810, 96.82227
1237.886, 206.5684
1238.963, 36.28906
1240.039, 25.97852
1241.116, 64.18164
1242.192, 54.55469
1243.268, 48.02930
1244.343, 167.4316
1245.419, 178.8750
1246.494, 78.46875
1247.570, 7.882813
1248.645, 10.74023
1249.720, 44.21484
1250.795, 124.0664
1251.869, 23.79688
1252.944, 55.31250
1254.018, 111.3887
1255.093, 23.64062
1256.167, 218.6562
1257.240, 30.64648
1258.314, 55.60742
1259.388, 120.5371
1260.461, 17.43945
1261.535, 199.3105
1262.608, 133.3691
1263.681, 161.1836
1264.753, 110.0117
1265.826, 6.988281
1266.899, 82.73047
1267.971, 87.11328
1269.043, 65.77539
1270.115, 264.0527
1271.187, 196.6621
1272.259, 15.75586
1273.330, 88.86133
1274.402, 122.7383
1275.473, 224.2188
1276.544, 210.6758
1277.615, 235.5195
1278.686, 6.896484
1279.756, 222.4707
1280.827, 34.81641
1281.897, 1.230469
1282.967, 57.50586
1284.037, 24.75781
