##NAMES=Epidote
##RRUFFID=R050191
##IDEAL CHEMISTRY=Ca_2_Fe^3+^Al_2_(Si_2_O_7_)(SiO_4_)O(OH)
##LOCALITY=Pampa Blanca, Castrovirreyna Province, Huancavelica Department, Peru
##OWNER=RRUFF
##SOURCE=Dave Bunk Minerals
##DESCRIPTION=Cluster of green elongated prismatic crystals
##STATUS=The identification of this mineral has been confirmed by X-ray diffraction and chemical analysis
##URL=rruff.info/R050191
##MEASURED CHEMISTRY=Ca_2.00_Al_2.00_(Fe^3+^_0.84_Al_0.16_)(SiO_4_)(Si_2_O_7_)O(OH)
##PIN_ID=L00883
##ORIENTATION=Laser parallel to (1 0 1). Fiducial mark perpendicular to laser is parallel to b [0 1 0]
53.91000, 0.0000000E+00
55.14900, 71.83984
56.38700, 171.7356
57.62600, 226.7925
58.86400, 349.6319
60.10300, 509.2231
61.34100, 323.2225
62.57900, 148.2789
63.81700, 8.413147
65.05400, 117.0920
66.29200, 138.0065
67.52900, 21.06128
68.76700, 175.0955
70.00400, 463.8944
71.24100, 365.8325
72.47700, 392.4646
73.71400, 866.7566
74.95100, 1187.015
76.18700, 2054.491
77.42300, 2650.965
78.65900, 3815.318
79.89500, 5317.315
81.13100, 7147.763
82.36700, 9625.484
83.60200, 12633.31
84.83700, 15569.10
86.07200, 18879.70
87.30800, 22555.98
88.54200, 25792.83
89.77700, 28420.12
91.01200, 30947.76
92.24600, 33434.59
93.48000, 34443.41
94.71400, 33545.08
95.94800, 30590.45
97.18200, 26737.44
98.41600, 22472.94
99.64900, 19180.93
100.8830, 15752.37
102.1160, 12714.24
103.3490, 10657.52
104.5820, 9451.244
105.8150, 8467.435
107.0470, 9457.062
108.2800, 10365.07
109.5120, 8118.418
110.7440, 5348.046
111.9760, 4551.920
113.2080, 4312.996
114.4400, 4587.241
115.6710, 4501.619
116.9030, 4375.101
118.1340, 4099.657
119.3650, 4232.262
120.5960, 4111.888
121.8270, 4405.512
123.0580, 4301.763
124.2880, 4584.667
125.5190, 4209.155
126.7490, 4027.559
127.9790, 3910.681
129.2090, 3974.967
130.4390, 3568.392
131.6680, 3401.924
132.8980, 3144.560
134.1270, 2981.204
135.3560, 2831.069
136.5850, 2894.255
137.8140, 2857.790
139.0430, 2987.707
140.2710, 2710.026
141.5000, 2484.769
142.7280, 2530.953
143.9560, 2336.725
145.1840, 2417.367
146.4120, 2442.875
147.6390, 2480.070
148.8670, 2548.896
150.0940, 2741.383
151.3210, 2778.286
152.5490, 3029.326
153.7750, 2955.254
155.0020, 3165.506
156.2290, 3258.977
157.4550, 3583.325
158.6810, 4070.131
159.9080, 4847.332
161.1340, 5581.932
162.3590, 6637.930
163.5850, 7489.328
164.8110, 8214.126
166.0360, 8554.327
167.2610, 9197.927
168.4860, 9106.930
169.7110, 8727.334
170.9360, 8230.139
172.1610, 7265.344
173.3850, 6438.952
174.6100, 5796.960
175.8340, 4810.370
177.0580, 4370.177
178.2820, 3787.384
179.5050, 3157.989
180.7290, 2794.986
181.9520, 2343.377
183.1760, 2298.159
184.3990, 2194.332
185.6220, 2035.891
186.8450, 1864.835
188.0670, 3743.163
189.2900, 2796.505
190.5120, 3098.965
191.7340, 2419.433
192.9560, 2726.277
194.1780, 3025.496
195.4000, 3115.087
196.6220, 3280.047
197.8430, 3455.377
199.0640, 3698.072
200.2860, 3716.131
201.5070, 3774.950
202.7270, 3735.494
203.9480, 3407.753
205.1690, 3043.586
206.3890, 2786.281
207.6090, 2367.143
208.8290, 2219.575
210.0490, 2256.924
211.2690, 2032.958
212.4890, 2197.711
213.7080, 2265.137
214.9280, 2582.344
216.1470, 2926.581
217.3660, 3397.562
218.5850, 3938.257
219.8030, 4579.639
221.0220, 5413.687
222.2400, 5811.376
223.4590, 6171.686
224.6770, 6790.596
225.8950, 6839.093
227.1120, 7000.160
228.3300, 7044.775
229.5480, 6876.932
230.7650, 6702.610
231.9820, 6814.766
233.1990, 6946.742
234.4160, 6887.307
235.6330, 7005.869
236.8490, 6856.867
238.0660, 6897.324
239.2820, 6475.746
240.4980, 6131.452
241.7140, 5743.201
242.9300, 5279.701
244.1460, 4877.630
245.3610, 4381.703
246.5770, 3917.654
247.7920, 3503.239
249.0070, 3116.943
250.2220, 2518.012
251.4370, 2088.414
252.6510, 2028.877
253.8660, 1818.127
255.0800, 1876.838
256.2940, 2065.039
257.5080, 2867.327
258.7220, 2902.517
259.9360, 3985.551
261.1490, 3744.791
262.3630, 4507.344
263.5760, 5585.203
264.7890, 7031.363
266.0020, 8755.824
267.2150, 9968.576
268.4270, 11354.62
269.6400, 12234.95
270.8520, 13114.56
272.0640, 13903.46
273.2760, 13836.62
274.4880, 14149.06
275.7000, 14280.77
276.9120, 13874.75
278.1230, 13485.01
279.3340, 12450.54
280.5450, 11202.34
281.7560, 9756.416
282.9670, 8381.767
284.1780, 7673.384
285.3880, 6744.276
286.5980, 6364.435
287.8090, 6366.864
289.0190, 6331.561
290.2290, 6586.520
291.4380, 6643.742
292.6480, 6782.463
293.8570, 6946.958
295.0670, 7095.949
296.2760, 7191.190
297.4850, 7382.680
298.6930, 7516.417
299.9020, 8069.389
301.1110, 8452.596
302.3190, 8744.030
303.5270, 9142.692
304.7350, 9632.578
305.9430, 9871.689
307.1510, 10284.02
308.3580, 10679.58
309.5660, 10824.35
310.7730, 10587.35
311.9800, 10295.57
313.1870, 9339.009
314.3940, 9009.663
315.6010, 8386.534
316.8070, 8066.624
318.0130, 7659.928
319.2200, 7584.447
320.4260, 7284.178
321.6310, 7268.125
322.8370, 7223.275
324.0430, 6910.645
325.2480, 6710.221
326.4540, 6420.008
327.6590, 6011.001
328.8640, 5332.201
330.0680, 5099.607
331.2730, 4622.219
332.4780, 3980.033
333.6820, 3617.050
334.8860, 3678.266
336.0900, 3721.686
337.2940, 4040.302
338.4980, 4749.116
339.7010, 5026.125
340.9050, 5490.330
342.1080, 5992.727
343.3110, 6636.318
344.5140, 6947.101
345.7170, 6874.070
346.9200, 6738.319
348.1220, 6204.849
349.3240, 5839.656
350.5270, 5167.748
351.7290, 4834.127
352.9310, 4313.791
354.1320, 4111.738
355.3340, 4064.975
356.5350, 3967.504
357.7370, 4042.339
358.9380, 4125.469
360.1390, 4266.863
361.3400, 4354.518
362.5400, 4257.001
363.7410, 4231.594
364.9410, 3939.009
366.1410, 3546.671
367.3410, 3233.579
368.5410, 2647.729
369.7410, 2047.117
370.9400, 1553.744
372.1400, 896.6045
373.3390, 452.6973
374.5380, 107.0195
375.7370, 100.4307
376.9360, 267.6924
378.1350, 362.0947
379.3330, 437.8643
380.5310, 342.8438
381.7300, 291.7305
382.9280, 152.5078
384.1260, 172.1328
385.3230, 185.6123
386.5210, 18.04297
387.7180, 135.8105
388.9160, 342.1553
390.1130, 300.4453
391.3100, 470.3682
392.5060, 639.1289
393.7030, 646.8857
394.9000, 715.3076
396.0960, 838.4707
397.2920, 621.3428
398.4880, 757.6426
399.6840, 637.3633
400.8800, 509.9658
402.0750, 395.6152
403.2710, 145.2676
404.4660, 102.1738
405.6610, 408.7891
406.8560, 836.5791
408.0510, 1428.541
409.2450, 2246.675
410.4400, 3136.979
411.6340, 4139.453
412.8280, 5852.095
414.0220, 7753.902
415.2160, 9648.876
416.4100, 11571.01
417.6030, 13764.31
418.7970, 15864.78
419.9900, 17560.40
421.1830, 19373.18
422.3760, 21168.12
423.5690, 22939.22
424.7610, 24404.47
425.9540, 25746.91
427.1460, 26991.49
428.3380, 27185.26
429.5300, 27390.21
430.7220, 26763.33
431.9140, 25705.64
433.1050, 24525.14
434.2970, 24092.83
435.4880, 23535.72
436.6790, 23357.82
437.8700, 23768.12
439.0610, 24688.65
440.2510, 26546.38
441.4420, 28304.34
442.6320, 30648.53
443.8220, 33314.96
445.0120, 36514.61
446.2020, 39640.52
447.3910, 42656.66
448.5810, 44819.05
449.7700, 46744.69
450.9600, 48212.57
452.1490, 47965.68
453.3370, 47848.06
454.5260, 45795.64
455.7150, 43526.47
456.9030, 41063.49
458.0910, 37487.76
459.2800, 33892.26
460.4670, 30038.97
461.6550, 25689.94
462.8430, 21845.13
464.0300, 18372.57
465.2180, 15384.19
466.4050, 12673.04
467.5920, 10548.08
468.7790, 8858.341
469.9650, 7223.777
471.1520, 6263.431
472.3380, 5411.251
473.5250, 4653.219
474.7110, 4092.347
475.8970, 3554.912
477.0820, 3140.271
478.2680, 2860.557
479.4540, 2604.213
480.6390, 2517.972
481.8240, 2499.837
483.0090, 2592.799
484.1940, 2739.858
485.3780, 2875.011
486.5630, 3162.252
487.7470, 3477.580
488.9320, 3978.998
490.1160, 4426.503
491.3000, 5069.092
492.4830, 5549.762
493.6670, 6114.516
494.8500, 6434.350
496.0340, 6900.269
497.2170, 7329.266
498.4000, 7635.338
499.5820, 7943.490
500.7650, 8013.715
501.9480, 8109.011
503.1300, 7862.380
504.3120, 7620.819
505.4940, 7307.342
506.6760, 6750.939
507.8580, 6256.602
509.0390, 5627.330
510.2210, 4978.123
511.4020, 4310.973
512.5830, 3698.876
513.7640, 3361.832
514.9450, 2799.838
516.1250, 2497.891
517.3060, 2304.992
518.4860, 1880.175
519.6660, 1757.078
520.8460, 1709.917
522.0260, 1512.275
523.2060, 1348.697
524.3850, 1133.151
525.5650, 854.1201
526.7440, 671.2744
527.9230, 433.8467
529.1020, 256.1191
530.2810, 198.4004
531.4590, 51.04688
532.6380, 80.00000
533.8160, 221.2334
534.9940, 163.2676
536.1720, 130.3369
537.3500, 135.4082
538.5270, 24.21191
539.7050, 8.544922
540.8820, 66.19531
542.0590, 259.7168
543.2360, 445.5195
544.4130, 561.8223
545.5900, 942.5576
546.7660, 1297.477
547.9430, 1803.430
549.1190, 2339.414
550.2950, 3131.429
551.4710, 4050.473
552.6470, 5549.545
553.8220, 7322.641
554.9980, 9592.764
556.1730, 12013.91
557.3480, 14509.08
558.5230, 16620.27
559.6980, 18394.49
560.8730, 19555.71
562.0470, 20396.96
563.2220, 20344.22
564.3960, 19897.30
565.5700, 19175.09
566.7440, 17760.64
567.9170, 15511.30
569.0910, 13320.63
570.2640, 11201.01
571.4380, 9271.048
572.6110, 8335.054
573.7840, 7710.923
574.9570, 7709.359
576.1290, 8097.421
577.3020, 8686.524
578.4740, 9573.935
579.6460, 10351.48
580.8180, 11501.76
581.9900, 12411.08
583.1620, 13712.24
584.3330, 15007.01
585.5040, 16411.70
586.6760, 17741.90
587.8470, 19419.80
589.0180, 21179.90
590.1880, 22904.67
591.3590, 24552.80
592.5290, 26020.42
593.7000, 27065.12
594.8700, 27837.30
596.0400, 28289.87
597.2090, 28344.11
598.3790, 27523.10
599.5490, 26792.81
600.7180, 25980.04
601.8870, 24957.02
603.0560, 23952.14
604.2250, 22863.89
605.3940, 22117.22
606.5620, 21382.30
607.7300, 20501.55
608.8990, 19543.60
610.0670, 18545.69
611.2350, 17097.99
612.4020, 16258.37
613.5700, 14497.51
614.7370, 13233.68
615.9050, 11780.43
617.0720, 10538.36
618.2390, 9117.271
619.4060, 8094.328
620.5720, 7037.566
621.7390, 6174.187
622.9050, 5425.275
624.0710, 4811.356
625.2370, 4234.631
626.4030, 3785.844
627.5690, 3424.755
628.7340, 3083.985
629.9000, 2973.026
631.0650, 2776.016
632.2300, 2625.115
633.3950, 2409.280
634.5600, 2320.566
635.7240, 1993.509
636.8890, 1644.387
638.0530, 1515.981
639.2170, 1607.106
640.3810, 1391.285
641.5450, 1367.517
642.7080, 1238.023
643.8720, 1295.364
645.0350, 1120.649
646.1980, 1075.753
647.3610, 1013.408
648.5240, 1018.466
649.6870, 938.0649
650.8490, 917.6304
652.0120, 971.5747
653.1740, 863.8027
654.3360, 854.5640
655.4980, 854.1670
656.6600, 739.9878
657.8210, 788.5044
658.9830, 763.5933
660.1440, 842.5439
661.3050, 705.4399
662.4660, 853.2964
663.6270, 791.0952
664.7870, 814.8267
665.9480, 818.4663
667.1080, 870.0190
668.2680, 956.4868
669.4280, 830.5430
670.5880, 1038.146
671.7480, 1066.705
672.9070, 1003.916
674.0670, 1075.948
675.2260, 1159.459
676.3850, 1364.489
677.5440, 1456.719
678.7030, 1598.548
679.8610, 1845.735
681.0200, 1910.242
682.1780, 2055.553
683.3360, 2231.857
684.4940, 2336.133
685.6520, 2457.329
686.8090, 2302.405
687.9670, 2362.360
689.1240, 2256.193
690.2810, 2191.903
691.4380, 2119.492
692.5950, 1868.958
693.7520, 1795.300
694.9080, 1441.518
696.0650, 1269.612
697.2210, 946.5820
698.3770, 988.4268
699.5330, 811.1475
700.6880, 807.7422
701.8440, 732.2114
702.9990, 421.5552
704.1550, 456.7637
705.3100, 298.8403
706.4650, 292.7676
707.6190, 134.5444
708.7740, 166.1362
709.9290, 112.5518
711.0830, 112.7749
712.2370, 44.80664
713.3910, 33.27441
714.5450, 5.206543
715.6980, 12.44482
716.8520, 50.34424
718.0050, 85.50977
719.1580, 66.96191
720.3110, 100.6880
721.4640, 147.7061
722.6170, 175.1509
723.7700, 159.7031
724.9220, 233.6865
726.0740, 247.0283
727.2260, 188.7344
728.3780, 249.7729
729.5300, 274.1743
730.6810, 220.9512
731.8330, 273.0732
732.9840, 156.5664
734.1350, 277.3682
735.2860, 84.54004
736.4370, 306.9795
737.5880, 210.8013
738.7380, 238.9531
739.8880, 334.4482
741.0390, 245.3340
742.1890, 307.5620
743.3380, 130.1626
744.4880, 306.0400
745.6380, 138.2842
746.7870, 235.8047
747.9360, 145.6504
749.0850, 265.7710
750.2340, 97.22656
751.3830, 34.92676
752.5310, 88.83496
753.6800, 7.976563
754.8280, 48.30762
755.9760, 11.15576
757.1240, 31.44678
758.2720, 180.5786
759.4190, 139.5786
760.5670, 243.4434
761.7140, 229.1860
762.8610, 333.8066
764.0080, 318.3149
765.1550, 370.7109
766.3020, 251.9976
767.4480, 266.1724
768.5950, 246.2363
769.7410, 315.1899
770.8870, 209.0376
772.0330, 169.7759
773.1780, 86.40088
774.3240, 154.9077
775.4690, 165.3032
776.6140, 102.5913
777.7590, 81.76807
778.9040, 60.83105
780.0490, 101.7812
781.1940, 18.62451
782.3380, 59.64697
783.4820, 34.05469
784.6260, 21.41406
785.7700, 12.22656
786.9140, 0.9809570
788.0580, 79.15674
789.2010, 87.19727
790.3450, 53.14355
791.4880, 89.99512
792.6310, 90.75684
793.7730, 34.42920
794.9160, 48.01025
796.0590, 106.0449
797.2010, 124.9116
798.3430, 256.2388
799.4850, 327.4858
800.6270, 383.6523
801.7690, 407.7402
802.9100, 430.7490
804.0520, 511.6816
805.1930, 508.5371
806.3340, 612.3169
807.4750, 682.0303
808.6160, 708.6855
809.7560, 746.3286
810.8970, 933.9648
812.0370, 962.6260
813.1770, 1079.294
814.3170, 1198.962
815.4570, 1168.626
816.5960, 1384.257
817.7360, 1428.846
818.8750, 1542.379
820.0140, 1743.843
821.1530, 1891.239
822.2920, 1972.568
823.4310, 2128.830
824.5690, 2285.027
825.7070, 2554.159
826.8460, 2655.228
827.9840, 2753.235
829.1220, 2894.181
830.2590, 2827.066
831.3970, 2929.893
832.5340, 3049.662
833.6710, 2981.373
834.8080, 3039.029
835.9450, 2942.631
837.0820, 3077.180
838.2190, 3112.677
839.3550, 3148.122
840.4910, 3334.721
841.6270, 3373.630
842.7630, 3443.605
843.8990, 3604.519
845.0350, 3823.712
846.1700, 4039.826
847.3060, 4273.242
848.4410, 4506.653
849.5760, 5203.168
850.7100, 5610.074
851.8450, 6070.324
852.9800, 6866.491
854.1140, 7493.314
855.2480, 8241.975
856.3820, 8979.844
857.5160, 9905.658
858.6500, 10797.58
859.7830, 11744.85
860.9170, 12377.18
862.0500, 12819.95
863.1830, 13650.99
864.3160, 14129.79
865.4480, 14385.89
866.5810, 14973.58
867.7130, 15317.75
868.8460, 16019.80
869.9780, 16790.33
871.1100, 17861.44
872.2410, 19211.84
873.3730, 20396.46
874.5050, 22379.32
875.6360, 24801.62
876.7670, 27335.14
877.8980, 29177.49
879.0290, 31821.18
880.1590, 33836.25
881.2900, 35582.55
882.4200, 36991.65
883.5500, 37214.91
884.6800, 37077.15
885.8100, 35569.14
886.9400, 33960.02
888.0690, 31155.14
889.1990, 28858.21
890.3280, 26425.71
891.4570, 24037.00
892.5860, 22036.32
893.7140, 20506.51
894.8430, 19572.53
895.9710, 19049.17
897.1000, 18665.34
898.2280, 18234.51
899.3560, 18717.48
900.4830, 19443.52
901.6110, 20208.89
902.7380, 21772.94
903.8660, 23328.15
904.9930, 24794.43
906.1200, 27268.14
907.2460, 29113.51
908.3730, 31399.66
909.5000, 33440.97
910.6260, 35223.35
911.7520, 36298.98
912.8780, 36853.05
914.0040, 36578.05
915.1290, 35368.96
916.2550, 33391.59
917.3800, 31362.37
918.5050, 28718.22
919.6300, 25970.23
920.7550, 23020.66
921.8800, 20397.67
923.0040, 17934.14
924.1290, 15582.80
925.2530, 13569.71
926.3770, 11791.51
927.5010, 10255.74
928.6250, 9049.100
929.7480, 7745.247
930.8720, 7068.687
931.9950, 6158.564
933.1180, 5432.602
934.2410, 5051.752
935.3640, 4517.009
936.4860, 4023.368
937.6090, 3583.824
938.7310, 3337.378
939.8530, 3049.022
940.9750, 2991.770
942.0970, 2650.624
943.2180, 2474.584
944.3400, 2470.648
945.4610, 2285.820
946.5820, 2148.099
947.7030, 2328.480
948.8240, 2473.967
949.9450, 2415.551
951.0650, 2333.243
952.1860, 2545.034
953.3060, 2565.925
954.4260, 2523.916
955.5460, 2749.010
956.6650, 2670.206
957.7850, 2708.519
958.9040, 2798.941
960.0230, 2603.466
961.1420, 2942.094
962.2610, 2761.825
963.3800, 2647.662
964.4990, 2765.607
965.6170, 2949.658
966.7350, 3080.818
967.8530, 3416.085
968.9710, 3892.465
970.0890, 4413.954
971.2070, 5178.549
972.3240, 5968.254
973.4410, 6870.065
974.5580, 7674.988
975.6750, 8420.027
976.7920, 9079.177
977.9090, 9376.453
979.0250, 9586.849
980.1410, 9411.387
981.2580, 8935.074
982.3740, 8259.905
983.4890, 7441.891
984.6050, 6595.035
985.7200, 5622.355
986.8360, 4839.863
987.9510, 4118.549
989.0660, 3522.419
990.1810, 3014.484
991.2950, 2600.740
992.4100, 2240.193
993.5240, 2017.858
994.6390, 1806.745
995.7530, 1621.850
996.8660, 1557.193
997.9800, 1402.773
999.0940, 1332.809
1000.207, 1432.656
1001.320, 1240.964
1002.433, 1240.501
1003.546, 1276.281
1004.659, 1473.271
1005.772, 1347.508
1006.884, 1546.027
1007.996, 1846.706
1009.108, 1886.238
1010.220, 2315.379
1011.332, 2720.162
1012.444, 3325.403
1013.555, 3377.927
1014.666, 3803.709
1015.777, 4210.137
1016.888, 4176.837
1017.999, 4226.771
1019.110, 3929.639
1020.220, 3724.620
1021.331, 3611.210
1022.441, 3238.043
1023.551, 3242.029
1024.661, 3126.350
1025.770, 3042.808
1026.880, 3330.666
1027.989, 3251.339
1029.098, 3801.879
1030.207, 4144.545
1031.316, 4635.595
1032.425, 5062.611
1033.533, 5524.504
1034.642, 5975.399
1035.750, 6377.031
1036.858, 6799.229
1037.966, 7087.014
1039.073, 7399.425
1040.181, 7556.376
1041.288, 7393.789
1042.396, 7125.790
1043.503, 6953.982
1044.610, 6597.466
1045.716, 6089.196
1046.823, 5776.372
1047.929, 5290.498
1049.036, 5053.462
1050.142, 4848.498
1051.248, 4544.743
1052.353, 4535.685
1053.459, 4719.525
1054.564, 4787.613
1055.670, 4778.562
1056.775, 5092.887
1057.880, 5023.680
1058.985, 5261.584
1060.089, 5409.945
1061.194, 5487.111
1062.298, 5356.213
1063.402, 5455.020
1064.506, 5432.585
1065.610, 5092.221
1066.713, 5015.793
1067.817, 5168.082
1068.920, 5170.416
1070.023, 5462.699
1071.126, 5749.252
1072.229, 6484.555
1073.332, 7194.501
1074.435, 8210.322
1075.537, 9319.965
1076.639, 10726.40
1077.741, 12502.16
1078.843, 14610.74
1079.945, 16984.17
1081.046, 19257.05
1082.148, 20950.50
1083.249, 22275.23
1084.350, 22375.50
1085.451, 22332.72
1086.551, 21318.40
1087.652, 19711.75
1088.752, 17363.01
1089.853, 14768.30
1090.953, 11934.56
1092.053, 9778.181
1093.152, 7567.871
1094.252, 5781.625
1095.351, 4574.441
1096.451, 3744.268
1097.550, 3044.210
1098.649, 2588.771
1099.748, 2048.834
1100.846, 1885.432
1101.945, 1486.612
1103.043, 1527.851
1104.141, 1258.147
1105.239, 1064.500
1106.337, 941.9072
1107.434, 816.6885
1108.532, 778.0889
1109.629, 747.5791
1110.726, 772.2002
1111.823, 874.8721
1112.920, 893.3936
1114.017, 1035.265
1115.113, 1270.479
1116.210, 1640.346
1117.306, 2008.949
1118.402, 2393.650
1119.498, 2463.061
1120.593, 2651.218
1121.689, 2851.749
1122.784, 2888.938
1123.879, 2748.402
1124.974, 2439.850
1126.069, 2099.099
1127.164, 1690.564
1128.259, 1286.555
1129.353, 848.1826
1130.447, 520.1729
1131.541, 282.5205
1132.635, 173.9502
1133.729, 219.0664
1134.822, 183.2383
1135.916, 150.0195
1137.009, 25.24609
1138.102, 3.022461
1139.195, 20.01660
1140.288, 39.19238
1141.380, 59.79102
1142.473, 68.69238
1143.565, 35.08496
1144.657, 35.85352
1145.749, 132.2139
1146.841, 3.480469
1147.932, 53.19727
1149.024, 205.1201
1150.115, 101.5488
1151.206, 35.33594
1152.297, 174.8408
1153.388, 151.6367
1154.479, 125.2471
1155.569, 191.2344
1156.659, 207.0723
1157.750, 208.8076
1158.839, 273.3486
1159.929, 209.6924
1161.019, 126.4111
1162.108, 169.5312
1163.198, 143.4600
1164.287, 193.2100
1165.376, 284.9531
1166.465, 143.4639
1167.553, 21.64648
1168.642, 222.0459
1169.730, 175.7686
1170.818, 43.45508
1171.906, 128.7500
1172.994, 152.6973
1174.082, 75.83496
1175.170, 35.80469
1176.257, 14.89551
1177.344, 34.69141
1178.431, 35.49414
1179.518, 47.47363
1180.605, 63.39941
1181.691, 132.7539
1182.778, 8.087891
1183.864, 6.404297
1184.950, 26.75391
1186.036, 37.93555
1187.122, 40.23340
1188.207, 61.58691
1189.292, 14.61035
1190.378, 107.8711
1191.463, 43.21338
1192.548, 82.91211
1193.632, 4.921875
1194.717, 30.95166
1195.801, 51.90088
1196.886, 22.65576
1197.970, 3.381836
1199.054, 25.32275
1200.137, 54.93701
1201.221, 85.14014
1202.305, 119.6694
1203.388, 53.30469
1204.471, 38.85693
1205.554, 47.79980
1206.637, 57.41943
1207.719, 54.87305
1208.802, 64.08203
1209.884, 72.64258
1210.966, 93.31445
1212.048, 114.8433
1213.130, 81.23730
1214.212, 138.1807
1215.293, 176.2417
1216.374, 131.0996
1217.456, 162.9092
1218.536, 122.6758
1219.617, 71.38965
1220.698, 103.0337
1221.778, 184.6162
1222.859, 180.1748
1223.939, 300.6660
1225.019, 229.1123
1226.099, 143.5107
1227.178, 199.9180
1228.258, 165.3374
1229.337, 214.5776
1230.417, 138.7695
1231.496, 236.8970
1232.574, 238.9756
1233.653, 293.0044
1234.732, 221.9819
1235.810, 303.9087
