##NAMES=Epidote
##RRUFFID=R050131
##IDEAL CHEMISTRY=Ca_2_Fe^3+^Al_2_(Si_2_O_7_)(SiO_4_)O(OH)
##LOCALITY=Calumet mine, Chaffee County, Colorado, USA
##OWNER=RRUFF
##SOURCE=Dave Bunk Minerals
##DESCRIPTION=Green prismatic crystal
##STATUS=The identification of this mineral has been confirmed by X-ray diffraction and chemical analysis
##URL=rruff.info/R050131
##MEASURED CHEMISTRY=Ca_2.00_Al_2.00_(Fe^3+^_0.75_Al_0.25_)(SiO_4_)(Si_2_O_7_)O(OH)
##PIN_ID=L00135
##ORIENTATION=Laser parallel to (1 0 1). Fiducial mark perpendicular to laser is parallel to b [0 1 0]
87.329, 0.000
88.728, 5.910
90.128, 128.179
91.527, 391.087
92.926, 676.242
94.324, 1278.013
95.723, 2103.442
97.121, 3133.135
98.519, 4053.231
99.917, 4367.050
101.314, 4087.359
102.712, 3276.856
104.109, 2474.553
105.505, 1788.214
106.902, 1290.754
108.298, 900.506
109.694, 606.062
111.090, 625.241
112.486, 587.909
113.881, 495.648
115.277, 431.060
116.672, 359.288
118.066, 228.911
119.461, 178.499
120.855, 213.296
122.249, 314.271
123.643, 428.739
125.036, 505.997
126.430, 549.300
127.823, 583.867
129.216, 537.890
130.608, 479.540
132.001, 367.973
133.393, 283.331
134.785, 99.973
136.176, 156.132
137.568, 258.502
138.959, 493.823
140.350, 670.447
141.741, 727.692
143.131, 912.281
144.521, 1027.857
145.911, 1138.596
147.301, 1161.489
148.691, 1180.542
150.080, 1046.549
151.469, 1058.280
152.858, 934.180
154.247, 954.260
155.635, 973.127
157.024, 1011.125
158.411, 1079.246
159.799, 1224.495
161.187, 1522.884
162.574, 1782.409
163.961, 1881.072
165.348, 2179.871
166.734, 2265.804
168.121, 2239.871
169.507, 2275.069
170.893, 2077.411
172.278, 1891.958
173.664, 1721.741
175.049, 1430.770
176.434, 1114.043
177.819, 866.553
179.203, 585.292
180.587, 274.248
181.971, 163.411
183.355, 12.229
184.739, 86.688
186.122, 130.977
187.505, 263.111
188.888, 287.101
190.271, 296.954
191.653, 300.681
193.035, 244.286
194.417, 205.777
195.799, 38.168
197.180, 133.508
198.562, 151.229
199.943, 337.995
201.324, 423.805
202.704, 509.658
204.084, 464.548
205.465, 429.476
206.844, 350.442
208.224, 291.451
209.603, 103.501
210.983, 74.596
212.362, 86.265
213.740, 23.079
215.119, 128.846
216.497, 118.565
217.875, 45.761
219.253, 57.986
220.631, 162.925
222.008, 330.426
223.385, 549.508
224.762, 765.332
226.139, 1032.201
227.515, 1399.155
228.891, 1674.203
230.267, 2060.390
231.643, 2146.844
233.018, 2410.505
234.394, 2677.246
235.769, 2781.013
237.144, 2961.892
238.518, 3343.848
239.893, 3858.879
241.267, 4497.983
242.641, 4734.161
244.014, 4898.413
245.388, 4871.738
246.761, 4547.138
248.134, 4078.613
249.507, 3471.164
250.879, 2772.794
252.252, 2251.502
253.624, 1817.220
254.996, 1572.824
256.367, 1292.100
257.739, 1187.782
259.110, 1135.752
260.481, 1147.929
261.852, 1240.600
263.222, 1405.680
264.592, 1633.180
265.962, 1890.729
267.332, 2285.297
268.702, 2651.861
270.071, 3327.405
271.440, 3938.921
272.809, 4570.403
274.178, 5074.849
275.546, 5402.260
276.915, 5206.639
278.283, 4824.955
279.650, 4329.150
281.018, 3827.208
282.385, 3522.150
283.752, 3124.989
285.119, 3056.729
286.486, 2902.372
287.852, 2828.934
289.218, 2721.420
290.584, 2725.218
291.950, 2700.213
293.316, 2825.536
294.681, 2959.818
296.046, 3114.066
297.411, 3118.286
298.775, 3320.481
300.140, 3339.648
301.504, 3392.514
302.868, 3344.853
304.231, 3297.544
305.595, 3246.664
306.958, 3312.488
308.321, 3339.364
309.684, 3556.294
311.047, 3775.278
312.409, 4108.314
313.771, 4369.402
315.133, 4456.429
316.495, 4443.322
317.856, 4297.143
319.217, 3962.016
320.578, 3666.946
321.939, 3410.935
323.299, 3485.980
324.660, 3657.083
326.020, 3823.242
327.380, 4198.457
328.739, 4585.727
330.099, 4797.049
331.458, 5005.427
332.817, 5125.859
334.176, 4877.341
335.534, 4493.878
336.892, 4183.466
338.251, 4000.104
339.608, 3652.793
340.966, 3703.529
342.323, 3942.313
343.681, 4555.144
345.037, 5088.020
346.394, 5872.582
347.751, 6428.344
349.107, 6689.649
350.463, 6568.382
351.819, 6219.032
353.174, 5539.376
354.530, 4714.302
355.885, 3978.187
357.240, 3361.803
358.594, 2955.026
359.949, 2582.954
361.303, 2525.280
362.657, 2479.708
364.011, 2559.176
365.365, 2660.686
366.718, 2683.236
368.071, 2630.798
369.424, 2542.597
370.777, 2282.033
372.129, 1944.743
373.481, 1595.796
374.833, 1258.352
376.185, 913.288
377.537, 630.518
378.888, 416.147
380.239, 250.414
381.590, 237.895
382.941, 214.431
384.291, 226.484
385.642, 376.631
386.992, 425.766
388.341, 539.944
389.691, 691.166
391.040, 664.430
392.389, 594.736
393.738, 550.086
395.087, 426.479
396.435, 329.929
397.784, 177.424
399.132, 149.973
400.479, 61.581
401.827, 41.261
403.174, 57.021
404.521, 51.859
405.868, 32.773
407.215, 108.773
408.561, 236.850
409.908, 401.007
411.254, 568.247
412.599, 850.586
413.945, 988.017
415.290, 1451.546
416.636, 1767.168
417.980, 2347.868
419.325, 3011.638
420.670, 3811.481
422.014, 4799.388
423.358, 5823.369
424.702, 6799.417
426.045, 7365.530
427.389, 7581.698
428.732, 7617.931
430.075, 7294.219
431.417, 7200.551
432.760, 7336.941
434.102, 7573.376
435.444, 7769.851
436.786, 8056.363
438.127, 8582.904
439.469, 8819.467
440.810, 9176.048
442.151, 9802.642
443.492, 10712.612
444.832, 11575.877
446.172, 13292.517
447.512, 14869.167
448.852, 16925.836
450.192, 18462.516
451.531, 20069.213
452.870, 20957.340
454.209, 21282.652
455.548, 21929.393
456.887, 21876.148
458.225, 21562.920
459.563, 20779.707
460.901, 19626.514
462.238, 18143.328
463.576, 16220.158
464.913, 14347.012
466.250, 12423.886
467.587, 10730.781
468.923, 9047.702
470.259, 7644.645
471.596, 6401.614
472.931, 5526.608
474.267, 5101.625
475.603, 4668.667
476.938, 4199.735
478.273, 3661.826
479.608, 3443.943
480.942, 3040.485
482.276, 2528.251
483.611, 2537.439
484.944, 2360.650
486.278, 2287.882
487.612, 2381.135
488.945, 2266.409
490.278, 2329.701
491.611, 2341.014
492.943, 2304.346
494.276, 2455.696
495.608, 2537.168
496.940, 2771.554
498.271, 2887.985
499.603, 3160.406
500.934, 3345.844
502.265, 3504.298
503.596, 3730.767
504.927, 3732.252
506.257, 3755.753
507.587, 3740.269
508.917, 3580.834
510.247, 3432.464
511.577, 3017.171
512.906, 2601.988
514.235, 2139.919
515.564, 1596.967
516.892, 1211.132
518.221, 839.399
519.549, 693.755
520.877, 476.156
522.205, 322.568
523.533, 270.990
524.860, 179.422
526.187, 37.863
527.514, 36.687
528.841, 42.240
530.167, 147.799
531.493, 203.405
532.820, 239.086
534.145, 185.863
535.471, 165.705
536.796, 167.566
538.122, 197.465
539.447, 102.391
540.771, 129.302
542.096, 52.252
543.420, 23.786
544.744, 4.828
546.068, 147.872
547.392, 205.918
548.715, 325.968
550.039, 429.020
551.362, 615.265
552.684, 919.491
554.007, 1050.376
555.329, 1291.750
556.652, 1847.270
557.973, 2338.331
559.295, 3176.782
560.617, 4199.225
561.938, 5663.595
563.259, 7439.016
564.580, 9285.609
565.901, 10534.586
567.221, 10741.931
568.541, 9549.654
569.861, 7968.394
571.181, 6148.414
572.501, 4771.071
573.820, 3726.571
575.139, 3140.668
576.458, 2827.853
577.777, 2480.198
579.095, 2540.345
580.414, 2654.350
581.732, 2769.296
583.049, 2931.798
584.367, 3340.492
585.685, 3576.811
587.002, 3965.153
588.319, 4362.002
589.636, 4744.558
590.952, 5286.896
592.268, 5858.570
593.585, 6511.401
594.900, 7343.954
596.216, 8105.418
597.532, 9124.729
598.847, 9973.069
600.162, 10191.372
601.477, 10319.308
602.792, 9977.010
604.106, 9564.503
605.420, 9031.967
606.734, 8469.399
608.048, 8026.806
609.361, 7754.183
610.675, 7481.530
611.988, 7218.849
613.301, 6848.136
614.614, 6329.396
615.926, 5722.625
617.238, 5086.824
618.550, 4310.992
619.862, 3755.129
621.174, 3142.235
622.485, 2640.310
623.797, 2236.354
625.108, 1839.367
626.418, 1613.347
627.729, 1404.411
629.039, 1184.326
630.349, 1079.461
631.659, 886.682
632.969, 881.967
634.279, 783.194
635.588, 691.411
636.897, 652.449
638.206, 600.471
639.515, 504.444
640.823, 506.221
642.131, 436.969
643.439, 380.512
644.747, 367.020
646.055, 368.492
647.362, 340.928
648.669, 334.328
649.976, 333.692
651.283, 318.977
652.589, 285.311
653.896, 312.564
655.202, 306.780
656.508, 317.958
657.814, 362.099
659.119, 371.202
660.424, 413.267
661.729, 392.294
663.034, 402.284
664.339, 376.235
665.643, 376.262
666.947, 385.464
668.251, 375.857
669.555, 402.652
670.859, 422.408
672.162, 420.123
673.465, 448.796
674.768, 456.427
676.071, 541.017
677.373, 617.563
678.676, 674.066
679.978, 766.526
681.280, 815.942
682.581, 972.316
683.883, 1162.645
685.184, 1188.961
686.485, 1391.036
687.786, 1415.471
689.087, 1450.628
690.387, 1368.434
691.687, 1279.468
692.987, 1135.588
694.287, 929.504
695.586, 919.506
696.886, 758.639
698.185, 691.395
699.484, 601.545
700.783, 508.325
702.081, 509.012
703.379, 429.710
704.677, 352.368
705.975, 303.984
707.273, 242.560
708.570, 248.093
709.868, 125.583
711.165, 27.024
712.462, 84.391
713.758, 33.703
715.055, 6.944
716.351, 40.898
717.647, 71.850
718.943, 72.926
720.238, 60.128
721.533, 98.448
722.829, 72.906
724.124, 79.490
725.418, 96.200
726.713, 165.048
728.007, 128.067
729.301, 158.239
730.595, 168.579
731.889, 123.091
733.182, 110.752
734.476, 124.554
735.769, 107.505
737.061, 139.594
738.354, 117.837
739.647, 122.224
740.939, 85.755
742.231, 119.411
743.523, 81.208
744.814, 62.125
746.106, 92.153
747.397, 51.304
748.688, 39.559
749.978, 20.908
751.269, 5.342
752.559, 39.148
753.849, 98.585
755.139, 96.977
756.429, 154.326
757.719, 200.635
759.008, 297.906
760.297, 412.141
761.586, 531.339
762.875, 573.503
764.163, 744.631
765.451, 848.724
766.739, 913.782
768.027, 968.806
769.315, 985.248
770.602, 963.551
771.890, 946.673
773.177, 847.561
774.463, 765.417
775.750, 666.239
777.036, 564.029
778.323, 398.786
779.609, 341.511
780.894, 244.205
782.180, 161.866
783.465, 204.495
784.750, 123.094
786.035, 91.658
787.320, 65.189
788.605, 67.686
789.889, 59.277
791.173, 90.578
792.457, 82.975
793.741, 83.339
795.024, 118.672
796.307, 113.975
797.591, 152.248
798.873, 171.492
800.156, 206.710
801.439, 254.900
802.721, 213.064
804.003, 263.201
805.285, 354.312
806.566, 456.397
807.848, 435.354
809.129, 500.388
810.410, 510.371
811.691, 583.356
812.971, 652.317
814.252, 677.255
815.532, 722.168
816.812, 759.059
818.092, 782.254
819.371, 815.771
820.651, 837.594
821.930, 861.395
823.209, 904.174
824.488, 925.932
825.766, 929.669
827.045, 967.386
828.323, 1014.082
829.601, 1068.759
830.878, 1095.415
832.156, 1147.488
833.433, 1241.672
834.710, 1225.272
835.987, 1253.854
837.264, 1269.419
838.540, 1411.966
839.817, 1421.502
841.093, 1502.029
842.369, 1505.566
843.644, 1572.129
844.920, 1729.729
846.195, 1846.351
847.470, 1895.990
848.745, 2038.656
850.020, 2250.348
851.294, 2495.048
852.568, 2701.757
853.842, 2929.470
855.116, 3358.176
856.390, 3646.876
857.663, 4239.568
858.936, 4779.252
860.209, 5242.934
861.482, 6055.421
862.755, 7014.924
864.027, 7487.769
865.299, 8448.120
866.571, 8825.329
867.843, 9340.985
869.115, 9545.262
870.386, 9286.547
871.657, 9715.897
872.928, 9665.204
874.199, 10155.331
875.470, 10673.071
876.740, 11282.454
878.010, 12601.450
879.280, 13359.431
880.550, 14743.125
881.820, 15959.176
883.089, 17683.373
884.358, 19246.969
885.627, 20623.471
886.896, 21580.809
888.164, 22787.342
889.433, 22535.004
890.701, 21970.729
891.969, 20187.885
893.236, 18214.844
894.504, 16354.179
895.771, 14381.493
897.038, 12451.285
898.305, 11252.382
899.572, 9831.687
900.838, 9023.654
902.105, 8396.462
903.371, 8040.550
904.637, 7665.718
905.902, 7483.044
907.168, 7731.334
908.433, 7829.650
909.698, 8078.325
910.963, 8417.225
912.228, 8706.331
913.492, 9105.465
914.757, 9274.612
916.021, 9173.794
917.285, 9253.007
918.548, 8792.241
919.812, 8301.505
921.075, 7690.792
922.338, 6870.107
923.601, 6335.448
924.864, 5485.814
926.126, 4972.854
927.388, 4418.795
928.650, 3969.059
929.912, 3507.521
931.174, 3138.008
932.435, 2870.526
933.697, 2537.069
934.958, 2300.522
936.218, 2101.121
937.479, 1917.494
938.739, 1759.777
940.000, 1551.990
941.260, 1468.253
942.520, 1326.521
943.779, 1306.962
945.039, 1283.413
946.298, 1199.908
947.557, 1130.594
948.816, 1059.312
950.074, 1127.243
951.333, 1038.203
952.591, 1119.196
953.849, 1104.219
955.107, 1124.272
956.365, 1084.358
957.622, 1105.481
958.879, 1214.643
960.136, 1183.838
961.393, 1094.068
962.650, 1128.329
963.906, 1054.620
965.162, 1109.941
966.418, 1150.292
967.674, 1104.676
968.930, 1201.089
970.185, 1285.531
971.441, 1454.006
972.696, 1555.510
973.950, 1910.047
975.205, 2309.615
976.459, 2658.215
977.714, 3202.853
978.968, 3642.522
980.222, 4118.225
981.475, 4255.965
982.729, 4397.738
983.982, 3955.546
985.235, 3537.384
986.488, 3000.252
987.740, 2590.153
988.993, 2119.139
990.245, 1794.103
991.497, 1530.098
992.749, 1284.126
994.000, 1029.187
995.252, 976.483
996.503, 762.606
997.754, 756.761
999.005, 713.575
1000.256, 611.793
1001.506, 613.353
1002.756, 530.672
1004.006, 598.303
1005.256, 549.174
1006.506, 520.471
1007.755, 520.712
1009.005, 660.222
1010.254, 683.380
1011.502, 835.270
1012.751, 952.416
1014.000, 1180.161
1015.248, 1426.183
1016.496, 1811.084
1017.744, 2224.846
1018.991, 2490.196
1020.239, 2831.533
1021.486, 2945.929
1022.733, 2705.819
1023.980, 2642.815
1025.227, 2283.358
1026.473, 1925.737
1027.719, 1732.556
1028.965, 1553.042
1030.211, 1345.959
1031.457, 1243.978
1032.702, 1168.994
1033.948, 1238.258
1035.193, 1146.867
1036.438, 1208.842
1037.682, 1228.817
1038.927, 1322.571
1040.171, 1360.140
1041.415, 1359.952
1042.659, 1413.771
1043.903, 1442.916
1045.146, 1348.169
1046.390, 1416.732
1047.633, 1268.857
1048.876, 1262.522
1050.118, 1180.597
1051.361, 1116.587
1052.603, 1057.771
1053.845, 1048.925
1055.087, 1017.509
1056.329, 1002.402
1057.571, 1062.322
1058.812, 1095.268
1060.053, 1173.240
1061.294, 1112.421
1062.535, 1199.275
1063.775, 1087.316
1065.016, 927.082
1066.256, 981.136
1067.496, 960.313
1068.736, 1014.679
1069.975, 1082.838
1071.214, 1179.338
1072.454, 1348.202
1073.693, 1616.068
1074.931, 1806.791
1076.170, 2214.305
1077.408, 2584.897
1078.647, 3083.316
1079.885, 3684.901
1081.122, 4140.678
1082.360, 4845.696
1083.597, 5705.134
1084.835, 6232.997
1086.072, 7144.565
1087.308, 7304.929
1088.545, 7448.894
1089.781, 7037.741
1091.018, 6136.889
1092.254, 5149.629
1093.490, 4048.891
1094.725, 3102.171
1095.961, 2397.394
1097.196, 1822.616
1098.431, 1415.339
1099.666, 1116.151
1100.900, 869.232
1102.135, 763.732
1103.369, 625.714
1104.603, 588.831
1105.837, 499.395
1107.071, 442.965
1108.304, 379.751
1109.538, 340.045
1110.771, 332.148
1112.004, 283.400
1113.236, 268.262
1114.469, 244.297
1115.701, 221.098
1116.933, 189.983
1118.165, 222.850
1119.397, 214.091
1120.629, 279.223
1121.860, 402.695
1123.091, 370.894
1124.322, 309.137
1125.553, 226.802
1126.783, 194.418
1128.014, 134.680
1129.244, 125.376
1130.474, 72.786
1131.704, 86.371
1132.933, 75.358
1134.163, 65.371
1135.392, 68.490
1136.621, 4.479
1137.850, 48.625
1139.079, 15.744
1140.307, 5.073
1141.535, 41.384
1142.763, 15.481
1143.991, 14.544
1145.219, 14.736
1146.446, 63.219
1147.674, 24.233
1148.901, 19.355
1150.128, 1.277
1151.354, 51.432
1152.581, 56.123
1153.807, 38.774
1155.033, 35.466
1156.259, 41.539
1157.485, 56.250
1158.710, 48.187
1159.936, 52.621
1161.161, 64.233
1162.386, 46.229
1163.611, 41.332
1164.835, 36.221
1166.060, 87.742
1167.284, 45.667
1168.508, 44.596
1169.732, 72.607
1170.955, 9.118
1172.179, 60.982
1173.402, 73.343
1174.625, 41.277
1175.848, 31.617
1177.070, 15.309
1178.293, 14.747
1179.515, 11.737
1180.737, 14.997
1181.959, 20.087
1183.181, 25.414
1184.402, 22.785
1185.624, 15.336
1186.845, 8.536
1188.066, 11.369
1189.286, 8.960
1190.507, 31.957
1191.727, 31.457
1192.947, 4.855
1194.167, 57.072
1195.387, 7.316
1196.607, 19.098
1197.826, 15.546
1199.045, 33.365
1200.264, 3.868
1201.483, 35.941
1202.702, 86.222
1203.920, 52.820
1205.138, 37.138
1206.356, 60.399
1207.574, 5.576
1208.792, 1.413
1210.009, 49.375
1211.227, 10.679
1212.444, 29.768
1213.661, 25.099
1214.877, 0.053
1216.094, 4.765
1217.310, 0.554
1218.526, 13.311
1219.742, 14.900
1220.958, 19.886
1222.173, 27.430
1223.389, 27.089
1224.604, 35.725
1225.819, 31.339
1227.034, 6.930
1228.248, 23.544
1229.463, 50.075
1230.677, 9.585
1231.891, 43.061
1233.105, 22.514
1234.318, 33.940
1235.532, 39.342
1236.745, 32.816
1237.958, 47.073
1239.171, 33.376
1240.384, 34.650
1241.596, 37.897
1242.809, 0.893
1244.021, 23.733
1245.233, 57.419
1246.444, 23.509
1247.656, 38.654
1248.867, 56.685
1250.079, 26.690
1251.290, 18.662
1252.500, 1.594
1253.711, 38.500
1254.921, 36.364
1256.132, 50.209
1257.342, 59.001
1258.552, 85.771
1259.761, 71.507
1260.971, 46.216
1262.180, 92.894
1263.389, 101.543
1264.598, 69.158
1265.807, 75.739
1267.015, 63.349
1268.223, 75.867
1269.432, 75.355
1270.640, 33.808
1271.847, 75.223
1273.055, 66.663
1274.262, 36.012
1275.470, 75.327
1276.677, 69.609
1277.883, 113.954
1279.090, 110.546
1280.296, 96.445
1281.503, 111.590
1282.709, 100.802
1283.915, 101.026
1285.120, 89.071
1286.326, 91.082
1287.531, 104.062
1288.736, 125.805
1289.941, 101.723
1291.146, 124.611
1292.350, 86.842
1293.555, 89.670
1294.759, 64.159
1295.963, 72.788
1297.167, 95.311
1298.370, 91.493
1299.574, 93.251
1300.777, 97.066
1301.980, 126.614
1303.183, 107.513
1304.386, 102.745
1305.588, 63.660
1306.790, 105.977
1307.993, 123.022
1309.195, 77.206
1310.396, 86.535
1311.598, 88.659
1312.799, 86.913
1314.000, 90.874
1315.201, 126.190
1316.402, 93.443
1317.603, 138.188
1318.803, 73.147
1320.003, 116.709
1321.203, 57.646
1322.403, 47.201
1323.603, 70.721
1324.802, 81.300
1326.002, 81.693
1327.201, 93.810
1328.400, 50.612
1329.599, 81.466
1330.797, 74.595
1331.995, 53.956
1333.194, 130.131
1334.392, 59.354
1335.589, 95.303
1336.787, 145.188
1337.985, 49.813
1339.182, 95.919
1340.379, 70.520
1341.576, 69.813
1342.772, 131.164
1343.969, 103.349
1345.165, 108.589
1346.361, 103.463
1347.557, 138.991
1348.753, 116.495
1349.949, 148.079
1351.144, 121.537
1352.339, 138.786
1353.534, 156.363
1354.729, 146.752
1355.924, 145.418
1357.118, 140.795
1358.312, 166.051
1359.506, 170.116
1360.700, 163.405
1361.894, 177.334
1363.088, 131.902
1364.281, 115.462
1365.474, 167.168
1366.667, 143.082
1367.860, 161.919
1369.052, 143.929
1370.245, 136.809
1371.437, 98.482
1372.629, 177.903
1373.821, 129.076
1375.013, 141.650
1376.204, 148.348
1377.395, 130.121
1378.586, 160.241
1379.777, 166.363
1380.968, 122.976
1382.159, 112.908
1383.349, 126.050
1384.539, 141.610
1385.729, 145.799
1386.919, 103.201
1388.109, 84.668
1389.298, 93.509
1390.487, 71.534
1391.676, 121.745
1392.865, 99.241
1394.054, 97.373
1395.242, 134.041
1396.431, 84.847
1397.619, 83.163
1398.807, 79.227
1399.995, 91.777
1401.182, 83.288
1402.370, 100.376
1403.557, 85.419
1404.744, 88.695
1405.931, 93.559
1407.118, 81.080
1408.304, 110.935
1409.490, 62.320
1410.676, 90.185
1411.862, 124.025
1413.048, 96.795
1414.234, 132.205
1415.419, 57.515
1416.604, 101.972
1417.789, 68.899
1418.974, 71.569
1420.159, 43.710
1421.343, 61.823
1422.528, 43.141
1423.712, 96.757
1424.896, 28.921
1426.079, 28.859
1427.263, 95.728
1428.446, 63.578
1429.629, 55.863
1430.812, 83.340
1431.995, 61.112
1433.178, 69.002
1434.360, 94.930
1435.543, 95.851
1436.725, 59.760
1437.907, 58.673
1439.088, 63.573
1440.270, 69.467
1441.451, 75.344
1442.632, 55.194
1443.813, 87.007
1444.994, 49.684
1446.175, 28.445
1447.355, 68.186
1448.535, 72.887
1449.715, 68.542
1450.895, 86.269
1452.075, 103.989
1453.255, 64.684
1454.434, 32.241
1455.613, 73.952
1456.792, 48.657
1457.971, 67.317
1459.149, 43.976
1460.328, 46.652
1461.506, 48.444
1462.684, 43.990
1463.862, 46.534
1465.040, 46.230
1466.217, 38.948
1467.395, 57.520
1468.572, 31.241
1469.749, 68.672
1470.925, 57.204
1472.102, 23.111
1473.278, 58.968
1474.455, 30.853
1475.631, 23.748
1476.807, 38.640
1477.982, 29.528
1479.158, 50.413
1480.333, 66.295
1481.508, 30.181
1482.683, 3.817
1483.858, 66.712
1485.033, 31.617
1486.207, 61.448
1487.381, 4.380
1488.555, 44.330
1489.729, 39.300
1490.903, 2.704
1492.076, 32.318
1493.250, 39.372
1494.423, 25.475
1495.596, 45.635
1496.769, 11.844
1497.941, 20.085
1499.114, 31.364
1500.286, 18.214
1501.458, 7.574
1502.630, 23.556
1503.802, 48.011
