##NAMES=Epidote
##RRUFFID=R040092
##IDEAL CHEMISTRY=Ca_2_Fe^3+^Al_2_(Si_2_O_7_)(SiO_4_)O(OH)
##LOCALITY=Nahant, Massachusetts, USA
##OWNER=RRUFF
##SOURCE=University of Arizona Mineral Museum
##DESCRIPTION=Green prismatic crystals imbedded in quartz
##STATUS=The identification of this mineral has been confirmed by X-ray diffraction and chemical analysis
##URL=rruff.info/R040092
##MEASURED CHEMISTRY=Ca_2.01_Al_2.00_Fe_1.00_(Si_1.00_O_4_)(Si_1.97_Fe_0.02_Al_0.01_Ti_0.01_O_7_)O(OH)
##PIN_ID=S00018
##ORIENTATION=Laser parallel to b* (0 1 0). Fiducial mark perpendicular to laser is parallel to c [0 0 1]
51.466, 0.000
52.866, 62.631
54.266, 134.933
55.666, 131.351
57.065, 144.504
58.464, 286.883
59.863, 292.203
61.262, 195.514
62.661, 85.345
64.059, 0.923
65.458, 47.578
66.856, 47.953
68.253, 65.381
69.651, 12.179
71.048, 107.389
72.445, 218.121
73.842, 436.861
75.239, 843.423
76.635, 1302.603
78.031, 2112.209
79.427, 3280.058
80.823, 4879.988
82.218, 7355.854
83.614, 9967.521
85.009, 13069.877
86.404, 16847.816
87.798, 20663.258
89.193, 24649.248
90.587, 26089.730
91.981, 25108.709
93.375, 21061.285
94.768, 16937.346
96.161, 13278.718
97.554, 10506.279
98.947, 8531.910
100.340, 6810.525
101.732, 5552.051
103.124, 4626.428
104.516, 4150.604
105.908, 3943.534
107.300, 3455.180
108.691, 3202.508
110.082, 2828.490
111.473, 2662.098
112.864, 2593.310
114.254, 2625.106
115.644, 2637.466
117.034, 2642.374
118.424, 2647.812
119.813, 2910.767
121.203, 3230.229
122.592, 3735.182
123.981, 4527.191
125.369, 5418.180
126.758, 7021.726
128.146, 8812.605
129.534, 11631.009
130.922, 14542.919
132.309, 16915.979
133.696, 16786.742
135.083, 14710.750
136.470, 11142.628
137.857, 8461.364
139.243, 6285.958
140.630, 4824.419
142.016, 3968.709
143.401, 3581.858
144.787, 3383.972
146.172, 3354.101
147.557, 3192.267
148.942, 2740.489
150.327, 2302.785
151.711, 2052.169
153.096, 1930.654
154.480, 1890.253
155.863, 1991.977
157.247, 2205.833
158.630, 2669.829
160.013, 3201.973
161.396, 3998.273
162.779, 4950.731
164.161, 5942.354
165.544, 7304.146
166.926, 7910.113
168.308, 8217.257
169.689, 7766.578
171.070, 7036.086
172.452, 5944.778
173.833, 4994.660
175.213, 4245.729
176.594, 3523.847
177.974, 2992.438
179.354, 2530.078
180.734, 2176.909
182.114, 2017.933
183.493, 1926.149
184.872, 1875.560
186.251, 1996.163
187.630, 2014.961
189.008, 2076.954
190.387, 2363.144
191.765, 2437.529
193.143, 2667.111
194.520, 3074.952
195.898, 3715.581
197.275, 4317.077
198.652, 5291.241
200.029, 6077.767
201.405, 6818.500
202.782, 7193.442
204.158, 7446.590
205.534, 7416.947
206.909, 6899.528
208.285, 6807.106
209.660, 6775.849
211.035, 6829.177
212.410, 7233.217
213.784, 7692.796
215.159, 8522.094
216.533, 9605.714
217.907, 10931.903
219.281, 12602.970
220.654, 14126.879
222.027, 16383.605
223.400, 18641.178
224.773, 20851.463
226.146, 22805.773
227.518, 23974.420
228.891, 23635.656
230.263, 22207.447
231.634, 19696.609
233.006, 16248.679
234.377, 13409.375
235.748, 11429.687
237.119, 10021.517
238.490, 9774.712
239.860, 9447.256
241.231, 9786.143
242.601, 9794.352
243.970, 9318.878
245.340, 8300.711
246.709, 6849.841
248.079, 5602.261
249.448, 4358.961
250.816, 3659.937
252.185, 3108.179
253.553, 2657.683
254.921, 2277.441
256.289, 1982.450
257.657, 1918.700
259.024, 1885.188
260.391, 1887.904
261.758, 2049.846
263.125, 2475.006
264.492, 3009.385
265.858, 3871.974
267.224, 5113.771
268.590, 6746.775
269.956, 9025.981
271.321, 11715.387
272.687, 14759.990
274.052, 17586.789
275.416, 20248.781
276.781, 19642.965
278.146, 16839.330
279.510, 13465.885
280.874, 9901.624
282.237, 7521.548
283.601, 5492.651
284.964, 4379.933
286.327, 4047.391
287.690, 3820.024
289.053, 3974.829
290.416, 4556.795
291.778, 4995.922
293.140, 5457.207
294.502, 5532.649
295.863, 5734.243
297.225, 5742.977
298.586, 5567.843
299.947, 5292.844
301.308, 4723.979
302.668, 4401.249
304.029, 4158.656
305.389, 3406.202
306.749, 3028.886
308.108, 2731.711
309.468, 2381.677
310.827, 1890.785
312.186, 1717.034
313.545, 1641.425
314.903, 1630.958
316.262, 1631.633
317.620, 1991.451
318.978, 2468.411
320.336, 2940.512
321.693, 3790.755
323.051, 4348.140
324.408, 4642.665
325.765, 4770.333
327.121, 3846.141
328.478, 3052.088
329.834, 2126.176
331.190, 1403.403
332.546, 790.507
333.902, 213.274
335.257, 129.083
336.612, 370.331
337.967, 452.514
339.322, 515.652
340.677, 384.756
342.031, 303.802
343.385, 107.773
344.739, 225.364
346.093, 477.636
347.446, 820.042
348.799, 1016.581
350.153, 1064.253
351.505, 1023.058
352.858, 815.994
354.210, 713.061
355.563, 413.193
356.915, 105.586
358.267, 114.989
359.618, 272.650
360.969, 247.442
362.321, 378.252
363.672, 467.006
365.022, 512.725
366.373, 539.418
367.723, 597.092
369.073, 567.760
370.423, 538.111
371.773, 632.369
373.122, 396.443
374.471, 300.709
375.821, 191.140
377.169, 130.308
378.518, 443.776
379.866, 789.401
381.215, 1397.179
382.563, 2014.123
383.910, 2739.231
385.258, 3505.517
386.605, 4375.974
387.952, 4744.627
389.299, 5109.493
390.646, 4498.563
391.992, 3962.852
393.339, 3244.370
394.685, 2499.115
396.031, 2061.111
397.376, 1497.339
398.722, 1296.788
400.067, 1049.438
401.412, 989.317
402.757, 1002.756
404.101, 1244.771
405.446, 1325.327
406.790, 1600.106
408.134, 2038.109
409.478, 2685.344
410.821, 3415.808
412.165, 4676.500
413.508, 5775.429
414.851, 7509.590
416.193, 9728.985
417.536, 12927.609
418.878, 16606.455
420.220, 21293.531
421.562, 25204.820
422.904, 30377.318
424.245, 33183.016
425.586, 33106.914
426.927, 31970.016
428.268, 27496.330
429.609, 24428.846
430.949, 21447.572
432.289, 19845.488
433.629, 17692.604
434.969, 16582.900
436.309, 14712.371
437.648, 13607.013
438.987, 12358.822
440.326, 11661.806
441.665, 11600.940
443.003, 12844.227
444.342, 14137.664
445.680, 16666.236
447.018, 19428.939
448.355, 22049.783
449.693, 24699.754
451.030, 25645.852
452.367, 26280.078
453.704, 25099.430
455.041, 25232.898
456.377, 23733.490
457.713, 22224.209
459.049, 19781.041
460.385, 17075.988
461.721, 14227.066
463.056, 11412.257
464.391, 9353.564
465.726, 7675.980
467.061, 6218.511
468.395, 5168.154
469.730, 4417.911
471.064, 3605.774
472.398, 3259.744
473.731, 2710.821
475.065, 2480.002
476.398, 2149.287
477.731, 2060.675
479.064, 2003.165
480.397, 2053.756
481.729, 2103.448
483.062, 2217.241
484.394, 2432.132
485.725, 2585.122
487.057, 2980.209
488.389, 3326.394
489.720, 3856.673
491.051, 4429.049
492.382, 5346.519
493.712, 6443.082
495.043, 7491.739
496.373, 8740.236
497.703, 9883.187
499.032, 10980.407
500.362, 11385.562
501.691, 11697.019
503.020, 11955.267
504.349, 12377.000
505.678, 12491.389
507.007, 13312.866
508.335, 13802.435
509.663, 14143.091
510.991, 14202.833
512.319, 13464.665
513.646, 13487.578
514.973, 13456.577
516.300, 14595.662
517.627, 16094.834
518.954, 17543.010
520.280, 20124.451
521.607, 21498.131
522.933, 21967.852
524.259, 20098.455
525.584, 17255.836
526.910, 14275.952
528.235, 11150.247
529.560, 8616.092
530.885, 6501.512
532.209, 5111.291
533.534, 4194.832
534.858, 3339.887
536.182, 2767.960
537.506, 2546.410
538.829, 2350.947
540.152, 2222.575
541.476, 2163.290
542.799, 2199.091
544.121, 2310.099
545.444, 2510.010
546.766, 2806.926
548.088, 3178.491
549.410, 3687.708
550.732, 4165.039
552.053, 5085.287
553.375, 6202.262
554.696, 7565.135
556.017, 9828.666
557.337, 13086.951
558.658, 17358.160
559.978, 22661.096
561.298, 29962.502
562.618, 37302.898
563.938, 42744.645
565.257, 44583.984
566.576, 38388.805
567.895, 31263.750
569.214, 23898.426
570.533, 18213.416
571.851, 14109.550
573.170, 11990.078
574.488, 10278.990
575.805, 9625.361
577.123, 9477.455
578.440, 9902.462
579.758, 10737.263
581.075, 11640.047
582.391, 13262.021
583.708, 14276.996
585.024, 15690.489
586.341, 17318.570
587.657, 18188.490
588.972, 19082.746
590.288, 20071.662
591.603, 21513.439
592.918, 23688.383
594.233, 26403.133
595.548, 28744.818
596.863, 30245.744
598.177, 30510.633
599.491, 29785.084
600.805, 27384.127
602.119, 24607.217
603.432, 22094.441
604.746, 20053.676
606.059, 18061.191
607.372, 16142.329
608.685, 15108.555
609.997, 14126.740
611.309, 13508.607
612.621, 12730.660
613.933, 11980.368
615.245, 11092.178
616.557, 10023.892
617.868, 8783.363
619.179, 7661.399
620.490, 6386.739
621.801, 5618.268
623.111, 4751.276
624.421, 4204.589
625.731, 3407.091
627.041, 3230.741
628.351, 2680.636
629.660, 2407.281
630.970, 2328.957
632.279, 2007.566
633.588, 1812.156
634.896, 1534.728
636.205, 1407.748
637.513, 1304.807
638.821, 1230.313
640.129, 1114.797
641.437, 1102.258
642.744, 1005.694
644.051, 930.105
645.358, 917.491
646.665, 824.851
647.972, 828.182
649.278, 741.485
650.584, 694.761
651.890, 717.006
653.196, 676.782
654.502, 830.435
655.807, 717.689
657.113, 741.002
658.418, 853.386
659.722, 799.813
661.027, 844.267
662.331, 880.711
663.636, 893.119
664.940, 898.492
666.244, 988.826
667.547, 947.124
668.851, 1071.382
670.154, 1062.601
671.457, 1093.781
672.760, 1153.920
674.062, 1112.018
675.365, 1231.073
676.667, 1279.115
677.969, 1379.170
679.271, 1429.016
680.572, 1465.357
681.874, 1502.477
683.175, 1498.685
684.476, 1492.956
685.777, 1462.304
687.077, 1396.723
688.378, 1395.203
689.678, 1234.765
690.978, 1125.359
692.278, 795.965
693.577, 736.562
694.877, 550.107
696.176, 445.599
697.475, 265.039
698.774, 199.425
700.072, 51.758
701.371, 96.017
702.669, 17.787
703.967, 75.700
705.265, 50.753
706.562, 96.935
707.860, 108.271
709.157, 84.768
710.454, 207.417
711.751, 135.283
713.047, 144.329
714.344, 76.562
715.640, 180.946
716.936, 249.539
718.232, 103.377
719.527, 186.385
720.823, 177.607
722.118, 183.040
723.413, 214.688
724.708, 208.567
726.002, 211.677
727.297, 244.019
728.591, 232.829
729.885, 237.498
731.179, 227.532
732.472, 221.859
733.766, 203.427
735.059, 183.227
736.352, 150.248
737.645, 152.472
738.937, 135.903
740.230, 159.530
741.522, 168.367
742.814, 181.418
744.106, 170.642
745.397, 117.179
746.689, 130.856
747.980, 101.727
749.271, 66.777
750.562, 65.988
751.853, 38.266
753.143, 69.875
754.433, 0.447
755.723, 9.356
757.013, 21.713
758.303, 45.710
759.592, 84.523
760.881, 70.288
762.170, 89.960
763.459, 83.543
764.748, 85.036
766.036, 157.440
767.325, 145.767
768.613, 168.015
769.901, 159.188
771.188, 166.283
772.476, 117.303
773.763, 85.242
775.050, 193.092
776.337, 176.871
777.624, 223.577
778.910, 191.214
780.196, 174.780
781.482, 161.272
782.768, 233.691
784.054, 304.043
785.339, 276.332
786.625, 315.556
787.910, 314.718
789.195, 319.816
790.479, 405.852
791.764, 450.825
793.048, 455.736
794.332, 539.585
795.616, 550.373
796.900, 592.099
798.183, 630.763
799.467, 720.366
800.750, 649.909
802.033, 785.391
803.316, 900.812
804.598, 860.173
805.880, 1020.474
807.163, 1144.716
808.445, 1201.898
809.726, 1301.022
811.008, 1439.086
812.289, 1542.091
813.570, 1736.036
814.851, 1911.922
816.132, 2141.747
817.413, 2372.514
818.693, 2699.221
819.973, 3062.870
821.253, 3423.459
822.533, 3946.991
823.813, 4433.465
825.092, 4998.880
826.371, 5567.240
827.650, 5997.543
828.929, 6499.789
830.208, 6527.979
831.486, 6429.113
832.764, 6137.191
834.042, 5800.213
835.320, 5342.180
836.598, 4989.092
837.875, 4504.946
839.152, 4165.746
840.429, 3920.489
841.706, 3706.176
842.983, 3513.807
844.259, 3917.381
845.536, 4310.902
846.812, 3916.374
848.088, 3575.793
849.363, 3750.160
850.639, 3952.483
851.914, 4132.767
853.189, 4375.003
854.464, 4754.783
855.739, 5145.281
857.013, 5387.530
858.288, 5810.185
859.562, 6200.231
860.836, 6755.213
862.110, 7243.319
863.383, 7793.736
864.656, 8312.305
865.930, 8835.261
867.203, 9192.514
868.475, 9476.896
869.748, 9403.600
871.020, 9304.880
872.292, 9088.220
873.564, 8639.236
874.836, 8221.698
876.108, 7769.715
877.379, 7424.520
878.650, 7046.881
879.922, 6809.838
881.192, 6599.688
882.463, 6432.177
883.733, 6370.308
885.004, 6296.013
886.274, 6371.026
887.544, 6533.157
888.813, 6627.524
890.083, 6925.934
891.352, 7404.185
892.621, 7773.458
893.890, 8389.229
895.159, 9142.437
896.427, 9904.818
897.695, 11273.881
898.964, 12170.309
900.232, 13849.889
901.499, 15739.324
902.767, 17719.975
904.034, 19900.701
905.301, 22765.191
906.568, 25992.748
907.835, 29659.752
909.102, 33420.188
910.368, 37745.574
911.634, 42520.840
912.900, 46252.129
914.166, 49847.105
915.432, 50555.543
916.697, 49613.863
917.962, 47316.238
919.227, 41996.930
920.492, 37224.445
921.757, 31637.324
923.021, 27102.102
924.285, 22928.984
925.550, 19485.102
926.813, 16545.672
928.077, 14014.937
929.341, 12060.015
930.604, 10384.622
931.867, 8868.922
933.130, 7825.039
934.393, 6994.011
935.655, 6197.740
936.918, 5625.719
938.180, 5039.668
939.442, 4585.687
940.703, 4141.725
941.965, 3911.781
943.226, 3589.859
944.488, 3440.961
945.749, 3291.085
947.009, 3054.230
948.270, 2949.398
949.530, 2865.588
950.791, 2828.801
952.051, 2858.038
953.311, 2726.298
954.570, 2856.583
955.830, 2823.895
957.089, 2871.232
958.348, 2824.594
959.607, 2821.983
960.866, 2689.399
962.124, 2775.840
963.383, 2668.310
964.641, 2670.807
965.899, 2804.333
967.156, 2769.887
968.414, 2995.468
969.671, 3294.080
970.928, 3575.720
972.185, 4227.390
973.442, 5007.089
974.699, 5992.820
975.955, 7105.582
977.211, 8243.376
978.468, 9410.202
979.723, 10026.062
980.979, 9822.958
982.234, 9411.887
983.490, 8225.850
984.745, 7265.845
986.000, 6026.876
987.254, 4981.939
988.509, 4252.037
989.763, 3546.171
991.017, 3047.340
992.271, 2616.550
993.525, 2281.794
994.779, 2072.079
996.032, 1746.938
997.285, 1596.576
998.538, 1389.598
999.791, 1322.608
1001.044, 1099.585
1002.296, 1064.869
1003.548, 898.995
1004.800, 802.920
1006.052, 779.811
1007.304, 691.995
1008.555, 742.758
1009.807, 642.311
1011.058, 672.398
1012.309, 721.692
1013.559, 710.782
1014.810, 772.025
1016.060, 802.688
1017.310, 872.665
1018.560, 960.142
1019.810, 1011.759
1021.060, 1088.224
1022.309, 1117.740
1023.558, 1305.500
1024.807, 1390.344
1026.056, 1586.766
1027.305, 1875.576
1028.553, 2189.568
1029.801, 2581.341
1031.049, 3041.962
1032.297, 3499.957
1033.545, 4161.042
1034.793, 4781.179
1036.040, 5535.857
1037.287, 6247.464
1038.534, 7030.193
1039.781, 7582.009
1041.027, 7571.850
1042.274, 7603.373
1043.520, 7537.549
1044.766, 6838.629
1046.012, 6301.950
1047.257, 5823.473
1048.503, 5403.838
1049.748, 4856.847
1050.993, 4658.159
1052.238, 4442.952
1053.483, 4453.258
1054.727, 4657.205
1055.971, 5107.599
1057.216, 5629.701
1058.459, 6134.993
1059.703, 6797.339
1060.947, 7121.510
1062.190, 7085.643
1063.433, 6779.027
1064.676, 6290.919
1065.919, 5697.395
1067.162, 5444.864
1068.404, 5224.866
1069.646, 5002.720
1070.888, 5254.360
1072.130, 5517.037
1073.372, 5972.751
1074.613, 6713.502
1075.855, 7453.293
1077.096, 8552.125
1078.337, 10215.993
1079.578, 11645.895
1080.818, 14072.828
1082.059, 17108.803
1083.299, 20611.799
1084.539, 23917.836
1085.779, 25575.904
1087.018, 25019.998
1088.258, 22170.129
1089.497, 17926.285
1090.736, 13970.471
1091.975, 10365.760
1093.213, 7681.496
1094.452, 5807.765
1095.690, 4352.061
1096.928, 3434.506
1098.166, 2586.379
1099.404, 2201.268
1100.642, 1775.705
1101.879, 1537.138
1103.116, 1265.599
1104.353, 1115.609
1105.590, 991.121
1106.827, 837.661
1108.063, 754.479
1109.299, 710.127
1110.536, 617.744
1111.771, 509.534
1113.007, 570.201
1114.243, 455.092
1115.478, 450.809
1116.713, 372.550
1117.948, 450.317
1119.183, 335.106
1120.418, 444.963
1121.652, 627.800
1122.886, 922.664
1124.120, 839.822
1125.354, 581.772
1126.588, 408.170
1127.821, 303.216
1129.055, 262.665
1130.288, 217.324
1131.521, 201.396
1132.753, 138.459
1133.986, 159.540
1135.218, 130.607
1136.450, 70.782
1137.682, 81.001
1138.914, 79.384
1140.146, 61.434
1141.377, 23.806
1142.609, 52.841
1143.840, 29.872
1145.071, 55.341
1146.301, 31.847
1147.532, 29.005
1148.762, 84.735
1149.992, 89.609
1151.222, 57.851
1152.452, 76.158
1153.682, 46.359
1154.911, 99.786
1156.140, 147.445
1157.369, 79.668
1158.598, 108.926
1159.827, 88.949
1161.055, 68.726
1162.284, 92.622
1163.512, 140.783
1164.740, 107.696
1165.967, 129.983
1167.195, 111.449
1168.422, 104.252
1169.650, 100.919
1170.877, 83.629
1172.103, 61.993
1173.330, 69.730
1174.557, 53.631
1175.783, 72.031
1177.009, 64.106
1178.235, 56.947
1179.461, 59.934
1180.686, 38.196
1181.912, 53.819
1183.137, 40.925
1184.362, 35.136
1185.587, 33.678
1186.811, 46.955
1188.036, 27.123
1189.260, 17.905
1190.484, 16.157
1191.708, 2.321
1192.932, 3.722
1194.155, 19.748
1195.378, 2.233
1196.602, 13.700
1197.825, 23.906
1199.047, 32.679
1200.270, 16.905
1201.492, 87.167
1202.715, 13.711
1203.937, 106.404
1205.159, 33.370
1206.380, 11.288
1207.602, 17.173
1208.823, 3.028
1210.044, 67.844
1211.265, 11.639
1212.486, 52.398
1213.707, 31.135
1214.927, 100.843
1216.147, 102.527
1217.367, 150.190
1218.587, 202.829
1219.807, 113.445
1221.027, 86.037
1222.246, 123.605
1223.465, 100.150
1224.684, 162.669
1225.903, 96.163
1227.121, 101.631
1228.340, 119.073
1229.558, 130.490
1230.776, 112.879
1231.994, 96.242
1233.212, 146.578
1234.429, 123.887
1235.646, 105.168
1236.864, 107.421
1238.081, 94.654
1239.297, 75.891
1240.514, 122.078
1241.730, 128.296
1242.947, 100.617
1244.163, 161.738
1245.378, 121.942
1246.594, 125.221
1247.810, 143.370
1249.025, 175.669
1250.240, 92.671
1251.455, 181.724
1252.670, 170.958
1253.885, 111.307
1255.099, 139.200
1256.313, 188.160
1257.527, 129.054
1258.741, 234.122
1259.955, 128.160
1261.168, 171.493
1262.382, 189.407
1263.595, 196.536
1264.808, 212.355
1266.021, 167.215
1267.233, 202.148
1268.446, 181.824
1269.658, 138.759
1270.870, 177.781
1272.082, 129.385
1273.294, 170.269
1274.505, 132.665
1275.716, 124.935
1276.928, 185.462
1278.139, 194.866
1279.349, 197.095
1280.560, 209.522
1281.770, 188.200
1282.981, 183.661
1284.191, 164.468
1285.401, 126.202
1286.610, 172.879
1287.820, 130.509
1289.029, 122.248
1290.239, 163.337
1291.448, 167.639
1292.656, 143.481
1293.865, 125.335
1295.073, 129.224
1296.282, 103.808
1297.490, 148.552
1298.698, 140.498
1299.906, 155.655
1301.113, 112.389
1302.320, 130.629
1303.528, 130.036
1304.735, 78.948
1305.942, 100.702
1307.148, 103.273
1308.355, 74.621
1309.561, 93.219
1310.767, 67.574
1311.973, 40.482
1313.179, 18.344
1314.384, 69.350
1315.590, 33.392
1316.795, 79.245
1318.000, 67.081
1319.205, 44.410
1320.410, 16.464
1321.614, 55.367
1322.819, 44.680
1324.023, 7.127
1325.227, 41.320
1326.431, 30.439
1327.634, 5.416
1328.838, 1.273
1330.041, 50.143
1331.244, 20.070
1332.447, 31.701
1333.650, 19.521
1334.852, 54.920
1336.055, 36.534
1337.257, 82.318
1338.459, 93.934
1339.661, 90.424
1340.862, 89.143
1342.064, 96.205
1343.265, 70.891
1344.466, 109.357
1345.667, 100.354
1346.868, 124.754
1348.068, 114.740
1349.269, 146.061
1350.469, 172.219
1351.669, 156.350
1352.869, 163.671
1354.069, 195.045
1355.268, 153.177
1356.468, 195.811
1357.667, 203.897
1358.866, 223.278
1360.065, 220.266
1361.263, 221.296
1362.462, 197.114
1363.660, 201.973
1364.858, 212.921
1366.056, 188.710
1367.254, 224.463
1368.451, 205.182
1369.649, 167.865
1370.846, 213.513
1372.043, 192.127
1373.240, 166.699
1374.436, 174.239
1375.633, 190.747
1376.829, 177.224
1378.025, 170.676
1379.221, 193.107
1380.417, 183.533
1381.613, 153.858
1382.808, 142.696
1384.003, 165.844
1385.199, 138.018
1386.393, 109.125
1387.588, 155.644
1388.783, 126.639
1389.977, 103.232
1391.171, 128.921
1392.365, 94.481
1393.559, 189.179
1394.753, 134.802
1395.946, 93.298
1397.140, 76.449
1398.333, 197.246
1399.526, 130.198
1400.719, 138.252
1401.911, 94.311
1403.104, 94.264
1404.296, 59.792
1405.488, 102.322
1406.680, 67.725
1407.872, 114.667
1409.063, 84.206
1410.255, 72.664
1411.446, 104.771
1412.637, 61.233
1413.828, 50.037
1415.018, 85.473
1416.209, 48.058
1417.399, 104.584
1418.589, 110.592
1419.779, 51.656
1420.969, 59.141
1422.159, 74.764
1423.348, 28.941
1424.537, 59.440
1425.726, 82.542
1426.915, 133.414
1428.104, 156.668
1429.293, 119.341
1430.481, 110.848
1431.669, 40.788
1432.857, 57.680
1434.045, 57.425
1435.233, 230.657
1436.420, 621.163
1437.608, 683.931
1438.795, 451.691
1439.982, 223.431
1441.169, 78.141
1442.355, 32.810
1443.542, 62.432
1444.728, 48.005
1445.914, 70.530
