##NAMES=Epidote
##RRUFFID=R050303
##IDEAL CHEMISTRY=Ca_2_Fe^3+^Al_2_(Si_2_O_7_)(SiO_4_)O(OH)
##LOCALITY=San Martin mine, Zacatecas, Mexico
##OWNER=RRUFF
##SOURCE=Eugene Schlepp
##DESCRIPTION=Green elongated prismatic crystals
##STATUS=The identification of this mineral has been confirmed by X-ray diffraction and chemical analysis
##URL=rruff.info/R050303
##MEASURED CHEMISTRY=Ca_2.00_Al_2.00_(Fe^3+^_0.97_Al_0.03_)(SiO_4_)(Si_2_O_7_)O(OH)
##PIN_ID=L01647
##ORIENTATION=Laser parallel to (1 0 1). Fiducial mark perpendicular to laser is parallel to b [0 1 0]
53.91000, 0.0000000E+00
55.14900, 59.46930
56.38700, 112.5071
57.62600, 173.1973
58.86400, 277.5670
60.10300, 318.8495
61.34100, 215.9314
62.57900, 83.94727
63.81700, 13.21429
65.05400, 43.03735
66.29200, 100.0368
67.52900, 15.70288
68.76700, 153.5253
70.00400, 355.2607
71.24100, 325.1632
72.47700, 431.9332
73.71400, 805.2976
74.95100, 1331.987
76.18700, 1989.749
77.42300, 2727.366
78.65900, 3761.644
79.89500, 5177.415
81.13100, 7112.543
82.36700, 8757.904
83.60200, 10634.38
84.83700, 12090.87
86.07200, 12818.29
87.30800, 13514.54
88.54200, 13787.54
89.77700, 13370.23
91.01200, 12702.53
92.24600, 11913.34
93.48000, 10474.54
94.71400, 9225.007
95.94800, 8116.660
97.18200, 7052.439
98.41600, 6243.323
99.64900, 5635.284
100.8830, 5018.277
102.1160, 4380.263
103.3490, 4138.209
104.5820, 4067.103
105.8150, 4202.966
107.0470, 5159.794
108.2800, 4318.312
109.5120, 5145.214
110.7440, 3288.753
111.9760, 2796.144
113.2080, 2622.365
114.4400, 2779.395
115.6710, 2680.216
116.9030, 2605.811
118.1340, 2337.160
119.3650, 2167.251
120.5960, 2090.069
121.8270, 2028.598
123.0580, 2112.827
124.2880, 1912.743
125.5190, 1769.335
126.7490, 1569.590
127.9790, 1661.372
129.2090, 1725.281
130.4390, 1724.299
131.6680, 1684.407
132.8980, 1708.589
134.1270, 1701.825
135.3560, 1776.229
136.5850, 1828.872
137.8140, 1939.775
139.0430, 1940.635
140.2710, 2094.720
141.5000, 1974.166
142.7280, 1974.271
143.9560, 2023.740
145.1840, 2139.524
146.4120, 2259.630
147.6390, 2532.067
148.8670, 2784.536
150.0940, 3111.972
151.3210, 3530.453
152.5490, 4090.344
153.7750, 4679.902
155.0020, 5700.302
156.2290, 6626.628
157.4550, 7939.708
158.6810, 9625.184
159.9080, 11810.98
161.1340, 13772.11
162.3590, 15684.56
163.5850, 17215.34
164.8110, 18150.45
166.0360, 18218.89
167.2610, 17972.65
168.4860, 17249.74
169.7110, 16397.15
170.9360, 14936.89
172.1610, 13425.97
173.3850, 12064.36
174.6100, 10566.09
175.8340, 9510.134
177.0580, 8264.506
178.2820, 7373.203
179.5050, 6278.223
180.7290, 5589.565
181.9520, 4715.228
183.1760, 4289.210
184.3990, 4002.512
185.6220, 3736.130
186.8450, 3460.063
188.0670, 3323.312
189.2900, 3282.873
190.5120, 3383.746
191.7340, 3457.928
192.9560, 3641.419
194.1780, 3672.218
195.4000, 3566.324
196.6220, 3441.732
197.8430, 3577.443
199.0640, 3400.456
200.2860, 3444.768
201.5070, 3231.957
202.7270, 3210.889
203.9480, 3003.545
205.1690, 2772.036
206.3890, 2675.283
207.6090, 2772.028
208.8290, 2992.389
210.0490, 3286.315
211.2690, 3686.759
212.4890, 4300.305
213.7080, 4979.067
214.9280, 5787.752
216.1470, 6873.183
217.3660, 8112.144
218.5850, 9259.615
219.8030, 10345.58
221.0220, 11137.02
222.2400, 11778.96
223.4590, 12108.24
224.6770, 12446.22
225.8950, 12576.82
227.1120, 12672.83
228.3300, 12709.69
229.5480, 12896.98
230.7650, 13091.46
231.9820, 13111.76
233.1990, 12881.29
234.4160, 12470.17
235.6330, 11750.40
236.8490, 11196.99
238.0660, 9767.942
239.2820, 8497.274
240.4980, 7319.985
241.7140, 6308.073
242.9300, 5357.536
244.1460, 4478.364
245.3610, 3665.545
246.5770, 2878.047
247.7920, 2289.889
249.0070, 1847.062
250.2220, 1589.267
251.4370, 1221.974
252.6510, 1073.461
253.8660, 1065.696
255.0800, 1059.036
256.2940, 1257.579
257.5080, 1862.147
258.7220, 2071.080
259.9360, 2965.756
261.1490, 3035.888
262.3630, 3530.002
263.5760, 4295.360
264.7890, 5395.956
266.0020, 5918.787
267.2150, 6255.852
268.4270, 6335.148
269.6400, 5844.674
270.8520, 5389.424
272.0640, 4868.397
273.2760, 4269.593
274.4880, 3584.006
275.7000, 3134.640
276.9120, 2677.492
278.1230, 2069.563
279.3340, 1915.855
280.5450, 1676.366
281.7560, 1502.099
282.9670, 1478.051
284.1780, 1447.222
285.3880, 1462.612
286.5980, 1495.219
287.8090, 1567.040
289.0190, 1684.073
290.2290, 1693.316
291.4380, 1703.771
292.6480, 1622.433
293.8570, 1627.304
295.0670, 1549.383
296.2760, 1640.669
297.4850, 1513.160
298.6930, 1374.855
299.9020, 1417.752
301.1110, 1507.848
302.3190, 1355.140
303.5270, 1351.623
304.7350, 1254.297
305.9430, 1212.161
307.1510, 1352.215
308.3580, 1307.457
309.5660, 1517.887
310.7730, 1368.502
311.9800, 1365.304
313.1870, 1515.290
314.3940, 1444.460
315.6010, 1563.812
316.8070, 1490.348
318.0130, 1548.063
319.2200, 1391.960
320.4260, 1431.036
321.6310, 1520.290
322.8370, 1535.722
324.0430, 1615.331
325.2480, 1684.115
326.4540, 1861.074
327.6590, 2062.207
328.8640, 2320.513
330.0680, 2794.990
331.2730, 3378.640
332.4780, 4153.460
333.6820, 5181.117
334.8860, 6191.605
336.0900, 7727.929
337.2940, 9420.421
338.4980, 11089.08
339.7010, 12768.90
340.9050, 14435.88
342.1080, 15345.03
343.3110, 16223.33
344.5140, 16192.80
345.7170, 15614.43
346.9200, 14623.28
348.1220, 13647.36
349.3240, 12372.66
350.5270, 10893.19
351.7290, 9420.945
352.9310, 8037.935
354.1320, 6639.152
355.3340, 5404.602
356.5350, 4482.285
357.7370, 3490.205
358.9380, 2732.359
360.1390, 2076.729
361.3400, 1422.311
362.5400, 1024.100
363.7410, 630.0967
364.9410, 425.2979
366.1410, 15.70117
367.3410, 98.69629
368.5410, 290.9180
369.7410, 347.0195
370.9400, 418.0234
372.1400, 473.9570
373.3390, 376.8418
374.5380, 240.6455
375.7370, 1.672852
376.9360, 314.1748
378.1350, 633.8623
379.3330, 964.7354
380.5310, 1263.635
381.7300, 1401.221
382.9280, 1380.498
384.1260, 1509.405
385.3230, 1239.938
386.5210, 951.6230
387.7180, 778.0654
388.9160, 658.3955
390.1130, 452.6089
391.3100, 77.18115
392.5060, 43.24316
393.7030, 179.3628
394.9000, 277.8882
396.0960, 399.7690
397.2920, 407.6348
398.4880, 575.4951
399.6840, 528.4116
400.8800, 499.3716
402.0750, 424.3594
403.2710, 206.3545
404.4660, 16.72852
405.6610, 215.9639
406.8560, 458.3477
408.0510, 1000.895
409.2450, 1597.595
410.4400, 2261.446
411.6340, 3247.449
412.8280, 4330.602
414.0220, 5436.905
415.2160, 6846.358
416.4100, 8063.956
417.6030, 9592.703
418.7970, 11160.60
419.9900, 12898.64
421.1830, 14985.84
422.3760, 17754.19
423.5690, 20970.71
424.7610, 24424.38
425.9540, 27207.21
427.1460, 29563.17
428.3380, 30787.30
429.5300, 31196.59
430.7220, 30470.04
431.9140, 29183.68
433.1050, 27547.46
434.2970, 25650.43
435.4880, 24235.54
436.6790, 23009.81
437.8700, 22146.23
439.0610, 21705.83
440.2510, 21408.58
441.4420, 21272.46
442.6320, 21454.48
443.8220, 21777.64
445.0120, 21843.97
446.2020, 21637.46
447.3910, 21266.07
448.5810, 20735.82
449.7700, 19750.72
450.9600, 18169.77
452.1490, 16422.97
453.3370, 14732.30
454.5260, 12915.78
455.7150, 11174.40
456.9030, 9609.169
458.0910, 8140.481
459.2800, 6873.171
460.4670, 5606.867
461.6550, 4596.657
462.8430, 3688.273
464.0300, 2953.897
465.2180, 2372.667
466.4050, 1830.577
467.5920, 1471.638
468.7790, 1181.826
469.9650, 892.1582
471.1520, 708.6128
472.3380, 576.2017
473.5250, 569.9219
474.7110, 451.7622
475.8970, 560.7192
477.0820, 591.7856
478.2680, 599.9609
479.4540, 961.2383
480.6390, 935.6221
481.8240, 1089.116
483.0090, 1490.717
484.1940, 1967.423
485.3780, 2448.240
486.5630, 3055.154
487.7470, 3744.162
488.9320, 4414.276
490.1160, 5190.487
491.3000, 5773.804
492.4830, 6386.204
493.6670, 6557.706
494.8500, 7065.293
496.0340, 7311.957
497.2170, 7673.699
498.4000, 7982.515
499.5820, 8611.401
500.7650, 8938.359
501.9480, 9011.380
503.1300, 8936.582
504.3120, 8648.626
505.4940, 8107.845
506.6760, 7394.123
507.8580, 6543.456
509.0390, 5626.809
510.2210, 4982.319
511.4020, 3975.624
512.5830, 3242.785
513.7640, 2634.987
514.9450, 1941.798
516.1250, 1417.622
517.3060, 1048.675
518.4860, 740.3267
519.6660, 364.1616
520.8460, 177.3091
522.0260, 78.23096
523.2060, 70.88770
524.3850, 119.0635
525.5650, 166.3555
526.7440, 173.8008
527.9230, 171.9536
529.1020, 162.3628
530.2810, 115.6533
531.4590, 11.03223
532.6380, 91.49658
533.8160, 76.91260
534.9940, 0.4394530
536.1720, 153.7959
537.3500, 296.2769
538.5270, 434.6201
539.7050, 540.4648
540.8820, 658.3945
542.0590, 723.9102
543.2360, 866.0884
544.4130, 954.8457
545.5900, 1351.892
546.7660, 1680.427
547.9430, 1888.102
549.1190, 2277.702
550.2950, 3029.935
551.4710, 3722.183
552.6470, 4924.972
553.8220, 6396.401
554.9980, 7751.506
556.1730, 9017.927
557.3480, 9900.079
558.5230, 10247.57
559.6980, 10091.61
560.8730, 9741.745
562.0470, 8921.356
563.2220, 8074.895
564.3960, 7458.206
565.5700, 6838.657
566.7440, 6514.951
567.9170, 6244.179
569.0910, 6088.699
570.2640, 6272.630
571.4380, 6536.939
572.6110, 7212.787
573.7840, 7823.896
574.9570, 8894.122
576.1290, 10098.04
577.3020, 11275.90
578.4740, 12551.18
579.6460, 13892.60
580.8180, 15460.97
581.9900, 16744.58
583.1620, 18229.62
584.3330, 19848.69
585.5040, 21316.89
586.6760, 23245.58
587.8470, 25475.97
589.0180, 27730.06
590.1880, 29228.70
591.3590, 30593.03
592.5290, 31280.73
593.7000, 31330.19
594.8700, 30811.87
596.0400, 29868.28
597.2090, 28666.78
598.3790, 27369.71
599.5490, 26487.71
600.7180, 25464.87
601.8870, 24426.72
603.0560, 23861.59
604.2250, 23159.20
605.3940, 22429.05
606.5620, 21880.05
607.7300, 20928.24
608.8990, 19838.38
610.0670, 18557.67
611.2350, 17199.05
612.4020, 15690.34
613.5700, 14335.26
614.7370, 12621.81
615.9050, 11535.39
617.0720, 10065.79
618.2390, 8772.915
619.4060, 7854.068
620.5720, 7011.382
621.7390, 6092.383
622.9050, 5463.012
624.0710, 4843.399
625.2370, 4271.245
626.4030, 3896.121
627.5690, 3649.731
628.7340, 3245.847
629.9000, 2960.436
631.0650, 2839.268
632.2300, 2614.488
633.3950, 2439.491
634.5600, 2191.428
635.7240, 2046.669
636.8890, 1895.684
638.0530, 1777.817
639.2170, 1681.940
640.3810, 1579.323
641.5450, 1544.043
642.7080, 1412.460
643.8720, 1282.887
645.0350, 1192.536
646.1980, 1030.178
647.3610, 916.1504
648.5240, 898.9897
649.6870, 786.3486
650.8490, 788.9648
652.0120, 775.7104
653.1740, 603.3281
654.3360, 568.8203
655.4980, 573.1553
656.6600, 430.4565
657.8210, 332.7012
658.9830, 442.8589
660.1440, 283.9258
661.3050, 333.8994
662.4660, 233.9370
663.6270, 180.3711
664.7870, 304.1929
665.9480, 225.4702
667.1080, 256.2007
668.2680, 314.8594
669.4280, 227.8413
670.5880, 213.0117
671.7480, 234.3740
672.9070, 203.4512
674.0670, 219.1089
675.2260, 151.5049
676.3850, 133.8525
677.5440, 118.5674
678.7030, 205.2505
679.8610, 113.9165
681.0200, 157.5845
682.1780, 89.25195
683.3360, 189.9009
684.4940, 95.53369
685.6520, 88.09277
686.8090, 220.5405
687.9670, 61.89209
689.1240, 119.1191
690.2810, 120.2363
691.4380, 148.2417
692.5950, 115.1401
693.7520, 133.9248
694.9080, 118.5991
696.0650, 135.1592
697.2210, 117.8750
698.3770, 93.94336
699.5330, 92.15674
700.6880, 47.24902
701.8440, 50.20557
702.9990, 20.97266
704.1550, 54.68115
705.3100, 33.20068
706.4650, 98.57861
707.6190, 28.83301
708.7740, 61.05762
709.9290, 19.13867
711.0830, 91.38916
712.2370, 17.15234
713.3910, 97.45703
714.5450, 20.72266
715.6980, 12.24658
716.8520, 3.382324
718.0050, 79.68018
719.1580, 43.17969
720.3110, 134.1377
721.4640, 1.224121
722.6170, 37.76660
723.7700, 68.73535
724.9220, 61.03760
726.0740, 55.46875
727.2260, 10.83838
728.3780, 30.94531
729.5300, 42.90381
730.6810, 33.93799
731.8330, 0.7202150
732.9840, 35.83105
734.1350, 48.37451
735.2860, 35.31104
736.4370, 91.31689
737.5880, 109.5273
738.7380, 65.95020
739.8880, 62.56396
741.0390, 32.36328
742.1890, 21.66602
743.3380, 83.44678
744.4880, 71.75537
745.6380, 108.2524
746.7870, 29.95752
747.9360, 97.82764
749.0850, 21.89746
750.2340, 70.12744
751.3830, 66.54102
752.5310, 31.13477
753.6800, 17.88965
754.8280, 1.331055
755.9760, 0.4790040
757.1240, 21.95752
758.2720, 7.367188
759.4190, 20.83398
760.5670, 17.45068
761.7140, 16.21387
762.8610, 42.12109
764.0080, 3.814941
765.1550, 7.619141
766.3020, 38.70508
767.4480, 17.18066
768.5950, 55.79492
769.7410, 50.43262
770.8870, 48.45557
772.0330, 1.504883
773.1780, 90.34131
774.3240, 48.06982
775.4690, 61.68506
776.6140, 72.19043
777.7590, 121.5884
778.9040, 177.8843
780.0490, 28.08496
781.1940, 89.17432
782.3380, 148.1611
783.4820, 136.0522
784.6260, 202.8472
785.7700, 205.5518
786.9140, 130.1665
788.0580, 206.6875
789.2010, 182.1206
790.3450, 189.4648
791.4880, 197.7197
792.6310, 272.8882
793.7730, 292.9727
794.9160, 361.9722
796.0590, 247.8882
797.2010, 332.7212
798.3430, 303.2036
799.4850, 406.8721
800.6270, 497.5312
801.7690, 538.1685
802.9100, 619.0518
804.0520, 600.5469
805.1930, 705.8652
806.3340, 701.3359
807.4750, 681.5850
808.6160, 800.7642
809.7560, 819.0894
810.8970, 1065.211
812.0370, 1207.477
813.1770, 1260.945
814.3170, 1437.023
815.4570, 1432.690
816.5960, 1594.621
817.7360, 1687.010
818.8750, 1879.115
820.0140, 2140.747
821.1530, 2233.111
822.2920, 2478.719
823.4310, 2565.048
824.5690, 2742.457
825.7070, 2885.894
826.8460, 2912.653
827.9840, 3067.350
829.1220, 3058.458
830.2590, 3100.879
831.3970, 3121.577
832.5340, 3180.909
833.6710, 3223.463
834.8080, 3263.626
835.9450, 3312.577
837.0820, 3330.760
838.2190, 3380.510
839.3550, 3381.429
840.4910, 3370.521
841.6270, 3430.422
842.7630, 3460.668
843.8990, 3610.453
845.0350, 3645.130
846.1700, 3806.344
847.3060, 4050.128
848.4410, 4098.318
849.5760, 4340.195
850.7100, 4589.900
851.8450, 5195.861
852.9800, 5680.829
854.1140, 5678.316
855.2480, 5536.979
856.3820, 5660.903
857.5160, 5891.905
858.6500, 6091.415
859.7830, 6256.842
860.9170, 6402.078
862.0500, 6532.830
863.1830, 6555.763
864.3160, 6705.004
865.4480, 6887.583
866.5810, 7352.508
867.7130, 7469.914
868.8460, 8002.514
869.9780, 8550.842
871.1100, 8923.403
872.2410, 9553.812
873.3730, 10465.73
874.5050, 11034.54
875.6360, 11975.12
876.7670, 12561.95
877.8980, 13279.72
879.0290, 13851.69
880.1590, 14337.37
881.2900, 14748.85
882.4200, 14885.12
883.5500, 15070.39
884.6800, 15126.47
885.8100, 15182.39
886.9400, 15127.37
888.0690, 15339.66
889.1990, 15492.26
890.3280, 15893.78
891.4570, 16138.42
892.5860, 17081.29
893.7140, 17742.07
894.8430, 18893.64
895.9710, 20001.47
897.1000, 21350.60
898.2280, 23062.91
899.3560, 24856.72
900.4830, 26997.43
901.6110, 29622.35
902.7380, 32455.71
903.8660, 35395.54
904.9930, 38540.04
906.1200, 43649.11
907.2460, 44735.34
908.3730, 46996.57
909.5000, 48894.43
910.6260, 49902.73
911.7520, 49591.32
912.8780, 48315.12
914.0040, 45852.61
915.1290, 43109.68
916.2550, 39546.01
917.3800, 35810.27
918.5050, 32200.25
919.6300, 28622.18
920.7550, 25311.70
921.8800, 22240.31
923.0040, 19548.34
924.1290, 17124.06
925.2530, 14961.63
926.3770, 13148.32
927.5010, 11587.13
928.6250, 10458.11
929.7480, 9172.128
930.8720, 8284.171
931.9950, 7353.244
933.1180, 6548.349
934.2410, 5982.486
935.3640, 5391.658
936.4860, 4803.866
937.6090, 4467.119
938.7310, 4065.405
939.8530, 3749.729
940.9750, 3497.090
942.0970, 3307.487
943.2180, 3037.919
944.3400, 2876.390
945.4610, 2553.897
946.5820, 2464.443
947.7030, 2293.027
948.8240, 2175.653
949.9450, 2058.324
951.0650, 1861.041
952.1860, 1840.798
953.3060, 1807.604
954.4260, 1700.455
955.5460, 1566.356
956.6650, 1612.304
957.7850, 1500.304
958.9040, 1352.357
960.0230, 1363.464
961.1420, 1345.630
962.2610, 1471.848
963.3800, 1393.120
964.4990, 1431.443
965.6170, 1446.825
966.7350, 1664.263
967.8530, 1685.771
968.9710, 1710.342
970.0890, 1883.977
971.2070, 1893.679
972.3240, 2141.443
973.4410, 1978.275
974.5580, 2055.179
975.6750, 1975.176
976.7920, 1854.243
977.9090, 1667.382
979.0250, 1586.592
980.1410, 1335.878
981.2580, 1093.276
982.3740, 978.7627
983.4890, 738.3721
984.6050, 628.0625
985.7200, 513.2676
986.8360, 365.1611
987.9510, 276.9839
989.0660, 200.6807
990.1810, 100.4624
991.2950, 103.9126
992.4100, 68.51660
993.5240, 54.02783
994.6390, 44.62500
995.7530, 2.671875
996.8660, 47.39941
997.9800, 3.681641
999.0940, 72.30762
1000.207, 13.53076
1001.320, 85.61377
1002.433, 74.94336
1003.546, 208.0845
1004.659, 218.1836
1005.772, 355.7056
1006.884, 403.1577
1007.996, 658.9595
1009.108, 644.4565
1010.220, 932.7852
1011.332, 907.0557
1012.444, 917.5620
1013.555, 1029.705
1014.666, 958.4575
1015.777, 1054.500
1016.888, 963.4502
1017.999, 951.2642
1019.110, 913.7944
1020.220, 832.3027
1021.331, 911.3057
1022.441, 776.7305
1023.551, 811.5088
1024.661, 848.9854
1025.770, 983.2598
1026.880, 1102.598
1027.989, 1025.561
1029.098, 1136.301
1030.207, 1375.132
1031.316, 1461.190
1032.425, 1433.900
1033.533, 1540.001
1034.642, 1495.184
1035.750, 1646.450
1036.858, 1457.813
1037.966, 1543.281
1039.073, 1437.854
1040.181, 1418.518
1041.288, 1368.291
1042.396, 1294.150
1043.503, 1229.077
1044.610, 1143.389
1045.716, 1070.658
1046.823, 1003.297
1047.929, 903.5234
1049.036, 925.8125
1050.142, 828.1797
1051.248, 895.6133
1052.353, 929.1118
1053.459, 908.6802
1054.564, 834.3110
1055.670, 820.0161
1056.775, 769.7866
1057.880, 837.6260
1058.985, 770.5269
1060.089, 840.5112
1061.194, 683.5625
1062.298, 833.6763
1063.402, 896.8516
1064.506, 806.0938
1065.610, 1030.399
1066.713, 1116.773
1067.817, 1261.214
1068.920, 1474.739
1070.023, 1744.324
1071.126, 2022.975
1072.229, 2482.682
1073.332, 3014.450
1074.435, 3698.280
1075.537, 4544.168
1076.639, 5494.116
1077.741, 6614.128
1078.843, 7371.204
1079.945, 7957.340
1081.046, 8128.767
1082.148, 8293.787
1083.249, 7689.094
1084.350, 7014.460
1085.451, 6175.885
1086.551, 5362.368
1087.652, 4584.904
1088.752, 3712.495
1089.853, 3102.140
1090.953, 2504.838
1092.053, 2171.438
1093.152, 1671.243
1094.252, 1467.099
1095.351, 1217.007
1096.451, 975.9668
1097.550, 873.5430
1098.649, 741.2500
1099.748, 543.6099
1100.846, 632.0698
1101.945, 526.9780
1103.043, 424.7041
1104.141, 455.0156
1105.239, 249.3755
1106.337, 172.2607
1107.434, 169.5371
1108.532, 264.1196
1109.629, 179.6680
1110.726, 88.35547
1111.823, 98.31592
1112.920, 2.121582
1114.017, 14.56836
1115.113, 132.6987
1116.210, 37.86572
1117.306, 25.40234
1118.402, 85.37012
1119.498, 135.0337
1120.593, 70.68506
1121.689, 42.13965
1122.784, 8.158203
1123.879, 11.88623
1124.974, 84.50928
1126.069, 42.34473
1127.164, 76.56738
1128.259, 14.06885
1129.353, 1.232422
1130.447, 3.707520
1131.541, 2.273926
1132.635, 41.62793
1133.729, 76.24170
1134.822, 67.05664
1135.916, 62.20215
1137.009, 38.80957
1138.102, 32.38379
1139.195, 16.31152
1140.288, 24.18945
1141.380, 48.65869
1142.473, 3.661621
1143.565, 9.988770
1144.657, 116.6152
1145.749, 128.0430
1146.841, 131.4849
1147.932, 100.3149
1149.024, 66.77979
1150.115, 82.24023
1151.206, 18.22852
1152.297, 61.10010
1153.388, 68.93896
1154.479, 14.81152
1155.569, 1.652344
1156.659, 54.76123
1157.750, 79.99316
1158.839, 7.103516
1159.929, 56.46436
1161.019, 23.63086
1162.108, 0.6069340
1163.198, 48.41650
1164.287, 45.66699
1165.376, 27.09668
1166.465, 97.97510
1167.553, 60.33154
1168.642, 195.7588
1169.730, 66.47070
1170.818, 159.1675
1171.906, 79.15967
1172.994, 192.8975
1174.082, 214.6313
1175.170, 186.7129
1176.257, 206.9561
1177.344, 181.3242
1178.431, 209.2383
1179.518, 188.8735
1180.605, 234.9751
1181.691, 188.7515
1182.778, 189.6479
1183.864, 257.5957
1184.950, 199.5640
1186.036, 198.2949
1187.122, 202.3960
1188.207, 218.8857
1189.292, 260.6895
1190.378, 217.5938
1191.463, 193.0161
1192.548, 273.6055
1193.632, 169.8267
1194.717, 283.3008
1195.801, 175.1519
1196.886, 236.2202
1197.970, 127.9824
1199.054, 179.9307
1200.137, 183.8784
1201.221, 228.5503
1202.305, 204.4561
1203.388, 188.4995
1204.471, 161.4453
1205.554, 131.2246
1206.637, 98.20508
1207.719, 98.49902
1208.802, 241.0151
1209.884, 375.9404
1210.966, 291.4790
1212.048, 79.86768
1213.130, 190.6270
1214.212, 66.30176
1215.293, 89.76123
1216.374, 105.9932
1217.456, 119.9712
1218.536, 66.60596
1219.617, 61.22803
1220.698, 111.8379
1221.778, 10.51660
1222.859, 53.04834
1223.939, 67.62354
1225.019, 69.16016
1226.099, 83.68213
1227.178, 24.18896
1228.258, 22.67334
1229.337, 30.86426
1230.417, 7.639160
1231.496, 6.0059000E-02
1232.574, 5.736328
1233.653, 95.05859
1234.732, 109.3633
1235.810, 34.64941
1236.888, 2.061523
1237.966, 55.28760
