##NAMES=Epidote
##RRUFFID=R050064
##IDEAL CHEMISTRY=Ca_2_Fe^3+^Al_2_(Si_2_O_7_)(SiO_4_)O(OH)
##LOCALITY=East Xichang City, Meigu County, Sichuan Province, China
##OWNER=RRUFF
##SOURCE=Rock Currier
##DESCRIPTION=Green prismatic crystals
##STATUS=The identification of this mineral has been confirmed by X-ray diffraction and chemical analysis
##URL=rruff.info/R050064
##MEASURED CHEMISTRY=(Ca_1.99_Mn_0.01_)_Î£=2_Fe^3+^_1.00_Al_2.00_(Si_2.00_O_7_)(Si_1.00_O_4_)O(OH); 
##PIN_ID=L00552
##ORIENTATION=Laser parallel to a* (1 0 0). Fiducial mark perpendicular to laser is parallel to -b [0 -1 0]
71.917, 0.000
73.319, 5.364
74.721, 45.904
76.123, 245.595
77.525, 488.522
78.926, 478.299
80.327, 579.256
81.728, 721.422
83.128, 1182.615
84.529, 1656.637
85.929, 1860.237
87.329, 2197.741
88.728, 2490.823
90.128, 2620.675
91.527, 2927.836
92.926, 3320.902
94.324, 3630.062
95.723, 3751.551
97.121, 3520.243
98.519, 3167.661
99.917, 2793.360
101.314, 2509.247
102.712, 2179.895
104.109, 1659.516
105.505, 1314.976
106.902, 1183.341
108.298, 1118.639
109.694, 1002.524
111.090, 955.046
112.486, 792.567
113.881, 939.996
115.277, 1010.687
116.672, 1009.271
118.066, 691.783
119.461, 583.670
120.855, 471.035
122.249, 402.608
123.643, 349.263
125.036, 310.988
126.430, 250.515
127.823, 201.642
129.216, 138.523
130.608, 91.393
132.001, 54.551
133.393, 59.299
134.785, 6.725
136.176, 30.662
137.568, 73.296
138.959, 81.451
140.350, 117.453
141.741, 59.809
143.131, 30.665
144.521, 11.886
145.911, 14.652
147.301, 23.245
148.691, 13.840
150.080, 57.291
151.469, 47.709
152.858, 73.146
154.247, 0.400
155.635, 15.074
157.024, 198.334
158.411, 266.277
159.799, 395.795
161.187, 752.768
162.574, 1155.032
163.961, 1736.490
165.348, 2522.704
166.734, 3619.272
168.121, 4916.776
169.507, 6931.987
170.893, 9330.060
172.278, 12096.786
173.664, 14453.494
175.049, 15840.157
176.434, 15206.729
177.819, 13133.220
179.203, 10629.606
180.587, 7766.556
181.971, 5717.966
183.355, 4079.881
184.739, 3039.605
186.122, 2307.114
187.505, 1733.357
188.888, 1392.258
190.271, 1015.791
191.653, 887.065
193.035, 697.120
194.417, 560.954
195.799, 571.541
197.180, 560.954
198.562, 698.291
199.943, 819.604
201.324, 952.933
202.704, 925.662
204.084, 1013.645
205.465, 780.026
206.844, 602.421
208.224, 407.832
209.603, 249.257
210.983, 200.696
212.362, 114.150
213.740, 187.618
215.119, 191.100
216.497, 336.588
217.875, 472.075
219.253, 713.570
220.631, 1002.082
222.008, 1426.608
223.385, 1991.140
224.762, 2744.582
226.139, 3640.454
227.515, 4889.125
228.891, 6065.178
230.267, 6878.580
231.643, 7232.003
233.018, 6995.447
234.394, 6328.912
235.769, 5785.398
237.144, 5414.490
238.518, 5558.923
239.893, 6308.958
241.267, 7011.253
242.641, 7280.404
244.014, 7202.143
245.388, 6160.315
246.761, 4869.856
248.134, 3482.029
249.507, 2312.836
250.879, 1578.210
252.252, 1066.792
253.624, 807.887
254.996, 515.473
256.367, 372.529
257.739, 298.043
259.110, 245.984
260.481, 234.444
261.852, 168.391
263.222, 166.820
264.592, 194.746
265.962, 298.171
267.332, 435.075
268.702, 702.460
270.071, 1074.231
271.440, 1597.301
272.809, 2465.708
274.178, 3497.671
275.546, 4594.050
276.915, 5410.656
278.283, 5222.969
279.650, 4557.603
281.018, 3293.458
282.385, 2282.316
283.752, 1422.893
285.119, 974.064
286.486, 667.589
287.852, 453.614
289.218, 447.264
290.584, 453.662
291.950, 633.518
293.316, 842.852
294.681, 1258.376
296.046, 1622.147
297.411, 1926.166
298.775, 2168.440
300.140, 2044.071
301.504, 1837.370
302.868, 1496.167
304.231, 1234.622
305.595, 1099.969
306.958, 948.061
308.321, 772.099
309.684, 681.448
311.047, 567.781
312.409, 596.737
313.771, 421.445
315.133, 460.580
316.495, 402.469
317.856, 421.912
319.217, 400.120
320.578, 396.142
321.939, 503.916
323.299, 553.311
324.660, 668.625
326.020, 719.458
327.380, 721.880
328.739, 690.298
330.099, 734.695
331.458, 635.065
332.817, 637.406
334.176, 652.722
335.534, 791.031
336.892, 916.338
338.251, 1221.643
339.608, 1437.947
340.966, 1988.251
342.323, 2544.553
343.681, 3515.856
345.037, 4639.155
346.394, 6179.450
347.751, 7898.748
349.107, 9523.045
350.463, 10777.351
351.819, 11071.656
353.174, 10335.971
354.530, 8940.291
355.885, 7004.622
357.240, 5628.620
358.594, 4132.083
359.949, 3184.628
361.303, 2353.167
362.657, 1780.319
364.011, 1518.723
365.365, 1142.143
366.718, 886.576
368.071, 684.023
369.424, 488.485
370.777, 398.464
372.129, 270.667
373.481, 158.245
374.833, 59.781
376.185, 23.422
377.537, 85.914
378.888, 53.364
380.239, 32.264
381.590, 44.446
382.941, 242.031
384.291, 449.637
385.642, 813.263
386.992, 1185.907
388.341, 1471.567
389.691, 1726.225
391.040, 1721.879
392.389, 1356.559
393.738, 987.267
395.087, 564.005
396.435, 408.768
397.784, 141.554
399.132, 47.357
400.479, 9.830
401.827, 127.059
403.174, 108.374
404.521, 244.772
405.868, 111.303
407.215, 171.917
408.561, 147.627
409.908, 105.424
411.254, 58.107
412.599, 65.369
413.945, 159.869
415.290, 376.906
416.636, 598.916
417.980, 821.358
419.325, 1251.194
420.670, 1740.703
422.014, 2513.991
423.358, 3471.219
424.702, 4366.167
426.045, 5260.115
427.389, 5930.188
428.732, 6840.701
430.075, 8073.795
431.417, 10377.690
432.760, 14461.596
434.102, 19875.508
435.444, 25059.436
436.786, 26553.375
438.127, 24887.326
439.469, 20221.309
440.810, 15035.310
442.151, 11359.335
443.492, 9063.392
444.832, 7857.460
446.172, 7511.560
447.512, 7975.684
448.852, 8779.836
450.192, 9703.562
451.531, 11057.308
452.870, 11991.144
454.209, 13325.418
455.548, 13809.739
456.887, 13794.113
458.225, 12668.529
459.563, 10582.991
460.901, 8517.492
462.238, 6316.049
463.576, 4646.667
464.913, 3523.366
466.250, 2516.142
467.587, 2012.994
468.923, 1469.909
470.259, 1224.875
471.596, 954.888
472.931, 777.953
474.267, 664.066
475.603, 469.222
476.938, 438.432
478.273, 323.692
479.608, 310.009
480.942, 276.363
482.276, 218.748
483.611, 267.152
484.944, 312.573
486.278, 382.006
487.612, 428.445
488.945, 522.888
490.278, 684.333
491.611, 847.782
492.943, 1256.233
494.276, 1751.688
495.608, 2417.145
496.940, 3528.604
498.271, 4436.067
499.603, 5542.532
500.934, 5905.999
502.265, 5681.469
503.596, 5307.939
504.927, 4861.414
506.257, 4805.889
507.587, 4950.366
508.917, 5483.844
510.247, 5971.324
511.577, 5783.807
512.906, 5351.288
514.235, 4378.852
515.564, 3350.444
516.892, 2534.942
518.221, 1853.690
519.549, 1404.271
520.877, 1072.965
522.205, 841.714
523.533, 664.393
524.860, 418.361
526.187, 294.116
527.514, 135.005
528.841, 164.790
530.167, 93.604
531.493, 62.483
532.820, 73.388
534.145, 10.181
535.471, 37.688
536.796, 19.250
538.122, 16.215
539.447, 58.948
540.771, 37.116
542.096, 104.793
543.420, 140.202
544.744, 160.530
546.068, 197.280
547.392, 248.581
548.715, 322.294
550.039, 364.820
551.362, 507.977
552.684, 584.192
554.007, 670.781
555.329, 773.116
556.652, 936.076
557.973, 1233.637
559.295, 1588.254
560.617, 2016.895
561.938, 3097.012
563.259, 4158.977
564.580, 5679.625
565.901, 6730.369
567.221, 6613.519
568.541, 5838.076
569.861, 4553.884
571.181, 3622.672
572.501, 2913.354
573.820, 2468.143
575.139, 2513.678
576.458, 2430.818
577.777, 2689.956
579.095, 3033.429
580.414, 3408.400
581.732, 4229.318
583.049, 5004.755
584.367, 6351.750
585.685, 7596.234
587.002, 8834.588
588.319, 9981.618
589.636, 10358.705
590.952, 10816.727
592.268, 11464.739
593.585, 12693.818
594.900, 14531.957
596.216, 16350.095
597.532, 18700.188
598.847, 19256.561
600.162, 18846.531
601.477, 17465.020
602.792, 15551.820
604.106, 14220.831
605.420, 12557.476
606.734, 11864.831
608.048, 11672.708
609.361, 11738.852
610.675, 12636.967
611.988, 13292.571
613.301, 14042.125
614.614, 14352.089
615.926, 13639.195
617.238, 12755.771
618.550, 10921.839
619.862, 9308.428
621.174, 7655.371
622.485, 6207.175
623.797, 5168.081
625.108, 4308.508
626.418, 3615.576
627.729, 3098.884
629.039, 2658.182
630.349, 2390.196
631.659, 2000.402
632.969, 1919.583
634.279, 1720.791
635.588, 1496.814
636.897, 1381.849
638.206, 1273.956
639.515, 1150.720
640.823, 1111.523
642.131, 971.240
643.439, 1007.059
644.747, 815.895
646.055, 827.540
647.362, 770.182
648.669, 695.778
649.976, 656.349
651.283, 553.895
652.589, 498.416
653.896, 454.912
655.202, 401.226
656.508, 362.829
657.814, 351.249
659.119, 299.644
660.424, 309.012
661.729, 283.355
663.034, 227.672
664.339, 196.964
665.643, 211.229
666.947, 226.468
668.251, 199.680
669.555, 224.865
670.859, 137.025
672.162, 130.156
673.465, 153.260
674.768, 94.338
676.071, 135.385
677.373, 109.405
678.676, 97.396
679.978, 114.357
681.280, 45.290
682.581, 96.191
683.883, 64.062
685.184, 88.902
686.485, 81.712
687.786, 66.491
689.087, 61.240
690.387, 34.956
691.687, 17.515
692.987, 46.158
694.287, 5.699
695.586, 2.787
696.886, 14.215
698.185, 37.692
699.484, 7.221
700.783, 5.798
702.081, 3.580
703.379, 5.084
704.677, 11.526
705.975, 8.446
707.273, 34.353
708.570, 35.214
709.868, 41.137
711.165, 21.125
712.462, 15.169
713.758, 5.736
715.055, 21.600
716.351, 40.570
717.647, 4.800
718.943, 13.946
720.238, 34.326
721.533, 17.390
722.829, 22.910
724.124, 10.234
725.418, 31.581
726.713, 32.971
728.007, 24.589
729.301, 28.885
730.595, 7.581
731.889, 18.007
733.182, 34.605
734.476, 8.721
735.769, 31.993
737.061, 27.231
738.354, 7.579
739.647, 32.438
740.939, 24.358
742.231, 22.337
743.523, 1.371
744.814, 2.451
746.106, 17.577
747.397, 17.756
748.688, 34.989
749.978, 20.285
751.269, 20.636
752.559, 52.041
753.849, 7.482
755.139, 51.034
756.429, 27.621
757.719, 1.266
759.008, 36.954
760.297, 0.295
761.586, 11.499
762.875, 20.341
764.163, 7.764
765.451, 25.169
766.739, 26.843
768.027, 49.178
769.315, 56.266
770.602, 11.424
771.890, 3.629
773.177, 4.123
774.463, 5.162
775.750, 11.490
777.036, 41.864
778.323, 28.298
779.609, 19.213
780.894, 0.306
782.180, 26.136
783.465, 21.548
784.750, 18.070
786.035, 30.266
787.320, 29.572
788.605, 17.849
789.889, 53.096
791.173, 43.316
792.457, 18.508
793.741, 110.671
795.024, 76.808
796.307, 113.920
797.591, 58.006
798.873, 46.067
800.156, 99.100
801.439, 77.110
802.721, 126.094
804.003, 139.054
805.285, 140.990
806.566, 155.902
807.848, 136.791
809.129, 180.656
810.410, 166.497
811.691, 248.315
812.971, 284.111
814.252, 281.884
815.532, 325.634
816.812, 339.361
818.092, 337.067
819.371, 421.751
820.651, 424.413
821.930, 566.053
823.209, 524.672
824.488, 686.270
825.766, 828.768
827.045, 855.215
828.323, 998.738
829.601, 1123.992
830.878, 1229.398
832.156, 1363.674
833.433, 1392.879
834.710, 1405.135
835.987, 1453.082
837.264, 1356.223
838.540, 1385.210
839.817, 1264.281
841.093, 1297.303
842.369, 1246.243
843.644, 1239.143
844.920, 1290.915
846.195, 1206.561
847.470, 1291.346
848.745, 1354.543
850.020, 1362.212
851.294, 1460.137
852.568, 1437.557
853.842, 1560.860
855.116, 1746.226
856.390, 1750.153
857.663, 1965.518
858.936, 2140.455
860.209, 2300.562
861.482, 2622.023
862.755, 2825.407
864.027, 3034.401
865.299, 3141.634
866.571, 3267.223
867.843, 3476.093
869.115, 3373.506
870.386, 3480.457
871.657, 3526.643
872.928, 3449.809
874.199, 3583.115
875.470, 3473.363
876.740, 3606.358
878.010, 3918.134
879.280, 4178.557
880.550, 4654.880
881.820, 5123.249
883.089, 5820.804
884.358, 6603.603
885.627, 7162.781
886.896, 7829.953
888.164, 7955.780
889.433, 7839.103
890.701, 7563.473
891.969, 6918.321
893.236, 6591.608
894.504, 6373.400
895.771, 6187.319
897.038, 6280.558
898.305, 6431.522
899.572, 6684.959
900.838, 7214.181
902.105, 7764.329
903.371, 8541.408
904.637, 9597.476
905.902, 10391.579
907.168, 12259.392
908.433, 13543.589
909.698, 15759.270
910.963, 18136.621
912.228, 21131.752
913.492, 24549.242
914.757, 27496.008
916.021, 32012.242
917.285, 33750.203
918.548, 35066.176
919.812, 33544.668
921.075, 29639.188
922.338, 26553.293
923.601, 22720.238
924.864, 18137.705
926.126, 15375.674
927.388, 12863.107
928.650, 10500.177
929.912, 9125.376
931.174, 7561.459
932.435, 6768.012
933.697, 5772.913
934.958, 5017.562
936.218, 4538.207
937.479, 3946.125
938.739, 3510.842
940.000, 3164.572
941.260, 2753.263
942.520, 2636.135
943.779, 2278.984
945.039, 2126.756
946.298, 1961.864
947.557, 1812.921
948.816, 1685.856
950.074, 1561.067
951.333, 1439.052
952.591, 1359.219
953.849, 1228.379
955.107, 1242.577
956.365, 1135.789
957.622, 1007.017
958.879, 1013.261
960.136, 942.522
961.393, 904.796
962.650, 944.085
963.906, 818.387
965.162, 868.707
966.418, 802.044
967.674, 775.398
968.930, 777.775
970.185, 763.169
971.441, 839.582
972.696, 808.013
973.950, 867.460
975.205, 965.924
976.459, 1033.405
977.714, 1345.913
978.968, 1518.439
980.222, 1236.981
981.475, 1313.540
982.729, 1184.117
983.982, 1062.712
985.235, 936.324
986.488, 658.955
987.740, 594.604
988.993, 417.270
990.245, 388.955
991.497, 369.657
992.749, 259.378
994.000, 231.117
995.252, 236.875
996.503, 180.655
997.754, 196.595
999.005, 109.417
1000.256, 136.267
1001.506, 178.563
1002.756, 139.478
1004.006, 185.530
1005.256, 126.293
1006.506, 126.290
1007.755, 169.444
1009.005, 141.823
1010.254, 230.288
1011.502, 223.351
1012.751, 324.507
1014.000, 384.166
1015.248, 466.933
1016.496, 664.339
1017.744, 859.776
1018.991, 930.655
1020.239, 1113.307
1021.486, 1050.441
1022.733, 976.876
1023.980, 937.344
1025.227, 701.919
1026.473, 643.456
1027.719, 529.028
1028.965, 475.629
1030.211, 476.268
1031.457, 430.063
1032.702, 444.768
1033.948, 569.512
1035.193, 575.289
1036.438, 711.099
1037.682, 713.957
1038.927, 864.852
1040.171, 1021.792
1041.415, 982.765
1042.659, 1149.771
1043.903, 1124.818
1045.146, 1040.902
1046.390, 978.023
1047.633, 842.177
1048.876, 681.358
1050.118, 578.577
1051.361, 499.828
1052.603, 469.117
1053.845, 380.438
1055.087, 324.792
1056.329, 337.191
1057.571, 318.617
1058.812, 315.085
1060.053, 382.587
1061.294, 325.116
1062.535, 350.682
1063.775, 360.277
1065.016, 303.901
1066.256, 362.556
1067.496, 270.236
1068.736, 339.949
1069.975, 279.683
1071.214, 277.456
1072.454, 446.270
1073.693, 461.112
1074.931, 519.980
1076.170, 641.873
1077.408, 843.792
1078.647, 1130.739
1079.885, 1417.721
1081.122, 1824.736
1082.360, 2596.771
1083.597, 3452.831
1084.835, 4863.910
1086.072, 6052.011
1087.308, 6429.749
1088.545, 6138.899
1089.781, 4784.067
1091.018, 3685.207
1092.254, 2710.715
1093.490, 1884.820
1094.725, 1460.044
1095.961, 1124.469
1097.196, 847.750
1098.431, 769.065
1099.666, 561.528
1100.900, 506.270
1102.135, 454.182
1103.369, 383.513
1104.603, 345.324
1105.837, 295.966
1107.071, 269.703
1108.304, 232.839
1109.538, 168.385
1110.771, 173.063
1112.004, 175.694
1113.236, 103.067
1114.469, 84.320
1115.701, 131.530
1116.933, 85.077
1118.165, 105.105
1119.397, 37.940
1120.629, 116.122
1121.860, 92.159
1123.091, 57.047
1124.322, 168.190
1125.553, 148.502
1126.783, 129.651
1128.014, 122.387
1129.244, 94.116
1130.474, 49.508
1131.704, 57.258
1132.933, 39.982
1134.163, 44.185
1135.392, 24.933
1136.621, 49.694
1137.850, 74.474
1139.079, 30.259
1140.307, 5.065
1141.535, 3.926
1142.763, 12.772
1143.991, 36.867
1145.219, 11.877
1146.446, 16.433
1147.674, 20.958
1148.901, 58.984
1150.128, 0.215
1151.354, 9.740
1152.581, 38.815
1153.807, 7.646
1155.033, 75.616
1156.259, 20.641
1157.485, 22.640
1158.710, 41.882
1159.936, 25.214
1161.161, 25.193
1162.386, 27.671
1163.611, 10.149
1164.835, 9.640
1166.060, 27.450
1167.284, 17.081
1168.508, 33.114
1169.732, 9.360
1170.955, 21.642
1172.179, 5.304
1173.402, 44.091
1174.625, 9.565
1175.848, 43.532
1177.070, 54.945
1178.293, 7.300
1179.515, 5.939
1180.737, 49.845
1181.959, 3.599
1183.181, 69.044
1184.402, 6.807
1185.624, 21.666
1186.845, 63.496
1188.066, 36.588
1189.286, 57.094
1190.507, 68.473
1191.727, 56.467
1192.947, 95.172
1194.167, 43.039
1195.387, 59.241
1196.607, 38.432
1197.826, 60.606
1199.045, 48.875
1200.264, 55.862
1201.483, 51.006
1202.702, 79.790
1203.920, 24.468
1205.138, 67.760
1206.356, 33.779
1207.574, 40.785
1208.792, 106.910
1210.009, 74.327
1211.227, 35.361
1212.444, 69.389
1213.661, 25.325
1214.877, 76.250
1216.094, 88.339
1217.310, 28.282
1218.526, 46.299
1219.742, 49.288
1220.958, 43.258
1222.173, 34.151
1223.389, 37.450
1224.604, 34.152
1225.819, 37.847
1227.034, 29.968
1228.248, 28.828
1229.463, 12.682
1230.677, 12.589
1231.891, 28.574
1233.105, 10.475
1234.318, 31.422
1235.532, 32.232
1236.745, 32.964
1237.958, 2.173
1239.171, 30.399
1240.384, 14.554
1241.596, 2.174
1242.809, 9.198
1244.021, 7.980
1245.233, 3.687
1246.444, 1.518
1247.656, 3.788
1248.867, 10.061
1250.079, 0.257
1251.290, 3.988
1252.500, 6.985
1253.711, 3.321
1254.921, 9.274
1256.132, 6.964
1257.342, 9.173
1258.552, 3.921
1259.761, 1.142
1260.971, 0.387
1262.180, 20.089
1263.389, 5.427
1264.598, 7.080
1265.807, 4.399
1267.015, 8.137
1268.223, 12.583
1269.432, 8.018
1270.640, 26.549
1271.847, 9.841
1273.055, 23.249
1274.262, 49.629
1275.470, 6.976
1276.677, 33.271
1277.883, 60.548
1279.090, 14.800
1280.296, 52.022
1281.503, 55.251
1282.709, 48.436
1283.915, 51.593
1285.120, 50.217
1286.326, 41.364
1287.531, 48.811
1288.736, 26.819
1289.941, 22.799
1291.146, 22.006
1292.350, 17.345
1293.555, 33.467
1294.759, 26.936
1295.963, 34.798
1297.167, 53.540
1298.370, 20.579
1299.574, 14.394
1300.777, 42.060
1301.980, 7.509
1303.183, 21.115
1304.386, 34.671
1305.588, 17.379
1306.790, 19.603
1307.993, 19.736
1309.195, 0.757
1310.396, 33.732
1311.598, 14.216
1312.799, 59.119
1314.000, 0.064
1315.201, 12.539
1316.402, 45.957
1317.603, 13.639
1318.803, 25.807
1320.003, 69.231
1321.203, 29.634
1322.403, 1.987
1323.603, 39.252
1324.802, 15.582
1326.002, 1.116
1327.201, 11.842
1328.400, 16.601
1329.599, 17.881
1330.797, 1.221
1331.995, 21.077
1333.194, 32.032
1334.392, 10.118
1335.589, 23.178
1336.787, 16.215
1337.985, 21.229
1339.182, 50.220
1340.379, 13.192
1341.576, 53.346
1342.772, 47.226
1343.969, 83.975
1345.165, 56.863
1346.361, 25.731
1347.557, 29.577
1348.753, 47.399
1349.949, 76.201
1351.144, 78.983
1352.339, 59.745
1353.534, 41.488
1354.729, 71.210
1355.924, 71.912
1357.118, 93.596
1358.312, 95.262
1359.506, 62.910
1360.700, 89.540
1361.894, 71.152
1363.088, 76.746
1364.281, 80.322
1365.474, 113.882
1366.667, 89.424
1367.860, 93.951
1369.052, 116.461
1370.245, 58.955
1371.437, 103.434
1372.629, 118.898
1373.821, 85.347
1375.013, 69.783
1376.204, 73.206
1377.395, 81.008
1378.586, 125.408
1379.777, 120.852
1380.968, 95.284
1382.159, 96.344
1383.349, 71.806
1384.539, 102.398
1385.729, 54.089
1386.919, 83.203
1388.109, 131.280
1389.298, 74.746
1390.487, 86.655
1391.676, 85.868
1392.865, 68.281
1394.054, 123.220
1395.242, 101.957
1396.431, 82.297
1397.619, 98.851
1398.807, 66.589
1399.995, 108.206
1401.182, 106.573
1402.370, 54.705
1403.557, 101.310
1404.744, 94.419
1405.931, 93.496
1407.118, 114.462
1408.304, 96.672
1409.490, 53.295
1410.676, 148.622
1411.862, 110.307
1413.048, 93.444
1414.234, 131.818
1415.419, 82.740
1416.604, 84.850
1417.789, 85.715
1418.974, 93.814
1420.159, 118.334
1421.343, 105.581
1422.528, 94.015
1423.712, 76.827
1424.896, 97.335
1426.079, 126.810
1427.263, 111.488
1428.446, 79.721
1429.629, 125.382
1430.812, 77.217
1431.995, 82.152
1433.178, 121.763
1434.360, 84.757
1435.543, 98.181
1436.725, 108.413
1437.907, 77.397
1439.088, 77.604
1440.270, 106.205
1441.451, 63.540
1442.632, 77.714
1443.813, 83.902
1444.994, 69.006
1446.175, 102.280
1447.355, 86.541
1448.535, 67.326
1449.715, 100.415
1450.895, 71.065
1452.075, 82.025
1453.255, 103.076
1454.434, 27.919
1455.613, 81.329
1456.792, 96.135
1457.971, 68.722
1459.149, 89.121
1460.328, 116.902
1461.506, 88.533
1462.684, 103.005
1463.862, 104.109
1465.040, 116.649
1466.217, 99.064
1467.395, 68.739
1468.572, 84.012
1469.749, 81.189
1470.925, 59.199
1472.102, 79.364
1473.278, 70.606
1474.455, 45.824
1475.631, 80.122
1476.807, 68.646
1477.982, 61.359
1479.158, 106.157
1480.333, 79.954
1481.508, 45.782
1482.683, 109.598
1483.858, 12.393
1485.033, 83.163
1486.207, 61.901
1487.381, 63.622
1488.555, 82.334
1489.729, 73.819
1490.903, 77.437
1492.076, 55.199
1493.250, 81.892
1494.423, 52.604
1495.596, 73.337
1496.769, 21.130
1497.941, 3.977
1499.114, 50.886
1500.286, 39.856
1501.458, 88.869
1502.630, 32.901
1503.802, 34.953
1504.973, 41.019
1506.145, 35.131
1507.316, 30.298
