##NAMES=Epidote
##RRUFFID=R050303
##IDEAL CHEMISTRY=Ca_2_Fe^3+^Al_2_(Si_2_O_7_)(SiO_4_)O(OH)
##LOCALITY=San Martin mine, Zacatecas, Mexico
##OWNER=RRUFF
##SOURCE=Eugene Schlepp
##DESCRIPTION=Green elongated prismatic crystals
##STATUS=The identification of this mineral has been confirmed by X-ray diffraction and chemical analysis
##URL=rruff.info/R050303
##MEASURED CHEMISTRY=Ca_2.00_Al_2.00_(Fe^3+^_0.97_Al_0.03_)(SiO_4_)(Si_2_O_7_)O(OH)
##PIN_ID=L00691
##ORIENTATION=Laser parallel to -b* (0 -1 0). Fiducial mark perpendicular to laser is parallel to -c [0 0 -1]
53.91000, 0.0000000E+00
55.14900, 138.6260
56.38700, 279.1201
57.62600, 621.2412
58.86400, 806.4014
60.10300, 1164.832
61.34100, 884.3740
62.57900, 488.0818
63.81700, 180.6895
65.05400, 81.52637
66.29200, 168.3394
67.52900, 110.4727
68.76700, 23.40332
70.00400, 120.6719
71.24100, 139.7734
72.47700, 452.1997
73.71400, 1067.487
74.95100, 2069.181
76.18700, 3092.895
77.42300, 4518.345
78.65900, 6435.280
79.89500, 9220.440
81.13100, 12925.58
82.36700, 17324.48
83.60200, 22112.90
84.83700, 26975.67
86.07200, 31567.59
87.30800, 34897.50
88.54200, 35406.25
89.77700, 34017.70
91.01200, 30562.71
92.24600, 25976.11
93.48000, 21396.72
94.71400, 17247.33
95.94800, 14122.84
97.18200, 11452.36
98.41600, 9656.023
99.64900, 8246.870
100.8830, 6863.775
102.1160, 6047.600
103.3490, 5571.233
104.5820, 5546.572
105.8150, 6203.530
107.0470, 5770.604
108.2800, 5471.993
109.5120, 5599.345
110.7440, 4564.049
111.9760, 4382.045
113.2080, 4570.281
114.4400, 4779.716
115.6710, 4879.309
116.9030, 5202.021
118.1340, 5647.822
119.3650, 6272.678
120.5960, 7621.555
121.8270, 9575.432
123.0580, 12036.28
124.2880, 14668.07
125.5190, 18590.79
126.7490, 23019.41
127.9790, 27213.80
129.2090, 30296.47
130.4390, 30203.33
131.6680, 26997.29
132.8980, 22223.29
134.1270, 17676.10
135.3560, 13921.99
136.5850, 11365.02
137.8140, 9301.853
139.0430, 8166.104
140.2710, 7302.146
141.5000, 7029.973
142.7280, 6797.076
143.9560, 6586.477
145.1840, 5806.156
146.4120, 5434.002
147.6390, 4879.033
148.8670, 4235.270
150.0940, 4507.722
151.3210, 4586.410
152.5490, 4784.342
153.7750, 5494.534
155.0020, 6210.992
156.2290, 7141.727
157.4550, 8506.744
158.6810, 10020.05
159.9080, 12046.66
161.1340, 14090.57
162.3590, 16081.78
163.5850, 17280.30
164.8110, 17761.14
166.0360, 17273.30
167.2610, 16185.78
168.4860, 14467.59
169.7110, 12914.72
170.9360, 11060.18
172.1610, 9125.964
173.3850, 7682.085
174.6100, 6350.535
175.8340, 5154.317
177.0580, 4150.432
178.2820, 3521.877
179.5050, 3198.653
180.7290, 2725.764
181.9520, 2372.206
183.1760, 2139.981
184.3990, 2111.090
185.6220, 2212.531
186.8450, 2325.306
188.0670, 2433.413
189.2900, 2870.853
190.5120, 3121.627
191.7340, 3684.734
192.9560, 4522.173
194.1780, 5121.947
195.4000, 5964.051
196.6220, 6770.491
197.8430, 7529.261
199.0640, 8445.364
200.2860, 8655.796
201.5070, 8680.470
202.7270, 8415.755
203.9480, 7737.674
205.1690, 7483.323
206.3890, 7274.871
207.6090, 7500.053
208.8290, 7566.812
210.0490, 8163.146
211.2690, 8777.720
212.4890, 9988.538
213.7080, 11080.83
214.9280, 12617.39
216.1470, 14412.18
217.3660, 16274.52
218.5850, 18336.30
219.8030, 20507.97
221.0220, 22931.26
222.2400, 24511.99
223.4590, 25865.62
224.6770, 26268.49
225.8950, 25554.09
227.1120, 23948.21
228.3300, 21501.95
229.5480, 19245.71
230.7650, 17557.42
231.9820, 16421.53
233.1990, 15384.09
234.4160, 15449.62
235.6330, 15807.62
236.8490, 16486.08
238.0660, 16703.00
239.2820, 16482.35
240.4980, 15803.13
241.7140, 14278.34
242.9300, 12078.96
244.1460, 10513.98
245.3610, 8473.411
246.5770, 6733.223
247.7920, 5353.414
249.0070, 4226.977
250.2220, 3357.904
251.4370, 2615.188
252.6510, 2222.822
253.8660, 1984.802
255.0800, 1705.119
256.2940, 1825.770
257.5080, 1962.556
258.7220, 2175.107
259.9360, 2904.664
261.1490, 3220.595
262.3630, 4321.834
263.5760, 5588.377
264.7890, 7307.221
266.0020, 9379.361
267.2150, 11858.79
268.4270, 14956.51
269.6400, 17913.52
270.8520, 20616.80
272.0640, 21262.37
273.2760, 20318.21
274.4880, 18010.31
275.7000, 15045.70
276.9120, 12146.35
278.1230, 9860.279
279.3340, 8397.480
280.5450, 7450.957
281.7560, 7287.711
282.9670, 7505.736
284.1780, 8230.028
285.3880, 9122.577
286.5980, 10583.37
287.8090, 11927.39
289.0190, 12657.65
290.2290, 13153.12
291.4380, 12710.81
292.6480, 12060.73
293.8570, 11054.87
295.0670, 10145.23
296.2760, 8965.810
297.4850, 7594.612
298.6930, 6461.643
299.9020, 5326.896
301.1110, 4627.371
302.3190, 3848.072
303.5270, 3233.996
304.7350, 2811.145
305.9430, 2226.516
307.1510, 1955.109
308.3580, 1677.929
309.5660, 1376.969
310.7730, 1361.233
311.9800, 1639.721
313.1870, 2019.430
314.3940, 2370.362
315.6010, 3302.517
316.8070, 3941.893
318.0130, 5037.490
319.2200, 5981.310
320.4260, 6334.350
321.6310, 6614.610
322.8370, 6547.091
324.0430, 5775.789
325.2480, 4827.711
326.4540, 3809.851
327.6590, 3109.207
328.8640, 2412.781
330.0680, 1785.575
331.2730, 1771.586
332.4780, 1516.812
333.6820, 1942.256
334.8860, 2401.915
336.0900, 2974.787
337.2940, 3762.874
338.4980, 4739.174
339.7010, 5883.688
340.9050, 7363.410
342.1080, 9011.345
343.3110, 10013.49
344.5140, 10928.85
345.7170, 11481.41
346.9200, 11160.25
348.1220, 10567.37
349.3240, 9099.779
350.5270, 7915.484
351.7290, 6172.486
352.9310, 5075.797
354.1320, 3747.422
355.3340, 2750.361
356.5350, 1625.622
357.7370, 1100.239
358.9380, 537.2158
360.1390, 144.4814
361.3400, 535.9824
362.5400, 855.4424
363.7410, 934.9961
364.9410, 1189.683
366.1410, 1410.612
367.3410, 1577.893
368.5410, 1697.601
369.7410, 1734.795
370.9400, 1750.494
372.1400, 1640.109
373.3390, 1446.093
374.5380, 1210.459
375.7370, 784.7998
376.9360, 332.2393
378.1350, 254.4062
379.3330, 671.3037
380.5310, 1350.451
381.7300, 2153.848
382.9280, 3119.488
384.1260, 3632.377
385.3230, 3920.509
386.5210, 4170.883
387.7180, 3783.500
388.9160, 3381.355
390.1130, 2502.452
391.3100, 1930.785
392.5060, 1798.356
393.7030, 867.1621
394.9000, 540.2021
396.0960, 374.4756
397.2920, 376.9814
398.4880, 218.7178
399.6840, 378.6846
400.8800, 551.8799
402.0750, 898.3047
403.2710, 1313.955
404.4660, 1808.832
405.6610, 2360.936
406.8560, 3377.263
408.0510, 4379.812
409.2450, 5797.586
410.4400, 7664.582
411.6340, 9828.797
412.8280, 12772.23
414.0220, 15889.89
415.2160, 19988.76
416.4100, 24373.85
417.6030, 29110.16
418.7970, 33498.69
419.9900, 36950.46
421.1830, 38440.48
422.3760, 38568.73
423.5690, 36801.27
424.7610, 34381.10
425.9540, 31485.20
427.1460, 29536.58
428.3380, 27714.26
429.5300, 26394.24
430.7220, 24997.54
431.9140, 23712.18
433.1050, 22806.14
434.2970, 21674.43
435.4880, 20935.05
436.6790, 20943.01
437.8700, 21718.29
439.0610, 23187.30
440.2510, 25562.87
441.4420, 28264.16
442.6320, 32163.79
443.8220, 36351.72
445.0120, 40398.95
446.2020, 43775.47
447.3910, 46002.32
448.5810, 46811.46
449.7700, 46552.92
450.9600, 45542.71
452.1490, 43502.78
453.3370, 41197.14
454.5260, 37750.80
455.7150, 34110.77
456.9030, 29998.05
458.0910, 25511.61
459.2800, 21845.46
460.4670, 18210.62
461.6550, 15248.06
462.8430, 12720.78
464.0300, 10597.78
465.2180, 8776.043
466.4050, 7136.564
467.5920, 6051.357
468.7790, 5129.416
469.9650, 4280.762
471.1520, 3683.365
472.3380, 3307.193
473.5250, 2957.275
474.7110, 2713.559
475.8970, 2772.064
477.0820, 2718.763
478.2680, 2990.667
479.4540, 3199.775
480.6390, 3379.072
481.8240, 3799.564
483.0090, 4270.250
484.1940, 4939.135
485.3780, 5605.211
486.5630, 6945.463
487.7470, 8132.893
488.9320, 9217.492
490.1160, 10410.27
491.3000, 12008.21
492.4830, 13562.31
493.6670, 14829.56
494.8500, 16039.96
496.0340, 16809.52
497.2170, 17182.24
498.4000, 17068.11
499.5820, 17372.14
500.7650, 17189.32
501.9480, 17457.63
503.1300, 17814.15
504.3120, 18188.36
505.4940, 18392.04
506.6760, 18680.72
507.8580, 18189.62
509.0390, 17673.90
510.2210, 17189.11
511.4020, 17161.82
512.5830, 17050.58
513.7640, 17750.57
514.9450, 18543.65
516.1250, 19550.43
517.3060, 20465.92
518.4860, 20997.98
519.6660, 20502.71
520.8460, 18723.38
522.0260, 16590.21
523.2060, 13828.20
524.3850, 11272.34
525.5650, 8968.639
526.7440, 7011.088
527.9230, 5694.688
529.1020, 4342.434
530.2810, 3235.329
531.4590, 2648.369
532.6380, 2080.551
533.8160, 1665.877
534.9940, 1431.342
536.1720, 1318.945
537.3500, 1335.687
538.5270, 1203.564
539.7050, 1430.574
540.8820, 1758.717
542.0590, 1881.800
543.2360, 2322.391
544.4130, 2662.920
545.5900, 3123.574
546.7660, 4059.353
547.9430, 4970.252
549.1190, 6155.273
550.2950, 7773.414
551.4710, 9910.670
552.6470, 12742.04
553.8220, 16306.53
554.9980, 20301.12
556.1730, 25473.84
557.3480, 31747.65
558.5230, 38015.62
559.6980, 44100.38
560.8730, 48237.22
562.0470, 48033.18
563.2220, 44488.26
564.3960, 37879.83
565.5700, 30625.42
566.7440, 24375.15
567.9170, 19435.12
569.0910, 15903.49
570.2640, 13343.53
571.4380, 12231.74
572.6110, 11175.92
573.7840, 11083.32
574.9570, 11344.57
576.1290, 11912.47
577.3020, 12849.86
578.4740, 14285.66
579.6460, 15475.82
580.8180, 17023.05
581.9900, 18312.51
583.1620, 19489.69
584.3330, 20375.13
585.5040, 21379.92
586.6760, 22749.15
587.8470, 24209.97
589.0180, 26107.30
590.1880, 27965.25
591.3590, 30247.91
592.5290, 32529.52
593.7000, 34061.87
594.8700, 34404.71
596.0400, 34570.75
597.2090, 33231.20
598.3790, 31746.73
599.5490, 28483.37
600.7180, 26109.04
601.8870, 23570.05
603.0560, 21383.12
604.2250, 19717.00
605.3940, 18142.72
606.5620, 16879.70
607.7300, 15856.87
608.8990, 14919.34
610.0670, 14046.28
611.2350, 13087.02
612.4020, 11946.33
613.5700, 10644.97
614.7370, 9375.132
615.9050, 8474.292
617.0720, 7173.482
618.2390, 6207.738
619.4060, 5659.775
620.5720, 4700.711
621.7390, 3941.609
622.9050, 3427.351
624.0710, 2966.453
625.2370, 2703.441
626.4030, 2285.228
627.5690, 2035.550
628.7340, 1705.135
629.9000, 1410.945
631.0650, 1303.579
632.2300, 1175.519
633.3950, 1085.685
634.5600, 863.4941
635.7240, 763.4072
636.8890, 608.2090
638.0530, 663.6982
639.2170, 502.9727
640.3810, 485.6182
641.5450, 390.2529
642.7080, 455.1074
643.8720, 392.3828
645.0350, 299.8389
646.1980, 280.3584
647.3610, 216.9102
648.5240, 249.6396
649.6870, 320.0840
650.8490, 209.5146
652.0120, 103.0234
653.1740, 366.8291
654.3360, 291.9326
655.4980, 323.3115
656.6600, 401.9170
657.8210, 407.6963
658.9830, 307.7246
660.1440, 483.1631
661.3050, 614.1709
662.4660, 703.1270
663.6270, 624.3789
664.7870, 761.9111
665.9480, 812.6484
667.1080, 859.6826
668.2680, 1027.359
669.4280, 972.4229
670.5880, 1286.461
671.7480, 1212.267
672.9070, 1307.961
674.0670, 1472.542
675.2260, 1492.009
676.3850, 1691.360
677.5440, 1878.596
678.7030, 1948.423
679.8610, 2086.311
681.0200, 2155.588
682.1780, 2227.344
683.3360, 2304.977
684.4940, 2316.484
685.6520, 2121.867
686.8090, 2074.123
687.9670, 1797.252
689.1240, 1696.253
690.2810, 1455.123
691.4380, 1150.861
692.5950, 898.4678
693.7520, 762.9414
694.9080, 494.2803
696.0650, 400.4834
697.2210, 256.7227
698.3770, 123.4775
699.5330, 82.24414
700.6880, 14.83887
701.8440, 18.22754
702.9990, 143.5928
704.1550, 106.7080
705.3100, 72.10254
706.4650, 102.7603
707.6190, 215.7002
708.7740, 189.9849
709.9290, 283.6030
711.0830, 294.7637
712.2370, 294.0024
713.3910, 271.7935
714.5450, 325.9707
715.6980, 314.4517
716.8520, 285.5688
718.0050, 319.9736
719.1580, 349.7959
720.3110, 319.0552
721.4640, 327.7349
722.6170, 217.8418
723.7700, 189.3198
724.9220, 210.1416
726.0740, 217.7329
727.2260, 207.9399
728.3780, 327.8896
729.5300, 210.2744
730.6810, 240.0322
731.8330, 155.1797
732.9840, 257.6729
734.1350, 180.5669
735.2860, 297.8208
736.4370, 139.4971
737.5880, 236.5122
738.7380, 236.9180
739.8880, 194.7144
741.0390, 147.8794
742.1890, 161.3887
743.3380, 159.2480
744.4880, 84.45801
745.6380, 151.9766
746.7870, 141.8403
747.9360, 230.0435
749.0850, 116.6313
750.2340, 0.4570310
751.3830, 117.7178
752.5310, 84.78467
753.6800, 1.934082
754.8280, 116.0859
755.9760, 44.89551
757.1240, 47.47070
758.2720, 116.8135
759.4190, 75.94775
760.5670, 77.86328
761.7140, 34.56201
762.8610, 62.02637
764.0080, 209.2710
765.1550, 172.3276
766.3020, 211.1904
767.4480, 135.8662
768.5950, 197.3438
769.7410, 611.6343
770.8870, 374.0542
772.0330, 677.7471
773.1780, 216.5698
774.3240, 217.2114
775.4690, 234.6738
776.6140, 243.9585
777.7590, 379.0684
778.9040, 370.0181
780.0490, 252.8081
781.1940, 396.4268
782.3380, 377.8882
783.4820, 381.1914
784.6260, 581.3364
785.7700, 546.3350
786.9140, 446.1841
788.0580, 476.8794
789.2010, 566.4219
790.3450, 642.8140
791.4880, 613.0547
792.6310, 756.1440
793.7730, 791.0796
794.9160, 830.8613
796.0590, 757.4893
797.2010, 888.9629
798.3430, 973.2817
799.4850, 1147.448
800.6270, 1213.461
801.7690, 1306.323
802.9100, 1309.034
804.0520, 1479.562
805.1930, 1466.004
806.3340, 1796.265
807.4750, 1873.378
808.6160, 2035.344
809.7560, 2144.164
810.8970, 2279.837
812.0370, 2511.366
813.1770, 2699.752
814.3170, 2971.993
815.4570, 3281.092
816.5960, 3640.049
817.7360, 4069.866
818.8750, 4651.543
820.0140, 4937.082
821.1530, 5488.482
822.2920, 5914.745
823.4310, 6311.873
824.5690, 6877.864
825.7070, 7093.723
826.8460, 7376.448
827.9840, 7180.039
829.1220, 7010.499
830.2590, 6790.831
831.3970, 6582.031
832.5340, 6115.104
833.6710, 5698.049
834.8080, 5691.824
835.9450, 5202.793
837.0820, 5046.648
838.2190, 5027.380
839.3550, 4951.958
840.4910, 4868.313
841.6270, 4844.263
842.7630, 4801.908
843.8990, 4815.503
845.0350, 4901.680
846.1700, 4973.150
847.3060, 5343.433
848.4410, 5457.716
849.5760, 5810.757
850.7100, 5999.915
851.8450, 6386.405
852.9800, 6553.363
854.1140, 7246.889
855.2480, 7735.023
856.3820, 8160.066
857.5160, 8503.834
858.6500, 8971.850
859.7830, 9515.584
860.9170, 10116.93
862.0500, 10853.82
863.1830, 11277.06
864.3160, 11763.78
865.4480, 11942.83
866.5810, 12511.14
867.7130, 12675.47
868.8460, 12948.02
869.9780, 12978.05
871.1100, 13098.83
872.2410, 12938.18
873.3730, 13030.41
874.5050, 12766.51
875.6360, 12398.55
876.7670, 12252.22
877.8980, 11726.84
879.0290, 11421.59
880.1590, 11031.48
881.2900, 10760.09
882.4200, 10629.49
883.5500, 10290.56
884.6800, 10473.14
885.8100, 10415.93
886.9400, 10634.12
888.0690, 10946.99
889.1990, 11500.32
890.3280, 12088.61
891.4570, 12672.85
892.5860, 13670.03
893.7140, 14763.42
894.8430, 16090.88
895.9710, 17525.38
897.1000, 19219.01
898.2280, 20963.25
899.3560, 23051.61
900.4830, 25675.17
901.6110, 28439.19
902.7380, 31662.92
903.8660, 34930.38
904.9930, 38427.00
906.1200, 42227.32
907.2460, 46217.38
908.3730, 49758.81
909.5000, 53054.09
910.6260, 54931.47
911.7520, 56355.14
912.8780, 56433.96
914.0040, 54992.38
915.1290, 52513.79
916.2550, 48751.94
917.3800, 43594.71
918.5050, 39147.36
919.6300, 34167.10
920.7550, 29842.98
921.8800, 26122.88
923.0040, 22356.38
924.1290, 19422.21
925.2530, 17076.30
926.3770, 14597.43
927.5010, 13142.61
928.6250, 11294.85
929.7480, 10156.14
930.8720, 9105.482
931.9950, 8041.877
933.1180, 7355.328
934.2410, 6487.820
935.3640, 5978.359
936.4860, 5552.946
937.6090, 4877.580
938.7310, 4721.264
939.8530, 4383.998
940.9750, 4091.783
942.0970, 3756.622
943.2180, 3715.513
944.3400, 3523.462
945.4610, 3290.468
946.5820, 3349.530
947.7030, 3251.655
948.8240, 3203.838
949.9450, 3190.084
951.0650, 3087.390
952.1860, 3211.758
953.3060, 3153.978
954.4260, 3207.682
955.5460, 3174.238
956.6650, 3223.865
957.7850, 3271.559
958.9040, 3250.319
960.0230, 3266.146
961.1420, 3428.044
962.2610, 3479.018
963.3800, 3521.044
964.4990, 3813.160
965.6170, 4118.348
966.7350, 4494.609
967.8530, 4872.943
968.9710, 5769.355
970.0890, 6377.844
971.2070, 7353.418
972.3240, 8585.085
973.4410, 9666.863
974.5580, 10810.75
975.6750, 11455.80
976.7920, 11840.99
977.9090, 11800.33
979.0250, 11122.81
980.1410, 10043.48
981.2580, 8931.317
982.3740, 7671.365
983.4890, 6630.621
984.6050, 5503.084
985.7200, 4688.754
986.8360, 3965.644
987.9510, 3414.751
989.0660, 2907.068
990.1810, 2478.609
991.2950, 2096.381
992.4100, 1716.373
993.5240, 1465.600
994.6390, 1235.023
995.7530, 1092.639
996.8660, 835.4512
997.9800, 734.4639
999.0940, 635.6758
1000.207, 411.1172
1001.320, 409.7637
1002.433, 385.6162
1003.546, 121.6650
1004.659, 220.0322
1005.772, 203.4951
1006.884, 102.3633
1007.996, 232.1562
1009.108, 228.7910
1010.220, 409.5186
1011.332, 386.9609
1012.444, 524.3584
1013.555, 547.2305
1014.666, 609.5459
1015.777, 822.2539
1016.888, 851.5908
1017.999, 1068.286
1019.110, 1209.352
1020.220, 1452.361
1021.331, 1589.535
1022.441, 2071.147
1023.551, 2299.623
1024.661, 2718.336
1025.770, 3234.652
1026.880, 3643.560
1027.989, 4185.178
1029.098, 4993.824
1030.207, 5759.233
1031.316, 6624.363
1032.425, 7474.507
1033.533, 8317.561
1034.642, 8823.520
1035.750, 9554.285
1036.858, 9792.221
1037.966, 10103.37
1039.073, 10005.28
1040.181, 9636.896
1041.288, 9543.172
1042.396, 8813.471
1043.503, 8308.709
1044.610, 7902.697
1045.716, 7275.660
1046.823, 6757.551
1047.929, 6382.786
1049.036, 6186.762
1050.142, 6082.906
1051.248, 6041.019
1052.353, 6126.794
1053.459, 6580.778
1054.564, 6986.328
1055.670, 7436.646
1056.775, 7695.024
1057.880, 7829.449
1058.985, 7984.299
1060.089, 7826.900
1061.194, 7500.680
1062.298, 7308.555
1063.402, 7166.115
1064.506, 6763.191
1065.610, 6791.139
1066.713, 6695.641
1067.817, 7133.217
1068.920, 7775.869
1070.023, 8053.595
1071.126, 8985.396
1072.229, 9934.274
1073.332, 11396.39
1074.435, 13048.41
1075.537, 14940.52
1076.639, 17053.00
1077.741, 19868.82
1078.843, 22901.13
1079.945, 25614.45
1081.046, 28175.91
1082.148, 29586.11
1083.249, 29657.69
1084.350, 27657.35
1085.451, 24525.07
1086.551, 20669.92
1087.652, 16862.77
1088.752, 13559.67
1089.853, 10662.64
1090.953, 8336.705
1092.053, 6658.809
1093.152, 5385.973
1094.252, 4345.196
1095.351, 3640.481
1096.451, 3011.860
1097.550, 2441.264
1098.649, 2111.726
1099.748, 1973.245
1100.846, 1680.129
1101.945, 1592.762
1103.043, 1236.451
1104.141, 1194.195
1105.239, 1076.994
1106.337, 1008.847
1107.434, 806.7520
1108.532, 894.7109
1109.629, 645.7188
1110.726, 596.8164
1111.823, 654.9248
1112.920, 561.0801
1114.017, 613.9775
1115.113, 542.2256
1116.210, 563.5186
1117.306, 752.9248
1118.402, 662.3027
1119.498, 603.7227
1120.593, 586.1816
1121.689, 477.2363
1122.784, 458.7700
1123.879, 421.3394
1124.974, 428.3438
1126.069, 234.9800
1127.164, 374.6484
1128.259, 282.3467
1129.353, 159.0747
1130.447, 216.8306
1131.541, 126.6621
1132.635, 105.9189
1133.729, 35.75195
1134.822, 45.25391
1135.916, 2.155273
1137.009, 15.29688
1138.102, 51.78516
1139.195, 73.86279
1140.288, 60.94434
1141.380, 134.9829
1142.473, 120.8760
1143.565, 87.75049
1144.657, 17.31836
1145.749, 120.6943
1146.841, 99.63232
1147.932, 151.8257
1149.024, 32.62695
1150.115, 286.1157
1151.206, 65.47656
1152.297, 212.8242
1153.388, 103.2104
1154.479, 72.62744
1155.569, 94.31689
1156.659, 199.8853
1157.750, 168.2173
1158.839, 54.50879
1159.929, 171.1870
1161.019, 123.6602
1162.108, 72.55420
1163.198, 145.9443
1164.287, 244.3286
1165.376, 113.2319
1166.465, 85.32764
1167.553, 1.012695
1168.642, 120.7974
1169.730, 164.5405
1170.818, 64.11914
1171.906, 178.8901
1172.994, 49.58105
1174.082, 82.08105
1175.170, 34.76465
1176.257, 11.29590
1177.344, 76.83252
1178.431, 99.62744
1179.518, 55.55518
1180.605, 36.25732
1181.691, 30.18994
1182.778, 2.760254
1183.864, 20.33838
1184.950, 95.64893
1186.036, 53.29736
1187.122, 98.89404
1188.207, 42.23877
1189.292, 31.51123
1190.378, 59.55957
1191.463, 40.35645
1192.548, 61.87354
1193.632, 5.710449
1194.717, 39.76465
1195.801, 47.20654
1196.886, 155.6167
1197.970, 118.6396
1199.054, 179.2734
1200.137, 123.0718
1201.221, 128.0630
1202.305, 292.1997
1203.388, 112.3848
1204.471, 177.5659
1205.554, 280.0986
1206.637, 113.2422
1207.719, 105.1338
1208.802, 175.3037
1209.884, 99.15674
1210.966, 159.2720
1212.048, 112.9902
1213.130, 343.7803
1214.212, 155.2778
1215.293, 257.0605
1216.374, 154.8638
1217.456, 278.5811
1218.536, 121.0479
1219.617, 171.4624
1220.698, 170.8335
1221.778, 207.1602
1222.859, 256.4443
1223.939, 218.6841
1225.019, 201.9048
1226.099, 113.0547
1227.178, 293.1396
1228.258, 197.1797
1229.337, 391.1724
1230.417, 180.1182
1231.496, 339.0127
1232.574, 227.8594
1233.653, 311.6577
1234.732, 297.4072
1235.810, 240.1074
1236.888, 324.7583
1237.966, 313.3589
