##NAMES=Epididymite
##RRUFFID=R060773
##IDEAL CHEMISTRY=Na_2_Be_2_Si_6_O_15_&#183;H_2_O
##LOCALITY=unknown
##OWNER=RRUFF
##SOURCE=Michael Scott
##DESCRIPTION=Colorless platy crystals forming a pseudohexagonal aggregate
##STATUS=The identification of this mineral has been confirmed by single-crystal X-ray diffraction.
##URL=rruff.info/R060773
##PIN_ID=M00148
##ORIENTATION=Laser parallel to c* (0 0 1). Fiducial mark perpendicular to laser is parallel to a [1 0 0]
102.1160, 0.0000000E+00
103.3490, 149.1152
104.5820, 16.79688
105.8150, 54.81250
107.0470, 263.9824
108.2800, 299.1768
109.5120, 384.6953
110.7440, 613.4766
111.9760, 548.6172
113.2080, 750.6211
114.4400, 1023.019
115.6710, 1268.765
116.9030, 1761.006
118.1340, 2469.977
119.3650, 2917.008
120.5960, 3747.534
121.8270, 4338.073
123.0580, 4809.218
124.2880, 4961.746
125.5190, 5166.727
126.7490, 6065.040
127.9790, 7477.491
129.2090, 9773.920
130.4390, 11690.05
131.6680, 12842.61
132.8980, 12314.40
134.1270, 10399.23
135.3560, 8111.948
136.5850, 5833.441
137.8140, 3907.604
139.0430, 2569.344
140.2710, 1704.578
141.5000, 971.2393
142.7280, 864.2764
143.9560, 803.6523
145.1840, 600.9424
146.4120, 662.6455
147.6390, 558.6055
148.8670, 745.0713
150.0940, 654.8311
151.3210, 731.6436
152.5490, 570.3730
153.7750, 650.9424
155.0020, 702.3281
156.2290, 294.5771
157.4550, 540.4492
158.6810, 561.9736
159.9080, 694.1768
161.1340, 1029.084
162.3590, 1212.712
163.5850, 1840.079
164.8110, 2383.201
166.0360, 2628.093
167.2610, 2716.007
168.4860, 2777.234
169.7110, 2329.506
170.9360, 1957.591
172.1610, 1377.500
173.3850, 1096.239
174.6100, 839.8193
175.8340, 673.2090
177.0580, 552.3291
178.2820, 489.2617
179.5050, 516.0605
180.7290, 484.7627
181.9520, 560.8877
183.1760, 627.9814
184.3990, 753.5303
185.6220, 926.0557
186.8450, 1059.301
188.0670, 1466.602
189.2900, 1501.850
190.5120, 2072.647
191.7340, 2412.365
192.9560, 2786.041
194.1780, 3188.703
195.4000, 3460.904
196.6220, 3466.711
197.8430, 3584.844
199.0640, 3310.837
200.2860, 3086.446
201.5070, 2996.426
202.7270, 2508.424
203.9480, 2125.846
205.1690, 1867.598
206.3890, 1543.487
207.6090, 1364.215
208.8290, 1081.626
210.0490, 1006.112
211.2690, 882.6514
212.4890, 669.2402
213.7080, 690.8750
214.9280, 726.5547
216.1470, 885.2764
217.3660, 796.0391
218.5850, 835.8379
219.8030, 1050.666
221.0220, 1130.512
222.2400, 1445.373
223.4590, 1667.242
224.6770, 1962.116
225.8950, 2417.991
227.1120, 2669.863
228.3300, 3073.729
229.5480, 3687.587
230.7650, 3508.434
231.9820, 3868.274
233.1990, 4128.106
234.4160, 4625.930
235.6330, 5135.746
236.8490, 5708.553
238.0660, 6234.354
239.2820, 6760.145
240.4980, 6850.929
241.7140, 6762.703
242.9300, 5992.473
244.1460, 5302.232
245.3610, 4695.986
246.5770, 4011.965
247.7920, 3105.475
249.0070, 2846.413
250.2220, 2367.201
251.4370, 1987.504
252.6510, 2030.151
253.8660, 1655.445
255.0800, 1701.271
256.2940, 1490.547
257.5080, 1456.205
258.7220, 1434.192
259.9360, 1549.468
261.1490, 1220.995
262.3630, 1007.744
263.5760, 946.6885
264.7890, 659.8047
266.0020, 417.0732
267.2150, 186.4785
268.4270, 120.0039
269.6400, 134.6387
270.8520, 52.62891
272.0640, 33.83008
273.2760, 183.9727
274.4880, 85.10449
275.7000, 196.2080
276.9120, 353.3213
278.1230, 231.4922
279.3340, 181.6953
280.5450, 142.9238
281.7560, 106.1729
282.9670, 82.22754
284.1780, 27.28516
285.3880, 33.98242
286.5980, 6.741211
287.8090, 60.46484
289.0190, 136.8047
290.2290, 67.11328
291.4380, 311.4492
292.6480, 171.8877
293.8570, 139.4004
295.0670, 71.01465
296.2760, 23.59863
297.4850, 20.26562
298.6930, 123.0146
299.9020, 107.1367
301.1110, 139.3428
302.3190, 11.50879
303.5270, 52.48535
304.7350, 167.6191
305.9430, 159.5781
307.1510, 0.3369140
308.3580, 107.3809
309.5660, 20.66406
310.7730, 27.00391
311.9800, 73.40332
313.1870, 146.1270
314.3940, 257.6289
315.6010, 449.1035
316.8070, 553.5508
318.0130, 884.9727
319.2200, 1095.369
320.4260, 1112.740
321.6310, 1534.088
322.8370, 1732.413
324.0430, 1838.718
325.2480, 2059.001
326.4540, 2320.264
327.6590, 2551.506
328.8640, 2678.729
330.0680, 3039.930
331.2730, 3298.114
332.4780, 3602.244
333.6820, 3550.241
334.8860, 3300.078
336.0900, 3260.628
337.2940, 2997.005
338.4980, 2916.266
339.7010, 2963.475
340.9050, 3265.658
342.1080, 3581.713
343.3110, 3923.533
344.5140, 4073.270
345.7170, 3722.941
346.9200, 3401.608
348.1220, 2814.251
349.3240, 2295.752
350.5270, 2035.133
351.7290, 1783.404
352.9310, 1614.578
354.1320, 1451.748
355.3340, 1493.918
356.5350, 1479.085
357.7370, 1486.250
358.9380, 1192.412
360.1390, 1452.571
361.3400, 1301.729
362.5400, 1222.882
363.7410, 1378.033
364.9410, 1477.180
366.1410, 1491.324
367.3410, 1600.464
368.5410, 1695.600
369.7410, 2008.732
370.9400, 2306.979
372.1400, 2841.986
373.3390, 3218.107
374.5380, 3765.226
375.7370, 4471.342
376.9360, 5321.453
378.1350, 5916.561
379.3330, 6614.665
380.5310, 6709.767
381.7300, 6646.865
382.9280, 6300.961
384.1260, 6073.058
385.3230, 5911.148
386.5210, 5470.238
387.7180, 4782.324
388.9160, 4122.408
390.1130, 3273.486
391.3100, 2868.564
392.5060, 2479.639
393.7030, 2392.729
394.9000, 2440.002
396.0960, 2716.506
397.2920, 3154.062
398.4880, 3900.180
399.6840, 4890.296
400.8800, 6035.406
402.0750, 7818.512
403.2710, 9915.610
404.4660, 12661.70
405.6610, 15309.78
406.8560, 16440.85
408.0510, 15472.90
409.2450, 12907.95
410.4400, 9982.980
411.6340, 7035.025
412.8280, 4801.055
414.0220, 3203.119
415.2160, 2189.252
416.4100, 1422.314
417.6030, 1018.650
418.7970, 909.6621
419.9900, 616.0410
421.1830, 589.8008
422.3760, 453.7031
423.5690, 489.5723
424.7610, 398.6680
425.9540, 546.8203
427.1460, 653.2754
428.3380, 702.5703
429.5300, 797.6602
430.7220, 1174.916
431.9140, 1259.852
433.1050, 1201.631
434.2970, 1555.430
435.4880, 1105.088
436.6790, 990.4004
437.8700, 627.6426
439.0610, 419.5996
440.2510, 142.5176
441.4420, 208.5312
442.6320, 25.27148
443.8220, 77.89844
445.0120, 24.06641
446.2020, 124.4844
447.3910, 206.1250
448.5810, 0.4785160
449.7700, 27.43359
450.9600, 36.72461
452.1490, 8.275391
453.3370, 10.53320
454.5260, 23.35156
455.7150, 312.2148
456.9030, 574.1270
458.0910, 555.0508
459.2800, 638.9688
460.4670, 657.8848
461.6550, 581.7949
462.8430, 804.6992
464.0300, 962.6016
465.2180, 1293.500
466.4050, 1546.395
467.5920, 1957.324
468.7790, 2489.271
469.9650, 3712.215
471.1520, 4258.152
472.3380, 5252.088
473.5250, 5541.020
474.7110, 5796.941
475.8970, 5687.865
477.0820, 5187.783
478.2680, 4678.695
479.4540, 4675.613
480.6390, 4814.525
481.8240, 5461.438
483.0090, 5833.352
484.1940, 6257.266
485.3780, 6174.180
486.5630, 5376.096
487.7470, 4551.010
488.9320, 3669.926
490.1160, 2877.842
491.3000, 2404.758
492.4830, 1997.680
493.6670, 1787.604
494.8500, 1638.529
496.0340, 1622.461
497.2170, 1860.395
498.4000, 1882.334
499.5820, 2228.275
500.7650, 2547.223
501.9480, 2905.176
503.1300, 3218.133
504.3120, 3746.090
505.4940, 4612.053
506.6760, 5495.014
507.8580, 7058.982
509.0390, 8990.953
510.2210, 11724.93
511.4020, 14837.90
512.5830, 18867.88
513.7640, 23643.86
514.9450, 29527.85
516.1250, 36631.84
517.3060, 42567.83
518.4860, 45763.82
519.6660, 44956.82
520.8460, 40530.82
522.0260, 33435.82
523.2060, 26272.88
524.3850, 19900.88
525.5650, 14147.65
526.7440, 10740.66
527.9230, 8119.664
529.1020, 6115.672
530.2810, 4859.684
531.4590, 3809.695
532.6380, 3069.707
533.8160, 2584.723
534.9940, 2055.738
536.1720, 1749.758
537.3500, 1478.773
538.5270, 1197.791
539.7050, 1034.811
540.8820, 883.8262
542.0590, 825.8457
543.2360, 714.8652
544.4130, 521.8848
545.5900, 565.9043
546.7660, 310.9258
547.9430, 364.0176
549.1190, 239.1191
550.2950, 253.9746
551.4710, 287.8242
552.6470, 7.792969
553.8220, 119.6367
554.9980, 37.60352
556.1730, 122.7812
557.3480, 146.7266
558.5230, 172.1562
559.6980, 77.90625
560.8730, 99.61914
562.0470, 27.85352
563.2220, 121.3379
564.3960, 121.7285
565.5700, 28.18555
566.7440, 167.1465
567.9170, 152.0391
569.0910, 329.8691
570.2640, 284.3574
571.4380, 346.0059
572.6110, 459.3105
573.7840, 721.1797
574.9570, 1245.125
576.1290, 1499.254
577.3020, 2124.080
578.4740, 2716.846
579.6460, 3643.229
580.8180, 4404.312
581.9900, 5191.449
583.1620, 5640.188
584.3330, 5561.574
585.5040, 4709.117
586.6760, 4026.688
587.8470, 3245.758
589.0180, 2496.744
590.1880, 1964.646
591.3590, 1428.791
592.5290, 1075.555
593.7000, 911.7070
594.8700, 738.0586
596.0400, 639.0371
597.2090, 535.6387
598.3790, 376.3457
599.5490, 384.9453
600.7180, 466.4473
601.8870, 370.0957
603.0560, 627.0605
604.2250, 277.9219
605.3940, 234.2129
606.5620, 431.5312
607.7300, 209.2500
608.8990, 432.3066
610.0670, 398.8379
611.2350, 402.7324
612.4020, 266.2773
613.5700, 498.4043
614.7370, 595.2598
615.9050, 408.1016
617.0720, 493.9336
618.2390, 489.7559
619.4060, 520.5449
620.5720, 438.3398
621.7390, 548.8809
622.9050, 549.2734
624.0710, 726.0312
625.2370, 932.2188
626.4030, 1017.949
627.5690, 1009.740
628.7340, 1266.443
629.9000, 1331.453
631.0650, 1572.449
632.2300, 1484.299
633.3950, 1684.334
634.5600, 1326.965
635.7240, 1236.383
636.8890, 1148.992
638.0530, 947.8848
639.2170, 690.6133
640.3810, 460.1836
641.5450, 409.6406
642.7080, 342.3008
643.8720, 427.8809
645.0350, 427.7793
646.1980, 585.4648
647.3610, 421.4160
648.5240, 288.9043
649.6870, 470.3770
650.8490, 466.8320
652.0120, 262.5449
653.1740, 425.8906
654.3360, 205.3594
655.4980, 401.7930
656.6600, 227.2285
657.8210, 230.6660
658.9830, 315.0918
660.1440, 180.5039
661.3050, 273.9199
662.4660, 147.3184
663.6270, 174.6953
664.7870, 20.05469
665.9480, 175.3867
667.1080, 281.7031
668.2680, 218.9941
669.4280, 206.2695
670.5880, 252.5469
671.7480, 270.8047
672.9070, 332.0410
674.0670, 442.2578
675.2260, 404.4531
676.3850, 294.6289
677.5440, 334.7988
678.7030, 519.9453
679.8610, 297.0742
681.0200, 487.1797
682.1780, 503.2617
683.3360, 385.3594
684.4940, 413.4336
685.6520, 371.4902
686.8090, 184.5254
687.9670, 183.5742
689.1240, 44.59570
690.2810, 46.58984
691.4380, 50.44531
692.5950, 50.45117
693.7520, 144.6836
694.9080, 177.0645
696.0650, 31.21094
697.2210, 127.4707
698.3770, 9.873047
699.5330, 8.734375
700.6880, 141.2988
701.8440, 12.52734
702.9990, 42.96289
704.1550, 252.5859
705.3100, 52.31445
706.4650, 50.10352
707.6190, 28.02930
708.7740, 105.8770
709.9290, 59.88672
711.0830, 76.01758
712.2370, 87.10938
713.3910, 149.3340
714.5450, 64.68945
715.6980, 42.13281
716.8520, 40.03711
718.0050, 1.039063
719.1580, 27.88477
720.3110, 34.40039
721.4640, 5.353516
722.6170, 28.83203
723.7700, 17.29883
724.9220, 2.136719
726.0740, 8.146484
727.2260, 12.17969
728.3780, 52.22070
729.5300, 174.2227
730.6810, 167.1992
731.8330, 201.1484
732.9840, 7.064453
734.1350, 291.9277
735.2860, 265.7578
736.4370, 6.443359
737.5880, 114.2910
738.7380, 131.9883
739.8880, 107.6484
741.0390, 300.2695
742.1890, 80.85938
743.3380, 175.4062
744.4880, 166.9199
745.6380, 107.6016
746.7870, 33.24609
747.9360, 116.0352
749.0850, 276.2793
750.2340, 112.4883
751.3830, 199.6562
752.5310, 350.7930
753.6800, 75.89648
754.8280, 264.9551
755.9760, 395.9824
757.1240, 77.97656
758.2720, 515.9297
759.4190, 322.8496
760.5670, 49.73438
761.7140, 291.5742
762.8610, 157.3809
764.0080, 305.1523
765.1550, 246.8887
766.3020, 357.5918
767.4480, 188.2617
768.5950, 187.8945
769.7410, 219.4922
770.8870, 172.0547
772.0330, 273.5801
773.1780, 100.0723
774.3240, 263.5234
775.4690, 197.9609
776.6140, 70.34375
777.7590, 318.6836
778.9040, 91.95312
780.0490, 251.6074
781.1940, 265.8906
782.3380, 186.1816
783.4820, 233.3379
784.6260, 165.4590
785.7700, 304.5430
786.9140, 328.5918
788.0580, 279.8320
789.2010, 205.9922
790.3450, 98.01562
791.4880, 92.29883
792.6310, 280.0723
793.7730, 355.1348
794.9160, 288.7188
796.0590, 314.4980
797.2010, 333.1152
798.3430, 370.7109
799.4850, 475.3613
800.6270, 295.9141
801.7690, 389.5195
802.9100, 493.4395
804.0520, 313.0156
805.1930, 491.4922
806.3340, 367.2246
807.4750, 594.1816
808.6160, 538.5586
809.7560, 722.8926
810.8970, 787.0859
812.0370, 839.6211
813.1770, 921.9082
814.3170, 937.8652
815.4570, 966.0254
816.5960, 1188.152
817.7360, 1211.303
818.8750, 1095.361
820.0140, 988.8867
821.1530, 901.8750
822.2920, 826.8301
823.4310, 719.8633
824.5690, 861.1562
825.7070, 886.9238
826.8460, 769.9121
827.9840, 621.8672
829.1220, 756.6680
830.2590, 525.5605
831.3970, 548.2930
832.5340, 319.7871
833.6710, 574.6816
834.8080, 589.8848
835.9450, 330.7852
837.0820, 567.7246
838.2190, 508.8691
839.3550, 652.9277
840.4910, 560.3008
841.6270, 532.6289
842.7630, 416.0566
843.8990, 518.9609
845.0350, 778.9277
846.1700, 692.2070
847.3060, 645.3125
848.4410, 884.7383
849.5760, 869.0156
850.7100, 1025.332
851.8450, 1127.910
852.9800, 1385.852
854.1140, 1536.877
855.2480, 1826.301
856.3820, 1878.994
857.5160, 1884.619
858.6500, 2074.633
859.7830, 1971.086
860.9170, 1837.227
862.0500, 1824.312
863.1830, 1679.162
864.3160, 1633.373
865.4480, 1450.479
866.5810, 1456.969
867.7130, 1338.400
868.8460, 1112.949
869.9780, 1042.295
871.1100, 892.0078
872.2410, 1143.697
873.3730, 838.0742
874.5050, 730.1133
875.6360, 967.2207
876.7670, 856.1523
877.8980, 743.7324
879.0290, 656.3887
880.1590, 798.5820
881.2900, 408.7168
882.4200, 573.4199
883.5500, 446.7559
884.6800, 627.5859
885.8100, 407.0215
886.9400, 315.7734
888.0690, 511.9160
889.1990, 311.2969
890.3280, 486.6602
891.4570, 375.0059
892.5860, 331.3281
893.7140, 191.6562
894.8430, 254.9434
895.9710, 309.2148
897.1000, 237.0840
898.2280, 421.3203
899.3560, 417.0918
900.4830, 291.2930
901.6110, 269.4062
902.7380, 326.5723
903.8660, 260.4062
904.9930, 147.2207
906.1200, 110.1504
907.2460, 332.8652
908.3730, 172.9531
909.5000, 216.2227
910.6260, 31.72656
911.7520, 114.9941
912.8780, 306.8535
914.0040, 0.1621090
915.1290, 71.09766
916.2550, 80.70898
917.3800, 68.56250
918.5050, 203.0684
919.6300, 102.7578
920.7550, 118.1504
921.8800, 105.4668
923.0040, 30.79102
924.1290, 39.59180
925.2530, 53.89844
926.3770, 75.06445
927.5010, 4.410156
928.6250, 57.75586
929.7480, 67.14648
930.8720, 7.593750
931.9950, 6.064453
933.1180, 70.55469
934.2410, 146.8984
935.3640, 113.3633
936.4860, 56.81445
937.6090, 28.25586
938.7310, 42.68945
939.8530, 165.1387
940.9750, 2.576172
942.0970, 68.97461
943.2180, 49.42383
944.3400, 114.8164
945.4610, 11.20312
946.5820, 43.62500
947.7030, 31.05469
948.8240, 43.46680
949.9450, 263.9863
951.0650, 296.4316
952.1860, 23.88477
953.3060, 99.32617
954.4260, 137.2207
955.5460, 82.15430
956.6650, 243.5195
957.7850, 3.882813
958.9040, 138.7656
960.0230, 98.50977
961.1420, 163.7832
962.2610, 83.05469
963.3800, 116.3301
964.4990, 187.6191
965.6170, 175.9062
966.7350, 31.23828
967.8530, 74.43359
968.9710, 40.87109
970.0890, 205.1738
971.2070, 6.484375
972.3240, 137.7988
973.4410, 12.88672
974.5580, 116.4316
975.6750, 236.7520
976.7920, 52.85352
977.9090, 291.5371
979.0250, 168.9512
980.1410, 254.3672
981.2580, 274.8242
982.3740, 201.3047
983.4890, 331.7852
984.6050, 207.2988
985.7200, 235.8652
986.8360, 377.4590
987.9510, 159.0723
989.0660, 247.7109
990.1810, 420.3594
991.2950, 407.0273
992.4100, 441.7031
993.5240, 463.3906
994.6390, 355.0859
995.7530, 481.7910
996.8660, 693.5078
997.9800, 578.2363
999.0940, 664.9766
1000.207, 789.7207
1001.320, 1096.469
1002.433, 1262.223
1003.546, 1169.979
1004.659, 1219.746
1005.772, 1074.516
1006.884, 1045.289
1007.996, 1047.078
1009.108, 801.8750
1010.220, 920.6719
1011.332, 786.4766
1012.444, 786.2871
1013.555, 1092.104
1014.666, 1031.924
1015.777, 1023.750
1016.888, 1216.621
1017.999, 1156.520
1019.110, 1274.424
1020.220, 1256.332
1021.331, 1408.248
1022.441, 1568.170
1023.551, 1634.977
1024.661, 1560.029
1025.770, 1882.969
1026.880, 1966.912
1027.989, 2123.867
1029.098, 2343.822
1030.207, 2669.785
1031.316, 2849.762
1032.425, 3124.740
1033.533, 3641.725
1034.642, 3599.719
1035.750, 3737.717
1036.858, 4185.723
1037.966, 4686.732
1039.073, 4552.752
1040.181, 4604.777
1041.288, 4788.814
1042.396, 4254.855
1043.503, 4158.906
1044.610, 4173.945
1045.716, 3897.014
1046.823, 3898.090
1047.929, 3599.209
1049.036, 3592.916
1050.142, 3408.969
1051.248, 3239.984
1052.353, 3119.109
1053.459, 2998.242
1054.564, 2771.383
1055.670, 2493.537
1056.775, 2735.473
1057.880, 2401.463
1058.985, 2469.561
1060.089, 2510.373
1061.194, 2543.664
1062.298, 2239.314
1063.402, 2486.746
1064.506, 2363.961
1065.610, 2567.312
1066.713, 2295.656
1067.817, 2118.004
1068.920, 2150.285
1070.023, 2048.553
1071.126, 1812.721
1072.229, 1955.670
1073.332, 1761.992
1074.435, 1563.105
1075.537, 1345.900
1076.639, 1279.660
1077.741, 1170.539
1078.843, 1235.586
1079.945, 1170.973
1081.046, 1280.160
1082.148, 1140.590
1083.249, 1065.064
1084.350, 1204.512
1085.451, 1083.951
1086.551, 755.2812
1087.652, 832.2988
1088.752, 927.8262
1089.853, 859.3867
1090.953, 1102.850
1092.053, 997.9629
1093.152, 1011.861
1094.252, 1387.490
1095.351, 1207.131
1096.451, 1295.781
1097.550, 1495.443
1098.649, 1233.119
1099.748, 1627.926
1100.846, 1662.439
1101.945, 1731.148
1103.043, 2020.869
1104.141, 2062.600
1105.239, 2063.340
1106.337, 2178.578
1107.434, 2192.344
1108.532, 2349.125
1109.629, 2434.334
1110.726, 2755.145
1111.823, 2739.967
1112.920, 3096.803
1114.017, 3405.648
1115.113, 3492.508
1116.210, 3439.377
1117.306, 3509.258
1118.402, 3668.148
1119.498, 3832.432
1120.593, 4130.965
1121.689, 4368.891
1122.784, 4801.826
1123.879, 5162.779
1124.974, 5549.744
1126.069, 6006.723
1127.164, 6479.711
1128.259, 7217.707
1129.353, 7970.766
1130.447, 8678.844
1131.541, 9373.879
1132.635, 9915.039
1133.729, 10649.15
1134.822, 11219.27
1135.916, 11683.41
1137.009, 11941.55
1138.102, 11950.39
1139.195, 11796.05
1140.288, 11393.05
1141.380, 10814.24
1142.473, 9993.445
1143.565, 8935.656
1144.657, 7862.879
1145.749, 7022.111
1146.841, 6049.355
1147.932, 5239.613
1149.024, 4657.879
1150.115, 3967.156
1151.206, 3636.445
1152.297, 2983.744
1153.388, 2626.053
1154.479, 2393.375
1155.569, 2345.707
1156.659, 2063.051
1157.750, 1821.400
1158.839, 1758.766
1159.929, 1387.141
1161.019, 1360.527
1162.108, 1188.924
1163.198, 1027.332
1164.287, 1113.748
1165.376, 877.1758
1166.465, 1025.617
1167.553, 548.0684
1168.642, 919.5293
1169.730, 675.0000
1170.818, 866.4824
1171.906, 720.9785
1172.994, 636.4805
1174.082, 601.9941
1175.170, 486.5508
1176.257, 628.0703
1177.344, 397.6309
1178.431, 314.2031
1179.518, 423.7910
1180.605, 370.4141
1181.691, 360.0469
1182.778, 418.5312
1183.864, 357.3438
1184.950, 470.0078
1186.036, 247.6836
1187.122, 215.3711
1188.207, 309.0684
1189.292, 124.7754
1190.378, 78.51172
1191.463, 16.28516
1192.548, 17.32031
1193.632, 56.87891
1194.717, 42.71680
1195.801, 86.57422
1196.886, 213.4434
1197.970, 84.65234
1199.054, 5.224609
1200.137, 69.10938
1201.221, 120.0020
1202.305, 112.0918
1203.388, 175.7734
1204.471, 101.3496
1205.554, 91.49219
1206.637, 20.63867
1207.719, 11.23047
1208.802, 191.8906
1209.884, 74.82227
1210.966, 217.0547
1212.048, 32.38672
1213.130, 102.2852
1214.212, 56.03516
1215.293, 64.62695
1216.374, 71.69922
1217.456, 192.9434
1218.536, 138.6348
1219.617, 207.5371
1220.698, 129.2441
1221.778, 207.9199
1222.859, 18.71875
1223.939, 58.03906
1225.019, 136.8066
1226.099, 131.5781
1227.178, 227.3594
1228.258, 71.14844
1229.337, 6.945313
1230.417, 45.74609
1231.496, 136.5742
1232.574, 354.4082
1233.653, 39.25195
1234.732, 367.1016
1235.810, 171.9570
1236.888, 348.8281
1237.966, 173.7070
1239.044, 389.4922
1240.122, 135.3965
1241.199, 178.3047
1242.277, 233.2246
1243.354, 402.1523
1244.431, 212.0859
1245.508, 171.0273
1246.585, 241.9785
1247.661, 120.9355
1248.738, 217.5664
1249.814, 449.8672
1250.890, 340.8457
1251.966, 321.8359
1253.042, 358.4551
1254.117, 221.4609
1255.193, 175.4746
1256.268, 318.4980
1257.343, 446.5254
1258.418, 299.0449
1259.493, 268.4570
1260.567, 287.5039
1261.642, 403.5586
1262.716, 560.6211
1263.790, 311.6895
1264.864, 243.7637
1265.938, 448.9062
1267.011, 614.0488
1268.085, 275.2012
1269.158, 719.3574
1270.231, 268.5195
1271.304, 746.6875
1272.377, 310.8633
1273.450, 411.0449
1274.522, 420.2285
1275.594, 463.4219
1276.666, 384.6211
1277.738, 382.0234
1278.810, 374.1133
1279.882, 248.2480
1280.953, 394.4707
1282.025, 237.6973
1283.096, 327.9297
1284.167, 257.1680
1285.238, 337.4141
