##NAMES=Epidote
##RRUFFID=R040092
##IDEAL CHEMISTRY=Ca_2_Fe^3+^Al_2_(Si_2_O_7_)(SiO_4_)O(OH)
##LOCALITY=Nahant, Massachusetts, USA
##OWNER=RRUFF
##SOURCE=University of Arizona Mineral Museum
##DESCRIPTION=Green prismatic crystals imbedded in quartz
##STATUS=The identification of this mineral has been confirmed by X-ray diffraction and chemical analysis
##URL=rruff.info/R040092
##MEASURED CHEMISTRY=Ca_2.01_Al_2.00_Fe_1.00_(Si_1.00_O_4_)(Si_1.97_Fe_0.02_Al_0.01_Ti_0.01_O_7_)O(OH)
##PIN_ID=M00265
##ORIENTATION=Laser parallel to -a [-1 0 0]. Fiducial mark perpendicular to laser is parallel to -b* (0 -1 0)
51.466, 0.000
52.866, 1.233
54.266, 397.453
55.666, 650.017
57.065, 938.224
58.464, 991.841
59.863, 1197.986
61.262, 1567.836
62.661, 1540.706
64.059, 1336.641
65.458, 884.500
66.856, 573.896
68.253, 225.948
69.651, 125.702
71.048, 32.936
72.445, 38.103
73.842, 194.392
75.239, 263.563
76.635, 491.524
78.031, 774.608
79.427, 1389.144
80.823, 2491.397
82.218, 3898.581
83.614, 4988.868
85.009, 6466.405
86.404, 8037.304
87.798, 9535.568
89.193, 10919.114
90.587, 11193.137
91.981, 10372.383
93.375, 8567.847
94.768, 6633.012
96.161, 6103.113
97.554, 4152.460
98.947, 3106.346
100.340, 2402.207
101.732, 1961.352
103.124, 1563.767
104.516, 1542.442
105.908, 1512.364
107.300, 1271.521
108.691, 1151.906
110.082, 887.509
111.473, 850.327
112.864, 899.349
114.254, 1073.562
115.644, 1099.949
117.034, 1094.506
118.424, 814.230
119.813, 731.125
121.203, 494.187
122.592, 379.420
123.981, 243.826
125.369, 33.402
126.758, 17.153
128.146, 5.077
129.534, 42.177
130.922, 58.549
132.309, 137.092
133.696, 127.911
135.083, 107.905
136.470, 104.521
137.857, 12.148
139.243, 25.974
140.630, 29.025
142.016, 26.906
143.401, 42.169
144.787, 103.105
146.172, 139.833
147.557, 254.642
148.942, 269.584
150.327, 528.720
151.711, 698.897
153.096, 1075.919
154.480, 1320.193
155.863, 1622.540
157.247, 2210.949
158.630, 2230.420
160.013, 2975.957
161.396, 3886.563
162.779, 5225.242
164.161, 6649.998
165.544, 8743.833
166.926, 10650.747
168.308, 12900.750
169.689, 15005.841
171.070, 17339.008
172.452, 18150.227
173.833, 17582.488
175.213, 16018.702
176.594, 13083.801
177.974, 10788.862
179.354, 8431.992
180.734, 6660.195
182.114, 5296.505
183.493, 4419.934
184.872, 3584.480
186.251, 3181.147
187.630, 2738.937
189.008, 2380.847
190.387, 2079.880
191.765, 1906.036
193.143, 1793.315
194.520, 1729.720
195.898, 1819.249
197.275, 1927.099
198.652, 2156.684
200.029, 2253.592
201.405, 2401.626
202.782, 2391.789
204.158, 2354.080
205.534, 2201.499
206.909, 2219.298
208.285, 1648.726
209.660, 2088.533
211.035, 1764.472
212.410, 1509.860
213.784, 1629.268
215.159, 1965.431
216.533, 2386.406
217.907, 2965.889
219.281, 3602.010
220.654, 4284.951
222.027, 5495.890
223.400, 6723.684
224.773, 8166.566
226.146, 9439.387
227.518, 10698.647
228.891, 11416.808
230.263, 11864.716
231.634, 11560.141
233.006, 10768.393
234.377, 10105.915
235.748, 9686.996
237.119, 9469.052
238.490, 9662.918
239.860, 9824.596
241.231, 9749.523
242.601, 9466.363
243.970, 8374.698
245.340, 6810.448
246.709, 5277.809
248.079, 4009.225
249.448, 2875.700
250.816, 2202.241
252.185, 1600.851
253.553, 1332.509
254.921, 1145.157
256.289, 776.808
257.657, 742.248
259.024, 611.473
260.391, 630.650
261.758, 620.874
263.125, 745.152
264.492, 965.532
265.858, 1277.022
267.224, 1819.624
268.590, 2348.334
269.956, 3356.155
271.321, 4256.085
272.687, 5212.124
274.052, 6025.270
275.416, 6622.525
276.781, 5929.886
278.146, 4759.355
279.510, 3506.930
280.874, 2388.612
282.237, 1749.399
283.601, 1183.294
284.964, 853.295
286.327, 1281.401
287.690, 961.945
289.053, 980.842
290.416, 1051.371
291.778, 1242.690
293.140, 1318.799
294.502, 1337.174
295.863, 1496.145
297.225, 1507.584
298.586, 1498.967
299.947, 1400.943
301.308, 1222.464
302.668, 1102.643
304.029, 1076.355
305.389, 1057.959
306.749, 936.047
308.108, 895.013
309.468, 739.390
310.827, 553.076
312.186, 515.081
313.545, 445.554
314.903, 454.381
316.262, 456.677
317.620, 578.071
318.978, 662.562
320.336, 748.151
321.693, 802.837
323.051, 872.621
324.408, 855.502
325.765, 1037.481
327.121, 870.557
328.478, 1042.731
329.834, 1103.002
331.190, 1374.371
332.546, 1470.838
333.902, 1957.401
335.257, 2266.062
336.612, 2770.819
337.967, 3473.674
339.322, 4390.626
340.677, 5581.678
342.031, 7269.829
343.385, 9201.079
344.739, 11258.426
346.093, 12864.873
347.446, 14731.419
348.799, 15595.062
350.153, 15585.804
351.505, 14258.645
352.858, 12300.582
354.210, 9918.616
355.563, 7964.746
356.915, 6102.974
358.267, 4820.296
359.618, 3526.715
360.969, 2819.229
362.321, 2065.839
363.672, 1612.543
365.022, 1089.341
366.373, 720.233
367.723, 424.219
369.073, 115.299
370.423, 16.529
371.773, 299.268
373.122, 325.953
374.471, 345.592
375.821, 356.189
377.169, 363.832
378.518, 313.533
379.866, 120.277
381.215, 178.999
382.563, 559.343
383.910, 1089.752
385.258, 1483.230
386.605, 1912.781
387.952, 2102.411
389.299, 2391.128
390.646, 2109.934
391.992, 1771.840
393.339, 1323.866
394.685, 1052.000
396.031, 673.266
397.376, 366.667
398.722, 134.223
400.067, 46.975
401.412, 92.071
402.757, 137.954
404.101, 108.775
405.446, 116.446
406.790, 26.991
408.134, 87.604
409.478, 282.629
410.821, 631.247
412.165, 855.276
413.508, 1386.457
414.851, 1851.788
416.193, 2390.267
417.536, 3445.897
418.878, 4432.688
420.220, 5650.621
421.562, 6830.713
422.904, 8524.957
424.245, 9998.339
425.586, 11620.875
426.927, 13437.562
428.268, 14883.402
429.609, 17580.389
430.949, 20565.523
432.289, 24578.809
433.629, 26471.227
434.969, 28212.799
436.309, 26684.510
437.648, 24652.350
438.987, 21367.318
440.326, 18519.410
441.665, 16260.635
443.003, 15341.981
444.342, 14591.457
445.680, 14848.057
447.018, 15564.763
448.355, 16400.584
449.693, 17494.514
451.030, 18072.553
452.367, 18809.717
453.704, 18242.980
455.041, 18547.354
456.377, 17239.822
457.713, 15959.421
459.049, 13919.154
460.385, 11818.018
461.721, 9578.013
463.056, 7428.127
464.391, 5927.337
465.726, 4877.647
467.061, 3697.051
468.395, 3045.551
469.730, 2338.139
471.064, 1921.818
472.398, 1611.581
473.731, 1373.424
475.065, 1089.353
476.398, 951.358
477.731, 855.441
479.064, 728.599
480.397, 740.832
481.729, 892.138
483.062, 892.515
484.394, 1115.964
485.725, 1143.484
487.057, 1383.073
488.389, 1620.732
489.720, 1903.460
491.051, 2332.256
492.382, 3017.120
493.712, 3857.049
495.043, 4488.045
496.373, 5428.108
497.703, 6345.236
499.032, 7083.427
500.362, 7444.682
501.691, 7895.000
503.020, 7732.380
504.349, 8199.821
505.678, 8262.325
507.007, 8771.886
508.335, 8633.509
509.663, 8208.192
510.991, 7467.931
512.319, 6049.729
513.646, 4944.583
514.973, 3741.493
516.300, 3001.458
517.627, 2294.479
518.954, 1529.554
520.280, 1219.682
521.607, 893.862
522.933, 595.095
524.259, 368.379
525.584, 316.714
526.910, 201.099
528.235, 164.534
529.560, 166.016
530.885, 104.234
532.209, 98.866
533.534, 94.546
534.858, 152.526
536.182, 143.119
537.506, 292.454
538.829, 271.826
540.152, 341.925
541.476, 391.830
542.799, 445.781
544.121, 686.777
545.444, 693.818
546.766, 907.032
548.088, 1015.839
549.410, 1369.011
550.732, 1576.917
552.053, 1927.608
553.375, 2331.858
554.696, 2750.172
556.017, 3608.888
557.337, 4524.592
558.658, 5813.357
559.978, 7236.110
561.298, 9292.916
562.618, 11013.173
563.938, 11933.372
565.257, 11997.682
566.576, 10318.187
567.895, 8664.159
569.214, 7131.017
570.533, 6169.899
571.851, 5355.016
573.170, 5323.801
574.488, 5411.754
575.805, 5701.515
577.123, 6237.902
578.440, 7162.024
579.758, 8379.673
581.075, 9412.390
582.391, 11096.365
583.708, 12283.693
585.024, 13589.242
586.341, 15341.143
587.657, 16519.896
588.972, 17924.826
590.288, 19519.686
591.603, 21011.352
592.918, 23584.477
594.233, 26406.100
595.548, 28195.984
596.863, 29544.820
598.177, 29145.270
599.491, 28392.861
600.805, 26315.746
602.119, 24336.486
603.432, 22486.396
604.746, 21286.549
606.059, 19970.688
607.372, 19521.893
608.685, 19328.256
609.997, 19336.473
611.309, 19475.104
612.621, 19299.871
613.933, 18582.316
615.245, 17470.492
616.557, 15943.151
617.868, 13834.729
619.179, 11891.906
620.490, 10007.909
621.801, 8551.088
623.111, 7232.900
624.421, 6234.458
625.731, 5237.165
627.041, 4752.615
628.351, 4034.475
629.660, 3560.979
630.970, 3373.894
632.279, 3006.160
633.588, 2673.807
634.896, 2400.558
636.205, 2380.899
637.513, 2034.385
638.821, 1978.505
640.129, 1798.569
641.437, 1714.596
642.744, 1537.583
644.051, 1465.532
645.358, 1385.442
646.665, 1234.312
647.972, 1157.140
649.278, 1030.927
650.584, 928.672
651.890, 869.375
653.196, 766.034
654.502, 722.170
655.807, 660.292
657.113, 630.748
658.418, 574.229
659.722, 519.665
661.027, 503.054
662.331, 595.396
663.636, 453.690
664.940, 506.936
666.244, 467.134
667.547, 374.283
668.851, 440.381
670.154, 344.429
671.457, 339.427
672.760, 398.374
674.062, 387.268
675.365, 449.111
676.667, 424.900
677.969, 411.637
679.271, 389.321
680.572, 378.326
681.874, 433.523
683.175, 337.042
684.476, 372.506
685.777, 311.914
687.077, 276.265
688.378, 356.561
689.678, 348.841
690.978, 232.107
692.278, 231.363
693.577, 295.611
694.877, 218.850
696.176, 207.073
697.475, 236.249
698.774, 244.365
700.072, 155.420
701.371, 172.415
702.669, 116.348
703.967, 74.217
705.265, 179.015
706.562, 79.750
707.860, 20.587
709.157, 44.960
710.454, 26.578
711.751, 0.763
713.047, 45.004
714.344, 107.903
715.640, 121.968
716.936, 87.209
718.232, 17.598
719.527, 97.093
720.823, 116.740
722.118, 101.551
723.413, 132.526
724.708, 97.687
726.002, 65.015
727.297, 115.494
728.591, 125.151
729.885, 110.992
731.179, 123.009
732.472, 148.210
733.766, 79.608
735.059, 151.168
736.352, 103.926
737.645, 75.859
738.937, 112.953
740.230, 116.227
741.522, 121.682
742.814, 103.322
744.106, 90.138
745.397, 121.122
746.689, 70.290
747.980, 125.616
749.271, 86.129
750.562, 42.808
751.853, 42.630
753.143, 36.721
754.433, 39.822
755.723, 60.943
757.013, 43.339
758.303, 46.877
759.592, 12.441
760.881, 11.648
762.170, 6.257
763.459, 25.717
764.748, 8.412
766.036, 76.337
767.325, 69.000
768.613, 44.572
769.901, 90.050
771.188, 67.444
772.476, 68.750
773.763, 83.190
775.050, 89.103
776.337, 78.155
777.624, 93.125
778.910, 58.013
780.196, 92.814
781.482, 104.535
782.768, 40.179
784.054, 94.733
785.339, 131.208
786.625, 53.612
787.910, 151.930
789.195, 132.179
790.479, 205.357
791.764, 160.469
793.048, 237.512
794.332, 289.492
795.616, 327.408
796.900, 286.260
798.183, 345.050
799.467, 374.776
800.750, 392.441
802.033, 424.043
803.316, 498.584
804.598, 495.064
805.880, 573.482
807.163, 635.841
808.445, 652.139
809.726, 720.377
811.008, 735.556
812.289, 804.532
813.570, 890.737
814.851, 950.739
816.132, 1059.685
817.413, 1163.573
818.693, 1291.292
819.973, 1416.857
821.253, 1586.896
822.533, 1705.559
823.813, 1865.167
825.092, 2049.719
826.371, 2289.217
827.650, 2493.661
828.929, 2629.051
830.208, 2744.389
831.486, 2836.673
832.764, 2895.905
834.042, 2929.085
835.320, 2926.214
836.598, 2897.292
837.875, 2873.320
839.152, 2892.300
840.429, 2934.231
841.706, 2931.344
842.983, 2890.949
844.259, 2998.735
845.536, 2946.482
846.812, 3045.183
848.088, 3330.839
849.363, 3414.447
850.639, 3567.014
851.914, 3793.535
853.189, 3937.015
854.464, 4344.451
855.739, 4665.848
857.013, 4969.078
858.288, 5382.716
859.562, 5801.994
860.836, 6179.547
862.110, 6546.324
863.383, 6926.544
864.656, 7044.702
865.930, 7210.459
867.203, 7232.227
868.475, 7192.936
869.748, 7233.649
871.020, 7463.441
872.292, 7890.501
873.564, 8295.478
874.836, 8947.125
876.108, 9532.636
877.379, 10777.116
878.650, 11687.703
879.922, 12844.269
881.192, 13957.592
882.463, 15018.241
883.733, 15649.718
885.004, 16111.382
886.274, 16225.416
887.544, 15846.704
888.813, 15048.463
890.083, 14536.147
891.352, 13852.562
892.621, 13398.620
893.890, 13332.446
895.159, 13253.916
896.427, 13713.525
897.695, 14574.955
898.964, 15346.432
900.232, 16564.104
901.499, 17991.311
902.767, 19931.004
904.034, 22167.947
905.301, 24542.893
906.568, 27734.736
907.835, 30870.422
909.102, 34488.812
910.368, 38492.328
911.634, 42749.676
912.900, 45743.758
914.166, 48596.844
915.432, 48620.867
916.697, 46537.711
917.962, 43971.688
919.227, 39303.250
920.492, 34208.660
921.757, 29481.377
923.021, 25556.354
924.285, 21651.826
925.550, 18685.375
926.813, 15790.310
928.077, 13784.404
929.341, 12092.309
930.604, 10543.562
931.867, 9184.056
933.130, 8223.389
934.393, 7433.964
935.655, 6500.111
936.918, 5990.608
938.180, 5322.690
939.442, 4927.405
940.703, 4544.728
941.965, 4123.931
943.226, 3777.533
944.488, 3632.976
945.749, 3421.779
947.009, 3195.634
948.270, 3049.513
949.530, 2942.418
950.791, 2857.348
952.051, 2801.301
953.311, 2652.289
954.570, 2630.308
955.830, 2536.378
957.089, 2498.483
958.348, 2436.624
959.607, 2340.809
960.866, 2254.029
962.124, 2036.290
963.383, 1985.586
964.641, 1912.928
965.899, 1929.308
967.156, 1820.733
968.414, 1856.198
969.671, 2064.704
970.928, 1971.256
972.185, 2142.849
973.442, 2203.473
974.699, 2445.127
975.955, 2603.827
977.211, 2735.562
978.468, 2909.347
979.723, 2928.168
980.979, 2657.030
982.234, 2518.925
983.490, 2032.860
984.745, 1849.832
986.000, 1530.837
987.254, 1362.880
988.509, 1253.056
989.763, 1013.616
991.017, 937.224
992.271, 887.417
993.525, 832.646
994.779, 850.911
996.032, 838.261
997.285, 769.755
998.538, 682.101
999.791, 738.527
1001.044, 670.792
1002.296, 720.953
1003.548, 625.332
1004.800, 746.529
1006.052, 722.722
1007.304, 760.102
1008.555, 747.391
1009.807, 937.999
1011.058, 1184.990
1012.309, 1374.509
1013.559, 1532.585
1014.810, 1870.124
1016.060, 2159.704
1017.310, 2358.854
1018.560, 2277.465
1019.810, 2307.793
1021.060, 2184.749
1022.309, 1823.280
1023.558, 1850.848
1024.807, 1563.561
1026.056, 1509.373
1027.305, 1393.281
1028.553, 1404.183
1029.801, 1478.309
1031.049, 1505.521
1032.297, 1673.226
1033.545, 1890.647
1034.793, 1907.169
1036.040, 2046.797
1037.287, 2158.535
1038.534, 2300.365
1039.781, 2393.307
1041.027, 2270.348
1042.274, 2231.480
1043.520, 2261.716
1044.766, 2016.054
1046.012, 1845.499
1047.257, 1800.045
1048.503, 1653.687
1049.748, 1456.436
1050.993, 1344.273
1052.238, 1254.215
1053.483, 1223.250
1054.727, 1142.364
1055.971, 1199.560
1057.216, 1020.834
1058.459, 1131.189
1059.703, 1049.946
1060.947, 996.501
1062.190, 986.750
1063.433, 850.415
1064.676, 849.839
1065.919, 676.637
1067.162, 791.496
1068.404, 775.421
1069.646, 844.397
1070.888, 934.426
1072.130, 1079.510
1073.372, 1286.643
1074.613, 1571.825
1075.855, 1877.058
1077.096, 2342.340
1078.337, 2992.668
1079.578, 3680.047
1080.818, 4714.522
1082.059, 5951.000
1083.299, 7288.523
1084.539, 8506.091
1085.779, 9177.371
1087.018, 8928.381
1088.258, 8026.087
1089.497, 6707.062
1090.736, 5292.869
1091.975, 4059.664
1093.213, 3075.792
1094.452, 2480.209
1095.690, 1881.708
1096.928, 1502.392
1098.166, 1224.508
1099.404, 1002.057
1100.642, 921.151
1101.879, 789.328
1103.116, 636.926
1104.353, 641.687
1105.590, 485.028
1106.827, 510.034
1108.063, 393.519
1109.299, 332.977
1110.536, 300.806
1111.771, 252.422
1113.007, 234.671
1114.243, 210.996
1115.478, 210.522
1116.713, 212.602
1117.948, 205.138
1119.183, 209.532
1120.418, 275.609
1121.652, 554.928
1122.886, 603.696
1124.120, 476.969
1125.354, 307.510
1126.588, 231.363
1127.821, 108.671
1129.055, 77.532
1130.288, 65.507
1131.521, 75.157
1132.753, 83.809
1133.986, 18.804
1135.218, 56.742
1136.450, 10.107
1137.682, 35.225
1138.914, 35.564
1140.146, 20.670
1141.377, 15.176
1142.609, 16.331
1143.840, 97.576
1145.071, 13.905
1146.301, 57.243
1147.532, 7.677
1148.762, 49.887
1149.992, 42.699
1151.222, 50.260
1152.452, 39.787
1153.682, 76.112
1154.911, 43.825
1156.140, 36.927
1157.369, 83.812
1158.598, 92.518
1159.827, 75.684
1161.055, 56.674
1162.284, 32.483
1163.512, 68.281
1164.740, 29.317
1165.967, 24.644
1167.195, 17.110
1168.422, 30.689
1169.650, 4.787
1170.877, 46.484
1172.103, 10.332
1173.330, 18.369
1174.557, 6.782
1175.783, 41.611
1177.009, 25.746
1178.235, 29.892
1179.461, 21.013
1180.686, 44.695
1181.912, 36.251
1183.137, 58.932
1184.362, 95.353
1185.587, 78.800
1186.811, 103.050
1188.036, 27.380
1189.260, 50.689
1190.484, 120.240
1191.708, 117.691
1192.932, 46.711
1194.155, 47.389
1195.378, 56.697
1196.602, 84.793
1197.825, 92.742
1199.047, 107.916
1200.270, 110.794
1201.492, 127.161
1202.715, 94.122
1203.937, 87.865
1205.159, 49.815
1206.380, 51.433
1207.602, 46.253
1208.823, 44.871
1210.044, 66.406
1211.265, 18.096
1212.486, 36.523
1213.707, 9.852
1214.927, 99.163
1216.147, 36.429
1217.367, 71.817
1218.587, 81.087
1219.807, 31.092
1221.027, 38.260
1222.246, 14.332
1223.465, 70.438
1224.684, 33.584
1225.903, 61.618
1227.121, 10.905
1228.340, 28.215
1229.558, 66.122
1230.776, 37.057
1231.994, 27.075
1233.212, 38.275
1234.429, 45.536
1235.646, 14.644
1236.864, 20.182
1238.081, 6.958
1239.297, 10.929
1240.514, 32.358
1241.730, 31.606
1242.947, 2.959
1244.163, 3.518
1245.378, 10.117
1246.594, 34.617
1247.810, 32.005
1249.025, 4.537
1250.240, 85.157
1251.455, 12.771
1252.670, 21.452
1253.885, 43.129
1255.099, 8.976
1256.313, 28.985
1257.527, 7.871
1258.741, 32.757
1259.955, 14.897
1261.168, 32.996
1262.382, 8.224
1263.595, 13.808
1264.808, 25.802
1266.021, 3.162
1267.233, 31.440
1268.446, 63.105
1269.658, 17.351
1270.870, 33.123
1272.082, 23.469
1273.294, 20.863
1274.505, 12.147
1275.716, 70.377
1276.928, 19.548
1278.139, 43.647
1279.349, 91.703
1280.560, 40.689
1281.770, 71.624
1282.981, 23.412
1284.191, 53.803
1285.401, 74.135
1286.610, 62.870
1287.820, 106.554
1289.029, 26.184
1290.239, 61.711
1291.448, 64.083
1292.656, 56.599
1293.865, 79.025
1295.073, 51.604
1296.282, 83.278
1297.490, 45.729
1298.698, 41.354
1299.906, 118.981
1301.113, 36.413
1302.320, 58.935
1303.528, 8.861
1304.735, 14.956
1305.942, 21.760
1307.148, 54.989
1308.355, 28.283
1309.561, 82.560
1310.767, 63.017
1311.973, 17.569
1313.179, 31.185
1314.384, 5.222
1315.590, 20.725
1316.795, 0.213
1318.000, 70.598
1319.205, 57.932
1320.410, 26.216
1321.614, 6.442
1322.819, 70.721
1324.023, 40.836
1325.227, 52.508
1326.431, 58.514
1327.634, 55.354
1328.838, 65.191
1330.041, 65.223
1331.244, 74.024
1332.447, 71.776
1333.650, 73.480
1334.852, 65.065
1336.055, 69.480
1337.257, 51.295
1338.459, 62.801
1339.661, 77.257
1340.862, 50.665
1342.064, 96.021
1343.265, 96.331
1344.466, 103.595
1345.667, 119.812
1346.868, 96.985
1348.068, 111.117
1349.269, 98.192
1350.469, 121.226
1351.669, 106.217
1352.869, 121.162
1354.069, 128.064
1355.268, 131.952
1356.468, 119.043
1357.667, 149.816
1358.866, 151.548
1360.065, 159.240
1361.263, 138.890
1362.462, 152.500
1363.660, 221.070
1364.858, 170.655
1366.056, 190.149
1367.254, 178.606
1368.451, 165.026
1369.649, 188.410
1370.846, 139.759
1372.043, 135.026
1373.240, 206.306
1374.436, 195.551
1375.633, 207.409
1376.829, 213.709
1378.025, 199.183
1379.221, 192.321
1380.417, 182.288
1381.613, 169.215
1382.808, 159.139
1384.003, 190.079
1385.199, 174.218
1386.393, 214.613
1387.588, 253.775
1388.783, 167.384
1389.977, 183.626
1391.171, 208.107
1392.365, 160.884
1393.559, 163.634
1394.753, 141.629
1395.946, 139.626
1397.140, 131.599
1398.333, 155.394
1399.526, 220.609
1400.719, 135.594
1401.911, 124.037
1403.104, 197.078
1404.296, 153.829
1405.488, 193.929
1406.680, 202.326
1407.872, 204.156
1409.063, 179.394
1410.255, 172.562
1411.446, 148.336
1412.637, 169.003
1413.828, 222.263
1415.018, 202.050
1416.209, 191.838
1417.399, 169.973
1418.589, 175.568
1419.779, 173.913
1420.969, 181.332
1422.159, 187.456
1423.348, 197.095
1424.537, 199.795
1425.726, 215.310
1426.915, 149.908
1428.104, 182.943
1429.293, 144.905
1430.481, 148.370
1431.669, 235.123
1432.857, 167.319
1434.045, 194.656
1435.233, 227.497
1436.420, 220.767
1437.608, 224.227
1438.795, 227.349
1439.982, 220.261
1441.169, 221.756
1442.355, 210.839
1443.542, 214.556
1444.728, 212.710
1445.914, 227.014
1447.100, 194.873
1448.286, 212.690
1449.472, 198.647
1450.657, 184.657
1451.842, 178.403
1453.027, 165.599
1454.212, 156.737
1455.397, 152.193
1456.581, 156.468
1457.766, 163.976
1458.950, 201.126
1460.134, 183.486
1461.318, 192.056
1462.501, 162.290
