##NAMES=Epidote
##RRUFFID=R050303
##IDEAL CHEMISTRY=Ca_2_Fe^3+^Al_2_(Si_2_O_7_)(SiO_4_)O(OH)
##LOCALITY=San Martin mine, Zacatecas, Mexico
##OWNER=RRUFF
##SOURCE=Eugene Schlepp
##DESCRIPTION=Green elongated prismatic crystals
##STATUS=The identification of this mineral has been confirmed by X-ray diffraction and chemical analysis
##URL=rruff.info/R050303
##MEASURED CHEMISTRY=Ca_2.00_Al_2.00_(Fe^3+^_0.97_Al_0.03_)(SiO_4_)(Si_2_O_7_)O(OH)
##PIN_ID=L01452
##ORIENTATION=Laser parallel to c* (0 0 1). Fiducial mark perpendicular to laser is parallel to a [1 0 0]
53.91000, 0.0000000E+00
55.14900, 60.00977
56.38700, 186.6796
57.62600, 205.1448
58.86400, 340.8878
60.10300, 323.0990
61.34100, 163.4692
62.57900, 32.79248
63.81700, 34.64038
65.05400, 142.0798
66.29200, 11.08496
67.52900, 136.4587
68.76700, 403.7812
70.00400, 821.2180
71.24100, 1017.193
72.47700, 1240.205
73.71400, 1872.798
74.95100, 2525.534
76.18700, 3387.002
77.42300, 4160.850
78.65900, 5129.762
79.89500, 6585.470
81.13100, 8236.763
82.36700, 10584.44
83.60200, 13322.32
84.83700, 15972.26
86.07200, 18685.09
87.30800, 21969.69
88.54200, 24065.92
89.77700, 25939.68
91.01200, 27183.85
92.24600, 27985.27
93.48000, 28020.74
94.71400, 26684.10
95.94800, 23726.21
97.18200, 20185.00
98.41600, 16823.37
99.64900, 13846.32
100.8830, 11507.77
102.1160, 9534.669
103.3490, 8368.975
104.5820, 7908.669
105.8150, 7332.791
107.0470, 8126.348
108.2800, 8811.300
109.5120, 7012.598
110.7440, 5285.201
111.9760, 4774.064
113.2080, 4541.153
114.4400, 4859.430
115.6710, 4644.866
116.9030, 4414.431
118.1340, 3780.095
119.3650, 3491.834
120.5960, 3606.623
121.8270, 3636.439
123.0580, 3687.259
124.2880, 3538.066
125.5190, 3292.835
126.7490, 3029.553
127.9790, 2960.007
129.2090, 2998.591
130.4390, 3039.281
131.6680, 2852.071
132.8980, 2782.914
134.1270, 2701.878
135.3560, 2569.140
136.5850, 2672.738
137.8140, 2912.708
139.0430, 2932.076
140.2710, 2812.868
141.5000, 2647.265
142.7280, 2741.576
143.9560, 2840.760
145.1840, 2889.529
146.4120, 2796.764
147.6390, 2943.473
148.8670, 2945.666
150.0940, 3231.353
151.3210, 3503.541
152.5490, 3754.379
153.7750, 4058.235
155.0020, 4519.424
156.2290, 4982.961
157.4550, 5766.701
158.6810, 6889.419
159.9080, 8040.723
161.1340, 9612.456
162.3590, 11281.63
163.5850, 13552.23
164.8110, 15717.27
166.0360, 17625.73
167.2610, 19838.63
168.4860, 21272.97
169.7110, 21566.74
170.9360, 20435.94
172.1610, 18577.58
173.3850, 16242.65
174.6100, 13783.14
175.8340, 11406.07
177.0580, 9887.430
178.2820, 8357.218
179.5050, 7251.432
180.7290, 6354.069
181.9520, 5602.133
183.1760, 5307.616
184.3990, 5025.519
185.6220, 4493.836
186.8450, 4317.572
188.0670, 3834.718
189.2900, 3750.275
190.5120, 3606.243
191.7340, 3508.615
192.9560, 3520.391
194.1780, 3574.569
195.4000, 3709.146
196.6220, 4102.121
197.8430, 4135.487
199.0640, 4293.250
200.2860, 4085.400
201.5070, 3843.896
202.7270, 3534.387
203.9480, 3090.851
205.1690, 2899.066
206.3890, 2677.868
207.6090, 2512.861
208.8290, 2666.454
210.0490, 2652.097
211.2690, 3021.996
212.4890, 3251.561
213.7080, 3642.834
214.9280, 4259.057
216.1470, 4939.084
217.3660, 5918.879
218.5850, 6849.414
219.8030, 8061.661
221.0220, 9315.593
222.2400, 10542.19
223.4590, 11908.42
224.6770, 12940.27
225.8950, 13602.73
227.1120, 13468.46
228.3300, 13204.67
229.5480, 12745.57
230.7650, 12337.07
231.9820, 11889.92
233.1990, 11462.30
234.4160, 11648.70
235.6330, 11598.41
236.8490, 12041.60
238.0660, 11679.26
239.2820, 11052.40
240.4980, 9836.002
241.7140, 8229.110
242.9300, 6690.691
244.1460, 5494.740
245.3610, 4353.264
246.5770, 3609.242
247.7920, 2932.671
249.0070, 2443.947
250.2220, 2205.146
251.4370, 1955.985
252.6510, 1817.340
253.8660, 1497.212
255.0800, 1458.813
256.2940, 1403.366
257.5080, 1699.160
258.7220, 1653.497
259.9360, 2228.688
261.1490, 1970.327
262.3630, 2354.899
263.5760, 2878.748
264.7890, 3493.277
266.0020, 4492.119
267.2150, 5424.271
268.4270, 6465.730
269.6400, 7609.490
270.8520, 8313.548
272.0640, 8780.902
273.2760, 8203.545
274.4880, 7228.476
275.7000, 6215.695
276.9120, 5059.203
278.1230, 4081.000
279.3340, 3578.086
280.5450, 2921.463
281.7560, 2720.129
282.9670, 2321.084
284.1780, 2258.325
285.3880, 2083.854
286.5980, 2104.668
287.8090, 2320.766
289.0190, 2417.345
290.2290, 2653.260
291.4380, 2790.729
292.6480, 3012.935
293.8570, 2954.410
295.0670, 2767.157
296.2760, 2947.174
297.4850, 2807.459
298.6930, 2716.009
299.9020, 2615.819
301.1110, 3033.887
302.3190, 3066.205
303.5270, 3355.771
304.7350, 3714.579
305.9430, 4028.628
307.1510, 4740.914
308.3580, 5359.439
309.5660, 5549.205
310.7730, 5613.203
311.9800, 5307.438
313.1870, 4751.906
314.3940, 4440.608
315.6010, 4027.539
316.8070, 3617.699
318.0130, 3460.091
319.2200, 3285.710
320.4260, 3085.555
321.6310, 3079.624
322.8370, 3162.918
324.0430, 2947.434
325.2480, 2849.170
326.4540, 2711.128
327.6590, 2638.303
328.8640, 3458.694
330.0680, 3699.953
331.2730, 2993.125
332.4780, 4981.158
333.6820, 5514.406
334.8860, 6177.863
336.0900, 5726.528
337.2940, 6138.402
338.4980, 7591.484
339.7010, 9036.770
340.9050, 10679.26
342.1080, 12813.95
343.3110, 14423.84
344.5140, 16101.93
345.7170, 16698.22
346.9200, 16710.81
348.1220, 15768.69
349.3240, 14264.87
350.5270, 12217.36
351.7290, 10453.15
352.9310, 8922.234
354.1320, 7371.619
355.3340, 6031.324
356.5350, 5060.330
357.7370, 4299.643
358.9380, 3787.235
360.1390, 3091.104
361.3400, 2726.244
362.5400, 2305.651
363.7410, 1782.325
364.9410, 1346.260
366.1410, 991.8740
367.3410, 699.9043
368.5410, 357.6084
369.7410, 81.56348
370.9400, 154.2334
372.1400, 374.8262
373.3390, 470.2852
374.5380, 492.4707
375.7370, 436.9316
376.9360, 284.1113
378.1350, 123.1426
379.3330, 204.0225
380.5310, 477.4170
381.7300, 882.0488
382.9280, 1063.177
384.1260, 1210.658
385.3230, 1318.272
386.5210, 1385.074
387.7180, 1295.845
388.9160, 887.1074
390.1130, 567.7568
391.3100, 279.9814
392.5060, 90.20312
393.7030, 299.9385
394.9000, 480.1904
396.0960, 565.6084
397.2920, 853.3359
398.4880, 656.5449
399.6840, 824.8887
400.8800, 759.3682
402.0750, 642.9580
403.2710, 580.6074
404.4660, 496.2988
405.6610, 332.9980
406.8560, 67.64355
408.0510, 163.8662
409.2450, 520.5596
410.4400, 1044.439
411.6340, 1549.504
412.8280, 2521.761
414.0220, 3299.204
415.2160, 4487.840
416.4100, 5849.670
417.6030, 7199.684
418.7970, 8975.890
419.9900, 10567.28
421.1830, 12181.87
422.3760, 13904.64
423.5690, 15552.60
424.7610, 17675.75
425.9540, 19988.11
427.1460, 23286.66
428.3380, 26490.41
429.5300, 29549.33
430.7220, 31796.47
431.9140, 31738.78
433.1050, 30138.31
434.2970, 27349.06
435.4880, 24348.00
436.6790, 21405.13
437.8700, 19642.43
439.0610, 18524.94
440.2510, 18152.61
441.4420, 17801.48
442.6320, 18199.55
443.8220, 19084.82
445.0120, 19822.25
446.2020, 20957.84
447.3910, 21610.64
448.5810, 21671.63
449.7700, 21611.82
450.9600, 21195.23
452.1490, 20166.84
453.3370, 18678.66
454.5260, 16661.69
455.7150, 14504.91
456.9030, 12159.34
458.0910, 10154.96
459.2800, 8413.766
460.4670, 6856.760
461.6550, 5786.929
462.8430, 4507.301
464.0300, 3721.842
465.2180, 3229.523
466.4050, 2735.376
467.5920, 2232.381
468.7790, 1705.527
469.9650, 1400.820
471.1520, 991.2793
472.3380, 827.8652
473.5250, 653.5820
474.7110, 543.4336
475.8970, 380.4404
477.0820, 347.5918
478.2680, 281.8750
479.4540, 497.2891
480.6390, 610.8311
481.8240, 762.5078
483.0090, 1029.340
484.1940, 1311.295
485.3780, 1573.371
486.5630, 1932.597
487.7470, 2442.942
488.9320, 3087.397
490.1160, 3950.979
491.3000, 4823.676
492.4830, 5601.479
493.6670, 6334.401
494.8500, 6950.018
496.0340, 7452.245
497.2170, 7933.816
498.4000, 8194.153
499.5820, 8426.520
500.7650, 8594.972
501.9480, 8773.731
503.1300, 8819.434
504.3120, 8995.222
505.4940, 9129.095
506.6760, 8683.047
507.8580, 7856.075
509.0390, 6747.185
510.2210, 5493.371
511.4020, 4696.633
512.5830, 3682.963
513.7640, 2835.666
514.9450, 2266.527
516.1250, 1757.330
517.3060, 1336.119
518.4860, 1091.150
519.6660, 973.2266
520.8460, 747.8447
522.0260, 303.6855
523.2060, 280.4590
524.3850, 93.46582
525.5650, 17.44531
526.7440, 118.3701
527.9230, 36.46777
529.1020, 49.78320
530.2810, 73.72266
531.4590, 55.82227
532.6380, 41.75781
533.8160, 8.269531
534.9940, 25.65137
536.1720, 81.35938
537.3500, 104.4502
538.5270, 191.9092
539.7050, 193.8242
540.8820, 365.7676
542.0590, 499.2773
543.2360, 599.8330
544.4130, 858.6572
545.5900, 1091.826
546.7660, 1233.900
547.9430, 1305.015
549.1190, 1831.426
550.2950, 2374.539
551.4710, 2801.294
552.6470, 3488.969
553.8220, 4610.695
554.9980, 5573.693
556.1730, 7111.813
557.3480, 8374.774
558.5230, 10139.49
559.6980, 11721.63
560.8730, 12336.40
562.0470, 11978.18
563.2220, 10721.95
564.3960, 9497.340
565.5700, 7785.008
566.7440, 7024.350
567.9170, 6126.557
569.0910, 5652.108
570.2640, 5678.426
571.4380, 5834.849
572.6110, 6112.195
573.7840, 6708.293
574.9570, 7455.294
576.1290, 8345.540
577.3020, 9500.098
578.4740, 10677.02
579.6460, 12039.37
580.8180, 13791.12
581.9900, 15075.39
583.1620, 16453.09
584.3330, 17692.82
585.5040, 18975.74
586.6760, 20195.81
587.8470, 21904.22
589.0180, 23766.95
590.1880, 26014.90
591.3590, 27927.68
592.5290, 29796.68
593.7000, 30388.98
594.8700, 30505.63
596.0400, 30236.47
597.2090, 28773.95
598.3790, 27117.04
599.5490, 25416.93
600.7180, 23710.14
601.8870, 22796.37
603.0560, 22076.61
604.2250, 21308.32
605.3940, 21089.31
606.5620, 20743.45
607.7300, 20698.21
608.8990, 20532.73
610.0670, 20137.53
611.2350, 18997.13
612.4020, 17758.96
613.5700, 16041.81
614.7370, 14422.38
615.9050, 12694.54
617.0720, 11002.24
618.2390, 9735.518
619.4060, 8395.399
620.5720, 7185.580
621.7390, 6336.150
622.9050, 5511.457
624.0710, 4909.105
625.2370, 4422.150
626.4030, 4090.900
627.5690, 3582.143
628.7340, 3228.886
629.9000, 3089.676
631.0650, 2843.961
632.2300, 2479.423
633.3950, 2321.700
634.5600, 2177.397
635.7240, 1997.777
636.8890, 1880.708
638.0530, 1701.609
639.2170, 1628.258
640.3810, 1582.530
641.5450, 1442.162
642.7080, 1404.596
643.8720, 1276.891
645.0350, 1180.381
646.1980, 1030.508
647.3610, 1019.925
648.5240, 876.7803
649.6870, 794.7148
650.8490, 704.7646
652.0120, 702.9033
653.1740, 629.2754
654.3360, 661.2871
655.4980, 551.3125
656.6600, 556.2510
657.8210, 530.2148
658.9830, 482.0010
660.1440, 445.7451
661.3050, 414.4209
662.4660, 185.0127
663.6270, 326.4971
664.7870, 388.6250
665.9480, 212.5342
667.1080, 340.4404
668.2680, 222.2881
669.4280, 269.2920
670.5880, 271.9287
671.7480, 237.3027
672.9070, 272.0010
674.0670, 205.6660
675.2260, 275.7578
676.3850, 257.4238
677.5440, 215.2773
678.7030, 285.4404
679.8610, 276.0244
681.0200, 242.7227
682.1780, 271.2930
683.3360, 202.3242
684.4940, 251.1875
685.6520, 236.0713
686.8090, 190.9619
687.9670, 123.8184
689.1240, 278.5840
690.2810, 214.2549
691.4380, 226.8232
692.5950, 106.2939
693.7520, 146.6455
694.9080, 94.88477
696.0650, 65.00195
697.2210, 119.9893
698.3770, 62.85742
699.5330, 122.5947
700.6880, 1.211914
701.8440, 127.6719
702.9990, 101.0127
704.1550, 5.227539
705.3100, 22.71387
706.4650, 19.82715
707.6190, 8.887695
708.7740, 70.44727
709.9290, 52.12793
711.0830, 14.10645
712.2370, 49.81445
713.3910, 133.9258
714.5450, 30.27246
715.6980, 2.798828
716.8520, 53.50781
718.0050, 62.32715
719.1580, 60.63867
720.3110, 28.53613
721.4640, 114.8926
722.6170, 51.47754
723.7700, 57.74512
724.9220, 88.82422
726.0740, 94.23047
727.2260, 83.50391
728.3780, 118.9883
729.5300, 148.7021
730.6810, 136.4932
731.8330, 157.7803
732.9840, 132.3037
734.1350, 135.9775
735.2860, 146.8896
736.4370, 78.04395
737.5880, 107.7139
738.7380, 97.99121
739.8880, 67.79004
741.0390, 164.7920
742.1890, 46.04395
743.3380, 75.51758
744.4880, 56.05957
745.6380, 3.827148
746.7870, 46.24121
747.9360, 8.168945
749.0850, 70.06055
750.2340, 172.5156
751.3830, 59.97266
752.5310, 69.29199
753.6800, 54.52051
754.8280, 17.51855
755.9760, 28.32031
757.1240, 23.01855
758.2720, 41.57520
759.4190, 8.003906
760.5670, 85.73926
761.7140, 32.33105
762.8610, 55.26660
764.0080, 83.92969
765.1550, 35.68359
766.3020, 111.1650
767.4480, 12.47363
768.5950, 17.73926
769.7410, 109.8184
770.8870, 12.22168
772.0330, 5.406250
773.1780, 95.26953
774.3240, 56.82617
775.4690, 109.2617
776.6140, 58.58301
777.7590, 144.7842
778.9040, 107.8779
780.0490, 194.8594
781.1940, 117.7393
782.3380, 93.50879
783.4820, 193.1689
784.6260, 306.7285
785.7700, 117.1963
786.9140, 101.5576
788.0580, 162.8125
789.2010, 283.9678
790.3450, 227.0322
791.4880, 252.0049
792.6310, 259.8857
793.7730, 387.6768
794.9160, 232.3809
796.0590, 398.9941
797.2010, 306.5186
798.3430, 464.9580
799.4850, 376.3096
800.6270, 455.7021
801.7690, 516.8359
802.9100, 577.9502
804.0520, 643.7979
805.1930, 651.8359
806.3340, 717.0186
807.4750, 790.7451
808.6160, 788.5488
809.7560, 848.1055
810.8970, 863.9482
812.0370, 1105.294
813.1770, 1177.075
814.3170, 1199.764
815.4570, 1397.104
816.5960, 1379.688
817.7360, 1686.195
818.8750, 1759.508
820.0140, 1918.852
821.1530, 1928.567
822.2920, 2374.650
823.4310, 2632.553
824.5690, 2658.775
825.7070, 2790.716
826.8460, 3013.562
827.9840, 3108.731
829.1220, 3187.948
830.2590, 3101.080
831.3970, 3226.903
832.5340, 3057.572
833.6710, 3190.363
834.8080, 3168.371
835.9450, 3224.908
837.0820, 3190.777
838.2190, 3248.605
839.3550, 3213.396
840.4910, 3268.538
841.6270, 3197.357
842.7630, 3230.464
843.8990, 3401.667
845.0350, 3314.482
846.1700, 3612.492
847.3060, 3775.354
848.4410, 3854.250
849.5760, 4067.064
850.7100, 4279.512
851.8450, 4516.381
852.9800, 4959.896
854.1140, 4862.006
855.2480, 5320.643
856.3820, 5504.837
857.5160, 5668.463
858.6500, 6034.609
859.7830, 6332.682
860.9170, 6479.525
862.0500, 6425.210
863.1830, 6568.463
864.3160, 6814.349
865.4480, 6984.977
866.5810, 7252.771
867.7130, 7382.260
868.8460, 7750.178
869.9780, 8194.308
871.1100, 8484.815
872.2410, 9123.761
873.3730, 9844.921
874.5050, 10602.24
875.6360, 11447.18
876.7670, 12175.05
877.8980, 13136.87
879.0290, 13918.19
880.1590, 14477.18
881.2900, 14854.69
882.4200, 14970.10
883.5500, 14986.46
884.6800, 14764.48
885.8100, 14285.67
886.9400, 14018.58
888.0690, 13913.41
889.1990, 13774.47
890.3280, 13851.91
891.4570, 14173.76
892.5860, 14563.98
893.7140, 15326.12
894.8430, 16059.78
895.9710, 17232.56
897.1000, 18374.56
898.2280, 19760.18
899.3560, 21398.36
900.4830, 23302.78
901.6110, 25635.67
902.7380, 28006.01
903.8660, 30758.24
904.9930, 34010.91
906.1200, 37496.36
907.2460, 40940.95
908.3730, 44266.05
909.5000, 47319.43
910.6260, 49403.21
911.7520, 50737.94
912.8780, 50312.32
914.0040, 49567.14
915.1290, 46607.99
916.2550, 43361.98
917.3800, 39167.05
918.5050, 34978.88
919.6300, 30602.01
920.7550, 26925.80
921.8800, 23309.09
923.0040, 20459.24
924.1290, 17700.23
925.2530, 15536.08
926.3770, 13579.72
927.5010, 12067.51
928.6250, 10508.38
929.7480, 9366.485
930.8720, 8384.326
931.9950, 7549.489
933.1180, 6708.680
934.2410, 6121.902
935.3640, 5480.158
936.4860, 4918.454
937.6090, 4557.784
938.7310, 4208.146
939.8530, 3797.550
940.9750, 3540.988
942.0970, 3445.465
943.2180, 3196.979
944.3400, 3034.530
945.4610, 2818.119
946.5820, 2653.746
947.7030, 2469.411
948.8240, 2567.115
949.9450, 2458.857
951.0650, 2408.642
952.1860, 2474.463
953.3060, 2457.326
954.4260, 2328.229
955.5460, 2407.177
956.6650, 2154.167
957.7850, 2016.209
958.9040, 2060.296
960.0230, 1997.431
961.1420, 1837.620
962.2610, 1781.854
963.3800, 1730.986
964.4990, 1661.473
965.6170, 1698.876
966.7350, 1681.336
967.8530, 1729.857
968.9710, 1995.454
970.0890, 1954.112
971.2070, 2236.836
972.3240, 2242.630
973.4410, 2474.507
974.5580, 2607.456
975.6750, 2612.493
976.7920, 2672.612
977.9090, 2395.828
979.0250, 2289.152
980.1410, 1971.559
981.2580, 1633.040
982.3740, 1316.623
983.4890, 1087.829
984.6050, 930.0723
985.7200, 732.9990
986.8360, 629.0420
987.9510, 616.7891
989.0660, 434.0029
990.1810, 282.3418
991.2950, 339.7588
992.4100, 121.2812
993.5240, 86.95410
994.6390, 9.739258
995.7530, 0.6181640
996.8660, 87.60059
997.9800, 61.71484
999.0940, 46.95703
1000.207, 4.665039
1001.320, 7.868164
1002.433, 79.93457
1003.546, 117.8115
1004.659, 59.54590
1005.772, 17.26074
1006.884, 167.9707
1007.996, 166.3164
1009.108, 316.3408
1010.220, 415.9570
1011.332, 625.8203
1012.444, 727.6211
1013.555, 683.1064
1014.666, 711.7559
1015.777, 668.0537
1016.888, 660.2266
1017.999, 650.3691
1019.110, 600.9463
1020.220, 594.4883
1021.331, 610.1357
1022.441, 635.1123
1023.551, 692.1357
1024.661, 773.8496
1025.770, 821.8311
1026.880, 951.5293
1027.989, 1005.684
1029.098, 1143.920
1030.207, 1317.309
1031.316, 1591.481
1032.425, 1606.040
1033.533, 1777.986
1034.642, 1940.352
1035.750, 1982.161
1036.858, 2141.047
1037.966, 2034.030
1039.073, 1979.097
1040.181, 2011.236
1041.288, 1818.488
1042.396, 1751.334
1043.503, 1749.764
1044.610, 1573.296
1045.716, 1268.901
1046.823, 1155.585
1047.929, 1098.343
1049.036, 1164.181
1050.142, 952.1045
1051.248, 941.1016
1052.353, 1051.172
1053.459, 1095.317
1054.564, 1010.536
1055.670, 1124.832
1056.775, 1002.212
1057.880, 1066.668
1058.985, 1151.200
1060.089, 1078.805
1061.194, 938.4756
1062.298, 986.2100
1063.402, 926.0107
1064.506, 1077.875
1065.610, 1043.811
1066.713, 1231.809
1067.817, 1272.869
1068.920, 1477.990
1070.023, 1701.172
1071.126, 1831.414
1072.229, 2332.718
1073.332, 2670.086
1074.435, 3305.519
1075.537, 4095.020
1076.639, 5074.586
1077.741, 6241.213
1078.843, 7623.902
1079.945, 8989.649
1081.046, 10310.45
1082.148, 10749.32
1083.249, 10859.25
1084.350, 10133.23
1085.451, 9089.274
1086.551, 7388.375
1087.652, 6098.537
1088.752, 4964.755
1089.853, 3917.539
1090.953, 3225.872
1092.053, 2597.260
1093.152, 1978.702
1094.252, 1611.200
1095.351, 1426.754
1096.451, 1139.773
1097.550, 1048.304
1098.649, 1017.387
1099.748, 713.1523
1100.846, 639.1240
1101.945, 493.9941
1103.043, 514.9150
1104.141, 334.4580
1105.239, 315.0684
1106.337, 396.4092
1107.434, 289.3154
1108.532, 236.7891
1109.629, 96.58301
1110.726, 195.1973
1111.823, 111.5137
1112.920, 73.43164
1114.017, 144.1777
1115.113, 129.6172
1116.210, 177.1152
1117.306, 177.1006
1118.402, 43.36621
1119.498, 35.75586
1120.593, 277.5059
1121.689, 304.1572
1122.784, 109.2285
1123.879, 85.25977
1124.974, 79.30859
1126.069, 22.17871
1127.164, 112.4531
1128.259, 67.62402
1129.353, 41.95996
1130.447, 126.9678
1131.541, 123.6777
1132.635, 84.46387
1133.729, 61.99805
1134.822, 14.61035
1135.916, 20.76172
1137.009, 46.29492
1138.102, 54.44336
1139.195, 14.07324
1140.288, 22.72949
1141.380, 10.52637
1142.473, 43.87305
1143.565, 68.57812
1144.657, 55.27930
1145.749, 22.97363
1146.841, 126.6504
1147.932, 168.3447
1149.024, 29.06934
1150.115, 97.78223
1151.206, 150.8340
1152.297, 4.130859
1153.388, 37.53711
1154.479, 129.1309
1155.569, 26.51855
1156.659, 52.54492
1157.750, 78.20312
1158.839, 91.12305
1159.929, 47.76855
1161.019, 60.60156
1162.108, 77.27441
1163.198, 84.54785
1164.287, 37.64551
1165.376, 46.25293
1166.465, 41.06348
1167.553, 73.93652
1168.642, 109.6494
1169.730, 46.77148
1170.818, 133.1494
1171.906, 71.25586
1172.994, 36.35547
1174.082, 164.0088
1175.170, 238.6309
1176.257, 89.02637
1177.344, 95.50781
1178.431, 113.1514
1179.518, 163.3037
1180.605, 78.15918
1181.691, 97.94629
1182.778, 230.1084
1183.864, 174.8760
1184.950, 173.6807
1186.036, 143.1943
1187.122, 218.1289
1188.207, 185.1436
1189.292, 128.4775
1190.378, 269.7637
1191.463, 155.9443
1192.548, 356.4844
1193.632, 227.3369
1194.717, 146.7168
1195.801, 221.7236
1196.886, 86.09375
1197.970, 275.9648
1199.054, 353.6045
1200.137, 107.9570
1201.221, 116.4307
1202.305, 268.1260
1203.388, 138.6094
1204.471, 210.3643
1205.554, 248.6953
1206.637, 145.5889
1207.719, 92.06641
1208.802, 162.3047
1209.884, 219.5752
1210.966, 156.0166
1212.048, 197.5098
1213.130, 274.1143
1214.212, 266.5342
1215.293, 155.7402
1216.374, 62.34570
1217.456, 84.51855
1218.536, 201.6826
1219.617, 1.875977
1220.698, 163.8428
1221.778, 93.94434
1222.859, 105.0303
1223.939, 70.37207
1225.019, 101.6611
1226.099, 33.72949
1227.178, 2.260742
1228.258, 37.71191
1229.337, 115.6621
1230.417, 4.409180
1231.496, 199.4805
1232.574, 235.3496
1233.653, 10.19727
1234.732, 37.04199
1235.810, 0.1748050
1236.888, 40.85840
1237.966, 52.28809
