##NAMES=Epidote
##RRUFFID=R050303
##IDEAL CHEMISTRY=Ca_2_Fe^3+^Al_2_(Si_2_O_7_)(SiO_4_)O(OH)
##LOCALITY=San Martin mine, Zacatecas, Mexico
##OWNER=RRUFF
##SOURCE=Eugene Schlepp
##DESCRIPTION=Green elongated prismatic crystals
##STATUS=The identification of this mineral has been confirmed by X-ray diffraction and chemical analysis
##URL=rruff.info/R050303
##MEASURED CHEMISTRY=Ca_2.00_Al_2.00_(Fe^3+^_0.97_Al_0.03_)(SiO_4_)(Si_2_O_7_)O(OH)
##PIN_ID=L01647
##ORIENTATION=Laser parallel to (1 0 1). Fiducial mark perpendicular to laser is parallel to b [0 1 0]
53.91000, 0.0000000E+00
55.14900, 28.11899
56.38700, 76.51807
57.62600, 104.8329
58.86400, 131.7130
60.10300, 190.5914
61.34100, 199.6665
62.57900, 125.5036
63.81700, 100.4852
65.05400, 40.36740
66.29200, 12.08063
67.52900, 33.99524
68.76700, 3.517578
70.00400, 33.21295
71.24100, 13.93689
72.47700, 43.09149
73.71400, 40.37018
74.95100, 14.10284
76.18700, 122.2051
77.42300, 182.8335
78.65900, 308.9116
79.89500, 431.3701
81.13100, 667.1417
82.36700, 978.1626
83.60200, 1330.373
84.83700, 1415.717
86.07200, 1653.144
87.30800, 1959.606
88.54200, 2105.061
89.77700, 2285.468
91.01200, 2459.789
92.24600, 2450.966
93.48000, 2325.931
94.71400, 2220.621
95.94800, 1926.982
97.18200, 1634.976
98.41600, 1518.583
99.64900, 1325.832
100.8830, 1222.753
102.1160, 1074.345
103.3490, 941.5826
104.5820, 921.4365
105.8150, 1028.880
107.0470, 1476.891
108.2800, 1154.156
109.5120, 1493.529
110.7440, 791.1213
111.9760, 616.2070
113.2080, 553.7725
114.4400, 724.8042
115.6710, 900.2905
116.9030, 938.2202
118.1340, 931.5837
119.3650, 750.3711
120.5960, 754.5730
121.8270, 790.1812
123.0580, 911.1882
124.2880, 860.5862
125.5190, 833.3687
126.7490, 838.5295
127.9790, 1004.995
129.2090, 1041.554
130.4390, 1268.194
131.6680, 1316.899
132.8980, 1545.665
134.1270, 1786.470
135.3560, 1955.309
136.5850, 2080.270
137.8140, 2208.348
139.0430, 2144.575
140.2710, 2093.969
141.5000, 1932.638
142.7280, 1927.945
143.9560, 2025.018
145.1840, 2028.892
146.4120, 2223.479
147.6390, 2456.566
148.8670, 2677.953
150.0940, 3140.571
151.3210, 3735.365
152.5490, 4223.312
153.7750, 4631.408
155.0020, 5545.661
156.2290, 6113.073
157.4550, 6809.647
158.6810, 7326.387
159.9080, 7778.292
161.1340, 7792.363
162.3590, 8144.602
163.5850, 7869.012
164.8110, 7801.592
166.0360, 7410.343
167.2610, 7347.265
168.4860, 7007.361
169.7110, 6549.628
170.9360, 5967.070
172.1610, 5150.686
173.3850, 4280.477
174.6100, 3605.442
175.8340, 2889.582
177.0580, 2402.896
178.2820, 1964.383
179.5050, 1694.045
180.7290, 1383.880
181.9520, 1219.889
183.1760, 1008.070
184.3990, 885.4243
185.6220, 941.9512
186.8450, 997.6497
188.0670, 1106.520
189.2900, 1298.561
190.5120, 1575.774
191.7340, 1743.157
192.9560, 2102.710
194.1780, 2298.434
195.4000, 2527.325
196.6220, 2707.385
197.8430, 2692.614
199.0640, 2664.011
200.2860, 2618.576
201.5070, 2511.292
202.7270, 2382.834
203.9480, 2246.257
205.1690, 2048.501
206.3890, 1782.657
207.6090, 1555.535
208.8290, 1391.344
210.0490, 1164.123
211.2690, 956.0037
212.4890, 895.4229
213.7080, 796.6384
214.9280, 755.0442
216.1470, 739.3997
217.3660, 901.4888
218.5850, 889.6235
219.8030, 1114.345
221.0220, 1253.603
222.2400, 1585.810
223.4590, 1883.276
224.6770, 2330.996
225.8950, 2947.963
227.1120, 3686.413
228.3300, 4589.593
229.5480, 5740.197
230.7650, 6930.433
231.9820, 8222.767
233.1990, 9547.716
234.4160, 10437.84
235.6330, 11322.20
236.8490, 11569.67
238.0660, 11502.17
239.2820, 11248.86
240.4980, 10692.60
241.7140, 10081.30
242.9300, 9683.033
244.1460, 9009.514
245.3610, 8475.961
246.5770, 7715.371
247.7920, 6766.957
249.0070, 5724.749
250.2220, 4584.748
251.4370, 3662.945
252.6510, 2864.342
253.8660, 2314.911
255.0800, 1945.675
256.2940, 1758.579
257.5080, 1778.632
258.7220, 1624.178
259.9360, 1922.179
261.1490, 1699.669
262.3630, 2017.302
263.5760, 2300.075
264.7890, 2700.989
266.0020, 3214.039
267.2150, 3577.227
268.4270, 3804.547
269.6400, 3980.001
270.8520, 4074.587
272.0640, 4169.303
273.2760, 4320.149
274.4880, 4468.123
275.7000, 4744.223
276.9120, 5028.452
278.1230, 5010.808
279.3340, 5110.293
280.5450, 5191.905
281.7560, 5432.648
282.9670, 5674.519
284.1780, 6215.516
285.3880, 6632.644
286.5980, 7228.897
287.8090, 7791.279
289.0190, 7964.783
290.2290, 8350.409
291.4380, 8387.156
292.6480, 8341.014
293.8570, 8215.985
295.0670, 7874.071
296.2760, 7647.268
297.4850, 7103.576
298.6930, 6461.995
299.9020, 5849.525
301.1110, 5173.164
302.3190, 4653.917
303.5270, 3853.778
304.7350, 3301.749
305.9430, 2750.831
307.1510, 2260.021
308.3580, 1847.320
309.5660, 1569.729
310.7730, 1447.245
311.9800, 1281.870
313.1870, 1227.604
314.3940, 1173.444
315.6010, 1317.392
316.8070, 1369.446
318.0130, 1446.607
319.2200, 1617.875
320.4260, 1718.248
321.6310, 1846.727
322.8370, 1864.311
324.0430, 2001.000
325.2480, 2078.793
326.4540, 2252.691
327.6590, 2504.693
328.8640, 2829.798
330.0680, 3079.006
331.2730, 3462.315
332.4780, 4024.729
333.6820, 4678.242
334.8860, 5629.857
336.0900, 6664.573
337.2940, 8172.391
338.4980, 9488.306
339.7010, 11099.32
340.9050, 12514.44
342.1080, 13548.65
343.3110, 14319.96
344.5140, 14903.38
345.7170, 14914.88
346.9200, 14838.52
348.1220, 14297.29
349.3240, 13624.19
350.5270, 12906.23
351.7290, 11719.40
352.9310, 10610.71
354.1320, 9203.146
355.3340, 7874.727
356.5350, 6515.443
357.7370, 5235.297
358.9380, 4165.296
360.1390, 3351.439
361.3400, 2615.717
362.5400, 2052.122
363.7410, 1573.660
364.9410, 1111.332
366.1410, 837.1372
367.3410, 572.0664
368.5410, 287.1299
369.7410, 32.31396
370.9400, 5.629883
372.1400, 273.9312
373.3390, 380.4756
374.5380, 367.0532
375.7370, 482.6504
376.9360, 469.3184
378.1350, 527.0527
379.3330, 426.8872
380.5310, 463.7822
381.7300, 379.7529
382.9280, 298.7671
384.1260, 142.7915
385.3230, 112.7666
386.5210, 108.6816
387.7180, 22.53613
388.9160, 68.30078
390.1130, 23.89404
391.3100, 28.39746
392.5060, 112.4170
393.7030, 87.00537
394.9000, 111.8491
396.0960, 175.0591
397.2920, 252.7681
398.4880, 241.2026
399.6840, 286.5757
400.8800, 425.8013
402.0750, 577.1260
403.2710, 741.5488
404.4660, 952.0693
405.6610, 1349.688
406.8560, 1615.401
408.0510, 2057.213
409.2450, 2564.119
410.4400, 3176.120
411.6340, 4091.216
412.8280, 5178.408
414.0220, 6305.690
415.2160, 7701.066
416.4100, 8793.537
417.6030, 9928.097
418.7970, 10753.75
419.9900, 11617.50
421.1830, 12278.33
422.3760, 13161.26
423.5690, 14016.27
424.7610, 15379.38
425.9540, 16314.57
427.1460, 17171.85
428.3380, 17764.23
429.5300, 18148.68
430.7220, 18606.24
431.9140, 18970.89
433.1050, 19445.63
434.2970, 20624.48
435.4880, 21939.42
436.6790, 24064.46
437.8700, 26562.61
439.0610, 29499.86
440.2510, 32943.22
441.4420, 36431.70
442.6320, 39532.31
443.8220, 42654.05
445.0120, 45354.89
446.2020, 47637.86
447.3910, 48938.95
448.5810, 50171.16
449.7700, 51039.48
450.9600, 50993.90
452.1490, 49817.44
453.3370, 47765.08
454.5260, 44969.84
455.7150, 42188.70
456.9030, 38848.66
458.0910, 35668.74
459.2800, 32484.93
460.4670, 28946.25
461.6550, 25040.68
462.8430, 21814.25
464.0300, 18392.90
465.2180, 15636.66
466.4050, 13199.51
467.5920, 11200.46
468.7790, 9606.509
469.9650, 8382.651
471.1520, 7312.884
472.3380, 6394.216
473.5250, 5949.640
474.7110, 5419.160
475.8970, 5104.771
477.0820, 4664.465
478.2680, 4685.240
479.4540, 4536.098
480.6390, 4597.043
481.8240, 4771.074
483.0090, 4916.189
484.1940, 5288.376
485.3780, 5715.642
486.5630, 6369.982
487.7470, 7077.388
488.9320, 7959.869
490.1160, 8541.420
491.3000, 9228.035
492.4830, 9881.717
493.6670, 10034.46
494.8500, 10244.28
496.0340, 10125.17
497.2170, 9744.114
498.4000, 9570.121
499.5820, 9254.193
500.7650, 8981.319
501.9480, 8526.852
503.1300, 7779.542
504.3120, 7214.847
505.4940, 6315.913
506.6760, 5554.333
507.8580, 4996.903
509.0390, 4263.429
510.2210, 3720.500
511.4020, 3388.128
512.5830, 2945.118
513.7640, 2735.920
514.9450, 2436.977
516.1250, 2147.918
517.3060, 1916.793
518.4860, 1727.188
519.6660, 1555.482
520.8460, 1472.171
522.0260, 1356.600
523.2060, 1155.546
524.3850, 1023.323
525.5650, 903.1406
526.7440, 629.1392
527.9230, 467.4116
529.1020, 248.8745
530.2810, 39.81348
531.4590, 35.99902
532.6380, 106.5688
533.8160, 176.1289
534.9940, 204.7256
536.1720, 167.3706
537.3500, 192.0503
538.5270, 139.7749
539.7050, 22.52393
540.8820, 6.748535
542.0590, 146.0522
543.2360, 343.3936
544.4130, 542.7715
545.5900, 829.1855
546.7660, 1160.635
547.9430, 1524.120
549.1190, 2132.638
550.2950, 2891.191
551.4710, 3903.776
552.6470, 5460.393
553.8220, 7099.042
554.9980, 9299.722
556.1730, 11360.43
557.3480, 13127.17
558.5230, 14504.94
559.6980, 15125.73
560.8730, 15444.56
562.0470, 14817.41
563.2220, 14193.29
564.3960, 13841.19
565.5700, 13371.11
566.7440, 12444.06
567.9170, 11324.04
569.0910, 9598.615
570.2640, 7817.773
571.4380, 6199.309
572.6110, 5256.200
573.7840, 4436.122
574.9570, 4168.181
576.1290, 4139.073
577.3020, 4311.521
578.4740, 4512.418
579.6460, 4862.560
580.8180, 5403.722
581.9900, 5691.571
583.1620, 6077.233
584.3330, 6771.754
585.5040, 7297.145
586.6760, 8076.780
587.8470, 8998.614
589.0180, 9817.830
590.1880, 10551.88
591.3590, 11072.20
592.5290, 11496.65
593.7000, 11756.45
594.8700, 11931.22
596.0400, 11925.16
597.2090, 11844.12
598.3790, 11595.52
599.5490, 11343.98
600.7180, 10830.57
601.8870, 10201.34
603.0560, 9697.119
604.2250, 9056.938
605.3940, 8486.083
606.5620, 7976.328
607.7300, 7448.698
608.8990, 7062.934
610.0670, 6532.494
611.2350, 6006.523
612.4020, 5633.733
613.5700, 5084.292
614.7370, 4696.652
615.9050, 4235.812
617.0720, 3739.271
618.2390, 3244.917
619.4060, 2852.125
620.5720, 2433.286
621.7390, 2150.955
622.9050, 1799.074
624.0710, 1537.425
625.2370, 1255.266
626.4030, 1067.688
627.5690, 888.3672
628.7340, 837.5068
629.9000, 660.4387
631.0650, 620.3433
632.2300, 612.7363
633.3950, 432.6694
634.5600, 378.3086
635.7240, 360.9651
636.8890, 307.1340
638.0530, 212.2219
639.2170, 250.5635
640.3810, 231.1448
641.5450, 106.0076
642.7080, 100.5769
643.8720, 168.9062
645.0350, 88.28662
646.1980, 76.31934
647.3610, 72.52393
648.5240, 154.6887
649.6870, 32.29346
650.8490, 170.2251
652.0120, 36.95264
653.1740, 37.06763
654.3360, 75.89673
655.4980, 134.4231
656.6600, 37.08447
657.8210, 53.93188
658.9830, 47.53540
660.1440, 118.5208
661.3050, 164.9055
662.4660, 111.5454
663.6270, 167.1260
664.7870, 282.8843
665.9480, 262.6423
667.1080, 307.2402
668.2680, 275.7788
669.4280, 422.0645
670.5880, 447.2915
671.7480, 616.6030
672.9070, 666.6636
674.0670, 750.2656
675.2260, 859.3560
676.3850, 1103.249
677.5440, 1256.832
678.7030, 1450.970
679.8610, 1736.438
681.0200, 1907.021
682.1780, 2027.803
683.3360, 2206.538
684.4940, 2266.225
685.6520, 2325.864
686.8090, 2350.455
687.9670, 2239.997
689.1240, 2136.490
690.2810, 2055.933
691.4380, 1858.326
692.5950, 1727.669
693.7520, 1518.962
694.9080, 1278.203
696.0650, 1087.394
697.2210, 955.5320
698.3770, 813.6187
699.5330, 666.6533
700.6880, 594.6353
701.8440, 429.5642
702.9990, 383.4404
704.1550, 344.2627
705.3100, 325.0312
706.4650, 241.7456
707.6190, 98.40576
708.7740, 142.0056
709.9290, 107.5481
711.0830, 3.969482
712.2370, 37.42017
713.3910, 34.73560
714.5450, 14.97559
715.6980, 26.13159
716.8520, 0.7915040
718.0050, 67.80786
719.1580, 3.952637
720.3110, 62.18457
721.4640, 122.5591
722.6170, 88.08350
723.7700, 85.74829
724.9220, 57.55225
726.0740, 76.48096
727.2260, 66.54443
728.3780, 79.73755
729.5300, 37.06763
730.6810, 69.51196
731.8330, 44.08765
732.9840, 59.78149
734.1350, 23.60181
735.2860, 38.52954
736.4370, 70.57202
737.5880, 103.7466
738.7380, 122.0701
739.8880, 125.5522
741.0390, 126.1943
742.1890, 15.99707
743.3380, 5.902344
744.4880, 71.90381
745.6380, 4.963867
746.7870, 89.25903
747.9360, 15.62085
749.0850, 8.083252
750.2340, 59.64136
751.3830, 34.32202
752.5310, 48.11157
753.6800, 30.01636
754.8280, 4.026855
755.9760, 8.128418
757.1240, 2.322998
758.2720, 34.60693
759.4190, 27.99658
760.5670, 20.48755
761.7140, 9.924316
762.8610, 2.744141
764.0080, 3.500732
765.1550, 54.66357
766.3020, 1.244873
767.4480, 15.76270
768.5950, 72.69458
769.7410, 38.55835
770.8870, 7.350342
772.0330, 10.93433
773.1780, 14.69531
774.3240, 39.25073
775.4690, 40.73560
776.6140, 22.15112
777.7590, 69.49487
778.9040, 5.226563
780.0490, 61.63208
781.1940, 7.325684
782.3380, 67.38867
783.4820, 17.31885
784.6260, 69.60132
785.7700, 66.36060
786.9140, 27.15430
788.0580, 71.38696
789.2010, 8.054199
790.3450, 43.34180
791.4880, 57.56177
792.6310, 85.01880
793.7730, 71.38428
794.9160, 51.39844
796.0590, 76.99854
797.2010, 39.28564
798.3430, 109.1985
799.4850, 82.32959
800.6270, 93.02393
801.7690, 74.04346
802.9100, 74.30884
804.0520, 89.91211
805.1930, 92.76294
806.3340, 126.5591
807.4750, 176.3027
808.6160, 164.9951
809.7560, 180.6467
810.8970, 241.2720
812.0370, 247.8857
813.1770, 241.4944
814.3170, 297.0901
815.4570, 275.6792
816.5960, 376.2507
817.7360, 323.7817
818.8750, 428.2671
820.0140, 409.7041
821.1530, 487.0928
822.2920, 513.4336
823.4310, 551.7266
824.5690, 595.9724
825.7070, 640.1709
826.8460, 695.3232
827.9840, 737.4294
829.1220, 750.4895
830.2590, 842.5039
831.3970, 859.4731
832.5340, 912.3975
833.6710, 919.2771
834.8080, 951.1130
835.9450, 1048.905
837.0820, 1129.653
838.2190, 1213.359
839.3550, 1199.021
840.4910, 1265.642
841.6270, 1310.220
842.7630, 1342.758
843.8990, 1536.253
845.0350, 1630.129
846.1700, 1729.405
847.3060, 1970.285
848.4410, 2064.792
849.5760, 2310.247
850.7100, 2547.546
851.8450, 2807.995
852.9800, 3134.866
854.1140, 3464.268
855.2480, 3767.407
856.3820, 4211.502
857.5160, 4547.892
858.6500, 4992.447
859.7830, 5415.121
860.9170, 5841.904
862.0500, 6435.422
863.1830, 6801.720
864.3160, 7330.615
865.4480, 7746.653
866.5810, 8288.350
867.7130, 8756.988
868.8460, 9357.211
869.9780, 9598.433
871.1100, 10082.92
872.2410, 10526.46
873.3730, 10850.98
874.5050, 11205.42
875.6360, 11426.72
876.7670, 11676.80
877.8980, 12056.86
879.0290, 12053.86
880.1590, 12142.50
881.2900, 12181.03
882.4200, 12028.41
883.5500, 11611.91
884.6800, 11023.07
885.8100, 10382.73
886.9400, 9827.198
888.0690, 9040.297
889.1990, 8405.574
890.3280, 7613.032
891.4570, 6910.187
892.5860, 6321.125
893.7140, 5641.495
894.8430, 5303.904
895.9710, 4758.782
897.1000, 4489.185
898.2280, 4207.336
899.3560, 4055.970
900.4830, 3923.001
901.6110, 3816.120
902.7380, 3828.036
903.8660, 3893.497
904.9930, 3821.963
906.1200, 3974.922
907.2460, 3927.312
908.3730, 4134.974
909.5000, 4214.591
910.6260, 4235.679
911.7520, 4266.819
912.8780, 4196.335
914.0040, 4254.270
915.1290, 3974.550
916.2550, 3893.097
917.3800, 3727.861
918.5050, 3436.546
919.6300, 3124.553
920.7550, 2786.352
921.8800, 2460.163
923.0040, 2137.504
924.1290, 1867.477
925.2530, 1620.570
926.3770, 1445.343
927.5010, 1223.311
928.6250, 1090.605
929.7480, 973.8101
930.8720, 936.8608
931.9950, 770.2183
933.1180, 740.2500
934.2410, 675.9580
935.3640, 643.4780
936.4860, 509.1206
937.6090, 463.6338
938.7310, 454.1792
939.8530, 516.8843
940.9750, 416.6448
942.0970, 461.6516
943.2180, 401.6956
944.3400, 348.7559
945.4610, 379.8325
946.5820, 401.9255
947.7030, 421.0354
948.8240, 441.5613
949.9450, 456.3059
951.0650, 473.4668
952.1860, 506.6453
953.3060, 522.8413
954.4260, 583.0569
955.5460, 558.2908
956.6650, 609.5435
957.7850, 671.8171
958.9040, 674.1101
960.0230, 820.4270
961.1420, 906.7681
962.2610, 1034.129
963.3800, 1060.514
964.4990, 1169.923
965.6170, 1321.353
966.7350, 1560.977
967.8530, 1911.278
968.9710, 2204.776
970.0890, 2646.298
971.2070, 3076.849
972.3240, 3545.422
973.4410, 4017.034
974.5580, 4351.674
975.6750, 4621.135
976.7920, 4799.074
977.9090, 4888.784
979.0250, 4899.540
980.1410, 4759.328
981.2580, 4627.144
982.3740, 4144.985
983.4890, 3806.875
984.6050, 3327.804
985.7200, 2763.770
986.8360, 2365.781
987.9510, 1917.831
989.0660, 1632.941
990.1810, 1382.114
991.2950, 1117.336
992.4100, 1019.624
993.5240, 817.0037
994.6390, 703.4590
995.7530, 673.9836
996.8660, 540.5706
997.9800, 445.2261
999.0940, 470.9485
1000.207, 394.7412
1001.320, 336.5950
1002.433, 313.5178
1003.546, 310.6785
1004.659, 361.5552
1005.772, 374.6653
1006.884, 473.8340
1007.996, 550.0696
1009.108, 660.3804
1010.220, 793.0649
1011.332, 864.7295
1012.444, 942.5764
1013.555, 1093.519
1014.666, 1241.668
1015.777, 1192.108
1016.888, 1285.893
1017.999, 1202.120
1019.110, 1136.009
1020.220, 1089.155
1021.331, 982.7710
1022.441, 947.9368
1023.551, 784.4392
1024.661, 720.3296
1025.770, 726.6028
1026.880, 720.6414
1027.989, 658.4773
1029.098, 618.0410
1030.207, 718.5205
1031.316, 739.9900
1032.425, 842.5647
1033.533, 840.3281
1034.642, 959.9265
1035.750, 1051.242
1036.858, 1111.135
1037.966, 1164.307
1039.073, 1280.038
1040.181, 1208.898
1041.288, 1257.799
1042.396, 1354.194
1043.503, 1341.547
1044.610, 1294.577
1045.716, 1302.647
1046.823, 1169.177
1047.929, 1155.317
1049.036, 1123.953
1050.142, 1130.349
1051.248, 1151.877
1052.353, 1274.280
1053.459, 1390.613
1054.564, 1489.423
1055.670, 1580.824
1056.775, 1650.261
1057.880, 1714.822
1058.985, 1853.333
1060.089, 1883.878
1061.194, 1967.586
1062.298, 2027.193
1063.402, 2017.832
1064.506, 2055.325
1065.610, 2043.024
1066.713, 2116.755
1067.817, 2185.661
1068.920, 2233.448
1070.023, 2486.466
1071.126, 2682.433
1072.229, 2973.303
1073.332, 3399.336
1074.435, 3882.261
1075.537, 4486.213
1076.639, 5041.190
1077.741, 5857.192
1078.843, 6561.220
1079.945, 7453.273
1081.046, 8084.352
1082.148, 8527.452
1083.249, 8620.580
1084.350, 8596.732
1085.451, 8038.910
1086.551, 7659.402
1087.652, 6894.626
1088.752, 6193.876
1089.853, 5325.556
1090.953, 4423.852
1092.053, 3603.031
1093.152, 2838.163
1094.252, 2300.570
1095.351, 1893.402
1096.451, 1518.381
1097.550, 1288.813
1098.649, 1140.268
1099.748, 1033.744
1100.846, 863.0247
1101.945, 705.5439
1103.043, 708.2983
1104.141, 603.8599
1105.239, 536.9890
1106.337, 459.6870
1107.434, 437.3818
1108.532, 417.0254
1109.629, 384.0032
1110.726, 372.1150
1111.823, 373.9102
1112.920, 362.0239
1114.017, 365.6113
1115.113, 372.2195
1116.210, 386.1440
1117.306, 413.9385
1118.402, 453.1355
1119.498, 500.9893
1120.593, 436.9558
1121.689, 501.8525
1122.784, 494.3054
1123.879, 435.9985
1124.974, 307.0117
1126.069, 372.2776
1127.164, 243.2593
1128.259, 234.2178
1129.353, 153.4519
1130.447, 118.9119
1131.541, 163.3647
1132.635, 69.11035
1133.729, 95.80811
1134.822, 26.43823
1135.916, 14.46265
1137.009, 3.972412
1138.102, 67.35400
1139.195, 21.45898
1140.288, 10.53662
1141.380, 17.18213
1142.473, 47.64722
1143.565, 16.40552
1144.657, 17.55103
1145.749, 53.52759
1146.841, 30.37402
1147.932, 38.77515
1149.024, 48.43799
1150.115, 63.23291
1151.206, 42.16968
1152.297, 52.20581
1153.388, 37.92456
1154.479, 42.94653
1155.569, 114.7024
1156.659, 18.39380
1157.750, 113.5051
1158.839, 87.84131
1159.929, 34.59131
1161.019, 14.82251
1162.108, 52.61401
1163.198, 11.74878
1164.287, 32.22437
1165.376, 50.14966
1166.465, 64.13037
1167.553, 2.283203
1168.642, 35.41577
1169.730, 46.56079
1170.818, 35.06348
1171.906, 23.93066
1172.994, 9.105713
1174.082, 52.94434
1175.170, 15.94775
1176.257, 40.61694
1177.344, 6.547852
1178.431, 44.20532
1179.518, 6.329834
1180.605, 44.36816
1181.691, 0.5017090
1182.778, 20.38501
1183.864, 16.42993
1184.950, 26.21851
1186.036, 18.61230
1187.122, 24.71143
1188.207, 7.994629
1189.292, 40.92749
1190.378, 28.82471
1191.463, 15.53564
1192.548, 38.38257
1193.632, 28.11328
1194.717, 6.973145
1195.801, 70.61963
1196.886, 24.30859
1197.970, 31.10938
1199.054, 26.56641
1200.137, 11.11133
1201.221, 14.71997
1202.305, 28.24878
1203.388, 15.77563
1204.471, 34.54712
1205.554, 65.89966
1206.637, 57.38892
1207.719, 55.86816
1208.802, 58.60059
1209.884, 33.02612
1210.966, 65.57275
1212.048, 81.00928
1213.130, 63.43555
1214.212, 57.00928
1215.293, 40.37231
1216.374, 19.76416
1217.456, 54.14038
1218.536, 77.50439
1219.617, 18.85645
1220.698, 44.19287
1221.778, 10.51660
1222.859, 12.81860
1223.939, 37.09937
1225.019, 22.36694
1226.099, 20.61987
1227.178, 55.85327
1228.258, 97.07251
1229.337, 50.27759
1230.417, 20.46851
1231.496, 58.63696
1232.574, 13.79077
1233.653, 63.91821
1234.732, 22.96948
1235.810, 19.09644
1236.888, 13.86328
1237.966, 56.13477
