##NAMES=Epidote
##RRUFFID=R050131
##IDEAL CHEMISTRY=Ca_2_Fe^3+^Al_2_(Si_2_O_7_)(SiO_4_)O(OH)
##LOCALITY=Calumet mine, Chaffee County, Colorado, USA
##OWNER=RRUFF
##SOURCE=Dave Bunk Minerals
##DESCRIPTION=Green prismatic crystal
##STATUS=The identification of this mineral has been confirmed by X-ray diffraction and chemical analysis
##URL=rruff.info/R050131
##MEASURED CHEMISTRY=Ca_2.00_Al_2.00_(Fe^3+^_0.75_Al_0.25_)(SiO_4_)(Si_2_O_7_)O(OH)
##PIN_ID=L00135
##ORIENTATION=Laser parallel to (1 0 1). Fiducial mark perpendicular to laser is parallel to b [0 1 0]
81.728, 0.000
83.128, 0.004
84.529, 42.129
85.929, 4.327
87.329, 227.238
88.728, 592.394
90.128, 1095.521
91.527, 1416.554
92.926, 1544.731
94.324, 1628.533
95.723, 1625.743
97.121, 1662.750
98.519, 1681.201
99.917, 1568.471
101.314, 1294.506
102.712, 1040.011
104.109, 914.526
105.505, 776.782
106.902, 680.069
108.298, 674.945
109.694, 538.375
111.090, 668.926
112.486, 692.441
113.881, 775.698
115.277, 634.569
116.672, 558.705
118.066, 417.088
119.461, 406.713
120.855, 314.607
122.249, 319.756
123.643, 243.187
125.036, 285.927
126.430, 210.952
127.823, 123.239
129.216, 210.767
130.608, 130.514
132.001, 4.463
133.393, 8.404
134.785, 115.101
136.176, 74.642
137.568, 38.045
138.959, 12.331
140.350, 24.491
141.741, 91.586
143.131, 58.435
144.521, 4.449
145.911, 89.757
147.301, 98.053
148.691, 204.436
150.080, 210.901
151.469, 298.450
152.858, 419.078
154.247, 467.785
155.635, 616.568
157.024, 802.755
158.411, 938.363
159.799, 1271.009
161.187, 1695.693
162.574, 2204.435
163.961, 2883.774
165.348, 3803.924
166.734, 4931.153
168.121, 5964.396
169.507, 6907.657
170.893, 7570.937
172.278, 7894.231
173.664, 7737.536
175.049, 7080.848
176.434, 6024.164
177.819, 5107.486
179.203, 4214.800
180.587, 3273.101
181.971, 2685.384
183.355, 2084.654
184.739, 1632.915
186.122, 1388.169
187.505, 1121.422
188.888, 863.672
190.271, 753.908
191.653, 626.035
193.035, 660.998
194.417, 624.912
195.799, 639.750
197.180, 796.587
198.562, 860.449
199.943, 931.337
201.324, 1248.252
202.704, 1314.194
204.084, 1353.165
205.465, 1370.165
206.844, 1374.194
208.224, 1359.253
209.603, 1312.342
210.983, 1172.461
212.362, 1139.610
213.740, 1247.790
215.119, 1218.001
216.497, 1322.242
217.875, 1489.515
219.253, 1653.818
220.631, 2159.154
222.008, 2607.521
223.385, 3318.920
224.762, 4064.353
226.139, 5017.815
227.515, 5901.313
228.891, 6654.843
230.267, 7216.257
231.643, 7245.616
233.018, 7099.255
234.394, 6712.608
235.769, 6175.995
237.144, 5769.421
238.518, 5412.881
239.893, 5286.376
241.267, 4909.905
242.641, 4715.109
244.014, 4375.885
245.388, 3957.753
246.761, 3504.642
248.134, 2978.585
249.507, 2403.407
250.879, 1746.021
252.252, 1292.384
253.624, 889.029
254.996, 684.667
256.367, 517.279
257.739, 279.859
259.110, 128.413
260.481, 151.940
261.852, 191.399
263.222, 226.783
264.592, 334.102
265.962, 536.373
267.332, 901.613
268.702, 1271.833
270.071, 1764.041
271.440, 2485.239
272.809, 2993.369
274.178, 3396.185
275.546, 3481.751
276.915, 3216.279
278.283, 2847.685
279.650, 2284.105
281.018, 1718.581
282.385, 1365.109
283.752, 983.689
285.119, 985.320
286.486, 765.001
287.852, 783.731
289.218, 782.507
290.584, 736.330
291.950, 765.197
293.316, 689.915
294.681, 663.868
296.046, 735.757
297.411, 600.625
298.775, 553.888
300.140, 465.648
301.504, 513.135
302.868, 506.104
304.231, 498.865
305.595, 533.478
306.958, 558.894
308.321, 691.769
309.684, 651.714
311.047, 720.116
312.409, 750.565
313.771, 705.050
315.133, 813.570
316.495, 757.124
317.856, 736.714
319.217, 743.337
320.578, 741.928
321.939, 775.427
323.299, 806.403
324.660, 865.153
326.020, 939.933
327.380, 995.743
328.739, 1198.579
330.099, 1321.439
331.458, 1574.322
332.817, 1870.228
334.176, 2101.157
335.534, 2306.108
336.892, 2563.084
338.251, 2972.082
339.608, 3252.104
340.966, 3989.149
342.323, 4712.216
343.681, 5964.305
345.037, 7069.421
346.394, 8384.557
347.751, 9379.720
349.107, 9994.903
350.463, 9970.112
351.819, 9455.343
353.174, 8340.599
354.530, 7095.877
355.885, 5701.181
357.240, 4632.510
358.594, 3607.863
359.949, 2786.243
361.303, 2196.648
362.657, 1711.078
364.011, 1362.534
365.365, 1090.016
366.718, 933.522
368.071, 621.054
369.424, 492.611
370.777, 270.192
372.129, 170.798
373.481, 45.429
374.833, 54.916
376.185, 116.247
377.537, 205.578
378.888, 101.931
380.239, 145.280
381.590, 73.635
382.941, 68.018
384.291, 267.695
385.642, 605.396
386.992, 763.120
388.341, 1006.866
389.691, 1228.637
391.040, 1369.429
392.389, 1296.244
393.738, 1109.045
395.087, 802.797
396.435, 563.527
397.784, 283.287
399.132, 90.083
400.479, 45.074
401.827, 131.201
403.174, 196.317
404.521, 297.435
405.868, 262.586
407.215, 277.812
408.561, 259.171
409.908, 119.646
411.254, 13.107
412.599, 162.489
413.945, 345.160
415.290, 667.914
416.636, 1054.751
417.980, 1558.651
419.325, 2316.631
420.670, 2971.686
422.014, 3884.814
423.358, 4804.019
424.702, 5553.865
426.045, 6498.646
427.389, 7195.064
428.732, 8041.547
430.075, 8878.085
431.417, 9834.684
432.760, 10821.349
434.102, 12168.077
435.444, 12914.868
436.786, 13271.707
438.127, 13748.592
439.469, 13085.536
440.810, 12502.520
442.151, 11959.541
443.492, 11076.583
444.832, 10773.653
446.172, 10590.746
447.512, 10547.857
448.852, 10824.991
450.192, 11102.144
451.531, 11289.317
452.870, 11326.507
454.209, 11270.810
455.548, 11050.949
456.887, 10728.256
458.225, 10275.464
459.563, 9682.758
460.901, 8990.085
462.238, 8127.465
463.576, 7094.895
464.913, 6342.358
466.250, 5419.851
467.587, 4603.361
468.923, 3933.919
470.259, 3296.496
471.596, 2825.099
472.931, 2430.720
474.267, 2033.235
475.603, 1810.018
476.938, 1496.693
478.273, 1390.391
479.608, 1293.104
480.942, 1137.834
482.276, 1087.578
483.611, 1167.338
484.944, 1149.112
486.278, 1152.899
487.612, 1236.699
488.945, 1263.510
490.278, 1411.333
491.611, 1543.168
492.943, 1626.012
494.276, 1866.867
495.608, 2150.732
496.940, 2369.606
498.271, 2678.491
499.603, 3081.384
500.934, 3480.286
502.265, 3957.197
503.596, 4436.117
504.927, 4792.043
506.257, 5230.979
507.587, 5690.922
508.917, 5808.872
510.247, 5946.831
511.577, 5608.796
512.906, 5144.767
514.235, 4552.745
515.564, 3752.729
516.892, 2950.718
518.221, 2315.713
519.549, 1970.713
520.877, 1432.718
522.205, 1055.728
523.533, 917.742
524.860, 686.760
526.187, 519.783
527.514, 351.809
528.841, 307.837
530.167, 258.870
531.493, 258.904
532.820, 171.941
534.145, 219.981
535.471, 177.937
536.796, 197.003
538.122, 190.917
539.447, 222.716
540.771, 219.286
542.096, 294.440
543.420, 364.492
544.744, 256.544
546.068, 423.599
547.392, 408.653
548.715, 558.708
550.039, 606.764
551.362, 825.893
552.684, 1003.083
554.007, 1287.608
555.329, 1501.397
556.652, 1996.613
557.973, 2392.461
559.295, 3210.403
560.617, 4242.181
561.938, 5651.297
563.259, 7340.742
564.580, 8917.879
565.901, 9889.552
567.221, 9981.621
568.541, 9025.912
569.861, 7848.555
571.181, 6256.414
572.501, 5191.899
573.820, 4359.812
575.139, 3880.330
576.458, 3693.507
577.777, 3708.824
579.095, 3954.194
580.414, 4313.197
581.732, 4728.898
583.049, 5429.302
584.367, 6225.538
585.685, 6864.546
587.002, 7872.706
588.319, 8708.266
589.636, 9615.877
590.952, 10684.347
592.268, 11860.606
593.585, 13239.993
594.900, 14732.599
596.216, 16496.340
597.532, 18092.145
598.847, 19353.379
600.162, 19673.561
601.477, 19772.104
602.792, 18780.393
604.106, 17758.525
605.420, 16586.172
606.734, 15153.798
608.048, 13991.395
609.361, 13158.966
610.675, 12486.513
611.988, 11984.036
613.301, 11381.536
614.614, 10699.010
615.926, 9916.458
617.238, 9253.879
618.550, 7911.276
619.862, 7188.647
621.174, 6051.992
622.485, 5123.309
623.797, 4400.599
625.108, 3771.960
626.418, 3229.356
627.729, 2890.121
629.039, 2461.874
630.349, 2244.016
631.659, 1954.944
632.969, 1814.660
634.279, 1682.464
635.588, 1544.201
636.897, 1425.604
638.206, 1311.292
639.515, 1211.697
640.823, 1120.517
642.131, 1029.475
643.439, 947.819
644.747, 880.688
646.055, 806.667
647.362, 766.557
648.669, 718.298
649.976, 649.986
651.283, 606.638
652.589, 684.265
653.896, 560.855
655.202, 487.412
656.508, 590.936
657.814, 444.427
659.119, 485.884
660.424, 513.308
661.729, 459.697
663.034, 486.053
664.339, 379.375
665.643, 359.662
666.947, 383.915
668.251, 386.133
669.555, 367.317
670.859, 288.466
672.162, 350.579
673.465, 381.658
674.768, 278.701
676.071, 342.709
677.373, 352.681
678.676, 278.618
679.978, 429.519
681.280, 385.384
682.581, 352.213
683.883, 390.006
685.184, 425.762
686.485, 459.482
687.786, 424.166
689.087, 413.813
690.387, 419.423
691.687, 396.997
692.987, 392.545
694.287, 390.079
695.586, 433.622
696.886, 397.148
698.185, 435.668
699.484, 450.164
700.783, 457.624
702.081, 456.046
703.379, 360.430
704.677, 303.777
705.975, 291.086
707.273, 259.358
708.570, 245.592
709.868, 165.786
711.165, 113.938
712.462, 73.046
713.758, 15.105
715.055, 18.903
716.351, 6.005
717.647, 17.850
718.943, 0.344
720.238, 16.674
721.533, 53.810
722.829, 75.093
724.124, 91.427
725.418, 92.824
726.713, 104.323
728.007, 138.947
729.301, 177.718
730.595, 171.659
731.889, 102.764
733.182, 168.999
734.476, 138.396
735.769, 148.941
737.061, 144.638
738.354, 140.486
739.647, 138.480
740.939, 119.622
742.231, 106.899
743.523, 66.305
744.814, 99.819
746.106, 114.457
747.397, 80.227
748.688, 131.110
749.978, 24.132
751.269, 43.238
752.559, 77.435
753.849, 5.742
755.139, 9.879
756.429, 83.438
757.719, 115.953
759.008, 144.426
760.297, 252.859
761.586, 321.256
762.875, 411.617
764.163, 475.942
765.451, 527.231
766.739, 635.486
768.027, 727.705
769.315, 644.889
770.602, 709.039
771.890, 665.153
773.177, 579.234
774.463, 516.280
775.750, 434.292
777.036, 356.270
778.323, 266.215
779.609, 198.125
780.894, 181.002
782.180, 83.844
783.465, 77.648
784.750, 24.414
786.035, 39.138
787.320, 58.822
788.605, 42.469
789.889, 3.924
791.173, 79.632
792.457, 52.153
793.741, 84.636
795.024, 36.085
796.307, 81.496
797.591, 109.873
798.873, 173.216
800.156, 136.530
801.439, 147.811
802.721, 173.062
804.003, 191.807
805.285, 224.166
806.566, 268.641
807.848, 310.778
809.129, 338.886
810.410, 414.967
811.691, 473.020
812.971, 496.047
814.252, 481.046
815.532, 541.020
816.812, 609.966
818.092, 569.886
819.371, 677.781
820.651, 670.650
821.930, 771.494
823.209, 823.314
824.488, 880.108
825.766, 1005.878
827.045, 1153.624
828.323, 1178.345
829.601, 1289.043
830.878, 1392.718
832.156, 1423.370
833.433, 1458.999
834.710, 1464.605
835.987, 1493.728
837.264, 1513.751
838.540, 1545.292
839.817, 1528.812
841.093, 1581.310
842.369, 1550.788
843.644, 1530.245
844.920, 1621.683
846.195, 1626.102
847.470, 1608.505
848.745, 1717.895
850.020, 1702.272
851.294, 1811.635
852.568, 1936.987
853.842, 1958.320
855.116, 2111.638
856.390, 2267.938
857.663, 2495.238
858.936, 2535.521
860.209, 2719.796
861.482, 2955.988
862.755, 3191.110
864.027, 3332.880
865.299, 3567.379
866.571, 3785.440
867.843, 3900.859
869.115, 4038.174
870.386, 3961.035
871.657, 4149.557
872.928, 4237.007
874.199, 4472.418
875.470, 4610.489
876.740, 4946.210
878.010, 5652.889
879.280, 5859.471
880.550, 6540.318
881.820, 7000.985
883.089, 7735.217
884.358, 8269.827
885.627, 8828.771
886.896, 9273.565
888.164, 9920.293
889.433, 10136.375
890.701, 10402.750
891.969, 10189.409
893.236, 9986.221
894.504, 10014.253
895.771, 9733.117
897.038, 9894.567
898.305, 10083.958
899.572, 10312.476
900.838, 10803.191
902.105, 11820.765
903.371, 12625.107
904.637, 13798.307
905.902, 14869.419
907.168, 16905.096
908.433, 18341.814
909.698, 20380.168
910.963, 22308.766
912.228, 24147.504
913.492, 26166.725
914.757, 27085.955
916.021, 27665.203
917.285, 28474.463
918.548, 26923.727
919.812, 26213.018
921.075, 23412.320
922.338, 21611.629
923.601, 19410.955
924.864, 16930.299
926.126, 15019.647
927.388, 13329.013
928.650, 11498.394
929.912, 10017.797
931.174, 8847.213
932.435, 7926.544
933.697, 6835.833
934.958, 6064.738
936.218, 5461.646
937.479, 4909.154
938.739, 4376.863
940.000, 4007.774
941.260, 3506.581
942.520, 3337.455
943.779, 3082.548
945.039, 2792.557
946.298, 2685.737
947.557, 2505.702
948.816, 2374.938
950.074, 2291.331
951.333, 2138.029
952.591, 2114.615
953.849, 2019.289
955.107, 2028.113
956.365, 1948.989
957.622, 1850.896
958.879, 1912.831
960.136, 1835.788
961.393, 1678.765
962.650, 1683.762
963.906, 1627.785
965.162, 1585.831
966.418, 1496.902
967.674, 1493.125
968.930, 1511.134
970.185, 1510.288
971.441, 1545.467
972.696, 1644.671
973.950, 1732.898
975.205, 1946.148
976.459, 2043.422
977.714, 2265.720
978.968, 2528.041
980.222, 2643.394
981.475, 2602.770
982.729, 2529.172
983.982, 2190.601
985.235, 1979.052
986.488, 1617.528
987.740, 1410.032
988.993, 1173.624
990.245, 1034.181
991.497, 893.760
992.749, 748.372
994.000, 626.002
995.252, 569.719
996.503, 472.730
997.754, 504.153
999.005, 442.272
1000.256, 408.457
1001.506, 361.348
1002.756, 315.723
1004.006, 272.833
1005.256, 297.000
1006.506, 264.244
1007.755, 296.031
1009.005, 325.197
1010.254, 316.278
1011.502, 386.000
1012.751, 421.590
1014.000, 489.716
1015.248, 560.173
1016.496, 751.792
1017.744, 970.679
1018.991, 1030.442
1020.239, 1147.681
1021.486, 1254.408
1022.733, 1267.894
1023.980, 1293.605
1025.227, 1144.930
1026.473, 1088.568
1027.719, 1070.171
1028.965, 1066.203
1030.211, 1042.877
1031.457, 1044.740
1032.702, 1030.760
1033.948, 1175.681
1035.193, 1125.570
1036.438, 1236.516
1037.682, 1367.687
1038.927, 1430.034
1040.171, 1505.372
1041.415, 1537.246
1042.659, 1574.748
1043.903, 1628.330
1045.146, 1489.988
1046.390, 1603.716
1047.633, 1531.504
1048.876, 1404.359
1050.118, 1382.286
1051.361, 1279.273
1052.603, 1139.336
1053.845, 1151.445
1055.087, 996.604
1056.329, 994.823
1057.571, 977.902
1058.812, 902.140
1060.053, 908.186
1061.294, 726.340
1062.535, 707.083
1063.775, 691.477
1065.016, 593.137
1066.256, 581.575
1067.496, 568.062
1068.736, 590.123
1069.975, 576.625
1071.214, 621.248
1072.454, 670.793
1073.693, 822.359
1074.931, 926.946
1076.170, 1181.554
1077.408, 1305.424
1078.647, 1707.994
1079.885, 2115.386
1081.122, 2520.156
1082.360, 3065.369
1083.597, 3803.121
1084.835, 4431.690
1086.072, 5259.496
1087.308, 5471.641
1088.545, 5542.857
1089.781, 5425.712
1091.018, 4822.066
1092.254, 4065.753
1093.490, 3257.132
1094.725, 2478.730
1095.961, 1981.615
1097.196, 1556.617
1098.431, 1226.724
1099.666, 1043.192
1100.900, 804.161
1102.135, 694.530
1103.369, 670.078
1104.603, 537.853
1105.837, 498.801
1107.071, 399.445
1108.304, 314.104
1109.538, 316.310
1110.771, 326.554
1112.004, 293.793
1113.236, 254.616
1114.469, 237.695
1115.701, 207.762
1116.933, 222.519
1118.165, 172.845
1119.397, 209.052
1120.629, 291.825
1121.860, 384.551
1123.091, 396.927
1124.322, 248.926
1125.553, 177.379
1126.783, 124.901
1128.014, 101.482
1129.244, 39.833
1130.474, 60.996
1131.704, 104.175
1132.933, 40.526
1134.163, 75.291
1135.392, 114.607
1136.621, 5.419
1137.850, 30.665
1139.079, 16.101
1140.307, 3.017
1141.535, 49.593
1142.763, 4.900
1143.991, 20.446
1145.219, 34.921
1146.446, 54.499
1147.674, 54.827
1148.901, 45.449
1150.128, 57.166
1151.354, 15.955
1152.581, 17.049
1153.807, 18.595
1155.033, 105.049
1156.259, 12.511
1157.485, 66.174
1158.710, 56.283
1159.936, 51.817
1161.161, 3.722
1162.386, 68.947
1163.611, 21.271
1164.835, 53.254
1166.060, 48.691
1167.284, 39.054
1168.508, 86.801
1169.732, 36.927
1170.955, 13.445
1172.179, 52.849
1173.402, 6.218
1174.625, 1.671
1175.848, 40.205
1177.070, 11.648
1178.293, 31.611
1179.515, 5.743
1180.737, 30.396
1181.959, 24.204
1183.181, 23.221
1184.402, 47.323
1185.624, 0.829
1186.845, 49.417
1188.066, 10.810
1189.286, 64.292
1190.507, 4.621
1191.727, 26.760
1192.947, 39.195
1194.167, 21.603
1195.387, 20.850
1196.607, 22.078
1197.826, 27.244
1199.045, 21.461
1200.264, 54.495
1201.483, 21.675
1202.702, 20.799
1203.920, 12.110
1205.138, 14.152
1206.356, 8.864
1207.574, 10.060
1208.792, 0.024
1210.009, 26.027
1211.227, 4.063
1212.444, 17.993
1213.661, 12.901
1214.877, 19.166
1216.094, 47.649
1217.310, 11.917
1218.526, 22.702
1219.742, 21.472
1220.958, 53.402
1222.173, 41.144
1223.389, 11.871
1224.604, 1.189
1225.819, 3.039
1227.034, 20.312
1228.248, 9.293
1229.463, 25.920
1230.677, 4.823
1231.891, 28.409
1233.105, 16.982
1234.318, 16.681
1235.532, 39.293
1236.745, 18.197
1237.958, 10.532
1239.171, 18.968
1240.384, 2.635
1241.596, 10.714
1242.809, 6.899
1244.021, 7.520
1245.233, 12.265
1246.444, 19.237
1247.656, 8.703
1248.867, 26.534
1250.079, 13.268
1251.290, 15.135
1252.500, 6.906
1253.711, 29.044
1254.921, 56.023
1256.132, 52.013
1257.342, 19.020
1258.552, 30.018
1259.761, 24.899
1260.971, 10.249
1262.180, 35.705
1263.389, 22.509
1264.598, 26.391
1265.807, 39.163
1267.015, 41.865
1268.223, 66.537
1269.432, 36.183
1270.640, 57.889
1271.847, 55.474
1273.055, 5.048
1274.262, 92.629
1275.470, 37.124
1276.677, 37.734
1277.883, 113.168
1279.090, 53.621
1280.296, 36.993
1281.503, 48.346
1282.709, 45.604
1283.915, 100.537
1285.120, 53.837
1286.326, 73.126
1287.531, 92.308
1288.736, 39.402
1289.941, 92.218
1291.146, 131.604
1292.350, 38.292
1293.555, 56.913
1294.759, 52.825
1295.963, 43.253
1297.167, 54.941
1298.370, 36.572
1299.574, 82.124
1300.777, 74.130
1301.980, 36.755
1303.183, 50.460
1304.386, 83.520
1305.588, 39.710
1306.790, 53.363
1307.993, 55.682
1309.195, 12.841
1310.396, 60.736
1311.598, 48.766
1312.799, 33.342
1314.000, 39.444
1315.201, 59.798
1316.402, 51.944
1317.603, 47.496
1318.803, 52.767
1320.003, 59.106
1321.203, 36.057
1322.403, 41.406
1323.603, 34.610
1324.802, 24.711
1326.002, 61.973
1327.201, 29.328
1328.400, 48.670
1329.599, 33.849
1330.797, 19.894
1331.995, 37.005
1333.194, 23.995
1334.392, 64.689
1335.589, 22.718
1336.787, 54.719
1337.985, 56.695
1339.182, 73.644
1340.379, 76.569
1341.576, 89.470
1342.772, 75.346
1343.969, 119.198
1345.165, 80.028
1346.361, 90.842
1347.557, 96.624
1348.753, 129.564
1349.949, 92.358
1351.144, 100.348
1352.339, 88.233
1353.534, 80.533
1354.729, 81.183
1355.924, 102.569
1357.118, 105.179
1358.312, 95.742
1359.506, 124.736
1360.700, 47.292
1361.894, 141.731
1363.088, 126.252
1364.281, 75.759
1365.474, 133.251
1366.667, 125.732
1367.860, 67.961
1369.052, 117.501
1370.245, 80.797
1371.437, 57.170
1372.629, 123.122
1373.821, 60.470
1375.013, 135.630
1376.204, 124.069
1377.395, 84.431
1378.586, 96.796
1379.777, 123.256
1380.968, 60.772
1382.159, 122.497
1383.349, 129.358
1384.539, 107.094
1385.729, 78.604
1386.919, 74.117
1388.109, 99.955
1389.298, 65.322
1390.487, 84.514
1391.676, 85.108
1392.865, 52.851
1394.054, 76.724
1395.242, 104.051
1396.431, 58.069
1397.619, 112.736
1398.807, 100.837
1399.995, 61.499
1401.182, 64.060
1402.370, 91.630
1403.557, 101.582
1404.744, 52.765
1405.931, 80.097
1407.118, 52.558
1408.304, 69.718
1409.490, 94.465
1410.676, 107.610
1411.862, 110.328
1413.048, 56.537
1414.234, 102.883
1415.419, 70.064
1416.604, 58.866
1417.789, 104.756
1418.974, 37.867
1420.159, 81.034
1421.343, 57.469
1422.528, 107.711
1423.712, 63.811
1424.896, 60.821
1426.079, 4.410
1427.263, 46.989
1428.446, 40.708
1429.629, 72.723
1430.812, 100.851
1431.995, 55.763
1433.178, 92.927
1434.360, 89.927
1435.543, 68.732
1436.725, 132.589
1437.907, 74.513
1439.088, 106.812
1440.270, 87.903
1441.451, 83.619
1442.632, 79.164
1443.813, 114.818
1444.994, 67.057
1446.175, 111.319
1447.355, 130.798
1448.535, 68.372
1449.715, 87.587
1450.895, 69.443
1452.075, 92.986
1453.255, 106.578
1454.434, 55.336
1455.613, 112.701
1456.792, 111.229
1457.971, 105.058
1459.149, 78.382
1460.328, 78.155
1461.506, 84.522
1462.684, 56.832
1463.862, 92.564
1465.040, 91.053
1466.217, 81.765
1467.395, 87.352
1468.572, 99.680
1469.749, 103.319
1470.925, 67.052
1472.102, 79.638
1473.278, 87.215
1474.455, 67.001
1475.631, 94.826
1476.807, 67.647
1477.982, 90.470
1479.158, 99.292
1480.333, 106.126
1481.508, 91.992
1482.683, 120.886
1483.858, 75.810
1485.033, 101.752
1486.207, 66.718
1487.381, 25.713
1488.555, 35.742
1489.729, 90.818
1490.903, 44.938
1492.076, 72.101
1493.250, 63.330
1494.423, 58.669
1495.596, 57.143
1496.769, 103.689
1497.941, 81.319
1499.114, 98.048
1500.286, 97.096
1501.458, 72.856
1502.630, 92.881
