##NAMES=Epidote
##RRUFFID=R040092
##IDEAL CHEMISTRY=Ca_2_Fe^3+^Al_2_(Si_2_O_7_)(SiO_4_)O(OH)
##LOCALITY=Nahant, Massachusetts, USA
##OWNER=RRUFF
##SOURCE=University of Arizona Mineral Museum
##DESCRIPTION=Green prismatic crystals imbedded in quartz
##STATUS=The identification of this mineral has been confirmed by X-ray diffraction and chemical analysis
##URL=rruff.info/R040092
##MEASURED CHEMISTRY=Ca_2.01_Al_2.00_Fe_1.00_(Si_1.00_O_4_)(Si_1.97_Fe_0.02_Al_0.01_Ti_0.01_O_7_)O(OH)
##PIN_ID=S00018
##ORIENTATION=Laser parallel to b* (0 1 0). Fiducial mark perpendicular to laser is parallel to c [0 0 1]
51.466, 0.000
52.866, 27.124
54.266, 66.530
55.666, 112.571
57.065, 149.296
58.464, 223.821
59.863, 270.448
61.262, 195.360
62.661, 105.978
64.059, 70.846
65.458, 2.192
66.856, 29.321
68.253, 69.736
69.651, 29.620
71.048, 2.856
72.445, 11.538
73.842, 167.298
75.239, 350.013
76.635, 521.559
78.031, 836.822
79.427, 1338.691
80.823, 2080.068
82.218, 3206.864
83.614, 4235.997
85.009, 5450.396
86.404, 6927.998
87.798, 8273.742
89.193, 9387.578
90.587, 9364.461
91.981, 8489.346
93.375, 7137.216
94.768, 6119.083
96.161, 5152.885
97.554, 4193.544
98.947, 3362.002
100.340, 2380.231
101.732, 1683.188
103.124, 1285.832
104.516, 1122.129
105.908, 1116.051
107.300, 880.573
108.691, 658.671
110.082, 502.327
111.473, 447.524
112.864, 478.246
114.254, 572.479
115.644, 635.211
117.034, 745.431
118.424, 716.127
119.813, 921.291
121.203, 1208.913
122.592, 1572.986
123.981, 1977.501
125.369, 2542.452
126.758, 3497.831
128.146, 4588.635
129.534, 6145.856
130.922, 7474.487
132.309, 7848.524
133.696, 6663.119
135.083, 5293.859
136.470, 3840.143
137.857, 3189.793
139.243, 2795.508
140.630, 2677.244
142.016, 2735.997
143.401, 3164.768
144.787, 3825.734
146.172, 4137.089
147.557, 3868.731
148.942, 3266.524
150.327, 2954.455
151.711, 2840.529
153.096, 3097.758
154.480, 3656.149
155.863, 4492.707
157.247, 5648.440
158.630, 7405.353
160.013, 9523.449
161.396, 12111.736
162.779, 15068.209
164.161, 17576.885
165.544, 19836.756
166.926, 19757.820
168.308, 18329.094
169.689, 15577.566
171.070, 13351.247
172.452, 11374.132
173.833, 9355.227
175.213, 7695.530
176.594, 5908.042
177.974, 4658.765
179.354, 3621.697
180.734, 2765.839
182.114, 2183.192
183.493, 1820.755
184.872, 1433.529
186.251, 1253.513
187.630, 1056.707
189.008, 976.112
190.387, 851.728
191.765, 940.552
193.143, 1063.588
194.520, 1219.834
195.898, 1559.289
197.275, 1923.954
198.652, 2384.829
200.029, 2688.915
201.405, 2871.210
202.782, 2799.715
204.158, 2516.429
205.534, 2165.352
206.909, 1725.481
208.285, 1427.817
209.660, 1190.361
211.035, 986.983
212.410, 846.061
213.784, 851.217
215.159, 908.438
216.533, 1116.337
217.907, 1178.232
219.281, 1477.366
220.654, 1854.260
222.027, 2019.208
223.400, 2372.075
224.773, 2812.840
226.146, 3241.339
227.518, 3600.009
228.891, 4022.444
230.263, 4602.424
231.634, 5255.000
233.006, 6398.165
234.377, 8145.609
235.748, 10276.523
237.119, 12613.108
238.490, 16063.283
239.860, 18606.289
241.231, 20745.875
242.601, 20597.680
243.970, 18542.363
245.340, 14947.309
246.709, 11292.512
248.079, 8684.966
249.448, 6182.665
250.816, 4632.604
252.185, 3502.778
253.553, 2670.182
254.921, 2118.812
256.289, 1653.664
257.657, 1308.734
259.024, 997.018
260.391, 819.512
261.758, 719.211
263.125, 707.115
264.492, 787.219
265.858, 986.519
267.224, 1307.014
268.590, 1590.701
269.956, 2161.577
271.321, 2834.641
272.687, 3462.890
274.052, 3988.321
275.416, 4529.935
276.781, 4067.726
278.146, 3712.695
279.510, 3505.839
280.874, 3364.157
282.237, 3831.646
283.601, 4318.306
284.964, 5179.133
286.327, 6844.128
287.690, 8368.288
289.053, 10404.610
290.416, 12724.096
291.778, 14278.740
293.140, 14207.545
294.502, 12915.506
295.863, 11329.624
297.225, 9718.896
298.586, 8434.317
299.947, 7136.888
301.308, 5742.603
302.668, 4590.461
304.029, 3803.466
305.389, 3309.613
306.749, 2710.906
308.108, 2262.344
309.468, 2089.927
310.827, 1936.653
312.186, 1930.521
313.545, 2072.530
314.903, 2024.683
316.262, 1972.976
317.620, 2298.411
318.978, 2530.986
320.336, 3073.703
321.693, 3724.559
323.051, 4334.555
324.408, 4841.689
325.765, 5216.963
327.121, 5190.374
328.478, 5348.924
329.834, 5089.610
331.190, 5283.433
332.546, 5158.393
333.902, 5659.494
335.257, 6137.730
336.612, 6816.107
337.967, 8056.625
339.322, 9815.283
340.677, 12111.085
342.031, 15036.022
343.385, 18172.105
344.739, 22063.330
346.093, 25054.699
347.446, 27557.195
348.799, 28229.822
350.153, 26954.584
351.505, 23921.467
352.858, 19884.477
354.210, 16028.615
355.563, 12720.870
356.915, 9867.253
358.267, 7655.756
359.618, 5890.382
360.969, 4823.129
362.321, 3811.997
363.672, 3001.688
365.022, 2381.059
366.373, 1968.313
367.723, 1508.654
369.073, 1030.112
370.423, 773.685
371.773, 315.373
373.122, 72.176
374.471, 138.907
375.821, 360.898
377.169, 359.596
378.518, 493.769
379.866, 376.697
381.215, 384.393
382.563, 354.313
383.910, 283.963
385.258, 127.901
386.605, 235.267
387.952, 157.584
389.299, 337.051
390.646, 253.667
391.992, 221.438
393.339, 100.362
394.685, 16.549
396.031, 62.290
397.376, 150.874
398.722, 159.336
400.067, 267.690
401.412, 279.968
402.757, 106.168
404.101, 104.228
405.446, 60.862
406.790, 194.138
408.134, 518.604
409.478, 767.260
410.821, 1127.108
412.165, 1494.147
413.508, 2141.377
414.851, 2818.798
416.193, 3482.404
417.536, 4645.192
418.878, 6022.162
420.220, 7673.313
421.562, 9029.643
422.904, 10699.145
424.245, 11672.819
425.586, 12142.670
426.927, 12546.691
428.268, 12391.878
429.609, 13273.237
430.949, 14417.748
432.289, 16295.410
433.629, 17081.217
434.969, 17994.176
436.309, 17616.279
437.648, 17288.525
438.987, 16997.914
440.326, 17756.418
441.665, 19318.057
443.003, 22601.814
444.342, 26327.695
445.680, 31762.695
447.018, 37805.805
448.355, 42102.023
449.693, 45336.340
451.030, 45905.766
452.367, 45331.285
453.704, 42638.918
455.041, 41556.645
456.377, 37734.473
457.713, 34032.395
459.049, 28418.416
460.385, 23783.531
461.721, 19323.756
463.056, 15541.097
464.391, 12380.689
465.726, 9647.021
467.061, 7633.646
468.395, 6235.374
469.730, 5313.200
471.064, 4638.125
472.398, 3926.148
473.731, 3458.672
475.065, 3090.306
476.398, 2826.788
477.731, 2694.184
479.064, 2640.675
480.397, 2667.253
481.729, 2798.919
483.062, 3023.671
484.394, 3331.508
485.725, 3597.427
487.057, 4323.429
488.389, 5030.510
489.720, 6019.669
491.051, 7317.997
492.382, 9014.675
493.712, 10923.621
495.043, 12724.511
496.373, 14407.898
497.703, 15805.059
499.032, 16393.141
500.362, 15333.433
501.691, 14083.898
503.020, 12358.053
504.349, 11031.997
505.678, 9793.350
507.007, 9065.946
508.335, 8197.537
509.663, 7138.818
510.991, 6072.236
512.319, 4818.577
513.646, 3999.981
514.973, 3329.444
516.300, 3220.967
517.627, 3183.550
518.954, 3160.190
520.280, 3548.889
521.607, 3707.644
522.933, 3622.454
524.259, 3181.319
525.584, 2576.239
526.910, 1963.212
528.235, 1409.237
529.560, 968.314
530.885, 574.443
532.209, 329.622
533.534, 196.850
534.858, 78.111
536.182, 27.269
537.506, 46.653
538.829, 111.552
540.152, 6.698
541.476, 48.925
542.799, 87.337
544.121, 144.109
545.444, 242.607
546.766, 408.152
548.088, 733.743
549.410, 1027.458
550.732, 1371.909
552.053, 1942.486
553.375, 2635.477
554.696, 3616.972
556.017, 5116.782
557.337, 7071.168
558.658, 9709.938
559.978, 12877.101
561.298, 16846.590
562.618, 19968.271
563.938, 21483.256
565.257, 19901.568
566.576, 15633.874
567.895, 11788.956
569.214, 8553.489
570.533, 6227.354
571.851, 4713.207
573.170, 4085.003
574.488, 3593.308
575.805, 3467.181
577.123, 3543.539
578.440, 3974.580
579.758, 4481.960
581.075, 4968.311
582.391, 5804.798
583.708, 6331.494
585.024, 7161.084
586.341, 7760.510
587.657, 8166.538
588.972, 8691.389
590.288, 9296.231
591.603, 10162.168
592.918, 11701.591
594.233, 13264.916
595.548, 14491.176
596.863, 15038.639
598.177, 14969.337
599.491, 14120.014
600.805, 12707.397
602.119, 11409.791
603.432, 10243.299
604.746, 9338.869
606.059, 8435.472
607.372, 8020.479
608.685, 7740.982
609.997, 7589.373
611.309, 7228.647
612.621, 6769.953
613.933, 6476.234
615.245, 5598.529
616.557, 4857.522
617.868, 4083.588
619.179, 3450.030
620.490, 2804.383
621.801, 2345.081
623.111, 1964.107
624.421, 1570.474
625.731, 1295.750
627.041, 1145.101
628.351, 903.342
629.660, 782.200
630.970, 722.816
632.279, 614.777
633.588, 484.195
634.896, 401.297
636.205, 373.983
637.513, 305.752
638.821, 269.447
640.129, 230.294
641.437, 207.550
642.744, 130.657
644.051, 134.968
645.358, 109.145
646.665, 117.339
647.972, 93.864
649.278, 76.349
650.584, 67.791
651.890, 75.187
653.196, 56.537
654.502, 35.837
655.807, 41.079
657.113, 14.264
658.418, 69.381
659.722, 21.448
661.027, 7.447
662.331, 21.371
663.636, 81.227
664.940, 86.031
666.244, 115.784
667.547, 109.490
668.851, 190.146
670.154, 168.756
671.457, 254.318
672.760, 365.833
674.062, 405.299
675.365, 505.716
676.667, 561.084
677.969, 700.402
679.271, 888.669
680.572, 936.886
681.874, 1233.051
683.175, 1558.165
684.476, 1760.226
685.777, 1971.234
687.077, 2062.189
688.378, 2102.090
689.678, 1925.938
690.978, 1765.730
692.278, 1390.488
693.577, 1307.009
694.877, 1031.983
696.176, 843.626
697.475, 690.069
698.774, 570.760
700.072, 447.354
701.371, 385.004
702.669, 267.756
703.967, 230.450
705.265, 157.086
706.562, 112.662
707.860, 110.170
709.157, 51.611
710.454, 11.031
711.751, 13.221
713.047, 11.615
714.344, 10.460
715.640, 14.591
716.936, 42.615
718.232, 64.775
719.527, 99.062
720.823, 112.267
722.118, 126.900
723.413, 137.880
724.708, 143.849
726.002, 148.007
727.297, 146.761
728.591, 144.901
729.885, 136.208
731.179, 128.557
732.472, 119.664
733.766, 129.950
735.059, 118.910
736.352, 102.074
737.645, 103.897
738.937, 122.893
740.230, 105.072
741.522, 86.425
742.814, 111.898
744.106, 61.338
745.397, 29.431
746.689, 15.161
747.980, 70.954
749.271, 37.821
750.562, 5.219
751.853, 24.739
753.143, 55.611
754.433, 23.864
755.723, 32.012
757.013, 66.056
758.303, 61.006
759.592, 128.862
760.881, 177.635
762.170, 191.333
763.459, 232.959
764.748, 252.515
766.036, 277.003
767.325, 265.426
768.613, 267.781
769.901, 261.071
771.188, 187.293
772.476, 180.442
773.763, 152.516
775.050, 156.513
776.337, 134.432
777.624, 113.271
778.910, 94.028
780.196, 96.698
781.482, 91.283
782.768, 94.782
784.054, 114.195
785.339, 126.527
786.625, 103.778
787.910, 133.947
789.195, 152.038
790.479, 113.053
791.764, 172.988
793.048, 175.849
794.332, 160.639
795.616, 205.354
796.900, 219.002
798.183, 196.582
799.467, 241.093
800.750, 279.540
802.033, 302.924
803.316, 332.155
804.598, 300.050
805.880, 361.691
807.163, 366.403
808.445, 345.627
809.726, 422.092
811.008, 471.649
812.289, 483.006
813.570, 484.200
814.851, 565.714
816.132, 596.449
817.413, 596.784
818.693, 672.885
819.973, 701.999
821.253, 801.432
822.533, 828.735
823.813, 965.120
825.092, 1018.450
826.371, 1069.725
827.650, 1137.946
828.929, 1183.164
830.208, 1244.225
831.486, 1271.284
832.764, 1315.290
834.042, 1333.242
835.320, 1347.142
836.598, 1381.990
837.875, 1386.786
839.152, 1414.530
840.429, 1516.223
841.706, 1533.866
842.983, 1636.458
844.259, 1766.003
845.536, 1826.498
846.812, 1918.944
848.088, 2111.354
849.363, 2259.730
850.639, 2482.086
851.914, 2707.403
853.189, 2965.685
854.464, 3369.939
855.739, 3677.155
857.013, 4059.326
858.288, 4537.451
859.562, 4992.459
860.836, 5716.732
862.110, 6310.876
863.383, 7168.605
864.656, 7823.848
865.930, 8755.175
867.203, 9215.509
868.475, 9578.117
869.748, 10144.056
871.020, 11097.124
872.292, 12035.698
873.564, 12933.015
874.836, 13676.406
876.108, 14132.786
877.379, 14642.388
878.650, 14732.534
879.922, 14615.341
881.192, 14303.147
882.463, 14184.004
883.733, 13855.348
885.004, 13254.110
886.274, 12583.379
887.544, 11527.951
888.813, 10285.174
890.083, 9095.416
891.352, 8208.503
892.621, 7321.369
893.890, 6672.333
895.159, 6233.446
896.427, 6010.945
897.695, 5941.608
898.964, 5908.263
900.232, 6013.809
901.499, 6332.849
902.767, 6709.971
904.034, 6990.141
905.301, 7624.091
906.568, 8469.785
907.835, 9275.484
909.102, 9953.456
910.368, 10664.397
911.634, 11420.205
912.900, 11860.512
914.166, 11806.404
915.432, 11826.853
916.697, 10932.581
917.962, 10130.403
919.227, 8885.318
920.492, 7723.177
921.757, 6454.040
923.021, 5628.868
924.285, 4847.970
925.550, 4101.979
926.813, 3608.591
928.077, 3059.265
929.341, 2745.572
930.604, 2426.527
931.867, 2165.116
933.130, 1932.771
934.393, 1754.324
935.655, 1515.964
936.918, 1492.960
938.180, 1348.172
939.442, 1197.015
940.703, 1131.379
941.965, 1068.036
943.226, 986.088
944.488, 928.034
945.749, 882.217
947.009, 886.855
948.270, 807.242
949.530, 806.751
950.791, 778.065
952.051, 823.779
953.311, 792.752
954.570, 820.737
955.830, 832.733
957.089, 886.746
958.348, 858.776
959.607, 880.823
960.866, 899.888
962.124, 930.979
963.383, 953.091
964.641, 964.236
965.899, 1079.414
967.156, 1166.615
968.414, 1255.844
969.671, 1499.107
970.928, 1676.385
972.185, 2058.681
973.442, 2452.999
974.699, 3042.341
975.955, 3603.706
977.211, 4136.096
978.468, 4513.504
979.723, 4736.936
980.979, 4524.383
982.234, 4153.848
983.490, 3473.328
984.745, 2896.824
986.000, 2420.340
987.254, 1947.883
988.509, 1654.453
989.763, 1431.044
991.017, 1222.656
992.271, 1042.305
993.525, 927.982
994.779, 919.977
996.032, 868.854
997.285, 780.579
998.538, 779.651
999.791, 764.437
1001.044, 737.298
1002.296, 759.519
1003.548, 601.028
1004.800, 640.743
1006.052, 555.768
1007.304, 518.609
1008.555, 566.957
1009.807, 621.039
1011.058, 642.554
1012.309, 715.942
1013.559, 881.914
1014.810, 1105.014
1016.060, 1259.933
1017.310, 1338.906
1018.560, 1370.042
1019.810, 1343.224
1021.060, 1298.862
1022.309, 1180.536
1023.558, 1133.000
1024.807, 1090.048
1026.056, 1133.706
1027.305, 1197.933
1028.553, 1355.976
1029.801, 1522.309
1031.049, 1734.214
1032.297, 2001.742
1033.545, 2317.692
1034.793, 2703.930
1036.040, 3162.820
1037.287, 3474.162
1038.534, 3765.675
1039.781, 3995.189
1041.027, 3919.783
1042.274, 3831.456
1043.520, 3611.379
1044.766, 3225.215
1046.012, 2938.672
1047.257, 2570.123
1048.503, 2394.246
1049.748, 2049.357
1050.993, 2089.522
1052.238, 1879.942
1053.483, 1711.050
1054.727, 1744.396
1055.971, 1807.798
1057.216, 1919.240
1058.459, 1991.724
1059.703, 2093.250
1060.947, 2124.815
1062.190, 2089.418
1063.433, 2007.051
1064.676, 1852.720
1065.919, 1679.409
1067.162, 1635.123
1068.404, 1542.862
1069.646, 1601.624
1070.888, 1673.410
1072.130, 1813.221
1073.372, 2019.054
1074.613, 2320.340
1075.855, 2648.229
1077.096, 3070.149
1078.337, 3529.479
1079.578, 4166.713
1080.818, 5002.848
1082.059, 6055.891
1083.299, 7301.971
1084.539, 8415.304
1085.779, 8807.731
1087.018, 8395.933
1088.258, 7015.781
1089.497, 5622.816
1090.736, 4259.338
1091.975, 3190.324
1093.213, 2413.407
1094.452, 1840.515
1095.690, 1384.980
1096.928, 1155.655
1098.166, 919.555
1099.404, 792.105
1100.642, 716.571
1101.879, 659.788
1103.116, 551.301
1104.353, 475.738
1105.590, 445.710
1106.827, 399.484
1108.063, 394.311
1109.299, 336.015
1110.536, 274.758
1111.771, 308.953
1113.007, 251.930
1114.243, 252.222
1115.478, 227.030
1116.713, 230.367
1117.948, 235.131
1119.183, 209.141
1120.418, 270.894
1121.652, 533.470
1122.886, 832.855
1124.120, 799.090
1125.354, 469.509
1126.588, 342.779
1127.821, 181.504
1129.055, 154.359
1130.288, 143.773
1131.521, 392.891
1132.753, 270.016
1133.986, 237.115
1135.218, 225.850
1136.450, 29.479
1137.682, 40.562
1138.914, 7.624
1140.146, 0.030
1141.377, 1.445
1142.609, 25.129
1143.840, 16.789
1145.071, 1.110
1146.301, 25.320
1147.532, 2.252
1148.762, 54.952
1149.992, 65.588
1151.222, 39.291
1152.452, 46.023
1153.682, 85.041
1154.911, 47.687
1156.140, 26.974
1157.369, 82.048
1158.598, 31.211
1159.827, 24.483
1161.055, 45.089
1162.284, 47.720
1163.512, 39.480
1164.740, 39.304
1165.967, 42.754
1167.195, 42.382
1168.422, 20.272
1169.650, 19.160
1170.877, 4.044
1172.103, 27.778
1173.330, 44.417
1174.557, 27.334
1175.783, 16.634
1177.009, 24.184
1178.235, 2.265
1179.461, 23.897
1180.686, 34.257
1181.912, 3.462
1183.137, 25.864
1184.362, 14.939
1185.587, 3.397
1186.811, 5.967
1188.036, 3.090
1189.260, 32.417
1190.484, 38.298
1191.708, 26.370
1192.932, 19.492
1194.155, 16.302
1195.378, 1.106
1196.602, 19.006
1197.825, 11.161
1199.047, 25.373
1200.270, 15.533
1201.492, 36.723
1202.715, 27.438
1203.937, 43.948
1205.159, 14.003
1206.380, 16.024
1207.602, 6.038
1208.823, 24.045
1210.044, 13.045
1211.265, 6.036
1212.486, 53.020
1213.707, 8.995
1214.927, 53.962
1216.147, 33.921
1217.367, 10.871
1218.587, 16.811
1219.807, 47.743
1221.027, 4.335
1222.246, 43.573
1223.465, 55.472
1224.684, 1.637
1225.903, 2.241
1227.121, 7.105
1228.340, 20.957
1229.558, 29.798
1230.776, 5.627
1231.994, 4.443
1233.212, 15.244
1234.429, 1.969
1235.646, 4.201
1236.864, 11.453
1238.081, 17.339
1239.297, 1.034
1240.514, 16.355
1241.730, 4.694
1242.947, 12.946
1244.163, 8.568
1245.378, 21.197
1246.594, 0.775
1247.810, 6.413
1249.025, 2.683
1250.240, 5.319
1251.455, 2.219
1252.670, 2.212
1253.885, 2.603
1255.099, 5.956
1256.313, 9.722
1257.527, 18.574
1258.741, 11.151
1259.955, 46.928
1261.168, 37.252
1262.382, 21.407
1263.595, 3.393
1264.808, 32.711
1266.021, 16.792
1267.233, 2.841
1268.446, 9.140
1269.658, 5.778
1270.870, 7.704
1272.082, 12.690
1273.294, 5.562
1274.505, 23.585
1275.716, 35.421
1276.928, 46.218
1278.139, 58.988
1279.349, 21.730
1280.560, 5.554
1281.770, 2.852
1282.981, 26.947
1284.191, 28.538
1285.401, 47.094
1286.610, 20.634
1287.820, 53.187
1289.029, 53.344
1290.239, 37.614
1291.448, 48.082
1292.656, 35.148
1293.865, 63.497
1295.073, 28.811
1296.282, 29.718
1297.490, 68.333
1298.698, 37.780
1299.906, 26.895
1301.113, 0.168
1302.320, 37.969
1303.528, 38.993
1304.735, 42.582
1305.942, 56.309
1307.148, 25.442
1308.355, 72.455
1309.561, 29.670
1310.767, 49.008
1311.973, 58.044
1313.179, 490.052
1314.384, 576.642
1315.590, 520.212
1316.795, 73.037
1318.000, 25.319
1319.205, 32.127
1320.410, 44.338
1321.614, 55.793
1322.819, 55.987
1324.023, 40.746
1325.227, 47.902
1326.431, 41.701
1327.634, 19.285
1328.838, 14.262
1330.041, 17.843
1331.244, 64.314
1332.447, 32.855
1333.650, 69.353
1334.852, 74.839
1336.055, 48.122
1337.257, 100.546
1338.459, 86.412
1339.661, 83.327
1340.862, 102.613
1342.064, 91.945
1343.265, 80.255
1344.466, 89.577
1345.667, 82.855
1346.868, 92.791
1348.068, 105.448
1349.269, 111.503
1350.469, 136.674
1351.669, 139.823
1352.869, 152.952
1354.069, 179.059
1355.268, 130.144
1356.468, 201.209
1357.667, 172.254
1358.866, 168.278
1360.065, 218.282
1361.263, 211.267
1362.462, 193.232
1363.660, 197.177
1364.858, 183.103
1366.056, 195.589
1367.254, 204.480
1368.451, 174.116
1369.649, 180.594
1370.846, 196.183
1372.043, 174.891
1373.240, 161.709
1374.436, 173.518
1375.633, 204.010
1376.829, 159.410
1378.025, 196.021
1379.221, 182.984
1380.417, 194.780
1381.613, 202.043
1382.808, 174.663
1384.003, 197.391
1385.199, 192.878
1386.393, 131.131
1387.588, 188.126
1388.783, 112.292
1389.977, 154.689
1391.171, 139.651
1392.365, 149.881
1393.559, 148.762
1394.753, 122.860
1395.946, 134.331
1397.140, 131.186
1398.333, 130.037
1399.526, 120.116
1400.719, 105.552
1401.911, 135.199
1403.104, 100.901
1404.296, 91.376
1405.488, 93.085
1406.680, 74.331
1407.872, 108.570
1409.063, 121.916
1410.255, 121.592
1411.446, 113.998
1412.637, 111.922
1413.828, 75.313
1415.018, 84.703
1416.209, 87.401
1417.399, 41.879
1418.589, 71.987
1419.779, 96.419
1420.969, 88.884
1422.159, 78.046
1423.348, 94.391
1424.537, 65.842
1425.726, 37.862
1426.915, 65.162
1428.104, 74.273
1429.293, 57.616
1430.481, 44.569
1431.669, 72.079
1432.857, 73.691
1434.045, 49.053
1435.233, 74.391
1436.420, 73.946
1437.608, 48.579
1438.795, 71.163
1439.982, 92.697
1441.169, 47.182
1442.355, 50.614
1443.542, 84.995
1444.728, 45.325
1445.914, 53.599
1447.100, 74.820
1448.286, 48.990
1449.472, 70.103
1450.657, 60.167
1451.842, 61.195
1453.027, 19.208
1454.212, 58.163
1455.397, 48.065
1456.581, 39.882
1457.766, 81.804
1458.950, 39.731
1460.134, 52.696
1461.318, 20.744
1462.501, 61.768
1463.685, 55.877
1464.868, 33.831
1466.051, 57.927
1467.234, 46.048
