##NAMES=Epidote
##RRUFFID=R050131
##IDEAL CHEMISTRY=Ca_2_Fe^3+^Al_2_(Si_2_O_7_)(SiO_4_)O(OH)
##LOCALITY=Calumet mine, Chaffee County, Colorado, USA
##OWNER=RRUFF
##SOURCE=Dave Bunk Minerals
##DESCRIPTION=Green prismatic crystal
##STATUS=The identification of this mineral has been confirmed by X-ray diffraction and chemical analysis
##URL=rruff.info/R050131
##MEASURED CHEMISTRY=Ca_2.00_Al_2.00_(Fe^3+^_0.75_Al_0.25_)(SiO_4_)(Si_2_O_7_)O(OH)
##PIN_ID=L00135
##ORIENTATION=Laser parallel to (1 0 1). Fiducial mark perpendicular to laser is parallel to b [0 1 0]
88.728, 0.000
90.128, 1.884
91.527, 70.644
92.926, 19.458
94.324, 212.285
95.723, 261.203
97.121, 354.588
98.519, 526.608
99.917, 520.210
101.314, 443.427
102.712, 300.524
104.109, 381.963
105.505, 341.377
106.902, 359.587
108.298, 284.525
109.694, 304.207
111.090, 547.655
112.486, 521.572
113.881, 525.330
115.277, 417.409
116.672, 409.176
118.066, 267.853
119.461, 196.621
120.855, 146.625
122.249, 239.985
123.643, 249.800
125.036, 155.151
126.430, 216.195
127.823, 146.098
129.216, 158.315
130.608, 134.423
132.001, 132.117
133.393, 84.597
134.785, 16.966
136.176, 19.183
137.568, 33.385
138.959, 275.787
140.350, 403.719
141.741, 509.231
143.131, 936.955
144.521, 1428.877
145.911, 1914.985
147.301, 2117.271
148.691, 2235.725
150.080, 1939.342
151.469, 1679.115
152.858, 1484.040
154.247, 1413.109
155.635, 1607.306
157.024, 1674.617
158.411, 2129.041
159.799, 2682.577
161.187, 3199.271
162.574, 3847.031
163.961, 4174.369
165.348, 4453.118
166.734, 4154.831
168.121, 3520.513
169.507, 2772.174
170.893, 2024.818
172.278, 1349.456
173.664, 960.100
175.049, 650.766
176.434, 315.463
177.819, 176.195
179.203, 128.965
180.587, 39.226
181.971, 43.377
183.355, 120.487
184.739, 124.557
186.122, 177.592
187.505, 132.592
188.888, 123.555
190.271, 66.480
191.653, 92.633
193.035, 175.786
194.417, 445.980
195.799, 626.194
197.180, 985.372
198.562, 1182.576
199.943, 1519.809
201.324, 1772.073
202.704, 1821.371
204.084, 1900.705
205.465, 1671.078
206.844, 1459.491
208.224, 1256.947
209.603, 743.449
210.983, 576.995
212.362, 335.588
213.740, 165.229
215.119, 145.920
216.497, 54.660
217.875, 155.429
219.253, 34.139
220.631, 156.706
222.008, 143.134
223.385, 290.529
224.762, 423.993
226.139, 503.525
227.515, 924.126
228.891, 1135.795
230.267, 1720.535
231.643, 2122.345
233.018, 2800.150
234.394, 3642.142
235.769, 4502.842
237.144, 5863.646
238.518, 7067.741
239.893, 8772.807
241.267, 10169.754
242.641, 11786.786
244.014, 12803.906
245.388, 13021.105
246.761, 12818.382
248.134, 11425.735
249.507, 9733.166
250.879, 7910.677
252.252, 6348.270
253.624, 5125.949
254.996, 4028.888
256.367, 3486.144
257.739, 2756.657
259.110, 2430.345
260.481, 2356.173
261.852, 2183.110
263.222, 2296.140
264.592, 2383.247
265.962, 2802.428
267.332, 3542.659
268.702, 4289.973
270.071, 5042.236
271.440, 6261.582
272.809, 7550.966
274.178, 8420.392
275.546, 9019.863
276.915, 8569.376
278.283, 7458.872
279.650, 6348.250
281.018, 4847.641
282.385, 4220.053
283.752, 3450.493
285.119, 3243.962
286.486, 3240.466
287.852, 3255.006
289.218, 3540.587
290.584, 3876.209
291.950, 4619.876
293.316, 5123.587
294.681, 5793.343
296.046, 6453.144
297.411, 6632.993
298.775, 7022.889
300.140, 6791.676
301.504, 6801.111
302.868, 6265.970
304.231, 5575.304
305.595, 4824.637
306.958, 3845.042
308.321, 2998.517
309.684, 2229.060
311.047, 1532.672
312.409, 1168.352
313.771, 816.101
315.133, 692.915
316.495, 564.796
317.856, 415.744
319.217, 407.757
320.578, 321.836
321.939, 353.980
323.299, 381.190
324.660, 427.464
326.020, 467.802
327.380, 547.200
328.739, 688.650
330.099, 814.153
331.458, 1047.706
332.817, 1227.311
334.176, 1513.967
335.534, 1818.677
336.892, 2111.438
338.251, 2683.253
339.608, 3209.120
340.966, 4202.040
342.323, 5081.014
343.681, 6762.039
345.037, 8269.465
346.394, 10036.768
347.751, 11809.891
349.107, 12382.895
350.463, 12642.912
351.819, 11875.689
353.174, 10469.114
354.530, 8825.787
355.885, 6887.295
357.240, 5558.856
358.594, 4445.471
359.949, 3444.140
361.303, 2754.864
362.657, 2188.642
364.011, 1850.475
365.365, 1642.361
366.718, 1252.304
368.071, 929.299
369.424, 687.350
370.777, 474.455
372.129, 184.615
373.481, 55.829
374.833, 94.904
376.185, 178.599
377.537, 315.274
378.888, 435.958
380.239, 381.679
381.590, 461.426
382.941, 371.214
384.291, 300.023
385.642, 268.835
386.992, 139.644
388.341, 71.420
389.691, 152.846
391.040, 234.167
392.389, 314.544
393.738, 427.977
395.087, 483.465
396.435, 547.887
397.784, 547.459
399.132, 631.806
400.479, 676.036
401.827, 693.233
403.174, 822.480
404.521, 823.838
405.868, 979.318
407.215, 994.902
408.561, 1184.611
409.908, 1427.447
411.254, 1673.404
412.599, 2308.507
413.945, 2676.742
415.290, 3635.115
416.636, 4516.642
417.980, 5825.299
419.325, 7619.098
420.670, 9643.044
422.014, 12657.124
423.358, 14991.336
424.702, 17585.670
426.045, 19050.125
427.389, 18874.691
428.732, 18709.383
430.075, 17304.176
431.417, 16419.080
432.760, 15924.087
434.102, 15739.169
435.444, 16424.336
436.786, 16799.580
438.127, 18144.869
439.469, 19080.221
440.810, 20625.629
442.151, 23131.078
443.492, 25266.578
444.832, 29282.141
446.172, 33507.742
447.512, 38893.391
448.852, 44719.105
450.192, 48804.859
451.531, 53840.660
452.870, 54816.504
454.209, 57272.402
455.548, 59008.355
456.887, 58354.359
458.225, 59140.402
459.563, 56306.492
460.901, 53942.641
462.238, 49858.844
463.576, 44685.082
464.913, 40661.391
466.250, 34707.770
467.587, 30634.180
468.923, 26000.643
470.259, 21977.160
471.596, 19053.721
472.931, 16130.337
474.267, 14366.999
475.603, 12573.714
476.938, 11330.487
478.273, 10377.319
479.608, 9404.221
480.942, 8991.172
482.276, 8068.185
483.611, 8025.260
484.944, 7772.389
486.278, 7379.574
487.612, 7596.807
488.945, 7224.086
490.278, 7201.411
491.611, 7268.778
492.943, 7086.189
494.276, 7283.643
495.608, 7241.138
496.940, 7708.675
498.271, 7696.253
499.603, 8133.873
500.934, 8441.533
502.265, 8449.234
503.596, 8716.971
504.927, 8354.754
506.257, 8342.589
507.587, 7890.481
508.917, 7348.447
510.247, 6836.488
511.577, 5994.617
512.906, 5192.819
514.235, 4174.095
515.564, 3282.430
516.892, 2560.800
518.221, 1928.206
519.549, 1629.646
520.877, 1298.123
522.205, 1157.633
523.533, 1096.178
524.860, 913.756
526.187, 861.367
527.514, 578.012
528.841, 520.688
530.167, 361.398
531.493, 261.138
532.820, 181.910
534.145, 154.712
535.471, 147.113
536.796, 173.820
538.122, 133.612
539.447, 211.905
540.771, 120.219
542.096, 342.174
543.420, 342.200
544.744, 432.172
546.068, 670.820
547.392, 748.789
548.715, 1057.625
550.039, 1337.800
551.362, 1598.005
552.684, 2225.241
554.007, 2637.507
555.329, 3430.837
556.652, 4344.838
557.973, 5471.946
559.295, 7414.524
560.617, 9610.498
561.938, 13236.311
563.259, 17186.615
564.580, 21630.342
565.901, 25059.654
567.221, 25203.846
568.541, 22888.844
569.861, 18432.332
571.181, 13931.719
572.501, 10578.227
573.820, 7896.189
575.139, 6357.500
576.458, 5225.130
577.777, 4611.620
579.095, 4455.153
580.414, 4246.286
581.732, 4517.848
583.049, 4645.145
584.367, 5133.761
585.685, 5431.814
587.002, 5810.141
588.319, 6500.975
589.636, 6843.588
590.952, 7654.038
592.268, 8380.005
593.585, 9277.266
594.900, 10680.513
596.216, 11911.752
597.532, 13742.069
598.847, 15072.192
600.162, 15441.913
601.477, 15901.627
602.792, 14941.331
604.106, 14361.036
605.420, 12980.728
606.734, 11830.412
608.048, 10990.088
609.361, 9649.755
610.675, 9069.414
611.988, 8379.064
613.301, 7738.701
614.614, 7368.331
615.926, 6507.947
617.238, 6080.553
618.550, 5110.147
619.862, 4425.729
621.174, 3823.298
622.485, 3116.854
623.797, 2856.397
625.108, 2284.925
626.418, 1935.440
627.729, 1757.939
629.039, 1418.424
630.349, 1316.239
631.659, 1005.112
632.969, 939.213
634.279, 843.940
635.588, 719.287
636.897, 668.084
638.206, 622.736
639.515, 439.487
640.823, 449.290
642.131, 335.235
643.439, 449.409
644.747, 279.396
646.055, 295.215
647.362, 275.795
648.669, 201.024
649.976, 298.311
651.283, 183.458
652.589, 261.580
653.896, 299.677
655.202, 267.749
656.508, 458.796
657.814, 475.818
659.119, 540.813
660.424, 500.782
661.729, 508.725
663.034, 595.640
664.339, 516.528
665.643, 571.388
666.947, 648.219
668.251, 598.022
669.555, 661.795
670.859, 547.539
672.162, 688.252
673.465, 635.934
674.768, 646.584
676.071, 912.204
677.373, 982.791
678.676, 1169.346
679.978, 1477.869
681.280, 1655.359
682.581, 2029.816
683.883, 2268.240
685.184, 2701.630
686.485, 3052.986
687.786, 3233.308
689.087, 3310.128
690.387, 3263.848
691.687, 3071.065
692.987, 2745.264
694.287, 2298.462
695.586, 2078.687
696.886, 1660.967
698.185, 1518.289
699.484, 1290.671
700.783, 1101.092
702.081, 1024.535
703.379, 819.991
704.677, 712.435
705.975, 609.854
707.273, 427.234
708.570, 343.576
709.868, 239.879
711.165, 196.142
712.462, 104.365
713.758, 51.541
715.055, 16.658
716.351, 36.301
717.647, 32.363
718.943, 102.526
720.238, 155.830
721.533, 84.302
722.829, 160.905
724.124, 172.680
725.418, 147.634
726.713, 240.754
728.007, 194.090
729.301, 216.616
730.595, 269.346
731.889, 194.308
733.182, 239.462
734.476, 255.832
735.769, 217.426
737.061, 208.226
738.354, 172.225
739.647, 177.405
740.939, 136.769
742.231, 173.295
743.523, 118.002
744.814, 130.861
746.106, 96.878
747.397, 26.036
748.688, 47.296
749.978, 16.330
751.269, 76.877
752.559, 142.366
753.849, 163.807
755.139, 286.200
756.429, 358.551
757.719, 508.860
759.008, 625.126
760.297, 862.350
761.586, 1047.533
762.875, 1154.673
764.163, 1554.771
765.451, 1657.828
766.739, 1927.843
768.027, 2035.816
769.315, 2071.748
770.602, 2118.638
771.890, 1942.488
773.177, 1742.296
774.463, 1516.063
775.750, 1186.789
777.036, 1069.475
778.323, 768.120
779.609, 576.725
780.894, 487.290
782.180, 342.814
783.465, 269.299
784.750, 147.743
786.035, 134.144
787.320, 103.501
788.605, 12.811
789.889, 22.055
791.173, 22.761
792.457, 49.340
793.741, 7.388
795.024, 10.629
796.307, 26.278
797.591, 15.130
798.873, 81.922
800.156, 97.668
801.439, 124.371
802.721, 201.032
804.003, 179.655
805.285, 207.240
806.566, 323.788
807.848, 325.298
809.129, 404.773
810.410, 368.211
811.691, 456.613
812.971, 501.979
814.252, 383.310
815.532, 557.606
816.812, 531.866
818.092, 481.092
819.371, 592.283
820.651, 512.440
821.930, 561.562
823.209, 504.651
824.488, 563.706
825.766, 630.729
827.045, 603.717
828.323, 647.673
829.601, 702.596
830.878, 705.487
832.156, 789.345
833.433, 832.172
834.710, 818.968
835.987, 887.731
837.264, 899.465
838.540, 995.167
839.817, 1050.839
841.093, 1089.480
842.369, 1100.093
843.644, 1229.675
844.920, 1308.227
846.195, 1403.750
847.470, 1515.245
848.745, 1678.711
850.020, 1772.148
851.294, 2022.556
852.568, 2196.936
853.842, 2284.287
855.116, 2689.614
856.390, 2813.913
857.663, 3357.188
858.936, 3639.436
860.209, 3911.654
861.482, 4583.850
862.755, 5101.019
864.027, 5616.167
865.299, 6296.256
866.571, 6833.676
867.843, 7687.998
869.115, 8154.856
870.386, 8528.333
871.657, 9361.982
872.928, 9521.157
874.199, 10136.913
875.470, 10137.086
876.740, 10172.389
878.010, 10606.894
879.280, 9872.917
880.550, 9833.050
881.820, 9476.076
883.089, 9147.649
884.358, 9145.886
885.627, 8758.810
886.896, 8688.882
888.164, 8687.912
889.433, 8359.342
890.701, 8101.350
891.969, 7585.623
893.236, 6789.585
894.504, 6113.116
895.771, 5310.379
897.038, 4696.134
898.305, 4115.121
899.572, 3619.166
900.838, 3170.939
902.105, 2876.301
903.371, 2700.692
904.637, 2489.104
905.902, 2382.443
907.168, 2420.975
908.433, 2299.916
909.698, 2331.872
910.963, 2377.840
912.228, 2282.828
913.492, 2329.826
914.757, 2103.832
916.021, 1964.854
917.285, 1910.891
918.548, 1646.943
919.812, 1565.009
921.075, 1358.084
922.338, 1228.184
923.601, 1210.309
924.864, 1069.454
926.126, 1044.615
927.388, 954.793
928.650, 853.985
929.912, 949.196
931.174, 895.423
932.435, 926.665
933.697, 849.926
934.958, 832.199
936.218, 878.488
937.479, 873.443
938.739, 853.338
940.000, 890.002
941.260, 761.038
942.520, 839.460
943.779, 773.429
945.039, 781.545
946.298, 846.562
947.557, 851.527
948.816, 956.347
950.074, 982.940
951.333, 1032.351
952.591, 1096.688
953.849, 1141.888
955.107, 1169.442
956.365, 1258.935
957.622, 1276.568
958.879, 1429.225
960.136, 1432.916
961.393, 1405.627
962.650, 1597.369
963.906, 1553.138
965.162, 1668.935
966.418, 1792.766
967.674, 1843.622
968.930, 2214.500
970.185, 2433.399
971.441, 2699.322
972.696, 3269.270
973.950, 3847.245
975.205, 4847.244
976.459, 5614.272
977.714, 6995.323
978.968, 8106.399
980.222, 9127.501
981.475, 9808.629
982.729, 9769.784
983.982, 8880.970
985.235, 8302.180
986.488, 6709.421
987.740, 5599.693
988.993, 4597.994
990.245, 3630.320
991.497, 3150.670
992.749, 2474.046
994.000, 2041.450
995.252, 1797.879
996.503, 1357.337
997.754, 1165.821
999.005, 1022.333
1000.256, 866.872
1001.506, 791.459
1002.756, 617.052
1004.006, 584.853
1005.256, 509.561
1006.506, 353.253
1007.755, 387.045
1009.005, 316.173
1010.254, 283.938
1011.502, 329.828
1012.751, 320.700
1014.000, 468.136
1015.248, 488.548
1016.496, 620.532
1017.744, 804.219
1018.991, 882.685
1020.239, 1036.372
1021.486, 1176.534
1022.733, 1148.337
1023.980, 1243.803
1025.227, 1073.108
1026.473, 1014.499
1027.719, 1038.021
1028.965, 929.277
1030.211, 1004.971
1031.457, 1041.058
1032.702, 1026.562
1033.948, 1228.237
1035.193, 1186.221
1036.438, 1517.442
1037.682, 1563.876
1038.927, 1670.329
1040.171, 1963.891
1041.415, 1971.814
1042.659, 2062.608
1043.903, 2130.252
1045.146, 2004.726
1046.390, 2109.765
1047.633, 1933.583
1048.876, 1883.018
1050.118, 1978.298
1051.361, 1740.767
1052.603, 1749.591
1053.845, 1850.834
1055.087, 1794.963
1056.329, 1995.791
1057.571, 2083.304
1058.812, 2287.536
1060.053, 2481.088
1061.294, 2423.686
1062.535, 2485.641
1063.775, 2458.283
1065.016, 2244.746
1066.256, 2390.540
1067.496, 2314.711
1068.736, 2380.511
1069.975, 2600.301
1071.214, 2677.364
1072.454, 3170.788
1073.693, 3773.693
1074.931, 4178.768
1076.170, 5273.770
1077.408, 5956.319
1078.647, 7048.927
1079.885, 8230.610
1081.122, 9056.523
1082.360, 10752.507
1083.597, 11977.876
1084.835, 13333.170
1086.072, 15268.327
1087.308, 15003.478
1088.545, 15608.754
1089.781, 14733.990
1091.018, 12560.950
1092.254, 10746.324
1093.490, 8162.705
1094.725, 6200.810
1095.961, 4947.908
1097.196, 3580.321
1098.431, 2863.183
1099.666, 2230.290
1100.900, 1779.644
1102.135, 1575.373
1103.369, 1279.333
1104.603, 1181.223
1105.837, 1094.674
1107.071, 923.114
1108.304, 901.122
1109.538, 819.680
1110.771, 694.789
1112.004, 683.846
1113.236, 598.133
1114.469, 632.813
1115.701, 581.491
1116.933, 536.248
1118.165, 577.019
1119.397, 533.907
1120.629, 641.859
1121.860, 752.286
1123.091, 680.719
1124.322, 588.665
1125.553, 525.638
1126.783, 465.488
1128.014, 411.349
1129.244, 369.595
1130.474, 328.963
1131.704, 296.426
1132.933, 262.016
1134.163, 266.474
1135.392, 256.351
1136.621, 197.652
1137.850, 232.676
1139.079, 166.541
1140.307, 157.577
1141.535, 222.251
1142.763, 89.150
1143.991, 157.792
1145.219, 93.816
1146.446, 52.370
1147.674, 98.521
1148.901, 0.299
1150.128, 13.911
1151.354, 15.052
1152.581, 51.851
1153.807, 1.602
1155.033, 51.447
1156.259, 25.430
1157.485, 17.820
1158.710, 49.532
1159.936, 3.682
1161.161, 61.814
1162.386, 28.844
1163.611, 5.375
1164.835, 35.037
1166.060, 55.761
1167.284, 59.484
1168.508, 68.486
1169.732, 57.612
1170.955, 13.591
1172.179, 38.690
1173.402, 10.378
1174.625, 38.425
1175.848, 27.289
1177.070, 36.462
1178.293, 65.470
1179.515, 23.568
1180.737, 24.855
1181.959, 53.147
1183.181, 40.779
1184.402, 3.243
1185.624, 7.458
1186.845, 40.260
1188.066, 8.180
1189.286, 28.726
1190.507, 21.974
1191.727, 14.569
1192.947, 14.819
1194.167, 38.277
1195.387, 63.565
1196.607, 16.738
1197.826, 23.856
1199.045, 62.579
1200.264, 34.362
1201.483, 11.031
1202.702, 2.866
1203.920, 15.721
1205.138, 27.602
1206.356, 13.516
1207.574, 46.456
1208.792, 1.560
1210.009, 29.554
1211.227, 23.470
1212.444, 10.528
1213.661, 15.614
1214.877, 7.733
1216.094, 23.120
1217.310, 41.047
1218.526, 45.262
1219.742, 19.529
1220.958, 4.834
1222.173, 2.172
1223.389, 6.952
1224.604, 8.936
1225.819, 7.631
1227.034, 5.170
1228.248, 5.494
1229.463, 19.498
1230.677, 23.611
1231.891, 33.051
1233.105, 41.474
1234.318, 30.872
1235.532, 35.959
1236.745, 0.405
1237.958, 34.905
1239.171, 13.178
1240.384, 20.417
1241.596, 22.625
1242.809, 53.793
1244.021, 10.921
1245.233, 8.000
1246.444, 26.957
1247.656, 43.046
1248.867, 15.015
1250.079, 41.945
1251.290, 28.848
1252.500, 30.716
1253.711, 14.457
1254.921, 84.318
1256.132, 2.055
1257.342, 22.754
1258.552, 19.415
1259.761, 3.962
1260.971, 35.617
1262.180, 70.161
1263.389, 71.668
1264.598, 66.142
1265.807, 34.586
1267.015, 49.983
1268.223, 51.343
1269.432, 38.665
1270.640, 71.941
1271.847, 74.183
1273.055, 38.391
1274.262, 85.560
1275.470, 34.692
1276.677, 60.784
1277.883, 57.937
1279.090, 35.956
1280.296, 51.933
1281.503, 41.873
1282.709, 87.773
1283.915, 111.643
1285.120, 90.474
1286.326, 64.273
1287.531, 112.036
1288.736, 67.767
1289.941, 98.462
1291.146, 73.125
1292.350, 92.753
1293.555, 92.348
1294.759, 91.888
1295.963, 61.416
1297.167, 94.729
1298.370, 82.130
1299.574, 118.616
1300.777, 108.921
1301.980, 55.883
1303.183, 76.275
1304.386, 140.463
1305.588, 68.663
1306.790, 114.739
1307.993, 82.467
1309.195, 53.566
1310.396, 92.013
1311.598, 90.602
1312.799, 106.982
1314.000, 117.986
1315.201, 100.301
1316.402, 112.001
1317.603, 95.915
1318.803, 88.785
1320.003, 91.338
1321.203, 116.904
1322.403, 98.652
1323.603, 102.089
1324.802, 127.181
1326.002, 125.277
1327.201, 95.052
1328.400, 91.664
1329.599, 117.171
1330.797, 104.720
1331.995, 147.237
1333.194, 169.468
1334.392, 105.894
1335.589, 255.536
1336.787, 362.402
1337.985, 90.776
1339.182, 101.422
1340.379, 169.489
1341.576, 139.753
1342.772, 163.854
1343.969, 186.670
1345.165, 128.039
1346.361, 214.434
1347.557, 212.218
1348.753, 218.313
1349.949, 237.259
1351.144, 225.470
1352.339, 236.725
1353.534, 209.402
1354.729, 227.343
1355.924, 215.461
1357.118, 221.385
1358.312, 257.781
1359.506, 259.543
1360.700, 272.288
1361.894, 298.730
1363.088, 281.634
1364.281, 230.379
1365.474, 268.762
1366.667, 248.231
1367.860, 252.177
1369.052, 271.976
1370.245, 209.727
1371.437, 251.186
1372.629, 261.433
1373.821, 185.952
1375.013, 249.856
1376.204, 265.578
1377.395, 211.480
1378.586, 280.275
1379.777, 221.135
1380.968, 249.436
1382.159, 242.520
1383.349, 206.958
1384.539, 220.327
1385.729, 204.822
1386.919, 160.584
1388.109, 191.366
1389.298, 174.049
1390.487, 214.588
1391.676, 231.127
1392.865, 216.601
1394.054, 169.736
1395.242, 195.583
1396.431, 194.368
1397.619, 177.813
1398.807, 201.012
1399.995, 174.954
1401.182, 158.831
1402.370, 141.858
1403.557, 160.778
1404.744, 162.953
1405.931, 140.869
1407.118, 175.466
1408.304, 183.886
1409.490, 119.626
1410.676, 146.835
1411.862, 167.310
1413.048, 101.041
1414.234, 137.494
1415.419, 133.342
1416.604, 96.965
1417.789, 154.935
1418.974, 120.516
1420.159, 69.239
1421.343, 127.780
1422.528, 112.101
1423.712, 168.768
1424.896, 135.519
1426.079, 86.753
1427.263, 117.483
1428.446, 113.450
1429.629, 113.564
1430.812, 128.441
1431.995, 120.775
1433.178, 98.570
1434.360, 107.621
1435.543, 107.626
1436.725, 80.613
1437.907, 98.570
1439.088, 92.550
1440.270, 109.548
1441.451, 54.528
1442.632, 99.497
1443.813, 113.448
1444.994, 52.323
1446.175, 111.108
1447.355, 96.846
1448.535, 12.587
1449.715, 45.323
1450.895, 57.094
1452.075, 42.934
1453.255, 88.731
1454.434, 81.522
1455.613, 42.307
1456.792, 65.145
1457.971, 56.975
1459.149, 75.796
1460.328, 60.617
1461.506, 19.445
1462.684, 92.320
1463.862, 75.235
1465.040, 68.188
1466.217, 106.160
1467.395, 25.866
1468.572, 62.876
1469.749, 67.906
1470.925, 40.946
1472.102, 87.008
1473.278, 85.071
1474.455, 82.332
1475.631, 51.194
1476.807, 71.259
1477.982, 60.024
1479.158, 40.085
1480.333, 38.849
1481.508, 53.987
1482.683, 51.512
1483.858, 57.142
1485.033, 26.807
1486.207, 53.810
1487.381, 9.158
1488.555, 64.822
1489.729, 80.823
1490.903, 39.208
1492.076, 32.183
1493.250, 43.958
1494.423, 20.888
1495.596, 76.793
1496.769, 29.637
1497.941, 6.515
