##NAMES=Epidote
##RRUFFID=R040089
##IDEAL CHEMISTRY=Ca_2_Fe^3+^Al_2_(Si_2_O_7_)(SiO_4_)O(OH)
##LOCALITY=Grafton County, New Hampshire, USA
##OWNER=RRUFF
##SOURCE=University of Arizona Mineral Museum
##DESCRIPTION=Dark green coarsely crystalline massive
##STATUS=The identification of this mineral has been confirmed by X-ray diffraction and chemical analysis
##URL=rruff.info/R040089
##MEASURED CHEMISTRY=Ca_2.00_(Al_2.36_Fe^3+^_0.64_)[Si_2.00_O_7_][Si_1.00_O_4_]O(OH)
##PIN_ID=M00263
##ORIENTATION=Laser parallel to -b* (0 -1 0). Fiducial mark perpendicular to laser is parallel to c [0 0 1]
125.905, 0.000
127.288, 84.148
128.671, 82.353
130.053, 437.768
131.436, 1204.915
132.818, 1883.420
134.200, 3311.480
135.582, 4533.316
136.963, 5999.939
138.345, 6948.914
139.726, 7664.465
141.107, 7673.115
142.488, 6866.959
143.868, 6308.183
145.248, 4858.178
146.629, 3932.456
148.008, 3156.723
149.388, 2483.132
150.768, 2104.164
152.147, 1684.681
153.526, 1747.730
154.905, 1274.909
156.284, 1343.214
157.662, 1390.001
159.040, 1573.688
160.418, 2041.718
161.796, 2127.244
163.174, 2815.055
164.551, 3128.035
165.929, 3719.204
167.306, 4023.949
168.683, 4432.005
170.059, 4975.361
171.436, 4674.775
172.812, 4562.215
174.188, 4006.852
175.564, 3644.136
176.939, 2862.293
178.315, 2260.562
179.690, 1728.909
181.065, 1277.378
182.440, 1045.854
183.814, 454.287
185.188, 332.609
186.563, 110.766
187.937, 111.164
189.310, 82.758
190.684, 202.429
192.057, 110.577
193.430, 278.900
194.803, 177.622
196.176, 226.716
197.549, 426.124
198.921, 45.792
200.293, 245.763
201.665, 6.023
203.037, 36.558
204.408, 192.651
205.779, 461.621
207.150, 400.366
208.521, 859.060
209.892, 848.229
211.262, 1027.891
212.633, 1008.021
214.003, 1108.573
215.373, 1229.497
216.742, 1110.746
218.112, 1242.260
219.481, 1219.433
220.850, 1685.010
222.219, 1995.986
223.588, 2198.818
224.956, 2695.307
226.324, 2897.663
227.692, 3531.817
229.060, 3912.055
230.428, 4471.930
231.795, 5042.111
233.162, 5224.375
234.529, 5696.156
235.896, 5436.510
237.263, 5255.771
238.629, 4614.735
239.995, 4073.104
241.361, 3980.764
242.727, 3557.658
244.093, 3923.744
245.458, 3999.164
246.823, 4574.113
248.188, 5241.027
249.553, 6030.396
250.917, 6806.068
252.282, 7107.699
253.646, 7193.486
255.010, 6888.639
256.374, 6441.730
257.737, 5611.023
259.101, 4395.877
260.464, 3888.373
261.827, 3120.904
263.189, 2623.467
264.552, 2326.061
265.914, 2158.687
267.276, 2022.423
268.638, 1936.265
270.000, 2281.584
271.362, 2414.870
272.723, 3247.602
274.084, 3890.353
275.445, 4713.123
276.806, 5905.916
278.166, 6418.732
279.526, 6911.570
280.887, 6244.436
282.246, 5707.329
283.606, 4330.250
284.966, 3333.198
286.325, 2806.178
287.684, 2019.189
289.043, 1862.233
290.402, 1475.206
291.760, 1379.712
293.118, 1604.804
294.477, 1580.053
295.834, 1785.207
297.192, 1930.114
298.550, 2344.674
299.907, 2348.776
301.264, 2582.349
302.621, 2515.377
303.978, 2267.869
305.334, 2269.811
306.690, 1841.088
308.046, 1521.580
309.402, 1331.248
310.758, 840.155
312.113, 778.384
313.469, 376.007
314.824, 273.082
316.179, 139.661
317.533, 24.251
318.888, 18.818
320.242, 154.264
321.596, 78.859
322.950, 10.584
324.304, 260.837
325.657, 449.531
327.010, 597.209
328.363, 1104.230
329.716, 1101.016
331.069, 1307.685
332.421, 1334.303
333.774, 1300.892
335.126, 1217.469
336.478, 1044.040
337.829, 1000.618
339.181, 787.188
340.532, 903.742
341.883, 910.281
343.234, 926.807
344.585, 1161.955
345.935, 1166.169
347.285, 1616.031
348.635, 2114.414
349.985, 2578.084
351.335, 3399.810
352.684, 3753.590
354.034, 4380.064
355.383, 4212.455
356.731, 4024.430
358.080, 3662.918
359.429, 2988.488
360.777, 2531.708
362.125, 1788.971
363.473, 1413.858
364.820, 953.972
366.168, 872.353
367.515, 569.930
368.862, 461.040
370.209, 461.693
371.556, 75.527
372.902, 179.329
374.249, 96.107
375.595, 111.640
376.940, 96.773
378.286, 441.419
379.632, 346.672
380.977, 341.462
382.322, 346.457
383.667, 341.007
385.012, 335.801
386.356, 60.935
387.700, 166.223
389.044, 228.379
390.388, 542.942
391.732, 707.488
393.075, 1342.021
394.419, 1336.537
395.762, 1951.034
397.105, 1925.508
398.447, 1879.971
399.790, 1914.424
401.132, 1208.889
402.474, 1203.351
403.816, 857.812
405.158, 492.326
406.499, 376.849
407.841, 401.419
409.182, 426.021
410.523, 140.633
411.864, 355.293
413.204, 469.910
414.544, 434.492
415.884, 868.825
417.224, 1032.951
418.564, 1746.938
419.904, 2140.872
421.243, 3114.885
422.582, 4358.979
423.921, 5433.115
425.260, 7737.282
426.598, 9101.502
427.937, 11045.767
429.275, 12380.104
430.613, 12734.479
431.951, 12928.916
433.288, 11663.390
434.625, 11017.882
435.963, 9942.446
437.300, 8887.027
438.636, 8561.663
439.973, 7606.345
441.309, 7511.061
442.646, 7275.854
443.981, 7510.664
445.317, 8075.543
446.653, 8630.482
447.988, 10055.439
449.323, 11080.490
450.658, 12935.561
451.993, 14450.590
453.328, 15125.552
454.662, 16090.445
455.996, 15525.308
457.331, 15550.092
458.664, 14914.823
459.998, 13469.498
461.331, 13574.118
462.665, 12568.717
463.998, 12053.244
465.330, 11387.712
466.663, 10862.116
467.996, 10240.373
469.328, 9520.777
470.660, 9025.048
471.992, 8207.840
473.323, 7610.325
474.655, 7060.875
475.986, 5880.563
477.317, 5348.906
478.648, 4571.424
479.979, 4274.284
481.309, 3688.640
482.640, 3296.104
483.970, 3280.885
485.300, 2800.389
486.629, 3161.303
487.959, 2763.254
489.288, 2666.950
490.617, 2821.759
491.946, 2595.626
493.275, 2819.770
494.603, 2694.520
495.932, 2678.376
497.260, 2602.443
498.588, 2425.957
499.916, 2768.541
501.243, 2601.613
502.571, 2804.734
503.898, 3107.945
505.225, 3121.778
506.552, 3745.614
507.878, 3699.474
509.205, 4293.363
510.531, 4787.305
511.857, 5121.346
513.183, 5815.480
514.508, 5689.740
515.834, 6194.098
517.159, 5848.598
518.484, 5593.213
519.809, 5567.954
521.133, 5072.876
522.458, 5127.875
523.782, 5263.004
525.106, 5768.197
526.430, 6483.463
527.754, 6978.160
529.077, 7272.444
530.400, 6766.777
531.723, 6249.522
533.046, 5082.727
534.369, 3971.691
535.692, 3080.004
537.014, 2348.247
538.336, 1757.461
539.658, 1361.918
540.980, 1086.808
542.301, 1081.493
543.623, 866.629
544.944, 912.204
546.265, 903.095
547.585, 819.397
548.906, 1063.090
550.226, 1008.125
551.547, 1263.460
552.867, 1298.795
554.186, 1615.010
555.506, 1834.527
556.825, 2066.496
558.145, 2462.339
559.464, 2742.122
560.783, 3228.315
562.101, 4104.721
563.420, 4681.389
564.738, 6108.048
566.056, 7762.402
567.374, 10732.941
568.692, 13330.541
570.009, 16069.106
571.326, 18364.527
572.643, 17747.910
573.960, 15605.045
575.277, 12641.846
576.594, 9193.111
577.910, 7079.732
579.226, 5011.338
580.542, 3970.922
581.858, 3251.587
583.173, 2789.235
584.489, 2572.778
585.804, 2533.069
587.119, 2472.645
588.434, 2763.945
589.748, 2590.782
591.063, 3291.861
592.377, 3217.786
593.691, 3914.934
595.005, 4370.773
596.318, 4723.959
597.632, 5585.795
598.945, 6265.691
600.258, 7694.254
601.571, 8629.854
602.884, 9326.994
604.196, 10702.805
605.508, 10978.892
606.821, 11522.090
608.132, 10937.934
609.444, 10119.709
610.756, 9595.652
612.067, 8072.610
613.378, 7268.604
614.689, 6014.229
616.000, 5384.486
617.311, 4634.117
618.621, 4003.710
619.931, 3650.732
621.241, 2856.093
622.551, 2762.753
623.861, 2278.143
625.170, 1893.379
626.479, 1989.621
627.788, 1414.356
629.097, 1441.461
630.406, 1247.127
631.714, 1052.281
633.023, 1005.951
634.331, 870.876
635.639, 836.300
636.946, 734.020
638.254, 408.755
639.561, 684.330
640.868, 339.152
642.175, 373.979
643.482, 279.395
644.789, 154.206
646.095, 259.004
647.401, 3.776
648.707, 288.517
650.013, 183.520
651.319, 38.210
652.624, 342.869
653.929, 137.506
655.234, 232.113
656.539, 246.700
657.844, 301.268
659.148, 605.813
660.453, 380.338
661.757, 774.842
663.061, 639.321
664.364, 813.775
665.668, 1038.205
666.971, 822.609
668.274, 966.989
669.577, 1041.342
670.880, 925.669
672.183, 1049.967
673.485, 954.239
674.787, 858.482
676.089, 872.696
677.391, 1016.880
678.693, 1071.033
679.994, 905.155
681.296, 1189.245
682.597, 1063.304
683.898, 1257.329
685.198, 1371.323
686.499, 1305.290
687.799, 1529.228
689.099, 1403.143
690.399, 1627.033
691.699, 1670.921
692.998, 1334.808
694.298, 1468.691
695.597, 1252.658
696.896, 1256.683
698.195, 1060.766
699.493, 764.906
700.792, 959.101
702.090, 793.350
703.388, 637.585
704.686, 801.830
705.984, 416.045
707.281, 480.229
708.578, 404.376
709.876, 58.490
711.172, 382.561
712.469, 76.597
713.766, 150.592
715.062, 45.453
716.358, 68.423
717.654, 22.256
718.950, 153.958
720.246, 9.690
721.541, 126.714
722.836, 63.238
724.131, 9.850
725.426, 206.523
726.721, 86.644
728.015, 100.229
729.310, 2.789
730.604, 15.749
731.898, 221.344
733.191, 21.389
734.485, 225.930
735.778, 193.427
737.071, 51.084
738.364, 1.172
739.657, 96.633
740.950, 44.549
742.242, 192.547
743.535, 60.706
744.827, 148.958
746.118, 57.348
747.410, 104.174
748.702, 154.344
749.993, 116.998
751.284, 91.698
752.575, 70.501
753.866, 39.399
755.156, 178.376
756.447, 152.496
757.737, 156.668
759.027, 135.972
760.316, 34.597
761.606, 254.878
762.896, 65.456
764.185, 74.247
765.474, 35.956
766.763, 6.115
768.051, 143.778
769.340, 86.198
770.628, 53.861
771.916, 44.003
773.204, 44.222
774.492, 164.517
775.780, 115.051
777.067, 4.583
778.354, 94.064
779.641, 123.511
780.928, 157.076
782.215, 232.204
783.501, 8.544
784.787, 20.653
786.073, 109.810
787.359, 121.067
788.645, 157.946
789.930, 36.929
791.216, 24.124
792.501, 324.764
793.786, 23.623
795.071, 202.444
796.355, 301.238
797.640, 60.003
798.924, 248.733
800.208, 197.038
801.492, 245.713
802.775, 273.260
804.059, 121.878
805.342, 420.186
806.625, 237.857
807.908, 326.393
809.191, 434.423
810.474, 522.823
811.756, 561.255
813.038, 359.683
814.320, 678.085
815.602, 726.460
816.884, 474.810
818.165, 843.134
819.446, 751.432
820.727, 809.707
822.008, 1387.955
823.289, 806.179
824.569, 1264.379
825.850, 1382.553
827.130, 1510.705
828.410, 1928.832
829.690, 1956.936
830.969, 2285.016
832.249, 2633.073
833.528, 2621.108
834.807, 2779.119
836.086, 2507.107
837.364, 2655.074
838.643, 2483.019
839.921, 2540.941
841.199, 2468.843
842.477, 2146.723
843.755, 1994.597
845.033, 2122.451
846.310, 2050.284
847.587, 2188.098
848.864, 2181.461
850.141, 2153.665
851.418, 2241.420
852.694, 2179.154
853.971, 2276.878
855.247, 2424.582
856.523, 2442.265
857.798, 2659.942
859.074, 2707.600
860.349, 2915.238
861.624, 2952.855
862.899, 3080.455
864.174, 3187.180
865.449, 3304.763
866.723, 3521.523
867.998, 3658.582
869.272, 3891.680
870.545, 4128.396
871.819, 4234.881
873.093, 4731.090
874.366, 4887.066
875.639, 5054.870
876.912, 5486.645
878.185, 5571.501
879.458, 5514.204
880.730, 6260.957
882.002, 5760.238
883.274, 5965.674
884.546, 5941.766
885.818, 5633.378
887.090, 5399.656
888.361, 4940.943
889.632, 5294.240
890.903, 4756.445
892.174, 4471.657
893.444, 4901.027
894.715, 4553.642
895.985, 4816.964
897.255, 4988.607
898.525, 4854.743
899.795, 5356.625
901.064, 5573.791
902.334, 5879.723
903.603, 6356.990
904.872, 6957.003
906.140, 7858.352
907.409, 8351.633
908.677, 9036.234
909.946, 10373.786
911.214, 10749.807
912.482, 12247.149
913.749, 12974.201
915.017, 13794.133
916.284, 14721.400
917.551, 15492.748
918.818, 15719.908
920.085, 15706.042
921.352, 15743.134
922.618, 15240.587
923.884, 14483.391
925.150, 13406.812
926.416, 13020.261
927.682, 11616.296
928.947, 11003.990
930.213, 9870.370
931.478, 9098.034
932.743, 8315.836
934.008, 7792.625
935.272, 7090.951
936.537, 6696.899
937.801, 5974.279
939.065, 5732.173
940.329, 5291.557
941.593, 4799.704
942.856, 4907.367
944.119, 4252.777
945.383, 4551.220
946.646, 4138.898
947.908, 3817.352
949.171, 3875.844
950.433, 3263.751
951.696, 3592.290
952.958, 3210.841
954.220, 3289.407
955.481, 3238.002
956.743, 3036.322
958.004, 3364.951
959.265, 3433.600
960.526, 3242.261
961.787, 3390.944
963.048, 3289.646
964.308, 3318.363
965.569, 3427.100
966.829, 3095.850
968.089, 3394.615
969.348, 2983.398
970.608, 2902.199
971.867, 2901.018
973.126, 2829.851
974.385, 2648.697
975.644, 3067.566
976.903, 2826.450
978.161, 3165.350
979.420, 3674.269
980.678, 3883.203
981.936, 4392.152
983.193, 5241.121
984.451, 5400.123
985.708, 5869.123
986.966, 6058.141
988.223, 5537.174
989.479, 5236.223
990.736, 4895.283
991.993, 4184.361
993.249, 3403.570
994.505, 2856.049
995.761, 2305.159
997.017, 1974.284
998.272, 1803.854
999.528, 1422.998
1000.783, 1512.793
1002.038, 1142.406
1003.293, 1171.588
1004.548, 963.218
1005.802, 792.834
1007.057, 792.054
1008.311, 604.909
1009.565, 624.316
1010.818, 644.504
1012.072, 313.770
1013.326, 623.845
1014.579, 498.550
1015.832, 357.975
1017.085, 528.611
1018.338, 169.760
1019.590, 469.816
1020.842, 649.095
1022.095, 329.233
1023.347, 739.532
1024.599, 611.848
1025.850, 691.759
1027.102, 782.589
1028.353, 769.258
1029.604, 879.757
1030.855, 1050.640
1032.106, 981.345
1033.356, 1552.582
1034.607, 1306.528
1035.857, 1696.786
1037.107, 1774.992
1038.357, 2306.048
1039.607, 2247.117
1040.856, 2548.233
1042.106, 2879.233
1043.355, 3435.049
1044.604, 3396.861
1045.852, 3998.178
1047.101, 4132.990
1048.350, 3802.459
1049.598, 4493.701
1050.846, 3888.248
1052.094, 3919.316
1053.342, 3979.926
1054.589, 3484.648
1055.837, 3766.090
1057.084, 3567.669
1058.331, 3199.393
1059.578, 3139.966
1060.824, 3057.595
1062.071, 2978.352
1063.317, 2900.014
1064.563, 2941.989
1065.809, 3093.277
1067.055, 2598.387
1068.301, 2879.334
1069.546, 2849.973
1070.791, 2703.688
1072.036, 2914.934
1073.281, 2946.412
1074.526, 3008.316
1075.771, 3598.931
1077.015, 3647.316
1078.259, 3650.091
1079.503, 4480.739
1080.747, 4887.105
1081.991, 5548.096
1083.234, 5989.621
1084.478, 7130.750
1085.721, 8201.476
1086.964, 9263.122
1088.206, 10135.013
1089.449, 11455.800
1090.691, 12500.093
1091.934, 13820.939
1093.176, 14591.962
1094.418, 15084.679
1095.659, 13995.729
1096.901, 12417.410
1098.142, 10980.279
1099.384, 8481.218
1100.625, 6957.139
1101.865, 5318.100
1103.106, 4079.068
1104.347, 3352.427
1105.587, 2773.413
1106.827, 2055.762
1108.067, 1827.260
1109.307, 1658.273
1110.546, 1210.293
1111.786, 1122.510
1113.025, 1013.523
1114.264, 795.745
1115.503, 856.771
1116.742, 547.881
1117.980, 499.890
1119.219, 560.910
1120.457, 452.543
1121.695, 423.544
1122.933, 474.507
1124.171, 596.787
1125.408, 427.732
1126.645, 278.882
1127.883, 500.802
1129.120, 181.586
1130.356, 512.501
1131.593, 303.819
1132.829, 174.429
1134.066, 286.004
1135.302, 427.312
1136.538, 407.822
1137.773, 422.594
1139.009, 229.150
1140.244, 249.336
1141.480, 179.266
1142.715, 61.070
1143.950, 298.738
1145.184, 218.324
1146.419, 118.082
1147.653, 307.555
1148.887, 77.605
1150.121, 126.994
1151.355, 347.014
1152.589, 33.691
1153.822, 147.543
1155.056, 256.697
1156.289, 54.225
1157.522, 215.531
1158.755, 34.432
1159.987, 264.326
1161.220, 73.705
1162.452, 77.557
1163.684, 241.594
1164.916, 1.035
1166.148, 10.447
1167.379, 108.439
1168.611, 143.178
1169.842, 105.742
1171.073, 75.283
1172.304, 26.572
1173.534, 191.500
1174.765, 159.715
1175.995, 91.828
1177.225, 87.703
1178.455, 15.408
1179.685, 63.029
1180.915, 157.996
1182.144, 40.584
1183.374, 196.941
1184.603, 105.127
1185.832, 32.006
1187.060, 50.051
1188.289, 57.059
1189.518, 93.992
1190.746, 218.650
1191.974, 8.051
1193.202, 44.682
1194.430, 197.963
1195.657, 111.561
1196.884, 105.523
1198.112, 508.266
1199.339, 157.730
1200.566, 124.006
1201.792, 348.223
1203.019, 97.373
1204.245, 73.258
1205.471, 48.643
1206.697, 333.953
1207.923, 70.557
1209.149, 304.549
1210.374, 100.258
1211.600, 45.213
1212.825, 210.068
1214.050, 24.611
1215.275, 299.953
1216.499, 374.449
1217.724, 0.002
1218.948, 244.307
1220.172, 188.502
1221.396, 92.625
1222.620, 526.637
1223.843, 69.527
1225.067, 24.203
1226.290, 497.861
1227.513, 33.195
1228.736, 335.242
1229.959, 215.834
1231.181, 103.686
1232.404, 686.768
1233.626, 227.184
1234.848, 177.562
1236.070, 667.904
1237.291, 18.207
1238.513, 568.453
1239.734, 428.648
1240.955, 88.797
1242.177, 438.898
1243.397, 298.967
1244.618, 88.984
1245.838, 678.959
1247.059, 8.893
1248.279, 538.785
1249.499, 548.637
1250.719, 78.439
1251.938, 518.199
1253.158, 197.918
1254.377, 407.566
1255.596, 557.193
1256.815, 296.779
1258.034, 256.332
1259.253, 751.434
1260.471, 260.891
1261.689, 709.771
1262.907, 537.773
1264.125, 323.930
1265.343, 682.693
1266.561, 416.857
1267.778, 614.785
1268.995, 835.361
1270.212, 262.385
1271.429, 917.795
1272.646, 511.479
1273.862, 324.779
1275.079, 916.230
1276.295, 522.760
1277.511, 427.629
1278.727, 891.873
1279.943, 306.037
1281.158, 370.002
1282.373, 904.242
1283.589, 383.658
1284.804, 524.994
1286.019, 664.820
1287.233, 542.711
1288.448, 499.574
1289.662, 380.424
1290.876, 492.568
1292.090, 363.975
1293.304, 503.689
1294.518, 268.428
1295.731, 611.797
1296.944, 258.816
1298.158, 878.654
1299.371, 7.496
1300.583, 496.975
1301.796, 1048.320
1303.008, 198.377
1304.221, 808.963
1305.433, 148.688
1306.645, 252.969
1307.856, 469.875
1309.068, 278.635
1310.280, 194.586
1311.491, 512.936
1312.702, 276.525
1313.913, 531.910
1315.124, 228.777
1316.334, 60.805
1317.545, 504.691
1318.755, 420.811
1319.965, 183.961
1321.175, 507.473
1322.385, 1.455
1323.594, 492.062
1324.804, 713.021
1326.013, 24.488
1327.222, 815.191
1328.431, 296.072
1329.639, 177.562
1330.848, 832.141
1332.056, 108.033
1333.265, 423.525
1334.473, 727.490
1335.680, 220.904
1336.888, 788.805
1338.096, 364.504
1339.303, 147.305
1340.510, 1086.176
1341.717, 149.586
1342.924, 431.240
1344.131, 1124.664
1345.337, 39.818
1346.544, 625.332
1347.750, 726.201
1348.956, 251.248
1350.162, 637.551
1351.367, 391.180
1352.573, 291.643
1353.778, 629.424
1354.983, 200.000
1356.188, 424.527
1357.393, 852.189
1358.598, 249.148
1359.802, 568.863
1361.007, 461.262
1362.211, 129.729
1363.415, 809.205
1364.619, 641.752
1365.822, 543.701
1367.026, 656.266
1368.229, 561.342
1369.432, 701.500
1370.635, 921.828
1371.838, 3.480
1373.041, 0.000
##END=



