##NAMES=Epidote
##RRUFFID=R050191
##IDEAL CHEMISTRY=Ca_2_Fe^3+^Al_2_(Si_2_O_7_)(SiO_4_)O(OH)
##LOCALITY=Pampa Blanca, Castrovirreyna Province, Huancavelica Department, Peru
##OWNER=RRUFF
##SOURCE=Dave Bunk Minerals
##DESCRIPTION=Cluster of green elongated prismatic crystals
##STATUS=The identification of this mineral has been confirmed by X-ray diffraction and chemical analysis
##URL=rruff.info/R050191
##MEASURED CHEMISTRY=Ca_2.00_Al_2.00_(Fe^3+^_0.84_Al_0.16_)(SiO_4_)(Si_2_O_7_)O(OH)
##PIN_ID=L01410
##ORIENTATION=Laser parallel to c* (0 0 1). Fiducial mark perpendicular to laser is parallel to -a [-1 0 0]
53.91000, 0.0000000E+00
55.14900, 58.83432
56.38700, 110.4305
57.62600, 149.0136
58.86400, 208.5845
60.10300, 247.8376
61.34100, 115.6694
62.57900, 0.5443120
63.81700, 13.44049
65.05400, 83.68103
66.29200, 74.90796
67.52900, 3.734497
68.76700, 138.2653
70.00400, 356.5654
71.24100, 556.6915
72.47700, 920.2389
73.71400, 1592.917
74.95100, 2597.454
76.18700, 3862.592
77.42300, 5591.082
78.65900, 7945.682
79.89500, 10864.16
81.13100, 14383.31
82.36700, 18401.93
83.60200, 22421.86
84.83700, 26178.92
86.07200, 28104.97
87.30800, 28254.89
88.54200, 26122.55
89.77700, 22852.91
91.01200, 19658.16
92.24600, 16714.27
93.48000, 14197.08
94.71400, 11939.48
95.94800, 9993.376
97.18200, 8361.705
98.41600, 7104.367
99.64900, 6098.252
100.8830, 5303.268
102.1160, 4723.297
103.3490, 4516.367
104.5820, 4293.313
105.8150, 4334.117
107.0470, 4119.619
108.2800, 3827.492
109.5120, 3846.172
110.7440, 3256.937
111.9760, 3014.349
113.2080, 2975.379
114.4400, 3195.996
115.6710, 3120.176
116.9030, 3310.893
118.1340, 3574.126
119.3650, 4001.855
120.5960, 4886.061
121.8270, 5743.724
123.0580, 6903.831
124.2880, 7940.603
125.5190, 9170.193
126.7490, 10740.02
127.9790, 11585.31
129.2090, 12019.81
130.4390, 10979.38
131.6680, 9486.952
132.8980, 8044.608
134.1270, 6765.520
135.3560, 5962.875
136.5850, 5237.688
137.8140, 4582.972
139.0430, 4225.745
140.2710, 3708.687
141.5000, 3455.635
142.7280, 3165.542
143.9560, 3030.423
145.1840, 2754.294
146.4120, 2567.172
147.6390, 2474.066
148.8670, 2395.990
150.0940, 2487.949
151.3210, 2514.954
152.5490, 2712.010
153.7750, 3029.126
155.0020, 3341.307
156.2290, 3874.556
157.4550, 4518.878
158.6810, 5123.279
159.9080, 5782.760
161.1340, 6638.325
162.3590, 7166.978
163.5850, 7234.717
164.8110, 7032.548
166.0360, 6609.469
167.2610, 5983.483
168.4860, 5328.586
169.7110, 4805.785
170.9360, 4208.073
172.1610, 3509.455
173.3850, 3110.929
174.6100, 2773.495
175.8340, 2490.154
177.0580, 2339.907
178.2820, 2271.752
179.5050, 2285.693
180.7290, 2245.728
181.9520, 2207.856
183.1760, 2313.081
184.3990, 2461.400
185.6220, 2543.817
186.8450, 2581.330
188.0670, 2980.939
189.2900, 3334.647
190.5120, 3711.453
191.7340, 4247.357
192.9560, 4856.362
194.1780, 5348.868
195.4000, 6210.882
196.6220, 6945.694
197.8430, 7547.262
199.0640, 7951.862
200.2860, 8390.242
201.5070, 8290.195
202.7270, 8277.668
203.9480, 8153.124
205.1690, 8067.502
206.3890, 8067.530
207.6090, 8346.090
208.8290, 8696.876
210.0490, 9149.138
211.2690, 10092.12
212.4890, 11026.22
213.7080, 12027.35
214.9280, 13621.57
216.1470, 15519.40
217.3660, 17292.23
218.5850, 19332.22
219.8030, 21039.04
221.0220, 22842.97
222.2400, 24222.39
223.4590, 25219.16
224.6770, 24910.35
225.8950, 24489.31
227.1120, 22662.18
228.3300, 20098.34
229.5480, 17678.76
230.7650, 15574.45
231.9820, 14020.39
233.1990, 12769.57
234.4160, 11929.98
235.6330, 11491.61
236.8490, 11173.46
238.0660, 11003.52
239.2820, 10941.78
240.4980, 10371.23
241.7140, 9655.865
242.9300, 8833.679
244.1460, 7898.661
245.3610, 7012.809
246.5770, 6310.118
247.7920, 5628.582
249.0070, 5047.156
250.2220, 4573.185
251.4370, 4159.854
252.6510, 3869.894
253.8660, 3673.067
255.0800, 3561.372
256.2940, 3632.806
257.5080, 4029.365
258.7220, 4506.049
259.9360, 4917.851
261.1490, 5654.771
262.3630, 6932.808
263.5760, 8714.956
264.7890, 10798.22
266.0020, 13330.59
267.2150, 15745.07
268.4270, 18181.65
269.6400, 20548.34
270.8520, 22412.13
272.0640, 22297.01
273.2760, 20517.96
274.4880, 17749.98
275.7000, 14539.07
276.9120, 12120.23
278.1230, 10094.45
279.3340, 8265.747
280.5450, 6936.106
281.7560, 5765.531
282.9670, 4947.021
284.1780, 4383.573
285.3880, 4060.185
286.5980, 4053.858
287.8090, 4248.595
289.0190, 4588.392
290.2290, 4789.252
291.4380, 5072.177
292.6480, 5434.168
293.8570, 5610.222
295.0670, 5722.344
296.2760, 5630.533
297.4850, 5219.790
298.6930, 5021.114
299.9020, 4417.509
301.1110, 4248.972
302.3190, 3863.504
303.5270, 3596.108
304.7350, 3288.783
305.9430, 2960.529
307.1510, 2688.347
308.3580, 2490.238
309.5660, 2382.587
310.7730, 2363.291
311.9800, 2391.348
313.1870, 2572.532
314.3940, 2788.792
315.6010, 3091.125
316.8070, 3598.534
318.0130, 4004.020
319.2200, 4460.582
320.4260, 4588.218
321.6310, 4620.934
322.8370, 4214.727
324.0430, 3639.596
325.2480, 2724.543
326.4540, 2038.568
327.6590, 1438.673
328.8640, 879.8569
330.0680, 443.1191
331.2730, 69.53906
332.4780, 264.1514
333.6820, 620.7598
334.8860, 642.4458
336.0900, 775.2153
337.2940, 806.1016
338.4980, 785.1108
339.7010, 731.3530
340.9050, 610.0317
342.1080, 513.1924
343.3110, 375.7900
344.5140, 296.6899
345.7170, 202.7661
346.9200, 219.8354
348.1220, 106.9033
349.3240, 129.9189
350.5270, 110.1997
351.7290, 37.80713
352.9310, 126.6382
354.1320, 150.4194
355.3340, 200.1528
356.5350, 250.3467
357.7370, 285.3906
358.9380, 301.3208
360.1390, 341.0981
361.3400, 297.9355
362.5400, 257.8145
363.7410, 340.7168
364.9410, 282.6816
366.1410, 378.6826
367.3410, 230.7637
368.5410, 30.85840
369.7410, 125.8823
370.9400, 125.1245
372.1400, 255.2422
373.3390, 489.4692
374.5380, 767.8062
375.7370, 1262.251
376.9360, 1809.804
378.1350, 2602.464
379.3330, 3270.229
380.5310, 4096.103
381.7300, 4835.080
382.9280, 5630.162
384.1260, 6297.349
385.3230, 6531.641
386.5210, 6738.035
387.7180, 6178.533
388.9160, 5456.135
390.1130, 4635.837
391.3100, 3846.645
392.5060, 3323.553
393.7030, 2901.563
394.9000, 2622.676
396.0960, 2193.891
397.2920, 2081.206
398.4880, 1915.622
399.6840, 1990.139
400.8800, 2080.758
402.0750, 2354.478
403.2710, 2725.297
404.4660, 3178.218
405.6610, 3640.238
406.8560, 4300.359
408.0510, 5345.582
409.2450, 6873.903
410.4400, 8482.326
411.6340, 11001.85
412.8280, 14053.47
414.0220, 17596.20
415.2160, 22154.01
416.4100, 26663.94
417.6030, 31493.95
418.7970, 36141.07
419.9900, 39349.31
421.1830, 41072.63
422.3760, 40078.07
423.5690, 37910.66
424.7610, 34758.38
425.9540, 31513.24
427.1460, 28360.25
428.3380, 26028.42
429.5300, 23542.76
430.7220, 21434.27
431.9140, 19234.94
433.1050, 17666.81
434.2970, 16350.85
435.4880, 15424.08
436.6790, 14853.47
437.8700, 14806.05
439.0610, 15711.83
440.2510, 17076.79
441.4420, 18650.95
442.6320, 20522.30
443.8220, 23198.85
445.0120, 25234.60
446.2020, 27162.54
447.3910, 27921.68
448.5810, 28230.02
449.7700, 27569.54
450.9600, 26816.25
452.1490, 26133.16
453.3370, 25069.24
454.5260, 23125.52
455.7150, 20994.00
456.9030, 18837.68
458.0910, 16840.56
459.2800, 14602.60
460.4670, 12639.84
461.6550, 10922.27
462.8430, 9284.866
464.0300, 8079.636
465.2180, 6986.589
466.4050, 6118.727
467.5920, 5176.049
468.7790, 4734.526
469.9650, 3991.168
471.1520, 3581.970
472.3380, 3446.919
473.5250, 3139.010
474.7110, 3101.493
475.8970, 2994.147
477.0820, 2929.502
478.2680, 3059.758
479.4540, 3199.396
480.6390, 3252.310
481.8240, 3419.535
483.0090, 3702.002
484.1940, 4039.130
485.3780, 4487.331
486.5630, 4984.812
487.7470, 5632.750
488.9320, 6251.870
490.1160, 6873.292
491.3000, 7705.547
492.4830, 8769.808
493.6670, 9452.224
494.8500, 10317.39
496.0340, 10959.32
497.2170, 11402.22
498.4000, 11930.80
499.5820, 12307.99
500.7650, 12734.46
501.9480, 13275.26
503.1300, 13916.10
504.3120, 14309.48
505.4940, 14894.24
506.6760, 15116.71
507.8580, 15175.53
509.0390, 15282.36
510.2210, 15722.29
511.4020, 16454.24
512.5830, 17937.86
513.7640, 19489.97
514.9450, 21618.19
516.1250, 23518.54
517.3060, 25643.00
518.4860, 26295.57
519.6660, 26186.26
520.8460, 24065.07
522.0260, 21105.98
523.2060, 17750.01
524.3850, 15019.15
525.5650, 12050.41
526.7440, 10011.77
527.9230, 8194.245
529.1020, 6456.830
530.2810, 5273.522
531.4590, 4472.322
532.6380, 3650.229
533.8160, 3250.244
534.9940, 2898.364
536.1720, 2798.589
537.3500, 2604.919
538.5270, 2601.353
539.7050, 2644.889
540.8820, 2716.527
542.0590, 2946.268
543.2360, 3277.608
544.4130, 3717.050
545.5900, 4182.091
546.7660, 4824.231
547.9430, 5380.469
549.1190, 6523.804
550.2950, 7860.236
551.4710, 9742.765
552.6470, 12542.39
553.8220, 16154.10
554.9980, 20971.91
556.1730, 26788.81
557.3480, 32828.81
558.5230, 38907.89
559.6980, 44749.07
560.8730, 48436.41
562.0470, 48901.58
563.2220, 45111.46
564.3960, 38223.72
565.5700, 31845.98
566.7440, 26273.80
567.9170, 21730.67
569.0910, 18184.32
570.2640, 15239.94
571.4380, 13164.06
572.6110, 11813.56
573.7840, 11178.93
574.9570, 11128.38
576.1290, 11455.69
577.3020, 11950.35
578.4740, 12863.15
579.6460, 14248.69
580.8180, 15359.31
581.9900, 16731.76
583.1620, 18036.16
584.3330, 19172.43
585.5040, 20521.97
586.6760, 22220.63
587.8470, 23972.16
589.0180, 26318.45
590.1880, 28589.48
591.3590, 30865.60
592.5290, 33512.92
593.7000, 34768.16
594.8700, 35671.57
596.0400, 35678.80
597.2090, 34152.77
598.3790, 31913.55
599.5490, 29901.83
600.7180, 27005.70
601.8870, 24658.12
603.0560, 22833.67
604.2250, 20731.27
605.3940, 19079.32
606.5620, 17759.61
607.7300, 16621.89
608.8990, 15510.86
610.0670, 14355.31
611.2350, 13034.59
612.4020, 11869.33
613.5700, 10825.67
614.7370, 9463.690
615.9050, 8339.354
617.0720, 7434.838
618.2390, 6326.911
619.4060, 5618.075
620.5720, 5016.642
621.7390, 4442.030
622.9050, 3841.362
624.0710, 3400.990
625.2370, 3114.222
626.4030, 2731.241
627.5690, 2392.057
628.7340, 2285.341
629.9000, 2073.188
631.0650, 1773.877
632.2300, 1697.466
633.3950, 1392.177
634.5600, 1260.172
635.7240, 1151.134
636.8890, 1129.267
638.0530, 1095.790
639.2170, 926.7207
640.3810, 807.0244
641.5450, 797.2427
642.7080, 702.2139
643.8720, 681.4707
645.0350, 709.8125
646.1980, 661.6123
647.3610, 609.4707
648.5240, 744.3794
649.6870, 763.3589
650.8490, 689.3735
652.0120, 742.3809
653.1740, 732.3979
654.3360, 890.3848
655.4980, 909.3398
656.6600, 1000.262
657.8210, 1046.151
658.9830, 1027.006
660.1440, 1009.824
661.3050, 1071.821
662.4660, 1158.352
663.6270, 1147.059
664.7870, 1182.727
665.9480, 1160.355
667.1080, 1207.942
668.2680, 1189.486
669.4280, 1272.989
670.5880, 1335.448
671.7480, 1396.904
672.9070, 1474.989
674.0670, 1574.554
675.2260, 1581.829
676.3850, 1681.057
677.5440, 1654.236
678.7030, 1698.364
679.8610, 1813.443
681.0200, 1815.470
682.1780, 1926.445
683.3360, 1900.367
684.4940, 1843.236
685.6520, 1765.049
686.8090, 1669.808
687.9670, 1458.510
689.1240, 1270.154
690.2810, 1059.742
691.4380, 914.2705
692.5950, 725.7393
693.7520, 563.1484
694.9080, 438.4966
696.0650, 323.7832
697.2210, 261.0068
698.3770, 165.1685
699.5330, 113.2651
700.6880, 40.29541
701.8440, 2.007813
702.9990, 64.90527
704.1550, 44.19580
705.3100, 96.61572
706.4650, 93.19580
707.6190, 148.9355
708.7740, 160.3198
709.9290, 179.9990
711.0830, 166.3433
712.2370, 239.8936
713.3910, 189.6919
714.5450, 215.7134
715.6980, 153.9731
716.8520, 232.4414
718.0050, 241.1597
719.1580, 223.1353
720.3110, 249.3594
721.4640, 229.8486
722.6170, 256.5923
723.7700, 274.6074
724.9220, 225.9043
726.0740, 269.4580
727.2260, 247.2930
728.3780, 193.3984
729.5300, 224.7471
730.6810, 226.3569
731.8330, 191.2285
732.9840, 208.3447
734.1350, 283.7158
735.2860, 246.3813
736.4370, 258.3228
737.5880, 137.5459
738.7380, 209.9880
739.8880, 249.6875
741.0390, 123.6658
742.1890, 155.8557
743.3380, 210.2756
744.4880, 197.9541
745.6380, 197.6587
746.7870, 97.06738
747.9360, 136.4490
749.0850, 118.0505
750.2340, 61.86108
751.3830, 55.85205
752.5310, 51.01880
753.6800, 45.35840
754.8280, 41.86841
755.9760, 51.45386
757.1240, 135.6570
758.2720, 73.76416
759.4190, 145.7610
760.5670, 164.6624
761.7140, 154.4709
762.8610, 200.1841
764.0080, 142.8069
765.1550, 165.2861
766.3020, 232.7646
767.4480, 170.1086
768.5950, 188.3594
769.7410, 202.5181
770.8870, 190.5874
772.0330, 163.5654
773.1780, 165.4507
774.3240, 152.2424
775.4690, 121.9407
776.6140, 173.5417
777.7590, 143.0515
778.9040, 152.4670
780.0490, 96.78979
781.1940, 156.0129
782.3380, 151.1440
783.4820, 234.1829
784.6260, 240.1355
785.7700, 280.0029
786.9140, 280.7852
788.0580, 372.4827
789.2010, 359.0947
790.3450, 377.6221
791.4880, 419.0652
792.6310, 409.4243
793.7730, 480.6997
794.9160, 507.8926
796.0590, 601.0022
797.2010, 638.0295
798.3430, 663.9751
799.4850, 773.8391
800.6270, 790.6223
801.7690, 873.3245
802.9100, 914.9463
804.0520, 1069.489
805.1930, 1174.953
806.3340, 1243.337
807.4750, 1384.643
808.6160, 1512.870
809.7560, 1710.021
810.8970, 1816.094
812.0370, 1954.092
813.1770, 2207.012
814.3170, 2583.857
815.4570, 2867.627
816.5960, 3273.108
817.7360, 3613.943
818.8750, 4109.492
820.0140, 4687.964
821.1530, 5129.367
822.2920, 5823.697
823.4310, 6274.954
824.5690, 6956.141
825.7070, 7244.257
826.8460, 7314.302
827.9840, 7388.280
829.1220, 7215.188
830.2590, 6932.027
831.3970, 6522.798
832.5340, 6100.501
833.6710, 5604.140
834.8080, 5096.712
835.9450, 4681.217
837.0820, 4416.583
838.2190, 4077.144
839.3550, 3946.021
840.4910, 3652.536
841.6270, 3693.091
842.7630, 3633.102
843.8990, 3549.075
845.0350, 3526.306
846.1700, 3653.582
847.3060, 3646.392
848.4410, 3887.830
849.5760, 4035.433
850.7100, 4269.974
851.8450, 4456.676
852.9800, 4853.056
854.1140, 5011.318
855.2480, 5175.851
856.3820, 5639.338
857.5160, 6014.012
858.6500, 6348.752
859.7830, 6717.660
860.9170, 7123.636
862.0500, 7530.853
863.1830, 7959.550
864.3160, 8305.522
865.4480, 8726.767
866.5810, 9116.941
867.7130, 9265.924
868.8460, 9115.023
869.9780, 9000.971
871.1100, 8559.118
872.2410, 8458.548
873.3730, 7962.173
874.5050, 7506.432
875.6360, 7203.090
876.7670, 6705.154
877.8980, 6445.278
879.0290, 6315.205
880.1590, 6065.712
881.2900, 6008.004
882.4200, 5835.328
883.5500, 5886.986
884.6800, 6058.205
885.8100, 6185.638
886.9400, 6575.646
888.0690, 6900.095
889.1990, 7423.938
890.3280, 7978.200
891.4570, 8696.764
892.5860, 9474.933
893.7140, 10579.22
894.8430, 11661.32
895.9710, 12979.85
897.1000, 14582.68
898.2280, 16161.45
899.3560, 17987.81
900.4830, 20386.57
901.6110, 22614.66
902.7380, 25513.43
903.8660, 28417.73
904.9930, 32000.32
906.1200, 35533.10
907.2460, 39539.82
908.3730, 43608.34
909.5000, 47606.95
910.6260, 50697.46
911.7520, 52997.67
912.8780, 54770.58
914.0040, 53735.23
915.1290, 52397.10
916.2550, 49318.34
917.3800, 45276.43
918.5050, 40819.52
919.6300, 36040.26
920.7550, 31992.04
921.8800, 27750.90
923.0040, 23887.80
924.1290, 20656.77
925.2530, 17745.76
926.3770, 15446.88
927.5010, 13293.03
928.6250, 11622.26
929.7480, 10334.55
930.8720, 9060.899
931.9950, 8251.301
933.1180, 7315.756
934.2410, 6510.262
935.3640, 6020.820
936.4860, 5350.431
937.6090, 4961.104
938.7310, 4579.822
939.8530, 4341.589
940.9750, 4037.406
942.0970, 3946.279
943.2180, 3678.207
944.3400, 3596.188
945.4610, 3419.218
946.5820, 3382.301
947.7030, 3401.436
948.8240, 3267.621
949.9450, 3355.860
951.0650, 3335.153
952.1860, 3311.501
953.3060, 3443.903
954.4260, 3574.363
955.5460, 3521.877
956.6650, 3426.449
957.7850, 3325.076
958.9040, 3352.761
960.0230, 3403.507
961.1420, 3380.311
962.2610, 3380.174
963.3800, 3467.095
964.4990, 3479.074
965.6170, 3570.115
966.7350, 3879.216
967.8530, 4370.377
968.9710, 4874.600
970.0890, 5620.884
971.2070, 6494.236
972.3240, 7384.648
973.4410, 8630.133
974.5580, 9774.699
975.6750, 10762.37
976.7920, 11514.13
977.9090, 11914.01
979.0250, 11523.99
980.1410, 10661.11
981.2580, 9750.345
982.3740, 8573.726
983.4890, 7492.241
984.6050, 6331.912
985.7200, 5492.724
986.8360, 4546.688
987.9510, 3930.787
989.0660, 3345.043
990.1810, 2807.458
991.2950, 2372.030
992.4100, 2100.766
993.5240, 1766.660
994.6390, 1538.720
995.7530, 1271.953
996.8660, 1083.346
997.9800, 830.9111
999.0940, 746.6426
1000.207, 679.5273
1001.320, 423.5737
1002.433, 406.7832
1003.546, 261.1455
1004.659, 202.6665
1005.772, 35.36621
1006.884, 89.23535
1007.996, 5.723633
1009.108, 1.542480
1010.220, 97.11963
1011.332, 22.04883
1012.444, 91.93799
1013.555, 103.2671
1014.666, 139.5703
1015.777, 172.6191
1016.888, 270.0156
1017.999, 427.7637
1019.110, 369.0581
1020.220, 539.2222
1021.331, 587.5591
1022.441, 788.2754
1023.551, 1002.661
1024.661, 1311.221
1025.770, 1505.804
1026.880, 1819.489
1027.989, 2090.074
1029.098, 2472.864
1030.207, 2949.208
1031.316, 3398.760
1032.425, 3944.909
1033.533, 4408.677
1034.642, 5034.013
1035.750, 5458.267
1036.858, 5869.678
1037.966, 6174.171
1039.073, 6404.233
1040.181, 6348.604
1041.288, 6278.851
1042.396, 5856.812
1043.503, 5700.460
1044.610, 5428.647
1045.716, 5129.641
1046.823, 4742.430
1047.929, 4562.471
1049.036, 4671.852
1050.142, 4446.913
1051.248, 4628.456
1052.353, 4717.655
1053.459, 5185.519
1054.564, 5720.226
1055.670, 6150.830
1056.775, 6532.673
1057.880, 7067.999
1058.985, 7323.298
1060.089, 7207.468
1061.194, 6983.951
1062.298, 6666.348
1063.402, 6316.125
1064.506, 6137.735
1065.610, 6044.635
1066.713, 5897.102
1067.817, 6056.277
1068.920, 6258.449
1070.023, 6591.071
1071.126, 7317.812
1072.229, 8094.596
1073.332, 9021.690
1074.435, 10299.46
1075.537, 11985.93
1076.639, 13771.34
1077.741, 15769.34
1078.843, 18301.57
1079.945, 20988.65
1081.046, 23958.79
1082.148, 26792.96
1083.249, 28076.17
1084.350, 28245.54
1085.451, 26892.83
1086.551, 24361.74
1087.652, 20803.11
1088.752, 17396.51
1089.853, 14162.99
1090.953, 11282.47
1092.053, 8819.746
1093.152, 6780.298
1094.252, 5295.883
1095.351, 4234.505
1096.451, 3319.160
1097.550, 2685.850
1098.649, 2253.573
1099.748, 1814.329
1100.846, 1556.116
1101.945, 1314.937
1103.043, 1124.561
1104.141, 990.4429
1105.239, 849.9282
1106.337, 764.4106
1107.434, 670.7051
1108.532, 669.7056
1109.629, 615.7339
1110.726, 633.7900
1111.823, 642.8716
1112.920, 557.9790
1114.017, 539.1108
1115.113, 663.2666
1116.210, 844.6782
1117.306, 896.8799
1118.402, 929.1016
1119.498, 988.5127
1120.593, 1025.774
1121.689, 1002.055
1122.784, 1011.352
1123.879, 903.6670
1124.974, 854.9961
1126.069, 714.3408
1127.164, 587.6997
1128.259, 460.0708
1129.353, 406.4541
1130.447, 328.8477
1131.541, 163.3013
1132.635, 122.7144
1133.729, 165.1353
1134.822, 49.56299
1135.916, 153.9966
1137.009, 111.4517
1138.102, 43.89404
1139.195, 11.37256
1140.288, 27.72461
1141.380, 46.84814
1142.473, 45.31836
1143.565, 11.94043
1144.657, 18.39551
1145.749, 65.93359
1146.841, 28.54346
1147.932, 32.16895
1149.024, 59.77930
1150.115, 141.4517
1151.206, 79.19189
1152.297, 114.9727
1153.388, 198.7427
1154.479, 49.68896
1155.569, 138.5864
1156.659, 64.62305
1157.750, 90.62305
1158.839, 45.61426
1159.929, 74.48291
1161.019, 113.5947
1162.108, 112.9243
1163.198, 86.32520
1164.287, 108.5449
1165.376, 65.08838
1166.465, 108.6768
1167.553, 91.56616
1168.642, 121.0308
1169.730, 78.69971
1170.818, 48.16382
1171.906, 25.55835
1172.994, 34.32422
1174.082, 8.671631
1175.170, 78.75366
1176.257, 72.17578
1177.344, 97.45215
1178.431, 98.12622
1179.518, 36.58130
1180.605, 60.10425
1181.691, 0.8295900
1182.778, 51.67310
1183.864, 16.97363
1184.950, 42.01807
1186.036, 5.372314
1187.122, 38.11060
1188.207, 11.07446
1189.292, 26.12573
1190.378, 50.77246
1191.463, 68.91846
1192.548, 1.113770
1193.632, 12.09912
1194.717, 36.95972
1195.801, 56.39233
1196.886, 71.95605
1197.970, 58.24805
1199.054, 62.04419
1200.137, 33.66821
1201.221, 142.1472
1202.305, 130.5269
1203.388, 111.9775
1204.471, 65.30908
1205.554, 106.7554
1206.637, 114.0049
1207.719, 155.2659
1208.802, 131.4507
1209.884, 219.5815
1210.966, 197.1033
1212.048, 211.2227
1213.130, 192.2820
1214.212, 151.2300
1215.293, 191.0510
1216.374, 134.8354
1217.456, 238.5762
1218.536, 178.2832
1219.617, 174.9482
1220.698, 218.6128
1221.778, 141.2690
1222.859, 241.8101
1223.939, 259.3120
1225.019, 254.7749
1226.099, 281.1980
1227.178, 262.3362
1228.258, 279.9241
1229.337, 227.2273
1230.417, 246.4897
1231.496, 227.7114
1232.574, 165.8914
1233.653, 232.0222
1234.732, 283.1108
