##NAMES=Epidote
##RRUFFID=R050191
##IDEAL CHEMISTRY=Ca_2_Fe^3+^Al_2_(Si_2_O_7_)(SiO_4_)O(OH)
##LOCALITY=Pampa Blanca, Castrovirreyna Province, Huancavelica Department, Peru
##OWNER=RRUFF
##SOURCE=Dave Bunk Minerals
##DESCRIPTION=Cluster of green elongated prismatic crystals
##STATUS=The identification of this mineral has been confirmed by X-ray diffraction and chemical analysis
##URL=rruff.info/R050191
##MEASURED CHEMISTRY=Ca_2.00_Al_2.00_(Fe^3+^_0.84_Al_0.16_)(SiO_4_)(Si_2_O_7_)O(OH)
##PIN_ID=L01284
##ORIENTATION=Laser parallel to -a* (-1 0 0). Fiducial mark perpendicular to laser is parallel to b [0 1 0]
53.91000, 0.0000000E+00
55.14900, 78.79773
56.38700, 169.9967
57.62600, 59.89624
58.86400, 252.4016
60.10300, 242.5447
61.34100, 416.3744
62.57900, 217.6302
63.81700, 28.67212
65.05400, 158.7350
66.29200, 29.18140
67.52900, 186.9231
68.76700, 129.9160
70.00400, 278.2695
71.24100, 143.7700
72.47700, 178.0977
73.71400, 386.9646
74.95100, 622.0942
76.18700, 959.2275
77.42300, 1180.139
78.65900, 1544.637
79.89500, 2172.550
81.13100, 3282.739
82.36700, 4850.085
83.60200, 6916.482
84.83700, 8877.828
86.07200, 10830.03
87.30800, 13166.01
88.54200, 15070.68
89.77700, 15764.97
91.01200, 15710.81
92.24600, 14639.10
93.48000, 12544.71
94.71400, 10717.55
95.94800, 9279.520
97.18200, 7605.560
98.41600, 6580.624
99.64900, 5889.706
100.8830, 4939.782
102.1160, 4137.812
103.3490, 3672.762
104.5820, 3527.600
105.8150, 3984.326
107.0470, 5866.973
108.2800, 7727.546
109.5120, 5754.017
110.7440, 3388.351
111.9760, 2708.523
113.2080, 2520.506
114.4400, 2491.275
115.6710, 2529.810
116.9030, 2169.088
118.1340, 1992.093
119.3650, 1741.804
120.5960, 1636.207
121.8270, 1552.284
123.0580, 1414.127
124.2880, 1377.639
125.5190, 1309.430
126.7490, 1274.071
127.9790, 1370.206
129.2090, 1293.458
130.4390, 1321.781
131.6680, 1199.206
132.8980, 1060.709
134.1270, 987.3291
135.3560, 993.0059
136.5850, 1114.905
137.8140, 1126.046
139.0430, 1245.446
140.2710, 1355.124
141.5000, 1225.130
142.7280, 1283.726
143.9560, 1198.100
145.1840, 1381.063
146.4120, 1477.379
147.6390, 1530.996
148.8670, 1745.915
150.0940, 2028.146
151.3210, 2283.692
152.5490, 2356.562
153.7750, 2424.757
155.0020, 2687.307
156.2290, 3109.637
157.4550, 3396.950
158.6810, 3974.289
159.9080, 4752.541
161.1340, 5589.269
162.3590, 6846.270
163.5850, 8529.546
164.8110, 10328.10
166.0360, 12492.92
167.2610, 14659.03
168.4860, 17509.41
169.7110, 19954.06
170.9360, 22095.99
172.1610, 22893.20
173.3850, 22417.69
174.6100, 20809.45
175.8340, 18480.49
177.0580, 16191.81
178.2820, 13474.40
179.5050, 11465.27
180.7290, 9470.416
181.9520, 7940.833
183.1760, 6770.521
184.3990, 5940.480
185.6220, 5344.713
186.8450, 4844.213
188.0670, 4278.984
189.2900, 3860.020
190.5120, 3701.324
191.7340, 3396.893
192.9560, 3436.727
194.1780, 3277.822
195.4000, 3410.182
196.6220, 3576.801
197.8430, 3677.681
199.0640, 3835.819
200.2860, 4278.215
201.5070, 4518.611
202.7270, 4574.440
203.9480, 4374.714
205.1690, 4150.703
206.3890, 3819.665
207.6090, 3360.353
208.8290, 3300.914
210.0490, 3074.133
211.2690, 3092.580
212.4890, 3129.013
213.7080, 3125.010
214.9280, 3301.042
216.1470, 3486.095
217.3660, 3958.646
218.5850, 4642.676
219.8030, 5282.167
221.0220, 6427.103
222.2400, 7364.469
223.4590, 8662.253
224.6770, 10604.44
225.8950, 12273.03
227.1120, 14101.99
228.3300, 15746.91
229.5480, 16476.88
230.7650, 16758.76
231.9820, 16292.67
233.1990, 15562.91
234.4160, 14503.56
235.6330, 13519.83
236.8490, 12841.87
238.0660, 12336.87
239.2820, 12154.18
240.4980, 12085.78
241.7140, 11809.67
242.9300, 11167.87
244.1460, 10332.39
245.3610, 9215.229
246.5770, 7831.386
247.7920, 6371.847
249.0070, 5117.624
250.2220, 3998.702
251.4370, 3110.056
252.6510, 2468.709
253.8660, 2000.638
255.0800, 1532.668
256.2940, 1435.103
257.5080, 1733.375
258.7220, 1366.896
259.9360, 2030.500
261.1490, 1201.764
262.3630, 1176.959
263.5760, 1333.049
264.7890, 1639.401
266.0020, 2168.334
267.2150, 2630.770
268.4270, 3302.412
269.6400, 4277.255
270.8520, 5436.297
272.0640, 6802.537
273.2760, 8610.974
274.4880, 8578.602
275.7000, 8209.424
276.9120, 7166.439
278.1230, 6031.649
279.3340, 4668.053
280.5450, 3557.650
281.7560, 2899.441
282.9670, 2419.426
284.1780, 2006.604
285.3880, 1847.974
286.5980, 1742.537
287.8090, 1538.289
289.0190, 1661.229
290.2290, 1648.356
291.4380, 1717.666
292.6480, 1660.157
293.8570, 1787.830
295.0670, 1747.684
296.2760, 1740.717
297.4850, 1626.930
298.6930, 1551.320
299.9020, 1438.889
301.1110, 1433.636
302.3190, 1416.555
303.5270, 1459.646
304.7350, 1487.902
305.9430, 1428.324
307.1510, 1445.114
308.3580, 1399.650
309.5660, 1397.556
310.7730, 1282.622
311.9800, 1243.850
313.1870, 1120.235
314.3940, 1185.781
315.6010, 1158.485
316.8070, 1235.349
318.0130, 1233.369
319.2200, 1449.547
320.4260, 1391.882
321.6310, 1631.373
322.8370, 1635.020
324.0430, 1706.822
325.2480, 1880.779
326.4540, 1903.891
327.6590, 2197.156
328.8640, 2255.574
330.0680, 2622.145
331.2730, 2817.867
332.4780, 3310.740
333.6820, 3723.765
334.8860, 4237.938
336.0900, 4927.261
337.2940, 5482.738
338.4980, 6189.348
339.7010, 7241.108
340.9050, 8812.018
342.1080, 10710.07
343.3110, 12905.27
344.5140, 15053.60
345.7170, 17632.08
346.9200, 19578.77
348.1220, 21111.65
349.3240, 20806.74
350.5270, 20720.03
351.7290, 18456.54
352.9310, 16018.25
354.1320, 13496.16
355.3340, 11014.27
356.5350, 8978.607
357.7370, 7186.139
358.9380, 5652.865
360.1390, 4460.820
361.3400, 3586.965
362.5400, 2845.297
363.7410, 2201.814
364.9410, 1823.515
366.1410, 1485.397
367.3410, 1032.460
368.5410, 717.7002
369.7410, 441.1172
370.9400, 153.7090
372.1400, 163.5254
373.3390, 283.6367
374.5380, 390.6650
375.7370, 446.6543
376.9360, 465.6260
378.1350, 234.5898
379.3330, 187.4648
380.5310, 5.234375
381.7300, 330.1494
382.9280, 581.6943
384.1260, 1033.399
385.3230, 1724.263
386.5210, 2195.600
387.7180, 2621.834
388.9160, 2881.016
390.1130, 2832.908
391.3100, 2493.947
392.5060, 1918.702
393.7030, 1446.248
394.9000, 825.6719
396.0960, 373.3174
397.2920, 55.79102
398.4880, 61.16406
399.6840, 428.4629
400.8800, 617.8877
402.0750, 535.4287
403.2710, 591.0508
404.4660, 616.7812
405.6610, 668.6318
406.8560, 560.6260
408.0510, 378.7207
409.2450, 142.8408
410.4400, 105.1035
411.6340, 252.1787
412.8280, 744.3828
414.0220, 1193.715
415.2160, 1916.176
416.4100, 2653.763
417.6030, 3687.477
418.7970, 5071.316
419.9900, 6743.279
421.1830, 8457.366
422.3760, 10465.58
423.5690, 12499.91
424.7610, 14217.36
425.9540, 15724.93
427.1460, 17414.63
428.3380, 19618.44
429.5300, 21905.38
430.7220, 24389.43
431.9140, 27504.61
433.1050, 30404.92
434.2970, 31896.35
435.4880, 32260.93
436.6790, 31837.66
437.8700, 30281.55
439.0610, 28131.60
440.2510, 25772.84
441.4420, 23535.24
442.6320, 21897.85
443.8220, 20948.63
445.0120, 20619.61
446.2020, 20603.78
447.3910, 21141.12
448.5810, 22287.66
449.7700, 22744.38
450.9600, 23140.30
452.1490, 23374.42
453.3370, 23227.73
454.5260, 22935.22
455.7150, 22395.90
456.9030, 21530.78
458.0910, 19750.85
459.2800, 17841.10
460.4670, 15982.53
461.6550, 13842.13
462.8430, 11891.92
464.0300, 10051.88
465.2180, 8347.028
466.4050, 6856.362
467.5920, 5852.859
468.7790, 4933.512
469.9650, 4018.335
471.1520, 3440.312
472.3380, 2814.438
473.5250, 2509.702
474.7110, 2115.093
475.8970, 1845.590
477.0820, 1687.189
478.2680, 1404.881
479.4540, 1418.660
480.6390, 1469.521
481.8240, 1424.461
483.0090, 1420.479
484.1940, 1573.575
485.3780, 1669.747
486.5630, 1916.995
487.7470, 2163.318
488.9320, 2385.714
490.1160, 2684.182
491.3000, 3134.723
492.4830, 3750.332
493.6670, 4163.011
494.8500, 5236.757
496.0340, 5895.570
497.2170, 6807.446
498.4000, 7413.387
499.5820, 8198.390
500.7650, 8841.456
501.9480, 9384.583
503.1300, 10074.77
504.3120, 10628.03
505.4940, 11094.35
506.6760, 11643.73
507.8580, 12221.18
509.0390, 11879.70
510.2210, 11574.28
511.4020, 10161.92
512.5830, 8951.611
513.7640, 7391.353
514.9450, 6125.574
516.1250, 4807.171
517.3060, 3739.240
518.4860, 2959.685
519.6660, 2118.188
520.8460, 1640.646
522.0260, 1058.855
523.2060, 898.6494
524.3850, 550.8262
525.5650, 420.0439
526.7440, 167.3037
527.9230, 29.60059
529.1020, 104.1011
530.2810, 58.85986
531.4590, 88.65820
532.6380, 47.50977
533.8160, 117.3989
534.9940, 69.35693
536.1720, 38.63428
537.3500, 83.37988
538.5270, 3.546387
539.7050, 93.44971
540.8820, 110.5186
542.0590, 190.8643
543.2360, 220.8955
544.4130, 314.1958
545.5900, 348.7090
546.7660, 460.8472
547.9430, 612.3057
549.1190, 860.1177
550.2950, 1143.914
551.4710, 1440.369
552.6470, 1688.561
553.8220, 2253.781
554.9980, 2910.030
556.1730, 3676.309
557.3480, 4990.613
558.5230, 6395.942
559.6980, 7995.297
560.8730, 10406.68
562.0470, 13235.08
563.2220, 15811.50
564.3960, 17307.95
565.5700, 17172.42
566.7440, 15557.90
567.9170, 13215.40
569.0910, 11181.17
570.2640, 9199.206
571.4380, 7815.678
572.6110, 6836.416
573.7840, 6401.887
574.9570, 6243.419
576.1290, 6485.893
577.3020, 6951.917
578.4740, 7747.995
579.6460, 8700.822
580.8180, 9947.686
581.9900, 11032.80
583.1620, 12762.07
584.3330, 14725.12
585.5040, 16474.72
586.6760, 18120.92
587.8470, 20110.48
589.0180, 21810.75
590.1880, 23734.85
591.3590, 25947.93
592.5290, 28730.03
593.7000, 31998.78
594.8700, 34895.50
596.0400, 38237.55
597.2090, 39934.80
598.3790, 41082.75
599.5490, 40760.04
600.7180, 39617.48
601.8870, 37162.51
603.0560, 35019.30
604.2250, 32578.89
605.3940, 30587.45
606.5620, 28633.65
607.7300, 27461.98
608.8990, 26373.66
610.0670, 25646.14
611.2350, 25108.66
612.4020, 24401.29
613.5700, 22959.69
614.7370, 21560.21
615.9050, 19545.99
617.0720, 17457.63
618.2390, 15455.70
619.4060, 13499.47
620.5720, 11407.23
621.7390, 10049.81
622.9050, 8651.344
624.0710, 7458.814
625.2370, 6546.226
626.4030, 5822.576
627.5690, 5201.866
628.7340, 4702.095
629.9000, 4231.261
631.0650, 3843.364
632.2300, 3492.404
633.3950, 3202.921
634.5600, 2999.293
635.7240, 2748.140
636.8890, 2600.919
638.0530, 2416.632
639.2170, 2381.279
640.3810, 2095.856
641.5450, 2021.803
642.7080, 1864.615
643.8720, 1689.921
645.0350, 1527.693
646.1980, 1419.406
647.3610, 1411.313
648.5240, 1251.184
649.6870, 1195.396
650.8490, 1184.841
652.0120, 1022.108
653.1740, 1032.796
654.3360, 1028.909
655.4980, 969.8916
656.6600, 841.2949
657.8210, 865.2236
658.9830, 819.1230
660.1440, 757.9077
661.3050, 874.4751
662.4660, 787.9922
663.6270, 790.4336
664.7870, 623.7930
665.9480, 633.0723
667.1080, 598.2695
668.2680, 616.0674
669.4280, 614.6514
670.5880, 642.1426
671.7480, 637.6011
672.9070, 621.9697
674.0670, 514.7158
675.2260, 569.7231
676.3850, 534.9165
677.5440, 506.9517
678.7030, 630.2207
679.8610, 566.9785
681.0200, 574.1221
682.1780, 595.3623
683.3360, 548.6479
684.4940, 618.9609
685.6520, 583.3130
686.8090, 569.7100
687.9670, 635.1626
689.1240, 583.6489
690.2810, 634.1294
691.4380, 549.5596
692.5950, 585.9053
693.7520, 726.1660
694.9080, 649.0420
696.0650, 715.4321
697.2210, 657.4365
698.3770, 587.3550
699.5330, 659.1860
700.6880, 736.9312
701.8440, 582.5894
702.9990, 599.1597
704.1550, 551.6431
705.3100, 493.0381
706.4650, 457.9751
707.6190, 382.5640
708.7740, 354.6904
709.9290, 307.7217
711.0830, 288.3872
712.2370, 184.4854
713.3910, 183.1987
714.5450, 108.7925
715.6980, 5.249512
716.8520, 4.527344
718.0050, 7.373535
719.1580, 135.4609
720.3110, 59.80225
721.4640, 142.3569
722.6170, 123.1685
723.7700, 148.2271
724.9220, 126.5454
726.0740, 117.1118
727.2260, 144.9209
728.3780, 174.9883
729.5300, 159.8828
730.6810, 224.9316
731.8330, 156.8330
732.9840, 141.9961
734.1350, 164.4131
735.2860, 233.0913
736.4370, 166.0703
737.5880, 173.3120
738.7380, 193.8208
739.8880, 93.60547
741.0390, 203.6123
742.1890, 154.8999
743.3380, 188.4395
744.4880, 217.2480
745.6380, 126.3398
746.7870, 102.6650
747.9360, 166.2109
749.0850, 106.0083
750.2340, 94.68457
751.3830, 62.27637
752.5310, 19.67285
753.6800, 51.73828
754.8280, 92.01660
755.9760, 169.1738
757.1240, 252.9375
758.2720, 371.1753
759.4190, 451.0420
760.5670, 553.8242
761.7140, 681.5239
762.8610, 752.1406
764.0080, 836.6748
765.1550, 939.1279
766.3020, 1057.499
767.4480, 1017.791
768.5950, 965.0010
769.7410, 1052.133
770.8870, 949.1851
772.0330, 885.1592
773.1780, 795.0552
774.3240, 671.8735
775.4690, 493.6157
776.6140, 469.2812
777.7590, 346.5713
778.9040, 232.3848
780.0490, 235.8184
781.1940, 96.17432
782.3380, 128.4360
783.4820, 72.61084
784.6260, 13.69141
785.7700, 25.66992
786.9140, 55.54980
788.0580, 101.3379
789.2010, 196.0410
790.3450, 139.6689
791.4880, 23.21875
792.6310, 95.67676
793.7730, 134.0537
794.9160, 182.3540
796.0590, 180.5835
797.2010, 191.7417
798.3430, 253.8291
799.4850, 229.8511
800.6270, 262.8071
801.7690, 360.6987
802.9100, 381.5249
804.0520, 455.9102
805.1930, 480.9883
806.3340, 583.6455
807.4750, 643.2871
808.6160, 703.9062
809.7560, 660.5088
810.8970, 751.0874
812.0370, 839.6582
813.1770, 836.2109
814.3170, 941.7246
815.4570, 1027.225
816.5960, 974.6963
817.7360, 1151.120
818.8750, 1120.496
820.0140, 1130.817
821.1530, 1342.083
822.2920, 1467.294
823.4310, 1586.450
824.5690, 1821.552
825.7070, 1915.599
826.8460, 2146.591
827.9840, 2271.531
829.1220, 2527.415
830.2590, 2592.248
831.3970, 2636.027
832.5340, 2714.757
833.6710, 2736.434
834.8080, 2817.062
835.9450, 2830.641
837.0820, 2823.170
838.2190, 2720.653
839.3550, 2835.088
840.4910, 2679.478
841.6270, 2846.821
842.7630, 2773.119
843.8990, 2732.373
845.0350, 2818.333
846.1700, 2873.005
847.3060, 3024.208
848.4410, 3152.119
849.5760, 3353.275
850.7100, 3467.339
851.8450, 3659.435
852.9800, 3875.953
854.1140, 4170.391
855.2480, 4396.051
856.3820, 4710.646
857.5160, 5051.971
858.6500, 5506.098
859.7830, 5846.424
860.9170, 6284.177
862.0500, 6508.296
863.1830, 7002.021
864.3160, 7265.021
865.4480, 7429.159
866.5810, 7657.281
867.7130, 7657.359
868.8460, 7731.762
869.9780, 7739.152
871.1100, 7877.606
872.2410, 8297.414
873.3730, 8547.507
874.5050, 9039.229
875.6360, 9882.764
876.7670, 10818.68
877.8980, 11567.81
879.0290, 12884.10
880.1590, 14123.41
881.2900, 15407.05
882.4200, 16841.55
883.5500, 18014.70
884.6800, 19226.00
885.8100, 20315.25
886.9400, 20872.39
888.0690, 21141.73
889.1990, 20953.96
890.3280, 20585.91
891.4570, 19740.98
892.5860, 19013.62
893.7140, 18534.54
894.8430, 17974.46
895.9710, 17778.52
897.1000, 18152.64
898.2280, 18533.82
899.3560, 19371.04
900.4830, 20495.33
901.6110, 21809.66
902.7380, 23811.04
903.8660, 25777.47
904.9930, 28466.95
906.1200, 31342.49
907.2460, 34736.08
908.3730, 38456.70
909.5000, 42210.38
910.6260, 46419.10
911.7520, 50216.87
912.8780, 53589.67
914.0040, 56197.51
915.1290, 58190.95
916.2550, 58623.52
917.3800, 57729.57
918.5050, 55003.12
919.6300, 51434.02
920.7550, 47076.06
921.8800, 41756.44
923.0040, 37097.46
924.1290, 32603.24
925.2530, 28602.17
926.3770, 24890.66
927.5010, 22045.70
928.6250, 19008.86
929.7480, 16708.62
930.8720, 14635.89
931.9950, 12712.23
933.1180, 11490.74
934.2410, 10043.48
935.3640, 9022.271
936.4860, 8208.128
937.6090, 7434.043
938.7310, 6618.027
939.8530, 6044.064
940.9750, 5378.158
942.0970, 4990.302
943.2180, 4647.501
944.3400, 4207.757
945.4610, 3846.073
946.5820, 3618.445
947.7030, 3487.873
948.8240, 3315.355
949.9450, 3136.934
951.0650, 2966.488
952.1860, 2823.139
953.3060, 2686.847
954.4260, 2578.611
955.5460, 2566.433
956.6650, 2467.313
957.7850, 2473.251
958.9040, 2173.248
960.0230, 2070.304
961.1420, 2153.430
962.2610, 1938.616
963.3800, 1968.875
964.4990, 1872.196
965.6170, 1769.579
966.7350, 1833.023
967.8530, 1857.544
968.9710, 1829.126
970.0890, 1896.772
971.2070, 1942.484
972.3240, 2152.261
973.4410, 2414.111
974.5580, 2594.028
975.6750, 2928.012
976.7920, 3128.063
977.9090, 3372.182
979.0250, 3469.369
980.1410, 3617.632
981.2580, 3294.981
982.3740, 3214.413
983.4890, 2718.937
984.6050, 2382.551
985.7200, 1904.256
986.8360, 1551.070
987.9510, 1266.000
989.0660, 960.0522
990.1810, 840.2373
991.2950, 719.5825
992.4100, 542.0708
993.5240, 502.7271
994.6390, 332.5444
995.7530, 391.5259
996.8660, 216.6709
997.9800, 144.9805
999.0940, 92.45117
1000.207, 52.09668
1001.320, 68.90381
1002.433, 96.88916
1003.546, 83.04443
1004.659, 58.64307
1005.772, 97.96729
1006.884, 130.6240
1007.996, 146.5483
1009.108, 437.5347
1010.220, 408.6880
1011.332, 565.9795
1012.444, 824.4897
1013.555, 1075.363
1014.666, 1266.720
1015.777, 1633.938
1016.888, 1978.854
1017.999, 2151.907
1019.110, 2470.278
1020.220, 2563.667
1021.331, 2540.007
1022.441, 2383.727
1023.551, 2156.790
1024.661, 1882.019
1025.770, 1848.465
1026.880, 1605.733
1027.989, 1529.832
1029.098, 1409.756
1030.207, 1575.528
1031.316, 1516.025
1032.425, 1578.079
1033.533, 1692.979
1034.642, 1798.616
1035.750, 2133.501
1036.858, 2059.456
1037.966, 2301.531
1039.073, 2379.369
1040.181, 2328.211
1041.288, 2498.418
1042.396, 2527.758
1043.503, 2406.616
1044.610, 2290.862
1045.716, 2255.646
1046.823, 2218.525
1047.929, 2082.401
1049.036, 1902.125
1050.142, 1704.259
1051.248, 1656.831
1052.353, 1668.471
1053.459, 1615.213
1054.564, 1433.221
1055.670, 1421.238
1056.775, 1365.500
1057.880, 1273.535
1058.985, 1256.752
1060.089, 1293.868
1061.194, 1112.053
1062.298, 1049.301
1063.402, 1110.274
1064.506, 959.0166
1065.610, 927.4375
1066.713, 840.9150
1067.817, 918.8447
1068.920, 910.0791
1070.023, 1016.313
1071.126, 1090.585
1072.229, 1209.582
1073.332, 1349.402
1074.435, 1636.257
1075.537, 1921.162
1076.639, 2310.477
1077.741, 2946.017
1078.843, 3643.074
1079.945, 4439.345
1081.046, 5481.497
1082.148, 6547.702
1083.249, 7860.949
1084.350, 9030.249
1085.451, 10043.68
1086.551, 10559.07
1087.652, 10766.51
1088.752, 9996.994
1089.853, 8973.521
1090.953, 7734.090
1092.053, 6143.704
1093.152, 4886.610
1094.252, 3867.310
1095.351, 3190.855
1096.451, 2514.637
1097.550, 2100.676
1098.649, 1691.542
1099.748, 1213.211
1100.846, 1064.156
1101.945, 1085.260
1103.043, 821.8511
1104.141, 767.4473
1105.239, 622.2070
1106.337, 573.5884
1107.434, 495.1274
1108.532, 462.7979
1109.629, 411.3896
1110.726, 381.1875
1111.823, 388.1289
1112.920, 375.1812
1114.017, 285.1094
1115.113, 375.7710
1116.210, 274.2197
1117.306, 359.3218
1118.402, 339.0210
1119.498, 335.0059
1120.593, 370.7280
1121.689, 423.9600
1122.784, 497.6665
1123.879, 500.2007
1124.974, 486.3779
1126.069, 408.0439
1127.164, 248.7788
1128.259, 223.0425
1129.353, 110.0801
1130.447, 75.52197
1131.541, 84.21484
1132.635, 69.00977
1133.729, 57.22461
1134.822, 41.94824
1135.916, 58.68506
1137.009, 6.970703
1138.102, 21.32910
1139.195, 3.622070
1140.288, 54.88818
1141.380, 36.54590
1142.473, 25.53223
1143.565, 1.207520
1144.657, 10.88867
1145.749, 85.49658
1146.841, 101.5835
1147.932, 89.05713
1149.024, 61.01855
1150.115, 63.99512
1151.206, 109.1362
1152.297, 79.25635
1153.388, 169.4775
1154.479, 87.78662
1155.569, 110.1514
1156.659, 89.47656
1157.750, 57.95508
1158.839, 118.2080
1159.929, 42.73340
1161.019, 105.0698
1162.108, 154.6660
1163.198, 104.2988
1164.287, 117.9907
1165.376, 109.6445
1166.465, 91.51611
1167.553, 89.84180
1168.642, 68.86035
1169.730, 81.52148
1170.818, 57.97461
1171.906, 82.90234
1172.994, 41.45557
1174.082, 28.22656
1175.170, 18.60791
1176.257, 3.181152
1177.344, 3.251465
1178.431, 6.114258
1179.518, 11.73340
1180.605, 58.71777
1181.691, 62.10156
1182.778, 56.26758
1183.864, 29.90869
1184.950, 44.34277
1186.036, 59.70654
1187.122, 43.07227
1188.207, 34.74658
1189.292, 36.77051
1190.378, 82.37793
1191.463, 55.58496
1192.548, 115.1514
1193.632, 19.57080
1194.717, 29.44238
1195.801, 55.71338
1196.886, 108.6548
1197.970, 8.524902
1199.054, 12.45312
1200.137, 7.804199
1201.221, 25.05029
1202.305, 46.00586
1203.388, 60.09766
1204.471, 87.76611
1205.554, 122.8892
1206.637, 48.92334
1207.719, 21.10742
1208.802, 87.29150
1209.884, 62.27441
1210.966, 77.21289
1212.048, 121.6143
1213.130, 104.3745
1214.212, 132.3140
1215.293, 76.77930
1216.374, 129.4116
1217.456, 128.2275
1218.536, 91.05566
1219.617, 126.8525
1220.698, 131.3550
1221.778, 104.0049
1222.859, 34.44092
1223.939, 140.9385
1225.019, 27.28516
1226.099, 127.6011
1227.178, 96.09717
1228.258, 128.3867
1229.337, 35.65771
1230.417, 152.7729
1231.496, 110.8516
1232.574, 95.89111
1233.653, 123.8872
1234.732, 57.84521
1235.810, 116.7451
