##NAMES=Epidote
##RRUFFID=R040089
##IDEAL CHEMISTRY=Ca_2_Fe^3+^Al_2_(Si_2_O_7_)(SiO_4_)O(OH)
##LOCALITY=Grafton County, New Hampshire, USA
##OWNER=RRUFF
##SOURCE=University of Arizona Mineral Museum
##DESCRIPTION=Dark green coarsely crystalline massive
##STATUS=The identification of this mineral has been confirmed by X-ray diffraction and chemical analysis
##URL=rruff.info/R040089
##MEASURED CHEMISTRY=Ca_2.00_(Al_2.36_Fe^3+^_0.64_)[Si_2.00_O_7_][Si_1.00_O_4_]O(OH)
##PIN_ID=M00383
##ORIENTATION=Laser parallel to a [1 0 0]. Fiducial mark perpendicular to laser is parallel to b* (0 1 0)
53.228, 0.000
54.634, 155.900
56.040, 576.742
57.445, 424.980
58.850, 885.623
60.254, 1287.201
61.659, 1750.656
63.063, 1841.752
64.467, 1542.256
65.871, 806.836
67.274, 176.697
68.678, 12.559
70.081, 63.439
71.484, 786.127
72.886, 1688.010
74.288, 2409.879
75.690, 3114.770
77.092, 3314.730
78.494, 3247.383
79.895, 2668.600
81.296, 2560.275
82.697, 2015.436
84.097, 1492.027
85.498, 1876.951
86.898, 2542.568
88.298, 3862.898
89.697, 5483.912
91.097, 7585.836
92.496, 9504.391
93.895, 10293.709
95.293, 9321.016
96.692, 8134.807
98.090, 6374.572
99.488, 4600.694
100.885, 3303.549
102.283, 2433.461
103.680, 1989.412
105.077, 1364.740
106.473, 817.547
107.870, 706.504
109.266, 573.492
110.662, 228.768
112.057, 962.421
113.453, 704.492
114.848, 1625.077
116.243, 734.245
117.638, 312.177
119.032, 15.468
120.426, 144.513
121.820, 227.356
123.214, 295.269
124.608, 223.522
126.001, 677.538
127.394, 1238.332
128.787, 2299.765
130.179, 3299.240
131.571, 4933.142
132.963, 6689.791
134.355, 8247.443
135.747, 9331.612
137.138, 9696.411
138.529, 9991.046
139.920, 9364.571
141.311, 8714.439
142.701, 7295.090
144.091, 6156.418
145.481, 5148.184
146.870, 4310.402
148.260, 3953.088
149.649, 3466.180
151.038, 2969.654
152.426, 2343.528
153.815, 1987.689
155.203, 1761.954
156.591, 1596.275
157.979, 1890.634
159.366, 1975.018
160.753, 2749.412
162.140, 3493.789
163.527, 4598.022
164.913, 5761.980
166.300, 6845.566
167.686, 7818.947
169.071, 8082.074
170.457, 8254.545
171.842, 7766.016
173.227, 7316.957
174.612, 6467.726
175.996, 5458.427
177.381, 4779.059
178.765, 3909.614
180.149, 3210.096
181.532, 2510.506
182.915, 1850.849
184.299, 1551.126
185.681, 1261.342
187.064, 1241.462
188.446, 1241.435
189.828, 1271.277
191.210, 1491.059
192.592, 1270.797
193.973, 1150.494
195.355, 400.152
196.736, 309.775
198.116, 240.634
199.497, 421.072
200.877, 611.538
202.257, 542.074
203.637, 442.718
205.016, 413.473
206.395, 274.319
207.774, 185.296
209.153, 6.615
210.532, 71.181
211.910, 21.990
213.288, 254.070
214.666, 129.637
216.043, 154.938
217.421, 210.081
218.798, 436.133
220.175, 743.121
221.551, 849.071
222.928, 1283.088
224.304, 1605.691
225.680, 1976.978
227.055, 2606.859
228.431, 3064.578
229.806, 3981.388
231.181, 4317.373
232.556, 5162.555
233.930, 5553.818
235.304, 5801.983
236.678, 6075.180
238.052, 6125.630
239.426, 6756.277
240.799, 7046.081
242.172, 8295.114
243.545, 9283.441
244.917, 11001.050
246.290, 12798.387
247.662, 14497.887
249.034, 16788.312
250.405, 18032.494
251.777, 18522.439
253.148, 18651.975
254.519, 17981.031
255.889, 16459.330
257.260, 14607.210
258.630, 13374.807
260.000, 11902.117
261.370, 11009.154
262.739, 10265.926
264.108, 9352.454
265.477, 9078.755
266.846, 8524.843
268.215, 8650.477
269.583, 8343.966
270.951, 8374.519
272.319, 8660.642
273.686, 8525.333
275.054, 8598.232
276.421, 8204.010
277.788, 7923.185
279.154, 7535.088
280.521, 6965.674
281.887, 6340.195
283.253, 5608.082
284.619, 5344.939
285.984, 4881.756
287.349, 4573.376
288.714, 4700.768
290.079, 4576.102
291.444, 4848.155
292.808, 5072.760
294.172, 5520.764
295.536, 5660.459
296.899, 6049.678
298.263, 6598.584
299.626, 6327.309
300.989, 6225.870
302.351, 5504.354
303.714, 4752.799
305.076, 3671.255
306.438, 2809.739
307.799, 2298.246
309.161, 1776.775
310.522, 1765.325
311.883, 1663.892
313.244, 1862.475
314.604, 1891.071
315.965, 2209.684
317.325, 2576.161
318.684, 2791.229
320.044, 3275.429
321.403, 3529.012
322.762, 3823.902
324.121, 4099.225
325.480, 4457.863
326.838, 4586.566
328.196, 5005.283
329.554, 5344.017
330.912, 5872.770
332.270, 6181.544
333.627, 6900.342
334.984, 7339.168
336.341, 8088.021
337.697, 8836.908
339.053, 9505.824
340.409, 9814.771
341.765, 9903.751
343.121, 10352.756
344.476, 10761.797
345.831, 11500.829
347.186, 12837.203
348.541, 14042.423
349.895, 16496.527
351.250, 17470.654
352.604, 18834.871
353.957, 18419.326
355.311, 17324.803
356.664, 15269.459
358.017, 12823.716
359.370, 10681.795
360.722, 8378.741
362.075, 6760.207
363.427, 5500.744
364.779, 4809.723
366.130, 3953.455
367.482, 3313.816
368.833, 2986.406
370.184, 2708.121
371.535, 2465.814
372.885, 1985.116
374.235, 1739.079
375.585, 1308.265
376.935, 927.328
378.285, 527.894
379.634, 372.150
380.983, 180.801
382.332, 203.554
383.680, 214.339
385.029, 546.409
386.377, 789.952
387.725, 1080.770
389.073, 1561.742
390.420, 1841.347
391.767, 2330.877
393.114, 2640.338
394.461, 2779.729
395.808, 2689.057
397.154, 2638.338
398.500, 2317.586
399.846, 1816.827
401.191, 1546.029
402.537, 1065.198
403.882, 674.332
405.227, 443.439
406.571, 242.540
407.916, 61.622
409.260, 149.278
410.604, 220.198
411.948, 31.146
413.291, 192.076
414.635, 46.976
415.978, 256.091
417.321, 465.260
418.663, 1094.484
420.006, 1423.820
421.348, 2063.227
422.690, 2662.733
424.031, 3612.323
425.373, 4662.007
426.714, 5621.792
428.055, 6561.675
429.396, 7081.646
430.736, 7991.699
432.077, 8251.849
433.417, 8822.122
434.757, 9092.518
436.096, 9353.046
437.436, 9913.702
438.775, 10334.547
440.114, 11115.525
441.452, 11926.617
442.791, 12577.816
444.129, 14049.138
445.467, 15380.610
446.805, 17612.291
448.142, 20054.188
449.480, 22886.346
450.817, 25098.766
452.154, 26681.365
453.490, 26204.072
454.827, 24446.850
456.163, 21819.752
457.499, 19252.721
458.835, 16115.776
460.170, 13998.892
461.505, 12282.061
462.840, 10535.303
464.175, 9198.603
465.510, 8221.971
466.844, 7545.402
468.178, 6668.896
469.512, 6012.447
470.846, 5666.048
472.179, 5129.699
473.512, 4893.398
474.845, 4437.148
476.178, 4030.943
477.511, 4014.791
478.843, 3571.562
480.175, 3772.650
481.507, 3086.675
482.839, 3110.763
484.170, 3085.180
485.501, 3169.715
486.832, 3284.749
488.163, 3359.771
489.493, 3534.334
490.823, 3620.755
492.153, 3696.494
493.483, 3768.423
494.813, 3648.607
496.142, 3854.529
497.471, 3940.117
498.800, 4015.496
500.129, 4561.027
501.457, 4896.484
502.785, 5561.418
504.113, 5966.120
505.441, 6831.051
506.769, 7595.816
508.096, 8700.966
509.423, 9505.819
510.750, 10281.006
512.077, 11396.154
513.403, 12051.402
514.729, 12096.666
516.055, 11792.229
517.381, 10998.043
518.706, 9874.072
520.032, 8229.729
521.357, 6675.344
522.681, 5260.874
524.006, 4186.629
525.330, 3522.668
526.655, 2518.966
527.978, 2115.497
529.302, 1722.250
530.626, 1119.188
531.949, 816.285
533.272, 473.492
534.595, 220.787
535.917, 23.921
537.239, 164.341
538.562, 246.835
539.883, 329.391
541.205, 360.753
542.527, 246.063
543.848, 269.333
545.169, 261.945
546.489, 144.594
547.810, 97.250
549.130, 130.092
550.450, 187.447
551.770, 554.816
553.090, 842.201
554.409, 1059.599
555.728, 1427.164
557.047, 2005.179
558.366, 2623.629
559.685, 3362.246
561.003, 4312.099
562.321, 5711.178
563.639, 7431.201
564.956, 9733.838
566.274, 12884.216
567.591, 16582.705
568.908, 20595.176
570.225, 23336.627
571.541, 24232.881
572.857, 21503.732
574.173, 16727.393
575.489, 12615.640
576.805, 9163.938
578.120, 6864.846
579.435, 5445.779
580.750, 4613.195
582.065, 4027.059
583.380, 3922.839
584.694, 4079.730
586.008, 4125.987
587.322, 4639.857
588.635, 5271.420
589.949, 5824.256
591.262, 6822.457
592.575, 7452.413
593.887, 8526.370
595.200, 9356.808
596.512, 10753.964
597.824, 12178.494
599.136, 13697.151
600.447, 15458.910
601.759, 16860.020
603.070, 18520.613
604.381, 19702.391
605.692, 19388.457
607.002, 18808.490
608.312, 17833.578
609.622, 16289.111
610.932, 14402.136
612.242, 12992.151
613.551, 11866.546
614.860, 10717.938
616.169, 10206.425
617.478, 9435.615
618.786, 8435.013
620.094, 7236.908
621.402, 5897.276
622.710, 5198.479
624.018, 3989.187
625.325, 3649.919
626.632, 2738.791
627.939, 2137.340
629.246, 1925.573
630.552, 1583.716
631.859, 1401.688
633.165, 1199.599
634.471, 990.598
635.776, 760.068
637.082, 742.329
638.387, 648.792
639.692, 583.722
640.996, 452.729
642.301, 441.732
643.605, 335.519
644.909, 351.788
646.213, 297.528
647.516, 219.596
648.820, 218.050
650.123, 134.427
651.426, 185.724
652.729, 209.941
654.031, 301.079
655.333, 363.140
656.636, 337.126
657.937, 367.035
659.239, 502.867
660.540, 613.628
661.842, 525.317
663.142, 614.934
664.443, 496.479
665.744, 635.947
667.044, 517.344
668.344, 541.665
669.644, 532.909
670.944, 544.078
672.243, 485.169
673.542, 440.180
674.841, 403.110
676.140, 512.955
677.438, 543.812
678.737, 612.524
680.035, 705.007
681.333, 822.530
682.630, 836.971
683.928, 1029.328
685.225, 1089.600
686.522, 1036.785
687.819, 1262.883
689.115, 1207.893
690.412, 1294.813
691.708, 1144.643
693.004, 1438.382
694.300, 1243.598
695.595, 1219.918
696.890, 1219.985
698.185, 1143.606
699.480, 1214.580
700.775, 1259.555
702.069, 1273.685
703.363, 1247.705
704.657, 1179.947
705.951, 1064.779
707.244, 1055.519
708.538, 809.166
709.831, 776.719
711.124, 596.180
712.416, 494.546
713.709, 395.813
715.001, 360.977
716.293, 87.037
717.585, 260.979
718.876, 82.813
720.167, 20.526
721.459, 73.093
722.749, 81.466
724.040, 36.224
725.331, 51.142
726.621, 52.221
727.911, 24.481
729.201, 155.894
730.490, 59.548
731.780, 59.398
733.069, 259.445
734.358, 99.793
735.646, 202.359
736.935, 145.200
738.223, 175.283
739.511, 192.625
740.799, 182.236
742.087, 144.111
743.374, 107.230
744.661, 127.573
745.948, 213.152
747.235, 82.011
748.522, 146.083
749.808, 90.398
751.094, 197.931
752.380, 156.735
753.666, 63.790
754.951, 114.047
756.236, 104.532
757.521, 97.238
758.806, 117.163
760.091, 27.316
761.375, 91.650
762.659, 14.198
763.943, 181.918
765.227, 16.101
766.511, 88.963
767.794, 168.300
769.077, 44.186
770.360, 77.469
771.643, 108.674
772.925, 96.697
774.207, 23.599
775.489, 58.354
776.771, 33.884
778.053, 43.357
779.334, 39.807
780.615, 96.018
781.896, 111.112
783.177, 162.832
784.457, 167.960
785.738, 191.721
787.018, 189.373
788.298, 150.917
789.577, 259.354
790.857, 291.686
792.136, 225.916
793.415, 335.041
794.694, 298.066
795.972, 279.723
797.251, 312.218
798.529, 415.153
799.807, 521.048
801.084, 421.610
802.362, 605.738
803.639, 641.756
804.916, 646.321
806.193, 847.000
807.470, 887.677
808.746, 949.635
810.022, 994.753
811.298, 1077.768
812.574, 1173.597
813.850, 1262.000
815.125, 1380.581
816.400, 1498.883
817.675, 1543.297
818.950, 1615.283
820.224, 1909.532
821.499, 1994.415
822.773, 2091.303
824.047, 2095.062
825.320, 2335.772
826.594, 2295.144
827.867, 2625.233
829.140, 2542.076
830.413, 2689.288
831.685, 2786.536
832.958, 2773.982
834.230, 2901.357
835.502, 2848.657
836.774, 3115.881
838.045, 3103.030
839.316, 3210.104
840.588, 3427.106
841.858, 3354.036
843.129, 3600.893
844.400, 3817.680
845.670, 3844.396
846.940, 4221.047
848.210, 4537.645
849.479, 4494.206
850.749, 5230.742
852.018, 5257.256
853.287, 5713.749
854.556, 6440.210
855.824, 6606.649
857.093, 7273.049
858.361, 7669.403
859.629, 8355.697
860.896, 9151.933
862.164, 9768.114
863.431, 10904.241
864.698, 11820.168
865.965, 13235.618
867.232, 14210.588
868.498, 15235.352
869.764, 16010.876
871.030, 16883.078
872.296, 17046.318
873.562, 17486.924
874.827, 17539.742
876.092, 18463.727
877.357, 19150.439
878.622, 20426.086
879.886, 21411.539
881.151, 22118.637
882.415, 23237.381
883.679, 24002.072
884.942, 24366.668
886.206, 25398.619
887.469, 25900.504
888.732, 26625.863
889.995, 27704.758
891.258, 28141.688
892.520, 28737.463
893.782, 28893.848
895.044, 28192.566
896.306, 26383.553
897.568, 24653.256
898.829, 23167.553
900.090, 20910.051
901.351, 19698.508
902.612, 18760.436
903.872, 17945.607
905.133, 17783.365
906.393, 17916.959
907.653, 18257.404
908.912, 18968.455
910.172, 20359.975
911.431, 21180.271
912.690, 22146.232
913.949, 22518.184
915.208, 23735.039
916.466, 23031.408
917.724, 22920.234
918.982, 22202.031
920.240, 20939.408
921.498, 20419.740
922.755, 18732.932
924.012, 17185.369
925.269, 15777.548
926.526, 14517.181
927.782, 12978.294
929.039, 12188.525
930.295, 10839.198
931.551, 10019.801
932.806, 8682.216
934.062, 8104.903
935.317, 7257.858
936.572, 6570.854
937.827, 5943.981
939.082, 5287.123
940.336, 4950.127
941.590, 4343.619
942.844, 4077.283
944.098, 3890.695
945.352, 3354.595
946.605, 3368.366
947.859, 3142.094
949.112, 3025.986
950.364, 2920.344
951.617, 2835.196
952.869, 2729.679
954.121, 2884.719
955.373, 2809.783
956.625, 2724.872
957.877, 2659.986
959.128, 2555.129
960.379, 2450.310
961.630, 2485.512
962.881, 2170.752
964.131, 2276.014
965.381, 2151.297
966.631, 2066.600
967.881, 2041.930
969.131, 2037.280
970.380, 2132.652
971.630, 2108.059
972.879, 2283.487
974.128, 2388.975
975.376, 2604.486
976.625, 2980.041
977.873, 3325.621
979.121, 3621.230
980.369, 4366.866
981.616, 4652.529
982.864, 5058.220
984.111, 5173.939
985.358, 4839.686
986.605, 4865.461
987.851, 4031.270
989.097, 3587.102
990.344, 3233.532
991.589, 2669.429
992.835, 2465.354
994.081, 2232.017
995.326, 1908.005
996.571, 1685.274
997.816, 1571.334
999.061, 1398.195
1000.305, 1344.324
1001.550, 1154.493
1002.794, 1112.251
1004.037, 997.711
1005.281, 1019.767
1006.525, 914.943
1007.768, 960.554
1009.011, 906.685
1010.254, 1096.410
1011.496, 1159.092
1012.739, 1324.081
1013.981, 1416.145
1015.223, 1736.889
1016.465, 1814.190
1017.706, 2263.100
1018.948, 2572.576
1020.189, 3200.908
1021.430, 3509.106
1022.671, 4181.703
1023.911, 4458.605
1025.152, 4718.981
1026.392, 4918.727
1027.632, 4535.871
1028.872, 4303.134
1030.111, 4073.475
1031.350, 3842.990
1032.590, 3672.182
1033.829, 3349.790
1035.067, 3328.708
1036.306, 3278.148
1037.544, 3326.090
1038.782, 3479.302
1040.020, 3597.477
1041.258, 3635.775
1042.495, 3797.374
1043.733, 3815.928
1044.970, 3894.585
1046.207, 3860.505
1047.443, 3649.365
1048.680, 3808.449
1049.916, 3407.990
1051.152, 3307.176
1052.388, 3406.457
1053.624, 3058.589
1054.859, 2788.103
1056.094, 2658.045
1057.329, 2587.741
1058.564, 2577.535
1059.799, 2433.826
1061.033, 2397.414
1062.268, 2259.061
1063.502, 2169.846
1064.735, 2181.041
1065.969, 2001.385
1067.202, 2053.042
1068.436, 1964.941
1069.669, 1925.777
1070.902, 1956.438
1072.134, 1897.165
1073.367, 1957.909
1074.599, 2038.711
1075.831, 2199.557
1077.062, 2250.458
1078.294, 2511.428
1079.525, 2652.430
1080.757, 3163.864
1081.988, 3314.962
1083.218, 3816.125
1084.449, 4417.311
1085.679, 4970.439
1086.909, 5582.133
1088.139, 6383.428
1089.369, 6867.101
1090.599, 7450.912
1091.828, 7182.508
1093.057, 6734.255
1094.286, 6135.889
1095.515, 4748.328
1096.744, 4139.898
1097.972, 3171.682
1099.200, 2567.923
1100.428, 1961.904
1101.656, 1693.847
1102.883, 1476.289
1104.111, 1122.218
1105.338, 963.694
1106.565, 1027.932
1107.791, 931.140
1109.018, 763.302
1110.244, 736.541
1111.470, 650.441
1112.696, 510.644
1113.922, 510.763
1115.147, 376.787
1116.373, 348.937
1117.598, 346.963
1118.823, 397.585
1120.047, 324.801
1121.272, 217.860
1122.496, 320.175
1123.720, 256.757
1124.944, 170.914
1126.168, 201.121
1127.391, 200.392
1128.615, 209.784
1129.838, 52.173
1131.061, 32.962
1132.283, 89.297
1133.506, 42.215
1134.728, 60.489
1135.950, 81.814
1137.172, 38.414
1138.394, 47.964
1139.615, 21.401
1140.837, 43.250
1142.058, 113.208
1143.279, 62.261
1144.499, 28.678
1145.720, 43.117
1146.940, 26.594
1148.160, 5.984
1149.380, 118.768
1150.600, 15.650
1151.819, 97.931
1153.038, 98.814
1154.257, 75.723
1155.476, 47.682
1156.695, 55.135
1157.913, 78.458
1159.132, 48.068
1160.350, 133.263
1161.568, 117.632
1162.785, 31.023
1164.003, 73.018
1165.220, 83.936
1166.437, 54.650
1167.654, 49.017
1168.871, 139.793
1170.087, 16.865
1171.304, 90.129
1172.520, 73.490
1173.736, 10.697
1174.951, 3.841
1176.167, 76.182
1177.382, 55.862
1178.597, 45.020
1179.812, 80.337
1181.027, 32.092
1182.241, 39.918
1183.455, 40.481
1184.669, 103.965
1185.883, 115.040
1187.097, 104.101
1188.311, 64.614
1189.524, 7.756
1190.737, 78.988
1191.950, 128.453
1193.162, 65.642
1194.375, 5.776
1195.587, 3.346
1196.799, 55.505
1198.011, 78.512
1199.223, 44.340
1200.434, 92.876
1201.646, 3.783
1202.857, 178.511
1204.068, 20.677
1205.279, 26.929
1206.489, 40.692
1207.699, 14.253
1208.909, 4.564
1210.119, 0.486
1211.329, 48.084
1212.539, 3.252
1213.748, 5.625
1214.957, 19.981
1216.166, 32.436
1217.375, 40.691
1218.583, 57.594
1219.792, 50.657
1221.000, 77.051
1222.208, 59.484
1223.415, 58.953
1224.623, 122.238
1225.830, 31.728
1227.037, 186.130
1228.244, 71.341
1229.451, 78.737
1230.658, 4.246
1231.864, 38.728
1233.070, 124.007
1234.276, 0.752
1235.482, 0.785
1236.687, 68.048
1237.893, 58.020
1239.098, 81.188
1240.303, 40.069
1241.508, 130.097
1242.712, 78.897
1243.917, 23.220
1245.121, 15.493
1246.325, 75.155
1247.529, 55.924
1248.732, 92.531
1249.936, 60.114
1251.139, 41.154
1252.342, 4.679
1253.545, 84.092
1254.747, 7.536
1255.950, 157.232
1257.152, 93.779
1258.354, 120.055
1259.556, 63.191
1260.758, 130.667
1261.959, 170.347
1263.160, 31.024
1264.361, 140.318
1265.562, 56.527
1266.763, 132.562
1267.963, 1.490
1269.164, 204.569
1270.364, 180.661
1271.563, 172.411
1272.763, 150.279
1273.963, 157.941
1275.162, 105.640
1276.361, 184.332
1277.560, 104.815
1278.759, 92.271
1279.957, 308.973
1281.155, 121.263
1282.354, 93.949
1283.551, 194.143
1284.749, 99.272
1285.947, 197.858
1287.144, 186.100
1288.341, 53.843
1289.538, 74.782
1290.735, 150.905
1291.931, 129.753
1293.128, 155.290
1294.324, 77.885
1295.520, 156.279
1296.716, 116.870
1297.911, 115.612
1299.107, 117.473
1300.302, 75.346
1301.497, 23.512
1302.692, 220.843
1303.886, 6.915
1305.081, 150.648
1306.275, 145.751
1307.469, 108.372
1308.663, 62.336
1309.856, 89.864
1311.050, 74.288
1312.243, 90.889
1313.436, 36.046
1314.629, 24.088
1315.822, 64.302
1317.014, 80.354
1318.206, 13.966
1319.398, 51.629
1320.590, 164.168
1321.782, 23.548
1322.974, 144.311
1324.165, 7.691
1325.356, 74.792
1326.547, 125.460
1327.738, 57.673
1328.928, 245.690
1330.119, 35.801
1331.309, 29.858
1332.499, 55.692
1333.688, 135.638
1334.878, 96.542
1336.067, 143.237
1337.256, 132.049
1338.445, 190.691
1339.634, 68.920
1340.823, 153.557
1342.011, 117.632
1343.199, 104.438
1344.388, 160.924
1345.575, 225.017
1346.763, 105.406
1347.950, 97.748
1349.138, 180.042
1350.325, 112.292
1351.512, 153.913
1352.698, 116.442
1353.885, 204.588
1355.071, 171.657
1356.257, 171.430
1357.443, 166.964
1358.629, 228.629
1359.814, 220.479
1361.000, 271.294
1362.185, 258.090
1363.370, 189.836
1364.554, 174.554
1365.739, 160.229
1366.923, 247.849
1368.107, 143.452
1369.291, 156.636
1370.475, 196.168
1371.659, 145.959
1372.842, 116.422
1374.025, 112.954
1375.208, 146.939
1376.391, 85.281
1377.574, 25.229
1378.756, 34.958
1379.939, 181.620
1381.121, 129.518
1382.303, 248.206
1383.484, 141.845
1384.666, 205.503
1385.847, 166.166
1387.028, 225.562
1388.209, 205.025
1389.390, 156.020
1390.570, 351.904
1391.751, 225.228
1392.931, 91.889
1394.111, 166.671
1395.291, 48.417
1396.470, 160.961
1397.649, 97.165
1398.829, 119.975
1400.008, 224.522
1401.187, 54.341
1402.365, 110.280
1403.544, 80.198
1404.722, 75.036
1405.900, 118.472
1407.078, 143.438
1408.255, 139.805
1409.433, 187.855
1410.610, 114.627
1411.787, 95.403
1412.964, 254.482
1414.141, 117.713
1415.317, 226.459
1416.494, 130.724
1417.670, 102.767
1418.846, 187.592
1420.022, 119.184
1421.197, 55.092
1422.373, 142.674
1423.548, 119.463
1424.723, 213.085
1425.898, 150.324
1427.072, 62.416
1428.247, 62.731
1429.421, 121.832
1430.595, 165.434
1431.769, 237.602
1432.942, 119.736
1434.116, 71.398
1435.289, 148.838
1436.462, 5.118
1437.635, 13.063
1438.808, 135.758
1439.981, 42.818
1441.153, 31.816
1442.325, 164.514
1443.497, 67.090
1444.669, 126.141
1445.840, 65.438
1447.012, 137.682
1448.183, 70.498
1449.354, 54.300
1450.525, 25.876
1451.696, 92.572
