##NAMES=Epidote
##RRUFFID=R050131
##IDEAL CHEMISTRY=Ca_2_Fe^3+^Al_2_(Si_2_O_7_)(SiO_4_)O(OH)
##LOCALITY=Calumet mine, Chaffee County, Colorado, USA
##OWNER=RRUFF
##SOURCE=Dave Bunk Minerals
##DESCRIPTION=Green prismatic crystal
##STATUS=The identification of this mineral has been confirmed by X-ray diffraction and chemical analysis
##URL=rruff.info/R050131
##MEASURED CHEMISTRY=Ca_2.00_Al_2.00_(Fe^3+^_0.75_Al_0.25_)(SiO_4_)(Si_2_O_7_)O(OH)
##PIN_ID=L00285
##ORIENTATION=Laser parallel to c* (0 0 1). Fiducial mark perpendicular to laser is parallel to -a [-1 0 0]
127.882, 0.000
129.268, 24.245
130.655, 152.162
132.041, 30.268
133.427, 210.562
134.813, 182.979
136.199, 179.550
137.584, 142.847
138.970, 71.931
140.355, 15.446
141.740, 21.999
143.124, 40.776
144.509, 17.644
145.893, 2.242
147.277, 95.274
148.660, 158.441
150.044, 224.240
151.427, 251.633
152.810, 321.575
154.193, 270.022
155.576, 332.931
156.958, 451.261
158.341, 451.979
159.723, 574.052
161.105, 650.511
162.486, 813.341
163.867, 1093.927
165.249, 1438.390
166.630, 1904.373
168.010, 2510.801
169.391, 3215.611
170.771, 4026.754
172.151, 4703.188
173.531, 5469.872
174.911, 5486.772
176.290, 5713.861
177.669, 5051.117
179.049, 4318.528
180.427, 3446.077
181.806, 2742.750
183.184, 2199.540
184.562, 1515.435
185.940, 1239.426
187.318, 941.509
188.696, 722.675
190.073, 526.918
191.450, 327.293
192.827, 170.485
194.204, 88.841
195.580, 65.201
196.956, 75.572
198.332, 97.958
199.708, 41.645
201.084, 170.845
202.459, 424.838
203.834, 487.638
205.209, 767.257
206.584, 918.706
207.958, 1057.995
209.333, 1071.133
210.707, 1119.155
212.081, 1047.122
213.454, 896.007
214.828, 946.798
216.201, 1008.477
217.574, 943.031
218.947, 1041.425
220.320, 1160.723
221.692, 1366.959
223.064, 1445.142
224.436, 1806.277
225.808, 2223.369
227.179, 2950.423
228.551, 3771.441
229.922, 4610.429
231.293, 5711.387
232.663, 6302.321
234.034, 6973.229
235.404, 7034.118
236.774, 6714.987
238.144, 6365.838
239.514, 5796.676
240.883, 5317.498
242.252, 4908.310
243.621, 4689.111
244.990, 4549.899
246.359, 4280.651
247.727, 4081.395
249.095, 3568.130
250.463, 3225.856
251.831, 2574.576
253.198, 2077.287
254.566, 1521.373
255.933, 1139.812
257.299, 913.414
258.666, 593.813
260.033, 555.071
261.399, 385.329
262.765, 278.586
264.131, 318.843
265.496, 304.634
266.862, 395.437
268.227, 735.584
269.592, 1022.631
270.957, 1573.160
272.321, 1994.972
273.685, 2787.317
275.050, 3295.685
276.413, 3623.072
277.777, 3768.482
279.141, 3377.914
280.504, 2963.367
281.867, 2408.831
283.230, 2033.305
284.592, 1618.788
285.955, 1499.282
287.317, 1245.788
288.679, 1312.306
290.041, 1284.839
291.403, 1132.387
292.764, 1165.105
294.125, 1063.364
295.486, 977.191
296.847, 934.316
298.207, 864.461
299.568, 907.311
300.928, 803.500
302.288, 857.627
303.647, 754.506
305.007, 766.673
306.366, 834.457
307.725, 948.329
309.084, 1105.134
310.443, 1292.268
311.801, 1391.149
313.159, 1536.148
314.517, 1541.202
315.875, 1854.306
317.233, 2142.458
318.590, 1842.656
319.947, 1787.899
321.304, 1587.184
322.661, 1567.508
324.018, 1452.871
325.374, 1506.271
326.730, 1536.705
328.086, 1739.123
329.442, 1873.573
330.797, 2018.052
332.153, 2376.557
333.508, 2678.089
334.863, 3078.644
336.217, 3315.221
337.572, 3388.819
338.926, 3647.437
340.280, 3694.074
341.634, 3893.729
342.988, 4141.402
344.341, 4780.091
345.694, 5378.795
347.047, 6649.516
348.400, 7890.251
349.753, 8860.999
351.105, 9781.765
352.457, 9822.543
353.809, 9383.333
355.161, 8504.132
356.512, 7114.942
357.864, 5955.760
359.215, 4618.583
360.566, 3740.415
361.916, 3071.960
363.267, 2366.787
364.617, 2035.603
365.967, 1684.410
367.317, 1579.208
368.667, 1349.999
370.016, 1238.782
371.366, 1086.558
372.715, 806.329
374.064, 716.095
375.412, 466.855
376.761, 322.610
378.109, 104.360
379.457, 21.895
380.805, 79.171
382.152, 164.480
383.500, 84.846
384.847, 15.249
386.194, 173.333
387.541, 314.911
388.887, 613.487
390.233, 993.061
391.580, 1166.633
392.926, 1371.203
394.271, 1453.771
395.617, 1254.338
396.962, 1072.903
398.307, 740.468
399.652, 385.033
400.997, 101.600
402.341, 106.834
403.686, 179.305
405.030, 359.832
406.374, 333.461
407.717, 432.187
409.061, 343.031
410.404, 307.964
411.747, 280.982
413.090, 154.072
414.433, 1.207
415.775, 223.658
417.117, 528.523
418.459, 919.293
419.801, 1523.224
421.143, 2122.791
422.484, 3015.577
423.825, 3955.389
425.166, 4918.220
426.507, 5736.083
427.848, 6485.969
429.188, 6985.771
430.528, 7305.369
431.868, 7864.732
433.208, 8243.934
434.547, 9103.089
435.887, 9972.283
437.226, 10671.504
438.565, 11770.756
439.904, 12160.043
441.242, 12679.363
442.580, 13018.716
443.918, 12668.108
445.256, 12497.537
446.594, 12087.002
447.932, 11886.501
449.269, 12166.030
450.606, 12185.599
451.943, 12685.204
453.280, 12414.857
454.616, 12464.534
455.952, 11874.237
457.288, 11653.966
458.624, 11693.714
459.960, 11003.486
461.295, 10563.285
462.631, 9913.101
463.966, 9192.943
465.300, 8622.801
466.635, 7522.683
467.969, 6852.591
469.304, 5932.534
470.638, 5294.500
471.972, 4539.478
473.305, 3869.466
474.639, 3431.458
475.972, 2916.449
477.305, 2619.440
478.638, 2308.431
479.970, 1970.420
481.303, 1821.408
482.635, 1641.392
483.967, 1546.372
485.298, 1423.348
486.630, 1488.320
487.961, 1493.287
489.293, 1452.247
490.624, 1601.202
491.954, 1551.149
493.285, 1596.089
494.615, 1720.021
495.945, 1754.944
497.275, 2092.858
498.605, 2158.763
499.935, 2487.657
501.264, 2871.542
502.593, 3205.415
503.922, 3714.278
505.251, 4199.130
506.579, 4843.971
507.908, 5295.799
509.236, 5793.616
510.564, 6131.421
511.891, 6350.213
513.219, 6209.993
514.546, 5708.760
515.873, 5176.514
517.200, 4350.253
518.527, 3554.980
519.853, 2923.693
521.180, 2365.391
522.506, 1920.086
523.832, 1552.767
525.157, 1280.433
526.483, 1114.083
527.808, 820.719
529.133, 732.340
530.458, 590.946
531.783, 470.536
533.107, 422.111
534.431, 413.669
535.756, 357.212
537.079, 371.550
538.403, 321.869
539.727, 395.351
541.050, 370.206
542.373, 372.676
543.696, 373.115
545.018, 331.893
546.341, 445.193
547.663, 470.589
548.985, 599.969
550.307, 707.332
551.629, 821.677
552.950, 1032.006
554.271, 1129.318
555.592, 1418.815
556.913, 1657.375
558.234, 2022.188
559.554, 2576.072
560.875, 3212.736
562.195, 4255.521
563.514, 5733.482
564.834, 7587.450
566.154, 10054.839
567.473, 11936.734
568.792, 13345.384
570.111, 12735.078
571.429, 10757.645
572.748, 8617.012
574.066, 6566.921
575.384, 5205.585
576.702, 4298.761
578.019, 3749.728
579.337, 3449.586
580.654, 3380.863
581.971, 3609.864
583.288, 3799.085
584.605, 4325.990
585.921, 4832.938
587.237, 5641.692
588.553, 6551.886
589.869, 7403.504
591.185, 8580.703
592.500, 9255.030
593.815, 10460.124
595.130, 12003.103
596.445, 13347.422
597.760, 15282.397
599.074, 17036.836
600.389, 18242.385
601.703, 19767.963
603.016, 19423.145
604.330, 19199.068
605.644, 18154.107
606.957, 16667.938
608.270, 15244.591
609.583, 13560.179
610.895, 12498.218
612.208, 11513.567
613.520, 10699.940
614.832, 10124.947
616.144, 9308.030
617.455, 8471.765
618.767, 7536.533
620.078, 6759.761
621.389, 5609.659
622.700, 4830.582
624.011, 4121.812
625.321, 3429.585
626.631, 2947.033
627.941, 2644.529
629.251, 2268.577
630.561, 2021.437
631.870, 1777.581
633.180, 1629.562
634.489, 1473.428
635.798, 1327.122
637.106, 1242.982
638.415, 1110.601
639.723, 1046.067
641.031, 964.356
642.339, 853.685
643.647, 833.040
644.954, 765.097
646.261, 758.143
647.568, 617.007
648.875, 644.713
650.182, 616.631
651.488, 552.140
652.795, 566.564
654.101, 579.085
655.407, 589.417
656.712, 556.712
658.018, 606.967
659.323, 673.184
660.628, 629.362
661.933, 577.501
663.238, 647.601
664.542, 596.662
665.847, 553.683
667.151, 533.666
668.455, 456.608
669.758, 503.510
671.062, 455.374
672.365, 414.197
673.668, 462.980
674.971, 405.724
676.274, 453.427
677.577, 431.090
678.879, 500.713
680.181, 487.295
681.483, 440.837
682.785, 587.339
684.086, 531.799
685.388, 588.219
686.689, 554.598
687.990, 557.937
689.290, 560.234
690.591, 564.490
691.891, 585.706
693.192, 553.880
694.491, 517.013
695.791, 558.106
697.091, 514.175
698.390, 574.233
699.689, 593.304
700.988, 624.366
702.287, 615.401
703.586, 569.396
704.884, 569.348
706.182, 513.259
707.480, 440.128
708.778, 444.956
710.076, 368.742
711.373, 259.487
712.670, 240.188
713.968, 174.844
715.264, 153.454
716.561, 94.017
717.857, 53.532
719.154, 89.035
720.450, 39.547
721.746, 63.111
723.041, 13.723
724.337, 6.600
725.632, 13.107
726.927, 7.155
728.222, 12.597
729.517, 3.660
730.811, 47.977
732.105, 8.386
733.400, 68.869
734.693, 19.457
735.987, 58.124
737.281, 53.889
738.574, 25.753
739.867, 68.698
741.160, 53.750
742.453, 66.898
743.745, 90.150
745.038, 33.518
746.330, 90.973
747.622, 45.544
748.913, 58.208
750.205, 24.971
751.496, 46.816
752.788, 57.753
754.079, 49.789
755.369, 67.919
756.660, 69.153
757.950, 63.491
759.241, 75.930
760.531, 62.475
761.820, 44.120
763.110, 89.855
764.399, 73.703
765.689, 113.656
766.978, 71.735
768.267, 88.916
769.555, 68.209
770.844, 38.602
772.132, 50.079
773.420, 67.646
774.708, 12.312
775.996, 56.046
777.283, 6.128
778.570, 47.756
779.857, 41.727
781.144, 37.779
782.431, 23.911
783.718, 2.115
785.004, 16.379
786.290, 12.290
787.576, 22.908
788.862, 30.479
790.147, 55.003
791.433, 18.483
792.718, 50.916
794.003, 76.305
795.288, 107.650
796.572, 86.954
797.857, 69.216
799.141, 129.435
800.425, 120.615
801.709, 152.754
802.992, 178.855
804.276, 116.919
805.559, 202.944
806.842, 211.934
808.125, 176.888
809.407, 249.807
810.690, 233.691
811.972, 295.542
813.254, 287.360
814.536, 303.144
815.818, 378.895
817.099, 399.613
818.381, 410.299
819.662, 462.953
820.943, 549.574
822.223, 598.165
823.504, 622.723
824.784, 718.250
826.065, 878.747
827.345, 889.213
828.624, 1032.649
829.904, 1188.055
831.183, 1274.431
832.462, 1389.777
833.741, 1411.094
835.020, 1464.383
836.299, 1535.642
837.577, 1505.873
838.856, 1584.076
840.134, 1596.251
841.412, 1634.398
842.689, 1681.518
843.967, 1560.610
845.244, 1621.676
846.521, 1639.715
847.798, 1634.728
849.075, 1719.715
850.351, 1663.677
851.628, 1770.618
852.904, 1866.533
854.180, 1870.425
855.455, 2068.293
856.731, 2122.135
858.006, 2364.959
859.281, 2479.766
860.556, 2635.547
861.831, 2872.311
863.106, 3043.051
864.380, 3441.772
865.655, 3641.272
866.929, 3795.675
868.202, 4036.786
869.476, 4165.788
870.750, 4212.523
872.023, 4296.985
873.296, 4211.669
874.569, 4427.966
875.842, 4480.457
877.114, 4870.196
878.386, 5187.742
879.658, 5570.417
880.930, 6278.876
882.202, 6723.475
883.474, 7139.094
884.745, 7834.898
886.016, 8351.157
887.287, 9183.591
888.558, 9549.097
889.829, 10192.156
891.099, 10725.457
892.369, 10940.508
893.639, 11222.843
894.909, 11046.100
896.179, 10788.516
897.448, 10689.461
898.718, 10683.950
899.987, 10814.831
901.256, 11288.554
902.524, 11611.481
903.793, 12626.493
905.061, 13310.135
906.329, 14523.095
907.597, 15906.560
908.865, 17648.893
910.133, 19231.156
911.400, 21103.789
912.667, 22075.650
913.934, 24388.381
915.201, 25192.277
916.468, 25913.324
917.734, 26735.412
919.001, 26135.018
920.267, 26357.293
921.532, 24618.514
922.798, 23151.070
924.064, 21365.527
925.329, 19079.297
926.594, 17412.018
927.859, 15628.255
929.124, 13541.800
930.388, 12369.293
931.653, 10473.450
932.917, 10008.036
934.181, 9692.920
935.445, 7364.726
936.708, 6371.955
937.972, 5615.343
939.235, 5276.419
940.498, 4585.631
941.761, 4108.936
943.024, 3885.389
944.286, 3394.649
945.548, 3255.127
946.811, 3094.734
948.072, 2796.493
949.334, 2754.199
950.596, 2584.861
951.857, 2545.808
953.118, 2524.749
954.379, 2429.856
955.640, 2472.104
956.901, 2519.123
958.161, 2418.527
959.421, 2494.000
960.681, 2411.369
961.941, 2312.904
963.201, 2306.464
964.460, 2151.039
965.720, 2065.633
966.979, 1991.253
968.238, 1915.888
969.496, 1828.542
970.755, 1822.220
972.013, 1862.917
973.272, 1942.641
974.529, 1955.381
975.787, 2248.139
977.045, 2360.923
978.302, 2691.722
979.560, 3041.538
980.817, 3248.373
982.073, 3611.226
983.330, 3681.097
984.587, 3531.983
985.843, 3418.888
987.099, 2868.807
988.355, 2595.744
989.611, 2090.698
990.866, 1686.672
992.122, 1473.663
993.377, 1221.671
994.632, 1027.701
995.887, 947.750
997.141, 763.820
998.396, 702.996
999.650, 596.105
1000.904, 465.233
1002.158, 496.409
1003.412, 384.578
1004.665, 388.015
1005.918, 277.591
1007.172, 299.825
1008.425, 297.911
1009.677, 292.957
1010.930, 252.259
1012.182, 363.518
1013.434, 361.165
1014.687, 335.182
1015.938, 423.631
1017.190, 577.201
1018.441, 587.274
1019.693, 769.743
1020.944, 867.713
1022.195, 1032.309
1023.445, 1128.859
1024.696, 1250.437
1025.946, 1205.073
1027.197, 1253.204
1028.446, 1153.098
1029.696, 1104.862
1030.946, 1028.595
1032.195, 1044.761
1033.445, 1031.564
1034.694, 1071.870
1035.942, 1123.669
1037.191, 1218.599
1038.440, 1378.889
1039.688, 1504.433
1040.936, 1619.509
1042.184, 1708.914
1043.432, 1815.082
1044.679, 1965.317
1045.927, 1922.608
1047.174, 1981.931
1048.421, 2039.763
1049.668, 1823.189
1050.914, 1854.674
1052.161, 1702.781
1053.407, 1660.367
1054.653, 1494.115
1055.899, 1414.791
1057.145, 1323.517
1058.391, 1259.293
1059.636, 1175.333
1060.881, 1147.001
1062.126, 1021.935
1063.371, 949.920
1064.615, 874.957
1065.860, 742.333
1067.104, 759.472
1068.348, 665.078
1069.592, 687.745
1070.836, 716.052
1072.079, 671.742
1073.323, 852.156
1074.566, 850.612
1075.809, 985.347
1077.052, 1212.899
1078.294, 1394.409
1079.537, 1664.042
1080.779, 2069.704
1082.021, 2499.480
1083.263, 3032.183
1084.504, 3658.971
1085.746, 4315.793
1086.987, 5117.649
1088.228, 5759.537
1089.469, 6425.473
1090.710, 6866.296
1091.951, 6502.196
1093.191, 6171.180
1094.431, 5297.161
1095.671, 4255.758
1096.911, 3488.229
1098.151, 2630.231
1099.390, 2104.667
1100.630, 1572.455
1101.869, 1292.885
1103.108, 1129.507
1104.346, 848.695
1105.585, 818.189
1106.823, 700.506
1108.062, 594.013
1109.300, 547.213
1110.537, 418.707
1111.775, 378.103
1113.013, 386.769
1114.250, 305.322
1115.487, 318.809
1116.724, 246.208
1117.961, 221.698
1119.197, 243.703
1120.434, 217.978
1121.670, 207.004
1122.906, 226.106
1124.142, 177.792
1125.377, 195.926
1126.613, 146.607
1127.848, 161.107
1129.083, 157.375
1130.318, 122.553
1131.553, 73.308
1132.787, 113.895
1134.022, 82.531
1135.256, 127.140
1136.490, 77.682
1137.724, 44.290
1138.957, 90.267
1140.191, 25.987
1141.424, 65.715
1142.657, 66.220
1143.890, 45.882
1145.123, 35.783
1146.355, 7.402
1147.588, 40.266
1148.820, 34.256
1150.052, 46.096
1151.284, 28.406
1152.516, 16.697
1153.747, 21.979
1154.978, 14.325
1156.209, 37.890
1157.440, 63.266
1158.671, 17.908
1159.902, 39.515
1161.132, 17.268
1162.362, 29.633
1163.592, 41.635
1164.822, 43.633
1166.052, 27.984
1167.281, 15.806
1168.511, 22.001
1169.740, 64.090
1170.969, 44.902
1172.197, 3.203
1173.426, 37.016
1174.654, 21.341
1175.883, 11.300
1177.111, 59.790
1178.338, 3.018
1179.566, 43.351
1180.794, 8.459
1182.021, 13.260
1183.248, 1.457
1184.475, 13.561
1185.702, 11.589
1186.928, 17.853
1188.155, 33.982
1189.381, 36.191
1190.607, 56.587
1191.833, 1.484
1193.059, 1.320
1194.284, 11.070
1195.509, 13.078
1196.735, 12.655
1197.960, 12.405
1199.184, 14.934
1200.409, 8.822
1201.633, 1.283
1202.858, 7.632
1204.082, 61.295
1205.306, 25.406
1206.529, 47.073
1207.753, 68.685
1208.976, 5.448
1210.199, 51.001
1211.422, 12.666
1212.645, 2.768
1213.868, 27.781
1215.090, 4.618
1216.313, 4.098
1217.535, 38.409
1218.757, 1.060
1219.978, 57.421
1221.200, 25.000
1222.421, 34.527
1223.643, 23.907
1224.864, 27.556
1226.084, 15.878
1227.305, 78.266
1228.526, 12.783
1229.746, 28.153
1230.966, 27.533
1232.186, 22.932
1233.406, 24.964
1234.625, 52.689
1235.845, 18.001
1237.064, 1.697
1238.283, 1.838
1239.502, 32.885
1240.721, 0.867
1241.939, 7.357
1243.157, 11.565
1244.376, 30.145
1245.594, 20.002
1246.811, 24.485
1248.029, 17.705
1249.247, 19.709
1250.464, 11.739
1251.681, 15.596
1252.898, 29.299
1254.115, 13.832
1255.331, 55.763
1256.548, 27.060
1257.764, 25.149
1258.980, 24.614
1260.196, 6.364
1261.411, 23.909
1262.627, 44.846
1263.842, 10.584
1265.057, 13.632
1266.272, 17.108
1267.487, 12.290
1268.702, 23.344
1269.916, 36.887
1271.130, 11.600
1272.344, 40.055
1273.558, 64.515
1274.772, 25.008
1275.986, 28.400
1277.199, 42.866
1278.412, 61.214
1279.625, 53.531
1280.838, 64.281
1282.051, 84.286
1283.263, 72.599
1284.475, 42.828
1285.687, 56.054
1286.899, 57.280
1288.111, 30.524
1289.323, 78.681
1290.534, 22.777
1291.745, 57.884
1292.957, 87.231
1294.167, 52.309
1295.378, 164.899
1296.589, 35.852
1297.799, 58.803
1299.009, 87.482
1300.219, 18.020
1301.429, 75.897
1302.639, 34.919
1303.848, 19.978
1305.057, 35.777
1306.267, 18.616
1307.476, 34.062
1308.684, 57.135
1309.893, 23.774
1311.101, 32.288
1312.310, 73.298
1313.518, 18.908
1314.725, 62.018
1315.933, 55.503
1317.141, 43.035
1318.348, 77.539
1319.555, 100.993
1320.762, 20.951
1321.969, 36.172
1323.176, 66.516
1324.382, 30.894
1325.589, 65.852
1326.795, 42.178
1328.001, 25.154
1329.206, 54.377
1330.412, 24.625
1331.617, 83.540
1332.823, 66.240
1334.028, 67.411
1335.233, 70.279
1336.437, 61.403
1337.642, 66.077
1338.846, 77.548
1340.051, 65.604
1341.255, 80.187
1342.458, 76.197
1343.662, 30.186
1344.866, 73.602
1346.069, 62.552
1347.272, 61.351
1348.475, 93.246
1349.678, 51.206
1350.880, 91.057
1352.083, 103.885
1353.285, 72.693
1354.487, 120.479
1355.689, 88.246
1356.891, 110.992
1358.093, 112.424
1359.294, 99.132
1360.495, 115.406
1361.696, 115.663
1362.897, 108.313
1364.098, 142.619
1365.298, 92.230
1366.499, 115.824
1367.699, 155.167
1368.899, 89.759
1370.099, 106.381
1371.298, 139.945
1372.498, 82.462
1373.697, 114.941
1374.896, 110.432
1376.095, 104.266
1377.294, 93.734
1378.493, 118.173
1379.691, 125.295
1380.889, 150.300
1382.087, 141.686
1383.285, 111.483
1384.483, 120.810
1385.681, 109.303
1386.878, 101.936
1388.075, 71.919
1389.272, 97.853
1390.469, 63.675
1391.666, 89.210
1392.862, 114.630
1394.059, 94.493
1395.255, 47.675
1396.451, 97.981
1397.647, 109.590
1398.842, 42.203
1400.038, 80.357
1401.233, 95.794
1402.428, 104.356
1403.623, 92.042
1404.818, 92.078
1406.013, 70.454
1407.207, 68.407
1408.401, 52.683
1409.595, 56.765
1410.789, 102.854
1411.983, 65.108
1413.177, 85.107
1414.370, 92.274
1415.563, 37.177
1416.756, 70.172
1417.949, 55.845
1419.142, 90.547
1420.335, 46.281
1421.527, 91.142
1422.719, 72.966
1423.911, 37.270
1425.103, 48.000
1426.295, 46.580
1427.486, 58.418
1428.677, 53.564
1429.869, 47.614
1431.060, 37.737
1432.250, 51.788
1433.441, 76.439
1434.632, 48.201
1435.822, 63.991
1437.012, 68.354
1438.202, 45.292
1439.392, 52.402
1440.581, 67.592
1441.771, 60.665
1442.960, 87.766
1444.149, 68.707
1445.338, 71.790
1446.527, 84.594
1447.715, 95.370
1448.904, 75.302
1450.092, 58.931
1451.280, 65.791
1452.468, 67.582
1453.656, 95.279
1454.843, 59.013
1456.031, 54.526
1457.218, 83.049
1458.405, 68.020
1459.592, 82.556
1460.778, 66.072
1461.965, 36.018
1463.151, 43.935
1464.337, 30.656
1465.523, 34.374
1466.709, 68.501
1467.895, 44.104
1469.080, 59.442
1470.266, 50.068
1471.451, 42.676
1472.636, 39.893
1473.821, 45.783
1475.005, 23.613
1476.190, 61.299
1477.374, 64.832
1478.558, 61.669
1479.742, 53.641
1480.926, 72.455
1482.109, 102.414
1483.293, 103.363
1484.476, 24.307
1485.659, 72.255
1486.842, 17.214
1488.025, 20.181
1489.207, 74.168
1490.390, 44.179
1491.572, 1.215
1492.754, 83.240
1493.936, 57.202
1495.118, 68.321
1496.299, 61.496
1497.481, 69.713
1498.662, 90.859
1499.843, 39.191
1501.024, 56.578
1502.205, 83.017
1503.385, 41.511
1504.565, 76.872
1505.746, 20.408
1506.926, 35.281
1508.106, 77.014
1509.285, 73.849
1510.465, 14.799
1511.644, 59.875
1512.823, 16.085
1514.002, 40.488
1515.181, 62.249
1516.360, 64.512
1517.538, 1.342
1518.717, 94.917
1519.895, 3.481
1521.073, 0.000
##END=



