##NAMES=Epidote
##RRUFFID=R050064
##IDEAL CHEMISTRY=Ca_2_Fe^3+^Al_2_(Si_2_O_7_)(SiO_4_)O(OH)
##LOCALITY=East Xichang City, Meigu County, Sichuan Province, China
##OWNER=RRUFF
##SOURCE=Rock Currier
##DESCRIPTION=Green prismatic crystals
##STATUS=The identification of this mineral has been confirmed by X-ray diffraction and chemical analysis
##URL=rruff.info/R050064
##MEASURED CHEMISTRY=(Ca_1.99_Mn_0.01_)_Î£=2_Fe^3+^_1.00_Al_2.00_(Si_2.00_O_7_)(Si_1.00_O_4_)O(OH); 
##PIN_ID=L00201
##ORIENTATION=Laser parallel to -b* (0 -1 0). Fiducial mark perpendicular to laser is parallel to -c [0 0 -1]
81.728, 0.000
83.128, 4.079
84.529, 170.008
85.929, 462.678
87.329, 1209.320
88.728, 2290.973
90.128, 3510.701
91.527, 4275.015
92.926, 4204.924
94.324, 3734.099
95.723, 2983.398
97.121, 2172.696
98.519, 1609.176
99.917, 1161.018
101.314, 759.645
102.712, 434.592
104.109, 262.401
105.505, 141.356
106.902, 18.659
108.298, 27.454
109.694, 505.844
111.090, 661.907
112.486, 446.701
113.881, 156.279
115.277, 76.989
116.672, 67.060
118.066, 15.702
119.461, 168.791
120.855, 387.824
122.249, 1057.462
123.643, 1923.590
125.036, 3375.125
126.430, 5505.013
127.823, 7858.202
129.216, 10351.652
130.608, 11385.324
132.001, 11229.187
133.393, 9593.203
134.785, 7417.349
136.176, 5191.604
137.568, 3579.952
138.959, 2429.378
140.350, 1796.871
141.741, 1171.413
143.131, 1020.982
144.521, 952.574
145.911, 726.616
147.301, 454.278
148.691, 231.521
150.080, 17.383
151.469, 237.004
152.858, 236.122
154.247, 55.684
155.635, 61.598
157.024, 517.371
158.411, 1120.662
159.799, 2024.497
161.187, 3050.898
162.574, 4158.890
163.961, 4979.491
165.348, 5479.774
166.734, 5519.887
168.121, 4939.855
169.507, 4179.688
170.893, 3233.387
172.278, 2550.959
173.664, 1900.404
175.049, 1328.717
176.434, 1030.899
177.819, 800.954
179.203, 544.888
180.587, 471.709
181.971, 456.392
183.355, 339.827
184.739, 385.130
186.122, 544.331
187.505, 660.433
188.888, 807.443
190.271, 1124.366
191.653, 1448.206
193.035, 1841.967
194.417, 2496.654
195.799, 3265.271
197.180, 4239.821
198.562, 4977.308
199.943, 5914.632
201.324, 6271.588
202.704, 6458.463
204.084, 6285.289
205.465, 6082.065
206.844, 5718.797
208.224, 5715.482
209.603, 5818.389
210.983, 6295.276
212.362, 6973.610
213.740, 8043.280
215.119, 9008.958
216.497, 10339.347
217.875, 12376.404
219.253, 14220.934
220.631, 16960.215
222.008, 19598.461
223.385, 22673.025
224.762, 25050.518
226.139, 26413.205
227.515, 26429.023
228.891, 24390.447
230.267, 21841.887
231.643, 18073.326
233.018, 15004.754
234.394, 12556.174
235.769, 10987.586
237.144, 9988.983
238.518, 9900.370
239.893, 9881.746
241.267, 9253.112
242.641, 8734.477
244.014, 7545.839
245.388, 6307.205
246.761, 5148.580
248.134, 4245.970
249.507, 3459.043
250.879, 2747.774
252.252, 2371.118
253.624, 2035.492
254.996, 1843.868
256.367, 1758.228
257.739, 1611.509
259.110, 1738.730
260.481, 1969.895
261.852, 2304.021
263.222, 2936.127
264.592, 3730.027
265.962, 5178.550
267.332, 7315.054
268.702, 9941.551
270.071, 13368.042
271.440, 17374.535
272.809, 20220.814
274.178, 21507.156
275.546, 20663.664
276.915, 17900.180
278.283, 14116.709
279.650, 10713.246
281.018, 7675.422
282.385, 5805.979
283.752, 4292.010
285.119, 3530.873
286.486, 3108.777
287.852, 3174.707
289.218, 3636.658
290.584, 4175.629
291.950, 4283.620
293.316, 4860.629
294.681, 5426.654
296.046, 5682.694
297.411, 5878.748
298.775, 5514.817
300.140, 5220.899
301.504, 4649.996
302.868, 4268.103
304.231, 3863.225
305.595, 3459.450
306.958, 3088.812
308.321, 2781.657
309.684, 2414.826
311.047, 2131.004
312.409, 1958.176
313.771, 1875.325
315.133, 1904.146
316.495, 2278.818
317.856, 2707.430
319.217, 3467.231
320.578, 4257.071
321.939, 4933.063
323.299, 5359.032
324.660, 5124.978
326.020, 4457.906
327.380, 3560.817
328.739, 2528.712
330.099, 1621.594
331.458, 965.462
332.817, 352.318
334.176, 11.836
335.534, 304.030
336.892, 453.336
338.251, 549.795
339.608, 651.430
340.966, 651.267
342.323, 629.305
343.681, 471.537
345.037, 381.921
346.394, 184.431
347.751, 134.017
349.107, 6.339
350.463, 1.326
351.819, 86.985
353.174, 60.292
354.530, 44.591
355.885, 12.883
357.240, 20.376
358.594, 47.173
359.949, 89.363
361.303, 107.180
362.657, 126.040
364.011, 145.947
365.365, 139.905
366.718, 166.911
368.071, 64.971
369.424, 20.059
370.777, 28.840
372.129, 205.738
373.481, 290.472
374.833, 527.819
376.185, 720.688
377.537, 1040.159
378.888, 1556.415
380.239, 2142.604
381.590, 3103.791
382.941, 4060.989
384.291, 5064.168
385.642, 6217.292
386.992, 6689.335
388.341, 6601.286
389.691, 6183.167
391.040, 5455.068
392.389, 4425.023
393.738, 3673.043
395.087, 3051.113
396.435, 2600.249
397.784, 2242.456
399.132, 2080.736
400.479, 2040.103
401.827, 2060.553
403.174, 2167.093
404.521, 2409.713
405.868, 2752.422
407.215, 3124.227
408.561, 3653.118
409.908, 4484.116
411.254, 5582.190
412.599, 7085.338
413.945, 8898.535
415.290, 11861.801
416.636, 15535.130
417.980, 20638.523
419.325, 26791.988
420.670, 32335.520
422.014, 37759.129
423.358, 39762.812
424.702, 39526.566
426.045, 36020.391
427.389, 32154.266
428.732, 28008.205
430.075, 24842.195
431.417, 22406.254
432.760, 20840.381
434.102, 19394.576
435.444, 17588.836
436.786, 15693.157
438.127, 14667.538
439.469, 13531.969
440.810, 13596.453
442.151, 14660.980
443.492, 16065.576
444.832, 19010.246
446.172, 22444.975
447.512, 25049.746
448.852, 27124.562
450.192, 27649.424
451.531, 27704.314
452.870, 27079.236
454.209, 25844.201
455.548, 24459.191
456.887, 22424.201
458.225, 19489.244
459.563, 16714.303
460.901, 13919.378
462.238, 11614.468
463.576, 9559.575
464.913, 8064.696
466.250, 6829.831
467.587, 5994.975
468.923, 5118.131
470.259, 4520.300
471.596, 3937.479
472.931, 3667.669
474.267, 3323.870
475.603, 3246.083
476.938, 3094.309
478.273, 3005.612
479.608, 3131.994
480.942, 3163.407
482.276, 3257.834
483.611, 3629.271
484.944, 3815.718
486.278, 4038.177
487.612, 4642.646
488.945, 5015.126
490.278, 5735.617
491.611, 6701.119
492.943, 7646.631
494.276, 9032.153
495.608, 10542.790
496.940, 11845.159
498.271, 12548.233
499.603, 13335.330
500.934, 13406.139
502.265, 13517.052
503.596, 14009.439
504.927, 14311.837
506.257, 15109.973
507.587, 15850.615
508.917, 15904.540
510.247, 16137.393
511.577, 15729.888
512.906, 15984.959
514.235, 16479.859
515.564, 18044.658
516.892, 20468.521
518.221, 23590.412
519.549, 27890.746
520.877, 28978.549
522.205, 28495.355
523.533, 26931.102
524.860, 22495.721
526.187, 17980.836
527.514, 14294.389
528.841, 11074.468
530.167, 8657.487
531.493, 7032.748
532.820, 5558.855
534.145, 4834.988
535.471, 4128.148
536.796, 3805.334
538.122, 3447.552
539.447, 3327.800
540.771, 3155.079
542.096, 3230.388
543.420, 3303.751
544.744, 3403.220
546.068, 3773.825
547.392, 4036.776
548.715, 4469.641
550.039, 5013.753
551.362, 5805.983
552.684, 6979.285
554.007, 8508.883
555.329, 10601.995
556.652, 14556.868
557.973, 19351.502
559.295, 26879.848
560.617, 36347.398
561.938, 46206.480
563.259, 53082.988
564.580, 53052.055
565.901, 47162.098
567.221, 38760.676
568.541, 29153.617
569.861, 22645.422
571.181, 17535.584
572.501, 14451.477
573.820, 12481.132
575.139, 11290.041
576.458, 11349.261
577.777, 11499.882
579.095, 12339.775
580.414, 13752.019
581.732, 15492.409
583.049, 17204.465
584.367, 19254.121
585.685, 20179.104
587.002, 21407.025
588.319, 22083.816
589.636, 23471.291
590.952, 25770.012
592.268, 28529.938
593.585, 32028.992
594.900, 34306.172
596.216, 36082.941
597.532, 36128.500
598.847, 34913.156
600.162, 31527.240
601.477, 28761.352
602.792, 25255.562
604.106, 22829.104
605.420, 20872.582
606.734, 19154.969
608.048, 17996.602
609.361, 17427.469
610.675, 16338.009
611.988, 15599.178
613.301, 14608.691
614.614, 13396.866
615.926, 11816.022
617.238, 10343.100
618.550, 8820.720
619.862, 7817.814
621.174, 6585.086
622.485, 5645.936
623.797, 5033.816
625.108, 4324.526
626.418, 3948.219
627.729, 3521.978
629.039, 3179.637
630.349, 2888.276
631.659, 2603.568
632.969, 2437.503
634.279, 2189.087
635.588, 2040.654
636.897, 1940.200
638.206, 1809.727
639.515, 1620.233
640.823, 1551.719
642.131, 1374.185
643.439, 1359.629
644.747, 1237.052
646.055, 1231.455
647.362, 1198.834
648.669, 1079.192
649.976, 1054.529
651.283, 1004.843
652.589, 1068.134
653.896, 1031.430
655.202, 1031.807
656.508, 1078.302
657.814, 1085.942
659.119, 1062.753
660.424, 1185.733
661.729, 1138.877
663.034, 1238.142
664.339, 1107.505
665.643, 1151.912
666.947, 1186.351
668.251, 1171.782
669.555, 1166.208
670.859, 1139.612
672.162, 1224.995
673.465, 1220.359
674.768, 1225.711
676.071, 1319.060
677.373, 1328.411
678.676, 1424.776
679.978, 1413.158
681.280, 1471.561
682.581, 1517.991
683.883, 1655.445
685.184, 1605.929
686.485, 1700.417
687.786, 1554.893
689.087, 1367.348
690.387, 1223.772
691.687, 981.167
692.987, 872.531
694.287, 605.864
695.586, 538.166
696.886, 314.436
698.185, 271.675
699.484, 154.883
700.783, 139.057
702.081, 116.198
703.379, 43.304
704.677, 73.371
705.975, 32.598
707.273, 32.642
708.570, 79.761
709.868, 18.982
711.165, 73.273
712.462, 99.663
713.758, 94.167
715.055, 151.783
716.351, 137.542
717.647, 160.436
718.943, 118.480
720.238, 157.650
721.533, 171.969
722.829, 147.445
724.124, 216.064
725.418, 196.864
726.713, 169.834
728.007, 100.961
729.301, 160.209
730.595, 147.610
731.889, 151.908
733.182, 173.739
734.476, 161.707
735.769, 198.717
737.061, 168.900
738.354, 195.241
739.647, 156.754
740.939, 82.418
742.231, 129.196
743.523, 111.110
744.814, 122.151
746.106, 142.326
747.397, 161.644
748.688, 148.115
749.978, 118.733
751.269, 112.480
752.559, 93.823
753.849, 80.181
755.139, 71.445
756.429, 72.649
757.719, 74.957
759.008, 65.008
760.297, 64.882
761.586, 48.493
762.875, 37.193
764.163, 25.977
765.451, 21.837
766.739, 32.771
768.027, 7.511
769.315, 12.742
770.602, 3.994
771.890, 88.812
773.177, 18.583
774.463, 71.305
775.750, 26.992
777.036, 116.636
778.323, 102.248
779.609, 162.825
780.894, 196.372
782.180, 110.888
783.465, 196.372
784.750, 146.825
786.035, 211.248
787.320, 231.641
788.605, 236.004
789.889, 282.338
791.173, 295.642
792.457, 309.917
793.741, 391.163
795.024, 422.381
796.307, 446.570
797.591, 473.730
798.873, 516.864
800.156, 594.969
801.439, 630.046
802.721, 681.097
804.003, 722.120
805.285, 820.117
806.566, 902.234
807.848, 1032.032
809.129, 1147.951
810.410, 1285.843
811.691, 1487.708
812.971, 1667.213
814.252, 1913.972
815.532, 2140.140
816.812, 2456.893
818.092, 2790.519
819.371, 3192.389
820.651, 3673.178
821.930, 4162.615
823.209, 4791.222
824.488, 5445.799
825.766, 6138.348
827.045, 6628.869
828.323, 6990.362
829.601, 7149.826
830.878, 7179.263
832.156, 6695.671
833.433, 6378.052
834.710, 5625.405
835.987, 5150.730
837.264, 4575.029
838.540, 4244.300
839.817, 3884.543
841.093, 3695.760
842.369, 3462.949
843.644, 3402.111
844.920, 3377.253
846.195, 3400.369
847.470, 3486.458
848.745, 3561.535
850.020, 3733.595
851.294, 3949.643
852.568, 4212.000
853.842, 4588.682
855.116, 4899.594
856.390, 5371.896
857.663, 5819.846
858.936, 6375.433
860.209, 6824.796
861.482, 7400.068
862.755, 8242.306
864.027, 8778.272
865.299, 9590.755
866.571, 9991.502
867.843, 10252.532
869.115, 10349.870
870.386, 9818.029
871.657, 9594.688
872.928, 8653.932
874.199, 8120.667
875.470, 7476.465
876.740, 6823.760
878.010, 6626.716
879.280, 5985.838
880.550, 5776.625
881.820, 5639.707
883.089, 5555.043
884.358, 5486.151
885.627, 5542.973
886.896, 5629.417
888.164, 6026.611
889.433, 6396.474
890.701, 6898.209
891.969, 7312.292
893.236, 7938.797
894.504, 8999.984
895.771, 9708.254
897.038, 10977.685
898.305, 12586.452
899.572, 13873.985
900.838, 15620.344
902.105, 18257.602
903.371, 20486.744
904.637, 23526.314
905.902, 26587.104
907.168, 31148.799
908.433, 35381.098
909.698, 40293.371
910.963, 46115.562
912.228, 51098.441
913.492, 56231.383
914.757, 58515.418
916.021, 58080.254
917.285, 56275.859
918.548, 50511.809
919.812, 44937.141
921.075, 37884.137
922.338, 32442.475
923.601, 27439.863
924.864, 22879.336
926.126, 19338.281
927.388, 16447.758
928.650, 13597.075
929.912, 11836.828
931.174, 10296.561
932.435, 8816.480
933.697, 7686.425
934.958, 6906.319
936.218, 6075.327
937.479, 5617.366
938.739, 5005.436
940.000, 4587.539
941.260, 4126.673
942.520, 3771.840
943.779, 3641.038
945.039, 3435.270
946.298, 3211.536
947.557, 3096.836
948.816, 2869.170
950.074, 2931.538
951.333, 2848.939
952.591, 2857.377
953.849, 2791.850
955.107, 2867.358
956.365, 2874.900
957.622, 2799.479
958.879, 2842.093
960.136, 2742.742
961.393, 2700.427
962.650, 2819.148
963.906, 2772.906
965.162, 2854.701
966.418, 3102.532
967.674, 3131.401
968.930, 3581.306
970.185, 4085.250
971.441, 4734.231
972.696, 5648.252
973.950, 6842.308
975.205, 8293.404
976.459, 9734.539
977.714, 11255.714
978.968, 12006.928
980.222, 12178.182
981.475, 11209.476
982.729, 10260.810
983.982, 8572.187
985.235, 7323.603
986.488, 6031.058
987.740, 5034.557
988.993, 4260.098
990.245, 3497.680
991.497, 3030.305
992.749, 2616.975
994.000, 2290.687
995.252, 2038.358
996.503, 1678.157
997.754, 1551.997
999.005, 1300.231
1000.256, 1106.859
1001.506, 1021.515
1002.756, 854.165
1004.006, 773.392
1005.256, 725.351
1006.506, 732.741
1007.755, 623.069
1009.005, 544.867
1010.254, 577.560
1011.502, 546.200
1012.751, 511.985
1014.000, 543.931
1015.248, 632.150
1016.496, 577.045
1017.744, 750.393
1018.991, 688.909
1020.239, 800.430
1021.486, 909.025
1022.733, 953.793
1023.980, 1133.048
1025.227, 1200.455
1026.473, 1493.998
1027.719, 1706.932
1028.965, 1975.591
1030.211, 2343.250
1031.457, 2800.223
1032.702, 3266.102
1033.948, 4057.750
1035.193, 4630.746
1036.438, 5516.970
1037.682, 6414.760
1038.927, 7080.955
1040.171, 7467.399
1041.415, 7632.797
1042.659, 7528.263
1043.903, 7114.326
1045.146, 6496.410
1046.390, 6122.286
1047.633, 5531.605
1048.876, 4991.153
1050.118, 4782.271
1051.361, 4525.000
1052.603, 4562.705
1053.845, 4840.383
1055.087, 5195.354
1056.329, 5971.188
1057.571, 6688.095
1058.812, 7544.070
1060.053, 8280.158
1061.294, 8306.353
1062.535, 7962.532
1063.775, 7458.777
1065.016, 6655.881
1066.256, 6278.541
1067.496, 5881.959
1068.736, 5756.431
1069.975, 5744.956
1071.214, 5906.529
1072.454, 6434.145
1073.693, 7262.805
1074.931, 8089.497
1076.170, 9546.232
1077.408, 10992.995
1078.647, 12869.796
1079.885, 15636.629
1081.122, 19043.490
1082.360, 23290.379
1083.597, 27047.303
1084.835, 28454.250
1086.072, 27811.229
1087.308, 23628.232
1088.545, 19135.270
1089.781, 14722.333
1091.018, 11099.421
1092.254, 8256.540
1093.490, 6173.683
1094.725, 4774.271
1095.961, 3779.469
1097.196, 2953.693
1098.431, 2459.004
1099.666, 2113.282
1100.900, 1731.988
1102.135, 1548.318
1103.369, 1316.673
1104.603, 1210.119
1105.837, 980.527
1107.071, 903.957
1108.304, 808.410
1109.538, 671.889
1110.771, 645.393
1112.004, 597.920
1113.236, 552.471
1114.469, 511.349
1115.701, 454.110
1116.933, 427.265
1118.165, 396.905
1119.397, 375.568
1120.629, 469.253
1121.860, 539.960
1123.091, 467.687
1124.322, 402.482
1125.553, 375.250
1126.783, 258.059
1128.014, 325.063
1129.244, 150.889
1130.474, 200.056
1131.704, 180.048
1132.933, 124.944
1134.163, 106.838
1135.392, 123.967
1136.621, 65.027
1137.850, 72.292
1139.079, 43.631
1140.307, 72.006
1141.535, 71.379
1142.763, 39.480
1143.991, 30.793
1145.219, 23.949
1146.446, 73.483
1147.674, 56.664
1148.901, 78.057
1150.128, 75.431
1151.354, 63.780
1152.581, 55.161
1153.807, 39.009
1155.033, 58.792
1156.259, 143.845
1157.485, 82.516
1158.710, 78.684
1159.936, 135.123
1161.161, 58.780
1162.386, 118.749
1163.611, 72.157
1164.835, 132.749
1166.060, 58.309
1167.284, 55.042
1168.508, 72.704
1169.732, 108.852
1170.955, 96.351
1172.179, 112.610
1173.402, 76.246
1174.625, 97.478
1175.848, 52.735
1177.070, 49.032
1178.293, 32.843
1179.515, 45.911
1180.737, 38.475
1181.959, 22.438
1183.181, 59.363
1184.402, 30.479
1185.624, 3.120
1186.845, 17.730
1188.066, 5.439
1189.286, 7.366
1190.507, 1.372
1191.727, 17.512
1192.947, 10.880
1194.167, 16.366
1195.387, 17.284
1196.607, 7.199
1197.826, 30.347
1199.045, 31.652
1200.264, 42.812
1201.483, 30.673
1202.702, 56.497
1203.920, 74.293
1205.138, 58.483
1206.356, 44.638
1207.574, 44.329
1208.792, 62.028
1210.009, 75.624
1211.227, 26.206
1212.444, 17.749
1213.661, 64.257
1214.877, 96.743
1216.094, 88.206
1217.310, 69.645
1218.526, 100.061
1219.742, 94.453
1220.958, 91.820
1222.173, 118.162
1223.389, 84.479
1224.604, 78.770
1225.819, 134.035
1227.034, 86.275
1228.248, 141.487
1229.463, 125.672
1230.677, 101.832
1231.891, 105.963
1233.105, 136.076
1234.318, 116.172
1235.532, 149.248
1236.745, 115.304
1237.958, 155.340
1239.171, 162.356
1240.384, 81.408
1241.596, 131.470
1242.809, 148.553
1244.021, 107.665
1245.233, 165.686
1246.444, 91.826
1247.656, 185.855
1248.867, 175.755
1250.079, 120.878
1251.290, 138.806
1252.500, 169.586
1253.711, 158.457
1254.921, 173.560
1256.132, 180.668
1257.342, 182.515
1258.552, 184.319
1259.761, 164.979
1260.971, 159.754
1262.180, 207.450
1263.389, 172.337
1264.598, 189.248
1265.807, 205.181
1267.015, 198.839
1268.223, 196.490
1269.432, 168.909
1270.640, 191.547
1271.847, 179.977
1273.055, 148.422
1274.262, 216.848
1275.470, 142.220
1276.677, 163.278
1277.883, 192.348
1279.090, 208.460
1280.296, 157.815
1281.503, 171.757
1282.709, 152.785
1283.915, 149.711
1285.120, 149.659
1286.326, 152.378
1287.531, 180.030
1288.736, 163.706
1289.941, 184.152
1291.146, 147.728
1292.350, 131.858
1293.555, 143.329
1294.759, 96.037
1295.963, 93.084
1297.167, 136.277
1298.370, 108.784
1299.574, 105.726
1300.777, 115.800
1301.980, 92.332
1303.183, 110.024
1304.386, 77.861
1305.588, 78.664
1306.790, 88.216
1307.993, 101.522
1309.195, 65.142
1310.396, 57.267
1311.598, 60.263
1312.799, 55.380
1314.000, 37.401
1315.201, 41.343
1316.402, 30.319
1317.603, 34.327
1318.803, 20.609
1320.003, 16.548
1321.203, 14.822
1322.403, 24.158
1323.603, 9.767
1324.802, 42.437
1326.002, 15.077
1327.201, 18.112
1328.400, 19.120
1329.599, 24.618
1330.797, 39.764
1331.995, 37.799
1333.194, 44.892
1334.392, 30.940
1335.589, 46.587
1336.787, 39.177
1337.985, 88.928
1339.182, 98.511
1340.379, 90.325
1341.576, 134.208
1342.772, 87.351
1343.969, 67.521
1345.165, 110.733
1346.361, 114.751
1347.557, 117.879
1348.753, 151.957
1349.949, 139.995
1351.144, 129.944
1352.339, 122.817
1353.534, 157.728
1354.729, 141.593
1355.924, 175.616
1357.118, 210.096
1358.312, 206.827
1359.506, 217.514
1360.700, 183.159
1361.894, 209.764
1363.088, 192.325
1364.281, 232.845
1365.474, 218.345
1366.667, 196.785
1367.860, 215.188
1369.052, 233.553
1370.245, 224.897
1371.437, 178.191
1372.629, 163.453
1373.821, 191.814
1375.013, 171.880
1376.204, 180.307
1377.395, 193.674
1378.586, 145.979
1379.777, 149.790
1380.968, 192.965
1382.159, 180.012
1383.349, 133.625
1384.539, 126.523
1385.729, 116.819
1386.919, 105.249
1388.109, 122.005
1389.298, 90.689
1390.487, 109.292
1391.676, 134.829
1392.865, 84.287
1394.054, 116.615
1395.242, 145.896
1396.431, 117.893
1397.619, 73.504
1398.807, 69.556
1399.995, 103.127
1401.182, 105.183
1402.370, 131.038
1403.557, 96.280
1404.744, 106.100
1405.931, 68.950
1407.118, 57.290
1408.304, 50.425
1409.490, 73.920
1410.676, 67.209
1411.862, 95.288
1413.048, 52.870
1414.234, 68.535
1415.419, 57.284
1416.604, 48.712
1417.789, 44.147
1418.974, 80.655
1420.159, 58.728
1421.343, 38.786
1422.528, 6.383
1423.712, 34.574
1424.896, 18.327
1426.079, 20.950
1427.263, 13.960
1428.446, 33.155
1429.629, 36.671
1430.812, 40.592
1431.995, 10.888
1433.178, 30.813
1434.360, 40.527
1435.543, 8.836
1436.725, 42.896
1437.907, 4.632
1439.088, 32.329
1440.270, 26.986
1441.451, 55.605
1442.632, 40.187
1443.813, 58.732
1444.994, 47.242
1446.175, 30.716
1447.355, 19.095
1448.535, 40.362
1449.715, 38.517
1450.895, 48.241
1452.075, 67.466
1453.255, 78.421
1454.434, 47.534
1455.613, 94.996
1456.792, 53.003
1457.971, 82.268
1459.149, 18.445
1460.328, 62.719
1461.506, 59.159
1462.684, 72.412
1463.862, 81.536
1465.040, 76.806
1466.217, 80.164
1467.395, 57.918
1468.572, 65.164
1469.749, 65.831
1470.925, 43.382
1472.102, 42.604
1473.278, 20.793
1474.455, 26.096
1475.631, 54.987
