##NAMES=Epididymite
##RRUFFID=R060773
##IDEAL CHEMISTRY=Na_2_Be_2_Si_6_O_15_&#183;H_2_O
##LOCALITY=unknown
##OWNER=RRUFF
##SOURCE=Michael Scott
##DESCRIPTION=Colorless platy crystals forming a pseudohexagonal aggregate
##STATUS=The identification of this mineral has been confirmed by single-crystal X-ray diffraction.
##URL=rruff.info/R060773
##PIN_ID=M00148
##ORIENTATION=Laser parallel to c* (0 0 1). Fiducial mark perpendicular to laser is parallel to a [1 0 0]
102.1160, 0.0000000E+00
103.3490, 8.133789
104.5820, 0.6923830
105.8150, 25.87695
107.0470, 456.3721
108.2800, 869.9648
109.5120, 1190.524
110.7440, 1113.285
111.9760, 1159.443
113.2080, 1526.903
114.4400, 1958.150
115.6710, 2549.205
116.9030, 3228.546
118.1340, 4062.633
119.3650, 5054.262
120.5960, 6048.066
121.8270, 6826.559
123.0580, 7222.238
124.2880, 7408.844
125.5190, 7305.388
126.7490, 7058.963
127.9790, 8135.602
129.2090, 9771.123
130.4390, 11679.23
131.6680, 13027.72
132.8980, 12741.80
134.1270, 11426.88
135.3560, 9370.712
136.5850, 7108.180
137.8140, 4763.218
139.0430, 3152.890
140.2710, 2244.559
141.5000, 1535.529
142.7280, 1114.758
143.9560, 825.2129
145.1840, 708.8955
146.4120, 830.8467
147.6390, 917.5684
148.8670, 846.8174
150.0940, 968.9639
151.3210, 1069.313
152.5490, 875.7744
153.7750, 704.9248
155.0020, 508.4043
156.2290, 394.5605
157.4550, 105.1465
158.6810, 38.19727
159.9080, 46.25098
161.1340, 54.16602
162.3590, 54.52148
163.5850, 91.70801
164.8110, 232.5420
166.0360, 162.0000
167.2610, 195.1006
168.4860, 171.8604
169.7110, 182.2930
170.9360, 171.4131
172.1610, 4.233398
173.3850, 99.76465
174.6100, 63.97852
175.8340, 13.99512
177.0580, 42.67188
178.2820, 89.13477
179.5050, 218.4336
180.7290, 326.5996
181.9520, 373.6582
183.1760, 584.7461
184.3990, 739.4580
185.6220, 991.3418
186.8450, 1206.105
188.0670, 1449.548
189.2900, 1813.094
190.5120, 2161.323
191.7340, 2601.947
192.9560, 2919.356
194.1780, 3386.741
195.4000, 3544.899
196.6220, 3945.497
197.8430, 4107.291
199.0640, 3876.664
200.2860, 3848.781
201.5070, 3654.265
202.7270, 3199.850
203.9480, 2504.593
205.1690, 2064.738
206.3890, 1840.415
207.6090, 1356.052
208.8290, 1108.167
210.0490, 903.9102
211.2690, 1007.636
212.4890, 668.8018
213.7080, 647.9775
214.9280, 734.1611
216.1470, 510.5488
217.3660, 394.5391
218.5850, 344.7305
219.8030, 372.9180
221.0220, 390.0947
222.2400, 590.2539
223.4590, 579.3857
224.6770, 820.4824
225.8950, 888.5371
227.1120, 1273.545
228.3300, 1353.503
229.5480, 1570.410
230.7650, 2104.266
231.9820, 2524.072
233.1990, 3167.827
234.4160, 3569.535
235.6330, 4234.193
236.8490, 4747.803
238.0660, 5730.365
239.2820, 6441.882
240.4980, 6418.352
241.7140, 6756.773
242.9300, 6422.150
244.1460, 6047.482
245.3610, 5254.770
246.5770, 4665.014
247.7920, 4248.213
249.0070, 3680.004
250.2220, 3338.082
251.4370, 3059.681
252.6510, 2684.016
253.8660, 2547.922
255.0800, 2597.291
256.2940, 2611.039
257.5080, 2440.103
258.7220, 2359.643
259.9360, 2122.699
261.1490, 1962.738
262.3630, 1670.652
263.5760, 1351.706
264.7890, 1324.877
266.0020, 954.1455
267.2150, 817.5010
268.4270, 619.9258
269.6400, 413.4141
270.8520, 264.9512
272.0640, 79.53125
273.2760, 65.14258
274.4880, 114.7725
275.7000, 149.5830
276.9120, 45.98926
278.1230, 109.4551
279.3340, 161.9883
280.5450, 56.59277
281.7560, 108.2432
282.9670, 93.04199
284.1780, 128.6943
285.3880, 95.52246
286.5980, 31.58008
287.8090, 105.3535
289.0190, 233.2383
290.2290, 105.3564
291.4380, 144.5537
292.6480, 76.82129
293.8570, 327.0234
295.0670, 126.5586
296.2760, 176.1045
297.4850, 90.75684
298.6930, 73.50098
299.9020, 31.82715
301.1110, 22.65234
302.3190, 114.7070
303.5270, 146.6807
304.7350, 137.2158
305.9430, 10.39062
307.1510, 18.34570
308.3580, 30.67578
309.5660, 6.587891
310.7730, 136.7451
311.9800, 122.6768
313.1870, 37.53711
314.3940, 266.3135
315.6010, 285.0322
316.8070, 390.6953
318.0130, 491.2900
319.2200, 532.8438
320.4260, 505.5156
321.6310, 499.9658
322.8370, 712.3682
324.0430, 825.7197
325.2480, 900.0254
326.4540, 883.2803
327.6590, 1095.490
328.8640, 1158.653
330.0680, 1395.770
331.2730, 1750.838
332.4780, 1965.861
333.6820, 2195.830
334.8860, 2806.656
336.0900, 3250.535
337.2940, 4100.750
338.4980, 4709.070
339.7010, 5540.188
340.9050, 6769.163
342.1080, 8324.890
343.3110, 9258.419
344.5140, 9846.657
345.7170, 9796.688
346.9200, 8811.568
348.1220, 7671.295
349.3240, 6624.887
350.5270, 5313.361
351.7290, 4603.703
352.9310, 4136.996
354.1320, 3793.231
355.3340, 3510.992
356.5350, 3493.630
357.7370, 3279.795
358.9380, 3536.937
360.1390, 3526.057
361.3400, 3431.153
362.5400, 3568.228
363.7410, 3691.278
364.9410, 3654.307
366.1410, 4196.312
367.3410, 4394.293
368.5410, 5022.251
369.7410, 5442.189
370.9400, 6404.103
372.1400, 7480.994
373.3390, 8239.863
374.5380, 9220.710
375.7370, 10515.54
376.9360, 11721.34
378.1350, 13095.12
379.3330, 14355.89
380.5310, 14202.63
381.7300, 13662.35
382.9280, 12476.04
384.1260, 10851.73
385.3230, 9374.383
386.5210, 7635.021
387.7180, 6235.640
388.9160, 5344.237
390.1130, 4217.818
391.3100, 3421.377
392.5060, 3089.919
393.7030, 3124.451
394.9000, 3025.973
396.0960, 3454.474
397.2920, 3962.951
398.4880, 5100.404
399.6840, 6059.832
400.8800, 7188.229
402.0750, 8494.593
403.2710, 10749.94
404.4660, 13309.25
405.6610, 16123.53
406.8560, 17578.79
408.0510, 16922.03
409.2450, 15154.23
410.4400, 12307.39
411.6340, 9097.517
412.8280, 6488.646
414.0220, 4311.738
415.2160, 2819.814
416.4100, 2195.817
417.6030, 1420.535
418.7970, 1184.587
419.9900, 947.5059
421.1830, 749.7686
422.3760, 708.8975
423.5690, 558.6221
424.7610, 547.8428
425.9540, 534.7256
427.1460, 448.2676
428.3380, 365.5918
429.5300, 435.8770
430.7220, 449.8623
431.9140, 267.3281
433.1050, 351.6660
434.2970, 470.9365
435.4880, 249.6328
436.6790, 204.4824
437.8700, 232.5068
439.0610, 184.9883
440.2510, 7.754883
441.4420, 144.7002
442.6320, 216.8672
443.8220, 43.45215
445.0120, 144.9053
446.2020, 63.35449
447.3910, 38.94336
448.5810, 214.9043
449.7700, 121.2861
450.9600, 31.17676
452.1490, 70.97656
453.3370, 67.02441
454.5260, 234.4678
455.7150, 316.4639
456.9030, 498.9941
458.0910, 590.9277
459.2800, 644.9062
460.4670, 489.9766
461.6550, 393.0283
462.8430, 501.0596
464.0300, 504.0752
465.2180, 774.0732
466.4050, 833.0508
467.5920, 1238.010
468.7790, 1307.949
469.9650, 1707.871
471.1520, 1852.772
472.3380, 2612.658
473.5250, 2913.524
474.7110, 3146.373
475.8970, 3061.203
477.0820, 3215.017
478.2680, 3080.813
479.4540, 3037.595
480.6390, 2808.359
481.8240, 2984.110
483.0090, 3122.848
484.1940, 3254.570
485.3780, 3176.542
486.5630, 3117.982
487.7470, 2874.674
488.9320, 2546.354
490.1160, 2247.027
491.3000, 1931.693
492.4830, 1969.352
493.6670, 1872.002
494.8500, 1893.647
496.0340, 2163.286
497.2170, 2009.920
498.4000, 2391.549
499.5820, 2814.172
500.7650, 3087.789
501.9480, 3425.400
503.1300, 3908.009
504.3120, 4501.610
505.4940, 5401.207
506.6760, 6585.801
507.8580, 8280.389
509.0390, 10741.97
510.2210, 14238.55
511.4020, 17791.12
512.5830, 21865.69
513.7640, 26487.26
514.9450, 32518.82
516.1250, 39046.38
517.3060, 45028.94
518.4860, 48727.48
519.6660, 48097.02
520.8460, 45077.58
522.0260, 38646.11
523.2060, 30885.65
524.3850, 23779.19
525.5650, 17459.71
526.7440, 12968.24
527.9230, 9722.766
529.1020, 7640.285
530.2810, 5910.803
531.4590, 4780.318
532.6380, 4100.832
533.8160, 3287.340
534.9940, 2740.117
536.1720, 2344.621
537.3500, 2165.125
538.5270, 1753.623
539.7050, 1549.121
540.8820, 1502.615
542.0590, 1464.109
543.2360, 1066.600
544.4130, 1074.545
545.5900, 1020.137
546.7660, 893.8848
547.9430, 1005.609
549.1190, 677.8203
550.2950, 572.1758
551.4710, 706.6543
552.6470, 541.8711
553.8220, 503.4238
554.9980, 593.3457
556.1730, 375.0469
557.3480, 464.4082
558.5230, 565.9805
559.6980, 486.0000
560.8730, 521.4355
562.0470, 393.8105
563.2220, 436.3789
564.3960, 562.6328
565.5700, 583.2812
566.7440, 616.4648
567.9170, 717.4590
569.0910, 769.9102
570.2640, 996.4336
571.4380, 1006.070
572.6110, 1445.529
573.7840, 2034.465
574.9570, 2351.418
576.1290, 3035.160
577.3020, 3714.395
578.4740, 4593.695
579.6460, 5880.070
580.8180, 6848.002
581.9900, 7711.740
583.1620, 8336.637
584.3330, 8361.613
585.5040, 7577.180
586.6760, 6346.676
587.8470, 5335.777
589.0180, 4173.148
590.1880, 3013.270
591.3590, 2272.854
592.5290, 1842.520
593.7000, 1490.020
594.8700, 1224.561
596.0400, 1017.428
597.2090, 885.2051
598.3790, 743.8027
599.5490, 811.5273
600.7180, 664.2480
601.8870, 740.1211
603.0560, 640.8320
604.2250, 841.5391
605.3940, 702.2422
606.5620, 835.9395
607.7300, 949.6309
608.8990, 679.3203
610.0670, 760.0059
611.2350, 635.6855
612.4020, 811.3613
613.5700, 677.0293
614.7370, 745.6973
615.9050, 770.3574
617.0720, 637.0117
618.2390, 792.6660
619.4060, 813.3125
620.5720, 688.9570
621.7390, 938.5957
622.9050, 1129.229
624.0710, 1025.859
625.2370, 1349.482
626.4030, 1586.102
627.5690, 1683.717
628.7340, 1814.326
629.9000, 1981.934
631.0650, 2025.576
632.2300, 2494.172
633.3950, 2446.762
634.5600, 2040.346
635.7240, 2017.926
636.8890, 1555.504
638.0530, 1350.072
639.2170, 1108.637
640.3810, 1097.195
641.5450, 908.6719
642.7080, 812.3672
643.8720, 694.9570
645.0350, 759.5391
646.1980, 675.1172
647.3610, 677.6406
648.5240, 612.2578
649.6870, 631.8652
650.8490, 554.5039
652.0120, 426.1504
653.1740, 560.7930
654.3360, 554.4258
655.4980, 605.0566
656.6600, 469.6797
657.8210, 285.2949
658.9830, 508.9043
660.1440, 243.5156
661.3050, 313.1211
662.4660, 134.7305
663.6270, 304.3457
664.7870, 404.9531
665.9480, 259.5508
667.1080, 335.1562
668.2680, 379.7559
669.4280, 399.3613
670.5880, 279.9551
671.7480, 313.5469
672.9070, 253.1270
674.0670, 72.76562
675.2260, 210.3887
676.3850, 143.0449
677.5440, 210.6953
678.7030, 159.3359
679.8610, 351.9688
681.0200, 203.5938
682.1780, 184.2129
683.3360, 24.17578
684.4940, 121.4023
685.6520, 83.97070
686.8090, 50.46289
687.9670, 20.05664
689.1240, 9.560547
690.2810, 197.0469
691.4380, 22.52344
692.5950, 108.0176
693.7520, 56.36328
694.9080, 61.27148
696.0650, 118.9629
697.2210, 105.7422
698.3770, 32.60156
699.5330, 13.49414
700.6880, 21.57031
701.8440, 6.371094
702.9990, 159.3438
704.1550, 100.4277
705.3100, 187.5918
706.4650, 55.88281
707.6190, 36.76367
708.7740, 62.60547
709.9290, 127.0371
711.0830, 139.5684
712.2370, 116.2051
713.3910, 144.7656
714.5450, 44.77148
715.6980, 99.66602
716.8520, 6.644531
718.0050, 120.3398
719.1580, 3.306641
720.3110, 55.24219
721.4640, 10.83008
722.6170, 94.05664
723.7700, 37.99219
724.9220, 26.92383
726.0740, 179.8750
727.2260, 108.8320
728.3780, 204.7734
729.5300, 268.7578
730.6810, 73.72656
731.8330, 217.6758
732.9840, 278.6113
734.1350, 171.5312
735.2860, 250.4336
736.4370, 133.3184
737.5880, 270.1836
738.7380, 338.0352
739.8880, 121.8672
741.0390, 305.6816
742.1890, 171.4785
743.3380, 281.2578
744.4880, 193.0234
745.6380, 333.7676
746.7870, 226.4980
747.9360, 315.2090
749.0850, 457.9043
750.2340, 459.5820
751.3830, 465.2422
752.5310, 392.8867
753.6800, 398.5098
754.8280, 458.1211
755.9760, 385.7129
757.1240, 551.2852
758.2720, 524.8438
759.4190, 599.3848
760.5670, 514.9062
761.7140, 568.4102
762.8610, 338.8984
764.0080, 415.3711
765.1550, 284.8242
766.3020, 326.2598
767.4480, 466.6777
768.5950, 141.0801
769.7410, 341.4629
770.8870, 186.8320
772.0330, 394.1797
773.1780, 356.5117
774.3240, 360.8242
775.4690, 380.1230
776.6140, 430.4023
777.7590, 369.6660
778.9040, 462.0098
780.0490, 225.5801
781.1940, 175.7891
782.3380, 349.9824
783.4820, 424.1562
784.6260, 407.3145
785.7700, 334.4551
786.9140, 533.7188
788.0580, 288.3184
789.2010, 238.2930
790.3450, 439.3574
791.4880, 484.4023
792.6310, 454.4316
793.7730, 485.4395
794.9160, 322.4297
796.0590, 467.3965
797.2010, 384.0859
798.3430, 398.0176
799.4850, 459.1172
800.6270, 257.5508
801.7690, 569.4258
802.9100, 558.2832
804.0520, 488.8496
805.1930, 650.6680
806.3340, 473.1465
807.4750, 515.9277
808.6160, 558.6875
809.7560, 572.4141
810.8970, 564.1758
812.0370, 643.5508
813.1770, 517.7891
814.3170, 541.4551
815.4570, 605.0977
816.5960, 532.7227
817.7360, 554.3281
818.8750, 691.3242
820.0140, 711.8887
821.1530, 692.9824
822.2920, 730.6152
823.4310, 585.6465
824.5690, 696.8945
825.7070, 548.6387
826.8460, 507.2148
827.9840, 838.6465
829.1220, 693.3184
830.2590, 738.6387
831.3970, 715.5664
832.5340, 569.6973
833.6710, 414.1465
834.8080, 676.3672
835.9450, 550.1250
837.0820, 676.4492
838.2190, 644.8730
839.3550, 506.1152
840.4910, 750.0781
841.6270, 657.3164
842.7630, 565.0371
843.8990, 600.9805
845.0350, 660.6328
846.1700, 758.8906
847.3060, 915.2480
848.4410, 1055.779
849.5760, 1229.742
850.7100, 1392.887
851.8450, 1474.275
852.9800, 1920.195
854.1140, 1998.928
855.2480, 2266.854
856.3820, 2636.164
857.5160, 2638.691
858.6500, 2568.074
859.7830, 2606.861
860.9170, 2508.166
862.0500, 2315.289
863.1830, 2222.334
864.3160, 1963.158
865.4480, 1815.717
866.5810, 1698.213
867.7130, 1435.820
868.8460, 1260.830
869.9780, 1041.830
871.1100, 997.8242
872.2410, 920.2832
873.3730, 807.6816
874.5050, 874.6562
875.6360, 975.6230
876.7670, 905.4277
877.8980, 701.3828
879.0290, 853.3320
880.1590, 696.2734
881.2900, 486.2090
882.4200, 665.1406
883.5500, 495.0645
884.6800, 474.9824
885.8100, 561.8984
886.9400, 508.8066
888.0690, 498.7090
889.1990, 444.6074
890.3280, 421.5020
891.4570, 297.3906
892.5860, 384.2754
893.7140, 344.1523
894.8430, 259.0254
895.9710, 341.8965
897.1000, 211.7637
898.2280, 222.2773
899.3560, 331.4863
900.4830, 165.3418
901.6110, 290.1934
902.7380, 244.0410
903.8660, 227.8848
904.9930, 243.6836
906.1200, 72.52344
907.2460, 155.3594
908.3730, 73.19336
909.5000, 29.02539
910.6260, 167.8555
911.7520, 168.6836
912.8780, 98.50781
914.0040, 75.66992
915.1290, 79.89453
916.2550, 226.8301
917.3800, 55.55469
918.5050, 254.2754
919.6300, 18.99609
920.7550, 161.7188
921.8800, 174.5645
923.0040, 116.9434
924.1290, 59.38867
925.2530, 36.13086
926.3770, 51.65039
927.5010, 61.16797
928.6250, 110.9180
929.7480, 74.20703
930.8720, 74.88672
931.9950, 24.75391
933.1180, 34.77734
934.2410, 33.69336
935.3640, 40.18359
936.4860, 62.30469
937.6090, 54.79102
938.7310, 44.71680
939.8530, 118.7637
940.9750, 44.73242
942.0970, 43.75586
943.2180, 66.27734
944.3400, 68.18750
945.4610, 103.6719
946.5820, 51.21094
947.7030, 160.7715
948.8240, 56.60547
949.9450, 90.98828
951.0650, 12.37695
952.1860, 168.7754
953.3060, 5.826172
954.4260, 96.57031
955.5460, 125.9727
956.6650, 150.3984
957.7850, 38.17188
958.9040, 11.24609
960.0230, 4.695313
961.1420, 122.1562
962.2610, 23.64844
963.3800, 31.18164
964.4990, 99.72266
965.6170, 168.3047
966.7350, 146.8965
967.8530, 103.5195
968.9710, 55.18750
970.0890, 14.89648
971.2070, 148.6328
972.3240, 273.3789
973.4410, 239.1367
974.5580, 10.08398
975.6750, 117.7461
976.7920, 148.6191
977.9090, 366.5605
979.0250, 158.5332
980.1410, 314.5176
981.2580, 523.5391
982.3740, 418.6094
983.4890, 233.7344
984.6050, 233.9121
985.7200, 421.1445
986.8360, 198.4102
987.9510, 492.7207
989.0660, 361.0527
990.1810, 515.3926
991.2950, 439.7539
992.4100, 490.1250
993.5240, 495.5234
994.6390, 631.9297
995.7530, 659.3516
996.8660, 707.7871
997.9800, 834.2363
999.0940, 889.6914
1000.207, 1004.160
1001.320, 1343.641
1002.433, 1708.131
1003.546, 1514.633
1004.659, 1533.148
1005.772, 1122.672
1006.884, 1238.209
1007.996, 1111.756
1009.108, 1227.316
1010.220, 1140.887
1011.332, 1149.471
1012.444, 1077.068
1013.555, 1148.676
1014.666, 1116.293
1015.777, 1144.924
1016.888, 1194.570
1017.999, 1121.227
1019.110, 1086.893
1020.220, 1202.574
1021.331, 1117.270
1022.441, 1228.975
1023.551, 1154.693
1024.661, 1080.426
1025.770, 1397.172
1026.880, 1520.930
1027.989, 1272.701
1029.098, 1331.486
1030.207, 1469.285
1031.316, 1782.098
1032.425, 1702.924
1033.533, 1618.764
1034.642, 1903.617
1035.750, 2006.484
1036.858, 1909.365
1037.966, 2144.264
1039.073, 2300.172
1040.181, 2177.096
1041.288, 2359.033
1042.396, 2189.986
1043.503, 2193.957
1044.610, 2424.938
1045.716, 2329.936
1046.823, 2282.195
1047.929, 2353.871
1049.036, 2054.572
1050.142, 2266.629
1051.248, 2269.703
1052.353, 2105.793
1053.459, 1810.900
1054.564, 1907.020
1055.670, 1934.018
1056.775, 1745.672
1057.880, 1897.955
1058.985, 1628.145
1060.089, 1487.352
1061.194, 1715.576
1062.298, 1649.820
1063.402, 1684.084
1064.506, 1901.365
1065.610, 1632.770
1066.713, 1543.086
1067.817, 1542.232
1068.920, 1629.049
1070.023, 1587.418
1071.126, 1484.809
1072.229, 1354.752
1073.332, 1241.613
1074.435, 1229.766
1075.537, 1127.773
1076.639, 1097.400
1077.741, 1172.789
1078.843, 1202.270
1079.945, 890.8672
1081.046, 1238.906
1082.148, 927.7324
1083.249, 1058.312
1084.350, 768.9434
1085.451, 766.5938
1086.551, 931.8555
1087.652, 770.5469
1088.752, 951.7344
1089.853, 1095.461
1090.953, 985.2129
1092.053, 929.7070
1093.152, 1133.490
1094.252, 1251.225
1095.351, 1298.312
1096.451, 1248.189
1097.550, 1316.086
1098.649, 1316.998
1099.748, 1492.982
1100.846, 1579.004
1101.945, 1627.051
1103.043, 1908.113
1104.141, 1959.195
1105.239, 2069.295
1106.337, 2139.416
1107.434, 2328.686
1108.532, 2375.342
1109.629, 2726.516
1110.726, 3080.711
1111.823, 3267.922
1112.920, 3650.150
1114.017, 4038.398
1115.113, 4351.664
1116.210, 4477.947
1117.306, 4660.246
1118.402, 4825.562
1119.498, 5166.898
1120.593, 5205.248
1121.689, 5341.613
1122.784, 5769.998
1123.879, 6226.398
1124.974, 6597.816
1126.069, 6771.250
1127.164, 7660.699
1128.259, 8281.168
1129.353, 9312.652
1130.447, 10129.15
1131.541, 10984.67
1132.635, 12039.21
1133.729, 13061.75
1134.822, 13841.32
1135.916, 14538.91
1137.009, 14961.51
1138.102, 15035.12
1139.195, 14458.76
1140.288, 14173.41
1141.380, 13146.08
1142.473, 12267.77
1143.565, 10779.47
1144.657, 9781.191
1145.749, 8678.928
1146.841, 7658.684
1147.932, 6779.424
1149.024, 5751.242
1150.115, 5105.045
1151.206, 4656.865
1152.297, 3931.703
1153.388, 3430.557
1154.479, 3156.428
1155.569, 2964.316
1156.659, 2659.900
1157.750, 2358.141
1158.839, 2240.078
1159.929, 2036.035
1161.019, 1793.008
1162.108, 1682.000
1163.198, 1624.010
1164.287, 1617.035
1165.376, 1270.076
1166.465, 1190.135
1167.553, 1346.211
1168.642, 1050.303
1169.730, 1180.412
1170.818, 939.5371
1171.906, 1039.678
1172.994, 949.8359
1174.082, 650.0098
1175.170, 418.2051
1176.257, 745.4141
1177.344, 446.6387
1178.431, 512.8828
1179.518, 383.1641
1180.605, 409.4883
1181.691, 366.8262
1182.778, 454.1816
1183.864, 253.5547
1184.950, 351.9434
1186.036, 371.3477
1187.122, 140.8184
1188.207, 321.3379
1189.292, 218.8906
1190.378, 303.4609
1191.463, 89.04883
1192.548, 165.6484
1193.632, 285.2676
1194.717, 19.90234
1195.801, 117.4492
1196.886, 121.1738
1197.970, 63.81250
1199.054, 7.478516
1200.137, 15.16992
1201.221, 77.87891
1202.305, 68.39844
1203.388, 89.67383
1204.471, 30.97656
1205.554, 145.2637
1206.637, 45.60156
1207.719, 59.94336
1208.802, 26.72266
1209.884, 30.42773
1210.966, 80.83594
1212.048, 4.082031
1213.130, 19.13477
1214.212, 21.07422
1215.293, 57.85938
1216.374, 52.66016
1217.456, 63.75586
1218.536, 28.69336
1219.617, 22.13867
1220.698, 36.98438
1221.778, 33.14648
1222.859, 182.7188
1223.939, 111.3984
1225.019, 130.5898
1226.099, 167.2012
1227.178, 206.0059
1228.258, 113.8262
1229.337, 166.7227
1230.417, 106.1719
1231.496, 105.4180
1232.574, 35.60156
1233.653, 144.4844
1234.732, 208.3828
1235.810, 325.2910
1236.888, 305.2148
1237.966, 187.1523
1239.044, 298.1035
1240.122, 303.0664
1241.199, 138.0430
1242.277, 353.3164
1243.354, 255.3184
1244.431, 345.3340
1245.508, 325.3574
1246.585, 180.3965
1247.661, 181.4453
1248.738, 407.5098
1249.814, 214.5859
1250.890, 374.6797
1251.966, 332.7852
1253.042, 214.9062
1254.117, 340.0352
1255.193, 246.1777
1256.268, 195.3320
1257.343, 134.5000
1258.418, 236.6758
1259.493, 384.8672
1260.567, 404.0938
1261.642, 513.3301
1262.716, 527.5898
1263.790, 538.8398
1264.864, 510.1113
1265.938, 435.3945
1267.011, 365.6895
1268.085, 387.9941
1269.158, 384.4238
1270.231, 543.6484
1271.304, 447.9980
1272.377, 536.3574
1273.450, 534.7285
1274.522, 496.5391
1275.594, 634.5039
1276.666, 472.9062
1277.738, 504.3242
1278.810, 558.7500
1279.882, 551.1895
1280.953, 547.6387
1282.025, 500.0977
1283.096, 351.5684
1284.167, 272.0508
1285.238, 354.5469
