##NAMES=Epidote
##RRUFFID=R050303
##IDEAL CHEMISTRY=Ca_2_Fe^3+^Al_2_(Si_2_O_7_)(SiO_4_)O(OH)
##LOCALITY=San Martin mine, Zacatecas, Mexico
##OWNER=RRUFF
##SOURCE=Eugene Schlepp
##DESCRIPTION=Green elongated prismatic crystals
##STATUS=The identification of this mineral has been confirmed by X-ray diffraction and chemical analysis
##URL=rruff.info/R050303
##MEASURED CHEMISTRY=Ca_2.00_Al_2.00_(Fe^3+^_0.97_Al_0.03_)(SiO_4_)(Si_2_O_7_)O(OH)
##PIN_ID=L00691
##ORIENTATION=Laser parallel to -b* (0 -1 0). Fiducial mark perpendicular to laser is parallel to -c [0 0 -1]
53.91000, 0.0000000E+00
55.14900, 69.23816
56.38700, 103.0701
57.62600, 173.1268
58.86400, 398.1035
60.10300, 537.3872
61.34100, 324.6832
62.57900, 165.7733
63.81700, 5.688965
65.05400, 116.4390
66.29200, 103.2019
67.52900, 19.66675
68.76700, 200.5237
70.00400, 344.7808
71.24100, 483.5747
72.47700, 641.4458
73.71400, 1158.043
74.95100, 1836.041
76.18700, 2740.135
77.42300, 3586.053
78.65900, 5013.525
79.89500, 6974.304
81.13100, 9487.150
82.36700, 12715.85
83.60200, 16626.21
84.83700, 21119.06
86.07200, 25846.22
87.30800, 30507.55
88.54200, 33696.93
89.77700, 35023.26
91.01200, 33489.70
92.24600, 29884.19
93.48000, 25087.55
94.71400, 20884.65
95.94800, 16921.40
97.18200, 13751.78
98.41600, 11501.72
99.64900, 9533.086
100.8830, 7982.794
102.1160, 6930.739
103.3490, 6171.845
104.5820, 5805.038
105.8150, 5828.253
107.0470, 6570.436
108.2800, 7066.536
109.5120, 5855.504
110.7440, 4569.302
111.9760, 4219.888
113.2080, 4074.231
114.4400, 4319.297
115.6710, 4418.056
116.9030, 4375.480
118.1340, 4414.546
119.3650, 4657.229
120.5960, 4909.506
121.8270, 5755.359
123.0580, 6601.771
124.2880, 7687.772
125.5190, 9323.910
126.7490, 11560.49
127.9790, 14778.74
129.2090, 17239.04
130.4390, 18879.26
131.6680, 18663.44
132.8980, 16707.68
134.1270, 16687.09
135.3560, 14173.07
136.5850, 8932.686
137.8140, 7443.249
139.0430, 6212.731
140.2710, 5617.928
141.5000, 4990.439
142.7280, 4884.949
143.9560, 4805.476
145.1840, 4499.035
146.4120, 4084.645
147.6390, 3705.318
148.8670, 3089.064
150.0940, 2943.897
151.3210, 3038.823
152.5490, 2759.850
153.7750, 2902.986
155.0020, 2891.237
156.2290, 3193.607
157.4550, 3419.103
158.6810, 3990.726
159.9080, 4726.482
161.1340, 5396.372
162.3590, 6493.401
163.5850, 7370.570
164.8110, 8021.881
166.0360, 8375.332
167.2610, 8026.933
168.4860, 7488.672
169.7110, 6903.556
170.9360, 6018.587
172.1610, 5315.760
173.3850, 4581.076
174.6100, 3973.538
175.8340, 3594.144
177.0580, 3250.892
178.2820, 3061.786
179.5050, 2853.825
180.7290, 2826.007
181.9520, 2755.334
183.1760, 2720.807
184.3990, 2857.424
185.6220, 3028.188
186.8450, 3083.096
188.0670, 3333.149
189.2900, 3741.350
190.5120, 3989.697
191.7340, 4402.189
192.9560, 5018.829
194.1780, 5765.424
195.4000, 6650.714
196.6220, 7609.869
197.8430, 8677.644
199.0640, 9676.537
200.2860, 10553.99
201.5070, 11008.96
202.7270, 10966.72
203.9480, 11076.70
205.1690, 10221.55
206.3890, 10012.62
207.6090, 10030.98
208.8290, 10543.72
210.0490, 10916.10
211.2690, 11569.48
212.4890, 12406.42
213.7080, 13521.95
214.9280, 14982.17
216.1470, 16752.80
217.3660, 18524.75
218.5850, 20821.45
219.8030, 22938.98
221.0220, 25420.67
222.2400, 27584.49
223.4590, 29326.64
224.6770, 30414.68
225.8950, 30230.77
227.1120, 28487.48
228.3300, 26125.74
229.5480, 22800.34
230.7650, 19754.25
231.9820, 16904.47
233.1990, 14539.99
234.4160, 13002.79
235.6330, 12152.88
236.8490, 11659.23
238.0660, 11623.85
239.2820, 11416.71
240.4980, 11063.82
241.7140, 10423.16
242.9300, 9439.726
244.1460, 8226.511
245.3610, 7249.509
246.5770, 6270.715
247.7920, 5348.121
249.0070, 4655.722
250.2220, 4157.513
251.4370, 3670.487
252.6510, 3443.643
253.8660, 3112.976
255.0800, 3108.481
256.2940, 3050.155
257.5080, 3440.996
258.7220, 3597.479
259.9360, 4249.159
261.1490, 4460.478
262.3630, 5132.948
263.5760, 6019.571
264.7890, 7497.342
266.0020, 9260.260
267.2150, 11284.32
268.4270, 14171.52
269.6400, 17185.86
270.8520, 19813.34
272.0640, 21821.94
273.2760, 22068.67
274.4880, 20528.49
275.7000, 17612.42
276.9120, 14225.45
278.1230, 11563.59
279.3340, 8977.837
280.5450, 7202.190
281.7560, 5772.650
282.9670, 5179.211
284.1780, 4467.871
285.3880, 4273.627
286.5980, 4320.476
287.8090, 4738.417
289.0190, 4958.452
290.2290, 5343.581
291.4380, 5542.803
292.6480, 5859.123
293.8570, 6033.539
295.0670, 6092.050
296.2760, 5871.658
297.4850, 5650.364
298.6930, 5309.167
299.9020, 4885.071
301.1110, 4518.074
302.3190, 4418.174
303.5270, 4039.375
304.7350, 3925.678
305.9430, 3626.080
307.1510, 3387.583
308.3580, 2980.187
309.5660, 2797.892
310.7730, 2661.698
311.9800, 2680.607
313.1870, 2934.618
314.3940, 3000.730
315.6010, 3507.946
316.8070, 3991.265
318.0130, 4693.686
319.2200, 5336.212
320.4260, 6025.839
321.6310, 6317.571
322.8370, 6310.409
324.0430, 5628.347
325.2480, 4613.392
326.4540, 3474.540
327.6590, 2713.794
328.8640, 1728.150
330.0680, 1101.612
331.2730, 489.1777
332.4780, 36.15039
333.6820, 212.3984
334.8860, 494.6030
336.0900, 721.8262
337.2940, 826.1191
338.4980, 850.5073
339.7010, 747.0205
340.9050, 698.8018
342.1080, 668.0322
343.3110, 361.7095
344.5140, 312.7061
345.7170, 228.8477
346.9200, 37.03955
348.1220, 6.932617
349.3240, 35.22168
350.5270, 3.520996
351.7290, 19.95850
352.9310, 16.48340
354.1320, 113.7930
355.3340, 114.0137
356.5350, 229.1318
357.7370, 354.1816
358.9380, 388.2344
360.1390, 321.3281
361.3400, 357.4346
362.5400, 475.5742
363.7410, 574.8008
364.9410, 644.1611
366.1410, 547.6875
367.3410, 492.3369
368.5410, 448.0850
369.7410, 346.9141
370.9400, 194.7754
372.1400, 84.39160
373.3390, 117.6963
374.5380, 483.1396
375.7370, 597.7197
376.9360, 1221.438
378.1350, 1659.290
379.3330, 2388.278
380.5310, 3073.400
381.7300, 3922.656
382.9280, 4842.045
384.1260, 5662.564
385.3230, 6457.220
386.5210, 6751.003
387.7180, 6468.916
388.9160, 5801.962
390.1130, 5249.135
391.3100, 4349.438
392.5060, 3720.871
393.7030, 2949.430
394.9000, 2640.119
396.0960, 2362.936
397.2920, 2116.879
398.4880, 2097.949
399.6840, 2082.146
400.8800, 2178.470
402.0750, 2453.920
403.2710, 2770.495
404.4660, 3095.197
405.6610, 3769.023
406.8560, 4517.977
408.0510, 5445.054
409.2450, 6585.257
410.4400, 8245.582
411.6340, 10175.03
412.8280, 12516.61
414.0220, 15738.31
415.2160, 19266.13
416.4100, 23451.08
417.6030, 27914.15
418.7970, 32882.36
419.9900, 36670.69
421.1830, 39566.14
422.3760, 39776.74
423.5690, 38511.50
424.7610, 36147.45
425.9540, 33135.61
427.1460, 29763.94
428.3380, 27187.44
429.5300, 24941.12
430.7220, 23121.97
431.9140, 21297.03
433.1050, 19647.28
434.2970, 18129.73
435.4880, 16426.39
436.6790, 15581.26
437.8700, 14915.35
439.0610, 15137.66
440.2510, 15415.19
441.4420, 16932.93
442.6320, 18436.87
443.8220, 20835.04
445.0120, 23066.42
446.2020, 25413.00
447.3910, 27008.80
448.5810, 27466.83
449.7700, 26658.07
450.9600, 25763.51
452.1490, 24458.17
453.3370, 22899.02
454.5260, 21179.09
455.7150, 19277.35
456.9030, 17271.82
458.0910, 14904.50
459.2800, 13125.40
460.4670, 11110.50
461.6550, 9714.802
462.8430, 8105.298
464.0300, 7092.990
465.2180, 6222.850
466.4050, 5350.906
467.5920, 4639.153
468.7790, 4135.557
469.9650, 3513.120
471.1520, 3390.863
472.3380, 3066.807
473.5250, 3030.928
474.7110, 2814.213
475.8970, 2628.004
477.0820, 2738.416
478.2680, 2813.285
479.4540, 3075.877
480.6390, 3200.898
481.8240, 3255.694
483.0090, 3512.212
484.1940, 3941.463
485.3780, 4368.509
486.5630, 4978.296
487.7470, 5701.688
488.9320, 6523.436
490.1160, 7372.885
491.3000, 8312.627
492.4830, 9311.290
493.6670, 10704.78
494.8500, 11747.36
496.0340, 12609.25
497.2170, 13344.82
498.4000, 13617.52
499.5820, 13910.61
500.7650, 14134.58
501.9480, 14531.97
503.1300, 15522.89
504.3120, 16481.17
505.4940, 17358.31
506.6760, 18213.23
507.8580, 18416.57
509.0390, 18560.36
510.2210, 18441.36
511.4020, 18389.98
512.5830, 18863.08
513.7640, 19510.03
514.9450, 21082.92
516.1250, 22454.95
517.3060, 23810.10
518.4860, 25135.38
519.6660, 25100.80
520.8460, 23886.34
522.0260, 21861.02
523.2060, 18803.81
524.3850, 15786.73
525.5650, 13011.78
526.7440, 10729.95
527.9230, 8615.251
529.1020, 7306.672
530.2810, 5848.213
531.4590, 4780.877
532.6380, 4115.658
533.8160, 3694.562
534.9940, 3377.582
536.1720, 3122.722
537.3500, 2986.857
538.5270, 2860.350
539.7050, 2986.837
540.8820, 3087.438
542.0590, 3337.154
543.2360, 3480.981
544.4130, 3913.920
545.5900, 4283.971
546.7660, 4814.131
547.9430, 5695.400
549.1190, 6585.777
550.2950, 7826.264
551.4710, 9614.856
552.6470, 11681.55
553.8220, 14682.35
554.9980, 18255.26
556.1730, 22933.27
557.3480, 28393.38
558.5230, 35023.60
559.6980, 42341.89
560.8730, 48308.30
562.0470, 50855.71
563.2220, 49024.82
564.3960, 43880.77
565.5700, 36154.48
566.7440, 29425.20
567.9170, 23558.81
569.0910, 19408.79
570.2640, 16342.06
571.4380, 14224.74
572.6110, 13137.98
573.7840, 12713.95
574.9570, 12800.53
576.1290, 13089.87
577.3020, 13807.08
578.4740, 15022.07
579.6460, 16493.21
580.8180, 18087.81
581.9900, 19499.12
583.1620, 20786.37
584.3330, 21738.12
585.5040, 22600.71
586.6760, 23648.84
587.8470, 24935.80
589.0180, 26308.79
590.1880, 28320.43
591.3590, 30259.79
592.5290, 32674.40
593.7000, 34326.63
594.8700, 35354.00
596.0400, 35361.93
597.2090, 34400.20
598.3790, 32502.64
599.5490, 30256.57
600.7180, 27812.47
601.8870, 25307.04
603.0560, 22863.06
604.2250, 20809.03
605.3940, 19468.37
606.5620, 18177.95
607.7300, 16981.94
608.8990, 16017.25
610.0670, 15345.74
611.2350, 14217.87
612.4020, 13299.78
613.5700, 12226.23
614.7370, 10933.50
615.9050, 9870.035
617.0720, 8738.925
618.2390, 7538.039
619.4060, 6716.947
620.5720, 5788.903
621.7390, 5190.044
622.9050, 4611.235
624.0710, 4029.798
625.2370, 3593.922
626.4030, 3188.286
627.5690, 2894.801
628.7340, 2563.116
629.9000, 2371.937
631.0650, 2073.095
632.2300, 1873.188
633.3950, 1742.818
634.5600, 1688.068
635.7240, 1423.773
636.8890, 1287.642
638.0530, 1259.348
639.2170, 1088.781
640.3810, 1093.449
641.5450, 1031.082
642.7080, 975.9873
643.8720, 929.7197
645.0350, 874.5688
646.1980, 819.7290
647.3610, 780.7354
648.5240, 815.8701
649.6870, 701.1104
650.8490, 682.4419
652.0120, 742.8535
653.1740, 792.3203
654.3360, 819.8096
655.4980, 817.2646
656.6600, 887.6836
657.8210, 857.0669
658.9830, 963.4121
660.1440, 917.7183
661.3050, 992.9844
662.4660, 1069.210
663.6270, 849.3936
664.7870, 979.5347
665.9480, 1086.631
667.1080, 960.6821
668.2680, 1128.688
669.4280, 1082.646
670.5880, 1192.557
671.7480, 1234.418
672.9070, 1266.229
674.0670, 1383.989
675.2260, 1376.698
676.3850, 1551.353
677.5440, 1556.954
678.7030, 1552.500
679.8610, 1623.364
681.0200, 1654.423
682.1780, 1642.798
683.3360, 1630.762
684.4940, 1548.372
685.6520, 1520.568
686.8090, 1435.703
687.9670, 1340.775
689.1240, 1177.784
690.2810, 1027.867
691.4380, 823.6089
692.5950, 634.4219
693.7520, 506.1689
694.9080, 265.8477
696.0650, 306.4575
697.2210, 186.9980
698.3770, 27.46875
699.5330, 160.8501
700.6880, 46.15869
701.8440, 18.38184
702.9990, 106.4951
704.1550, 161.5400
705.3100, 220.7837
706.4650, 150.2593
707.6190, 87.93359
708.7740, 103.7759
709.9290, 106.1445
711.0830, 205.9971
712.2370, 197.4360
713.3910, 187.1084
714.5450, 243.0112
715.6980, 221.1768
716.8520, 245.5942
718.0050, 276.2798
719.1580, 264.2495
720.3110, 192.5015
721.4640, 219.9976
722.6170, 288.7549
723.7700, 171.8101
724.9220, 257.1040
726.0740, 219.6821
727.2260, 281.5278
728.3780, 209.6729
729.5300, 187.0820
730.6810, 236.7432
731.8330, 148.6855
732.9840, 260.8623
734.1350, 172.3335
735.2860, 144.0542
736.4370, 241.0083
737.5880, 263.2495
738.7380, 165.7886
739.8880, 175.5757
741.0390, 165.6167
742.1890, 163.9062
743.3380, 57.44531
744.4880, 172.1768
745.6380, 146.1616
746.7870, 23.38623
747.9360, 25.78711
749.0850, 115.3638
750.2340, 191.1646
751.3830, 104.2285
752.5310, 53.51074
753.6800, 25.98389
754.8280, 0.4912110
755.9760, 30.55469
757.1240, 18.59668
758.2720, 27.51465
759.4190, 4.196289
760.5670, 65.74609
761.7140, 33.16357
762.8610, 85.43457
764.0080, 74.57959
765.1550, 117.5947
766.3020, 178.4922
767.4480, 197.2798
768.5950, 143.9595
769.7410, 226.5254
770.8870, 113.9873
772.0330, 212.3311
773.1780, 175.5693
774.3240, 161.6997
775.4690, 106.7197
776.6140, 197.6221
777.7590, 291.4189
778.9040, 315.1177
780.0490, 270.7202
781.1940, 324.2241
782.3380, 306.6313
783.4820, 262.9419
784.6260, 401.1533
785.7700, 405.2676
786.9140, 477.2852
788.0580, 394.2065
789.2010, 460.0308
790.3450, 441.7583
791.4880, 496.3306
792.6310, 627.9214
793.7730, 638.3574
794.9160, 674.6968
796.0590, 739.9399
797.2010, 789.0879
798.3430, 849.7397
799.4850, 968.0967
800.6270, 989.9590
801.7690, 1057.727
802.9100, 1155.401
804.0520, 1130.982
805.1930, 1283.747
806.3340, 1587.865
807.4750, 1562.169
808.6160, 1746.380
809.7560, 1953.500
810.8970, 2053.530
812.0370, 2280.469
813.1770, 2465.318
814.3170, 2829.078
815.4570, 3226.749
816.5960, 3424.331
817.7360, 3979.825
818.8750, 4440.231
820.0140, 4739.553
821.1530, 5289.786
822.2920, 5763.932
823.4310, 6198.996
824.5690, 6699.973
825.7070, 7097.867
826.8460, 7234.676
827.9840, 7305.402
829.1220, 7155.046
830.2590, 7005.607
831.3970, 6553.088
832.5340, 6268.488
833.6710, 5862.808
834.8080, 5514.046
835.9450, 5158.223
837.0820, 4924.305
838.2190, 4680.423
839.3550, 4518.829
840.4910, 4394.443
841.6270, 4330.311
842.7630, 4339.174
843.8990, 4252.186
845.0350, 4260.834
846.1700, 4506.222
847.3060, 4659.198
848.4410, 4713.648
849.5760, 4950.387
850.7100, 5097.530
851.8450, 5191.928
852.9800, 5599.470
854.1140, 5900.257
855.2480, 6064.907
856.3820, 6362.109
857.5160, 6766.618
858.6500, 7155.214
859.7830, 7549.315
860.9170, 7806.585
862.0500, 8081.338
863.1830, 8320.278
864.3160, 8627.205
865.4480, 8665.494
866.5810, 8751.072
867.7130, 8815.411
868.8460, 8570.164
869.9780, 8411.767
871.1100, 8229.829
872.2410, 7847.684
873.3730, 7666.274
874.5050, 7417.851
875.6360, 7126.678
876.7670, 7012.181
877.8980, 6865.270
879.0290, 6723.420
880.1590, 6689.222
881.2900, 6677.802
882.4200, 6690.008
883.5500, 6895.920
884.6800, 7199.682
885.8100, 7369.828
886.9400, 7679.241
888.0690, 8183.135
889.1990, 8788.242
890.3280, 9461.121
891.4570, 10305.70
892.5860, 11112.14
893.7140, 12308.93
894.8430, 13551.88
895.9710, 14771.89
897.1000, 16544.09
898.2280, 18036.96
899.3560, 19996.82
900.4830, 22531.47
901.6110, 24799.12
902.7380, 27689.75
903.8660, 30809.67
904.9930, 34126.95
906.1200, 37934.36
907.2460, 42056.28
908.3730, 45647.62
909.5000, 49321.54
910.6260, 52647.33
911.7520, 54694.37
912.8780, 55909.74
914.0040, 55824.95
915.1290, 53546.33
916.2550, 50439.54
917.3800, 46045.03
918.5050, 41341.53
919.6300, 36376.82
920.7550, 31650.43
921.8800, 27596.08
923.0040, 24094.77
924.1290, 20878.53
925.2530, 17991.32
926.3770, 15810.14
927.5010, 13561.00
928.6250, 11871.90
929.7480, 10544.84
930.8720, 9244.815
931.9950, 8216.827
933.1180, 7419.889
934.2410, 6603.007
935.3640, 6026.167
936.4860, 5468.369
937.6090, 4946.860
938.7310, 4682.894
939.8530, 4159.222
940.9750, 3995.593
942.0970, 3768.008
943.2180, 3514.467
944.3400, 3340.970
945.4610, 3289.521
946.5820, 3132.115
947.7030, 3059.757
948.8240, 3001.447
949.9450, 2941.184
951.0650, 2863.971
952.1860, 2870.805
953.3060, 2944.690
954.4260, 2968.631
955.5460, 2953.623
956.6650, 2856.667
957.7850, 2833.764
958.9040, 2837.912
960.0230, 2891.114
961.1420, 2893.371
962.2610, 2990.682
963.3800, 3113.049
964.4990, 3275.476
965.6170, 3445.961
966.7350, 3906.502
967.8530, 4246.102
968.9710, 4704.760
970.0890, 5392.476
971.2070, 6193.260
972.3240, 7234.104
973.4410, 8160.016
974.5580, 8970.001
975.6750, 9885.094
976.7920, 10023.32
977.9090, 10309.67
979.0250, 9973.154
980.1410, 9129.746
981.2580, 8187.452
982.3740, 7279.271
983.4890, 6203.235
984.6050, 5336.341
985.7200, 4407.588
986.8360, 3772.992
987.9510, 3287.549
989.0660, 2764.265
990.1810, 2198.150
991.2950, 2105.200
992.4100, 1627.398
993.5240, 1361.753
994.6390, 1248.283
995.7530, 955.9580
996.8660, 843.8032
997.9800, 640.8081
999.0940, 450.9902
1000.207, 481.3306
1001.320, 229.8232
1002.433, 220.4824
1003.546, 210.2852
1004.659, 135.2612
1005.772, 6.182617
1006.884, 41.23047
1007.996, 7.413086
1009.108, 50.22607
1010.220, 84.98730
1011.332, 84.68555
1012.444, 144.7505
1013.555, 39.64648
1014.666, 157.1616
1015.777, 184.8159
1016.888, 282.1929
1017.999, 374.3750
1019.110, 511.9663
1020.220, 719.4224
1021.331, 762.3022
1022.441, 796.5991
1023.551, 1100.467
1024.661, 1285.760
1025.770, 1590.470
1026.880, 1916.867
1027.989, 2282.865
1029.098, 2655.570
1030.207, 3092.495
1031.316, 3633.509
1032.425, 4056.593
1033.533, 4584.317
1034.642, 5157.871
1035.750, 5401.282
1036.858, 5879.761
1037.966, 6193.184
1039.073, 6241.647
1040.181, 6317.479
1041.288, 5944.584
1042.396, 5821.565
1043.503, 5412.587
1044.610, 5211.998
1045.716, 5054.152
1046.823, 4635.168
1047.929, 4373.430
1049.036, 4321.907
1050.142, 4302.619
1051.248, 4267.257
1052.353, 4522.797
1053.459, 4813.523
1054.564, 5332.254
1055.670, 5701.326
1056.775, 6059.750
1057.880, 6341.905
1058.985, 6484.145
1060.089, 6634.072
1061.194, 6532.150
1062.298, 6349.285
1063.402, 6089.775
1064.506, 5989.021
1065.610, 5787.966
1066.713, 6041.838
1067.817, 5994.907
1068.920, 6310.416
1070.023, 6702.939
1071.126, 7523.521
1072.229, 8335.766
1073.332, 9288.462
1074.435, 10475.21
1075.537, 12267.02
1076.639, 13962.88
1077.741, 16209.78
1078.843, 18698.74
1079.945, 21524.73
1081.046, 23893.79
1082.148, 26129.88
1083.249, 26541.04
1084.350, 25441.23
1085.451, 23250.47
1086.551, 19886.76
1087.652, 16593.09
1088.752, 13229.47
1089.853, 10619.89
1090.953, 8290.354
1092.053, 6616.864
1093.152, 5331.415
1094.252, 4275.009
1095.351, 3570.646
1096.451, 2887.418
1097.550, 2554.137
1098.649, 2085.896
1099.748, 1857.694
1100.846, 1637.533
1101.945, 1441.411
1103.043, 1278.786
1104.141, 1161.282
1105.239, 1018.275
1106.337, 913.4785
1107.434, 844.3701
1108.532, 747.6304
1109.629, 669.7676
1110.726, 683.9385
1111.823, 718.1431
1112.920, 618.3804
1114.017, 604.4395
1115.113, 441.9492
1116.210, 478.2808
1117.306, 416.6406
1118.402, 353.2314
1119.498, 435.9248
1120.593, 293.3682
1121.689, 389.8379
1122.784, 302.3325
1123.879, 251.9062
1124.974, 268.4487
1126.069, 141.0127
1127.164, 240.5981
1128.259, 203.7295
1129.353, 148.3760
1130.447, 73.28271
1131.541, 122.9624
1132.635, 133.6582
1133.729, 66.37988
1134.822, 78.10645
1135.916, 10.82666
1137.009, 76.44043
1138.102, 2.816895
1139.195, 60.05322
1140.288, 5.566895
1141.380, 49.29834
1142.473, 75.96240
1143.565, 31.75537
1144.657, 45.86963
1145.749, 55.95898
1146.841, 93.89355
1147.932, 104.2153
1149.024, 62.78906
1150.115, 81.97998
1151.206, 132.2495
1152.297, 77.54590
1153.388, 100.7827
1154.479, 125.0884
1155.569, 91.79395
1156.659, 13.07568
1157.750, 85.41162
1158.839, 73.99414
1159.929, 118.4399
1161.019, 98.08984
1162.108, 83.63574
1163.198, 180.0425
1164.287, 29.81055
1165.376, 179.7881
1166.465, 141.6836
1167.553, 88.14844
1168.642, 100.9087
1169.730, 131.9590
1170.818, 67.18066
1171.906, 51.48047
1172.994, 41.06982
1174.082, 60.67285
1175.170, 81.11475
1176.257, 16.74756
1177.344, 67.91064
1178.431, 17.67676
1179.518, 35.46240
1180.605, 53.40918
1181.691, 53.18994
1182.778, 95.54150
1183.864, 9.833496
1184.950, 23.45068
1186.036, 27.68408
1187.122, 43.66016
1188.207, 42.33789
1189.292, 86.19580
1190.378, 34.86621
1191.463, 212.6050
1192.548, 152.6123
1193.632, 75.27490
1194.717, 137.2339
1195.801, 21.48975
1196.886, 8.079102
1197.970, 72.37891
1199.054, 102.0298
1200.137, 146.4282
1201.221, 144.1890
1202.305, 83.88818
1203.388, 118.9141
1204.471, 129.6011
1205.554, 120.1069
1206.637, 152.6533
1207.719, 203.0845
1208.802, 200.8042
1209.884, 171.9292
1210.966, 203.3833
1212.048, 158.6001
1213.130, 228.1108
1214.212, 232.2544
1215.293, 150.1025
1216.374, 103.9170
1217.456, 170.6860
1218.536, 242.4219
1219.617, 288.1509
1220.698, 297.5225
1221.778, 286.3267
1222.859, 281.2666
1223.939, 198.8276
1225.019, 178.3496
1226.099, 122.8774
1227.178, 177.3149
1228.258, 272.7134
1229.337, 275.0742
1230.417, 248.3975
1231.496, 285.6816
1232.574, 195.9268
1233.653, 204.1318
1234.732, 211.2983
1235.810, 228.4238
1236.888, 204.5093
1237.966, 191.5542
