##NAMES=Epidote
##RRUFFID=R050064
##IDEAL CHEMISTRY=Ca_2_Fe^3+^Al_2_(Si_2_O_7_)(SiO_4_)O(OH)
##LOCALITY=East Xichang City, Meigu County, Sichuan Province, China
##OWNER=RRUFF
##SOURCE=Rock Currier
##DESCRIPTION=Green prismatic crystals
##STATUS=The identification of this mineral has been confirmed by X-ray diffraction and chemical analysis
##URL=rruff.info/R050064
##MEASURED CHEMISTRY=(Ca_1.99_Mn_0.01_)_Î£=2_Fe^3+^_1.00_Al_2.00_(Si_2.00_O_7_)(Si_1.00_O_4_)O(OH); 
##PIN_ID=L00552
##ORIENTATION=Laser parallel to a* (1 0 0). Fiducial mark perpendicular to laser is parallel to -b [0 -1 0]
73.319, 0.000
74.721, 0.773
76.123, 129.935
77.525, 88.068
78.926, 156.150
80.327, 238.814
81.728, 201.060
83.128, 118.788
84.529, 64.641
85.929, 9.260
87.329, 6.366
88.728, 1.355
90.128, 76.385
91.527, 123.648
92.926, 148.727
94.324, 296.068
95.723, 458.643
97.121, 592.379
98.519, 626.583
99.917, 635.735
101.314, 613.235
102.712, 512.927
104.109, 363.113
105.505, 192.177
106.902, 230.819
108.298, 195.335
109.694, 253.575
111.090, 155.853
112.486, 16.243
113.881, 150.475
115.277, 121.644
116.672, 170.891
118.066, 164.344
119.461, 198.090
120.855, 93.331
122.249, 53.400
123.643, 46.903
125.036, 0.751
126.430, 32.877
127.823, 11.012
129.216, 108.394
130.608, 197.354
132.001, 317.248
133.393, 458.605
134.785, 557.957
136.176, 753.286
137.568, 319.694
138.959, 330.994
140.350, 329.190
141.741, 427.288
143.131, 619.527
144.521, 868.664
145.911, 1258.062
147.301, 1613.452
148.691, 1703.043
150.080, 1579.081
151.469, 1294.758
152.858, 1116.529
154.247, 1182.243
155.635, 1305.877
157.024, 1690.706
158.411, 2092.045
159.799, 2811.769
161.187, 3782.753
162.574, 5133.907
163.961, 6787.163
165.348, 8763.473
166.734, 10341.750
168.121, 11243.483
169.507, 10818.452
170.893, 8901.204
172.278, 7121.166
173.664, 5480.019
175.049, 4655.906
176.434, 3777.693
177.819, 3079.370
179.203, 2297.957
180.587, 1587.455
181.971, 1067.798
183.355, 659.958
184.739, 420.983
186.122, 171.930
187.505, 16.812
188.888, 83.367
190.271, 74.635
191.653, 125.972
193.035, 140.344
194.417, 137.747
195.799, 9.817
197.180, 218.349
198.562, 584.851
199.943, 1116.323
201.324, 1782.768
202.704, 2345.182
204.084, 2719.571
205.465, 2434.930
206.844, 1943.261
208.224, 1333.565
209.603, 829.842
210.983, 552.094
212.362, 322.310
213.740, 186.438
215.119, 57.340
216.497, 19.949
217.875, 35.297
219.253, 33.413
220.631, 127.871
222.008, 85.150
223.385, 119.425
224.762, 253.696
226.139, 326.595
227.515, 493.618
228.891, 579.228
230.267, 849.771
231.643, 1114.706
233.018, 1574.457
234.394, 2177.086
235.769, 3125.764
237.144, 4476.361
238.518, 6299.224
239.893, 8981.335
241.267, 11500.889
242.641, 13651.831
244.014, 14028.895
245.388, 12334.698
246.761, 9749.194
248.134, 6962.292
249.507, 4768.233
250.879, 3175.220
252.252, 2156.065
253.624, 1476.200
254.996, 986.563
256.367, 754.126
257.739, 539.487
259.110, 374.267
260.481, 271.176
261.852, 158.329
263.222, 108.428
264.592, 42.004
265.962, 111.139
267.332, 152.760
268.702, 208.740
270.071, 371.887
271.440, 434.850
272.809, 865.897
274.178, 1199.479
275.546, 1811.441
276.915, 2218.480
278.283, 2274.941
279.650, 2182.749
281.018, 1744.117
282.385, 1622.943
283.752, 1349.650
285.119, 1425.577
286.486, 1614.311
287.852, 2090.260
289.218, 2989.338
290.584, 4347.267
291.950, 6491.572
293.316, 8394.069
294.681, 9855.742
296.046, 9948.127
297.411, 9170.831
298.775, 8513.503
300.140, 7446.184
301.504, 6255.662
302.868, 4779.071
304.231, 3474.601
305.595, 2673.148
306.958, 1966.309
308.321, 1639.269
309.684, 1249.074
311.047, 1037.796
312.409, 910.422
313.771, 811.000
315.133, 834.553
316.495, 739.100
317.856, 767.645
319.217, 764.187
320.578, 886.728
321.939, 1127.266
323.299, 1403.798
324.660, 1864.325
326.020, 2156.844
327.380, 2483.354
328.739, 2527.856
330.099, 2467.349
331.458, 2343.824
332.817, 2217.269
334.176, 2268.668
335.534, 2316.030
336.892, 2522.370
338.251, 2904.699
339.608, 3292.022
340.966, 4113.342
342.323, 5051.660
343.681, 6450.973
345.037, 8053.287
346.394, 10526.597
347.751, 13169.595
349.107, 15811.608
350.463, 18002.186
351.819, 18199.580
353.174, 17190.869
354.530, 14822.782
355.885, 11511.546
357.240, 9219.480
358.594, 6795.657
359.949, 5185.133
361.303, 3947.338
362.657, 2969.205
364.011, 2406.509
365.365, 1797.815
366.718, 1541.122
368.071, 1252.432
369.424, 961.741
370.777, 776.054
372.129, 498.368
373.481, 381.684
374.833, 207.580
376.185, 110.532
377.537, 9.844
378.888, 92.133
380.239, 62.061
381.590, 194.168
382.941, 129.129
384.291, 164.231
385.642, 56.711
386.992, 104.146
388.341, 166.858
389.691, 351.897
391.040, 399.620
392.389, 356.616
393.738, 275.687
395.087, 168.755
396.435, 115.833
397.784, 6.920
399.132, 66.985
400.479, 51.897
401.827, 67.823
403.174, 17.834
404.521, 79.909
405.868, 6.058
407.215, 27.740
408.561, 104.510
409.908, 175.240
411.254, 276.957
412.599, 452.667
413.945, 574.362
415.290, 870.063
416.636, 1107.753
417.980, 1480.435
419.325, 2073.131
420.670, 2715.615
422.014, 3918.419
423.358, 4990.802
424.702, 6420.728
426.045, 7253.257
427.389, 7243.095
428.732, 7243.687
430.075, 6728.650
431.417, 6853.864
432.760, 7717.795
434.102, 9210.016
435.444, 11342.790
436.786, 12185.587
438.127, 12658.402
439.469, 11501.248
440.810, 10504.112
442.151, 10217.007
443.492, 10679.910
444.832, 12702.841
446.172, 14965.807
447.512, 19048.777
448.852, 23671.779
450.192, 28264.818
451.531, 32957.891
452.870, 33670.996
454.209, 35154.148
455.548, 34667.328
456.887, 33280.531
458.225, 30413.754
459.563, 25027.000
460.901, 20240.260
462.238, 15023.539
463.576, 11296.832
464.913, 8650.141
466.250, 6517.472
467.587, 5224.820
468.923, 4144.184
470.259, 3498.566
471.596, 2967.954
472.931, 2526.354
474.267, 2258.768
475.603, 1909.188
476.938, 1753.617
478.273, 1632.052
479.608, 1469.494
480.942, 1534.942
482.276, 1408.400
483.611, 1445.863
484.944, 1505.333
486.278, 1615.809
487.612, 1772.291
488.945, 2094.780
490.278, 2466.274
491.611, 2769.775
492.943, 3716.288
494.276, 4717.886
495.608, 6305.471
496.940, 8713.116
498.271, 10466.831
499.603, 12700.639
500.934, 12714.713
502.265, 11488.796
503.596, 9662.727
504.927, 7587.129
506.257, 6366.968
507.587, 5330.793
508.917, 4958.575
510.247, 4588.500
511.577, 3979.375
512.906, 3417.248
514.235, 2617.053
515.564, 1895.898
516.892, 1474.843
518.221, 1167.777
519.549, 1057.725
520.877, 1038.702
522.205, 1186.693
523.533, 1389.688
524.860, 1413.688
526.187, 1370.691
527.514, 1083.698
528.841, 868.709
530.167, 667.723
531.493, 490.073
532.820, 359.760
534.145, 230.783
535.471, 161.711
536.796, 98.254
538.122, 57.400
539.447, 33.608
540.771, 14.055
542.096, 22.456
543.420, 33.219
544.744, 46.850
546.068, 116.288
547.392, 79.078
548.715, 241.153
550.039, 250.349
551.362, 395.776
552.684, 570.091
554.007, 738.691
555.329, 977.188
556.652, 1324.333
557.973, 1927.281
559.295, 2666.797
560.617, 3837.918
561.938, 5958.631
563.259, 8423.226
564.580, 12156.361
565.901, 14370.190
567.221, 13918.049
568.541, 11922.596
569.861, 8161.088
571.181, 5570.548
572.501, 3931.085
573.820, 2695.105
575.139, 2302.465
576.458, 1761.031
577.777, 1699.092
579.095, 1707.780
580.414, 1786.278
581.732, 2010.885
583.049, 2329.669
584.367, 3077.256
585.685, 3608.699
587.002, 4306.150
588.319, 4915.036
589.636, 4957.541
590.952, 5139.491
592.268, 5283.242
593.585, 5817.307
594.900, 6670.247
596.216, 7711.812
597.532, 9080.569
598.847, 9505.332
600.162, 9323.601
601.477, 8668.332
602.792, 7414.553
604.106, 6637.663
605.420, 5564.440
606.734, 4897.382
608.048, 4503.656
609.361, 4163.303
610.675, 4248.423
611.988, 4199.309
613.301, 4431.104
614.614, 4449.538
615.926, 4066.737
617.238, 3861.981
618.550, 3209.374
619.862, 2793.107
621.174, 2347.247
622.485, 1900.077
623.797, 1550.227
625.108, 1258.859
626.418, 1077.807
627.729, 902.197
629.039, 796.798
630.349, 709.142
631.659, 580.408
632.969, 518.917
634.279, 475.427
635.588, 393.739
636.897, 366.377
638.206, 323.688
639.515, 287.395
640.823, 277.873
642.131, 244.149
643.439, 219.543
644.747, 182.775
646.055, 171.000
647.362, 125.407
648.669, 108.700
649.976, 123.011
651.283, 77.210
652.589, 82.024
653.896, 69.398
655.202, 55.360
656.508, 34.426
657.814, 2.624
659.119, 2.398
660.424, 11.434
661.729, 10.687
663.034, 37.170
664.339, 42.012
665.643, 53.837
666.947, 23.647
668.251, 39.441
669.555, 47.578
670.859, 77.978
672.162, 81.723
673.465, 74.452
674.768, 94.165
676.071, 126.546
677.373, 130.542
678.676, 235.207
679.978, 276.854
681.280, 376.485
682.581, 543.100
683.883, 626.697
685.184, 795.278
686.485, 1003.842
687.786, 1163.388
689.087, 1418.918
690.387, 1392.430
691.687, 1510.925
692.987, 1395.403
694.287, 1110.864
695.586, 1014.313
696.886, 695.764
698.185, 614.977
699.484, 453.453
700.783, 364.938
702.081, 325.443
703.379, 208.941
704.677, 180.422
705.975, 152.885
707.273, 68.328
708.570, 96.751
709.868, 30.153
711.165, 45.531
712.462, 80.888
713.758, 23.515
715.055, 71.542
716.351, 21.150
717.647, 7.872
718.943, 14.386
720.238, 21.375
721.533, 34.838
722.829, 49.969
724.124, 14.169
725.418, 50.718
726.713, 65.662
728.007, 18.674
729.301, 73.727
730.595, 1.148
731.889, 2.009
733.182, 89.200
734.476, 33.529
735.769, 31.768
737.061, 33.114
738.354, 51.511
739.647, 47.970
740.939, 2.511
742.231, 29.040
743.523, 35.642
744.814, 13.298
746.106, 51.995
747.397, 16.755
748.688, 21.560
749.978, 35.411
751.269, 29.317
752.559, 48.273
753.849, 32.709
755.139, 40.334
756.429, 37.565
757.719, 39.561
759.008, 53.744
760.297, 26.010
761.586, 19.264
762.875, 40.583
764.163, 51.040
765.451, 22.362
766.739, 2.812
768.027, 49.299
769.315, 4.152
770.602, 8.569
771.890, 25.045
773.177, 11.708
774.463, 1.413
775.750, 8.845
777.036, 18.072
778.323, 8.728
779.609, 28.431
780.894, 12.565
782.180, 13.330
783.465, 27.732
784.750, 2.769
786.035, 12.227
787.320, 40.735
788.605, 37.673
789.889, 81.586
791.173, 19.476
792.457, 75.339
793.741, 15.179
795.024, 28.993
796.307, 73.781
797.591, 62.547
798.873, 57.289
800.156, 76.007
801.439, 28.704
802.721, 52.376
804.003, 1.975
805.285, 67.641
806.566, 98.155
807.848, 75.667
809.129, 114.100
810.410, 83.452
811.691, 106.692
812.971, 158.649
814.252, 49.587
815.532, 164.660
816.812, 138.243
818.092, 128.379
819.371, 158.513
820.651, 149.674
821.930, 168.687
823.209, 131.743
824.488, 213.812
825.766, 256.986
827.045, 207.154
828.323, 245.270
829.601, 270.446
830.878, 292.659
832.156, 325.852
833.433, 313.027
834.710, 377.183
835.987, 396.321
837.264, 327.441
838.540, 427.542
839.817, 435.625
841.093, 524.691
842.369, 514.738
843.644, 550.768
844.920, 622.780
846.195, 612.774
847.470, 690.751
848.745, 784.710
850.020, 817.652
851.294, 951.579
852.568, 991.491
853.842, 1031.387
855.116, 1266.265
856.390, 1351.126
857.663, 1609.970
858.936, 1821.798
860.209, 2035.607
861.482, 2444.176
862.755, 2695.843
864.027, 3158.214
865.299, 3413.631
866.571, 3825.177
867.843, 4259.473
869.115, 4364.951
870.386, 4821.447
871.657, 5115.716
872.928, 5242.903
874.199, 5903.260
875.470, 5867.498
876.740, 6492.975
878.010, 6831.083
879.280, 6971.437
880.550, 7423.813
881.820, 7316.098
883.089, 7635.893
884.358, 7870.334
885.627, 8027.562
886.896, 8320.281
888.164, 8179.367
889.433, 7738.632
890.701, 7024.781
891.969, 6037.750
893.236, 5113.912
894.504, 4378.219
895.771, 3699.521
897.038, 3297.385
898.305, 2819.641
899.572, 2578.448
900.838, 2355.447
902.105, 2182.127
903.371, 2157.922
904.637, 2012.084
905.902, 1989.042
907.168, 2081.988
908.433, 1949.427
909.698, 2079.392
910.963, 2056.860
912.228, 2250.430
913.492, 2373.321
914.757, 2345.040
916.021, 2549.415
917.285, 2487.410
918.548, 2430.921
919.812, 2303.656
921.075, 1927.472
922.338, 1745.643
923.601, 1506.040
924.864, 1185.384
926.126, 1088.567
927.388, 882.399
928.650, 753.816
929.912, 697.532
931.174, 555.918
932.435, 596.812
933.697, 502.379
934.958, 465.494
936.218, 447.389
937.479, 405.531
938.739, 386.744
940.000, 354.704
941.260, 276.654
942.520, 344.793
943.779, 264.597
945.039, 287.717
946.298, 262.432
947.557, 244.365
948.816, 254.494
950.074, 219.585
951.333, 244.659
952.591, 306.827
953.849, 178.803
955.107, 289.882
956.365, 258.936
957.622, 238.091
958.879, 319.388
960.136, 251.596
961.393, 332.964
962.650, 299.227
963.906, 243.595
965.162, 388.985
966.418, 360.139
967.674, 466.545
968.930, 482.961
970.185, 524.381
971.441, 684.806
972.696, 733.240
973.950, 927.678
975.205, 1196.122
976.459, 1353.578
977.714, 1773.038
978.968, 2057.503
980.222, 2325.973
981.475, 2415.708
982.729, 2440.932
983.982, 2265.420
985.235, 1925.915
986.488, 1438.415
987.740, 1278.918
988.993, 882.430
990.245, 730.947
991.497, 664.469
992.749, 417.005
994.000, 398.832
995.252, 317.070
996.503, 270.650
997.754, 279.211
999.005, 162.778
1000.256, 211.352
1001.506, 213.375
1002.756, 133.962
1004.006, 227.927
1005.256, 178.528
1006.506, 150.134
1007.755, 180.749
1009.005, 184.405
1010.254, 208.938
1011.502, 226.107
1012.751, 298.749
1014.000, 389.659
1015.248, 487.550
1016.496, 634.223
1017.744, 866.855
1018.991, 1022.546
1020.239, 1189.288
1021.486, 1154.946
1022.733, 1094.691
1023.980, 950.827
1025.227, 694.601
1026.473, 581.387
1027.719, 450.075
1028.965, 355.527
1030.211, 375.391
1031.457, 265.286
1032.702, 185.200
1033.948, 245.154
1035.193, 185.121
1036.438, 219.111
1037.682, 206.140
1038.927, 201.178
1040.171, 255.249
1041.415, 255.343
1042.659, 245.465
1043.903, 268.617
1045.146, 201.783
1046.390, 263.972
1047.633, 217.531
1048.876, 181.763
1050.118, 261.023
1051.361, 153.592
1052.603, 267.893
1053.845, 247.219
1055.087, 269.568
1056.329, 356.946
1057.571, 375.238
1058.812, 504.001
1060.053, 646.424
1061.294, 704.873
1062.535, 915.352
1063.775, 1001.841
1065.016, 908.350
1066.256, 972.885
1067.496, 763.431
1068.736, 799.997
1069.975, 675.579
1071.214, 636.447
1072.454, 700.072
1073.693, 613.709
1074.931, 721.369
1076.170, 833.046
1077.408, 855.813
1078.647, 1042.519
1079.885, 1181.236
1081.122, 1516.970
1082.360, 2030.715
1083.597, 2453.471
1084.835, 3362.433
1086.072, 4154.218
1087.308, 4312.867
1088.545, 4160.683
1089.781, 3166.509
1091.018, 2352.075
1092.254, 1804.920
1093.490, 1235.795
1094.725, 961.659
1095.961, 815.533
1097.196, 566.508
1098.431, 569.705
1099.666, 422.606
1100.900, 409.066
1102.135, 393.286
1103.369, 328.245
1104.603, 327.632
1105.837, 269.581
1107.071, 239.351
1108.304, 294.339
1109.538, 235.311
1110.771, 166.443
1112.004, 225.487
1113.236, 129.520
1114.469, 163.888
1115.701, 146.896
1116.933, 143.422
1118.165, 181.443
1119.397, 57.469
1120.629, 132.533
1121.860, 168.659
1123.091, 122.704
1124.322, 264.453
1125.553, 233.510
1126.783, 198.742
1128.014, 165.882
1129.244, 145.190
1130.474, 106.059
1131.704, 117.196
1132.933, 112.599
1134.163, 120.760
1135.392, 35.863
1136.621, 77.587
1137.850, 113.700
1139.079, 2.883
1140.307, 45.130
1141.535, 56.311
1142.763, 29.445
1143.991, 69.310
1145.219, 10.454
1146.446, 30.614
1147.674, 36.916
1148.901, 22.911
1150.128, 45.664
1151.354, 20.107
1152.581, 11.076
1153.807, 13.309
1155.033, 1.479
1156.259, 3.291
1157.485, 34.248
1158.710, 21.366
1159.936, 23.813
1161.161, 14.646
1162.386, 13.378
1163.611, 34.768
1164.835, 54.892
1166.060, 15.529
1167.284, 2.088
1168.508, 31.897
1169.732, 52.505
1170.955, 17.020
1172.179, 21.160
1173.402, 50.881
1174.625, 29.237
1175.848, 23.060
1177.070, 49.298
1178.293, 12.496
1179.515, 36.750
1180.737, 40.524
1181.959, 5.701
1183.181, 47.785
1184.402, 17.376
1185.624, 65.555
1186.845, 41.951
1188.066, 31.130
1189.286, 85.310
1190.507, 21.153
1191.727, 10.333
1192.947, 57.519
1194.167, 47.219
1195.387, 20.938
1196.607, 61.189
1197.826, 8.597
1199.045, 8.554
1200.264, 41.992
1201.483, 4.141
1202.702, 38.288
1203.920, 36.567
1205.138, 8.441
1206.356, 61.680
1207.574, 17.896
1208.792, 72.013
1210.009, 16.127
1211.227, 43.239
1212.444, 37.348
1213.661, 22.458
1214.877, 13.562
1216.094, 31.663
1217.310, 21.239
1218.526, 48.844
1219.742, 57.924
1220.958, 21.001
1222.173, 62.075
1223.389, 2.145
1224.604, 35.210
1225.819, 61.271
1227.034, 35.329
1228.248, 47.497
1229.463, 38.432
1230.677, 1.479
1231.891, 58.518
1233.105, 9.446
1234.318, 32.635
1235.532, 47.654
1236.745, 6.332
1237.958, 30.668
1239.171, 16.667
1240.384, 22.664
1241.596, 42.647
1242.809, 10.383
1244.021, 13.423
1245.233, 58.526
1246.444, 32.535
1247.656, 4.379
1248.867, 21.288
1250.079, 2.187
1251.290, 82.078
1252.500, 19.040
1253.711, 26.829
1254.921, 33.687
1256.132, 23.461
1257.342, 21.373
1258.552, 26.200
1259.761, 9.978
1260.971, 63.831
1262.180, 4.624
1263.389, 49.408
1264.598, 80.184
1265.807, 3.045
1267.015, 20.744
1268.223, 53.496
1269.432, 12.758
1270.640, 57.973
1271.847, 16.697
1273.055, 28.526
1274.262, 39.228
1275.470, 0.096
1276.677, 35.600
1277.883, 14.256
1279.090, 33.896
1280.296, 66.537
1281.503, 8.144
1282.709, 52.731
1283.915, 36.325
1285.120, 16.131
1286.326, 40.625
1287.531, 86.139
1288.736, 7.645
1289.941, 70.584
1291.146, 53.070
1292.350, 25.547
1293.555, 53.014
1294.759, 16.029
1295.963, 41.478
1297.167, 52.546
1298.370, 41.970
1299.574, 63.434
1300.777, 45.846
1301.980, 19.214
1303.183, 25.608
1304.386, 60.553
1305.588, 19.928
1306.790, 41.188
1307.993, 5.313
1309.195, 29.654
1310.396, 23.033
1311.598, 31.647
1312.799, 58.622
1314.000, 23.982
1315.201, 21.259
1316.402, 60.226
1317.603, 13.484
1318.803, 9.729
1320.003, 61.143
1321.203, 32.261
1322.403, 55.965
1323.603, 43.242
1324.802, 6.578
1326.002, 98.585
1327.201, 11.261
1328.400, 17.872
1329.599, 64.994
1330.797, 15.893
1331.995, 79.200
1333.194, 92.284
1334.392, 11.357
1335.589, 73.418
1336.787, 64.465
1337.985, 46.503
1339.182, 69.226
1340.379, 42.247
1341.576, 51.259
1342.772, 68.974
1343.969, 22.982
1345.165, 85.964
1346.361, 91.937
1347.557, 68.902
1348.753, 101.955
1349.949, 69.579
1351.144, 41.517
1352.339, 133.494
1353.534, 65.412
1354.729, 103.323
1355.924, 103.265
1357.118, 65.160
1358.312, 127.047
1359.506, 128.927
1360.700, 90.800
1361.894, 165.407
1363.088, 75.398
1364.281, 101.250
1365.474, 165.106
1366.667, 80.027
1367.860, 159.783
1369.052, 144.607
1370.245, 118.425
1371.437, 140.240
1372.629, 102.325
1373.821, 93.121
1375.013, 156.717
1376.204, 86.617
1377.395, 53.498
1378.586, 149.226
1379.777, 111.211
1380.968, 154.702
1382.159, 103.120
1383.349, 92.547
1384.539, 167.502
1385.729, 107.242
1386.919, 71.237
1388.109, 136.088
1389.298, 79.447
1390.487, 113.417
1391.676, 150.557
1392.865, 102.294
1394.054, 111.932
1395.242, 77.969
1396.431, 95.030
1397.619, 99.252
1398.807, 71.088
1399.995, 84.003
1401.182, 93.648
1402.370, 103.621
1403.557, 96.920
1404.744, 134.302
1405.931, 61.207
1407.118, 123.265
1408.304, 86.992
1409.490, 51.359
1410.676, 126.142
1411.862, 66.936
1413.048, 86.260
1414.234, 122.839
1415.419, 32.090
1416.604, 130.422
1417.789, 89.568
1418.974, 46.986
1420.159, 88.303
1421.343, 109.280
1422.528, 43.462
1423.712, 104.940
1424.896, 61.235
1426.079, 38.399
1427.263, 121.614
1428.446, 3.062
1429.629, 65.479
1430.812, 74.734
1431.995, 3.008
1433.178, 66.287
1434.360, 88.192
1435.543, 56.535
1436.725, 94.888
1437.907, 70.062
1439.088, 112.376
1440.270, 132.663
1441.451, 30.935
1442.632, 92.196
1443.813, 96.444
1444.994, 49.670
1446.175, 47.875
1447.355, 109.057
1448.535, 5.211
1449.715, 45.344
1450.895, 83.353
1452.075, 71.458
1453.255, 67.531
1454.434, 45.623
1455.613, 111.702
1456.792, 44.797
1457.971, 15.884
1459.149, 81.963
1460.328, 85.029
1461.506, 21.088
1462.684, 77.126
1463.862, 27.165
1465.040, 12.199
1466.217, 76.133
1467.395, 59.114
1468.572, 53.069
1469.749, 48.709
1470.925, 53.887
1472.102, 91.677
1473.278, 87.728
1474.455, 65.846
1475.631, 104.467
1476.807, 70.780
1477.982, 38.676
1479.158, 74.956
1480.333, 19.232
1481.508, 28.503
1482.683, 58.643
1483.858, 30.903
1485.033, 25.163
1486.207, 36.821
1487.381, 33.073
1488.555, 40.242
1489.729, 53.788
1490.903, 21.514
1492.076, 88.534
1493.250, 16.685
1494.423, 40.531
1495.596, 98.825
1496.769, 19.159
1497.941, 94.519
1499.114, 68.910
1500.286, 37.362
1501.458, 81.594
1502.630, 84.099
1503.802, 1.530
1504.973, 87.128
1506.145, 28.764
1507.316, 12.216
1508.487, 125.510
1509.657, 54.906
