##NAMES=Epidote
##RRUFFID=R050303
##IDEAL CHEMISTRY=Ca_2_Fe^3+^Al_2_(Si_2_O_7_)(SiO_4_)O(OH)
##LOCALITY=San Martin mine, Zacatecas, Mexico
##OWNER=RRUFF
##SOURCE=Eugene Schlepp
##DESCRIPTION=Green elongated prismatic crystals
##STATUS=The identification of this mineral has been confirmed by X-ray diffraction and chemical analysis
##URL=rruff.info/R050303
##MEASURED CHEMISTRY=Ca_2.00_Al_2.00_(Fe^3+^_0.97_Al_0.03_)(SiO_4_)(Si_2_O_7_)O(OH)
##PIN_ID=L01741
##ORIENTATION=Laser parallel to -a* (-1 0 0). Fiducial mark perpendicular to laser is parallel to -b [0 -1 0]
53.91000, 0.0000000E+00
55.14900, 82.97046
56.38700, 141.0376
57.62600, 241.5278
58.86400, 324.4263
60.10300, 481.8949
61.34100, 486.8589
62.57900, 268.1113
63.81700, 113.6765
65.05400, 16.83984
66.29200, 79.96436
67.52900, 113.2400
68.76700, 90.23608
70.00400, 90.79150
71.24100, 101.2286
72.47700, 279.3389
73.71400, 509.0720
74.95100, 639.7861
76.18700, 1036.581
77.42300, 1354.161
78.65900, 1929.283
79.89500, 2588.745
81.13100, 3549.375
82.36700, 4817.012
83.60200, 6081.503
84.83700, 7359.713
86.07200, 8443.512
87.30800, 9638.782
88.54200, 10175.41
89.77700, 10302.31
91.01200, 9846.361
92.24600, 9093.443
93.48000, 7980.383
94.71400, 7058.023
95.94800, 6249.243
97.18200, 5523.953
98.41600, 4972.075
99.64900, 4638.579
100.8830, 4200.470
102.1160, 3873.744
103.3490, 3797.396
104.5820, 3942.420
105.8150, 4130.803
107.0470, 4773.508
108.2800, 4399.108
109.5120, 5156.681
110.7440, 3967.061
111.9760, 3833.588
113.2080, 3830.226
114.4400, 3825.942
115.6710, 3941.706
116.9030, 4080.494
118.1340, 4057.276
119.3650, 3863.029
120.5960, 3975.735
121.8270, 4317.368
123.0580, 4676.910
124.2880, 5173.342
125.5190, 5458.647
126.7490, 6181.805
127.9790, 6863.648
129.2090, 7766.685
130.4390, 8284.878
131.6680, 8055.202
132.8980, 7489.635
134.1270, 6824.103
135.3560, 6612.663
136.5850, 6344.497
137.8140, 6336.658
139.0430, 6325.174
140.2710, 6706.066
141.5000, 6977.353
142.7280, 7597.083
143.9560, 8321.628
145.1840, 8171.171
146.4120, 7994.689
147.6390, 7573.137
148.8670, 7500.478
150.0940, 7652.702
151.3210, 8134.472
152.5490, 8802.698
153.7750, 9967.496
155.0020, 11488.13
156.2290, 13176.54
157.4550, 15317.55
158.6810, 17726.93
159.9080, 20226.70
161.1340, 23412.84
162.3590, 25993.36
163.5850, 27921.26
164.8110, 27777.54
166.0360, 26138.20
167.2610, 23803.24
168.4860, 21580.67
169.7110, 19095.49
170.9360, 16964.68
172.1610, 15199.25
173.3850, 13287.22
174.6100, 11471.56
175.8340, 9838.294
177.0580, 8427.405
178.2820, 7363.896
179.5050, 6452.768
180.7290, 5792.021
181.9520, 5196.646
183.1760, 4829.648
184.3990, 4366.023
185.6220, 4195.771
186.8450, 4018.892
188.0670, 4055.379
189.2900, 3936.231
190.5120, 3881.454
191.7340, 4127.037
192.9560, 4428.983
194.1780, 4528.290
195.4000, 4912.955
196.6220, 5327.975
197.8430, 5738.352
199.0640, 5841.080
200.2860, 5868.640
201.5070, 5745.554
202.7270, 5433.531
203.9480, 4845.056
205.1690, 4311.176
206.3890, 4006.036
207.6090, 3564.158
208.8290, 3256.311
210.0490, 3193.295
211.2690, 3173.807
212.4890, 3055.041
213.7080, 2939.312
214.9280, 3105.164
216.1470, 3214.930
217.3660, 3277.774
218.5850, 3546.289
219.8030, 3659.447
221.0220, 3839.227
222.2400, 3912.609
223.4590, 4703.575
224.6770, 4940.107
225.8950, 5554.190
227.1120, 6424.808
228.3300, 7465.946
229.5480, 8694.593
230.7650, 10334.17
231.9820, 12433.81
233.1990, 14846.10
234.4160, 17814.47
235.6330, 20440.24
236.8490, 23669.48
238.0660, 26347.50
239.2820, 27894.34
240.4980, 27891.13
241.7140, 25997.40
242.9300, 22582.77
244.1460, 19034.72
245.3610, 15506.26
246.5770, 12371.70
247.7920, 10189.66
249.0070, 8054.940
250.2220, 6674.350
251.4370, 5173.302
252.6510, 4369.253
253.8660, 3759.801
255.0800, 3110.139
256.2940, 2891.507
257.5080, 2782.409
258.7220, 2467.961
259.9360, 2558.143
261.1490, 2173.161
262.3630, 2126.479
263.5760, 2002.093
264.7890, 2113.998
266.0020, 2168.189
267.2150, 2252.665
268.4270, 2513.420
269.6400, 2887.451
270.8520, 2899.756
272.0640, 3341.330
273.2760, 3593.170
274.4880, 3543.274
275.7000, 3887.643
276.9120, 3926.274
278.1230, 4523.170
279.3340, 5095.328
280.5450, 5979.754
281.7560, 7119.443
282.9670, 8423.397
284.1780, 10002.61
285.3880, 11645.09
286.5980, 13827.84
287.8090, 15938.84
289.0190, 18024.10
290.2290, 19475.62
291.4380, 19527.40
292.6480, 18459.42
293.8570, 16609.68
295.0670, 14281.20
296.2760, 12170.95
297.4850, 10378.93
298.6930, 8623.145
299.9020, 7203.594
301.1110, 6035.270
302.3190, 5111.166
303.5270, 4420.287
304.7350, 3831.629
305.9430, 3378.188
307.1510, 2929.970
308.3580, 2653.969
309.5660, 2497.184
310.7730, 2392.617
311.9800, 2493.265
313.1870, 2821.126
314.3940, 2932.199
315.6010, 3421.487
316.8070, 3937.984
318.0130, 4507.693
319.2200, 5088.609
320.4260, 5621.736
321.6310, 6247.068
322.8370, 6835.608
324.0430, 7356.350
325.2480, 7183.297
326.4540, 7233.445
327.6590, 7524.797
328.8640, 7567.348
330.0680, 7781.098
331.2730, 8378.044
332.4780, 9125.190
333.6820, 10315.53
334.8860, 11607.07
336.0900, 13573.80
337.2940, 16020.72
338.4980, 18619.84
339.7010, 21866.15
340.9050, 25636.64
342.1080, 29433.33
343.3110, 33038.20
344.5140, 36248.26
345.7170, 38742.51
346.9200, 38661.01
348.1220, 37054.78
349.3240, 33948.82
350.5270, 29641.14
351.7290, 25159.71
352.9310, 21048.57
354.1320, 17271.70
355.3340, 14045.11
356.5350, 11143.79
357.7370, 9009.767
358.9380, 7257.030
360.1390, 5906.576
361.3400, 4702.389
362.5400, 3834.451
363.7410, 3077.764
364.9410, 2352.516
366.1410, 1861.130
367.3410, 1348.176
368.5410, 1102.459
369.7410, 847.9795
370.9400, 479.7363
372.1400, 156.7246
373.3390, 122.9424
374.5380, 102.6104
375.7370, 357.9717
376.9360, 445.2393
378.1350, 498.4463
379.3330, 450.6162
380.5310, 447.7305
381.7300, 452.1289
382.9280, 413.9688
384.1260, 422.7744
385.3230, 399.6895
386.5210, 346.5488
387.7180, 413.3281
388.9160, 393.0596
390.1130, 401.7451
391.3100, 315.3916
392.5060, 331.7080
393.7030, 385.0068
394.9000, 401.3809
396.0960, 405.4873
397.2920, 400.4092
398.4880, 161.9609
399.6840, 323.8047
400.8800, 345.8955
402.0750, 98.16309
403.2710, 88.68555
404.4660, 194.7109
405.6610, 376.9199
406.8560, 593.3105
408.0510, 1021.883
409.2450, 1304.633
410.4400, 1892.562
411.6340, 2504.670
412.8280, 3203.952
414.0220, 4145.413
415.2160, 5123.045
416.4100, 5920.852
417.6030, 7212.830
418.7970, 8879.980
419.9900, 9937.302
421.1830, 11330.79
422.3760, 11903.45
423.5690, 12852.28
424.7610, 13277.28
425.9540, 14036.45
427.1460, 15580.80
428.3380, 16702.33
429.5300, 18243.06
430.7220, 20066.97
431.9140, 21445.06
433.1050, 22187.37
434.2970, 22391.88
435.4880, 21927.61
436.6790, 22201.53
437.8700, 22819.65
439.0610, 24046.94
440.2510, 25924.42
441.4420, 29453.09
442.6320, 32636.99
443.8220, 37423.11
445.0120, 41242.41
446.2020, 44735.95
447.3910, 46156.70
448.5810, 45467.68
449.7700, 43056.87
450.9600, 39565.22
452.1490, 36471.74
453.3370, 33502.43
454.5260, 29942.30
455.7150, 26535.34
456.9030, 22725.58
458.0910, 19408.99
459.2800, 15909.61
460.4670, 13695.41
461.6550, 11189.40
462.8430, 9527.559
464.0300, 7955.869
465.2180, 6883.340
466.4050, 5906.955
467.5920, 5168.711
468.7790, 4567.611
469.9650, 4367.691
471.1520, 4012.957
472.3380, 3659.359
473.5250, 3602.927
474.7110, 3547.649
475.8970, 3611.509
477.0820, 3747.661
478.2680, 3988.726
479.4540, 4254.082
480.6390, 4713.570
481.8240, 5195.223
483.0090, 5784.005
484.1940, 6650.932
485.3780, 7700.990
486.5630, 8882.173
487.7470, 10193.50
488.9320, 11750.96
490.1160, 13597.56
491.3000, 15345.27
492.4830, 17336.10
493.6670, 19203.04
494.8500, 20444.12
496.0340, 21419.33
497.2170, 21657.65
498.4000, 20669.10
499.5820, 19460.64
500.7650, 17836.29
501.9480, 16310.04
503.1300, 14649.89
504.3120, 13498.85
505.4940, 12417.91
506.6760, 11346.75
507.8580, 9853.009
509.0390, 8461.359
510.2210, 7095.801
511.4020, 5813.352
512.5830, 4703.439
513.7640, 4175.149
514.9450, 3610.980
516.1250, 3296.926
517.3060, 3299.085
518.4860, 3329.854
519.6660, 3326.170
520.8460, 3147.941
522.0260, 2979.245
523.2060, 2680.619
524.3850, 1997.940
525.5650, 1780.385
526.7440, 1452.784
527.9230, 1019.801
529.1020, 714.8057
530.2810, 587.8984
531.4590, 368.7578
532.6380, 187.9248
533.8160, 1.981445
534.9940, 110.7422
536.1720, 216.4102
537.3500, 250.0898
538.5270, 282.4814
539.7050, 239.1309
540.8820, 94.22754
542.0590, 51.98828
543.2360, 303.0879
544.4130, 497.4463
545.5900, 680.4766
546.7660, 946.5879
547.9430, 1421.773
549.1190, 1877.031
550.2950, 2541.359
551.4710, 3570.760
552.6470, 4876.229
553.8220, 6377.764
554.9980, 8601.370
556.1730, 10451.04
557.3480, 13244.77
558.5230, 16108.57
559.6980, 18996.44
560.8730, 20941.36
562.0470, 22087.34
563.2220, 21329.39
564.3960, 18343.11
565.5700, 14494.31
566.7440, 11331.58
567.9170, 8701.911
569.0910, 6959.432
570.2640, 5446.709
571.4380, 4729.703
572.6110, 4067.398
573.7840, 3948.197
574.9570, 3880.602
576.1290, 4085.469
577.3020, 4341.859
578.4740, 5012.387
579.6460, 5489.540
580.8180, 6068.511
581.9900, 6654.609
583.1620, 7119.835
584.3330, 7786.310
585.5040, 8489.201
586.6760, 8974.938
587.8470, 9716.658
589.0180, 10139.12
590.1880, 11491.57
591.3590, 12732.53
592.5290, 13583.25
593.7000, 14560.44
594.8700, 15073.69
596.0400, 15008.83
597.2090, 14554.95
598.3790, 13489.38
599.5490, 12474.13
600.7180, 11395.34
601.8870, 10082.83
603.0560, 9284.625
604.2250, 8639.159
605.3940, 8155.047
606.5620, 7751.443
607.7300, 7223.459
608.8990, 7045.453
610.0670, 6523.322
611.2350, 6412.096
612.4020, 5869.271
613.5700, 5260.572
614.7370, 4471.895
615.9050, 4016.206
617.0720, 3646.740
618.2390, 3016.020
619.4060, 2608.137
620.5720, 2297.570
621.7390, 2156.324
622.9050, 1876.152
624.0710, 1700.901
625.2370, 1266.096
626.4030, 1266.735
627.5690, 1093.541
628.7340, 864.6797
629.9000, 853.1553
631.0650, 685.2305
632.2300, 594.0625
633.3950, 560.4609
634.5600, 606.8428
635.7240, 592.4531
636.8890, 503.9102
638.0530, 362.7803
639.2170, 333.8965
640.3810, 355.4629
641.5450, 467.7451
642.7080, 379.1562
643.8720, 272.1768
645.0350, 387.7773
646.1980, 180.6221
647.3610, 304.5859
648.5240, 436.6113
649.6870, 263.5410
650.8490, 250.6836
652.0120, 198.1787
653.1740, 291.2207
654.3360, 247.0928
655.4980, 239.6514
656.6600, 131.4043
657.8210, 180.7998
658.9830, 143.1533
660.1440, 143.6504
661.3050, 123.9375
662.4660, 87.23047
663.6270, 250.5361
664.7870, 205.8838
665.9480, 173.5068
667.1080, 137.9082
668.2680, 114.3252
669.4280, 148.7412
670.5880, 236.6865
671.7480, 445.8213
672.9070, 477.3154
674.0670, 680.5664
675.2260, 766.8760
676.3850, 819.3291
677.5440, 914.5723
678.7030, 987.6855
679.8610, 1032.480
681.0200, 1546.663
682.1780, 1590.151
683.3360, 1768.873
684.4940, 1777.577
685.6520, 1897.685
686.8090, 1842.838
687.9670, 1860.388
689.1240, 1740.885
690.2810, 1224.328
691.4380, 1152.716
692.5950, 1024.049
693.7520, 783.3252
694.9080, 729.5449
696.0650, 593.4092
697.2210, 516.8145
698.3770, 411.8613
699.5330, 361.8496
700.6880, 275.7793
701.8440, 289.6494
702.9990, 192.4590
704.1550, 160.2021
705.3100, 259.8711
706.4650, 26.47852
707.6190, 95.98340
708.7740, 57.59473
709.9290, 0.3173830
711.0830, 54.84277
712.2370, 97.09082
713.3910, 72.18945
714.5450, 164.4414
715.6980, 35.89648
716.8520, 54.48730
718.0050, 13.22461
719.1580, 27.91211
720.3110, 62.05762
721.4640, 210.1797
722.6170, 101.5293
723.7700, 155.0518
724.9220, 151.7773
726.0740, 182.7002
727.2260, 161.8418
728.3780, 177.1885
729.5300, 76.25000
730.6810, 36.40723
731.8330, 27.79492
732.9840, 45.10938
734.1350, 10.16113
735.2860, 122.3408
736.4370, 31.70508
737.5880, 164.2090
738.7380, 107.9219
739.8880, 48.81348
741.0390, 69.85059
742.1890, 49.95215
743.3380, 8.346680
744.4880, 113.2305
745.6380, 74.71582
746.7870, 75.10547
747.9360, 89.59961
749.0850, 136.4736
750.2340, 127.4609
751.3830, 50.69238
752.5310, 19.99121
753.6800, 50.58008
754.8280, 56.94824
755.9760, 101.6250
757.1240, 68.20117
758.2720, 94.53027
759.4190, 80.55957
760.5670, 67.19336
761.7140, 19.14941
762.8610, 46.38379
764.0080, 143.8184
765.1550, 55.83008
766.3020, 43.37988
767.4480, 21.50879
768.5950, 191.4814
769.7410, 216.3926
770.8870, 144.2266
772.0330, 42.02051
773.1780, 15.39746
774.3240, 62.11035
775.4690, 36.52637
776.6140, 152.8477
777.7590, 213.0869
778.9040, 242.2529
780.0490, 109.3447
781.1940, 141.3555
782.3380, 91.28516
783.4820, 73.12891
784.6260, 128.2109
785.7700, 242.8867
786.9140, 255.4932
788.0580, 101.0303
789.2010, 337.4717
790.3450, 203.3965
791.4880, 222.7148
792.6310, 285.9297
793.7730, 227.0439
794.9160, 299.5186
796.0590, 310.8291
797.2010, 279.4189
798.3430, 334.7744
799.4850, 368.0098
800.6270, 344.9863
801.7690, 341.6738
802.9100, 265.8584
804.0520, 334.5479
805.1930, 433.5557
806.3340, 489.8955
807.4750, 438.9531
808.6160, 264.0566
809.7560, 403.3379
810.8970, 421.5566
812.0370, 601.7354
813.1770, 611.8945
814.3170, 474.0566
815.4570, 536.2246
816.5960, 508.4062
817.7360, 707.5879
818.8750, 743.7383
820.0140, 837.8496
821.1530, 585.8965
822.2920, 705.8828
823.4310, 761.8066
824.5690, 916.6689
825.7070, 947.2598
826.8460, 896.2090
827.9840, 1021.888
829.1220, 1115.508
830.2590, 1134.259
831.3970, 1265.568
832.5340, 1139.011
833.6710, 1148.394
834.8080, 1161.720
835.9450, 1226.209
837.0820, 1551.200
838.2190, 1508.355
839.3550, 1605.455
840.4910, 1841.888
841.6270, 1858.822
842.7630, 1791.710
843.8990, 2227.528
845.0350, 2152.160
846.1700, 2394.035
847.3060, 2561.193
848.4410, 2891.648
849.5760, 3213.997
850.7100, 3358.740
851.8450, 3709.020
852.9800, 3857.771
854.1140, 4288.381
855.2480, 4726.360
856.3820, 5264.516
857.5160, 5778.543
858.6500, 6268.435
859.7830, 6904.070
860.9170, 7607.285
862.0500, 8175.648
863.1830, 8723.011
864.3160, 9516.636
865.4480, 10359.26
866.5810, 10993.36
867.7130, 11813.70
868.8460, 12727.55
869.9780, 13759.34
871.1100, 14479.22
872.2410, 15638.12
873.3730, 16403.70
874.5050, 16836.96
875.6360, 17202.73
876.7670, 17369.24
877.8980, 17054.41
879.0290, 17006.84
880.1590, 16441.90
881.2900, 16029.45
882.4200, 15757.36
883.5500, 15155.29
884.6800, 14307.34
885.8100, 13651.47
886.9400, 12675.19
888.0690, 11364.79
889.1990, 10403.37
890.3280, 9351.958
891.4570, 8427.329
892.5860, 7733.971
893.7140, 6894.766
894.8430, 6536.225
895.9710, 6212.352
897.1000, 6103.390
898.2280, 5676.494
899.3560, 5499.157
900.4830, 5607.372
901.6110, 5501.402
902.7380, 5635.078
903.8660, 5627.396
904.9930, 5772.098
906.1200, 6062.019
907.2460, 6091.351
908.3730, 6258.677
909.5000, 6655.752
910.6260, 6669.957
911.7520, 6649.726
912.8780, 6515.227
914.0040, 6026.253
915.1290, 5754.539
916.2550, 5384.673
917.3800, 4994.170
918.5050, 4369.065
919.6300, 3842.716
920.7550, 3482.219
921.8800, 3024.648
923.0040, 2722.151
924.1290, 2307.413
925.2530, 2069.299
926.3770, 1936.607
927.5010, 1693.061
928.6250, 1504.802
929.7480, 1324.323
930.8720, 1266.187
931.9950, 1085.356
933.1180, 1012.862
934.2410, 845.1201
935.3640, 850.2900
936.4860, 797.4922
937.6090, 707.7148
938.7310, 766.7119
939.8530, 554.9805
940.9750, 571.2783
942.0970, 472.6064
943.2180, 432.9766
944.3400, 445.1895
945.4610, 369.6055
946.5820, 439.0439
947.7030, 438.5049
948.8240, 316.9893
949.9450, 226.4961
951.0650, 532.0273
952.1860, 294.5820
953.3060, 382.1602
954.4260, 231.7676
955.5460, 398.4004
956.6650, 387.0586
957.7850, 331.7441
958.9040, 284.4727
960.0230, 337.2549
961.1420, 396.0645
962.2610, 354.9014
963.3800, 408.7646
964.4990, 612.6562
965.6170, 810.5781
966.7350, 655.5312
967.8530, 1074.515
968.9710, 1065.542
970.0890, 1344.611
971.2070, 1705.712
972.3240, 1873.843
973.4410, 2335.006
974.5580, 2497.201
975.6750, 2722.432
976.7920, 2913.701
977.9090, 2853.010
979.0250, 2808.373
980.1410, 2422.780
981.2580, 2022.264
982.3740, 1729.840
983.4890, 1490.475
984.6050, 1330.194
985.7200, 1083.995
986.8360, 902.2207
987.9510, 792.8779
989.0660, 546.9336
990.1810, 514.0566
991.2950, 402.2373
992.4100, 488.4980
993.5240, 362.8789
994.6390, 282.3525
995.7530, 493.9336
996.8660, 401.6416
997.9800, 447.4648
999.0940, 357.4033
1000.207, 288.4531
1001.320, 472.5684
1002.433, 466.7646
1003.546, 613.0225
1004.659, 631.3594
1005.772, 471.6895
1006.884, 615.1973
1007.996, 493.6543
1009.108, 634.3994
1010.220, 736.3701
1011.332, 840.2432
1012.444, 1051.241
1013.555, 1237.897
1014.666, 1363.983
1015.777, 1467.519
1016.888, 1558.645
1017.999, 1647.709
1019.110, 1657.124
1020.220, 1625.713
1021.331, 1629.827
1022.441, 1398.020
1023.551, 1238.201
1024.661, 1266.700
1025.770, 1137.598
1026.880, 1119.340
1027.989, 1331.340
1029.098, 1159.752
1030.207, 1466.759
1031.316, 1358.894
1032.425, 1389.061
1033.533, 1436.484
1034.642, 1566.143
1035.750, 1718.613
1036.858, 1800.138
1037.966, 1840.005
1039.073, 1772.647
1040.181, 1808.334
1041.288, 1809.070
1042.396, 1565.880
1043.503, 1657.755
1044.610, 1369.684
1045.716, 1260.669
1046.823, 1173.702
1047.929, 1199.781
1049.036, 1026.104
1050.142, 1048.541
1051.248, 770.3027
1052.353, 994.2754
1053.459, 928.6074
1054.564, 830.1641
1055.670, 1044.590
1056.775, 750.0654
1057.880, 836.5830
1058.985, 956.1426
1060.089, 897.7480
1061.194, 869.8125
1062.298, 1024.565
1063.402, 795.2988
1064.506, 841.5371
1065.610, 1081.446
1066.713, 947.3096
1067.817, 969.2129
1068.920, 1095.156
1070.023, 1259.142
1071.126, 1372.167
1072.229, 1661.233
1073.332, 1716.340
1074.435, 2036.486
1075.537, 2132.574
1076.639, 2631.801
1077.741, 2881.070
1078.843, 3314.376
1079.945, 3766.723
1081.046, 4448.108
1082.148, 4513.532
1083.249, 4859.995
1084.350, 4780.498
1085.451, 4459.041
1086.551, 3852.569
1087.652, 3511.592
1088.752, 2549.250
1089.853, 2060.265
1090.953, 1744.624
1092.053, 1460.647
1093.152, 1086.527
1094.252, 959.3730
1095.351, 916.2568
1096.451, 818.1758
1097.550, 621.1318
1098.649, 508.9014
1099.748, 484.9297
1100.846, 583.0156
1101.945, 442.6592
1103.043, 447.7949
1104.141, 213.9658
1105.239, 441.1719
1106.337, 321.4131
1107.434, 422.6895
1108.532, 369.9990
1109.629, 432.6211
1110.726, 338.0000
1111.823, 396.4121
1112.920, 402.6777
1114.017, 551.9922
1115.113, 453.6611
1116.210, 491.4268
1117.306, 502.0020
1118.402, 676.6094
1119.498, 581.2461
1120.593, 758.9141
1121.689, 791.6133
1122.784, 782.3398
1123.879, 669.1045
1124.974, 645.8975
1126.069, 501.3574
1127.164, 529.2070
1128.259, 494.1494
1129.353, 396.4238
1130.447, 359.4424
1131.541, 259.5381
1132.635, 186.6465
1133.729, 173.0205
1134.822, 68.04785
1135.916, 14.09863
1137.009, 76.46484
1138.102, 18.61426
1139.195, 73.28223
1140.288, 2.175781
1141.380, 11.04980
1142.473, 165.0957
1143.565, 0.7382810
1144.657, 88.53125
1145.749, 96.66992
1146.841, 53.10840
1147.932, 45.88184
1149.024, 56.16406
1150.115, 40.92773
1151.206, 69.67285
1152.297, 103.4209
1153.388, 123.3965
1154.479, 98.67578
1155.569, 144.4805
1156.659, 167.6641
1157.750, 54.98438
1158.839, 108.1260
1159.929, 39.44238
1161.019, 25.31836
1162.108, 52.18945
1163.198, 115.0205
1164.287, 97.91113
1165.376, 4.826172
1166.465, 36.26953
1167.553, 72.37500
1168.642, 3.507813
1169.730, 84.61523
1170.818, 48.75098
1171.906, 131.8965
1172.994, 145.0811
1174.082, 55.24707
1175.170, 157.4219
1176.257, 88.60645
1177.344, 69.79980
1178.431, 22.00098
1179.518, 76.21094
1180.605, 37.42969
1181.691, 38.65527
1182.778, 106.9814
1183.864, 136.2090
1184.950, 58.59473
1186.036, 189.5801
1187.122, 18.76172
1188.207, 102.9482
1189.292, 114.1406
1190.378, 128.3379
1191.463, 6.541992
1192.548, 19.84375
1193.632, 26.95117
1194.717, 14.83691
1195.801, 21.36426
1196.886, 90.94043
1197.970, 56.01758
1199.054, 122.3584
1200.137, 38.57227
1201.221, 66.79102
1202.305, 48.01172
1203.388, 94.23438
1204.471, 80.64062
1205.554, 33.31055
1206.637, 78.11523
1207.719, 73.32129
1208.802, 85.52832
1209.884, 185.7383
1210.966, 117.9473
1212.048, 81.15820
1213.130, 85.36914
1214.212, 53.58105
1215.293, 58.09668
1216.374, 14.30859
1217.456, 30.53125
1218.536, 155.7227
1219.617, 35.91992
1220.698, 30.88770
1221.778, 74.72949
1222.859, 51.37402
1223.939, 220.4746
1225.019, 152.5742
1226.099, 274.6709
1227.178, 98.76465
1228.258, 29.85742
1229.337, 122.9395
1230.417, 11.98047
1231.496, 2.930664
1232.574, 215.0918
1233.653, 79.11133
1234.732, 77.12695
1235.810, 245.1396
1236.888, 81.14844
1237.966, 178.1533
