##NAMES=Epididymite
##RRUFFID=R060773
##IDEAL CHEMISTRY=Na_2_Be_2_Si_6_O_15_&#183;H_2_O
##LOCALITY=unknown
##OWNER=RRUFF
##SOURCE=Michael Scott
##DESCRIPTION=Colorless platy crystals forming a pseudohexagonal aggregate
##STATUS=The identification of this mineral has been confirmed by single-crystal X-ray diffraction.
##URL=rruff.info/R060773
##PIN_ID=M00395
##ORIENTATION=Laser parallel to b* (0 1 0). Fiducial mark perpendicular to laser is parallel to -c [0 0 -1]
102.1160, 0.0000000E+00
103.3490, 4.361328
104.5820, 14.56445
105.8150, 60.19043
107.0470, 37.54199
108.2800, 289.8271
109.5120, 102.1152
110.7440, 231.7285
111.9760, 137.7617
113.2080, 361.1426
114.4400, 228.4443
115.6710, 660.7803
116.9030, 739.6797
118.1340, 1226.989
119.3650, 1891.287
120.5960, 2510.647
121.8270, 3493.357
123.0580, 4138.916
124.2880, 4537.802
125.5190, 4640.275
126.7490, 5010.559
127.9790, 5672.889
129.2090, 6958.470
130.4390, 8560.462
131.6680, 10310.00
132.8980, 11136.12
134.1270, 10729.02
135.3560, 8941.394
136.5850, 7158.322
137.8140, 5345.270
139.0430, 3872.731
140.2710, 3071.377
141.5000, 2420.443
142.7280, 2074.062
143.9560, 2154.103
145.1840, 2215.514
146.4120, 2239.012
147.6390, 2761.592
148.8670, 3291.245
150.0940, 3551.966
151.3210, 3796.897
152.5490, 3634.329
153.7750, 3057.123
155.0020, 2224.433
156.2290, 1696.891
157.4550, 1110.623
158.6810, 753.1689
159.9080, 522.8115
161.1340, 329.3828
162.3590, 237.8682
163.5850, 160.1943
164.8110, 90.36914
166.0360, 26.40430
167.2610, 2.694336
168.4860, 66.91699
169.7110, 147.2598
170.9360, 52.71582
172.1610, 7.720703
173.3850, 25.94434
174.6100, 113.2959
175.8340, 43.54102
177.0580, 17.60059
178.2820, 83.74512
179.5050, 16.09961
180.7290, 87.93066
181.9520, 31.25391
183.1760, 72.54785
184.3990, 43.66309
185.6220, 235.8818
186.8450, 90.10547
188.0670, 370.3291
189.2900, 216.5527
190.5120, 489.7725
191.7340, 547.9873
192.9560, 767.1885
194.1780, 903.3691
195.4000, 864.5820
196.6220, 1108.767
197.8430, 1342.919
199.0640, 1431.043
200.2860, 1434.347
201.5070, 1384.178
202.7270, 1214.625
203.9480, 1038.433
205.1690, 831.8281
206.3890, 581.0439
207.6090, 585.6797
208.8290, 565.6064
210.0490, 586.4932
211.2690, 429.2959
212.4890, 544.0869
213.7080, 507.9219
214.9280, 540.7236
216.1470, 635.6074
217.3660, 638.8770
218.5850, 723.7988
219.8030, 670.8184
221.0220, 863.8203
222.2400, 961.5830
223.4590, 1016.356
224.6770, 1197.137
225.8950, 1306.924
227.1120, 1577.715
228.3300, 1834.507
229.5480, 2351.303
230.7650, 2829.097
231.9820, 3370.887
233.1990, 3984.674
234.4160, 4852.455
235.6330, 5874.231
236.8490, 7132.005
238.0660, 8631.773
239.2820, 9694.538
240.4980, 10887.30
241.7140, 11271.06
242.9300, 10888.82
244.1460, 10253.57
245.3610, 9198.325
246.5770, 7773.076
247.7920, 6549.826
249.0070, 5502.595
250.2220, 4932.361
251.4370, 4252.648
252.6510, 3817.129
253.8660, 3266.739
255.0800, 3237.438
256.2940, 2886.193
257.5080, 2744.984
258.7220, 2649.790
259.9360, 2481.594
261.1490, 2203.385
262.3630, 1756.157
263.5760, 1682.911
264.7890, 1411.641
266.0020, 1221.324
267.2150, 1000.949
268.4270, 738.5127
269.6400, 778.0088
270.8520, 673.4482
272.0640, 486.8340
273.2760, 392.1729
274.4880, 482.4697
275.7000, 366.7266
276.9120, 485.9443
278.1230, 630.1289
279.3340, 512.2812
280.5450, 857.3877
281.7560, 934.3174
282.9670, 983.9355
284.1780, 1071.458
285.3880, 1108.896
286.5980, 1053.454
287.8090, 807.7090
289.0190, 562.8633
290.2290, 353.0127
291.4380, 420.1641
292.6480, 165.3164
293.8570, 187.4678
295.0670, 157.6201
296.2760, 54.77051
297.4850, 74.08203
298.6930, 25.96973
299.9020, 30.11816
301.1110, 33.80664
302.3190, 16.44824
303.5270, 111.2686
304.7350, 5.715820
305.9430, 23.27246
307.1510, 66.75781
308.3580, 34.16895
309.5660, 107.9189
310.7730, 37.94238
311.9800, 26.68848
313.1870, 19.33691
314.3940, 92.31934
315.6010, 88.25586
316.8070, 55.87695
318.0130, 3.261719
319.2200, 18.26270
320.4260, 99.00977
321.6310, 67.61133
322.8370, 147.6260
324.0430, 138.0264
325.2480, 39.00781
326.4540, 138.4590
327.6590, 29.71094
328.8640, 11.17969
330.0680, 72.53711
331.2730, 16.07812
332.4780, 124.3652
333.6820, 124.8037
334.8860, 131.2354
336.0900, 20.66113
337.2940, 35.92090
338.4980, 84.48047
339.7010, 101.8750
340.9050, 244.2637
342.1080, 245.6465
343.3110, 149.0234
344.5140, 147.3955
345.7170, 163.7109
346.9200, 233.9873
348.1220, 227.8301
349.3240, 229.4287
350.5270, 231.5869
351.7290, 270.6816
352.9310, 209.7451
354.1320, 240.7998
355.3340, 249.8232
356.5350, 133.8330
357.7370, 101.7695
358.9380, 88.84180
360.1390, 279.3643
361.3400, 117.1377
362.5400, 226.8750
363.7410, 356.6191
364.9410, 310.3662
366.1410, 356.1025
367.3410, 472.8457
368.5410, 492.5938
369.7410, 667.3477
370.9400, 778.1074
372.1400, 837.8740
373.3390, 1009.645
374.5380, 1324.424
375.7370, 1614.207
376.9360, 1905.996
378.1350, 2297.791
379.3330, 2599.592
380.5310, 3018.397
381.7300, 3289.211
382.9280, 3405.031
384.1260, 3494.855
385.3230, 3386.338
386.5210, 3129.539
387.7180, 2863.397
388.9160, 2397.262
390.1130, 1842.134
391.3100, 1676.012
392.5060, 1503.921
393.7030, 1410.828
394.9000, 1056.747
396.0960, 1071.662
397.2920, 1291.602
398.4880, 1732.534
399.6840, 2003.462
400.8800, 2624.396
402.0750, 3270.326
403.2710, 4443.264
404.4660, 6327.210
405.6610, 8460.156
406.8560, 10695.10
408.0510, 11397.03
409.2450, 10567.97
410.4400, 8869.912
411.6340, 6591.934
412.8280, 4353.953
414.0220, 2794.003
415.2160, 1785.047
416.4100, 1132.104
417.6030, 854.1787
418.7970, 605.2568
419.9900, 440.3311
421.1830, 299.4277
422.3760, 20.52344
423.5690, 120.6143
424.7610, 240.7227
425.9540, 173.8623
427.1460, 35.00195
428.3380, 20.13965
429.5300, 104.7227
430.7220, 121.4014
431.9140, 121.5342
433.1050, 7.708984
434.2970, 245.9023
435.4880, 130.1260
436.6790, 106.3496
437.8700, 10.59180
439.0610, 16.83301
440.2510, 140.4629
441.4420, 23.56152
442.6320, 44.70801
443.8220, 451.9570
445.0120, 227.1445
446.2020, 290.4805
447.3910, 114.5840
448.5810, 89.15430
449.7700, 75.30078
450.9600, 165.1064
452.1490, 156.5889
453.3370, 306.8672
454.5260, 296.4424
455.7150, 209.8848
456.9030, 348.0928
458.0910, 578.2441
459.2800, 776.4736
460.4670, 787.9033
461.6550, 1006.688
462.8430, 1289.514
464.0300, 1612.439
465.2180, 1952.492
466.4050, 2294.562
467.5920, 3070.271
468.7790, 3924.453
469.9650, 5168.488
471.1520, 6940.703
472.3380, 9430.844
473.5250, 12564.32
474.7110, 15269.37
475.8970, 16771.97
477.0820, 16038.58
478.2680, 13977.19
479.4540, 10808.50
480.6390, 7773.504
481.8240, 5723.125
483.0090, 4199.760
484.1940, 3349.400
485.3780, 2878.047
486.5630, 2342.701
487.7470, 2056.359
488.9320, 1840.023
490.1160, 1494.693
491.3000, 1308.373
492.4830, 1263.055
493.6670, 1054.746
494.8500, 1162.441
496.0340, 1137.146
497.2170, 1140.859
498.4000, 1241.578
499.5820, 1373.303
500.7650, 1484.039
501.9480, 1738.779
503.1300, 1898.529
504.3120, 2455.287
505.4940, 2748.053
506.6760, 3311.830
507.8580, 4232.611
509.0390, 5499.402
510.2210, 6950.201
511.4020, 9101.008
512.5830, 11833.82
513.7640, 15576.64
514.9450, 20715.47
516.1250, 27540.32
517.3060, 35557.17
518.4860, 43085.02
519.6660, 46528.89
520.8460, 45613.76
522.0260, 40167.64
523.2060, 32673.51
524.3850, 24637.41
525.5650, 18168.31
526.7440, 13337.22
527.9230, 9720.225
529.1020, 7662.146
530.2810, 6015.076
531.4590, 4646.012
532.6380, 3902.951
533.8160, 3296.496
534.9940, 2803.451
536.1720, 2375.047
537.3500, 1963.016
538.5270, 1701.801
539.7050, 1518.611
540.8820, 1325.600
542.0590, 1223.492
543.2360, 1179.846
544.4130, 1104.691
545.5900, 984.2676
546.7660, 936.4375
547.9430, 831.4570
549.1190, 786.4824
550.2950, 525.0977
551.4710, 639.6934
552.6470, 479.2773
553.8220, 609.6523
554.9980, 423.5410
556.1730, 550.5898
557.3480, 585.9414
558.5230, 486.6113
559.6980, 444.0039
560.8730, 360.0742
562.0470, 339.2930
563.2220, 226.6133
564.3960, 309.7305
565.5700, 443.0547
566.7440, 466.0156
567.9170, 309.2773
569.0910, 410.3516
570.2640, 369.4277
571.4380, 438.8105
572.6110, 275.5664
573.7840, 294.3633
574.9570, 434.1406
576.1290, 546.7520
577.3020, 610.8320
578.4740, 620.6426
579.6460, 909.7207
580.8180, 981.8418
581.9900, 1217.047
583.1620, 1496.492
584.3330, 1423.238
585.5040, 1631.555
586.6760, 1406.707
587.8470, 1085.863
589.0180, 978.0254
590.1880, 900.1934
591.3590, 475.0293
592.5290, 459.2266
593.7000, 576.4277
594.8700, 454.6660
596.0400, 568.9043
597.2090, 348.1602
598.3790, 448.4199
599.5490, 241.6758
600.7180, 308.9316
601.8870, 189.2070
603.0560, 282.4883
604.2250, 297.7676
605.3940, 526.0801
606.5620, 292.4121
607.7300, 197.7852
608.8990, 271.1973
610.0670, 56.60938
611.2350, 352.0605
612.4020, 363.5078
613.5700, 404.9512
614.7370, 360.4160
615.9050, 416.8848
617.0720, 420.3477
618.2390, 446.8066
619.4060, 791.2637
620.5720, 600.7148
621.7390, 1013.176
622.9050, 1171.631
624.0710, 1140.082
625.2370, 1123.527
626.4030, 1007.969
627.5690, 1070.404
628.7340, 891.8340
629.9000, 906.2598
631.0650, 774.6797
632.2300, 761.8965
633.3950, 727.3867
634.5600, 753.9102
635.7240, 702.3105
636.8890, 702.7051
638.0530, 754.0898
639.2170, 680.1836
640.3810, 808.8477
641.5450, 620.2207
642.7080, 703.5840
643.8720, 757.9414
645.0350, 931.2930
646.1980, 896.6387
647.3610, 729.9785
648.5240, 830.3105
649.6870, 689.6367
650.8490, 640.9551
652.0120, 819.2676
653.1740, 612.5742
654.3360, 465.8730
655.4980, 530.1660
656.6600, 495.4492
657.8210, 338.7266
658.9830, 264.9980
660.1440, 295.2598
661.3050, 266.5156
662.4660, 183.7617
663.6270, 126.0020
664.7870, 263.2363
665.9480, 130.4609
667.1080, 37.32227
668.2680, 223.8574
669.4280, 102.0273
670.5880, 193.1934
671.7480, 152.3848
672.9070, 74.43164
674.0670, 133.6992
675.2260, 26.16211
676.3850, 107.9434
677.5440, 88.95898
678.7030, 137.0703
679.8610, 79.09180
681.0200, 27.89648
682.1780, 26.08008
683.3360, 25.95703
684.4940, 37.02734
685.6520, 1.863281
686.8090, 139.7363
687.9670, 200.5957
689.1240, 19.55078
690.2810, 18.72852
691.4380, 272.9395
692.5950, 1.683594
693.7520, 101.7207
694.9080, 105.8203
696.0650, 28.65234
697.2210, 65.16406
698.3770, 3.267578
699.5330, 67.70703
700.6880, 70.84961
701.8440, 33.54492
702.9990, 59.93359
704.1550, 41.68750
705.3100, 99.35742
706.4650, 47.92578
707.6190, 96.19727
708.7740, 108.4590
709.9290, 59.28906
711.0830, 0.9238280
712.2370, 126.8906
713.3910, 30.79688
714.5450, 75.74805
715.6980, 195.2324
716.8520, 30.79688
718.0050, 119.1328
719.1580, 64.04883
720.3110, 53.96484
721.4640, 39.87305
722.6170, 28.23438
723.7700, 11.55469
724.9220, 95.44336
726.0740, 77.25977
727.2260, 73.06836
728.3780, 135.8633
729.5300, 12.34766
730.6810, 118.4023
731.8330, 131.1426
732.9840, 272.8750
734.1350, 191.5957
735.2860, 214.3047
736.4370, 219.0039
737.5880, 167.6953
738.7380, 123.3730
739.8880, 142.0410
741.0390, 231.6973
742.1890, 241.8828
743.3380, 286.9805
744.4880, 378.6074
745.6380, 418.2227
746.7870, 536.4863
747.9360, 499.4199
749.0850, 683.0020
750.2340, 591.5723
751.3830, 723.1328
752.5310, 994.6797
753.6800, 865.2168
754.8280, 944.7422
755.9760, 970.2559
757.1240, 901.7598
758.2720, 840.2520
759.4190, 768.1641
760.5670, 691.1855
761.7140, 618.6641
762.8610, 536.1133
764.0080, 576.5508
765.1550, 521.9785
766.3020, 559.3945
767.4480, 250.7988
768.5950, 265.1934
769.7410, 261.5762
770.8870, 396.9492
772.0330, 352.3105
773.1780, 297.6602
774.3240, 164.0000
775.4690, 210.3301
776.6140, 374.6484
777.7590, 284.9570
778.9040, 429.2539
780.0490, 175.5430
781.1940, 265.8203
782.3380, 285.0879
783.4820, 303.3438
784.6260, 457.5898
785.7700, 387.8301
786.9140, 318.0586
788.0580, 301.2754
789.2010, 396.4844
790.3450, 223.6816
791.4880, 439.8730
792.6310, 354.0508
793.7730, 376.2207
794.9160, 296.3809
796.0590, 184.5352
797.2010, 447.6777
798.3430, 324.8105
799.4850, 201.9355
800.6270, 453.0508
801.7690, 388.1602
802.9100, 462.2559
804.0520, 427.3477
805.1930, 425.5352
806.3340, 486.4082
807.4750, 428.4746
808.6160, 458.6777
809.7560, 476.7266
810.8970, 716.5586
812.0370, 793.9824
813.1770, 753.3770
814.3170, 767.3945
815.4570, 706.7617
816.5960, 969.7637
817.7360, 1120.760
818.8750, 1154.842
820.0140, 1128.682
821.1530, 920.6035
822.2920, 902.0840
823.4310, 683.8906
824.5690, 638.8496
825.7070, 611.3242
826.8460, 787.9043
827.9840, 402.2871
829.1220, 567.6816
830.2590, 534.2852
831.3970, 497.3281
832.5340, 534.2539
833.6710, 343.8770
834.8080, 616.1855
835.9450, 419.7812
837.0820, 301.4629
838.2190, 555.1250
839.3550, 536.2734
840.4910, 467.2246
841.6270, 530.8750
842.7630, 374.9551
843.8990, 535.6621
845.0350, 590.5605
846.1700, 549.4570
847.3060, 554.9082
848.4410, 577.7812
849.5760, 569.3672
850.7100, 633.4863
851.8450, 628.8477
852.9800, 723.7383
854.1140, 813.8984
855.2480, 851.7930
856.3820, 1104.947
857.5160, 997.7168
858.6500, 938.2773
859.7830, 1146.557
860.9170, 996.2676
862.0500, 956.1680
863.1830, 812.0664
864.3160, 784.9668
865.4480, 769.8711
866.5810, 569.1152
867.7130, 570.0254
868.8460, 582.9375
869.9780, 707.8516
871.1100, 651.7695
872.2410, 637.6875
873.3730, 654.9707
874.5050, 466.5371
875.6360, 594.4668
876.7670, 502.4004
877.8980, 414.3359
879.0290, 458.2773
880.1590, 431.2207
881.2900, 663.1680
882.4200, 444.1191
883.5500, 540.0723
884.6800, 351.0312
885.8100, 364.9961
886.9400, 354.5020
888.0690, 351.9355
889.1990, 352.9141
890.3280, 356.8926
891.4570, 386.8789
892.5860, 216.8711
893.7140, 457.8672
894.8430, 535.8672
895.9710, 157.8750
897.1000, 342.8867
898.2280, 250.9043
899.3560, 354.9277
900.4830, 391.9590
901.6110, 369.9941
902.7380, 388.0352
903.8660, 394.3516
904.9930, 387.1387
906.1200, 375.1992
907.2460, 348.2656
908.3730, 273.3418
909.5000, 150.4219
910.6260, 295.5098
911.7520, 210.6074
912.8780, 211.7090
914.0040, 311.8203
915.1290, 245.9375
916.2550, 188.0645
917.3800, 229.2227
918.5050, 313.3887
919.6300, 188.5625
920.7550, 71.74414
921.8800, 295.9336
923.0040, 73.13086
924.1290, 212.3379
925.2530, 17.55273
926.3770, 112.8027
927.5010, 100.0605
928.6250, 272.3262
929.7480, 335.6016
930.8720, 153.8867
931.9950, 271.1816
933.1180, 113.4863
934.2410, 408.8027
935.3640, 223.1289
936.4860, 153.4922
937.6090, 227.8633
938.7310, 145.2422
939.8530, 365.6387
940.9750, 198.0586
942.0970, 255.4922
943.2180, 150.0391
944.3400, 215.3652
945.4610, 27.21680
946.5820, 65.77734
947.7030, 158.6426
948.8240, 186.0898
949.9450, 222.5449
951.0650, 128.0410
952.1860, 246.5508
953.3060, 186.3730
954.4260, 98.61914
955.5460, 221.1934
956.6650, 22.20312
957.7850, 139.4160
958.9040, 159.0547
960.0230, 10.28711
961.1420, 2.685547
962.2610, 35.00195
963.3800, 217.7148
964.4990, 215.5195
965.6170, 77.65625
966.7350, 102.1777
967.8530, 79.02734
968.9710, 186.9023
970.0890, 151.1797
971.2070, 56.31445
972.3240, 56.45898
973.4410, 33.59180
974.5580, 0.2773440
975.6750, 26.15820
976.7920, 135.9277
977.9090, 88.97266
979.0250, 455.8867
980.1410, 378.8164
981.2580, 393.8301
982.3740, 137.7402
983.4890, 163.7461
984.6050, 83.80859
985.7200, 108.9023
986.8360, 172.0371
987.9510, 154.1875
989.0660, 207.3711
990.1810, 48.43164
991.2950, 361.7578
992.4100, 200.9648
993.5240, 335.1895
994.6390, 22.44727
995.7530, 328.7227
996.8660, 319.0176
997.9800, 281.3262
999.0940, 534.6543
1000.207, 697.9922
1001.320, 1133.361
1002.433, 1082.746
1003.546, 872.1465
1004.659, 660.5605
1005.772, 730.9922
1006.884, 367.4395
1007.996, 442.9043
1009.108, 421.3828
1010.220, 615.8770
1011.332, 492.3906
1012.444, 520.9199
1013.555, 368.4648
1014.666, 331.0254
1015.777, 348.6016
1016.888, 352.1953
1017.999, 373.8047
1019.110, 242.4316
1020.220, 369.0762
1021.331, 254.7363
1022.441, 268.4160
1023.551, 295.1133
1024.661, 423.8262
1025.770, 246.5586
1026.880, 561.3086
1027.989, 314.0762
1029.098, 311.8594
1030.207, 344.6621
1031.316, 229.4824
1032.425, 190.3203
1033.533, 106.1797
1034.642, 230.0508
1035.750, 226.9453
1036.858, 450.8555
1037.966, 444.7832
1039.073, 289.7305
1040.181, 456.6973
1041.288, 538.6816
1042.396, 447.6836
1043.503, 514.7207
1044.610, 669.7598
1045.716, 1035.820
1046.823, 991.8965
1047.929, 1065.992
1049.036, 1122.105
1050.142, 1071.695
1051.248, 1129.848
1052.353, 950.0156
1053.459, 894.2031
1054.564, 908.4609
1055.670, 1172.637
1056.775, 912.8809
1057.880, 974.1445
1058.985, 972.9902
1060.089, 885.2891
1061.194, 791.6074
1062.298, 1028.945
1063.402, 843.3008
1064.506, 881.6758
1065.610, 706.0684
1066.713, 905.0469
1067.817, 883.4766
1068.920, 866.5762
1070.023, 799.0449
1071.126, 681.5293
1072.229, 712.6895
1073.332, 763.2305
1074.435, 866.2871
1075.537, 812.0371
1076.639, 791.4668
1077.741, 762.0625
1078.843, 669.2910
1079.945, 521.5312
1081.046, 551.1836
1082.148, 671.8555
1083.249, 503.5430
1084.350, 300.3691
1085.451, 488.0957
1086.551, 416.8398
1087.652, 449.9219
1088.752, 433.2734
1089.853, 318.6719
1090.953, 230.4902
1092.053, 258.2734
1093.152, 15.39453
1094.252, 357.3086
1095.351, 302.1914
1096.451, 104.0938
1097.550, 469.0117
1098.649, 253.9941
1099.748, 282.9512
1100.846, 129.9219
1101.945, 303.9121
1103.043, 293.9102
1104.141, 437.1602
1105.239, 177.4316
1106.337, 261.8691
1107.434, 497.8594
1108.532, 434.9570
1109.629, 802.0078
1110.726, 315.1465
1111.823, 412.3047
1112.920, 504.4824
1114.017, 511.6777
1115.113, 596.8906
1116.210, 827.1230
1117.306, 777.3730
1118.402, 934.6426
1119.498, 850.9316
1120.593, 633.2402
1121.689, 823.5645
1122.784, 994.6016
1123.879, 709.9629
1124.974, 722.3438
1126.069, 922.7422
1127.164, 949.1602
1128.259, 687.1348
1129.353, 896.5879
1130.447, 906.5215
1131.541, 1119.553
1132.635, 1255.059
1133.729, 1125.584
1134.822, 1499.131
1135.916, 1620.695
1137.009, 1636.277
1138.102, 1994.879
1139.195, 2039.496
1140.288, 2032.135
1141.380, 2163.791
1142.473, 2122.465
1143.565, 1944.156
1144.657, 2039.865
1145.749, 1711.596
1146.841, 1612.342
1147.932, 1234.121
1149.024, 1052.930
1150.115, 935.7969
1151.206, 904.7148
1152.297, 741.6895
1153.388, 555.7012
1154.479, 397.7305
1155.569, 416.7793
1156.659, 643.8457
1157.750, 463.9297
1158.839, 379.0293
1159.929, 309.1504
1161.019, 171.2871
1162.108, 311.4434
1163.198, 197.6289
1164.287, 9.828125
1165.376, 112.0469
1166.465, 240.2871
1167.553, 35.54102
1168.642, 85.81445
1169.730, 46.10352
1170.818, 358.4141
1171.906, 167.7383
1172.994, 245.0801
1174.082, 1.441406
1175.170, 239.8164
1176.257, 389.2109
1177.344, 325.6230
1178.431, 12.05078
1179.518, 154.4941
1180.605, 113.0410
1181.691, 153.3906
1182.778, 160.8398
1183.864, 13.30664
1184.950, 468.7871
1186.036, 179.2871
1187.122, 5.804688
1188.207, 249.3379
1189.292, 114.1113
1190.378, 137.4062
1191.463, 58.94141
1192.548, 149.4922
1193.632, 122.0625
1194.717, 44.64648
1195.801, 45.24805
1196.886, 14.13477
1197.970, 107.4941
1199.054, 114.8613
1200.137, 182.7500
1201.221, 124.3789
1202.305, 15.97656
1203.388, 1.679688
1204.471, 12.65234
1205.554, 105.9707
1206.637, 28.68164
1207.719, 109.3828
1208.802, 64.10156
1209.884, 41.84180
1210.966, 262.6152
1212.048, 36.40430
1213.130, 118.2090
1214.212, 1.968750
1215.293, 129.8652
1216.374, 153.7168
1217.456, 70.41797
1218.536, 5.562500
1219.617, 45.30273
1220.698, 255.1895
1221.778, 42.90625
1222.859, 158.9941
1223.939, 2.1484001E-02
1225.019, 193.9141
1226.099, 274.8652
1227.178, 163.8320
1228.258, 62.81445
1229.337, 10.82812
1230.417, 249.8613
1231.496, 245.9102
1232.574, 249.9707
1233.653, 69.08594
1234.732, 143.2266
1235.810, 121.3965
1236.888, 113.9082
1237.966, 151.8359
1239.044, 115.0195
1240.122, 253.2871
1241.199, 129.5684
1242.277, 304.8652
1243.354, 213.1777
1244.431, 200.5020
1245.508, 314.8418
1246.585, 261.2031
1247.661, 97.58008
1248.738, 72.96875
1249.814, 120.3730
1250.890, 98.96289
1251.966, 147.5938
1253.042, 159.6797
1254.117, 209.1523
1255.193, 146.6484
1256.268, 97.16797
1257.343, 11.28711
1258.418, 143.2832
1259.493, 125.8672
1260.567, 210.4668
1261.642, 164.0781
1262.716, 380.7031
1263.790, 487.3418
1264.864, 329.9902
1265.938, 416.6543
1267.011, 268.3320
1268.085, 577.0195
1269.158, 292.7227
1270.231, 541.4395
1271.304, 337.1641
1272.377, 402.9062
1273.450, 560.6602
1274.522, 324.4238
1275.594, 392.2031
1276.666, 256.5098
1277.738, 103.5742
1278.810, 194.1250
1279.882, 407.3516
1280.953, 381.4238
1282.025, 292.1934
1283.096, 248.0527
1284.167, 42.92383
1285.238, 214.8027
