##NAMES=Epidote
##RRUFFID=R040089
##IDEAL CHEMISTRY=Ca_2_Fe^3+^Al_2_(Si_2_O_7_)(SiO_4_)O(OH)
##LOCALITY=Grafton County, New Hampshire, USA
##OWNER=RRUFF
##SOURCE=University of Arizona Mineral Museum
##DESCRIPTION=Dark green coarsely crystalline massive
##STATUS=The identification of this mineral has been confirmed by X-ray diffraction and chemical analysis
##URL=rruff.info/R040089
##MEASURED CHEMISTRY=Ca_2.00_(Al_2.36_Fe^3+^_0.64_)[Si_2.00_O_7_][Si_1.00_O_4_]O(OH)
##PIN_ID=M00420
##ORIENTATION=Laser parallel to [1 0 1]. Fiducial mark perpendicular to laser is parallel to b* (0 1 0)
186.563, 0.000
187.937, 0.237
189.310, 50.146
190.684, 47.593
192.057, 325.173
193.430, 309.893
194.803, 119.188
196.176, 139.401
197.549, 11.891
198.921, 205.311
200.293, 15.799
201.665, 166.896
203.037, 130.357
204.408, 611.877
205.779, 501.961
207.150, 436.379
208.521, 672.549
209.892, 622.318
211.262, 739.638
212.633, 572.472
214.003, 492.789
215.373, 475.591
216.742, 276.882
218.112, 255.620
219.481, 15.230
220.850, 145.299
222.219, 83.182
223.588, 91.604
224.956, 21.922
226.324, 35.257
227.692, 54.842
229.060, 52.200
230.428, 220.798
231.795, 346.613
233.162, 466.634
234.529, 834.847
235.896, 990.267
237.263, 1090.895
238.629, 1167.719
239.995, 1274.727
241.361, 1508.910
242.727, 1597.538
244.093, 1880.769
245.458, 1890.123
246.823, 2319.577
248.188, 2789.130
249.553, 3068.779
250.917, 3598.525
252.282, 3748.367
253.646, 4038.305
255.010, 3658.338
256.374, 3338.465
257.737, 2848.688
259.101, 2349.003
260.464, 1989.412
261.827, 1979.914
263.189, 1685.496
264.552, 1297.190
265.914, 1503.965
267.276, 1472.828
268.638, 1470.767
270.000, 1744.727
271.362, 1825.709
272.723, 2496.710
274.084, 2907.729
275.445, 3778.754
276.806, 4719.797
278.166, 5260.872
279.526, 5384.398
280.887, 5433.125
282.246, 4964.508
283.606, 3946.205
284.966, 3208.124
286.325, 2650.125
287.684, 2202.122
289.043, 2044.135
290.402, 1826.181
291.760, 1659.262
293.118, 1585.377
294.477, 1587.529
295.834, 1539.721
297.192, 1486.081
298.550, 1655.856
299.907, 1644.062
301.264, 1635.573
302.621, 1964.622
303.978, 2036.720
305.334, 2198.867
306.690, 2081.064
308.046, 2223.316
309.402, 2335.621
310.758, 2167.982
312.113, 2170.400
313.469, 1723.875
314.824, 1752.406
316.179, 1579.996
317.533, 1517.643
318.888, 1555.349
320.242, 1532.111
321.596, 1743.933
322.950, 1490.812
324.304, 1574.748
325.657, 1321.740
327.010, 1132.785
328.363, 990.885
329.716, 941.038
331.069, 1076.245
332.421, 1083.504
333.774, 1124.816
335.126, 1602.179
336.478, 1652.592
337.829, 2047.056
339.181, 1910.572
340.532, 2124.139
341.883, 1804.754
343.234, 1785.417
344.585, 1602.125
345.935, 1302.876
347.285, 1468.670
348.635, 1404.506
349.985, 1562.147
351.335, 1881.163
352.684, 1983.471
354.034, 2275.743
355.383, 2077.988
356.731, 2120.121
358.080, 1782.342
359.429, 1538.639
360.777, 1357.480
362.125, 979.909
363.473, 972.659
364.820, 812.230
366.168, 869.849
367.515, 850.541
368.862, 741.159
370.209, 978.821
371.556, 849.561
372.902, 1005.376
374.249, 849.587
375.595, 809.644
376.940, 651.561
378.286, 379.917
379.632, 322.321
380.977, 213.995
382.322, 443.460
383.667, 466.783
385.012, 258.061
386.356, 507.570
387.700, 21.047
389.044, 12.615
390.388, 66.188
391.732, 180.807
393.075, 383.470
394.419, 482.178
395.762, 815.927
397.105, 700.719
398.447, 709.552
399.790, 712.425
401.132, 463.337
402.474, 318.290
403.816, 139.282
405.158, 2.313
406.499, 124.620
407.841, 154.535
409.182, 19.438
410.523, 221.308
411.864, 2.824
413.204, 45.990
414.544, 52.226
415.884, 261.510
417.224, 414.833
418.564, 872.213
419.904, 1085.636
421.243, 1792.110
422.582, 2572.653
423.921, 3397.247
425.260, 4991.899
426.598, 6116.617
427.937, 8051.400
429.275, 9266.263
430.613, 9761.193
431.951, 9966.192
433.288, 8911.244
434.625, 8416.337
435.963, 7381.493
437.300, 6746.692
438.636, 6421.929
439.973, 5997.225
441.309, 6382.552
442.646, 6307.940
443.981, 7193.351
445.317, 7898.810
446.653, 8734.320
447.988, 10289.861
449.323, 10875.455
450.658, 13001.071
451.993, 14306.724
453.328, 16472.418
454.662, 18118.141
455.996, 18633.898
457.331, 19849.695
458.664, 19665.490
459.998, 19711.287
461.331, 19647.055
462.665, 19152.844
463.998, 19188.660
465.330, 17834.508
466.663, 17790.383
467.996, 16746.279
469.328, 16082.223
470.660, 15598.188
471.992, 14064.166
473.323, 13340.168
474.655, 11866.180
475.986, 10612.220
477.317, 9708.272
478.648, 8414.337
479.979, 7900.425
481.309, 6756.524
482.640, 6062.646
483.970, 5668.779
485.300, 4934.917
486.629, 4801.069
487.959, 4187.532
489.288, 3913.695
490.617, 3710.022
491.946, 3266.209
493.275, 3262.666
494.603, 2898.873
495.932, 2875.053
497.260, 2531.392
498.588, 2281.576
499.916, 2225.759
501.243, 2013.942
502.571, 2133.127
503.898, 2104.310
505.225, 2090.492
506.552, 2371.672
507.878, 2406.851
509.205, 2767.026
510.531, 2793.206
511.857, 2849.391
513.183, 2975.581
514.508, 2741.776
515.834, 2637.975
517.159, 2126.179
518.484, 1891.386
519.809, 1582.598
521.133, 1113.814
522.458, 902.033
523.782, 577.261
525.106, 491.490
526.430, 392.720
527.754, 224.950
529.077, 239.180
530.400, 120.410
531.723, 77.639
533.046, 2.134
534.369, 191.914
535.692, 56.795
537.014, 256.708
538.336, 79.757
539.658, 146.852
540.980, 86.027
542.301, 28.750
543.623, 53.478
544.944, 130.259
546.265, 32.006
547.585, 107.747
548.906, 244.484
550.226, 186.213
551.547, 388.934
552.867, 440.646
554.186, 639.348
555.506, 857.041
556.825, 919.769
558.145, 1289.606
559.464, 1471.646
560.783, 1837.786
562.101, 2271.897
563.420, 2744.551
564.738, 3701.247
566.056, 4593.769
567.374, 6555.510
568.692, 8501.812
570.009, 10891.011
571.326, 12901.996
572.643, 12398.173
573.960, 11172.562
575.277, 8180.826
576.594, 5882.906
577.910, 4441.756
579.226, 3102.793
580.542, 2740.495
581.858, 2198.139
583.173, 1969.319
584.489, 1964.479
585.804, 1784.113
587.119, 2022.744
588.434, 1934.412
589.748, 2236.761
591.063, 2465.274
592.377, 2613.468
593.691, 3219.066
595.005, 3338.587
596.318, 3747.307
597.632, 4240.876
598.945, 4708.040
600.258, 5612.660
601.571, 6068.690
602.884, 7030.111
604.196, 7763.639
605.508, 8300.637
606.821, 8475.311
608.132, 8321.541
609.444, 8100.112
610.756, 7381.628
612.067, 6548.748
613.378, 5869.258
614.689, 5237.325
616.000, 5005.528
617.311, 4568.135
618.621, 4073.887
619.931, 3754.521
621.241, 3042.016
622.551, 2768.320
623.861, 2397.275
625.170, 1955.575
626.479, 1857.171
627.788, 1528.544
629.097, 1394.414
630.406, 1243.181
631.714, 1018.079
633.023, 1077.268
634.331, 842.965
635.639, 846.524
636.946, 668.130
638.254, 594.763
639.561, 620.245
640.868, 428.787
642.175, 499.596
643.482, 433.534
644.789, 261.561
646.095, 398.431
647.401, 299.259
648.707, 334.797
650.013, 272.640
651.319, 334.079
652.624, 451.476
653.929, 305.820
655.234, 453.113
656.539, 456.359
657.844, 536.557
659.148, 620.706
660.453, 585.806
661.757, 707.857
663.061, 662.860
664.364, 750.813
665.668, 877.718
666.971, 820.574
668.274, 842.379
669.577, 785.136
670.880, 775.841
672.183, 814.498
673.485, 749.104
674.787, 671.660
676.089, 762.166
677.391, 673.621
678.693, 787.024
679.994, 710.378
681.296, 877.681
682.597, 916.932
683.898, 952.132
685.198, 1150.280
686.499, 1234.377
687.799, 1396.423
689.099, 1414.416
690.399, 1592.034
691.699, 1588.825
692.998, 1575.770
694.298, 1592.290
695.597, 1405.772
696.896, 1298.995
698.195, 1349.938
699.493, 1080.524
700.792, 1121.159
702.090, 969.646
703.388, 862.084
704.686, 950.472
705.984, 748.810
707.281, 675.099
708.578, 654.337
709.876, 419.525
711.172, 548.664
712.469, 309.753
713.766, 280.791
715.062, 229.778
716.358, 202.711
717.654, 206.591
718.950, 105.417
720.246, 98.183
721.541, 99.888
722.836, 60.554
724.131, 99.178
725.426, 27.746
726.721, 19.723
728.015, 59.709
729.310, 74.918
730.604, 25.325
731.898, 39.507
733.191, 11.552
734.485, 24.471
735.778, 99.595
737.071, 19.859
738.364, 61.220
739.657, 93.700
740.950, 86.315
742.242, 151.061
743.535, 104.972
744.827, 117.022
746.118, 41.219
747.410, 5.520
748.702, 108.908
749.993, 13.434
751.284, 2.049
752.575, 80.748
753.866, 24.432
755.156, 100.456
756.447, 75.525
757.737, 52.551
759.027, 87.732
760.316, 16.964
761.606, 107.407
762.896, 33.091
764.185, 15.472
765.474, 64.115
766.763, 4.134
768.051, 51.686
769.340, 14.604
770.628, 18.600
771.916, 90.674
773.204, 31.136
774.492, 63.110
775.780, 39.545
777.067, 45.853
778.354, 5.660
779.641, 33.887
780.928, 72.514
782.215, 23.241
783.501, 79.959
784.787, 1.888
786.073, 47.205
787.359, 44.750
788.645, 67.215
789.930, 86.134
791.216, 41.993
792.501, 40.805
793.786, 44.443
795.071, 34.234
796.355, 194.866
797.640, 8.542
798.924, 113.998
800.208, 136.191
801.492, 131.649
802.775, 185.909
804.059, 98.274
805.342, 216.335
806.625, 174.611
807.908, 260.878
809.191, 314.954
810.474, 192.151
811.756, 424.313
813.038, 388.440
814.320, 425.533
815.602, 512.591
816.884, 453.615
818.165, 619.606
819.446, 607.565
820.727, 547.490
822.008, 772.383
823.289, 684.244
824.569, 780.074
825.850, 738.873
827.130, 860.641
828.410, 1004.378
829.690, 926.085
830.969, 937.763
832.249, 1009.411
833.528, 1095.031
834.807, 1150.622
836.086, 1179.184
837.364, 1218.718
838.643, 1253.227
839.921, 1298.706
841.199, 1338.159
842.477, 1338.587
843.755, 1363.988
845.033, 1544.366
846.310, 1453.769
847.587, 1540.161
848.864, 1510.596
850.141, 1748.026
851.418, 1748.473
852.694, 1761.917
853.971, 2023.339
855.247, 2078.764
856.523, 2350.169
857.798, 2451.551
859.074, 2616.924
860.349, 2862.275
861.624, 3126.606
862.899, 3370.919
864.174, 3825.212
865.449, 4189.488
866.723, 4643.712
867.998, 5067.797
869.272, 5581.667
870.545, 6095.403
871.819, 6419.145
873.093, 6832.316
874.366, 6915.395
875.639, 7068.483
876.912, 7080.902
878.185, 6903.964
879.458, 7225.333
880.730, 7513.980
882.002, 7506.378
883.274, 8001.593
884.546, 8122.907
885.818, 8470.400
887.090, 8701.106
888.361, 9049.599
889.632, 9793.413
890.903, 9892.256
892.174, 10448.545
893.444, 10982.840
894.715, 10967.633
895.985, 11228.428
897.255, 10732.156
898.525, 10185.178
899.795, 9613.030
901.064, 8593.176
902.334, 8016.896
903.603, 7356.675
904.872, 6767.236
906.140, 6482.933
907.409, 6045.021
908.677, 6139.628
909.946, 6112.816
911.214, 6050.589
912.482, 6326.226
913.749, 6348.377
915.017, 6682.941
916.284, 6515.708
917.551, 6696.221
918.818, 6803.766
920.085, 6405.696
921.352, 6244.208
922.618, 5985.138
923.884, 5625.918
925.150, 5422.270
926.416, 5055.448
927.682, 4583.721
928.947, 4417.109
930.213, 3996.666
931.478, 3859.544
932.743, 3570.053
934.008, 3408.240
935.272, 3059.624
936.537, 2923.485
937.801, 2736.423
939.065, 2780.204
940.329, 2520.669
941.593, 2394.601
942.856, 2388.644
944.119, 2184.615
945.383, 2323.535
946.646, 2043.586
947.908, 1973.552
949.171, 1998.225
950.433, 1871.745
951.696, 1953.149
952.958, 1804.686
954.220, 1937.247
955.481, 1813.073
956.743, 1921.570
958.004, 2053.450
959.265, 2134.347
960.526, 2020.279
961.787, 2199.237
963.048, 2080.219
964.308, 2299.226
965.569, 2224.257
966.829, 2168.313
968.089, 2284.395
969.348, 2127.500
970.608, 2100.644
971.867, 2113.813
973.126, 2195.007
974.385, 2190.251
975.644, 2415.521
976.903, 2560.820
978.161, 2916.154
979.420, 3271.516
980.678, 3836.903
981.936, 4352.320
983.193, 5037.762
984.451, 5663.233
985.708, 5748.733
986.966, 5901.547
988.223, 5819.831
989.479, 5445.424
990.736, 4931.045
991.993, 4236.697
993.249, 3542.378
994.505, 2888.107
995.761, 2433.868
997.017, 2089.657
998.272, 1813.497
999.528, 1549.367
1000.783, 1320.279
1002.038, 1256.226
1003.293, 1068.202
1004.548, 975.211
1005.802, 868.854
1007.057, 708.932
1008.311, 675.049
1009.565, 536.514
1010.818, 543.690
1012.072, 543.934
1013.326, 555.366
1014.579, 592.679
1015.832, 595.208
1017.085, 713.359
1018.338, 762.789
1019.590, 785.898
1020.842, 1021.392
1022.095, 1054.709
1023.347, 1195.726
1024.599, 1454.353
1025.850, 1514.017
1027.102, 1685.715
1028.353, 1743.456
1029.604, 1746.326
1030.855, 1768.146
1032.106, 1642.321
1033.356, 1659.292
1034.607, 1582.299
1035.857, 1548.337
1037.107, 1572.937
1038.357, 1696.062
1039.607, 1836.118
1040.856, 1835.419
1042.106, 2151.190
1043.355, 2230.810
1044.604, 2328.311
1045.852, 2552.057
1047.101, 2540.004
1048.350, 2477.741
1049.598, 2670.523
1050.846, 2548.532
1052.094, 2648.355
1053.342, 2537.739
1054.589, 2267.484
1055.837, 2328.616
1057.084, 2149.544
1058.331, 1955.368
1059.578, 1933.139
1060.824, 1899.456
1062.071, 1826.829
1063.317, 1631.527
1064.563, 1590.004
1065.809, 1612.723
1067.055, 1460.369
1068.301, 1504.011
1069.546, 1501.781
1070.791, 1531.498
1072.036, 1622.025
1073.281, 1643.093
1074.526, 1867.945
1075.771, 2006.858
1077.015, 2226.729
1078.259, 2545.763
1079.503, 2925.559
1080.747, 3224.628
1081.991, 3923.730
1083.234, 4392.939
1084.478, 5132.137
1085.721, 5921.374
1086.964, 6690.639
1088.206, 7869.937
1089.449, 8689.352
1090.691, 9568.720
1091.934, 10928.109
1093.176, 10947.713
1094.418, 11687.266
1095.659, 11227.643
1096.901, 9607.335
1098.142, 8626.879
1099.384, 6576.528
1100.625, 5116.127
1101.865, 4095.750
1103.106, 3087.288
1104.347, 2336.953
1105.587, 1875.880
1106.827, 1615.359
1108.067, 1244.086
1109.307, 1182.353
1110.546, 1035.118
1111.786, 895.978
1113.025, 905.164
1114.264, 698.984
1115.503, 609.856
1116.742, 627.846
1117.980, 514.785
1119.219, 511.471
1120.457, 424.378
1121.695, 349.303
1122.933, 468.776
1124.171, 398.734
1125.408, 317.967
1126.645, 357.358
1127.883, 269.363
1129.120, 311.467
1130.356, 353.567
1131.593, 196.615
1132.829, 274.031
1134.066, 242.162
1135.302, 267.480
1136.538, 322.316
1137.773, 187.501
1139.009, 329.952
1140.244, 218.294
1141.480, 120.440
1142.715, 266.476
1143.950, 109.844
1145.184, 186.022
1146.419, 247.497
1147.653, 44.737
1148.887, 195.034
1150.121, 99.448
1151.355, 49.866
1152.589, 155.784
1153.822, 96.987
1155.056, 67.728
1156.289, 302.248
1157.522, 87.405
1158.755, 141.184
1159.987, 4.467
1161.220, 12.251
1162.452, 65.993
1163.684, 12.539
1164.916, 91.057
1166.148, 37.162
1167.379, 85.468
1168.611, 84.965
1169.842, 34.331
1171.073, 22.139
1172.304, 7.996
1173.534, 28.442
1174.765, 32.634
1175.995, 10.134
1177.225, 4.349
1178.455, 32.758
1179.685, 12.316
1180.915, 35.131
1182.144, 70.042
1183.374, 128.928
1184.603, 43.812
1185.832, 30.318
1187.060, 69.692
1188.289, 161.363
1189.518, 59.246
1190.746, 54.105
1191.974, 86.893
1193.202, 120.089
1194.430, 7.158
1195.657, 99.893
1196.884, 96.628
1198.112, 0.768
1199.339, 40.680
1200.566, 29.637
1201.792, 34.815
1203.019, 58.008
1204.245, 52.272
1205.471, 10.290
1206.697, 77.525
1207.923, 107.106
1209.149, 34.782
1210.374, 36.875
1211.600, 70.701
1212.825, 66.572
1214.050, 9.941
1215.275, 16.440
1216.499, 61.828
1217.724, 90.606
1218.948, 35.031
1220.172, 41.342
1221.396, 159.025
1222.620, 90.552
1223.843, 2.106
1225.067, 34.209
1226.290, 2.530
1227.513, 88.808
1228.736, 187.069
1229.959, 39.515
1231.181, 145.957
1232.404, 84.169
1233.626, 142.095
1234.848, 195.272
1236.070, 46.656
1237.291, 89.025
1238.513, 95.148
1239.734, 32.681
1240.955, 55.765
1242.177, 12.828
1243.397, 44.080
1244.618, 192.090
1245.838, 70.277
1247.059, 101.108
1248.279, 174.072
1249.499, 1.295
1250.719, 152.209
1251.938, 45.109
1253.158, 26.175
1254.377, 134.038
1255.596, 12.872
1256.815, 123.827
1258.034, 97.596
1259.253, 45.334
1260.471, 254.054
1261.689, 114.756
1262.907, 93.438
1264.125, 112.092
1265.343, 1.275
1266.561, 138.543
1267.778, 225.099
1268.995, 42.393
1270.212, 177.434
1271.429, 79.854
1272.646, 10.385
1273.862, 206.844
1275.079, 128.155
1276.295, 134.667
1277.511, 154.864
1278.727, 71.009
1279.943, 143.278
1281.158, 42.339
1282.373, 58.351
1283.589, 145.499
1284.804, 86.448
1286.019, 117.336
1287.233, 315.350
1288.448, 20.830
1289.662, 123.934
1290.876, 261.654
1292.090, 25.659
1293.304, 167.533
1294.518, 11.131
1295.731, 54.687
1296.944, 136.202
1298.158, 74.687
1299.371, 64.114
1300.583, 46.900
1301.796, 28.253
1303.008, 160.730
1304.221, 98.697
1305.433, 52.048
1306.645, 177.204
1307.856, 2.797
1309.068, 57.324
1310.280, 135.228
1311.491, 19.492
1312.702, 157.505
1313.913, 135.820
1315.124, 28.250
1316.334, 219.902
1317.545, 13.308
1318.755, 135.099
1319.965, 230.855
1321.175, 54.581
1322.385, 142.266
1323.594, 226.825
1324.804, 30.556
1326.013, 246.731
1327.222, 266.227
1328.431, 39.720
1329.639, 286.192
1330.848, 104.125
1332.056, 42.545
1333.265, 300.051
1334.473, 20.357
1335.680, 168.213
1336.888, 244.253
1338.096, 55.454
1339.303, 305.448
1340.510, 160.299
1341.717, 32.401
1342.924, 270.504
1344.131, 132.408
1345.337, 135.518
1346.544, 182.112
1347.750, 43.367
1348.956, 285.252
1350.162, 115.378
1351.367, 24.383
1352.573, 266.954
1353.778, 166.892
1354.983, 50.660
1356.188, 335.144
1357.393, 140.859
1358.598, 258.380
1359.802, 295.201
1361.007, 118.827
1362.211, 258.361
1363.415, 242.929
1364.619, 124.511
1365.822, 360.058
1367.026, 134.394
1368.229, 242.920
1369.432, 373.502
1370.635, 171.419
1371.838, 317.123
1373.041, 334.586
1374.243, 129.038
1375.446, 126.406
1376.648, 240.235
1377.850, 44.598
1379.052, 252.899
1380.253, 126.500
1381.455, 125.640
1382.656, 281.843
1383.857, 79.284
1385.058, 355.152
1386.259, 300.059
1387.459, 132.624
1388.660, 394.594
1389.860, 139.443
1391.060, 41.321
1392.260, 366.207
1393.460, 119.927
1394.660, 279.050
1395.859, 417.619
1397.059, 144.812
1398.258, 377.184
1399.457, 330.592
1400.655, 155.014
1401.854, 404.294
1403.052, 196.602
1404.251, 218.695
1405.449, 421.757
1406.647, 215.374
1407.845, 311.137
1409.042, 321.634
1410.240, 135.302
1411.437, 298.121
1412.634, 315.522
1413.831, 85.359
1415.028, 378.198
1416.224, 140.602
1417.421, 142.304
1418.617, 343.047
1419.813, 102.268
1421.009, 298.659
1422.205, 340.868
1423.401, 118.324
1424.596, 265.909
1425.791, 320.398
1426.986, 103.323
1428.181, 287.627
1429.376, 215.192
1430.571, 96.018
1431.765, 331.902
1432.960, 184.104
1434.154, 227.888
1435.348, 281.702
1436.541, 11.857
1437.735, 315.807
1438.929, 285.406
1440.122, 133.052
1441.315, 386.904
1442.508, 151.665
1443.701, 207.584
1444.893, 380.484
1446.086, 80.665
1447.278, 282.408
1448.470, 440.160
1449.662, 102.977
1450.854, 276.035
1452.046, 264.022
1453.237, 137.632
1454.428, 403.148
1455.619, 268.623
1456.810, 161.531
1458.001, 466.400
1459.192, 103.033
1460.382, 208.195
1461.573, 465.571
1462.763, 131.371
1463.953, 295.656
1465.143, 379.426
1466.332, 137.198
1467.522, 475.298
1468.711, 269.304
1469.900, 178.216
1471.089, 442.521
1472.278, 245.395
1473.467, 200.383
1474.655, 437.617
1475.843, 133.893
1477.032, 329.056
1478.220, 385.899
1479.407, 202.805
1480.595, 372.230
1481.783, 289.299
1482.970, 124.890
1484.157, 414.847
1485.344, 223.473
1486.531, 196.118
1487.718, 293.170
1488.904, 245.200
1490.090, 245.983
1491.277, 423.527
1492.463, 170.272
1493.648, 373.039
1494.834, 333.862
1496.020, 65.524
1497.205, 407.477
1498.390, 157.488
1499.575, 208.578
1500.760, 478.744
1501.945, 50.029
1503.129, 208.477
1504.314, 411.087
1505.498, 19.161
1506.682, 333.726
1507.866, 349.784
1509.049, 11.978
1510.233, 423.420
1511.416, 193.012
1512.600, 12.817
1513.783, 501.698
1514.966, 145.949
1516.148, 211.503
1517.331, 433.105
1518.513, 25.167
1519.695, 202.433
1520.878, 497.710
1522.059, 53.391
1523.241, 353.981
1524.423, 289.478
1525.604, 76.472
1526.785, 402.396
1527.967, 296.665
1529.147, 0.865
1530.328, 0.000
##END=



