##NAMES=Epidote
##RRUFFID=R040089
##IDEAL CHEMISTRY=Ca_2_Fe^3+^Al_2_(Si_2_O_7_)(SiO_4_)O(OH)
##LOCALITY=Grafton County, New Hampshire, USA
##OWNER=RRUFF
##SOURCE=University of Arizona Mineral Museum
##DESCRIPTION=Dark green coarsely crystalline massive
##STATUS=The identification of this mineral has been confirmed by X-ray diffraction and chemical analysis
##URL=rruff.info/R040089
##MEASURED CHEMISTRY=Ca_2.00_(Al_2.36_Fe^3+^_0.64_)[Si_2.00_O_7_][Si_1.00_O_4_]O(OH)
##PIN_ID=M00383
##ORIENTATION=Laser parallel to a [1 0 0]. Fiducial mark perpendicular to laser is parallel to b* (0 1 0)
53.228, 0.000
54.634, 149.039
56.040, 759.141
57.445, 1005.414
58.850, 1187.121
60.254, 1395.668
61.659, 1946.466
63.063, 1942.025
64.467, 1551.483
65.871, 1232.167
67.274, 454.710
68.678, 1.271
70.081, 152.262
71.484, 21.844
72.886, 225.887
74.288, 750.661
75.690, 2125.638
77.092, 1635.383
78.494, 2554.734
79.895, 1768.450
81.296, 2201.473
82.697, 3453.756
84.097, 5052.506
85.498, 6321.896
86.898, 8413.997
88.298, 11453.167
89.697, 15103.566
91.097, 18999.439
92.496, 22301.297
93.895, 24033.336
95.293, 23283.449
96.692, 20441.672
98.090, 16448.273
99.488, 12973.403
100.885, 9687.190
102.283, 7389.750
103.680, 6051.205
105.077, 4851.651
106.473, 3951.180
107.870, 3059.870
109.266, 2257.791
110.662, 1365.006
112.057, 1171.568
113.453, 1247.519
114.848, 707.151
116.243, 1007.754
117.638, 292.115
119.032, 76.017
120.426, 59.489
121.820, 112.562
123.214, 257.135
124.608, 774.312
126.001, 1749.894
127.394, 2957.958
128.787, 4909.715
130.179, 6761.152
131.571, 9930.607
132.963, 13228.146
134.355, 16276.974
135.747, 20021.775
137.138, 21833.309
138.529, 22806.227
139.920, 21710.035
141.311, 20184.270
142.701, 17628.664
144.091, 14983.170
145.481, 12927.471
146.870, 10891.589
148.260, 9735.795
149.649, 8580.140
151.038, 7494.613
152.426, 6269.212
153.815, 5083.922
155.203, 4658.729
156.591, 4013.628
157.979, 4548.610
159.366, 4933.668
160.753, 6458.801
162.140, 7913.998
163.527, 10069.262
164.913, 12384.587
166.300, 14579.972
167.686, 16685.408
169.071, 17220.869
170.457, 17436.238
171.842, 16041.548
173.227, 14556.878
174.612, 12812.241
175.996, 10687.615
177.381, 9142.993
178.765, 7448.375
180.149, 6283.766
181.532, 5019.170
182.915, 4144.589
184.299, 3540.022
185.681, 2665.475
187.064, 2370.951
188.446, 1766.451
189.828, 1371.979
191.210, 1067.534
192.592, 653.120
193.973, 408.740
195.355, 105.496
196.736, 9.911
198.116, 344.179
199.497, 398.405
200.877, 442.588
202.257, 466.727
203.637, 240.818
205.016, 364.861
206.395, 168.861
207.774, 162.854
209.153, 97.062
210.532, 11.829
211.910, 44.397
213.288, 177.151
214.666, 191.224
216.043, 365.225
217.421, 411.783
218.798, 709.509
220.175, 1115.700
221.551, 1362.671
222.928, 1849.029
224.304, 2241.271
225.680, 2766.160
227.055, 3374.196
228.431, 3726.165
229.806, 4467.052
231.181, 4477.881
232.556, 5088.729
233.930, 5566.145
235.304, 5476.043
236.678, 5946.982
238.052, 6488.813
239.426, 7864.494
240.799, 9283.854
242.172, 11914.521
243.545, 14635.145
244.917, 18145.723
246.290, 22356.254
247.662, 25806.752
249.034, 30357.211
250.405, 32887.605
251.777, 34817.898
253.148, 34707.883
254.519, 32337.686
255.889, 28937.461
257.260, 24277.180
258.630, 20796.830
260.000, 16966.393
261.370, 14345.891
262.739, 12205.328
264.108, 10124.709
265.477, 9374.047
266.846, 8313.344
268.215, 7912.609
269.583, 7301.846
270.951, 6861.059
272.319, 6820.254
273.686, 6529.434
275.054, 6408.603
276.421, 5967.765
277.788, 5936.924
279.154, 5476.082
280.521, 5133.887
281.887, 5092.976
283.253, 4858.508
284.619, 5161.361
285.984, 5133.955
287.349, 5317.666
288.714, 5813.171
290.079, 6011.456
291.444, 6900.242
292.808, 7418.378
294.172, 8365.974
295.536, 9383.153
296.899, 10070.098
298.263, 11056.986
299.626, 11263.915
300.989, 11280.896
302.351, 10067.953
303.714, 8435.075
305.076, 6352.260
306.438, 4439.505
307.799, 3166.811
309.161, 1954.180
310.522, 1291.609
311.883, 1039.103
313.244, 886.659
314.604, 904.279
315.965, 871.962
317.325, 1149.708
318.684, 1187.516
320.044, 1715.387
321.403, 1973.319
322.762, 2361.312
324.121, 2939.371
325.480, 3404.641
326.838, 4115.674
328.196, 4523.921
329.554, 5152.236
330.912, 5590.621
332.270, 5849.068
333.627, 6697.588
334.984, 7036.174
336.341, 7934.825
337.697, 8843.543
339.053, 9552.323
340.409, 10491.167
341.765, 11370.078
343.121, 12609.051
344.476, 13868.088
345.831, 15667.192
347.186, 18666.363
348.541, 21295.594
349.895, 25474.891
351.250, 27704.254
352.604, 30293.682
353.957, 30503.178
355.311, 28922.732
356.664, 25811.566
358.017, 21719.492
359.370, 17874.611
360.722, 13974.190
362.075, 10873.082
363.427, 8748.856
364.779, 6922.148
366.130, 5504.211
367.482, 4360.738
368.833, 3549.766
370.184, 2781.385
371.535, 2083.666
372.885, 1640.367
374.235, 972.728
375.585, 698.713
376.935, 97.318
378.285, 100.885
379.634, 303.240
380.983, 588.338
382.332, 601.676
383.680, 639.224
385.029, 469.994
386.377, 416.902
387.725, 281.919
389.073, 126.986
390.420, 15.951
391.767, 376.935
393.114, 476.973
394.461, 577.064
395.808, 727.213
397.154, 687.429
398.500, 707.747
399.846, 678.207
401.191, 618.765
402.537, 579.403
403.882, 390.111
405.227, 430.883
406.571, 137.718
407.916, 312.629
409.260, 112.604
410.604, 74.688
411.948, 105.868
413.291, 158.119
414.635, 378.509
415.978, 699.985
417.321, 1111.600
418.663, 1713.318
420.006, 2305.157
421.348, 3257.133
422.690, 4129.218
424.031, 5651.443
425.373, 6983.809
426.714, 8336.298
428.055, 10018.935
429.396, 11131.682
430.736, 12314.572
432.077, 12877.606
433.417, 13570.769
434.757, 14724.086
436.096, 15027.532
437.436, 15701.127
438.775, 16364.863
440.114, 17268.730
441.452, 18292.752
442.791, 19276.895
444.129, 21621.178
445.467, 24005.625
446.805, 28200.229
448.142, 33165.008
449.480, 38779.914
450.817, 44124.945
452.154, 47880.102
453.490, 47565.352
454.827, 44620.727
456.163, 39296.184
457.499, 34111.777
458.835, 27937.494
460.170, 23433.295
461.505, 19779.213
462.840, 16435.229
464.175, 14091.354
465.510, 11977.586
466.844, 10583.904
468.178, 9310.329
469.512, 8406.831
470.846, 7813.421
472.179, 7040.117
473.512, 6776.893
474.845, 6223.754
476.178, 5740.689
477.511, 5547.698
478.843, 5444.790
480.175, 5591.955
481.507, 5699.195
482.839, 5986.504
484.170, 6233.878
485.501, 6791.318
486.832, 7039.240
488.163, 7347.242
489.493, 8116.005
490.823, 8304.447
492.153, 8532.593
493.483, 8832.303
494.813, 8620.541
496.142, 8799.323
497.471, 8927.511
498.800, 9125.579
500.129, 9593.784
501.457, 10311.960
502.785, 11220.190
504.113, 12088.479
505.441, 13316.823
506.769, 14665.217
508.096, 16233.663
509.423, 17942.166
510.750, 19560.717
512.077, 21489.318
513.403, 22717.975
514.729, 23156.682
516.055, 22905.434
517.381, 21504.236
518.706, 19623.100
520.032, 16612.340
521.357, 13801.363
522.681, 11160.627
524.006, 9160.028
525.330, 7569.633
526.655, 6039.447
527.978, 5289.406
529.302, 4509.547
530.626, 3599.810
531.949, 2920.195
533.272, 2110.686
534.595, 1751.256
535.917, 1033.888
537.239, 868.568
538.562, 646.810
539.883, 445.692
541.205, 412.773
542.527, 261.260
543.848, 268.843
545.169, 389.651
546.489, 338.840
547.810, 762.320
549.130, 554.283
550.450, 786.347
551.770, 1200.479
553.090, 1524.651
554.409, 2154.862
555.728, 2476.111
557.047, 3317.398
558.366, 4109.080
559.685, 5101.384
561.003, 6473.768
562.321, 8146.979
563.639, 10479.991
564.956, 13763.333
566.274, 18418.270
567.591, 24021.766
568.908, 30334.031
570.225, 35544.172
571.541, 37408.516
572.857, 34107.984
574.173, 27175.369
575.489, 20184.469
576.805, 14475.516
578.120, 10340.263
579.435, 7828.967
580.750, 6271.216
582.065, 5330.576
583.380, 4999.778
584.694, 4725.440
586.008, 4716.735
587.322, 4917.921
588.635, 5219.276
589.949, 5877.821
591.262, 6485.068
592.575, 7237.558
593.887, 8173.813
595.200, 9064.826
596.512, 10415.022
597.824, 12011.021
599.136, 13904.382
600.447, 15767.038
601.759, 17706.635
603.070, 19428.480
604.381, 20753.289
605.692, 20865.250
607.002, 20125.744
608.312, 19018.834
609.622, 16940.885
610.932, 14659.146
612.242, 12702.412
613.551, 10591.650
614.860, 9134.593
616.169, 7876.914
617.478, 6691.916
618.786, 5853.460
620.094, 4889.850
621.402, 4080.019
622.710, 3699.542
624.018, 2796.111
625.325, 2482.246
626.632, 1896.712
627.939, 1661.842
629.246, 1340.887
630.552, 1081.354
631.859, 998.385
633.165, 785.326
634.471, 671.235
635.776, 552.927
637.082, 430.744
638.387, 402.832
639.692, 265.188
640.996, 251.022
642.301, 212.346
643.605, 77.081
644.909, 79.759
646.213, 11.390
647.516, 19.291
648.820, 112.005
650.123, 34.937
651.426, 133.409
652.729, 24.203
654.031, 185.671
655.333, 241.240
656.636, 223.358
657.937, 498.417
659.239, 461.415
660.540, 536.354
661.842, 629.230
663.142, 592.047
664.443, 699.800
665.744, 565.489
667.044, 605.116
668.344, 560.678
669.644, 505.174
670.944, 496.952
672.243, 371.970
673.542, 395.268
674.841, 378.497
676.140, 264.658
677.438, 463.748
678.737, 336.767
680.035, 429.714
681.333, 592.588
682.630, 616.389
683.928, 777.114
685.225, 754.764
686.522, 997.335
687.819, 1126.829
689.115, 1179.243
690.412, 1351.577
691.708, 1305.829
693.004, 1453.000
694.300, 1322.089
695.595, 1281.108
696.890, 1441.090
698.185, 1218.095
699.480, 1437.123
700.775, 1378.183
702.069, 1266.236
703.363, 1437.270
704.657, 1194.257
705.951, 1167.175
707.244, 1066.004
708.538, 792.746
709.831, 802.399
711.124, 547.961
712.416, 549.435
713.709, 426.816
715.001, 292.104
716.293, 287.292
717.585, 103.378
718.876, 164.357
720.167, 100.229
721.459, 24.991
722.749, 99.622
724.040, 88.859
725.331, 52.533
726.621, 60.618
727.911, 196.355
729.201, 1.582
730.490, 185.962
731.780, 55.593
733.069, 112.409
734.358, 173.440
735.646, 68.719
736.935, 180.194
738.223, 175.922
739.511, 117.904
740.799, 206.110
742.087, 43.588
743.374, 204.252
744.661, 158.189
745.948, 136.374
747.235, 218.798
748.522, 118.504
749.808, 193.440
751.094, 179.647
752.380, 112.118
753.666, 228.817
754.951, 57.808
756.236, 167.999
757.521, 203.450
758.806, 91.179
760.091, 205.128
761.375, 22.357
762.659, 63.771
763.943, 47.390
765.227, 12.793
766.511, 67.190
767.794, 3.381
769.077, 62.748
770.360, 53.319
771.643, 97.908
772.925, 42.000
774.207, 48.898
775.489, 21.354
776.771, 11.790
778.053, 110.596
779.334, 7.150
780.615, 183.927
781.896, 80.883
783.177, 24.300
784.457, 168.333
785.738, 78.844
787.018, 223.216
788.298, 219.470
789.577, 85.605
790.857, 311.604
792.136, 142.489
793.415, 303.250
794.694, 688.896
795.972, 524.441
797.251, 821.880
798.529, 737.798
799.807, 356.598
801.084, 379.593
802.362, 355.865
803.639, 497.388
804.916, 408.303
806.193, 524.648
807.470, 585.407
808.746, 545.712
810.022, 719.103
811.298, 643.313
812.574, 676.508
813.850, 841.605
815.125, 771.606
816.400, 996.510
817.675, 1009.317
818.950, 993.028
820.224, 1259.644
821.499, 1251.165
822.773, 1453.590
824.047, 1418.920
825.320, 1575.157
826.594, 1737.298
827.867, 1805.347
829.140, 1944.302
830.413, 2055.856
831.685, 2072.625
832.958, 2272.245
834.230, 2192.829
835.502, 2190.324
836.774, 2314.728
838.045, 2275.039
839.316, 2430.261
840.588, 2360.393
841.858, 2512.435
843.129, 2684.390
844.400, 2711.254
845.670, 2858.031
846.940, 3027.720
848.210, 3231.320
849.479, 3518.845
850.749, 3719.283
852.018, 4056.641
853.287, 4328.121
854.556, 4634.467
855.824, 4971.208
857.093, 5287.235
858.361, 5693.176
859.629, 6038.044
860.896, 6348.827
862.164, 6999.545
863.431, 7360.178
864.698, 8110.733
865.965, 8791.227
867.232, 9641.281
868.498, 10560.666
869.764, 11489.937
871.030, 12558.331
872.296, 13556.897
873.562, 14845.087
874.827, 16141.635
876.092, 17689.576
877.357, 19228.709
878.622, 20309.918
879.886, 21296.881
881.151, 21518.670
882.415, 21202.510
883.679, 20414.586
884.942, 18934.668
886.206, 17721.004
887.469, 16373.335
888.732, 14962.073
889.995, 14223.648
891.258, 13425.335
892.520, 12600.520
893.782, 12230.024
895.044, 11579.588
896.306, 10848.931
897.568, 10331.038
898.829, 9544.384
900.090, 9182.437
901.351, 8756.675
902.612, 8446.100
903.872, 8436.291
905.133, 8340.626
906.393, 8837.560
907.653, 9275.143
908.912, 9685.733
910.172, 10664.035
911.431, 11019.316
912.690, 11927.385
913.949, 12146.876
915.208, 12473.717
916.466, 12471.559
917.724, 11903.136
918.982, 11059.654
920.240, 10280.146
921.498, 9326.875
922.755, 8464.178
924.012, 7558.744
925.269, 6636.712
926.526, 6309.779
927.782, 5419.008
929.039, 4912.828
930.295, 4565.544
931.551, 4020.637
932.806, 3763.360
934.062, 3375.360
935.317, 2902.387
936.572, 2878.949
937.827, 2408.890
939.082, 2190.863
940.336, 2056.809
941.590, 1699.912
942.844, 1776.241
944.098, 1520.456
945.352, 1290.733
946.605, 1375.496
947.859, 1190.708
949.112, 1280.450
950.364, 1112.187
951.617, 961.689
952.869, 1149.312
954.121, 941.839
955.373, 1110.959
956.625, 1055.753
957.877, 928.036
959.128, 1006.578
960.379, 933.961
961.630, 944.733
962.881, 953.506
964.131, 963.276
965.381, 1086.045
966.631, 979.841
967.881, 1087.635
969.131, 1281.430
970.380, 1260.241
971.630, 1447.052
972.879, 1675.865
974.128, 1933.688
975.376, 2096.513
976.625, 2363.368
977.873, 2762.227
979.121, 3249.089
980.369, 3712.963
981.616, 4362.843
982.864, 4574.729
984.111, 4904.625
985.358, 4729.655
986.605, 4461.567
987.851, 4068.484
989.097, 3397.412
990.344, 2879.367
991.589, 2584.446
992.835, 1974.419
994.081, 1888.408
995.326, 1577.407
996.571, 1232.423
997.816, 1301.451
999.061, 1001.737
1000.305, 860.791
1001.550, 897.218
1002.794, 610.296
1004.037, 699.400
1005.281, 626.152
1006.525, 450.288
1007.768, 505.438
1009.011, 424.801
1010.254, 469.000
1011.496, 597.666
1012.739, 587.896
1013.981, 733.022
1015.223, 686.663
1016.465, 858.959
1017.706, 1075.498
1018.948, 1038.033
1020.189, 1420.423
1021.430, 1556.949
1022.671, 1653.448
1023.911, 2078.920
1025.152, 1968.728
1026.392, 2389.266
1027.632, 2331.029
1028.872, 2275.384
1030.111, 2517.098
1031.350, 2304.168
1032.590, 2452.031
1033.829, 2601.997
1035.067, 2578.534
1036.306, 2802.646
1037.544, 3078.006
1038.782, 3183.297
1040.020, 3467.688
1041.258, 3477.775
1042.495, 3790.354
1043.733, 3812.041
1044.970, 3824.164
1046.207, 4123.029
1047.443, 3780.992
1048.680, 3835.049
1049.916, 3760.220
1051.152, 3402.484
1052.388, 3532.854
1053.624, 3291.333
1054.859, 2935.812
1056.094, 3063.499
1057.329, 2810.262
1058.564, 2916.626
1059.799, 2889.606
1061.033, 2800.114
1062.268, 3122.294
1063.502, 2930.541
1064.735, 3062.798
1065.969, 3078.196
1067.202, 2822.652
1068.436, 2858.185
1069.669, 2807.782
1070.902, 2609.336
1072.134, 2758.085
1073.367, 2569.877
1074.599, 2606.777
1075.831, 3096.691
1077.062, 2845.836
1078.294, 3089.881
1079.525, 3172.970
1080.757, 3447.095
1081.988, 3812.281
1083.218, 3975.512
1084.449, 4566.324
1085.679, 5033.762
1086.909, 5351.247
1088.139, 6183.836
1089.369, 6386.389
1090.599, 6892.604
1091.828, 6855.231
1093.057, 6037.896
1094.286, 5815.327
1095.515, 4599.049
1096.744, 3556.801
1097.972, 3016.777
1099.200, 2303.581
1100.428, 1707.432
1101.656, 1630.879
1102.883, 1257.774
1104.111, 1139.034
1105.338, 1075.985
1106.565, 816.962
1107.791, 956.792
1109.018, 720.821
1110.244, 639.447
1111.470, 762.672
1112.696, 508.777
1113.922, 549.305
1115.147, 526.457
1116.373, 304.632
1117.598, 445.500
1118.823, 266.721
1120.047, 252.176
1121.272, 327.090
1122.496, 169.381
1123.720, 297.871
1124.944, 232.209
1126.168, 85.570
1127.391, 263.631
1128.615, 140.034
1129.838, 178.514
1131.061, 248.445
1132.283, 12.088
1133.506, 170.189
1134.728, 133.697
1135.950, 41.225
1137.172, 125.222
1138.394, 10.210
1139.615, 79.376
1140.837, 134.477
1142.058, 17.102
1143.279, 94.999
1144.499, 18.837
1145.720, 92.479
1146.940, 137.750
1148.160, 64.549
1149.380, 38.157
1150.600, 64.589
1151.819, 122.658
1153.038, 106.871
1154.257, 28.931
1155.476, 109.298
1156.695, 49.540
1157.913, 134.656
1159.132, 7.092
1160.350, 41.328
1161.568, 147.557
1162.785, 88.284
1164.003, 12.827
1165.220, 77.057
1166.437, 182.609
1167.654, 135.126
1168.871, 1.383
1170.087, 66.231
1171.304, 49.000
1172.520, 117.788
1173.736, 6.661
1174.951, 56.734
1176.167, 158.050
1177.382, 108.913
1178.597, 54.853
1179.812, 57.676
1181.027, 48.541
1182.241, 143.238
1183.455, 4.237
1184.669, 8.554
1185.883, 150.352
1187.097, 86.455
1188.311, 74.322
1189.524, 77.322
1190.737, 10.892
1191.950, 166.894
1193.162, 6.141
1194.375, 40.933
1195.587, 164.727
1196.799, 8.941
1198.011, 110.737
1199.223, 118.562
1200.434, 60.513
1201.646, 195.253
1202.857, 92.292
1204.068, 29.947
1205.279, 231.811
1206.489, 5.060
1207.699, 122.685
1208.909, 155.425
1210.119, 85.841
1211.329, 191.842
1212.539, 109.521
1213.748, 48.191
1214.957, 196.854
1216.166, 26.231
1217.375, 102.398
1218.583, 119.019
1219.792, 21.796
1221.000, 230.397
1222.208, 14.986
1223.415, 72.561
1224.623, 255.124
1225.830, 53.325
1227.037, 163.176
1228.244, 224.813
1229.451, 33.122
1230.658, 242.522
1231.864, 126.934
1233.070, 65.492
1234.276, 247.880
1235.482, 27.737
1236.687, 99.606
1237.893, 184.940
1239.098, 41.750
1240.303, 222.528
1241.508, 160.767
1242.712, 57.211
1243.917, 230.426
1245.121, 24.367
1246.325, 40.973
1247.529, 124.092
1248.732, 73.800
1249.936, 184.258
1251.139, 159.274
1252.342, 41.499
1253.545, 231.479
1254.747, 52.447
1255.950, 98.105
1257.152, 215.015
1258.354, 50.087
1259.556, 193.914
1260.758, 182.739
1261.959, 3.451
1263.160, 212.327
1264.361, 99.074
1265.562, 37.271
1266.763, 218.950
1267.963, 38.387
1269.164, 197.081
1270.364, 253.647
1271.563, 43.169
1272.763, 367.717
1273.963, 154.187
1275.162, 83.894
1276.361, 317.308
1277.560, 74.572
1278.759, 179.477
1279.957, 369.805
1281.155, 0.886
1282.354, 212.594
1283.551, 203.724
1284.749, 61.947
1285.947, 342.385
1287.144, 71.558
1288.341, 149.834
1289.538, 275.955
1290.735, 98.809
1291.931, 275.787
1293.128, 210.478
1294.324, 38.508
1295.520, 299.244
1296.716, 92.582
1297.911, 128.527
1299.107, 240.449
1300.302, 11.150
1301.497, 197.010
1302.692, 283.238
1303.886, 14.840
1305.081, 334.052
1306.275, 175.223
1307.469, 47.728
1308.663, 275.584
1309.856, 6.165
1311.050, 108.225
1312.243, 259.792
1313.436, 87.070
1314.629, 300.372
1315.822, 198.340
1317.014, 31.578
1318.206, 172.737
1319.398, 232.275
1320.590, 148.407
1321.782, 312.383
1322.974, 80.447
1324.165, 253.479
1325.356, 252.051
1326.547, 31.022
1327.738, 251.805
1328.928, 219.695
1330.119, 120.557
1331.309, 331.814
1332.499, 156.608
1333.688, 230.356
1334.878, 331.854
1336.067, 116.495
1337.256, 277.098
1338.445, 308.767
1339.634, 122.305
1340.823, 381.801
1342.011, 208.236
1343.199, 184.641
1344.388, 396.092
1345.575, 149.424
1346.763, 267.719
1347.950, 310.950
1349.138, 132.176
1350.325, 409.921
1351.512, 271.188
1352.698, 229.307
1353.885, 507.458
1355.071, 254.559
1356.257, 304.571
1357.443, 446.547
1358.629, 156.493
1359.814, 476.528
1361.000, 394.459
1362.185, 178.149
1363.370, 533.753
1364.554, 283.434
1365.739, 308.805
1366.923, 552.280
1368.107, 254.696
1369.291, 414.071
1370.475, 180.357
1371.659, 226.409
1372.842, 30.730
1374.025, 247.344
1375.208, 179.150
1376.391, 474.312
1377.574, 258.083
1378.756, 211.921
1379.939, 466.365
1381.121, 244.744
1382.303, 370.654
1383.484, 395.274
1384.666, 156.753
1385.847, 460.450
1387.028, 316.557
1388.209, 160.664
1389.390, 432.659
1390.570, 243.450
1391.751, 229.547
1392.931, 448.327
1394.111, 145.162
1395.291, 346.825
1396.470, 354.928
1397.649, 93.602
1398.829, 435.772
1400.008, 281.236
1401.187, 161.801
1402.365, 494.360
1403.544, 233.956
1404.722, 260.201
1405.900, 492.891
1407.078, 107.583
1408.255, 358.276
1409.433, 399.255
1410.610, 75.102
1411.787, 453.008
1412.964, 271.116
1414.141, 170.236
1415.317, 433.800
1416.494, 115.540
1417.670, 247.993
1418.846, 443.280
1420.022, 89.345
1421.197, 312.806
1422.373, 355.287
1423.548, 127.146
1424.723, 412.239
1425.898, 247.902
1427.072, 120.237
1428.247, 409.844
1429.421, 146.816
1430.595, 190.596
1431.769, 406.772
1432.942, 66.255
1434.116, 334.335
1435.289, 296.452
1436.462, 8.530
1437.635, 361.114
1438.808, 295.834
1439.981, 181.828
1441.153, 405.797
1442.325, 220.775
1443.497, 266.752
1444.669, 354.684
1445.840, 50.507
1447.012, 255.561
