##NAMES=Epidote
##RRUFFID=R050303
##IDEAL CHEMISTRY=Ca_2_Fe^3+^Al_2_(Si_2_O_7_)(SiO_4_)O(OH)
##LOCALITY=San Martin mine, Zacatecas, Mexico
##OWNER=RRUFF
##SOURCE=Eugene Schlepp
##DESCRIPTION=Green elongated prismatic crystals
##STATUS=The identification of this mineral has been confirmed by X-ray diffraction and chemical analysis
##URL=rruff.info/R050303
##MEASURED CHEMISTRY=Ca_2.00_Al_2.00_(Fe^3+^_0.97_Al_0.03_)(SiO_4_)(Si_2_O_7_)O(OH)
##PIN_ID=L01741
##ORIENTATION=Laser parallel to -a* (-1 0 0). Fiducial mark perpendicular to laser is parallel to -b [0 -1 0]
53.91000, 0.0000000E+00
55.14900, 86.66577
56.38700, 134.7960
57.62600, 168.3955
58.86400, 270.6554
60.10300, 303.5206
61.34100, 205.4177
62.57900, 98.55811
63.81700, 15.91980
65.05400, 59.53552
66.29200, 76.84583
67.52900, 41.38098
68.76700, 284.3821
70.00400, 520.0220
71.24100, 698.1677
72.47700, 876.4927
73.71400, 1182.699
74.95100, 1637.495
76.18700, 2163.603
77.42300, 2638.789
78.65900, 3283.847
79.89500, 4202.596
81.13100, 5382.881
82.36700, 6975.570
83.60200, 8954.533
84.83700, 10907.67
86.07200, 13158.86
87.30800, 15421.02
88.54200, 17568.06
89.77700, 18414.91
91.01200, 18437.48
92.24600, 16916.68
93.48000, 14733.35
94.71400, 12443.38
95.94800, 10557.68
97.18200, 9268.181
98.41600, 8126.842
99.64900, 6577.670
100.8830, 5787.625
102.1160, 5131.666
103.3490, 4549.750
104.5820, 4473.847
105.8150, 4600.958
107.0470, 5347.084
108.2800, 4744.875
109.5120, 5450.269
110.7440, 4068.269
111.9760, 3590.173
113.2080, 3499.955
114.4400, 3597.597
115.6710, 3495.074
116.9030, 3187.372
118.1340, 2990.470
119.3650, 2804.353
120.5960, 2672.003
121.8270, 2620.409
123.0580, 2520.452
124.2880, 2462.828
125.5190, 2453.013
126.7490, 2372.301
127.9790, 2397.146
129.2090, 2375.125
130.4390, 2379.209
131.6680, 2318.379
132.8980, 2277.630
134.1270, 2117.935
135.3560, 2094.420
136.5850, 2176.157
137.8140, 2138.170
139.0430, 2385.481
140.2710, 2384.170
141.5000, 2357.519
142.7280, 2304.714
143.9560, 2308.729
145.1840, 2385.280
146.4120, 2483.178
147.6390, 2417.413
148.8670, 2571.992
150.0940, 2657.926
151.3210, 2945.222
152.5490, 3106.885
153.7750, 3128.945
155.0020, 3474.625
156.2290, 3824.128
157.4550, 4212.479
158.6810, 4811.426
159.9080, 5709.773
161.1340, 6882.466
162.3590, 8289.917
163.5850, 9926.891
164.8110, 11949.62
166.0360, 14258.70
167.2610, 16813.12
168.4860, 19422.88
169.7110, 21700.00
170.9360, 22921.46
172.1610, 22625.26
173.3850, 20563.41
174.6100, 18052.90
175.8340, 15141.74
177.0580, 12594.91
178.2820, 10546.43
179.5050, 8891.289
180.7290, 7482.486
181.9520, 6398.021
183.1760, 5514.890
184.3990, 5009.096
185.6220, 4593.635
186.8450, 4155.506
188.0670, 4092.707
189.2900, 3792.236
190.5120, 3574.093
191.7340, 3348.275
192.9560, 3397.781
194.1780, 3428.609
195.4000, 3700.757
196.6220, 3827.227
197.8430, 4234.011
199.0640, 4243.111
200.2860, 4545.526
201.5070, 4539.129
202.7270, 4176.412
203.9480, 3679.332
205.1690, 3265.814
206.3890, 2936.171
207.6090, 2693.004
208.8290, 2656.350
210.0490, 2645.908
211.2690, 2690.443
212.4890, 3030.451
213.7080, 3219.030
214.9280, 3486.656
216.1470, 4097.631
217.3660, 4574.171
218.5850, 5348.256
219.8030, 6156.863
221.0220, 7325.980
222.2400, 8757.588
223.4590, 10074.67
224.6770, 11389.58
225.8950, 13016.36
227.1120, 13981.57
228.3300, 14310.75
229.5480, 14133.40
230.7650, 13567.32
231.9820, 12859.68
233.1990, 12344.11
234.4160, 12183.31
235.6330, 12044.36
236.8490, 12105.91
238.0660, 12648.81
239.2820, 12363.10
240.4980, 11868.76
241.7140, 10535.80
242.9300, 8872.228
244.1460, 6908.043
245.3610, 5464.228
246.5770, 4111.783
247.7920, 3362.680
249.0070, 2596.920
250.2220, 2065.488
251.4370, 1808.373
252.6510, 1417.774
253.8660, 1210.976
255.0800, 1271.178
256.2940, 1169.967
257.5080, 1331.688
258.7220, 1307.410
259.9360, 1660.743
261.1490, 1452.600
262.3630, 1513.707
263.5760, 1804.333
264.7890, 2233.209
266.0020, 2600.334
267.2150, 3420.703
268.4270, 4340.313
269.6400, 5601.164
270.8520, 6985.252
272.0640, 7938.572
273.2760, 8498.121
274.4880, 7845.901
275.7000, 6661.912
276.9120, 5040.150
278.1230, 3757.621
279.3340, 2832.320
280.5450, 2026.250
281.7560, 1687.411
282.9670, 1333.803
284.1780, 1387.424
285.3880, 1168.272
286.5980, 1136.351
287.8090, 1427.653
289.0190, 1654.178
290.2290, 1869.923
291.4380, 2080.885
292.6480, 2169.062
293.8570, 2135.455
295.0670, 2249.063
296.2760, 1997.885
297.4850, 2085.918
298.6930, 1846.163
299.9020, 1759.618
301.1110, 1578.281
302.3190, 1540.148
303.5270, 1408.216
304.7350, 1548.484
305.9430, 1458.949
307.1510, 1408.611
308.3580, 1239.470
309.5660, 996.5215
310.7730, 1009.769
311.9800, 1124.209
313.1870, 1019.841
314.3940, 1244.663
315.6010, 1196.506
316.8070, 1234.878
318.0130, 1205.268
319.2200, 1357.846
320.4260, 1359.608
321.6310, 1516.557
322.8370, 1318.688
324.0430, 1439.005
325.2480, 1474.503
326.4540, 1384.183
327.6590, 1622.042
328.8640, 1703.081
330.0680, 1907.299
331.2730, 2107.693
332.4780, 2282.265
333.6820, 2669.012
334.8860, 3236.934
336.0900, 3778.029
337.2940, 4754.295
338.4980, 5778.733
339.7010, 7356.344
340.9050, 9072.125
342.1080, 11197.07
343.3110, 13419.19
344.5140, 15396.47
345.7170, 17404.92
346.9200, 18354.60
348.1220, 18231.51
349.3240, 17040.66
350.5270, 14894.05
351.7290, 12655.68
352.9310, 10264.55
354.1320, 8197.663
355.3340, 6548.012
356.5350, 5097.609
357.7370, 4076.455
358.9380, 3158.540
360.1390, 2621.852
361.3400, 1916.384
362.5400, 1520.135
363.7410, 1034.100
364.9410, 726.2783
366.1410, 542.6670
367.3410, 274.2666
368.5410, 72.92773
369.7410, 159.9346
370.9400, 350.7773
372.1400, 504.5205
373.3390, 479.2197
374.5380, 542.8691
375.7370, 448.4941
376.9360, 486.0645
378.1350, 164.5947
379.3330, 81.97754
380.5310, 443.8066
381.7300, 600.2588
382.9280, 1257.646
384.1260, 1723.768
385.3230, 2183.313
386.5210, 2370.984
387.7180, 2326.289
388.9160, 2003.792
390.1130, 1660.369
391.3100, 983.9902
392.5060, 530.3789
393.7030, 180.4023
394.9000, 93.62598
396.0960, 79.77344
397.2920, 216.1904
398.4880, 367.8730
399.6840, 415.5205
400.8800, 449.1543
402.0750, 448.7871
403.2710, 438.4297
404.4660, 108.0732
405.6610, 202.5996
406.8560, 61.96094
408.0510, 69.68262
409.2450, 452.5576
410.4400, 671.6074
411.6340, 1229.814
412.8280, 1649.180
414.0220, 2226.696
415.2160, 2805.366
416.4100, 4023.194
417.6030, 5186.184
418.7970, 6550.344
419.9900, 8108.672
421.1830, 9622.167
422.3760, 10982.84
423.5690, 12067.67
424.7610, 13839.65
425.9540, 15394.78
427.1460, 18123.08
428.3380, 21619.53
429.5300, 25702.15
430.7220, 30023.92
431.9140, 32988.88
433.1050, 33902.98
434.2970, 32654.24
435.4880, 29462.66
436.6790, 25556.22
437.8700, 22186.94
439.0610, 19981.80
440.2510, 18144.81
441.4420, 17004.98
442.6320, 17021.27
443.8220, 17413.71
445.0120, 18011.28
446.2020, 19029.97
447.3910, 19876.82
448.5810, 20628.83
449.7700, 20841.98
450.9600, 21005.28
452.1490, 20796.74
453.3370, 20136.35
454.5260, 18638.13
455.7150, 16339.03
456.9030, 14041.08
458.0910, 11943.28
459.2800, 9601.629
460.4670, 7689.138
461.6550, 6350.771
462.8430, 5161.561
464.0300, 4043.469
465.2180, 3182.532
466.4050, 2531.768
467.5920, 2111.152
468.7790, 1560.673
469.9650, 1453.329
471.1520, 1128.127
472.3380, 847.0527
473.5250, 718.1104
474.7110, 645.3184
475.8970, 557.6562
477.0820, 471.1230
478.2680, 375.7207
479.4540, 510.4307
480.6390, 571.2656
481.8240, 568.2158
483.0090, 690.2754
484.1940, 978.4453
485.3780, 1278.729
486.5630, 1402.119
487.7470, 1842.607
488.9320, 2205.193
490.1160, 2758.878
491.3000, 3462.676
492.4830, 4194.572
493.6670, 5046.560
494.8500, 5924.635
496.0340, 6876.807
497.2170, 7494.064
498.4000, 7795.404
499.5820, 7928.818
500.7650, 8157.311
501.9480, 8091.881
503.1300, 8715.521
504.3120, 9075.246
505.4940, 9781.042
506.6760, 9721.906
507.8580, 9073.834
509.0390, 8128.824
510.2210, 6991.879
511.4020, 5583.631
512.5830, 4488.021
513.7640, 3552.475
514.9450, 2716.438
516.1250, 2043.407
517.3060, 1426.562
518.4860, 1190.721
519.6660, 761.2617
520.8460, 432.4492
522.0260, 283.2031
523.2060, 80.87402
524.3850, 36.42188
525.5650, 105.6807
526.7440, 108.9434
527.9230, 166.0791
529.1020, 213.5342
530.2810, 132.9189
531.4590, 169.4814
532.6380, 46.16992
533.8160, 76.81738
534.9940, 25.13574
536.1720, 15.80566
537.3500, 36.15820
538.5270, 104.0918
539.7050, 208.3906
540.8820, 246.9365
542.0590, 349.2461
543.2360, 498.9688
544.4130, 598.5420
545.5900, 879.2119
546.7660, 854.7891
547.9430, 1204.642
549.1190, 1320.486
550.2950, 1694.161
551.4710, 2019.584
552.6470, 2481.465
553.8220, 3166.779
554.9980, 3942.884
556.1730, 4910.816
557.3480, 6249.758
558.5230, 7894.154
559.6980, 9548.063
560.8730, 11388.37
562.0470, 12444.25
563.2220, 12219.44
564.3960, 11135.71
565.5700, 9312.344
566.7440, 7502.604
567.9170, 6319.590
569.0910, 5737.484
570.2640, 5205.663
571.4380, 5020.566
572.6110, 5226.643
573.7840, 5629.752
574.9570, 5982.105
576.1290, 6834.436
577.3020, 7693.771
578.4740, 8676.409
579.6460, 10120.57
580.8180, 11509.94
581.9900, 13144.57
583.1620, 14656.75
584.3330, 16014.69
585.5040, 17251.28
586.6760, 18500.73
587.8470, 19695.04
589.0180, 21288.54
590.1880, 23472.65
591.3590, 25854.80
592.5290, 28196.48
593.7000, 30092.78
594.8700, 31152.05
596.0400, 31192.90
597.2090, 30171.75
598.3790, 28221.21
599.5490, 26486.59
600.7180, 24570.39
601.8870, 22788.73
603.0560, 21495.19
604.2250, 20862.13
605.3940, 20542.54
606.5620, 20427.67
607.7300, 20500.54
608.8990, 20439.49
610.0670, 20659.79
611.2350, 20240.44
612.4020, 19291.06
613.5700, 17764.79
614.7370, 15949.41
615.9050, 14218.33
617.0720, 12409.62
618.2390, 10596.31
619.4060, 9068.563
620.5720, 7820.727
621.7390, 6668.096
622.9050, 5762.174
624.0710, 5345.691
625.2370, 4485.119
626.4030, 3974.404
627.5690, 3757.456
628.7340, 3326.442
629.9000, 3021.951
631.0650, 2897.621
632.2300, 2591.771
633.3950, 2321.966
634.5600, 2055.605
635.7240, 2042.467
636.8890, 1905.828
638.0530, 1741.883
639.2170, 1631.980
640.3810, 1627.724
641.5450, 1475.340
642.7080, 1379.777
643.8720, 1339.161
645.0350, 1151.493
646.1980, 1078.234
647.3610, 1009.732
648.5240, 1113.332
649.6870, 800.1543
650.8490, 850.9160
652.0120, 787.6836
653.1740, 654.3447
654.3360, 697.6650
655.4980, 475.9893
656.6600, 496.3125
657.8210, 513.9521
658.9830, 381.3730
660.1440, 428.7031
661.3050, 490.9785
662.4660, 418.1875
663.6270, 369.8408
664.7870, 305.6660
665.9480, 292.8652
667.1080, 263.8525
668.2680, 283.5977
669.4280, 248.9189
670.5880, 253.1201
671.7480, 265.3848
672.9070, 232.6826
674.0670, 184.3047
675.2260, 160.3828
676.3850, 208.3467
677.5440, 147.0225
678.7030, 148.7793
679.8610, 67.84375
681.0200, 66.87207
682.1780, 65.87793
683.3360, 108.8652
684.4940, 80.84473
685.6520, 101.8057
686.8090, 56.69531
687.9670, 129.5146
689.1240, 215.2422
690.2810, 13.88574
691.4380, 136.4014
692.5950, 115.8252
693.7520, 196.1484
694.9080, 141.3857
696.0650, 91.52637
697.2210, 41.56445
698.3770, 7.890625
699.5330, 1.273438
700.6880, 8.926758
701.8440, 45.55176
702.9990, 83.80957
704.1550, 70.06348
705.3100, 48.20508
706.4650, 7.231445
707.6190, 30.12402
708.7740, 27.10742
709.9290, 29.50879
711.0830, 57.00000
712.2370, 6.323242
713.3910, 13.49023
714.5450, 20.54980
715.6980, 45.46094
716.8520, 14.25293
718.0050, 23.91309
719.1580, 1.446289
720.3110, 13.52539
721.4640, 87.10156
722.6170, 57.25391
723.7700, 70.28906
724.9220, 125.2119
726.0740, 3.2226998E-02
727.2260, 67.28711
728.3780, 45.78027
729.5300, 46.56348
730.6810, 104.2100
731.8330, 51.17773
732.9840, 83.30957
734.1350, 52.37891
735.2860, 31.05078
736.4370, 57.63281
737.5880, 73.37988
738.7380, 97.30176
739.8880, 26.58984
741.0390, 94.63867
742.1890, 78.94922
743.3380, 112.5713
744.4880, 173.2842
745.6380, 91.21875
746.7870, 46.33203
747.9360, 53.59863
749.0850, 77.02344
750.2340, 30.61621
751.3830, 50.15820
752.5310, 130.2412
753.6800, 57.32324
754.8280, 49.56055
755.9760, 73.94629
757.1240, 5.493164
758.2720, 54.16406
759.4190, 27.98242
760.5670, 10.93555
761.7140, 18.10742
762.8610, 36.21387
764.0080, 20.54980
765.1550, 42.98926
766.3020, 2.575195
767.4480, 8.936523
768.5950, 69.03711
769.7410, 14.96680
770.8870, 6.987305
772.0330, 30.83594
773.1780, 35.41406
774.3240, 34.21191
775.4690, 45.74121
776.6140, 109.1748
777.7590, 50.52051
778.9040, 51.77344
780.0490, 206.9346
781.1940, 53.98242
782.3380, 130.9785
783.4820, 87.85840
784.6260, 98.65234
785.7700, 240.3652
786.9140, 55.00391
788.0580, 144.5557
789.2010, 132.0303
790.3450, 135.4287
791.4880, 241.7520
792.6310, 211.0020
793.7730, 201.1807
794.9160, 124.2871
796.0590, 168.3184
797.2010, 339.2773
798.3430, 210.1670
799.4850, 329.9834
800.6270, 319.7314
801.7690, 231.4170
802.9100, 384.0166
804.0520, 341.5566
805.1930, 425.9043
806.3340, 301.4893
807.4750, 472.9150
808.6160, 478.4453
809.7560, 641.0176
810.8970, 582.4902
812.0370, 720.5713
813.1770, 872.3369
814.3170, 768.6436
815.4570, 972.1787
816.5960, 865.6885
817.7360, 1045.266
818.8750, 1143.744
820.0140, 1292.123
821.1530, 1472.426
822.2920, 1687.197
823.4310, 1830.304
824.5690, 2070.116
825.7070, 2243.646
826.8460, 2457.320
827.9840, 2523.219
829.1220, 2538.630
830.2590, 2626.582
831.3970, 2645.236
832.5340, 2577.994
833.6710, 2697.233
834.8080, 2704.988
835.9450, 2723.393
837.0820, 2601.983
838.2190, 2724.167
839.3550, 2671.012
840.4910, 2653.735
841.6270, 2691.068
842.7630, 2710.244
843.8990, 2806.658
845.0350, 2844.633
846.1700, 2939.291
847.3060, 3071.239
848.4410, 3232.900
849.5760, 3462.507
850.7100, 3674.854
851.8450, 3955.188
852.9800, 4247.485
854.1140, 4533.441
855.2480, 4775.842
856.3820, 5079.992
857.5160, 5343.846
858.6500, 5603.121
859.7830, 5894.592
860.9170, 6150.386
862.0500, 6358.267
863.1830, 6499.261
864.3160, 6554.029
865.4480, 6507.150
866.5810, 6616.189
867.7130, 6546.660
868.8460, 6952.474
869.9780, 7181.299
871.1100, 7381.501
872.2410, 7912.675
873.3730, 8454.218
874.5050, 9171.804
875.6360, 9911.694
876.7670, 10931.53
877.8980, 11685.94
879.0290, 12650.85
880.1590, 13751.26
881.2900, 14556.91
882.4200, 14780.78
883.5500, 15358.54
884.6800, 15658.93
885.8100, 15439.92
886.9400, 14906.93
888.0690, 14414.80
889.1990, 14176.72
890.3280, 14066.31
891.4570, 13874.51
892.5860, 13708.28
893.7140, 13936.46
894.8430, 14445.70
895.9710, 15329.69
897.1000, 16165.85
898.2280, 17235.70
899.3560, 18444.52
900.4830, 20012.45
901.6110, 21526.56
902.7380, 23614.70
903.8660, 26214.27
904.9930, 28648.64
906.1200, 31733.48
907.2460, 34481.25
908.3730, 38213.52
909.5000, 41805.54
910.6260, 45093.02
911.7520, 47579.78
912.8780, 49928.45
914.0040, 50343.42
915.1290, 49697.50
916.2550, 47158.05
917.3800, 43913.91
918.5050, 39566.13
919.6300, 35171.91
920.7550, 30740.88
921.8800, 26777.71
923.0040, 23062.28
924.1290, 20016.86
925.2530, 17303.40
926.3770, 15062.03
927.5010, 13180.00
928.6250, 11320.00
929.7480, 9978.040
930.8720, 8832.803
931.9950, 8045.812
933.1180, 7132.943
934.2410, 6359.112
935.3640, 5626.313
936.4860, 5071.079
937.6090, 4683.823
938.7310, 4212.131
939.8530, 3832.479
940.9750, 3566.863
942.0970, 3143.285
943.2180, 2915.744
944.3400, 2767.244
945.4610, 2620.780
946.5820, 2314.355
947.7030, 2318.974
948.8240, 2103.634
949.9450, 1885.337
951.0650, 1851.084
952.1860, 1738.877
953.3060, 1595.722
954.4260, 1660.622
955.5460, 1486.578
956.6650, 1334.584
957.7850, 1394.645
958.9040, 1483.760
960.0230, 1188.936
961.1420, 1410.161
962.2610, 1238.434
963.3800, 1253.773
964.4990, 1108.168
965.6170, 1173.634
966.7350, 1207.151
967.8530, 1329.722
968.9710, 1408.350
970.0890, 1433.056
971.2070, 1651.835
972.3240, 1782.688
973.4410, 1837.620
974.5580, 1976.649
975.6750, 2093.742
976.7920, 2258.924
977.9090, 2173.171
979.0250, 1954.495
980.1410, 1746.892
981.2580, 1481.373
982.3740, 1158.928
983.4890, 932.5762
984.6050, 812.3037
985.7200, 522.1328
986.8360, 514.0498
987.9510, 380.0518
989.0660, 358.1406
990.1810, 345.3066
991.2950, 213.5586
992.4100, 144.9219
993.5240, 213.3604
994.6390, 90.88965
995.7530, 23.52344
996.8660, 197.2275
997.9800, 65.02734
999.0940, 190.9551
1000.207, 88.98633
1001.320, 229.0967
1002.433, 48.64355
1003.546, 10.87793
1004.659, 181.4053
1005.772, 153.3301
1006.884, 179.0430
1007.996, 366.7627
1009.108, 582.9141
1010.220, 559.9609
1011.332, 827.9824
1012.444, 910.7119
1013.555, 1249.358
1014.666, 1498.675
1015.777, 1676.978
1016.888, 1677.238
1017.999, 1551.229
1019.110, 1635.976
1020.220, 1408.599
1021.331, 1258.550
1022.441, 1067.594
1023.551, 987.3193
1024.661, 994.2295
1025.770, 889.5166
1026.880, 1027.183
1027.989, 1013.170
1029.098, 1054.789
1030.207, 1077.558
1031.316, 1261.172
1032.425, 1303.709
1033.533, 1321.671
1034.642, 1581.753
1035.750, 1618.863
1036.858, 1839.047
1037.966, 1750.301
1039.073, 1713.644
1040.181, 1817.523
1041.288, 1699.016
1042.396, 1696.550
1043.503, 1481.188
1044.610, 1369.921
1045.716, 1340.188
1046.823, 1218.057
1047.929, 1094.996
1049.036, 938.0039
1050.142, 971.0674
1051.248, 785.2129
1052.353, 959.9082
1053.459, 821.1885
1054.564, 810.5391
1055.670, 761.9473
1056.775, 710.4971
1057.880, 733.9482
1058.985, 641.5371
1060.089, 615.1836
1061.194, 552.8848
1062.298, 501.6494
1063.402, 525.3027
1064.506, 636.3701
1065.610, 598.3223
1066.713, 724.3564
1067.817, 811.4482
1068.920, 825.5967
1070.023, 1056.804
1071.126, 1286.064
1072.229, 1418.380
1073.332, 1863.748
1074.435, 2110.169
1075.537, 2762.645
1076.639, 3308.242
1077.741, 4195.827
1078.843, 5235.472
1079.945, 6393.169
1081.046, 7615.917
1082.148, 8805.910
1083.249, 9653.762
1084.350, 9687.661
1085.451, 8760.617
1086.551, 7880.621
1087.652, 6541.677
1088.752, 5228.782
1089.853, 4181.937
1090.953, 3267.762
1092.053, 2581.012
1093.152, 1964.312
1094.252, 1565.699
1095.351, 1319.343
1096.451, 1083.683
1097.550, 1062.301
1098.649, 922.8359
1099.748, 637.4150
1100.846, 448.0400
1101.945, 492.4297
1103.043, 508.1445
1104.141, 393.9023
1105.239, 401.7480
1106.337, 376.7441
1107.434, 244.6318
1108.532, 248.3828
1109.629, 244.2832
1110.726, 137.3652
1111.823, 292.4170
1112.920, 224.7744
1114.017, 235.9043
1115.113, 214.0742
1116.210, 342.4814
1117.306, 346.4727
1118.402, 549.6729
1119.498, 438.1260
1120.593, 583.2441
1121.689, 554.2715
1122.784, 703.7275
1123.879, 458.3418
1124.974, 556.0850
1126.069, 431.0469
1127.164, 228.5811
1128.259, 42.25293
1129.353, 97.04883
1130.447, 106.6963
1131.541, 39.49609
1132.635, 6.038086
1133.729, 17.70117
1134.822, 73.49121
1135.916, 46.48242
1137.009, 113.7012
1138.102, 77.05762
1139.195, 32.72363
1140.288, 157.5625
1141.380, 74.88477
1142.473, 58.89844
1143.565, 86.65137
1144.657, 52.93848
1145.749, 7.872070
1146.841, 63.72363
1147.932, 85.89160
1149.024, 47.06445
1150.115, 49.68848
1151.206, 177.4639
1152.297, 535.1104
1153.388, 1089.932
1154.479, 407.7695
1155.569, 160.3770
1156.659, 84.56445
1157.750, 64.97070
1158.839, 44.07227
1159.929, 10.71875
1161.019, 30.99902
1162.108, 76.51562
1163.198, 17.72168
1164.287, 15.07422
1165.376, 5.829102
1166.465, 94.69141
1167.553, 32.38281
1168.642, 62.35352
1169.730, 99.19238
1170.818, 7.750977
1171.906, 47.37988
1172.994, 93.76758
1174.082, 16.05859
1175.170, 115.1699
1176.257, 55.82324
1177.344, 71.13574
1178.431, 157.9277
1179.518, 34.57520
1180.605, 114.4014
1181.691, 227.5000
1182.778, 27.00684
1183.864, 104.8105
1184.950, 122.9854
1186.036, 203.8281
1187.122, 112.1172
1188.207, 168.6865
1189.292, 142.5146
1190.378, 123.3311
1191.463, 187.2314
1192.548, 180.9912
1193.632, 168.1172
1194.717, 111.3848
1195.801, 144.5156
1196.886, 38.61328
1197.970, 54.20605
1199.054, 114.7197
1200.137, 106.6523
1201.221, 72.43164
1202.305, 128.6934
1203.388, 164.3398
1204.471, 173.0986
1205.554, 63.34180
1206.637, 32.08594
1207.719, 179.0127
1208.802, 94.81934
1209.884, 157.5342
1210.966, 136.4922
1212.048, 31.25684
1213.130, 219.9385
1214.212, 58.83008
1215.293, 53.51172
1216.374, 64.23438
1217.456, 132.6768
1218.536, 147.3027
1219.617, 75.91504
1220.698, 24.51562
1221.778, 186.1543
1222.859, 85.72070
1223.939, 211.2734
1225.019, 279.8125
1226.099, 46.33496
1227.178, 36.89258
1228.258, 75.56055
1229.337, 213.0234
1230.417, 76.44434
1231.496, 8.151367
1232.574, 137.2109
1233.653, 153.5566
1234.732, 27.88379
1235.810, 6.183594
1236.888, 80.44434
1237.966, 52.31348
