##NAMES=Epidote
##RRUFFID=R050191
##IDEAL CHEMISTRY=Ca_2_Fe^3+^Al_2_(Si_2_O_7_)(SiO_4_)O(OH)
##LOCALITY=Pampa Blanca, Castrovirreyna Province, Huancavelica Department, Peru
##OWNER=RRUFF
##SOURCE=Dave Bunk Minerals
##DESCRIPTION=Cluster of green elongated prismatic crystals
##STATUS=The identification of this mineral has been confirmed by X-ray diffraction and chemical analysis
##URL=rruff.info/R050191
##MEASURED CHEMISTRY=Ca_2.00_Al_2.00_(Fe^3+^_0.84_Al_0.16_)(SiO_4_)(Si_2_O_7_)O(OH)
##PIN_ID=L00883
##ORIENTATION=Laser parallel to (1 0 1). Fiducial mark perpendicular to laser is parallel to b [0 1 0]
53.91000, 0.0000000E+00
55.14900, 53.91125
56.38700, 493.4435
57.62600, 355.5430
58.86400, 309.3237
60.10300, 330.6309
61.34100, 187.5333
62.57900, 91.77777
63.81700, 32.87335
65.05400, 65.02197
66.29200, 95.29712
67.52900, 4.292480
68.76700, 234.4661
70.00400, 531.5201
71.24100, 531.4666
72.47700, 617.9501
73.71400, 995.6450
74.95100, 1714.231
76.18700, 2651.409
77.42300, 3317.915
78.65900, 4565.522
79.89500, 6458.030
81.13100, 8747.285
82.36700, 11487.14
83.60200, 14318.48
84.83700, 16892.18
86.07200, 18999.12
87.30800, 20161.22
88.54200, 20007.36
89.77700, 19354.46
91.01200, 18564.44
92.24600, 17581.18
93.48000, 16374.51
94.71400, 15040.32
95.94800, 13708.50
97.18200, 11779.97
98.41600, 9489.688
99.64900, 8152.645
100.8830, 6900.789
102.1160, 5836.074
103.3490, 5295.459
104.5820, 4940.931
105.8150, 5047.532
107.0470, 6415.290
108.2800, 5101.375
109.5120, 5871.164
110.7440, 3619.197
111.9760, 3039.245
113.2080, 2889.276
114.4400, 3172.258
115.6710, 2777.329
116.9030, 2961.973
118.1340, 2578.654
119.3650, 2418.188
120.5960, 2414.555
121.8270, 2473.733
123.0580, 2309.150
124.2880, 2451.455
125.5190, 2071.964
126.7490, 2101.219
127.9790, 1955.059
129.2090, 2020.021
130.4390, 1964.088
131.6680, 1858.235
132.8980, 1752.456
134.1270, 1659.730
135.3560, 1799.202
136.5850, 1762.935
137.8140, 2064.954
139.0430, 2235.284
140.2710, 2193.958
141.5000, 2015.233
142.7280, 1915.304
143.9560, 2072.118
145.1840, 2141.357
146.4120, 2293.952
147.6390, 2562.910
148.8670, 2536.240
150.0940, 2873.947
151.3210, 3406.039
152.5490, 3605.518
153.7750, 3908.791
155.0020, 4516.161
156.2290, 5122.851
157.4550, 6207.769
158.6810, 7323.633
159.9080, 9110.126
161.1340, 11175.98
162.3590, 13514.15
163.5850, 16001.63
164.8110, 18443.43
166.0360, 20564.54
167.2610, 22567.97
168.4860, 23257.71
169.7110, 22793.78
170.9360, 21582.17
172.1610, 19305.88
173.3850, 17089.90
174.6100, 14846.24
175.8340, 12788.91
177.0580, 11197.90
178.2820, 9582.204
179.5050, 8002.830
180.7290, 7106.774
181.9520, 6107.037
183.1760, 5359.615
184.3990, 4954.509
185.6220, 4449.719
186.8450, 4208.240
188.0670, 3714.072
189.2900, 3721.220
190.5120, 3531.673
191.7340, 3593.438
192.9560, 3715.508
194.1780, 3819.885
195.4000, 3955.569
196.6220, 4033.554
197.8430, 4206.845
199.0640, 4300.437
200.2860, 4316.328
201.5070, 4161.116
202.7270, 4027.401
203.9480, 3366.580
205.1690, 3075.511
206.3890, 2811.118
207.6090, 2700.263
208.8290, 2826.645
210.0490, 3032.631
211.2690, 3066.023
212.4890, 3539.760
213.7080, 3972.481
214.9280, 4442.410
216.1470, 5376.021
217.3660, 6520.233
218.5850, 7662.023
219.8030, 9035.370
221.0220, 10351.25
222.2400, 12020.66
223.4590, 13196.57
224.6770, 14434.97
225.8950, 14931.14
227.1120, 14800.29
228.3300, 14440.22
229.5480, 14025.61
230.7650, 13395.22
231.9820, 13235.64
233.1990, 12730.81
234.4160, 12771.68
235.6330, 12746.93
236.8490, 12559.56
238.0660, 12073.55
239.2820, 11467.92
240.4980, 10446.65
241.7140, 9094.731
242.9300, 7383.173
244.1460, 6260.975
245.3610, 4926.145
246.5770, 4010.643
247.7920, 3136.502
249.0070, 2446.686
250.2220, 2091.217
251.4370, 1498.021
252.6510, 1267.397
253.8660, 903.1279
255.0800, 744.4668
256.2940, 878.0034
257.5080, 1468.121
258.7220, 1346.081
259.9360, 2006.567
261.1490, 1672.063
262.3630, 1920.526
263.5760, 2343.385
264.7890, 3412.567
266.0020, 4256.709
267.2150, 5309.099
268.4270, 6497.730
269.6400, 7200.604
270.8520, 7905.713
272.0640, 7833.059
273.2760, 7249.633
274.4880, 6342.439
275.7000, 5129.475
276.9120, 4361.740
278.1230, 3620.238
279.3340, 3063.966
280.5450, 2739.926
281.7560, 2215.115
282.9670, 2210.535
284.1780, 1929.187
285.3880, 1765.065
286.5980, 1813.173
287.8090, 1989.506
289.0190, 2167.062
290.2290, 2240.840
291.4380, 2338.954
292.6480, 2299.048
293.8570, 2375.479
295.0670, 2328.125
296.2760, 2201.986
297.4850, 2097.062
298.6930, 2156.350
299.9020, 2105.850
301.1110, 1993.553
302.3190, 2275.459
303.5270, 2213.562
304.7350, 2186.857
305.9430, 2420.344
307.1510, 2533.020
308.3580, 2573.887
309.5660, 2522.941
310.7730, 2465.185
311.9800, 2422.617
313.1870, 2329.236
314.3940, 2280.043
315.6010, 2150.036
316.8070, 2198.217
318.0130, 2172.582
319.2200, 2173.131
320.4260, 2048.865
321.6310, 2133.783
322.8370, 2094.887
324.0430, 1955.169
325.2480, 1970.636
326.4540, 2053.283
327.6590, 2312.111
328.8640, 2589.120
330.0680, 2812.309
331.2730, 3169.676
332.4780, 3694.221
333.6820, 4223.944
334.8860, 5195.846
336.0900, 6323.922
337.2940, 7596.173
338.4980, 9391.600
339.7010, 11219.20
340.9050, 13376.97
342.1080, 15378.92
343.3110, 17373.03
344.5140, 18685.32
345.7170, 18786.78
346.9200, 18347.48
348.1220, 17168.43
349.3240, 15616.62
350.5270, 13389.06
351.7290, 11354.75
352.9310, 9578.694
354.1320, 7943.838
355.3340, 6539.143
356.5350, 5314.039
357.7370, 4298.998
358.9380, 3487.213
360.1390, 2826.658
361.3400, 2093.334
362.5400, 1821.236
363.7410, 1326.365
364.9410, 976.7168
366.1410, 639.2881
367.3410, 250.0781
368.5410, 65.08496
369.7410, 44.69336
370.9400, 230.2793
372.1400, 378.7324
373.3390, 398.1094
374.5380, 345.4209
375.7370, 374.6494
376.9360, 262.8096
378.1350, 107.1396
379.3330, 392.2891
380.5310, 824.6367
381.7300, 1275.183
382.9280, 1365.924
384.1260, 1841.942
385.3230, 2002.178
386.5210, 2057.947
387.7180, 1732.321
388.9160, 1421.771
390.1130, 974.6553
391.3100, 447.2988
392.5060, 258.3623
393.7030, 62.42773
394.9000, 402.9590
396.0960, 529.3320
397.2920, 609.7451
398.4880, 633.2344
399.6840, 867.8115
400.8800, 811.5781
402.0750, 747.5117
403.2710, 657.5879
404.4660, 497.7705
405.6610, 426.9951
406.8560, 211.2314
408.0510, 142.4004
409.2450, 301.5254
410.4400, 776.6162
411.6340, 1290.871
412.8280, 2141.291
414.0220, 3109.873
415.2160, 4344.615
416.4100, 5683.521
417.6030, 7256.586
418.7970, 9157.812
419.9900, 11132.19
421.1830, 12799.73
422.3760, 14585.43
423.5690, 16972.29
424.7610, 19386.29
425.9540, 22632.44
427.1460, 25764.76
428.3380, 28860.23
429.5300, 31763.86
430.7220, 33755.64
431.9140, 33941.58
433.1050, 33076.68
434.2970, 31171.95
435.4880, 28452.38
436.6790, 26130.02
437.8700, 23939.82
439.0610, 22372.81
440.2510, 21403.96
441.4420, 20814.28
442.6320, 20895.81
443.8220, 21378.53
445.0120, 21894.45
446.2020, 22590.56
447.3910, 22989.89
448.5810, 23442.42
449.7700, 23622.17
450.9600, 23102.16
452.1490, 22602.37
453.3370, 21238.80
454.5260, 19466.46
455.7150, 17663.36
456.9030, 15343.49
458.0910, 13161.84
459.2800, 11047.41
460.4670, 9242.201
461.6550, 7681.778
462.8430, 6470.395
464.0300, 5180.822
465.2180, 4352.459
466.4050, 3587.309
467.5920, 2936.368
468.7790, 2434.869
469.9650, 2054.073
471.1520, 1724.714
472.3380, 1475.549
473.5250, 1263.017
474.7110, 1091.809
475.8970, 1027.206
477.0820, 949.7578
478.2680, 979.4883
479.4540, 1114.379
480.6390, 1205.430
481.8240, 1364.039
483.0090, 1595.963
484.1940, 1808.458
485.3780, 2151.082
486.5630, 2565.842
487.7470, 3049.007
488.9320, 3769.750
490.1160, 4344.895
491.3000, 5201.164
492.4830, 6202.555
493.6670, 7002.070
494.8500, 7643.697
496.0340, 8372.438
497.2170, 8953.285
498.4000, 9255.243
499.5820, 9669.303
500.7650, 9922.466
501.9480, 10565.73
503.1300, 10757.11
504.3120, 11210.58
505.4940, 11089.15
506.6760, 10688.81
507.8580, 9961.553
509.0390, 8950.371
510.2210, 7573.273
511.4020, 6289.246
512.5830, 5158.004
513.7640, 4223.312
514.9450, 3419.367
516.1250, 2662.471
517.3060, 2012.850
518.4860, 1517.910
519.6660, 1111.678
520.8460, 900.2227
522.0260, 689.8325
523.2060, 350.5073
524.3850, 208.2441
525.5650, 62.04297
526.7440, 95.87646
527.9230, 53.75342
529.1020, 19.65869
530.2810, 40.42188
531.4590, 178.4844
532.6380, 54.55664
533.8160, 116.3794
534.9940, 33.64551
536.1720, 234.3125
537.3500, 295.2256
538.5270, 309.1777
539.7050, 418.9961
540.8820, 486.5454
542.0590, 488.2339
543.2360, 616.6738
544.4130, 762.2676
545.5900, 1044.321
546.7660, 1147.354
547.9430, 1399.732
549.1190, 1722.025
550.2950, 2183.300
551.4710, 2768.917
552.6470, 3534.584
553.8220, 4584.298
554.9980, 5902.064
556.1730, 7405.873
557.3480, 9361.728
558.5230, 11014.63
559.6980, 12909.57
560.8730, 13948.55
562.0470, 13955.58
563.2220, 13100.64
564.3960, 11508.74
565.5700, 9850.875
566.7440, 8462.048
567.9170, 7573.531
569.0910, 6899.035
570.2640, 6692.040
571.4380, 6613.596
572.6110, 6856.494
573.7840, 7421.014
574.9570, 7922.520
576.1290, 9015.584
577.3020, 10158.80
578.4740, 11553.89
579.6460, 13325.71
580.8180, 14833.16
581.9900, 16635.46
583.1620, 18144.00
584.3330, 19836.42
585.5040, 21376.97
586.6760, 23556.28
587.8470, 25459.95
589.0180, 27820.59
590.1880, 30244.05
591.3590, 32709.75
592.5290, 35188.33
593.7000, 36905.05
594.8700, 37591.90
596.0400, 37553.01
597.2090, 36810.86
598.3790, 35036.07
599.5490, 33501.46
600.7180, 31557.45
601.8870, 30066.08
603.0560, 28571.13
604.2250, 27256.62
605.3940, 26852.73
606.5620, 26456.85
607.7300, 25588.06
608.8990, 25055.89
610.0670, 24360.45
611.2350, 22804.40
612.4020, 21550.91
613.5700, 19584.58
614.7370, 17638.74
615.9050, 15712.18
617.0720, 13944.20
618.2390, 12413.05
619.4060, 10836.62
620.5720, 9447.395
621.7390, 8392.479
622.9050, 7431.650
624.0710, 6615.924
625.2370, 6119.380
626.4030, 5641.786
627.5690, 5066.936
628.7340, 4697.085
629.9000, 4248.080
631.0650, 3903.362
632.2300, 3736.405
633.3950, 3384.805
634.5600, 3091.585
635.7240, 3014.817
636.8890, 2827.461
638.0530, 2694.241
639.2170, 2542.403
640.3810, 2332.563
641.5450, 2202.339
642.7080, 2117.541
643.8720, 1965.925
645.0350, 1906.844
646.1980, 1762.763
647.3610, 1605.597
648.5240, 1580.711
649.6870, 1478.432
650.8490, 1485.319
652.0120, 1265.063
653.1740, 1375.484
654.3360, 1233.593
655.4980, 1239.997
656.6600, 1183.970
657.8210, 1146.560
658.9830, 1058.123
660.1440, 1034.639
661.3050, 977.0601
662.4660, 963.3853
663.6270, 922.6416
664.7870, 920.7456
665.9480, 848.6963
667.1080, 875.5264
668.2680, 832.9131
669.4280, 925.7866
670.5880, 737.6733
671.7480, 722.2109
672.9070, 774.0737
674.0670, 880.6001
675.2260, 870.6016
676.3850, 924.2964
677.5440, 922.4565
678.7030, 959.5796
679.8610, 962.7256
681.0200, 960.2168
682.1780, 977.8550
683.3360, 963.7871
684.4940, 986.8379
685.6520, 955.2402
686.8090, 949.6416
687.9670, 970.0264
689.1240, 923.3525
690.2810, 1006.607
691.4380, 939.7529
692.5950, 877.7900
693.7520, 909.7168
694.9080, 878.5327
696.0650, 751.2378
697.2210, 832.8315
698.3770, 672.3130
699.5330, 632.6816
700.6880, 639.9375
701.8440, 559.0801
702.9990, 580.1084
704.1550, 519.0220
705.3100, 434.8203
706.4650, 335.5034
707.6190, 340.0659
708.7740, 287.5083
709.9290, 247.8242
711.0830, 163.0107
712.2370, 188.0518
713.3910, 106.9531
714.5450, 90.69531
715.6980, 29.72705
716.8520, 64.63086
718.0050, 9.814941
719.1580, 119.7988
720.3110, 38.94385
721.4640, 63.73682
722.6170, 61.33740
723.7700, 79.17725
724.9220, 27.26562
726.0740, 128.5757
727.2260, 96.16064
728.3780, 173.0034
729.5300, 209.1455
730.6810, 191.6045
731.8330, 194.3721
732.9840, 212.9849
734.1350, 217.8447
735.2860, 230.5620
736.4370, 205.6064
737.5880, 193.9658
738.7380, 188.6318
739.8880, 136.6030
741.0390, 192.8491
742.1890, 217.4009
743.3380, 181.2690
744.4880, 199.4341
745.6380, 186.9058
746.7870, 167.2319
747.9360, 101.7319
749.0850, 158.0396
750.2340, 153.6270
751.3830, 206.4897
752.5310, 105.6553
753.6800, 113.0679
754.8280, 29.73096
755.9760, 125.5986
757.1240, 60.71973
758.2720, 67.05908
759.4190, 11.61768
760.5670, 32.36572
761.7140, 69.31104
762.8610, 31.52686
764.0080, 14.79541
765.1550, 30.69775
766.3020, 33.96729
767.4480, 23.17773
768.5950, 0.1645510
769.7410, 18.98389
770.8870, 21.35352
772.0330, 49.13330
773.1780, 19.47314
774.3240, 39.57129
775.4690, 24.70361
776.6140, 48.59814
777.7590, 39.35059
778.9040, 2.961914
780.0490, 14.57568
781.1940, 3.731445
782.3380, 74.89258
783.4820, 139.9229
784.6260, 59.83057
785.7700, 307.6079
786.9140, 211.2373
788.0580, 372.8384
789.2010, 178.2954
790.3450, 202.6396
791.4880, 228.8750
792.6310, 186.0029
793.7730, 230.0234
794.9160, 281.9375
796.0590, 271.7515
797.2010, 418.4648
798.3430, 359.0791
799.4850, 451.5952
800.6270, 577.0132
801.7690, 653.3350
802.9100, 646.5610
804.0520, 830.7041
805.1930, 802.7607
806.3340, 697.7383
807.4750, 981.6436
808.6160, 879.4907
809.7560, 1049.247
810.8970, 1152.949
812.0370, 1271.568
813.1770, 1266.130
814.3170, 1286.604
815.4570, 1438.991
816.5960, 1428.290
817.7360, 1632.501
818.8750, 1761.625
820.0140, 1871.662
821.1530, 2102.610
822.2920, 2248.473
823.4310, 2322.249
824.5690, 2543.939
825.7070, 2723.542
826.8460, 2945.060
827.9840, 3163.492
829.1220, 3203.842
830.2590, 3139.107
831.3970, 3261.292
832.5340, 3335.395
833.6710, 3208.416
834.8080, 3236.360
835.9450, 3163.224
837.0820, 3073.011
838.2190, 3247.721
839.3550, 3076.354
840.4910, 3265.914
841.6270, 3248.398
842.7630, 3285.810
843.8990, 3302.873
845.0350, 3462.877
846.1700, 3578.340
847.3060, 3619.212
848.4410, 3876.703
849.5760, 3920.535
850.7100, 4189.339
851.8450, 4544.544
852.9800, 4559.562
854.1140, 4853.659
855.2480, 5271.984
856.3820, 5520.646
857.5160, 5796.410
858.6500, 6047.893
859.7830, 6227.459
860.9170, 6509.848
862.0500, 6783.440
863.1830, 6930.627
864.3160, 7002.805
865.4480, 7258.127
866.5810, 7399.153
867.7130, 7635.263
868.8460, 7868.188
869.9780, 8161.945
871.1100, 8688.405
872.2410, 9224.091
873.3730, 9835.369
874.5050, 10692.42
875.6360, 11475.84
876.7670, 12445.58
877.8980, 13604.84
879.0290, 14440.64
880.1590, 15388.79
881.2900, 16094.87
882.4200, 16757.84
883.5500, 16936.16
884.6800, 17050.70
885.8100, 16754.85
886.9400, 16537.40
888.0690, 15811.81
889.1990, 15953.69
890.3280, 15642.27
891.4570, 15656.25
892.5860, 15792.38
893.7140, 15977.75
894.8430, 16407.89
895.9710, 17539.69
897.1000, 18384.39
898.2280, 19897.98
899.3560, 21263.35
900.4830, 23342.74
901.6110, 25596.36
902.7380, 28250.97
903.8660, 31365.71
904.9930, 34798.82
906.1200, 38359.73
907.2460, 42771.97
908.3730, 46881.79
909.5000, 50672.13
910.6260, 53796.04
911.7520, 56107.79
912.8780, 57520.12
914.0040, 57217.42
915.1290, 55755.09
916.2550, 52127.29
917.3800, 48215.27
918.5050, 43819.70
919.6300, 38938.08
920.7550, 34766.49
921.8800, 31654.59
923.0040, 26374.04
924.1290, 22874.28
925.2530, 20347.63
926.3770, 17508.29
927.5010, 15414.25
928.6250, 13610.95
929.7480, 11955.11
930.8720, 10553.58
931.9950, 9376.292
933.1180, 8320.965
934.2410, 7395.952
935.3640, 6843.474
936.4860, 6019.314
937.6090, 5445.208
938.7310, 5137.160
939.8530, 4564.167
940.9750, 4152.231
942.0970, 3880.351
943.2180, 3594.529
944.3400, 3359.766
945.4610, 3148.061
946.5820, 3002.416
947.7030, 2893.830
948.8240, 2713.305
949.9450, 2715.841
951.0650, 2576.439
952.1860, 2530.100
953.3060, 2419.824
954.4260, 2468.612
955.5460, 2325.473
956.6650, 2270.399
957.7850, 2163.392
958.9040, 2168.462
960.0230, 2063.035
961.1420, 2053.810
962.2610, 1938.089
963.3800, 1931.438
964.4990, 1954.855
965.6170, 2043.355
966.7350, 1988.926
967.8530, 2157.569
968.9710, 2200.285
970.0890, 2367.075
971.2070, 2686.940
972.3240, 2778.882
973.4410, 2996.898
974.5580, 3204.990
975.6750, 3318.160
976.7920, 3393.411
977.9090, 3406.739
979.0250, 3084.156
980.1410, 2990.655
981.2580, 2713.238
982.3740, 2453.909
983.4890, 2117.676
984.6050, 2009.535
985.7200, 1842.500
986.8360, 1646.589
987.9510, 1480.812
989.0660, 1346.154
990.1810, 1482.636
991.2950, 1269.228
992.4100, 1248.959
993.5240, 1199.860
994.6390, 1124.930
995.7530, 1107.170
996.8660, 1030.564
997.9800, 978.1323
999.0940, 890.8672
1000.207, 888.1309
1001.320, 872.9146
1002.433, 896.2266
1003.546, 852.7358
1004.659, 875.9404
1005.772, 1075.467
1006.884, 1006.565
1007.996, 1159.660
1009.108, 1275.155
1010.220, 1331.824
1011.332, 1364.749
1012.444, 1608.633
1013.555, 1647.908
1014.666, 1874.738
1015.777, 1960.546
1016.888, 2045.464
1017.999, 2037.977
1019.110, 1907.020
1020.220, 1822.505
1021.331, 1819.646
1022.441, 1687.458
1023.551, 1758.833
1024.661, 1861.176
1025.770, 1715.809
1026.880, 1878.780
1027.989, 1940.548
1029.098, 2074.162
1030.207, 2183.889
1031.316, 2396.129
1032.425, 2550.918
1033.533, 2746.906
1034.642, 2753.327
1035.750, 3039.982
1036.858, 3037.364
1037.966, 3134.281
1039.073, 3224.947
1040.181, 3114.304
1041.288, 3035.987
1042.396, 3075.613
1043.503, 2883.191
1044.610, 2837.847
1045.716, 2589.395
1046.823, 2451.013
1047.929, 2452.863
1049.036, 2305.497
1050.142, 2109.905
1051.248, 2094.511
1052.353, 2099.478
1053.459, 2162.393
1054.564, 2104.859
1055.670, 2071.844
1056.775, 2045.192
1057.880, 2022.205
1058.985, 1955.927
1060.089, 1948.621
1061.194, 1783.962
1062.298, 1810.313
1063.402, 1676.742
1064.506, 1630.184
1065.610, 1841.200
1066.713, 1753.961
1067.817, 1884.560
1068.920, 1826.424
1070.023, 2151.609
1071.126, 2224.523
1072.229, 2491.859
1073.332, 2865.274
1074.435, 3307.766
1075.537, 3885.481
1076.639, 4544.124
1077.741, 5468.840
1078.843, 6660.627
1079.945, 8118.486
1081.046, 9279.415
1082.148, 10391.42
1083.249, 11100.48
1084.350, 11117.62
1085.451, 10762.83
1086.551, 9528.112
1087.652, 8473.961
1088.752, 7188.375
1089.853, 6064.854
1090.953, 4976.851
1092.053, 4131.464
1093.152, 3337.646
1094.252, 2713.388
1095.351, 2338.195
1096.451, 1931.065
1097.550, 1720.068
1098.649, 1375.063
1099.748, 1330.121
1100.846, 1238.240
1101.945, 1100.519
1103.043, 979.7617
1104.141, 868.3721
1105.239, 804.7334
1106.337, 768.1548
1107.434, 823.6338
1108.532, 772.8672
1109.629, 660.4912
1110.726, 649.9692
1111.823, 573.6753
1112.920, 684.4355
1114.017, 870.7749
1115.113, 1328.762
1116.210, 1696.684
1117.306, 3094.661
1118.402, 3687.645
1119.498, 4222.897
1120.593, 4975.115
1121.689, 4931.560
1122.784, 4216.304
1123.879, 3521.666
1124.974, 2766.567
1126.069, 2037.097
1127.164, 1568.604
1128.259, 1104.002
1129.353, 721.8188
1130.447, 470.7256
1131.541, 286.2861
1132.635, 69.36816
1133.729, 126.5161
1134.822, 151.5835
1135.916, 21.75879
1137.009, 98.60889
1138.102, 17.52490
1139.195, 47.14014
1140.288, 5.695313
1141.380, 50.14355
1142.473, 3.708984
1143.565, 110.9316
1144.657, 0.8930660
1145.749, 24.07422
1146.841, 87.09814
1147.932, 51.52246
1149.024, 144.8086
1150.115, 174.5361
1151.206, 80.64307
1152.297, 248.3364
1153.388, 151.1753
1154.479, 111.3306
1155.569, 194.9492
1156.659, 81.60791
1157.750, 84.90283
1158.839, 74.21143
1159.929, 136.5317
1161.019, 155.8887
1162.108, 162.2910
1163.198, 54.74463
1164.287, 125.6646
1165.376, 86.13818
1166.465, 171.9033
1167.553, 76.28613
1168.642, 6.764648
1169.730, 118.3564
1170.818, 38.97852
1171.906, 130.6543
1172.994, 37.38281
1174.082, 56.12842
1175.170, 137.8882
1176.257, 47.62695
1177.344, 89.24951
1178.431, 68.73877
1179.518, 14.33887
1180.605, 73.06250
1181.691, 6.053711
1182.778, 10.89160
1183.864, 104.7988
1184.950, 8.940430
1186.036, 0.9780270
1187.122, 21.25488
1188.207, 59.97754
1189.292, 8.223145
1190.378, 4.162598
1191.463, 7.408203
1192.548, 10.78076
1193.632, 12.36621
1194.717, 15.71680
1195.801, 34.65186
1196.886, 14.71826
1197.970, 22.74561
1199.054, 19.42480
1200.137, 57.58838
1201.221, 25.50781
1202.305, 120.0527
1203.388, 77.21094
1204.471, 102.7080
1205.554, 51.72510
1206.637, 190.0703
1207.719, 85.86328
1208.802, 116.6289
1209.884, 110.4443
1210.966, 90.94482
1212.048, 88.79053
1213.130, 182.4141
1214.212, 138.8071
1215.293, 168.6562
1216.374, 99.76660
1217.456, 30.21631
1218.536, 129.5542
1219.617, 195.8008
1220.698, 15.09082
1221.778, 105.6616
1222.859, 69.91113
1223.939, 117.2690
1225.019, 221.3730
1226.099, 128.4248
1227.178, 34.67725
1228.258, 130.8169
1229.337, 138.8462
1230.417, 147.7559
1231.496, 108.0537
1232.574, 187.6191
1233.653, 100.4424
1234.732, 132.2188
1235.810, 129.3433
