##NAMES=Erionite-Ca
##RRUFFID=R060836
##IDEAL CHEMISTRY=Ca_5_(Si_26_Al_10_O_72_)&#183;30H_2_O
##LOCALITY=Moeraki, Otago, South Island, New Zealand
##OWNER=RRUFF
##SOURCE=Michael Scott
##DESCRIPTION=Radiating group of colorless acicular hexagonal prisms
##STATUS=The identification of this mineral is confirmed by single-crystal X-ray diffraction and chemical analysis.
##URL=rruff.info/R060836
##MEASURED CHEMISTRY=(Ca_2.08_K_1.21_Na_0.94_Mg_0.77_Fe^3+^_0.41_Cr_0.10_)_Σ=5.51_(Si_26.62_Al_9.38_)O_72_·23.41H_2_O; H_2_O estimated by difference
##PIN_ID=M00444
##ORIENTATION=Laser parallel to c* (0 0 1). Fiducial mark perpendicular to laser is parallel to a [1 0 0]
230.7650, 0.0000000E+00
231.9820, 60.75977
233.1990, 387.4121
234.4160, 325.3418
235.6330, 1.019531
236.8490, 323.4980
238.0660, 116.2695
239.2820, 90.01562
240.4980, 174.9570
241.7140, 66.25391
242.9300, 114.4473
244.1460, 44.71484
245.3610, 40.21875
246.5770, 66.24219
247.7920, 114.1523
249.0070, 47.25000
250.2220, 91.92969
251.4370, 8.238281
252.6510, 55.62109
253.8660, 251.1348
255.0800, 66.49414
256.2940, 299.4727
257.5080, 521.9062
258.7220, 1107.672
259.9360, 1374.672
261.1490, 1096.836
262.3630, 480.1035
263.5760, 616.4395
264.7890, 593.8066
266.0020, 677.1836
267.2150, 749.5508
268.4270, 892.8945
269.6400, 611.2383
270.8520, 667.4473
272.0640, 652.6719
273.2760, 721.1895
274.4880, 669.8750
275.7000, 486.1992
276.9120, 411.8477
278.1230, 416.8711
279.3340, 323.3262
280.5450, 335.2578
281.7560, 283.7129
282.9670, 172.7324
284.1780, 421.3477
285.3880, 318.5957
286.5980, 159.5020
287.8090, 161.0977
289.0190, 380.4023
290.2290, 257.4355
291.4380, 455.2188
292.6480, 298.7676
293.8570, 366.0977
295.0670, 689.2207
296.2760, 731.1523
297.4850, 856.9023
298.6930, 913.4883
299.9020, 1192.912
301.1110, 1197.189
302.3190, 1508.330
303.5270, 1817.373
304.7350, 1946.387
305.9430, 2337.344
307.1510, 2510.238
308.3580, 2837.229
309.5660, 2978.512
310.7730, 3466.090
311.9800, 3749.949
313.1870, 4059.785
314.3940, 4384.123
315.6010, 4615.617
316.8070, 4871.465
318.0130, 4959.398
319.2200, 5090.145
320.4260, 5121.285
321.6310, 5338.264
322.8370, 5028.600
324.0430, 5309.008
325.2480, 4832.490
326.4540, 4944.043
327.6590, 4795.662
328.8640, 4723.348
330.0680, 4511.094
331.2730, 4600.902
332.4780, 4233.771
333.6820, 4452.703
334.8860, 4212.691
336.0900, 4149.738
337.2940, 4043.848
338.4980, 4074.012
339.7010, 3859.230
340.9050, 3950.508
342.1080, 3995.832
343.3110, 4392.207
344.5140, 4313.623
345.7170, 4437.070
346.9200, 4654.537
348.1220, 4542.021
349.3240, 4510.523
350.5270, 4916.047
351.7290, 4812.582
352.9310, 4831.141
354.1320, 4951.711
355.3340, 4483.301
356.5350, 4614.912
357.7370, 4468.539
358.9380, 4213.184
360.1390, 4091.844
361.3400, 3975.523
362.5400, 3724.020
363.7410, 3299.932
364.9410, 3259.664
366.1410, 2966.410
367.3410, 2682.172
368.5410, 2512.947
369.7410, 2223.742
370.9400, 1864.551
372.1400, 1851.379
373.3390, 1510.217
374.5380, 1409.072
375.7370, 970.8633
376.9360, 961.0020
378.1350, 866.5488
379.3330, 741.0078
380.5310, 629.7715
381.7300, 330.9941
382.9280, 340.1074
384.1260, 170.5449
385.3230, 263.4746
386.5210, 12.04688
387.7180, 91.94727
388.9160, 143.3711
390.1130, 181.0195
391.3100, 18.50195
392.5060, 97.78516
393.7030, 279.9043
394.9000, 202.9023
396.0960, 247.2617
397.2920, 263.4570
398.4880, 286.6133
399.6840, 225.8340
400.8800, 203.0859
402.0750, 264.3770
403.2710, 71.73828
404.4660, 48.10352
405.6610, 26.51562
406.8560, 194.1367
408.0510, 418.7812
409.2450, 188.4434
410.4400, 540.1367
411.6340, 804.8594
412.8280, 984.6152
414.0220, 1422.414
415.2160, 1619.244
416.4100, 1786.070
417.6030, 2268.906
418.7970, 2786.715
419.9900, 3119.490
421.1830, 3408.270
422.3760, 4012.020
423.5690, 4232.758
424.7610, 4580.494
425.9540, 5091.209
427.1460, 5282.969
428.3380, 5542.754
429.5300, 5892.566
430.7220, 5826.418
431.9140, 5970.293
433.1050, 5874.178
434.2970, 5869.055
435.4880, 5513.957
436.6790, 5488.863
437.8700, 5474.768
439.0610, 5587.699
440.2510, 5588.684
441.4420, 5652.742
442.6320, 6026.797
443.8220, 6311.848
445.0120, 6449.896
446.2020, 6792.957
447.3910, 7523.014
448.5810, 7768.070
449.7700, 8515.123
450.9600, 9031.168
452.1490, 9958.199
453.3370, 10555.21
454.5260, 11454.01
455.7150, 12454.74
456.9030, 13509.21
458.0910, 14317.42
459.2800, 15318.79
460.4670, 15915.09
461.6550, 17122.74
462.8430, 17748.40
464.0300, 18542.08
465.2180, 19017.76
466.4050, 19469.47
467.5920, 19975.19
468.7790, 20660.93
469.9650, 21215.68
471.1520, 21802.44
472.3380, 22378.21
473.5250, 23307.99
474.7110, 24027.78
475.8970, 24818.57
477.0820, 25749.37
478.2680, 26562.17
479.4540, 27844.98
480.6390, 28574.79
481.8240, 29887.61
483.0090, 30294.44
484.1940, 30966.26
485.3780, 31442.09
486.5630, 31277.92
487.7470, 30991.75
488.9320, 29799.59
490.1160, 28947.42
491.3000, 27852.26
492.4830, 26625.10
493.6670, 24717.95
494.8500, 23191.79
496.0340, 21362.64
497.2170, 19673.48
498.4000, 17929.32
499.5820, 16459.17
500.7650, 14891.02
501.9480, 13579.86
503.1300, 12142.71
504.3120, 10845.55
505.4940, 9668.398
506.6760, 8521.242
507.8580, 7465.088
509.0390, 6708.930
510.2210, 5904.773
511.4020, 5074.615
512.5830, 4366.457
513.7640, 3925.299
514.9450, 3494.137
516.1250, 2781.979
517.3060, 2385.812
518.4860, 1874.635
519.6660, 1742.441
520.8460, 1332.238
522.0260, 1376.021
523.2060, 996.7988
524.3850, 807.5664
525.5650, 888.3242
526.7440, 847.5664
527.9230, 530.1875
529.1020, 618.2793
530.2810, 450.1621
531.4590, 153.9863
532.6380, 291.2285
533.8160, 139.3672
534.9940, 280.7852
536.1720, 509.1543
537.3500, 461.2070
538.5270, 452.7031
539.7050, 342.7031
540.8820, 472.8262
542.0590, 646.7402
543.2360, 290.4453
544.4130, 732.0371
545.5900, 851.4160
546.7660, 599.6836
547.9430, 850.9160
549.1190, 930.3770
550.2950, 1396.863
551.4710, 1357.102
552.6470, 1515.141
553.8220, 1860.590
554.9980, 2287.959
556.1730, 2346.924
557.3480, 2744.357
558.5230, 3287.797
559.6980, 3584.570
560.8730, 3604.639
562.0470, 3817.699
563.2220, 4062.758
564.3960, 4392.141
565.5700, 4263.926
566.7440, 4334.838
567.9170, 4196.965
569.0910, 4264.301
570.2640, 4065.432
571.4380, 3625.682
572.6110, 3135.543
573.7840, 2968.574
574.9570, 2645.357
576.1290, 2447.424
577.3020, 2122.010
578.4740, 2075.648
579.6460, 1994.039
580.8180, 1873.799
581.9900, 1906.818
583.1620, 1743.479
584.3330, 1868.016
585.5040, 1841.799
586.6760, 1748.357
587.8470, 1723.119
589.0180, 1873.438
590.1880, 2085.551
591.3590, 2044.691
592.5290, 2298.055
593.7000, 2281.873
594.8700, 2297.229
596.0400, 2273.137
597.2090, 2385.734
598.3790, 2306.393
599.5490, 2491.268
600.7180, 2498.242
601.8870, 2411.309
603.0560, 2383.818
604.2250, 2418.758
605.3940, 2340.500
606.5620, 2468.473
607.7300, 2301.082
608.8990, 2160.730
610.0670, 2006.920
611.2350, 2034.934
612.4020, 1818.027
613.5700, 1638.549
614.7370, 1604.809
615.9050, 1680.891
617.0720, 1418.941
618.2390, 1494.965
619.4060, 1554.955
620.5720, 1355.910
621.7390, 1368.832
622.9050, 1117.725
624.0710, 1173.621
625.2370, 1126.506
626.4030, 986.3555
627.5690, 952.2266
628.7340, 1055.059
629.9000, 996.8574
631.0650, 938.6230
632.2300, 802.3555
633.3950, 950.0527
634.5600, 729.7188
635.7240, 868.3613
636.8890, 690.9668
638.0530, 786.5352
639.2170, 795.1211
640.3810, 979.6992
641.5450, 909.2617
642.7080, 920.8184
643.8720, 969.3398
645.0350, 864.8906
646.1980, 869.4473
647.3610, 987.9922
648.5240, 994.5605
649.6870, 1099.143
650.8490, 1041.697
652.0120, 1005.213
653.1740, 867.7637
654.3360, 1026.318
655.4980, 904.8359
656.6600, 1062.387
657.8210, 707.9219
658.9830, 916.4629
660.1440, 807.9668
661.3050, 809.4375
662.4660, 688.8633
663.6270, 645.2461
664.7870, 500.6055
665.9480, 623.9180
667.1080, 699.1855
668.2680, 227.4082
669.4280, 586.6016
670.5880, 364.7461
671.7480, 421.2617
672.9070, 297.4062
674.0670, 235.8613
675.2260, 388.9102
676.3850, 430.0234
677.5440, 142.1465
678.7030, 263.2812
679.8610, 98.56250
681.0200, 144.5430
682.1780, 37.34570
683.3360, 134.7266
684.4940, 41.18750
685.6520, 125.8223
686.8090, 78.78516
687.9670, 39.32031
689.1240, 16.52930
690.2810, 66.04688
691.4380, 55.26367
692.5950, 76.81055
693.7520, 106.4902
694.9080, 83.31445
696.0650, 84.72266
697.2210, 89.31641
698.3770, 44.50391
699.5330, 134.2461
700.6880, 65.08984
701.8440, 132.4473
702.9990, 10.90820
704.1550, 26.72656
705.3100, 158.5293
706.4650, 174.2930
707.6190, 113.3066
708.7740, 109.4785
709.9290, 142.8105
711.0830, 88.32227
712.2370, 26.98242
713.3910, 164.2383
714.5450, 74.61719
715.6980, 13.39062
716.8520, 54.28125
718.0050, 78.90430
719.1580, 164.2383
720.3110, 236.7656
721.4640, 228.4746
722.6170, 179.6387
723.7700, 133.7227
724.9220, 1.275391
726.0740, 345.6152
727.2260, 205.4336
728.3780, 247.1699
729.5300, 472.8340
730.6810, 412.4219
731.8330, 296.9414
732.9840, 399.3848
734.1350, 91.75195
735.2860, 328.0352
736.4370, 306.2402
737.5880, 87.36914
738.7380, 217.4082
739.8880, 188.3691
741.0390, 121.2480
742.1890, 206.0410
743.3380, 245.7500
744.4880, 183.3809
745.6380, 262.9277
746.7870, 247.3965
747.9360, 348.7852
749.0850, 383.6465
750.2340, 358.2676
751.3830, 486.5840
752.5310, 543.2676
753.6800, 587.6875
754.8280, 643.3965
755.9760, 618.5547
757.1240, 679.7734
758.2720, 801.1465
759.4190, 766.2168
760.5670, 825.9043
761.7140, 912.9434
762.8610, 937.6992
764.0080, 1094.762
765.1550, 1025.650
766.3020, 1071.354
767.4480, 1353.037
768.5950, 1282.236
769.7410, 1211.941
770.8870, 1345.412
772.0330, 1546.824
773.1780, 1601.912
774.3240, 1508.494
775.4690, 1676.359
776.6140, 1530.369
777.7590, 1700.582
778.9040, 1758.510
780.0490, 2032.307
781.1940, 1917.959
782.3380, 2093.713
783.4820, 1987.871
784.6260, 1877.586
785.7700, 2038.660
786.9140, 1968.045
788.0580, 2027.980
789.2010, 2123.842
790.3450, 2052.898
791.4880, 2054.643
792.6310, 2025.900
793.7730, 1985.953
794.9160, 2029.020
796.0590, 1978.908
797.2010, 1896.762
798.3430, 1977.686
799.4850, 2218.793
800.6270, 2338.734
801.7690, 2648.145
802.9100, 3036.730
804.0520, 3247.270
805.1930, 3528.658
806.3340, 3665.150
807.4750, 3792.730
808.6160, 3851.777
809.7560, 3812.916
810.8970, 3810.248
812.0370, 3524.229
813.1770, 3400.904
814.3170, 3190.012
815.4570, 2950.311
816.5960, 2493.018
817.7360, 2210.072
818.8750, 2103.088
820.0140, 1984.668
821.1530, 1830.445
822.2920, 1576.461
823.4310, 1668.002
824.5690, 1409.168
825.7070, 1400.816
826.8460, 1334.734
827.9840, 1337.383
829.1220, 1295.551
830.2590, 1191.211
831.3970, 1144.855
832.5340, 1118.543
833.6710, 1114.178
834.8080, 1146.463
835.9450, 1214.309
837.0820, 1347.758
838.2190, 1520.121
839.3550, 1589.385
840.4910, 1621.227
841.6270, 2112.568
842.7630, 2183.680
843.8990, 2703.480
845.0350, 3301.973
846.1700, 3604.574
847.3060, 4532.955
848.4410, 5016.631
849.5760, 5695.033
850.7100, 6325.588
851.8450, 6822.760
852.9800, 7325.314
854.1140, 7623.715
855.2480, 7971.270
856.3820, 7927.352
857.5160, 7709.775
858.6500, 7464.061
859.7830, 6938.074
860.9170, 6735.736
862.0500, 5907.527
863.1830, 5346.018
864.3160, 4624.850
865.4480, 4308.789
866.5810, 3745.600
867.7130, 3177.090
868.8460, 3000.027
869.9780, 2615.326
871.1100, 2362.975
872.2410, 2064.838
873.3730, 1718.543
874.5050, 1560.934
875.6360, 1337.133
876.7670, 1287.145
877.8980, 1108.619
879.0290, 919.5723
880.1590, 942.6309
881.2900, 758.3633
882.4200, 720.3613
883.5500, 776.2344
884.6800, 534.4668
885.8100, 226.7832
886.9400, 409.9238
888.0690, 301.5371
889.1990, 120.3223
890.3280, 256.1816
891.4570, 129.9766
892.5860, 180.6992
893.7140, 465.3555
894.8430, 107.9531
895.9710, 161.4805
897.1000, 79.05859
898.2280, 12.74023
899.3560, 250.4727
900.4830, 146.3770
901.6110, 294.5977
902.7380, 278.5137
903.8660, 134.3691
904.9930, 62.15820
906.1200, 69.87695
907.2460, 66.52734
908.3730, 11.11133
909.5000, 175.6074
910.6260, 91.04297
911.7520, 153.5879
912.8780, 63.38672
914.0040, 29.30859
915.1290, 77.33008
916.2550, 57.51562
917.3800, 224.7012
918.5050, 106.1191
919.6300, 69.67773
920.7550, 205.3555
921.8800, 149.2246
923.0040, 17.24805
924.1290, 58.63477
925.2530, 263.5371
926.3770, 117.9258
927.5010, 1.451172
928.6250, 240.0547
929.7480, 83.85352
930.8720, 147.7695
931.9950, 9.166016
933.1180, 11.01367
934.2410, 20.83594
935.3640, 25.57812
936.4860, 59.73242
937.6090, 56.86133
938.7310, 41.40625
939.8530, 51.93945
940.9750, 41.65234
942.0970, 80.71875
943.2180, 8.044922
944.3400, 9.919922
945.4610, 325.5508
946.5820, 301.7461
947.7030, 187.9316
948.8240, 97.08008
949.9450, 332.2012
951.0650, 424.3008
952.1860, 386.4219
953.3060, 512.6035
954.4260, 679.7832
955.5460, 698.9590
956.6650, 857.1230
957.7850, 913.2852
958.9040, 1012.438
960.0230, 1086.990
961.1420, 856.7109
962.2610, 1193.859
963.3800, 1203.023
964.4990, 1229.193
965.6170, 1490.375
966.7350, 1327.570
967.8530, 1301.781
968.9710, 1110.969
970.0890, 1235.178
971.2070, 1421.369
972.3240, 1550.541
973.4410, 1363.727
974.5580, 1216.896
975.6750, 1304.059
976.7920, 1567.223
977.9090, 1742.373
979.0250, 1682.566
980.1410, 1896.789
981.2580, 1846.039
982.3740, 1790.324
983.4890, 2078.637
984.6050, 2218.957
985.7200, 2362.266
986.8360, 2165.594
987.9510, 2315.922
989.0660, 2385.248
990.1810, 2543.596
991.2950, 2542.994
992.4100, 2554.461
993.5240, 2886.920
994.6390, 3060.369
995.7530, 3103.814
996.8660, 3177.266
997.9800, 3253.709
999.0940, 3430.145
1000.207, 3366.572
1001.320, 3265.994
1002.433, 3872.404
1003.546, 3629.811
1004.659, 3793.207
1005.772, 3660.605
1006.884, 3790.996
1007.996, 3896.385
1009.108, 3322.775
1010.220, 3415.164
1011.332, 3515.551
1012.444, 3742.938
1013.555, 3403.326
1014.666, 3517.713
1015.777, 3458.102
1016.888, 3331.490
1017.999, 3724.883
1019.110, 3435.270
1020.220, 3630.719
1021.331, 3640.947
1022.441, 3552.734
1023.551, 3517.711
1024.661, 3523.324
1025.770, 3593.422
1026.880, 3557.744
1027.989, 3650.125
1029.098, 3729.092
1030.207, 3772.373
1031.316, 3796.760
1032.425, 3848.301
1033.533, 3806.998
1034.642, 3749.795
1035.750, 3741.711
1036.858, 3681.580
1037.966, 3744.863
1039.073, 3497.570
1040.181, 3641.445
1041.288, 3440.312
1042.396, 3500.436
1043.503, 3404.996
1044.610, 3333.209
1045.716, 3309.209
1046.823, 2964.945
1047.929, 2992.898
1049.036, 2831.742
1050.142, 2794.139
1051.248, 2675.971
1052.353, 2645.457
1053.459, 2716.326
1054.564, 2345.809
1055.670, 2215.938
1056.775, 2249.457
1057.880, 2223.982
1058.985, 1954.254
1060.089, 2116.777
1061.194, 2224.727
1062.298, 2055.818
1063.402, 2196.836
1064.506, 2032.971
1065.610, 2033.084
1066.713, 2037.061
1067.817, 1966.799
1068.920, 2026.643
1070.023, 2164.961
1071.126, 1911.049
1072.229, 1935.119
1073.332, 2087.287
1074.435, 2061.314
1075.537, 2151.730
1076.639, 2187.889
1077.741, 2293.113
1078.843, 2129.656
1079.945, 2334.656
1081.046, 2374.791
1082.148, 2797.732
1083.249, 2752.965
1084.350, 2914.377
1085.451, 3235.453
1086.551, 3240.572
1087.652, 3218.957
1088.752, 3435.859
1089.853, 3525.838
1090.953, 3716.605
1092.053, 3966.816
1093.152, 4279.984
1094.252, 4493.617
1095.351, 4640.064
1096.451, 4868.566
1097.550, 5165.588
1098.649, 5232.660
1099.748, 5405.758
1100.846, 5667.891
1101.945, 5807.055
1103.043, 5898.248
1104.141, 6142.297
1105.239, 6286.879
1106.337, 6522.070
1107.434, 6684.418
1108.532, 6833.791
1109.629, 7058.203
1110.726, 7192.645
1111.823, 7364.121
1112.920, 7110.629
1114.017, 6992.172
1115.113, 6563.746
1116.210, 6607.352
1117.306, 6459.988
1118.402, 6213.662
1119.498, 5996.367
1120.593, 5715.107
1121.689, 5398.877
1122.784, 5601.684
1123.879, 5041.525
1124.974, 5037.400
1126.069, 4725.309
1127.164, 4396.248
1128.259, 4216.221
1129.353, 4108.229
1130.447, 3977.270
1131.541, 3884.734
1132.635, 3802.451
1133.729, 3768.594
1134.822, 3717.770
1135.916, 3734.479
1137.009, 3636.223
1138.102, 3765.504
1139.195, 3728.816
1140.288, 3862.164
1141.380, 3715.547
1142.473, 3951.965
1143.565, 3697.418
1144.657, 3662.906
1145.749, 3819.432
1146.841, 3643.988
1147.932, 4155.584
1149.024, 3885.215
1150.115, 4159.879
1151.206, 3821.580
1152.297, 4088.318
1153.388, 4033.096
1154.479, 3840.912
1155.569, 3821.771
1156.659, 3960.668
1157.750, 3783.609
1158.839, 3728.588
1159.929, 3515.605
1161.019, 3701.662
1162.108, 3715.764
1163.198, 3534.941
1164.287, 3571.184
1165.376, 3153.463
1166.465, 3071.838
1167.553, 2936.252
1168.642, 2773.703
1169.730, 2830.201
1170.818, 2723.742
1171.906, 2600.324
1172.994, 2550.670
1174.082, 2418.633
1175.170, 2317.354
1176.257, 2165.117
1177.344, 1985.979
1178.431, 1899.910
1179.518, 1986.904
1180.605, 1755.676
1181.691, 1693.572
1182.778, 1462.746
1183.864, 1399.055
1184.950, 1288.396
1186.036, 1147.889
1187.122, 1234.465
1188.207, 844.0938
1189.292, 774.7656
1190.378, 811.5547
1191.463, 600.4258
1192.548, 605.8242
1193.632, 517.3789
1194.717, 499.4766
1195.801, 385.6680
1196.886, 334.8984
1197.970, 336.1797
1199.054, 231.4141
1200.137, 223.6172
1201.221, 126.2930
1202.305, 146.7539
1203.388, 182.2500
1204.471, 122.3867
1205.554, 166.9766
1206.637, 126.6016
1207.719, 125.2656
1208.802, 20.03516
1209.884, 148.3047
1210.966, 29.41797
1212.048, 81.98047
1213.130, 72.65625
1214.212, 281.8672
1215.293, 290.1289
1216.374, 154.9961
1217.456, 36.40234
1218.536, 103.3125
1219.617, 16.70312
1220.698, 120.0625
1221.778, 9.847656
1222.859, 86.83203
1223.939, 107.1758
1225.019, 75.83984
1226.099, 21.57031
1227.178, 18.21094
1228.258, 251.2539
1229.337, 192.9766
1230.417, 380.7305
1231.496, 73.50391
1232.574, 355.3047
1233.653, 89.13672
1234.732, 316.5234
1235.810, 167.4023
1236.888, 413.3047
1237.966, 431.2422
1239.044, 267.1914
1240.122, 241.1758
1241.199, 216.1797
1242.277, 716.2070
1243.354, 472.2734
1244.431, 523.4023
1245.508, 823.5039
1246.585, 518.6289
1247.661, 578.7773
1248.738, 735.9570
1249.814, 568.4453
1250.890, 516.6641
1251.966, 552.9062
1253.042, 645.7227
1254.117, 613.4219
1255.193, 618.8672
1256.268, 637.6758
1257.343, 533.0898
1258.418, 548.5273
1259.493, 466.9922
1260.567, 430.4766
1261.642, 888.9844
1262.716, 780.5078
1263.790, 1065.062
1264.864, 976.6328
1265.938, 1212.230
1267.011, 1007.848
1268.085, 953.4844
1269.158, 1106.168
1270.231, 894.8867
1271.304, 1032.625
1272.377, 1201.391
1273.450, 1536.172
1274.522, 1029.984
1275.594, 1388.820
1276.666, 814.6758
1277.738, 827.5430
1278.810, 958.4414
1279.882, 820.3477
1280.953, 769.2812
1282.025, 720.2266
1283.096, 435.1953
1284.167, 512.1836
1285.238, 639.1875
1286.308, 608.2070
1287.379, 335.2461
1288.449, 465.3047
1289.519, 372.3828
1290.589, 436.4727
1291.659, 263.5781
1292.729, 370.7031
1293.798, 304.8438
1294.868, 493.9961
1295.937, 474.1641
1297.006, 454.3516
1298.075, 334.5469
1299.143, 564.7656
1300.212, 429.9883
1301.280, 455.7891
1302.348, 420.4805
1303.416, 386.7461
1304.484, 305.0195
1305.552, 196.3008
1306.620, 195.5977
1307.687, 277.9062
1308.754, 230.2188
1309.821, 64.45312
1310.888, 245.8320
1311.955, 343.1250
1313.021, 105.5703
1314.088, 53.33594
1315.154, 268.8633
1316.220, 268.0664
1317.286, 361.2773
1318.352, 325.4883
1319.417, 275.7070
1320.483, 437.9219
1321.548, 325.1445
1322.613, 367.3594
1323.678, 432.5859
1324.743, 208.8242
1325.807, 261.0703
1326.872, 374.3242
1327.936, 506.5586
1329.000, 503.8086
1330.064, 219.0586
1331.128, 191.3203
1332.191, 49.45703
1333.255, 145.6875
1334.318, 195.8359
1335.381, 109.9883
1336.444, 409.1445
1337.507, 357.9258
1338.569, 84.24219
1339.632, 17.77734
1340.694, 47.92188
1341.756, 71.81250
1342.818, 45.87109
1343.880, 36.44531
1344.941, 138.7578
1346.003, 33.83594
1347.064, 273.4414
1348.125, 68.00391
1349.186, 36.81250
1350.247, 196.2812
1351.308, 121.6992
1352.368, 104.2500
1353.428, 45.01953
1354.489, 216.7227
1355.549, 32.95312
1356.608, 121.8047
1357.668, 124.5703
1358.727, 172.3359
1359.787, 316.1016
1360.846, 54.87891
1361.905, 50.34766
1362.964, 143.4141
1364.022, 269.1758
1365.081, 174.9414
1366.139, 143.7070
1367.197, 160.8984
1368.255, 117.2461
1369.313, 131.0156
1370.371, 59.78516
1371.428, 56.55859
1372.486, 303.3281
1373.543, 158.0977
1374.600, 306.8633
1375.657, 290.2188
1376.713, 44.39844
1377.770, 204.1602
1378.826, 168.9258
1379.882, 35.69141
1380.938, 354.6367
1381.994, 161.3984
1383.050, 241.9336
1384.106, 201.8047
1385.161, 277.7227
1386.216, 497.1523
