##NAMES=Erionite-Ca
##RRUFFID=R060836
##IDEAL CHEMISTRY=Ca_5_(Si_26_Al_10_O_72_)&#183;30H_2_O
##LOCALITY=Moeraki, Otago, South Island, New Zealand
##OWNER=RRUFF
##SOURCE=Michael Scott
##DESCRIPTION=Radiating group of colorless acicular hexagonal prisms
##STATUS=The identification of this mineral is confirmed by single-crystal X-ray diffraction and chemical analysis.
##URL=rruff.info/R060836
##MEASURED CHEMISTRY=(Ca_2.08_K_1.21_Na_0.94_Mg_0.77_Fe^3+^_0.41_Cr_0.10_)_Σ=5.51_(Si_26.62_Al_9.38_)O_72_·23.41H_2_O; H_2_O estimated by difference
##PIN_ID=M00444
##ORIENTATION=Laser parallel to c* (0 0 1). Fiducial mark perpendicular to laser is parallel to a [1 0 0]
230.7650, 0.0000000E+00
231.9820, 175.7930
233.1990, 73.89258
234.4160, 104.4121
235.6330, 0.2167970
236.8490, 96.47070
238.0660, 158.9785
239.2820, 273.4414
240.4980, 185.8184
241.7140, 381.9512
242.9300, 153.7656
244.1460, 200.0078
245.3610, 305.4141
246.5770, 83.25391
247.7920, 131.8164
249.0070, 266.5371
250.2220, 282.1055
251.4370, 449.8125
252.6510, 350.7617
253.8660, 576.3750
255.0800, 564.5117
256.2940, 454.9980
257.5080, 814.7090
258.7220, 1437.551
259.9360, 1261.986
261.1490, 1317.566
262.3630, 1285.268
263.5760, 936.1094
264.7890, 923.0176
266.0020, 893.1094
267.2150, 1016.812
268.4270, 1061.105
269.6400, 1168.146
270.8520, 841.5820
272.0640, 964.4023
273.2760, 1056.570
274.4880, 1235.088
275.7000, 898.9141
276.9120, 1130.098
278.1230, 931.6875
279.3340, 1037.740
280.5450, 727.2988
281.7560, 809.4062
282.9670, 898.0996
284.1780, 687.4043
285.3880, 720.3594
286.5980, 881.9883
287.8090, 712.3145
289.0190, 598.3574
290.2290, 501.1309
291.4380, 526.6621
292.6480, 862.9570
293.8570, 807.0312
295.0670, 1066.904
296.2760, 1010.584
297.4850, 1266.043
298.6930, 1167.227
299.9020, 1538.205
301.1110, 1648.957
302.3190, 1849.572
303.5270, 2033.941
304.7350, 2087.242
305.9430, 2743.848
307.1510, 2728.746
308.3580, 3356.846
309.5660, 3453.127
310.7730, 3832.359
311.9800, 3942.621
313.1870, 3876.459
314.3940, 4343.725
315.6010, 4613.613
316.8070, 4631.344
318.0130, 4518.180
319.2200, 4545.625
320.4260, 4680.773
321.6310, 4882.998
322.8370, 4647.301
324.0430, 4434.670
325.2480, 4348.105
326.4540, 4122.605
327.6590, 4293.168
328.8640, 3819.787
330.0680, 3461.461
331.2730, 3628.188
332.4780, 3382.967
333.6820, 3264.797
334.8860, 3023.676
336.0900, 2885.332
337.2940, 2702.531
338.4980, 2588.578
339.7010, 2397.629
340.9050, 2226.711
342.1080, 2185.814
343.3110, 2115.930
344.5140, 1731.051
345.7170, 1686.178
346.9200, 1498.311
348.1220, 1407.453
349.3240, 1530.600
350.5270, 1356.754
351.7290, 1252.918
352.9310, 1135.092
354.1320, 955.2734
355.3340, 1001.461
356.5350, 798.6543
357.7370, 811.8594
358.9380, 602.0703
360.1390, 757.2891
361.3400, 593.5176
362.5400, 182.7520
363.7410, 260.9941
364.9410, 249.2402
366.1410, 47.49609
367.3410, 76.75781
368.5410, 164.0234
369.7410, 111.2891
370.9400, 40.54688
372.1400, 31.79297
373.3390, 48.02930
374.5380, 88.75977
375.7370, 40.83398
376.9360, 75.25195
378.1350, 17.95312
379.3330, 59.67969
380.5310, 254.7363
381.7300, 170.8496
382.9280, 169.0098
384.1260, 184.6719
385.3230, 172.3379
386.5210, 193.4219
387.7180, 180.7871
388.9160, 144.4277
390.1130, 165.1680
391.3100, 95.36719
392.5060, 46.84180
393.7030, 21.06641
394.9000, 127.3320
396.0960, 146.5234
397.2920, 149.7637
398.4880, 130.0039
399.6840, 12.23828
400.8800, 137.5098
402.0750, 235.7695
403.2710, 194.0469
404.4660, 372.3496
405.6610, 259.6465
406.8560, 552.0195
408.0510, 580.4004
409.2450, 801.8145
410.4400, 976.9395
411.6340, 1194.691
412.8280, 1321.133
414.0220, 1392.578
415.2160, 1533.986
416.4100, 1810.385
417.6030, 2067.811
418.7970, 2506.195
419.9900, 2762.543
421.1830, 3295.887
422.3760, 3890.201
423.5690, 3919.520
424.7610, 4399.814
425.9540, 4853.082
427.1460, 5099.363
428.3380, 5340.621
429.5300, 5468.883
430.7220, 5530.160
431.9140, 5474.416
433.1050, 5281.688
434.2970, 5159.949
435.4880, 5092.191
436.6790, 4904.430
437.8700, 5039.652
439.0610, 4735.865
440.2510, 4815.064
441.4420, 4939.240
442.6320, 5137.391
443.8220, 5235.514
445.0120, 5578.605
446.2020, 5750.660
447.3910, 6183.594
448.5810, 6586.439
449.7700, 6835.074
450.9600, 7534.488
452.1490, 7877.689
453.3370, 8771.670
454.5260, 8994.471
455.7150, 9905.203
456.9030, 10239.94
458.0910, 11292.66
459.2800, 11879.37
460.4670, 12405.09
461.6550, 12961.85
462.8430, 13436.62
464.0300, 13986.40
465.2180, 14545.18
466.4050, 15163.98
467.5920, 15374.77
468.7790, 15646.58
469.9650, 16038.40
471.1520, 16455.23
472.3380, 16915.06
473.5250, 17479.15
474.7110, 18080.72
475.8970, 18671.55
477.0820, 19395.38
478.2680, 19955.22
479.4540, 20936.05
480.6390, 21698.88
481.8240, 22501.71
483.0090, 22887.54
484.1940, 23152.36
485.3780, 23414.18
486.5630, 23287.00
487.7470, 22995.80
488.9320, 22716.61
490.1160, 22008.41
491.3000, 21094.21
492.4830, 19810.00
493.6670, 18839.78
494.8500, 17569.56
496.0340, 16079.34
497.2170, 14576.11
498.4000, 13200.88
499.5820, 11719.63
500.7650, 10805.38
501.9480, 9550.121
503.1300, 8559.857
504.3120, 7798.586
505.4940, 6607.686
506.6760, 5943.113
507.8580, 5289.486
509.0390, 4596.678
510.2210, 4180.156
511.4020, 3674.168
512.5830, 3457.947
513.7640, 3038.107
514.9450, 2821.170
516.1250, 2497.434
517.3060, 2290.996
518.4860, 2158.562
519.6660, 1807.971
520.8460, 1740.824
522.0260, 1563.312
523.2060, 1542.479
524.3850, 1323.369
525.5650, 1296.436
526.7440, 1058.471
527.9230, 1198.176
529.1020, 1041.182
530.2810, 896.3105
531.4590, 1036.812
532.6380, 707.6621
533.8160, 880.0059
534.9940, 625.2344
536.1720, 860.5273
537.3500, 862.6055
538.5270, 900.2324
539.7050, 748.7207
540.8820, 951.4219
542.0590, 937.3906
543.2360, 1161.930
544.4130, 848.6758
545.5900, 877.2871
546.7660, 1111.961
547.9430, 1229.947
549.1190, 1379.330
550.2950, 1460.742
551.4710, 1664.570
552.6470, 2149.848
553.8220, 2132.637
554.9980, 2601.717
556.1730, 2548.309
557.3480, 3001.188
558.5230, 3392.852
559.6980, 3105.340
560.8730, 3709.873
562.0470, 3917.783
563.2220, 4127.094
564.3960, 4415.402
565.5700, 4552.264
566.7440, 4133.020
567.9170, 4146.520
569.0910, 3867.471
570.2640, 3574.461
571.4380, 3420.877
572.6110, 2950.137
573.7840, 2787.209
574.9570, 2747.262
576.1290, 2281.877
577.3020, 2224.238
578.4740, 1856.824
579.6460, 1559.367
580.8180, 1692.258
581.9900, 1583.051
583.1620, 1618.273
584.3330, 1648.859
585.5040, 1381.074
586.6760, 1530.549
587.8470, 1407.172
589.0180, 993.4746
590.1880, 1099.418
591.3590, 1048.277
592.5290, 1265.371
593.7000, 1198.975
594.8700, 1184.467
596.0400, 1185.605
597.2090, 1130.908
598.3790, 957.0469
599.5490, 996.6211
600.7180, 983.7930
601.8870, 803.0781
603.0560, 826.9180
604.2250, 756.1504
605.3940, 829.8262
606.5620, 768.9121
607.7300, 873.0312
608.8990, 762.5781
610.0670, 685.8184
611.2350, 612.6562
612.4020, 770.5918
613.5700, 851.5176
614.7370, 726.1855
615.9050, 666.5508
617.0720, 785.8887
618.2390, 990.7773
619.4060, 1055.674
620.5720, 1344.197
621.7390, 1577.633
622.9050, 1517.943
624.0710, 1543.664
625.2370, 1460.486
626.4030, 1300.705
627.5690, 1429.885
628.7340, 1355.023
629.9000, 1091.129
631.0650, 1163.195
632.2300, 1051.223
633.3950, 1047.215
634.5600, 1106.170
635.7240, 770.0879
636.8890, 1101.961
638.0530, 1009.799
639.2170, 909.5977
640.3810, 1176.357
641.5450, 901.0762
642.7080, 1028.758
643.8720, 1282.406
645.0350, 1105.020
646.1980, 1277.605
647.3610, 1302.777
648.5240, 1214.801
649.6870, 1365.197
650.8490, 1099.709
652.0120, 1082.180
653.1740, 1033.676
654.3360, 827.1348
655.4980, 615.5703
656.6600, 735.9824
657.8210, 616.3906
658.9830, 744.7949
660.1440, 644.1895
661.3050, 392.5762
662.4660, 506.9434
663.6270, 309.3594
664.7870, 297.8125
665.9480, 316.2715
667.1080, 108.7480
668.2680, 204.2266
669.4280, 131.7305
670.5880, 117.2441
671.7480, 206.7500
672.9070, 231.2695
674.0670, 18.77344
675.2260, 332.6211
676.3850, 314.1211
677.5440, 22.42578
678.7030, 50.94531
679.8610, 23.32031
681.0200, 151.4297
682.1780, 200.6738
683.3360, 79.18945
684.4940, 95.25195
685.6520, 105.5625
686.8090, 303.0371
687.9670, 34.48242
689.1240, 114.3105
690.2810, 9.025391
691.4380, 191.1348
692.5950, 82.89062
693.7520, 91.95312
694.9080, 14.51172
696.0650, 103.6934
697.2210, 211.6641
698.3770, 110.7910
699.5330, 103.1875
700.6880, 71.96875
701.8440, 124.6836
702.9990, 94.16211
704.1550, 56.96094
705.3100, 232.9160
706.4650, 97.18750
707.6190, 172.9004
708.7740, 57.39648
709.9290, 80.20898
711.0830, 317.6523
712.2370, 90.94141
713.3910, 31.33203
714.5450, 209.5332
715.6980, 17.67773
716.8520, 201.7441
718.0050, 57.75195
719.1580, 124.6895
720.3110, 367.5645
721.4640, 77.38867
722.6170, 124.1465
723.7700, 95.83984
724.9220, 171.4707
726.0740, 133.0410
727.2260, 196.4590
728.3780, 273.9961
729.5300, 217.3887
730.6810, 291.7188
731.8330, 115.9961
732.9840, 351.2090
734.1350, 189.3691
735.2860, 125.4688
736.4370, 595.5078
737.5880, 301.4922
738.7380, 150.4199
739.8880, 99.71094
741.0390, 215.0156
742.1890, 126.6816
743.3380, 237.2871
744.4880, 135.8340
745.6380, 354.3184
746.7870, 5.748047
747.9360, 105.0918
749.0850, 395.3711
750.2340, 132.5977
751.3830, 356.7598
752.5310, 408.8711
753.6800, 233.9297
754.8280, 230.9316
755.9760, 328.8730
757.1240, 318.7617
758.2720, 376.9160
759.4190, 592.8984
760.5670, 705.1035
761.7140, 600.1914
762.8610, 573.8164
764.0080, 559.3926
765.1550, 627.9180
766.3020, 644.3906
767.4480, 706.8125
768.5950, 709.1855
769.7410, 705.5078
770.8870, 659.0801
772.0330, 711.3008
773.1780, 676.4688
774.3240, 727.1074
775.4690, 933.6562
776.6140, 823.6719
777.7590, 948.7793
778.9040, 990.6953
780.0490, 910.5605
781.1940, 977.3398
782.3380, 1082.688
783.4820, 931.0000
784.6260, 992.5508
785.7700, 797.5781
786.9140, 1021.500
788.0580, 1067.309
789.2010, 789.9727
790.3450, 829.2207
791.4880, 920.2500
792.6310, 1116.713
793.7730, 1219.791
794.9160, 1228.068
796.0590, 877.1777
797.2010, 991.0918
798.3430, 922.6367
799.4850, 840.8770
800.6270, 1022.662
801.7690, 726.2246
802.9100, 901.1191
804.0520, 885.6328
805.1930, 956.2246
806.3340, 842.3750
807.4750, 782.7832
808.6160, 911.6133
809.7560, 605.8242
810.8970, 657.4707
812.0370, 382.9043
813.1770, 593.0000
814.3170, 455.8496
815.4570, 805.1094
816.5960, 433.4512
817.7360, 459.4375
818.8750, 490.2715
820.0140, 413.2930
821.1530, 476.4492
822.2920, 435.4941
823.4310, 260.9023
824.5690, 386.6953
825.7070, 211.2520
826.8460, 456.6973
827.9840, 212.6602
829.1220, 365.7715
830.2590, 315.6270
831.3970, 202.1211
832.5340, 28.02344
833.6710, 244.5566
834.8080, 423.9512
835.9450, 331.8457
837.0820, 206.5117
838.2190, 214.7266
839.3550, 384.4707
840.4910, 284.1445
841.6270, 744.1973
842.7630, 576.7422
843.8990, 216.5586
845.0350, 458.3086
846.1700, 653.9492
847.3060, 635.0977
848.4410, 590.3320
849.5760, 652.6836
850.7100, 635.9902
851.8450, 676.6562
852.9800, 612.5098
854.1140, 711.0742
855.2480, 1037.609
856.3820, 737.7305
857.5160, 957.8789
858.6500, 907.5352
859.7830, 828.5430
860.9170, 959.1523
862.0500, 893.1094
863.1830, 1004.445
864.3160, 932.6797
865.4480, 813.2031
866.5810, 892.4531
867.7130, 1062.988
868.8460, 841.6562
869.9780, 457.3750
871.1100, 575.3828
872.2410, 773.0352
873.3730, 478.0508
874.5050, 607.4414
875.6360, 656.1641
876.7670, 391.7188
877.8980, 467.6562
879.0290, 356.1406
880.1590, 312.1172
881.2900, 265.6172
882.4200, 441.0312
883.5500, 359.9492
884.6800, 326.1172
885.8100, 304.6172
886.9400, 271.1367
888.0690, 246.7422
889.1990, 252.7461
890.3280, 199.4766
891.4570, 203.9922
892.5860, 189.8438
893.7140, 87.26953
894.8430, 113.5039
895.9710, 45.94531
897.1000, 29.64453
898.2280, 213.7031
899.3560, 319.0312
900.4830, 268.3320
901.6110, 344.5195
902.7380, 273.2227
903.8660, 255.0938
904.9930, 172.3008
906.1200, 65.48047
907.2460, 134.6367
908.3730, 228.7695
909.5000, 181.8789
910.6260, 186.8906
911.7520, 372.0352
912.8780, 89.08203
914.0040, 178.1016
915.1290, 146.1055
916.2550, 14.91797
917.3800, 9.023438
918.5050, 26.06641
919.6300, 31.20312
920.7550, 7.382813
921.8800, 16.39844
923.0040, 166.8438
924.1290, 47.80078
925.2530, 208.5781
926.3770, 23.90234
927.5010, 9.632813
928.6250, 53.20312
929.7480, 115.1719
930.8720, 48.46875
931.9950, 58.83594
933.1180, 79.87500
934.2410, 71.35156
935.3640, 28.44141
936.4860, 90.27344
937.6090, 48.17188
938.7310, 7.921875
939.8530, 245.9961
940.9750, 62.94141
942.0970, 1.078125
943.2180, 245.0742
944.3400, 33.92969
945.4610, 38.03125
946.5820, 355.0156
947.7030, 3.433594
948.8240, 18.17578
949.9450, 126.9102
951.0650, 198.5664
952.1860, 17.33203
953.3060, 314.0703
954.4260, 77.85156
955.5460, 367.5820
956.6650, 290.4336
957.7850, 54.32031
958.9040, 235.5547
960.0230, 240.4883
961.1420, 132.7656
962.2610, 216.8320
963.3800, 17.78906
964.4990, 279.3359
965.6170, 204.2656
966.7350, 88.78906
967.8530, 73.91797
968.9710, 93.26953
970.0890, 30.11719
971.2070, 341.2188
972.3240, 98.97266
973.4410, 165.8242
974.5580, 297.1211
975.6750, 204.1289
976.7920, 315.1836
977.9090, 193.0195
979.0250, 380.0703
980.1410, 307.4453
981.2580, 268.8477
982.3740, 306.3164
983.4890, 352.8086
984.6050, 578.3789
985.7200, 499.9570
986.8360, 419.5391
987.9510, 465.1289
989.0660, 763.7461
990.1810, 570.3711
991.2950, 559.0000
992.4100, 818.6367
993.5240, 735.2812
994.6390, 494.9492
995.7530, 801.6211
996.8660, 1118.297
997.9800, 932.9883
999.0940, 1231.680
1000.207, 1552.375
1001.320, 1470.074
1002.433, 1504.781
1003.546, 1437.496
1004.659, 1431.219
1005.772, 1620.945
1006.884, 1157.680
1007.996, 986.4219
1009.108, 1017.832
1010.220, 1253.523
1011.332, 1393.324
1012.444, 1442.348
1013.555, 1128.656
1014.666, 1283.320
1015.777, 1250.297
1016.888, 1209.578
1017.999, 1430.195
1019.110, 1169.320
1020.220, 1385.770
1021.331, 1411.715
1022.441, 1524.852
1023.551, 1449.141
1024.661, 1431.766
1025.770, 1603.277
1026.880, 1462.012
1027.989, 1384.641
1029.098, 1233.398
1030.207, 1359.891
1031.316, 1102.453
1032.425, 1332.445
1033.533, 1182.438
1034.642, 1215.438
1035.750, 1360.449
1036.858, 1252.469
1037.966, 1022.500
1039.073, 1150.539
1040.181, 992.2852
1041.288, 1133.340
1042.396, 1180.410
1043.503, 1253.488
1044.610, 1396.582
1045.716, 1400.961
1046.823, 1200.648
1047.929, 1390.773
1049.036, 1211.906
1050.142, 1036.086
1051.248, 1202.656
1052.353, 1298.227
1053.459, 1308.516
1054.564, 1151.297
1055.670, 1123.145
1056.775, 1084.066
1057.880, 1144.098
1058.985, 1144.395
1060.089, 1180.188
1061.194, 1266.406
1062.298, 1237.734
1063.402, 1335.047
1064.506, 1307.793
1065.610, 1287.059
1066.713, 1190.961
1067.817, 1300.332
1068.920, 1192.531
1070.023, 1264.680
1071.126, 1298.930
1072.229, 1368.574
1073.332, 1405.043
1074.435, 1411.461
1075.537, 1481.605
1076.639, 1775.129
1077.741, 1807.477
1078.843, 1681.031
1079.945, 1938.469
1081.046, 1931.926
1082.148, 2028.516
1083.249, 2092.172
1084.350, 2130.820
1085.451, 2130.461
1086.551, 2211.289
1087.652, 2170.551
1088.752, 2147.602
1089.853, 2352.215
1090.953, 2118.031
1092.053, 2044.871
1093.152, 2452.957
1094.252, 2446.840
1095.351, 2135.746
1096.451, 2118.000
1097.550, 2443.945
1098.649, 2415.914
1099.748, 2418.910
1100.846, 2433.270
1101.945, 2336.215
1103.043, 2419.742
1104.141, 2392.793
1105.239, 2560.602
1106.337, 2371.727
1107.434, 2488.875
1108.532, 2527.043
1109.629, 2666.250
1110.726, 2853.480
1111.823, 2418.727
1112.920, 2530.996
1114.017, 2684.449
1115.113, 2767.535
1116.210, 3005.098
1117.306, 2827.445
1118.402, 2983.809
1119.498, 2882.188
1120.593, 2928.902
1121.689, 3063.320
1122.784, 2924.758
1123.879, 3018.234
1124.974, 2758.707
1126.069, 2663.703
1127.164, 2626.215
1128.259, 2466.742
1129.353, 2416.289
1130.447, 2286.852
1131.541, 2349.438
1132.635, 2318.043
1133.729, 2313.664
1134.822, 2313.305
1135.916, 2153.961
1137.009, 2233.652
1138.102, 2023.367
1139.195, 2192.098
1140.288, 2345.852
1141.380, 2172.617
1142.473, 2120.410
1143.565, 2053.219
1144.657, 2022.043
1145.749, 2188.887
1146.841, 1749.758
1147.932, 1965.648
1149.024, 1997.578
1150.115, 1833.539
1151.206, 1850.516
1152.297, 2010.516
1153.388, 1812.531
1154.479, 2004.566
1155.569, 1790.621
1156.659, 1991.699
1157.750, 1584.793
1158.839, 1780.902
1159.929, 1926.039
1161.019, 1966.191
1162.108, 1760.363
1163.198, 1653.812
1164.287, 1423.043
1165.376, 1479.453
1166.465, 1677.566
1167.553, 1653.852
1168.642, 1584.156
1169.730, 1758.484
1170.818, 1466.828
1171.906, 1495.191
1172.994, 1667.578
1174.082, 1465.980
1175.170, 1512.406
1176.257, 1283.852
1177.344, 1219.316
1178.431, 1266.801
1179.518, 1147.301
1180.605, 1134.820
1181.691, 1101.371
1182.778, 981.9453
1183.864, 1089.547
1184.950, 1139.191
1186.036, 1011.859
1187.122, 912.5430
1188.207, 1222.297
1189.292, 794.0742
1190.378, 705.9297
1191.463, 600.8086
1192.548, 925.7109
1193.632, 577.6484
1194.717, 703.6094
1195.801, 458.6055
1196.886, 566.6172
1197.970, 686.6758
1199.054, 344.7539
1200.137, 478.8633
1201.221, 527.0156
1202.305, 131.1914
1203.388, 268.3789
1204.471, 261.5977
1205.554, 394.8477
1206.637, 252.1211
1207.719, 72.41016
1208.802, 510.7305
1209.884, 136.0703
1210.966, 145.9414
1212.048, 96.41406
1213.130, 330.9023
1214.212, 16.41016
1215.293, 163.9414
1216.374, 2.488281
1217.456, 192.9531
1218.536, 55.45703
1219.617, 22.95703
1220.698, 141.9297
1221.778, 317.4492
1222.859, 185.0156
1223.939, 51.46094
1225.019, 74.95312
1226.099, 64.46484
1227.178, 100.9922
1228.258, 30.53906
1229.337, 74.89844
1230.417, 72.30859
1231.496, 37.16016
1232.574, 77.14453
1233.653, 21.55859
1234.732, 15.96875
1235.810, 19.62891
1236.888, 212.2422
1237.966, 156.8750
1239.044, 128.6055
1240.122, 366.2695
1241.199, 306.9453
1242.277, 127.6445
1243.354, 119.6406
1244.431, 93.94922
1245.508, 175.5742
1246.585, 55.32422
1247.661, 190.2773
1248.738, 234.4805
1249.814, 84.01172
1250.890, 65.82031
1251.966, 27.99609
1253.042, 17.50391
1254.117, 198.2852
1255.193, 67.38672
1256.268, 144.2578
1257.343, 165.3633
1258.418, 273.7227
1259.493, 193.2500
1260.567, 171.0938
1261.642, 337.8867
1262.716, 400.0742
1263.790, 297.8867
1264.864, 411.8633
1265.938, 143.4805
1267.011, 210.1445
1268.085, 423.0664
1269.158, 330.4180
1270.231, 447.8945
1271.304, 485.3711
1272.377, 159.2266
1273.450, 465.4805
1274.522, 498.2422
1275.594, 251.7656
1276.666, 353.2383
1277.738, 317.2227
1278.810, 386.4141
1279.882, 264.4688
1280.953, 209.5430
1282.025, 249.8867
1283.096, 308.7227
1284.167, 302.8359
1285.238, 397.9688
1286.308, 446.6758
1287.379, 219.2617
1288.449, 367.4336
1289.519, 218.6172
1290.589, 121.8164
1291.659, 12.02344
1292.729, 129.2461
1293.798, 90.47266
1294.868, 115.7188
1295.937, 126.9805
1297.006, 138.2500
1298.075, 185.5391
1299.143, 30.83984
1300.212, 303.1523
1301.280, 54.47656
1302.348, 256.8125
1303.416, 456.1562
1304.484, 409.5156
1305.552, 647.5625
1306.620, 347.2656
1307.687, 775.6641
1308.754, 850.0703
1309.821, 535.4883
1310.888, 689.9219
1311.955, 821.3555
1313.021, 694.8047
1314.088, 744.2656
1315.154, 645.7383
1316.220, 815.2266
1317.286, 943.7227
1318.352, 880.2344
1319.417, 933.2695
1320.483, 664.2969
1321.548, 759.8438
1322.613, 614.3828
1323.678, 323.9375
1324.743, 302.5000
1325.807, 189.0703
1326.872, 357.6562
1327.936, 233.8047
1329.000, 395.8516
1330.064, 75.46484
1331.128, 326.0781
1332.191, 153.6992
1333.255, 418.3281
1334.318, 204.9648
1335.381, 91.61328
1336.444, 284.2617
1337.507, 494.9219
1338.569, 24.40625
1339.632, 417.2617
1340.694, 262.9414
1341.756, 481.6289
1342.818, 159.3281
1343.880, 166.0352
1344.941, 365.7031
1346.003, 244.8828
1347.064, 157.3125
1348.125, 9.796875
1349.186, 477.9219
1350.247, 223.6523
1351.308, 281.1641
1352.368, 332.9180
1353.428, 253.6875
1354.489, 229.4609
1355.549, 401.2461
1356.608, 349.0469
1357.668, 282.8594
1358.727, 221.3164
1359.787, 244.5078
1360.846, 257.7109
1361.905, 342.6055
1362.964, 177.7305
1364.022, 172.5391
1365.081, 49.33984
1366.139, 85.84766
1367.197, 88.94922
1368.255, 58.75781
1369.313, 373.5742
1370.371, 327.4023
1371.428, 408.3789
1372.486, 16.44531
1373.543, 30.06641
1374.600, 260.9297
1375.657, 199.8086
1376.713, 339.6953
1377.770, 352.2852
1378.826, 317.4336
1379.882, 515.3555
1380.938, 96.74219
1381.994, 155.7539
1383.050, 480.2031
1384.106, 175.1641
1385.161, 402.7461
1386.216, 226.0977
