##NAMES=Erionite-Ca
##RRUFFID=R060836
##IDEAL CHEMISTRY=Ca_5_(Si_26_Al_10_O_72_)&#183;30H_2_O
##LOCALITY=Moeraki, Otago, South Island, New Zealand
##OWNER=RRUFF
##SOURCE=Michael Scott
##DESCRIPTION=Radiating group of colorless acicular hexagonal prisms
##STATUS=The identification of this mineral is confirmed by single-crystal X-ray diffraction and chemical analysis.
##URL=rruff.info/R060836
##MEASURED CHEMISTRY=(Ca_2.08_K_1.21_Na_0.94_Mg_0.77_Fe^3+^_0.41_Cr_0.10_)_Σ=5.51_(Si_26.62_Al_9.38_)O_72_·23.41H_2_O; H_2_O estimated by difference
##PIN_ID=M00444
##ORIENTATION=Laser parallel to c* (0 0 1). Fiducial mark perpendicular to laser is parallel to a [1 0 0]
223.4590, 0.0000000E+00
224.6770, 100.6992
225.8950, 126.3262
227.1120, 163.8867
228.3300, 214.5684
229.5480, 235.7051
230.7650, 165.9277
231.9820, 97.64648
233.1990, 404.5039
234.4160, 210.0781
235.6330, 91.10352
236.8490, 248.2402
238.0660, 25.52148
239.2820, 192.6523
240.4980, 243.5977
241.7140, 26.18359
242.9300, 52.70117
244.1460, 32.94141
245.3610, 13.53320
246.5770, 241.0273
247.7920, 115.4160
249.0070, 246.4180
250.2220, 410.8711
251.4370, 358.6504
252.6510, 581.6602
253.8660, 656.8301
255.0800, 659.1016
256.2940, 859.4395
257.5080, 803.8047
258.7220, 1167.174
259.9360, 1091.133
261.1490, 1367.871
262.3630, 1080.238
263.5760, 1095.818
264.7890, 1109.418
266.0020, 1057.510
267.2150, 1201.193
268.4270, 1291.900
269.6400, 1283.377
270.8520, 1120.246
272.0640, 1385.555
273.2760, 1034.354
274.4880, 1090.682
275.7000, 1084.578
276.9120, 1012.076
278.1230, 1037.209
279.3340, 843.0059
280.5450, 804.4902
281.7560, 937.6836
282.9670, 869.6094
284.1780, 591.2812
285.3880, 742.7207
286.5980, 833.9395
287.8090, 737.9512
289.0190, 880.7715
290.2290, 736.4102
291.4380, 768.8809
292.6480, 832.1953
293.8570, 846.3594
295.0670, 948.3828
296.2760, 1204.307
297.4850, 1324.225
298.6930, 1467.123
299.9020, 1693.170
301.1110, 1797.715
302.3190, 1887.963
303.5270, 2193.006
304.7350, 2726.168
305.9430, 2883.703
307.1510, 3309.682
308.3580, 3797.172
309.5660, 4141.258
310.7730, 4375.197
311.9800, 4927.352
313.1870, 4996.816
314.3940, 5179.984
315.6010, 5484.346
316.8070, 5389.775
318.0130, 5853.270
319.2200, 5688.830
320.4260, 5575.453
321.6310, 5624.133
322.8370, 5652.867
324.0430, 5364.654
325.2480, 5198.496
326.4540, 4965.383
327.6590, 5073.320
328.8640, 4849.305
330.0680, 4674.803
331.2730, 4426.404
332.4780, 4251.520
333.6820, 3897.676
334.8860, 3707.879
336.0900, 3665.121
337.2940, 3564.400
338.4980, 3201.711
339.7010, 3198.035
340.9050, 3049.375
342.1080, 2951.730
343.3110, 2918.783
344.5140, 2683.473
345.7170, 2709.869
346.9200, 2648.277
348.1220, 2561.883
349.3240, 2692.141
350.5270, 2449.598
351.7290, 2477.070
352.9310, 2383.559
354.1320, 2471.062
355.3340, 2225.582
356.5350, 2114.117
357.7370, 1993.668
358.9380, 1613.236
360.1390, 1654.816
361.3400, 1271.416
362.5400, 1516.027
363.7410, 1349.656
364.9410, 1008.303
366.1410, 1247.961
367.3410, 1058.631
368.5410, 974.2793
369.7410, 558.7910
370.9400, 626.0977
372.1400, 578.1621
373.3390, 565.9844
374.5380, 397.5781
375.7370, 151.7715
376.9360, 433.6816
378.1350, 204.5312
379.3330, 148.2676
380.5310, 253.4922
381.7300, 101.3379
382.9280, 45.65820
384.1260, 54.76367
385.3230, 280.8633
386.5210, 225.8281
387.7180, 0.4277340
388.9160, 172.3574
390.1130, 339.1973
391.3100, 25.55469
392.5060, 210.7754
393.7030, 23.07031
394.9000, 179.3770
396.0960, 215.7363
397.2920, 265.1602
398.4880, 108.6250
399.6840, 0.9101560
400.8800, 160.5566
402.0750, 52.93164
403.2710, 4.416016
404.4660, 93.89258
405.6610, 340.3926
406.8560, 410.8906
408.0510, 580.4082
409.2450, 787.9414
410.4400, 933.4688
411.6340, 1240.010
412.8280, 1367.521
414.0220, 1771.004
415.2160, 2118.484
416.4100, 2281.984
417.6030, 3080.463
418.7970, 3284.916
419.9900, 3906.350
421.1830, 4371.777
422.3760, 4668.188
423.5690, 5205.582
424.7610, 5843.965
425.9540, 6116.336
427.1460, 6443.695
428.3380, 6768.047
429.5300, 6763.391
430.7220, 6969.734
431.9140, 6938.076
433.1050, 6758.416
434.2970, 6607.758
435.4880, 6465.105
436.6790, 6467.449
437.8700, 6229.840
439.0610, 6086.246
440.2510, 6106.688
441.4420, 6137.141
442.6320, 6286.609
443.8220, 6755.102
445.0120, 7056.588
446.2020, 7435.064
447.3910, 7820.520
448.5810, 8313.221
449.7700, 8728.875
450.9600, 9486.715
452.1490, 10239.44
453.3370, 11065.04
454.5260, 11764.41
455.7150, 12535.73
456.9030, 13459.01
458.0910, 14065.29
459.2800, 14935.59
460.4670, 15700.91
461.6550, 16594.26
462.8430, 17244.69
464.0300, 17757.00
465.2180, 18469.38
466.4050, 18856.79
467.5920, 19293.21
468.7790, 19979.67
469.9650, 20434.13
471.1520, 20871.61
472.3380, 21385.10
473.5250, 22336.60
474.7110, 23131.10
475.8970, 23566.62
477.0820, 24840.14
478.2680, 25401.67
479.4540, 26620.21
480.6390, 27582.76
481.8240, 28612.31
483.0090, 29202.87
484.1940, 29549.44
485.3780, 29852.02
486.5630, 29754.60
487.7470, 29248.17
488.9320, 28392.76
490.1160, 27708.36
491.3000, 26737.95
492.4830, 25057.55
493.6670, 23568.15
494.8500, 22139.75
496.0340, 20067.36
497.2170, 18431.97
498.4000, 16801.58
499.5820, 15330.19
500.7650, 13327.81
501.9480, 12203.43
503.1300, 10731.05
504.3120, 9507.668
505.4940, 8625.289
506.6760, 7500.912
507.8580, 6713.535
509.0390, 5960.160
510.2210, 5369.785
511.4020, 4607.398
512.5830, 3991.994
513.7640, 3507.578
514.9450, 3144.148
516.1250, 2564.709
517.3060, 2396.254
518.4860, 2273.162
519.6660, 1954.693
520.8460, 1638.809
522.0260, 1612.693
523.2060, 1335.504
524.3850, 1418.832
525.5650, 1072.785
526.7440, 756.0039
527.9230, 994.4473
529.1020, 803.4668
530.2810, 919.8535
531.4590, 746.7891
532.6380, 540.9668
533.8160, 643.1914
534.9940, 470.7988
536.1720, 497.1602
537.3500, 638.8145
538.5270, 577.3066
539.7050, 659.9668
540.8820, 629.8633
542.0590, 653.6875
543.2360, 613.5781
544.4130, 721.4707
545.5900, 735.7852
546.7660, 878.1445
547.9430, 1044.436
549.1190, 1248.139
550.2950, 1507.193
551.4710, 1613.406
552.6470, 1872.102
553.8220, 2145.008
554.9980, 2269.838
556.1730, 3034.889
557.3480, 3332.508
558.5230, 3501.998
559.6980, 3611.574
560.8730, 3730.744
562.0470, 4229.154
563.2220, 4556.680
564.3960, 4620.691
565.5700, 4518.613
566.7440, 4359.027
567.9170, 4181.246
569.0910, 4002.557
570.2640, 3833.320
571.4380, 3542.654
572.6110, 3395.730
573.7840, 3069.203
574.9570, 2708.004
576.1290, 2526.240
577.3020, 2044.717
578.4740, 1997.561
579.6460, 1917.756
580.8180, 1713.236
581.9900, 1427.404
583.1620, 1375.227
584.3330, 1277.406
585.5040, 1247.611
586.6760, 1134.961
587.8470, 1128.889
589.0180, 1127.270
590.1880, 1006.973
591.3590, 983.2500
592.5290, 1211.107
593.7000, 1202.973
594.8700, 1221.154
596.0400, 837.3711
597.2090, 1093.822
598.3790, 1185.988
599.5490, 856.3359
600.7180, 1273.846
601.8870, 1084.871
603.0560, 959.3145
604.2250, 1279.240
605.3940, 1036.498
606.5620, 886.4922
607.7300, 1203.131
608.8990, 1043.363
610.0670, 878.6602
611.2350, 1153.291
612.4020, 743.9395
613.5700, 787.4531
614.7370, 994.1836
615.9050, 704.6348
617.0720, 817.1074
618.2390, 936.2227
619.4060, 988.5859
620.5720, 885.8496
621.7390, 716.3633
622.9050, 839.5469
624.0710, 819.0234
625.2370, 458.7598
626.4030, 677.0234
627.5690, 896.2734
628.7340, 467.4980
629.9000, 607.6992
631.0650, 432.8711
632.2300, 485.0176
633.3950, 449.1387
634.5600, 478.2363
635.7240, 636.3105
636.8890, 538.3555
638.0530, 434.3730
639.2170, 589.3574
640.3810, 558.3086
641.5450, 573.2812
642.7080, 504.2305
643.8720, 558.7500
645.0350, 581.0898
646.1980, 647.9902
647.3610, 689.9141
648.5240, 737.9668
649.6870, 502.7148
650.8490, 715.5859
652.0120, 549.4590
653.1740, 448.3164
654.3360, 638.1406
655.4980, 496.9902
656.6600, 552.8047
657.8210, 365.5820
658.9830, 396.3262
660.1440, 382.0352
661.3050, 372.7148
662.4660, 215.3594
663.6270, 181.0176
664.7870, 142.6523
665.9480, 188.3281
667.1080, 335.0703
668.2680, 313.8770
669.4280, 310.7637
670.5880, 251.3672
671.7480, 68.37109
672.9070, 100.1641
674.0670, 7.912109
675.2260, 247.6758
676.3850, 229.4102
677.5440, 209.1660
678.7030, 139.0547
679.8610, 112.3262
681.0200, 16.67773
682.1780, 36.91602
683.3360, 23.51758
684.4940, 250.0625
685.6520, 67.42969
686.8090, 163.9961
687.9670, 42.44336
689.1240, 63.17383
690.2810, 33.00977
691.4380, 135.4648
692.5950, 33.11523
693.7520, 272.3965
694.9080, 91.01367
696.0650, 131.2129
697.2210, 112.4336
698.3770, 330.1621
699.5330, 186.8223
700.6880, 13.76953
701.8440, 99.63672
702.9990, 220.8965
704.1550, 240.0996
705.3100, 121.2441
706.4650, 166.8281
707.6190, 62.34961
708.7740, 121.3086
709.9290, 7.796875
711.0830, 19.01562
712.2370, 95.75977
713.3910, 2.435547
714.5450, 3.968750
715.6980, 87.54492
716.8520, 156.0078
718.0050, 33.72656
719.1580, 101.5488
720.3110, 16.50781
721.4640, 26.56055
722.6170, 79.71094
723.7700, 130.0078
724.9220, 330.6602
726.0740, 90.74609
727.2260, 314.7109
728.3780, 234.1074
729.5300, 94.44336
730.6810, 188.7070
731.8330, 183.9062
732.9840, 104.0410
734.1350, 13.89453
735.2860, 112.9277
736.4370, 99.88477
737.5880, 288.6309
738.7380, 17.68945
739.8880, 117.8887
741.0390, 60.39648
742.1890, 132.8301
743.3380, 79.19531
744.4880, 346.6406
745.6380, 188.4805
746.7870, 59.96875
747.9360, 262.0977
749.0850, 415.4609
750.2340, 407.3828
751.3830, 196.8320
752.5310, 393.3223
753.6800, 216.1426
754.8280, 446.4648
755.9760, 288.4863
757.1240, 224.7090
758.2720, 244.1074
759.4190, 419.1992
760.5670, 263.5957
761.7140, 427.3359
762.8610, 359.5742
764.0080, 597.5488
765.1550, 696.8652
766.3020, 854.7266
767.4480, 594.6914
768.5950, 620.6875
769.7410, 1024.678
770.8870, 734.7363
772.0330, 950.6016
773.1780, 1050.572
774.3240, 1195.443
775.4690, 1024.162
776.6140, 1232.055
777.7590, 1185.613
778.9040, 1201.777
780.0490, 1326.117
781.1940, 1249.496
782.3380, 1305.498
783.4820, 1335.398
784.6260, 1351.697
785.7700, 1372.322
786.9140, 1420.199
788.0580, 1249.873
789.2010, 1403.383
790.3450, 1177.951
791.4880, 1226.410
792.6310, 1282.918
793.7730, 1254.238
794.9160, 1265.531
796.0590, 1184.258
797.2010, 1162.920
798.3430, 1367.633
799.4850, 1120.713
800.6270, 1040.285
801.7690, 1124.717
802.9100, 1290.758
804.0520, 1150.375
805.1930, 1376.652
806.3340, 1218.178
807.4750, 1051.342
808.6160, 1293.242
809.7560, 926.1055
810.8970, 1390.045
812.0370, 1277.281
813.1770, 1245.596
814.3170, 914.7617
815.4570, 897.0039
816.5960, 734.3613
817.7360, 821.8789
818.8750, 731.5449
820.0140, 793.1152
821.1530, 623.1641
822.2920, 652.1230
823.4310, 568.7598
824.5690, 523.1836
825.7070, 615.1074
826.8460, 574.5938
827.9840, 451.8359
829.1220, 400.5098
830.2590, 456.8828
831.3970, 369.2422
832.5340, 523.2930
833.6710, 517.6934
834.8080, 483.1289
835.9450, 485.3945
837.0820, 531.9785
838.2190, 510.2383
839.3550, 795.2969
840.4910, 560.7852
841.6270, 1011.270
842.7630, 775.1797
843.8990, 1081.205
845.0350, 1327.674
846.1700, 1541.348
847.3060, 1745.992
848.4410, 2017.811
849.5760, 2288.145
850.7100, 2646.064
851.8450, 2902.463
852.9800, 2936.531
854.1140, 3472.148
855.2480, 3263.322
856.3820, 3494.127
857.5160, 3352.156
858.6500, 3179.445
859.7830, 3119.289
860.9170, 2841.020
862.0500, 2651.521
863.1830, 2389.730
864.3160, 2203.654
865.4480, 1817.543
866.5810, 1430.768
867.7130, 1165.328
868.8460, 1305.801
869.9780, 1024.873
871.1100, 787.8262
872.2410, 1146.465
873.3730, 838.3047
874.5050, 829.8828
875.6360, 668.2148
876.7670, 671.9492
877.8980, 575.0156
879.0290, 628.8535
880.1590, 384.1113
881.2900, 272.5488
882.4200, 102.2539
883.5500, 401.2773
884.6800, 313.1562
885.8100, 162.6113
886.9400, 69.96289
888.0690, 56.64453
889.1990, 134.4199
890.3280, 61.67578
891.4570, 77.81445
892.5860, 57.22656
893.7140, 163.2910
894.8430, 54.37109
895.9710, 34.89453
897.1000, 265.0605
898.2280, 128.6387
899.3560, 81.13086
900.4830, 8.554688
901.6110, 164.9336
902.7380, 123.3574
903.8660, 97.71875
904.9930, 84.01758
906.1200, 66.25586
907.2460, 79.42383
908.3730, 18.53125
909.5000, 276.5625
910.6260, 67.54102
911.7520, 235.4570
912.8780, 297.3125
914.0040, 138.8828
915.1290, 17.76953
916.2550, 2.652344
917.3800, 78.15625
918.5050, 122.2188
919.6300, 166.4570
920.7550, 14.30469
921.8800, 52.23828
923.0040, 3.269531
924.1290, 82.37891
925.2530, 37.60938
926.3770, 91.06641
927.5010, 184.3125
928.6250, 84.14062
929.7480, 360.5430
930.8720, 184.8945
931.9950, 92.19531
933.1180, 20.44531
934.2410, 39.63672
935.3640, 161.2227
936.4860, 36.23438
937.6090, 194.3242
938.7310, 298.5742
939.8530, 31.04297
940.9750, 150.5938
942.0970, 20.27734
943.2180, 263.9688
944.3400, 92.24609
945.4610, 81.48047
946.5820, 119.6719
947.7030, 90.82422
948.8240, 10.06250
949.9450, 20.99609
951.0650, 151.0039
952.1860, 262.0234
953.3060, 153.0352
954.4260, 26.97656
955.5460, 295.9570
956.6650, 348.8555
957.7850, 359.7383
958.9040, 528.5898
960.0230, 339.2266
961.1420, 364.0508
962.2610, 378.8711
963.3800, 507.2188
964.4990, 579.4219
965.6170, 452.8438
966.7350, 527.8828
967.8530, 628.6406
968.9710, 509.4258
970.0890, 576.0508
971.2070, 588.6602
972.3240, 634.4414
973.4410, 618.1289
974.5580, 783.8867
975.6750, 996.6211
976.7920, 727.3320
977.9090, 1008.012
979.0250, 768.6758
980.1410, 1120.316
981.2580, 1016.941
982.3740, 1265.547
983.4890, 929.1406
984.6050, 1068.719
985.7200, 1108.285
986.8360, 1260.836
987.9510, 1252.375
989.0660, 1509.938
990.1810, 1187.512
991.2950, 1276.105
992.4100, 1389.691
993.5240, 1498.281
994.6390, 1584.953
995.7530, 1547.613
996.8660, 1693.297
997.9800, 1546.023
999.0940, 1817.727
1000.207, 1981.422
1001.320, 1953.105
1002.433, 2118.773
1003.546, 2238.426
1004.659, 2194.066
1005.772, 2233.711
1006.884, 2056.383
1007.996, 2427.047
1009.108, 2273.703
1010.220, 2109.355
1011.332, 2314.008
1012.444, 2233.648
1013.555, 2255.277
1014.666, 2446.750
1015.777, 2450.746
1016.888, 2274.957
1017.999, 2272.547
1019.110, 2360.762
1020.220, 2346.344
1021.331, 2351.328
1022.441, 2344.605
1023.551, 2439.656
1024.661, 2344.547
1025.770, 2278.660
1026.880, 2382.496
1027.989, 2306.129
1029.098, 2114.910
1030.207, 2320.352
1031.316, 2401.379
1032.425, 2483.844
1033.533, 2288.492
1034.642, 2488.734
1035.750, 2440.355
1036.858, 2273.812
1037.966, 2482.184
1039.073, 2221.492
1040.181, 2192.664
1041.288, 2052.957
1042.396, 2235.082
1043.503, 2078.242
1044.610, 2158.477
1045.716, 1797.477
1046.823, 1929.746
1047.929, 1884.340
1049.036, 1761.723
1050.142, 2050.000
1051.248, 2071.594
1052.353, 1854.219
1053.459, 1924.379
1054.564, 1662.152
1055.670, 1594.605
1056.775, 1642.199
1057.880, 1833.891
1058.985, 1835.457
1060.089, 1851.070
1061.194, 1590.574
1062.298, 1800.199
1063.402, 1502.793
1064.506, 1702.883
1065.610, 1707.609
1066.713, 1803.957
1067.817, 1818.555
1068.920, 1797.375
1070.023, 1715.547
1071.126, 1794.168
1072.229, 1808.340
1073.332, 1944.391
1074.435, 2003.035
1075.537, 1832.969
1076.639, 2055.734
1077.741, 1999.812
1078.843, 2177.883
1079.945, 2175.145
1081.046, 2103.320
1082.148, 2327.695
1083.249, 2425.695
1084.350, 2605.293
1085.451, 2703.355
1086.551, 2762.551
1087.652, 2828.664
1088.752, 2887.715
1089.853, 2858.844
1090.953, 3013.969
1092.053, 3286.105
1093.152, 3233.266
1094.252, 3564.445
1095.351, 3410.680
1096.451, 3698.648
1097.550, 3543.926
1098.649, 3713.422
1099.748, 3727.977
1100.846, 3941.320
1101.945, 3904.207
1103.043, 4094.590
1104.141, 4170.062
1105.239, 4281.492
1106.337, 4291.113
1107.434, 4315.582
1108.532, 4358.066
1109.629, 4506.570
1110.726, 4636.098
1111.823, 4777.645
1112.920, 4797.215
1114.017, 4587.797
1115.113, 4401.398
1116.210, 4523.031
1117.306, 4217.680
1118.402, 4458.348
1119.498, 4345.055
1120.593, 4292.781
1121.689, 4308.824
1122.784, 4048.594
1123.879, 4196.383
1124.974, 3787.191
1126.069, 3620.281
1127.164, 3678.617
1128.259, 3428.211
1129.353, 3624.477
1130.447, 3365.414
1131.541, 3443.367
1132.635, 3295.371
1133.729, 3405.387
1134.822, 3275.426
1135.916, 3040.488
1137.009, 2962.570
1138.102, 3139.672
1139.195, 3289.789
1140.288, 3181.930
1141.380, 3168.094
1142.473, 3284.273
1143.565, 3096.473
1144.657, 3071.695
1145.749, 3273.938
1146.841, 2823.207
1147.932, 2982.492
1149.024, 3128.809
1150.115, 2759.148
1151.206, 3036.508
1152.297, 3281.891
1153.388, 3011.305
1154.479, 3303.773
1155.569, 2900.270
1156.659, 2810.793
1157.750, 2970.344
1158.839, 3030.922
1159.929, 2816.535
1161.019, 2707.168
1162.108, 2701.961
1163.198, 2706.688
1164.287, 2691.434
1165.376, 2628.246
1166.465, 2571.094
1167.553, 2526.977
1168.642, 2428.586
1169.730, 2332.164
1170.818, 2230.430
1171.906, 2133.414
1172.994, 2042.422
1174.082, 2034.469
1175.170, 1985.535
1176.257, 1831.633
1177.344, 1691.750
1178.431, 1876.891
1179.518, 1656.605
1180.605, 1655.855
1181.691, 1433.137
1182.778, 1430.480
1183.864, 1515.848
1184.950, 1391.297
1186.036, 1213.781
1187.122, 990.3164
1188.207, 989.8828
1189.292, 1151.512
1190.378, 1348.176
1191.463, 917.8711
1192.548, 1029.648
1193.632, 664.4531
1194.717, 833.2812
1195.801, 648.1250
1196.886, 686.9961
1197.970, 522.6914
1199.054, 489.6211
1200.137, 450.6172
1201.221, 400.7109
1202.305, 304.7734
1203.388, 362.0000
1204.471, 449.2656
1205.554, 387.0000
1206.637, 383.3672
1207.719, 285.9102
1208.802, 347.3164
1209.884, 101.7461
1210.966, 279.1992
1212.048, 11.33984
1213.130, 93.15625
1214.212, 157.5625
1215.293, 328.0977
1216.374, 107.6562
1217.456, 108.2344
1218.536, 136.8398
1219.617, 75.64844
1220.698, 48.57031
1221.778, 26.21094
1222.859, 49.86328
1223.939, 8.535156
1225.019, 44.17578
1226.099, 145.6797
1227.178, 56.98828
1228.258, 93.32812
1229.337, 205.6602
1230.417, 119.9414
1231.496, 24.44531
1232.574, 123.1758
1233.653, 2.183594
1234.732, 65.94531
1235.810, 66.69531
1236.888, 111.9648
1237.966, 265.6367
1239.044, 168.3242
1240.122, 325.0352
1241.199, 199.7500
1242.277, 292.4844
1243.354, 313.2578
1244.431, 138.0469
1245.508, 339.8516
1246.585, 79.67188
1247.661, 196.5000
1248.738, 51.19531
1249.814, 134.0508
1250.890, 10.07812
1251.966, 205.7969
1253.042, 113.6953
1254.117, 90.59766
1255.193, 278.4805
1256.268, 38.19141
1257.343, 171.3984
1258.418, 113.4727
1259.493, 73.21875
1260.567, 250.9258
1261.642, 406.6016
1262.716, 330.3281
1263.790, 331.0625
1264.864, 227.8086
1265.938, 253.7305
1267.011, 274.3359
1268.085, 241.1133
1269.158, 268.9062
1270.231, 166.7070
1271.304, 362.5195
1272.377, 358.3438
1273.450, 126.1758
1274.522, 534.0195
1275.594, 543.8711
1276.666, 331.7305
1277.738, 200.6094
1278.810, 475.7930
1279.882, 428.6914
1280.953, 226.5938
1282.025, 293.5078
1283.096, 220.2383
1284.167, 281.3633
1285.238, 222.3008
1286.308, 257.2461
1287.379, 305.2031
1288.449, 364.1680
1289.519, 217.1328
1290.589, 13.70312
1291.659, 358.6875
1292.729, 426.6719
1293.798, 37.66797
1294.868, 374.6680
1295.937, 284.6719
1297.006, 54.31641
1298.075, 160.6719
1299.143, 89.66406
1300.212, 76.62109
1301.280, 222.6602
1302.348, 171.6641
1303.416, 211.6758
1304.484, 304.6914
1305.552, 47.71094
1306.620, 186.7383
1307.687, 109.2344
1308.754, 290.7305
1309.821, 316.7031
1310.888, 214.6797
1311.955, 238.6562
1313.021, 168.6406
1314.088, 521.6289
1315.154, 330.6250
1316.220, 101.6250
1317.286, 483.6250
1318.352, 371.6250
1319.417, 426.6289
1320.483, 119.6328
1321.548, 198.6445
1322.613, 223.6484
1323.678, 536.6562
1324.743, 223.6250
1325.807, 133.4062
1326.872, 142.5312
1327.936, 403.4648
1329.000, 90.39453
1330.064, 418.3281
1331.128, 245.2617
1332.191, 300.1406
1333.255, 6.996094
1334.318, 126.8438
1335.381, 41.66797
1336.444, 159.4766
1337.507, 236.2812
1338.569, 140.0469
1339.632, 144.1914
1340.694, 66.37109
1341.756, 61.91797
1342.818, 239.7617
1343.880, 161.4375
1344.941, 146.1172
1346.003, 279.7930
1347.064, 27.53516
1348.125, 23.93359
1349.186, 265.6992
1350.247, 68.31250
1351.308, 328.9219
1352.368, 91.46875
1353.428, 38.08594
1354.489, 146.9062
1355.549, 318.4414
1356.608, 214.7461
1357.668, 318.0039
1358.727, 252.4961
1359.787, 122.4570
1360.846, 320.9414
1361.905, 10.35547
1362.964, 182.8320
1364.022, 283.1250
1365.081, 115.5898
1366.139, 257.0586
1367.197, 47.53516
1368.255, 181.9961
1369.313, 344.4492
1370.371, 202.4531
1371.428, 317.8711
1372.486, 140.2891
1373.543, 57.69922
1374.600, 205.1055
1375.657, 11.49609
1376.713, 261.8906
1377.770, 299.2695
1378.826, 203.3477
1379.882, 508.6758
