##NAMES=Erythrite
##RRUFFID=R050073
##IDEAL CHEMISTRY=Co^2+^_3_(As^5+^O_4_)_2_&#183;8H_2_O
##LOCALITY=Bou Azzer, Morocco
##OWNER=RRUFF
##SOURCE=Rock Currier
##DESCRIPTION=Crimson flattened crystals
##STATUS=The identification of this mineral has been confirmed by X-ray diffraction and chemical analysis
##URL=rruff.info/R050073
##MEASURED CHEMISTRY=(Co_0.65_Mg_0.35_)_3_(As_1.00_O_4_)_2_Â·8H_2_O
##PIN_ID=M00361
##ORIENTATION=Laser parallel to c* (0 0 1). Fiducial mark perpendicular to laser is parallel to -a [-1 0 0]
93.48000, 0.0000000E+00
94.71400, 57.33496
95.94800, 203.9893
97.18200, 42.68848
98.41600, 51.97070
99.64900, 121.7998
100.8830, 291.4238
102.1160, 605.7744
103.3490, 1256.603
104.5820, 2413.164
105.8150, 3769.079
107.0470, 5112.273
108.2800, 5455.000
109.5120, 5571.639
110.7440, 4735.616
111.9760, 4520.420
113.2080, 4334.599
114.4400, 4197.760
115.6710, 4196.561
116.9030, 3544.716
118.1340, 2756.976
119.3650, 1739.199
120.5960, 999.5010
121.8270, 815.9229
123.0580, 836.2471
124.2880, 413.2285
125.5190, 120.6631
126.7490, 160.3818
127.9790, 455.2422
129.2090, 605.1240
130.4390, 935.9229
131.6680, 1201.530
132.8980, 1440.852
134.1270, 2003.812
135.3560, 2640.354
136.5850, 3304.433
137.8140, 4153.008
139.0430, 5219.043
140.2710, 6478.515
141.5000, 7501.392
142.7280, 8534.652
143.9560, 9492.578
145.1840, 10364.42
146.4120, 11268.59
147.6390, 12375.81
148.8670, 13139.51
150.0940, 13442.47
151.3210, 13449.24
152.5490, 13090.85
153.7750, 12156.32
155.0020, 11667.67
156.2290, 10350.89
157.4550, 9368.021
158.6810, 8179.064
159.9080, 7115.031
161.1340, 6257.936
162.3590, 5647.249
163.5850, 5230.065
164.8110, 4994.362
166.0360, 4997.094
167.2610, 5172.742
168.4860, 5451.180
169.7110, 5958.371
170.9360, 6223.439
172.1610, 6315.426
173.3850, 6427.363
174.6100, 6350.271
175.8340, 6275.168
177.0580, 6194.073
178.2820, 5964.993
179.5050, 5835.892
180.7290, 5626.924
181.9520, 5550.943
183.1760, 5381.007
184.3990, 5452.115
185.6220, 5589.270
186.8450, 5713.474
188.0670, 6151.727
189.2900, 6499.028
190.5120, 6857.379
191.7340, 7474.782
192.9560, 7975.743
194.1780, 8724.327
195.4000, 8995.359
196.6220, 9847.629
197.8430, 10645.97
199.0640, 11232.11
200.2860, 12181.40
201.5070, 12954.21
202.7270, 13534.71
203.9480, 13317.71
205.1690, 12521.99
206.3890, 11978.40
207.6090, 11502.90
208.8290, 10871.47
210.0490, 10345.13
211.2690, 9548.854
212.4890, 8803.648
213.7080, 8068.512
214.9280, 7266.440
216.1470, 6584.439
217.3660, 5655.514
218.5850, 5216.673
219.8030, 4869.919
221.0220, 4551.238
222.2400, 4551.633
223.4590, 4514.150
224.6770, 4455.789
225.8950, 4409.499
227.1120, 4383.458
228.3300, 4455.109
229.5480, 4329.046
230.7650, 4449.025
231.9820, 4422.074
233.1990, 4138.176
234.4160, 4115.485
235.6330, 4100.418
236.8490, 3790.541
238.0660, 3688.678
239.2820, 3547.796
240.4980, 3695.740
241.7140, 3721.513
242.9300, 3835.957
244.1460, 3980.536
245.3610, 4192.480
246.5770, 4520.008
247.7920, 4978.047
249.0070, 5390.533
250.2220, 5983.422
251.4370, 6464.662
252.6510, 6827.219
253.8660, 7326.059
255.0800, 7749.150
256.2940, 7889.474
257.5080, 8275.010
258.7220, 8603.735
259.9360, 8428.760
261.1490, 8616.769
262.3630, 7942.021
263.5760, 7673.409
264.7890, 7173.919
266.0020, 6630.543
267.2150, 6246.271
268.4270, 5718.092
269.6400, 4799.994
270.8520, 4280.977
272.0640, 3794.025
273.2760, 3180.137
274.4880, 2835.303
275.7000, 2522.518
276.9120, 1965.775
278.1230, 1729.075
279.3340, 1471.412
280.5450, 1140.785
281.7560, 873.2061
282.9670, 731.6865
284.1780, 544.1914
285.3880, 356.7178
286.5980, 334.2627
287.8090, 119.8672
289.0190, 118.4883
290.2290, 23.12012
291.4380, 75.22656
292.6480, 0.6044920
293.8570, 107.9736
295.0670, 179.3477
296.2760, 214.7861
297.4850, 305.2725
298.6930, 246.8516
299.9020, 230.4990
301.1110, 267.2246
302.3190, 147.0293
303.5270, 302.8525
304.7350, 278.7617
305.9430, 242.7305
307.1510, 189.7812
308.3580, 197.8721
309.5660, 210.0264
310.7730, 125.2705
311.9800, 189.5430
313.1870, 161.8633
314.3940, 20.73926
315.6010, 160.3379
316.8070, 73.90918
318.0130, 131.4590
319.2200, 206.9824
320.4260, 122.4951
321.6310, 212.9834
322.8370, 214.4512
324.0430, 370.9023
325.2480, 383.3262
326.4540, 551.7178
327.6590, 526.0811
328.8640, 713.4141
330.0680, 739.7148
331.2730, 927.9834
332.4780, 918.2197
333.6820, 897.4238
334.8860, 1165.664
336.0900, 1082.254
337.2940, 1151.447
338.4980, 1221.086
339.7010, 1937.627
340.9050, 1578.251
342.1080, 2095.573
343.3110, 1356.591
344.5140, 1230.313
345.7170, 1384.824
346.9200, 1318.875
348.1220, 1823.130
349.3240, 1857.002
350.5270, 2047.240
351.7290, 2394.445
352.9310, 2477.063
354.1320, 2966.188
355.3340, 3159.184
356.5350, 3227.620
357.7370, 3716.223
358.9380, 4069.086
360.1390, 4279.577
361.3400, 4493.366
362.5400, 4758.661
363.7410, 5058.023
364.9410, 5278.111
366.1410, 5454.713
367.3410, 5664.151
368.5410, 5860.323
369.7410, 5963.596
370.9400, 6071.531
372.1400, 6153.090
373.3390, 6353.018
374.5380, 6305.807
375.7370, 6457.277
376.9360, 6232.934
378.1350, 6402.035
379.3330, 6356.415
380.5310, 6482.907
381.7300, 6329.379
382.9280, 6338.788
384.1260, 6252.066
385.3230, 6094.567
386.5210, 5997.761
387.7180, 5970.329
388.9160, 5676.071
390.1130, 5543.924
391.3100, 5364.860
392.5060, 5300.035
393.7030, 4930.633
394.9000, 4701.244
396.0960, 4362.420
397.2920, 4033.706
398.4880, 3751.500
399.6840, 3571.244
400.8800, 3438.907
402.0750, 3046.878
403.2710, 2778.296
404.4660, 2520.019
405.6610, 2411.589
406.8560, 2116.443
408.0510, 2050.018
409.2450, 1865.393
410.4400, 1754.919
411.6340, 1686.265
412.8280, 1755.812
414.0220, 1520.617
415.2160, 1708.818
416.4100, 1876.746
417.6030, 1692.975
418.7970, 1690.773
419.9900, 1973.508
421.1830, 2009.368
422.3760, 2209.369
423.5690, 2338.441
424.7610, 2658.494
425.9540, 2816.332
427.1460, 3006.870
428.3380, 3242.262
429.5300, 3475.525
430.7220, 3761.287
431.9140, 4051.785
433.1050, 4261.935
434.2970, 4642.690
435.4880, 4770.812
436.6790, 5038.338
437.8700, 5111.383
439.0610, 5388.174
440.2510, 5244.280
441.4420, 5246.771
442.6320, 4925.836
443.8220, 4866.439
445.0120, 4597.094
446.2020, 4437.604
447.3910, 4049.035
448.5810, 3806.105
449.7700, 3550.389
450.9600, 3278.574
452.1490, 3086.471
453.3370, 2859.204
454.5260, 2511.229
455.7150, 2384.531
456.9030, 2011.021
458.0910, 1933.198
459.2800, 1740.604
460.4670, 1599.814
461.6550, 1380.231
462.8430, 1183.445
464.0300, 1209.521
465.2180, 931.6650
466.4050, 968.1152
467.5920, 803.0176
468.7790, 674.8496
469.9650, 633.6074
471.1520, 607.2939
472.3380, 527.9082
473.5250, 507.5312
474.7110, 404.9199
475.8970, 420.3193
477.0820, 335.6455
478.2680, 247.8984
479.4540, 188.0752
480.6390, 228.1699
481.8240, 158.7178
483.0090, 290.1191
484.1940, 65.97754
485.3780, 209.7275
486.5630, 83.40039
487.7470, 148.9727
488.9320, 108.4629
490.1160, 114.8633
491.3000, 81.17578
492.4830, 10.39062
493.6670, 46.47754
494.8500, 57.45703
496.0340, 23.66992
497.2170, 130.0615
498.4000, 152.7109
499.5820, 102.2842
500.7650, 91.76953
501.9480, 11.16699
503.1300, 62.44141
504.3120, 17.61816
505.4940, 84.67773
506.6760, 72.64746
507.8580, 173.5254
509.0390, 15.33203
510.2210, 44.02344
511.4020, 57.61426
512.5830, 91.11035
513.7640, 100.5225
514.9450, 215.8545
516.1250, 125.1221
517.3060, 138.3154
518.4860, 240.4385
519.6660, 66.49902
520.8460, 84.47363
522.0260, 237.3691
523.2060, 228.2021
524.3850, 228.9736
525.5650, 72.68262
526.7440, 183.3125
527.9230, 71.88086
529.1020, 31.37012
530.2810, 129.7676
531.4590, 115.0996
532.6380, 64.36426
533.8160, 87.55273
534.9940, 40.66992
536.1720, 108.7051
537.3500, 73.67480
538.5270, 124.5723
539.7050, 237.4092
540.8820, 219.1885
542.0590, 74.91211
543.2360, 128.5684
544.4130, 28.83496
545.5900, 20.34766
546.7660, 172.0361
547.9430, 94.36328
549.1190, 134.6318
550.2950, 163.8447
551.4710, 109.0010
552.6470, 133.1006
553.8220, 74.14648
554.9980, 48.13281
556.1730, 109.0596
557.3480, 173.9326
558.5230, 64.75293
559.6980, 165.5186
560.8730, 193.2324
562.0470, 89.89648
563.2220, 42.50977
564.3960, 29.06836
565.5700, 26.42969
566.7440, 93.01270
567.9170, 110.2891
569.0910, 75.54199
570.2640, 84.74512
571.4380, 133.0986
572.6110, 11.92578
573.7840, 45.89551
574.9570, 47.18164
576.1290, 65.66016
577.3020, 104.5244
578.4740, 171.8125
579.6460, 38.21484
580.8180, 132.6387
581.9900, 60.12402
583.1620, 96.60254
584.3330, 47.11035
585.5040, 90.62207
586.6760, 197.1484
587.8470, 102.7744
589.0180, 190.4062
590.1880, 68.09473
591.3590, 178.7842
592.5290, 108.5410
593.7000, 12.32617
594.8700, 177.0879
596.0400, 171.9287
597.2090, 27.82422
598.3790, 133.7090
599.5490, 75.31934
600.7180, 33.68555
601.8870, 5.730469
603.0560, 85.81152
604.2250, 38.95117
605.3940, 44.13281
606.5620, 80.35547
607.7300, 106.3672
608.8990, 130.0635
610.0670, 54.73145
611.2350, 121.3730
612.4020, 87.98828
613.5700, 102.5791
614.7370, 221.1445
615.9050, 110.6855
617.0720, 213.2031
618.2390, 307.6270
619.4060, 316.6455
620.5720, 274.0039
621.7390, 341.8320
622.9050, 394.6533
624.0710, 468.8037
625.2370, 501.7480
626.4030, 517.3730
627.5690, 558.0654
628.7340, 641.7168
629.9000, 508.3232
631.0650, 521.1387
632.2300, 433.8506
633.3950, 589.1475
634.5600, 553.4385
635.7240, 700.2783
636.8890, 665.5723
638.0530, 647.9590
639.2170, 675.8652
640.3810, 613.5654
641.5450, 810.9678
642.7080, 623.7051
643.8720, 888.1035
645.0350, 771.3418
646.1980, 816.7100
647.3610, 922.6973
648.5240, 824.1318
649.6870, 816.5098
650.8490, 838.4775
652.0120, 786.1260
653.1740, 744.9014
654.3360, 714.3555
655.4980, 677.2305
656.6600, 667.0459
657.8210, 678.4629
658.9830, 629.4932
660.1440, 616.0381
661.3050, 543.2705
662.4660, 506.3496
663.6270, 503.4102
664.7870, 460.4990
665.9480, 363.6777
667.1080, 439.6221
668.2680, 346.9482
669.4280, 385.7090
670.5880, 360.3867
671.7480, 357.9336
672.9070, 236.3760
674.0670, 427.5586
675.2260, 380.2920
676.3850, 265.9863
677.5440, 357.0850
678.7030, 466.0449
679.8610, 347.4668
681.0200, 183.9072
682.1780, 334.3955
683.3360, 317.5430
684.4940, 254.2080
685.6520, 331.5371
686.8090, 364.9824
687.9670, 296.1094
689.1240, 362.4785
690.2810, 343.0127
691.4380, 411.3594
692.5950, 566.8506
693.7520, 399.1025
694.9080, 345.0605
696.0650, 561.5840
697.2210, 492.3447
698.3770, 514.7695
699.5330, 419.5850
700.6880, 605.4297
701.8440, 459.1084
702.9990, 634.6104
704.1550, 748.0068
705.3100, 771.3857
706.4650, 648.7412
707.6190, 581.7666
708.7740, 720.7002
709.9290, 783.7266
711.0830, 681.2188
712.2370, 790.9434
713.3910, 842.9844
714.5450, 766.3828
715.6980, 743.6230
716.8520, 860.7715
718.0050, 908.8740
719.1580, 982.5918
720.3110, 979.5635
721.4640, 1038.290
722.6170, 1164.910
723.7700, 1094.816
724.9220, 1017.188
726.0740, 1101.055
727.2260, 1179.031
728.3780, 1086.700
729.5300, 1055.255
730.6810, 1214.074
731.8330, 1318.514
732.9840, 1306.222
734.1350, 1436.781
735.2860, 1367.905
736.4370, 1314.414
737.5880, 1408.331
738.7380, 1454.058
739.8880, 1625.313
741.0390, 1650.681
742.1890, 1734.257
743.3380, 1750.959
744.4880, 1953.586
745.6380, 1828.920
746.7870, 2106.798
747.9360, 2188.733
749.0850, 2352.725
750.2340, 2343.768
751.3830, 2697.874
752.5310, 2698.076
753.6800, 2895.345
754.8280, 3121.668
755.9760, 3334.068
757.1240, 3521.522
758.2720, 3657.058
759.4190, 3882.653
760.5670, 4315.352
761.7140, 4686.130
762.8610, 5150.007
764.0080, 5621.986
765.1550, 6144.035
766.3020, 6693.156
767.4480, 7292.375
768.5950, 8138.665
769.7410, 8948.058
770.8870, 9743.561
772.0330, 11184.16
773.1780, 12475.84
774.3240, 13919.60
775.4690, 15734.47
776.6140, 17420.40
777.7590, 19596.41
778.9040, 22330.49
780.0490, 25287.67
781.1940, 28392.94
782.3380, 31888.28
783.4820, 35108.71
784.6260, 38787.21
785.7700, 41885.81
786.9140, 45109.47
788.0580, 47769.22
789.2010, 49942.04
790.3450, 51007.96
791.4880, 51689.95
792.6310, 51680.98
793.7730, 51002.09
794.9160, 49749.26
796.0590, 48142.51
797.2010, 45872.80
798.3430, 42876.19
799.4850, 39779.62
800.6270, 36923.12
801.7690, 33746.71
802.9100, 30884.35
804.0520, 27728.08
805.1930, 25197.88
806.3340, 22687.75
807.4750, 20607.71
808.6160, 18603.51
809.7560, 16743.82
810.8970, 15249.98
812.0370, 13965.21
813.1770, 12747.51
814.3170, 11648.03
815.4570, 10554.32
816.5960, 9774.824
817.7360, 9100.399
818.8750, 8382.040
820.0140, 7924.740
821.1530, 7514.537
822.2920, 6845.393
823.4310, 6427.336
824.5690, 6082.340
825.7070, 6092.409
826.8460, 5572.540
827.9840, 5366.733
829.1220, 4987.986
830.2590, 4853.307
831.3970, 4743.691
832.5340, 4419.139
833.6710, 4269.654
834.8080, 4287.227
835.9450, 4146.862
837.0820, 4171.561
838.2190, 3901.314
839.3550, 3694.131
840.4910, 3696.008
841.6270, 3841.944
842.7630, 3892.959
843.8990, 4022.257
845.0350, 4387.909
846.1700, 4256.129
847.3060, 4635.486
848.4410, 4677.495
849.5760, 4957.500
850.7100, 4998.000
851.8450, 5176.573
852.9800, 5255.482
854.1140, 4919.201
855.2480, 4768.506
856.3820, 4672.396
857.5160, 4338.152
858.6500, 4159.207
859.7830, 3864.346
860.9170, 3292.885
862.0500, 3110.166
863.1830, 2731.680
864.3160, 2501.115
865.4480, 2264.570
866.5810, 1957.995
867.7130, 1717.119
868.8460, 1668.117
869.9780, 1550.979
871.1100, 1391.248
872.2410, 1217.051
873.3730, 1169.151
874.5050, 1144.560
875.6360, 1180.785
876.7670, 877.6338
877.8980, 932.6611
879.0290, 828.8701
880.1590, 870.4932
881.2900, 900.9922
882.4200, 760.6533
883.5500, 771.6748
884.6800, 714.5742
885.8100, 863.2412
886.9400, 913.0254
888.0690, 740.6641
889.1990, 831.0137
890.3280, 801.8438
891.4570, 808.0713
892.5860, 950.9834
893.7140, 994.1191
894.8430, 954.1113
895.9710, 779.9297
897.1000, 1039.583
898.2280, 1012.562
899.3560, 929.1953
900.4830, 1066.400
901.6110, 996.6074
902.7380, 1027.386
903.8660, 1099.816
904.9930, 884.5430
906.1200, 981.0469
907.2460, 923.7783
908.3730, 978.2559
909.5000, 940.6982
910.6260, 921.5000
911.7520, 921.9961
912.8780, 915.7783
914.0040, 867.6523
915.1290, 927.6416
916.2550, 864.4570
917.3800, 837.2705
918.5050, 700.0664
919.6300, 657.6641
920.7550, 641.6211
921.8800, 500.9053
923.0040, 503.2412
924.1290, 447.3701
925.2530, 401.1924
926.3770, 508.1582
927.5010, 362.9902
928.6250, 406.8418
929.7480, 422.7100
930.8720, 295.5957
931.9950, 259.4980
933.1180, 273.5107
934.2410, 143.4414
935.3640, 316.4414
936.4860, 201.9863
937.6090, 281.9150
938.7310, 300.5488
939.8530, 73.75781
940.9750, 303.4629
942.0970, 125.6387
943.2180, 65.48242
944.3400, 120.8838
945.4610, 186.9863
946.5820, 126.1943
947.7030, 127.0107
948.8240, 161.0928
949.9450, 98.25391
951.0650, 260.9688
952.1860, 243.9170
953.3060, 66.17773
954.4260, 214.3008
955.5460, 0.4169920
956.6650, 152.4053
957.7850, 129.4004
958.9040, 54.78516
960.0230, 60.78906
961.1420, 278.9199
962.2610, 94.39941
963.3800, 192.5371
964.4990, 131.3408
965.6170, 125.0420
966.7350, 126.5322
967.8530, 203.7148
968.9710, 166.0049
970.0890, 184.4463
971.2070, 146.1875
972.3240, 154.3887
973.4410, 154.8398
974.5580, 113.9463
975.6750, 74.04785
976.7920, 87.14258
977.9090, 33.77051
979.0250, 104.3018
980.1410, 108.3691
981.2580, 3.162109
982.3740, 28.49316
983.4890, 25.46289
984.6050, 190.5488
985.7200, 118.5732
986.8360, 12.43750
987.9510, 46.75195
989.0660, 224.2871
990.1810, 115.5605
991.2950, 110.6074
992.4100, 72.16797
993.5240, 72.92773
994.6390, 58.32910
995.7530, 103.4521
996.8660, 0.7001950
997.9800, 23.81348
999.0940, 97.99316
1000.207, 94.24023
1001.320, 101.5879
1002.433, 159.8955
1003.546, 69.41797
1004.659, 181.9619
1005.772, 20.50000
1006.884, 126.8926
1007.996, 36.77246
1009.108, 37.32910
1010.220, 71.59277
1011.332, 87.58008
1012.444, 22.46094
1013.555, 43.56836
1014.666, 118.5068
1015.777, 38.63281
1016.888, 8.831055
1017.999, 14.95996
1019.110, 113.7676
1020.220, 14.51953
1021.331, 137.1221
1022.441, 18.54883
1023.551, 42.81250
1024.661, 59.65918
1025.770, 75.20215
1026.880, 53.55957
1027.989, 87.17969
1029.098, 139.3535
1030.207, 23.00098
1031.316, 121.6416
1032.425, 50.23926
1033.533, 6.488281
1034.642, 189.0322
1035.750, 78.32812
1036.858, 68.69922
1037.966, 87.43164
1039.073, 82.03418
1040.181, 60.29492
1041.288, 19.02539
1042.396, 125.8750
1043.503, 38.07031
1044.610, 59.95410
1045.716, 62.23828
1046.823, 23.21973
1047.929, 10.64746
1049.036, 99.44043
1050.142, 110.0645
1051.248, 123.1543
1052.353, 67.16797
1053.459, 34.16602
1054.564, 52.25293
1055.670, 85.77637
1056.775, 99.95996
1057.880, 132.8594
1058.985, 203.4453
1060.089, 246.0225
1061.194, 249.7500
1062.298, 229.3018
1063.402, 207.6387
1064.506, 220.2656
1065.610, 176.5215
1066.713, 210.7363
1067.817, 192.9082
1068.920, 47.30566
1070.023, 64.72852
1071.126, 83.80664
1072.229, 54.52051
1073.332, 77.26562
1074.435, 97.71289
1075.537, 114.4883
1076.639, 148.3975
1077.741, 223.1064
1078.843, 202.7529
1079.945, 125.3535
1081.046, 257.4121
1082.148, 227.9209
1083.249, 63.77539
1084.350, 87.16895
1085.451, 216.5498
1086.551, 252.8447
1087.652, 264.5586
1088.752, 133.3633
1089.853, 134.8232
1090.953, 204.9209
1092.053, 138.0752
1093.152, 284.0674
1094.252, 190.8252
1095.351, 374.2812
1096.451, 108.1758
1097.550, 167.9609
1098.649, 197.7119
1099.748, 139.0928
1100.846, 243.9961
1101.945, 218.5693
1103.043, 172.0928
1104.141, 273.5654
1105.239, 215.3203
1106.337, 313.7002
1107.434, 373.2734
1108.532, 492.5469
1109.629, 326.8418
1110.726, 336.3379
1111.823, 318.0732
1112.920, 211.1670
1114.017, 186.1758
1115.113, 329.5342
1116.210, 447.9062
1117.306, 309.7920
1118.402, 365.7344
1119.498, 267.2432
1120.593, 388.9785
1121.689, 380.1865
1122.784, 368.0254
1123.879, 413.8525
1124.974, 357.5361
1126.069, 319.0342
1127.164, 293.2168
1128.259, 275.1260
1129.353, 262.1006
1130.447, 271.4727
1131.541, 268.9805
1132.635, 274.6689
1133.729, 324.4346
1134.822, 243.3516
1135.916, 226.8369
1137.009, 110.9980
1138.102, 235.9941
1139.195, 245.1729
1140.288, 293.0684
1141.380, 301.4121
1142.473, 297.5312
1143.565, 239.5674
1144.657, 292.5791
1145.749, 226.0703
1146.841, 241.6582
1147.932, 243.4883
1149.024, 235.5674
1150.115, 224.7607
1151.206, 241.6016
1152.297, 114.5918
1153.388, 226.0283
1154.479, 284.0752
1155.569, 216.3086
1156.659, 127.6514
1157.750, 256.9746
1158.839, 54.88477
1159.929, 172.9443
1161.019, 161.1523
1162.108, 141.5205
1163.198, 106.1426
1164.287, 240.6514
1165.376, 72.43750
1166.465, 260.2080
1167.553, 44.60059
1168.642, 138.9062
1169.730, 251.4395
1170.818, 202.8506
1171.906, 98.12598
1172.994, 76.99414
1174.082, 210.0566
1175.170, 62.67285
1176.257, 166.7637
1177.344, 27.54102
1178.431, 176.4150
1179.518, 165.2158
1180.605, 57.47461
1181.691, 146.4160
1182.778, 155.3555
1183.864, 147.7979
1184.950, 244.6104
1186.036, 133.1309
1187.122, 72.66016
1188.207, 120.3652
1189.292, 45.23926
1190.378, 123.4082
1191.463, 132.6113
1192.548, 165.8799
1193.632, 246.1797
1194.717, 129.2393
1195.801, 231.4062
1196.886, 251.2725
1197.970, 240.8418
1199.054, 144.7109
1200.137, 121.1875
1201.221, 24.83496
1202.305, 37.86621
1203.388, 202.7773
1204.471, 114.4268
1205.554, 209.9023
1206.637, 156.3633
1207.719, 198.8359
1208.802, 219.1514
1209.884, 241.2803
1210.966, 80.84570
1212.048, 252.1533
1213.130, 109.2744
1214.212, 270.6777
1215.293, 188.3291
1216.374, 254.3525
1217.456, 89.25684
1218.536, 59.13770
1219.617, 125.4180
1220.698, 341.9541
1221.778, 173.3252
1222.859, 242.3838
1223.939, 35.09277
1225.019, 64.50488
1226.099, 186.1377
1227.178, 226.1348
1228.258, 242.1484
1229.337, 912.4463
1230.417, 590.1045
1231.496, 972.2422
1232.574, 329.7139
1233.653, 239.1553
1234.732, 113.4609
1235.810, 190.4824
1236.888, 131.9238
1237.966, 356.6006
1239.044, 175.3652
1240.122, 260.2480
1241.199, 54.11035
1242.277, 267.2969
1243.354, 180.1191
1244.431, 262.6191
1245.508, 195.7246
1246.585, 337.7988
1247.661, 164.0244
1248.738, 625.0449
1249.814, 1018.143
1250.890, 498.8613
1251.966, 140.5117
1253.042, 258.1523
1254.117, 154.2910
1255.193, 207.3281
1256.268, 160.2148
1257.343, 204.0059
1258.418, 121.8320
1259.493, 196.6973
1260.567, 150.5234
1261.642, 118.4395
1262.716, 337.5293
1263.790, 193.2930
1264.864, 80.91211
1265.938, 249.3555
1267.011, 117.1035
1268.085, 114.6211
1269.158, 115.2676
1270.231, 132.9863
1271.304, 114.3633
1272.377, 245.3574
1273.450, 151.6035
1274.522, 177.2324
