##NAMES=Erythrite
##RRUFFID=R050073
##IDEAL CHEMISTRY=Co^2+^_3_(As^5+^O_4_)_2_&#183;8H_2_O
##LOCALITY=Bou Azzer, Morocco
##OWNER=RRUFF
##SOURCE=Rock Currier
##DESCRIPTION=Crimson flattened crystals
##STATUS=The identification of this mineral has been confirmed by X-ray diffraction and chemical analysis
##URL=rruff.info/R050073
##MEASURED CHEMISTRY=(Co_0.65_Mg_0.35_)_3_(As_1.00_O_4_)_2_Â·8H_2_O
##PIN_ID=M00361
##ORIENTATION=Laser parallel to c* (0 0 1). Fiducial mark perpendicular to laser is parallel to -a [-1 0 0]
93.48000, 0.0000000E+00
94.71400, 3.419922
95.94800, 75.38428
97.18200, 133.5837
98.41600, 156.2305
99.64900, 415.0105
100.8830, 721.6782
102.1160, 1201.465
103.3490, 1947.967
104.5820, 3104.450
105.8150, 4346.010
107.0470, 5276.854
108.2800, 5428.781
109.5120, 5169.392
110.7440, 5004.784
111.9760, 5100.450
113.2080, 4846.971
114.4400, 4529.154
115.6710, 4141.896
116.9030, 3449.148
118.1340, 2853.867
119.3650, 1989.015
120.5960, 1297.557
121.8270, 839.4648
123.0580, 478.7085
124.2880, 309.2612
125.5190, 46.09790
126.7490, 2.198486
127.9790, 28.44653
129.2090, 99.83398
130.4390, 56.96948
131.6680, 78.87280
132.8980, 13.43823
134.1270, 25.94702
135.3560, 108.6418
136.5850, 166.5093
137.8140, 416.5386
139.0430, 604.7246
140.2710, 789.0554
141.5000, 959.5186
142.7280, 1051.260
143.9560, 1154.997
145.1840, 1175.617
146.4120, 1269.525
147.6390, 1284.584
148.8670, 1319.726
150.0940, 1270.942
151.3210, 1171.231
152.5490, 1020.587
153.7750, 855.0046
155.0020, 577.4817
156.2290, 415.0134
157.4550, 277.5972
158.6810, 189.2368
159.9080, 115.6890
161.1340, 91.85498
162.3590, 78.89478
163.5850, 109.1809
164.8110, 125.4314
166.0360, 162.9670
167.2610, 207.7590
168.4860, 272.3433
169.7110, 322.9629
170.9360, 408.6096
172.1610, 470.2812
173.3850, 608.9673
174.6100, 589.6724
175.8340, 712.4614
177.0580, 730.2485
178.2820, 1014.046
179.5050, 1259.868
180.7290, 1419.727
181.9520, 1642.638
183.1760, 1888.627
184.3990, 2182.661
185.6220, 2327.661
186.8450, 2680.595
188.0670, 2785.571
189.2900, 3086.546
190.5120, 3459.519
191.7340, 3600.493
192.9560, 4100.460
194.1780, 4592.419
195.4000, 5131.415
196.6220, 5776.357
197.8430, 6411.295
199.0640, 7417.227
200.2860, 8493.455
201.5070, 9440.351
202.7270, 10207.25
203.9480, 10454.14
205.1690, 10755.03
206.3890, 10662.91
207.6090, 10448.80
208.8290, 10107.68
210.0490, 9647.561
211.2690, 8980.433
212.4890, 8314.302
213.7080, 7318.167
214.9280, 6383.021
216.1470, 5588.872
217.3660, 4777.714
218.5850, 3991.546
219.8030, 3368.370
221.0220, 2891.233
222.2400, 2511.233
223.4590, 2131.379
224.6770, 1848.146
225.8950, 1719.675
227.1120, 1608.325
228.3300, 1474.939
229.5480, 1294.682
230.7650, 1206.181
231.9820, 1261.875
233.1990, 1076.344
234.4160, 1211.745
235.6330, 1248.341
236.8490, 1300.245
238.0660, 1399.148
239.2820, 1485.591
240.4980, 1652.779
241.7140, 1822.444
242.9300, 2059.161
244.1460, 2124.982
245.3610, 2264.651
246.5770, 2328.212
247.7920, 2470.390
249.0070, 2501.955
250.2220, 2455.433
251.4370, 2577.348
252.6510, 2515.629
253.8660, 2506.055
255.0800, 2459.079
256.2940, 2303.975
257.5080, 2215.884
258.7220, 2321.394
259.9360, 2351.244
261.1490, 2177.493
262.3630, 2019.786
263.5760, 1930.669
264.7890, 1746.506
266.0020, 1573.631
267.2150, 1502.658
268.4270, 1334.116
269.6400, 1228.642
270.8520, 1102.246
272.0640, 1013.420
273.2760, 908.2361
274.4880, 777.1631
275.7000, 690.6145
276.9120, 665.8418
278.1230, 700.3804
279.3340, 612.5920
280.5450, 574.2617
281.7560, 498.3064
282.9670, 411.9363
284.1780, 332.4360
285.3880, 234.0012
286.5980, 274.5010
287.8090, 209.8240
289.0190, 212.5820
290.2290, 250.1084
291.4380, 264.6299
292.6480, 174.1663
293.8570, 137.7024
295.0670, 80.26172
296.2760, 91.84326
297.4850, 180.4248
298.6930, 120.0156
299.9020, 174.6113
301.1110, 134.2271
302.3190, 98.85449
303.5270, 193.4985
304.7350, 35.15454
305.9430, 26.19653
307.1510, 142.4473
308.3580, 103.1060
309.5660, 136.7847
310.7730, 208.4670
311.9800, 199.1548
313.1870, 179.8506
314.3940, 208.5405
315.6010, 215.2422
316.8070, 213.9375
318.0130, 214.6272
319.2200, 305.3059
320.4260, 325.9673
321.6310, 347.6104
322.8370, 379.2349
324.0430, 396.8464
325.2480, 447.4392
326.4540, 575.0134
327.6590, 666.5696
328.8640, 701.1057
330.0680, 715.6211
331.2730, 756.1162
332.4780, 742.5903
333.6820, 773.0435
334.8860, 712.4758
336.0900, 715.8862
337.2940, 621.2754
338.4980, 581.6431
339.7010, 571.9890
340.9050, 550.3127
342.1080, 446.6143
343.3110, 402.8936
344.5140, 236.1506
345.7170, 238.3740
346.9200, 113.5750
348.1220, 99.02344
349.3240, 110.1780
350.5270, 117.4880
351.7290, 63.59619
352.9310, 38.96802
354.1320, 17.97412
355.3340, 14.55908
356.5350, 17.72974
357.7370, 66.08179
358.9380, 42.37939
360.1390, 16.94263
361.3400, 16.85889
362.5400, 6.254883
363.7410, 11.03564
364.9410, 20.50635
366.1410, 22.69629
367.3410, 20.97900
368.5410, 25.30127
369.7410, 20.48657
370.9400, 22.36401
372.1400, 11.96948
373.3390, 1.342773
374.5380, 6.095215
375.7370, 17.89551
376.9360, 44.42212
378.1350, 27.68481
379.3330, 57.90015
380.5310, 18.06958
381.7300, 101.3279
382.9280, 24.42822
384.1260, 63.61279
385.3230, 75.82080
386.5210, 30.83057
387.7180, 30.80591
388.9160, 45.57202
390.1130, 55.49731
391.3100, 109.3708
392.5060, 55.21484
393.7030, 57.02515
394.9000, 140.8027
396.0960, 67.55176
397.2920, 52.26904
398.4880, 94.95288
399.6840, 49.39307
400.8800, 90.18823
402.0750, 98.73950
403.2710, 46.26294
404.4660, 25.75439
405.6610, 25.21094
406.8560, 7.631836
408.0510, 56.01099
409.2450, 11.64136
410.4400, 44.65771
411.6340, 16.07959
412.8280, 0.8728030
414.0220, 17.71265
415.2160, 26.60889
416.4100, 29.43335
417.6030, 75.08960
418.7970, 9.143311
419.9900, 40.23413
421.1830, 85.62354
422.3760, 11.47339
423.5690, 11.71558
424.7610, 93.66406
425.9540, 100.3865
427.1460, 31.51978
428.3380, 121.1133
429.5300, 135.7371
430.7220, 45.58179
431.9140, 94.71582
433.1050, 197.2666
434.2970, 154.7617
435.4880, 245.6509
436.6790, 173.2554
437.8700, 304.3972
439.0610, 262.4639
440.2510, 319.3879
441.4420, 376.6113
442.6320, 431.7695
443.8220, 461.6433
445.0120, 564.5356
446.2020, 558.7458
447.3910, 649.0161
448.5810, 702.6594
449.7700, 821.3699
450.9600, 882.6099
452.1490, 926.3962
453.3370, 963.5034
454.5260, 989.1846
455.7150, 1020.388
456.9030, 936.4307
458.0910, 959.6780
459.2800, 882.6990
460.4670, 934.7576
461.6550, 867.8569
462.8430, 722.5635
464.0300, 783.2468
465.2180, 672.8835
466.4050, 614.4800
467.5920, 627.0537
468.7790, 511.6785
469.9650, 555.3293
471.1520, 479.8142
472.3380, 480.2429
473.5250, 366.6375
474.7110, 387.9980
475.8970, 377.3240
477.0820, 285.6167
478.2680, 370.8750
479.4540, 319.1003
480.6390, 309.2915
481.8240, 267.4497
483.0090, 226.5752
484.1940, 257.6670
485.3780, 231.7266
486.5630, 176.7529
487.7470, 217.7466
488.9320, 163.7085
490.1160, 129.5945
491.3000, 167.3813
492.4830, 132.1804
493.6670, 212.9729
494.8500, 122.4949
496.0340, 164.7688
497.2170, 107.3049
498.4000, 81.17944
499.5820, 48.04321
500.7650, 183.3367
501.9480, 136.3970
503.1300, 126.0754
504.3120, 79.71045
505.4940, 111.4675
506.6760, 151.8643
507.8580, 139.6106
509.0390, 144.1646
510.2210, 137.7717
511.4020, 83.05420
512.5830, 90.59375
513.7640, 65.92529
514.9450, 64.85718
516.1250, 80.55737
517.3060, 67.42505
518.4860, 116.8015
519.6660, 121.2852
520.8460, 118.5000
522.0260, 144.3157
523.2060, 80.05713
524.3850, 161.8914
525.5650, 77.93066
526.7440, 73.45825
527.9230, 133.0603
529.1020, 155.1162
530.2810, 46.14526
531.4590, 78.35181
532.6380, 104.6584
533.8160, 169.3328
534.9940, 152.4417
536.1720, 162.8071
537.3500, 128.5933
538.5270, 135.9160
539.7050, 117.0508
540.8820, 103.5483
542.0590, 112.1436
543.2360, 120.5815
544.4130, 230.0435
545.5900, 91.00732
546.7660, 149.5869
547.9430, 174.1357
549.1190, 78.10400
550.2950, 157.1250
551.4710, 52.86475
552.6470, 57.70508
553.8220, 87.11816
554.9980, 61.46387
556.1730, 125.7314
557.3480, 51.42139
558.5230, 21.91699
559.6980, 35.51221
560.8730, 66.23047
562.0470, 82.98291
563.2220, 38.16309
564.3960, 1.047363
565.5700, 65.49023
566.7440, 101.6396
567.9170, 9.795410
569.0910, 38.93115
570.2640, 51.25342
571.4380, 46.50781
572.6110, 71.11719
573.7840, 18.80518
574.9570, 20.94727
576.1290, 71.91797
577.3020, 11.83105
578.4740, 113.7617
579.6460, 114.7588
580.8180, 22.82080
581.9900, 67.90332
583.1620, 50.02734
584.3330, 118.1816
585.5040, 85.39990
586.6760, 110.6636
587.8470, 95.98389
589.0180, 12.35303
590.1880, 60.73242
591.3590, 119.1353
592.5290, 147.5952
593.7000, 84.12402
594.8700, 96.69141
596.0400, 108.3018
597.2090, 49.95850
598.3790, 131.6357
599.5490, 53.36816
600.7180, 56.12012
601.8870, 36.89209
603.0560, 14.32520
604.2250, 4.545898
605.3940, 15.81250
606.5620, 32.00195
607.7300, 5.220215
608.8990, 2.552246
610.0670, 6.321777
611.2350, 2.913086
612.4020, 9.153809
613.5700, 78.40088
614.7370, 88.65674
615.9050, 42.92090
617.0720, 112.1938
618.2390, 22.47607
619.4060, 169.7686
620.5720, 269.0708
621.7390, 128.3838
622.9050, 209.7085
624.0710, 209.0444
625.2370, 232.3921
626.4030, 297.7529
627.5690, 470.1265
628.7340, 406.5137
629.9000, 478.9146
631.0650, 460.0596
632.2300, 500.4897
633.3950, 591.7563
634.5600, 604.2183
635.7240, 709.4087
636.8890, 736.9062
638.0530, 811.3657
639.2170, 873.2930
640.3810, 919.4771
641.5450, 962.0640
642.7080, 999.8125
643.8720, 1037.956
645.0350, 1055.906
646.1980, 1077.408
647.3610, 1102.122
648.5240, 1063.869
649.6870, 1166.650
650.8490, 1117.466
652.0120, 1132.822
653.1740, 1044.473
654.3360, 1061.539
655.4980, 1066.677
656.6600, 1071.354
657.8210, 1058.748
658.9830, 897.8052
660.1440, 942.8901
661.3050, 851.0049
662.4660, 918.1484
663.6270, 959.1978
664.7870, 760.4004
665.9480, 902.5156
667.1080, 759.6079
668.2680, 759.9009
669.4280, 755.2266
670.5880, 724.7583
671.7480, 707.1304
672.9070, 668.5522
674.0670, 699.0049
675.2260, 622.4902
676.3850, 590.0093
677.5440, 708.5591
678.7030, 736.1421
679.8610, 702.7598
681.0200, 602.4106
682.1780, 625.1157
683.3360, 556.8545
684.4940, 618.6270
685.6520, 676.4370
686.8090, 691.2847
687.9670, 622.1719
689.1240, 607.1021
690.2810, 649.0732
691.4380, 742.0898
692.5950, 687.1543
693.7520, 728.2739
694.9080, 628.4438
696.0650, 690.6646
697.2210, 698.9390
698.3770, 816.7915
699.5330, 860.1660
700.6880, 801.6113
701.8440, 750.1172
702.9990, 905.6665
704.1550, 826.2617
705.3100, 917.2886
706.4650, 848.9927
707.6190, 810.3003
708.7740, 868.1748
709.9290, 828.0190
711.0830, 869.7461
712.2370, 859.1558
713.3910, 877.1665
714.5450, 954.2524
715.6980, 919.9722
716.8520, 964.0156
718.0050, 885.5410
719.1580, 885.1230
720.3110, 901.8936
721.4640, 999.3809
722.6170, 889.9624
723.7700, 1002.855
724.9220, 977.7651
726.0740, 1056.393
727.2260, 922.9751
728.3780, 1027.959
729.5300, 922.6978
730.6810, 1038.376
731.8330, 1096.536
732.9840, 1071.417
734.1350, 1100.772
735.2860, 1115.632
736.4370, 1206.693
737.5880, 1210.096
738.7380, 1176.692
739.8880, 1276.803
741.0390, 1207.892
742.1890, 1255.401
743.3380, 1269.956
744.4880, 1415.592
745.6380, 1475.305
746.7870, 1541.071
747.9360, 1489.812
749.0850, 1677.574
750.2340, 1697.525
751.3830, 1928.570
752.5310, 1916.690
753.6800, 1975.876
754.8280, 2109.120
755.9760, 2374.435
757.1240, 2554.805
758.2720, 2812.232
759.4190, 2913.725
760.5670, 3094.293
761.7140, 3366.916
762.8610, 3673.595
764.0080, 4068.331
765.1550, 4396.123
766.3020, 4697.968
767.4480, 5263.871
768.5950, 5938.832
769.7410, 6405.857
770.8870, 7215.943
772.0330, 8118.097
773.1780, 8889.312
774.3240, 10059.58
775.4690, 11338.91
776.6140, 13006.30
777.7590, 14552.76
778.9040, 16706.29
780.0490, 18851.88
781.1940, 21485.53
782.3380, 24419.23
783.4820, 27180.00
784.6260, 30257.83
785.7700, 33410.71
786.9140, 36329.64
788.0580, 38996.64
789.2010, 41164.70
790.3450, 42792.80
791.4880, 44348.97
792.6310, 44582.21
793.7730, 44275.52
794.9160, 43147.87
796.0590, 41347.29
797.2010, 39322.76
798.3430, 36783.29
799.4850, 33801.87
800.6270, 30884.50
801.7690, 27881.20
802.9100, 25001.93
804.0520, 22487.74
805.1930, 20155.59
806.3340, 18048.49
807.4750, 16025.45
808.6160, 14033.47
809.7560, 12479.54
810.8970, 11034.67
812.0370, 9960.853
813.1770, 8878.080
814.3170, 8037.369
815.4570, 7271.707
816.5960, 6525.099
817.7360, 6257.541
818.8750, 5665.034
820.0140, 5376.582
821.1530, 5207.190
822.2920, 4279.840
823.4310, 4018.539
824.5690, 3663.299
825.7070, 3364.392
826.8460, 3229.782
827.9840, 3011.888
829.1220, 2868.031
830.2590, 2747.967
831.3970, 2592.822
832.5340, 2516.928
833.6710, 2394.081
834.8080, 2265.125
835.9450, 2311.556
837.0820, 2319.208
838.2190, 2342.032
839.3550, 2461.040
840.4910, 2620.259
841.6270, 2652.104
842.7630, 2895.003
843.8990, 3035.193
845.0350, 3264.500
846.1700, 3611.362
847.3060, 3908.137
848.4410, 4143.942
849.5760, 4259.242
850.7100, 4583.593
851.8450, 4477.020
852.9800, 4580.998
854.1140, 4428.277
855.2480, 4437.446
856.3820, 4258.838
857.5160, 3927.545
858.6500, 3676.050
859.7830, 3393.115
860.9170, 3127.674
862.0500, 2894.812
863.1830, 2636.335
864.3160, 2449.005
865.4480, 2250.211
866.5810, 2087.665
867.7130, 1874.120
868.8460, 1767.529
869.9780, 1612.420
871.1100, 1418.270
872.2410, 1348.135
873.3730, 1273.618
874.5050, 1263.792
875.6360, 1241.116
876.7670, 1135.489
877.8980, 1127.943
879.0290, 1151.861
880.1590, 1140.082
881.2900, 1214.174
882.4200, 1158.497
883.5500, 1135.127
884.6800, 1177.346
885.8100, 1341.418
886.9400, 1339.894
888.0690, 1294.161
889.1990, 1250.351
890.3280, 1276.743
891.4570, 1333.031
892.5860, 1382.908
893.7140, 1391.876
894.8430, 1330.824
895.9710, 1540.378
897.1000, 1456.241
898.2280, 1457.296
899.3560, 1527.410
900.4830, 1525.276
901.6110, 1622.166
902.7380, 1584.474
903.8660, 1531.817
904.9930, 1570.456
906.1200, 1416.513
907.2460, 1476.555
908.3730, 1482.079
909.5000, 1438.662
910.6260, 1480.993
911.7520, 1267.255
912.8780, 1368.204
914.0040, 1231.431
915.1290, 1268.529
916.2550, 1159.570
917.3800, 1144.500
918.5050, 989.7891
919.6300, 1031.971
920.7550, 906.1670
921.8800, 840.5176
923.0040, 786.0786
924.1290, 803.5283
925.2530, 757.3525
926.3770, 655.6182
927.5010, 582.9521
928.6250, 527.1919
929.7480, 519.6230
930.8720, 416.1719
931.9950, 436.4893
933.1180, 401.8149
934.2410, 284.3081
935.3640, 306.3115
936.4860, 317.6655
937.6090, 255.0254
938.7310, 220.3936
939.8530, 272.7676
940.9750, 184.1499
942.0970, 156.5376
943.2180, 224.9312
944.3400, 73.47021
945.4610, 120.7876
946.5820, 174.4126
947.7030, 106.8252
948.8240, 88.34277
949.9450, 101.0122
951.0650, 35.43359
952.1860, 61.85596
953.3060, 9.280762
954.4260, 68.79639
955.5460, 3.381348
956.6650, 38.80811
957.7850, 32.23389
958.9040, 3.661133
960.0230, 17.91309
961.1420, 27.45459
962.2610, 12.84082
963.3800, 45.30811
964.4990, 37.57861
965.6170, 32.98779
966.7350, 7.647949
967.8530, 13.01270
968.9710, 31.62061
970.0890, 8.810059
971.2070, 42.23828
972.3240, 18.56250
973.4410, 21.77197
974.5580, 25.31104
975.6750, 12.37988
976.7920, 56.11084
977.9090, 17.49219
979.0250, 94.07812
980.1410, 148.9038
981.2580, 12.18945
982.3740, 42.72559
983.4890, 30.66943
984.6050, 29.63672
985.7200, 64.62598
986.8360, 103.6558
987.9510, 21.75049
989.0660, 31.13184
990.1810, 2.002441
991.2950, 3.143066
992.4100, 51.30713
993.5240, 41.51465
994.6390, 76.76172
995.7530, 71.06787
996.8660, 43.56885
997.9800, 7.809570
999.0940, 43.78516
1000.207, 41.63672
1001.320, 31.10449
1002.433, 75.61035
1003.546, 112.8252
1004.659, 14.27637
1005.772, 75.97705
1006.884, 14.25293
1007.996, 29.62012
1009.108, 13.19336
1010.220, 27.24805
1011.332, 11.31299
1012.444, 16.96973
1013.555, 35.87744
1014.666, 32.02637
1015.777, 17.95654
1016.888, 11.50684
1017.999, 76.63086
1019.110, 28.26660
1020.220, 29.41113
1021.331, 40.45312
1022.441, 5.823730
1023.551, 29.92725
1024.661, 20.31641
1025.770, 52.24463
1026.880, 51.73145
1027.989, 5.673828
1029.098, 34.56641
1030.207, 67.97412
1031.316, 60.44775
1032.425, 60.72021
1033.533, 149.0117
1034.642, 106.2476
1035.750, 60.43994
1036.858, 61.62646
1037.966, 25.97803
1039.073, 42.06592
1040.181, 2.510742
1041.288, 64.50732
1042.396, 64.61475
1043.503, 79.54541
1044.610, 45.91504
1045.716, 57.72510
1046.823, 50.74902
1047.929, 56.66113
1049.036, 60.55957
1050.142, 66.69678
1051.248, 105.4609
1052.353, 193.2646
1053.459, 134.9644
1054.564, 109.7012
1055.670, 54.67871
1056.775, 107.5713
1057.880, 86.28467
1058.985, 159.2632
1060.089, 0.7856450
1061.194, 233.1362
1062.298, 131.4521
1063.402, 115.8115
1064.506, 178.0615
1065.610, 229.2808
1066.713, 129.4683
1067.817, 94.72314
1068.920, 164.0933
1070.023, 191.5303
1071.126, 181.8076
1072.229, 251.8447
1073.332, 228.3643
1074.435, 188.4810
1075.537, 195.4209
1076.639, 147.4565
1077.741, 93.78125
1078.843, 141.6704
1079.945, 199.6138
1081.046, 162.3774
1082.148, 142.1812
1083.249, 225.8926
1084.350, 208.5591
1085.451, 196.2935
1086.551, 173.8940
1087.652, 160.4600
1088.752, 205.1714
1089.853, 262.6689
1090.953, 212.4766
1092.053, 269.8975
1093.152, 229.3130
1094.252, 158.1260
1095.351, 177.3066
1096.451, 147.4062
1097.550, 162.7261
1098.649, 156.2871
1099.748, 233.4668
1100.846, 209.6118
1101.945, 122.0581
1103.043, 215.9531
1104.141, 88.79004
1105.239, 138.3164
1106.337, 174.9917
1107.434, 125.1450
1108.532, 239.6904
1109.629, 146.4824
1110.726, 169.7246
1111.823, 301.8633
1112.920, 266.4722
1114.017, 212.3081
1115.113, 317.0312
1116.210, 263.6929
1117.306, 404.6177
1118.402, 376.2104
1119.498, 433.8672
1120.593, 458.4214
1121.689, 485.0859
1122.784, 552.3760
1123.879, 570.3687
1124.974, 600.5938
1126.069, 601.2812
1127.164, 542.6572
1128.259, 420.2637
1129.353, 272.5205
1130.447, 339.8281
1131.541, 267.0225
1132.635, 241.9775
1133.729, 182.4707
1134.822, 109.0503
1135.916, 121.1748
1137.009, 177.3652
1138.102, 199.8218
1139.195, 127.4897
1140.288, 213.7129
1141.380, 102.6948
1142.473, 100.4678
1143.565, 116.1670
1144.657, 140.4209
1145.749, 50.38770
1146.841, 127.5488
1147.932, 64.45703
1149.024, 175.9937
1150.115, 121.0171
1151.206, 11.11670
1152.297, 85.80713
1153.388, 156.7383
1154.479, 98.71387
1155.569, 89.48682
1156.659, 119.4160
1157.750, 18.70068
1158.839, 49.89014
1159.929, 62.09619
1161.019, 78.82227
1162.108, 88.46680
1163.198, 140.4277
1164.287, 118.4595
1165.376, 125.7358
1166.465, 180.3833
1167.553, 124.2124
1168.642, 77.00293
1169.730, 175.4922
1170.818, 51.55957
1171.906, 150.8931
1172.994, 90.48242
1174.082, 144.0073
1175.170, 39.77783
1176.257, 81.73291
1177.344, 156.1465
1178.431, 98.00244
1179.518, 84.97900
1180.605, 40.00586
1181.691, 98.40771
1182.778, 81.16992
1183.864, 99.03076
1184.950, 82.91699
1186.036, 38.59033
1187.122, 42.53467
1188.207, 61.60059
1189.292, 26.76953
1190.378, 90.65381
1191.463, 112.2891
1192.548, 114.9600
1193.632, 94.52588
1194.717, 119.7129
1195.801, 126.6318
1196.886, 127.2578
1197.970, 94.42725
1199.054, 57.52881
1200.137, 43.05664
1201.221, 63.56738
1202.305, 139.0557
1203.388, 21.52441
1204.471, 80.98779
1205.554, 129.4121
1206.637, 80.81641
1207.719, 26.09229
1208.802, 96.55127
1209.884, 74.67725
1210.966, 147.0020
1212.048, 91.20557
1213.130, 104.2417
1214.212, 106.5088
1215.293, 81.75879
1216.374, 153.8291
1217.456, 196.9648
1218.536, 62.18213
1219.617, 191.3706
1220.698, 33.54150
1221.778, 106.6919
1222.859, 43.82520
1223.939, 94.94092
1225.019, 90.80469
1226.099, 156.7661
1227.178, 128.5044
1228.258, 68.35791
1229.337, 113.1650
1230.417, 124.1997
1231.496, 59.21094
1232.574, 142.5205
1233.653, 64.80469
1234.732, 192.9087
1235.810, 27.43555
1236.888, 113.2896
1237.966, 136.5918
1239.044, 31.53223
1240.122, 120.2163
1241.199, 126.9497
1242.277, 136.8896
1243.354, 62.84033
1244.431, 88.79492
1245.508, 9.726563
1246.585, 8.343262
1247.661, 4.575195
1248.738, 80.48633
1249.814, 36.41357
1250.890, 45.33545
1251.966, 133.2422
1253.042, 110.3652
1254.117, 146.2832
1255.193, 111.3237
1256.268, 134.2334
1257.343, 132.1313
1258.418, 117.0952
1259.493, 65.01172
1260.567, 107.9922
1261.642, 87.96191
1262.716, 104.8638
1263.790, 112.7915
1264.864, 85.10938
1265.938, 139.5713
1267.011, 24.71289
1268.085, 68.69580
1269.158, 17.61670
1270.231, 42.53027
1271.304, 145.1724
1272.377, 229.7427
1273.450, 79.42676
1274.522, 76.24023
