##NAMES=Erythrite
##RRUFFID=R050073
##IDEAL CHEMISTRY=Co^2+^_3_(As^5+^O_4_)_2_&#183;8H_2_O
##LOCALITY=Bou Azzer, Morocco
##OWNER=RRUFF
##SOURCE=Rock Currier
##DESCRIPTION=Crimson flattened crystals
##STATUS=The identification of this mineral has been confirmed by X-ray diffraction and chemical analysis
##URL=rruff.info/R050073
##MEASURED CHEMISTRY=(Co_0.65_Mg_0.35_)_3_(As_1.00_O_4_)_2_Â·8H_2_O
##PIN_ID=M00190
##ORIENTATION=Laser parallel to -b* (0 -1 0). Fiducial mark perpendicular to laser is parallel to c [0 0 1]
52.67100, 0.0000000E+00
53.91000, 75.64673
55.14900, 91.92972
56.38700, 156.1171
57.62600, 135.9182
58.86400, 39.60626
60.10300, 14.84900
61.34100, 38.21887
62.57900, 11.27002
63.81700, 187.3079
65.05400, 520.8999
66.29200, 993.9697
67.52900, 1389.057
68.76700, 1254.773
70.00400, 1000.797
71.24100, 588.8577
72.47700, 269.7097
73.71400, 86.11780
74.95100, 19.86694
76.18700, 154.7665
77.42300, 186.6503
78.65900, 166.3734
79.89500, 227.8096
81.13100, 468.8484
82.36700, 741.3923
83.60200, 925.3572
84.83700, 1009.692
86.07200, 858.3579
87.30800, 882.2966
88.54200, 1044.441
89.77700, 1188.727
91.01200, 1481.068
92.24600, 1551.222
93.48000, 1696.548
94.71400, 1698.548
95.94800, 1750.322
97.18200, 1665.828
98.41600, 1789.036
99.64900, 1944.916
100.8830, 2140.443
102.1160, 2264.597
103.3490, 2641.358
104.5820, 3278.708
105.8150, 4149.633
107.0470, 5389.116
108.2800, 6980.146
109.5120, 8375.711
110.7440, 8913.798
111.9760, 9580.397
113.2080, 9805.495
114.4400, 9289.134
115.6710, 8298.536
116.9030, 6653.616
118.1340, 5407.352
119.3650, 4316.623
120.5960, 3558.343
121.8270, 3169.461
123.0580, 3001.969
124.2880, 2852.863
125.5190, 2532.135
126.7490, 2464.694
127.9790, 2575.262
129.2090, 2820.831
130.4390, 3084.394
131.6680, 3201.971
132.8980, 3427.646
134.1270, 3665.444
135.3560, 4087.386
136.5850, 4637.491
137.8140, 5423.773
139.0430, 6217.243
140.2710, 7083.912
141.5000, 7809.787
142.7280, 8860.877
143.9560, 10099.19
145.1840, 11261.72
146.4120, 12844.48
147.6390, 14615.48
148.8670, 15640.71
150.0940, 16484.18
151.3210, 17088.88
152.5490, 17397.82
153.7750, 17484.99
155.0020, 16918.72
156.2290, 16434.07
157.4550, 14827.96
158.6810, 13183.09
159.9080, 11267.46
161.1340, 9688.061
162.3590, 8386.900
163.5850, 7607.975
164.8110, 6955.284
166.0360, 6827.825
167.2610, 6822.598
168.4860, 7156.603
169.7110, 7657.836
170.9360, 8243.301
172.1610, 8684.991
173.3850, 9068.907
174.6100, 9060.151
175.8340, 9201.087
177.0580, 8918.195
178.2820, 8576.010
179.5050, 7950.238
180.7290, 7349.859
181.9520, 6946.886
183.1760, 7126.451
184.3990, 6967.685
185.6220, 6977.743
186.8450, 7327.748
188.0670, 7640.828
189.2900, 7948.104
190.5120, 8461.571
191.7340, 8936.232
192.9560, 9317.075
194.1780, 9911.102
195.4000, 10355.31
196.6220, 11066.69
197.8430, 11671.25
199.0640, 12391.98
200.2860, 13292.59
201.5070, 14218.05
202.7270, 14644.33
203.9480, 15034.37
205.1690, 15444.58
206.3890, 15316.49
207.6090, 15322.01
208.8290, 14987.13
210.0490, 14505.40
211.2690, 13506.34
212.4890, 12265.72
213.7080, 11132.51
214.9280, 9787.705
216.1470, 8714.268
217.3660, 7830.208
218.5850, 7133.506
219.8030, 6393.125
221.0220, 5934.066
222.2400, 5526.311
223.4590, 5420.845
224.6770, 5381.671
225.8950, 5295.757
227.1120, 5312.118
228.3300, 5581.749
229.5480, 5468.630
230.7650, 5539.757
231.9820, 5436.139
233.1990, 5551.756
234.4160, 5378.611
235.6330, 5377.679
236.8490, 5168.949
238.0660, 4930.430
239.2820, 4875.108
240.4980, 4626.989
241.7140, 4681.061
242.9300, 4823.326
244.1460, 4793.776
245.3610, 5136.419
246.5770, 5558.229
247.7920, 6036.214
249.0070, 6458.364
250.2220, 6951.692
251.4370, 7408.178
252.6510, 7844.829
253.8660, 7973.646
255.0800, 8554.618
256.2940, 8764.756
257.5080, 9234.046
258.7220, 9737.502
259.9360, 10012.12
261.1490, 9460.888
262.3630, 9092.806
263.5760, 8767.884
264.7890, 8254.113
266.0020, 7874.471
267.2150, 7233.971
268.4270, 6487.603
269.6400, 5827.378
270.8520, 5226.295
272.0640, 4615.896
273.2760, 4044.533
274.4880, 3566.843
275.7000, 3086.305
276.9120, 2692.057
278.1230, 2146.637
279.3340, 1945.500
280.5450, 1631.496
281.7560, 1311.645
282.9670, 1168.937
284.1780, 866.3606
285.3880, 731.9282
286.5980, 565.6265
287.8090, 492.4453
289.0190, 365.3872
290.2290, 329.4341
291.4380, 162.5999
292.6480, 153.8782
293.8570, 35.28467
295.0670, 4.177246
296.2760, 82.53076
297.4850, 98.78198
298.6930, 157.9331
299.9020, 162.2092
301.1110, 154.9946
302.3190, 149.8977
303.5270, 117.7217
304.7350, 91.46240
305.9430, 114.1306
307.1510, 102.4421
308.3580, 150.2593
309.5660, 108.7266
310.7730, 114.1289
311.9800, 86.46899
313.1870, 23.74292
314.3940, 95.94897
315.6010, 62.09521
316.8070, 30.17896
318.0130, 59.19946
319.2200, 18.84009
320.4260, 31.94189
321.6310, 87.08862
322.8370, 114.2615
324.0430, 104.4617
325.2480, 110.7000
326.4540, 326.9741
327.6590, 387.2781
328.8640, 419.6179
330.0680, 577.0010
331.2730, 576.4294
332.4780, 668.9053
333.6820, 738.4331
334.8860, 815.0120
336.0900, 838.6147
337.2940, 743.3188
338.4980, 852.0439
339.7010, 816.8154
340.9050, 793.6328
342.1080, 809.4939
343.3110, 855.7979
344.5140, 863.3457
345.7170, 1031.379
346.9200, 1110.498
348.1220, 1260.817
349.3240, 1381.150
350.5270, 1497.114
351.7290, 1852.881
352.9310, 2073.419
354.1320, 2379.622
355.3340, 2570.321
356.5350, 3003.117
357.7370, 3246.903
358.9380, 3680.711
360.1390, 3892.140
361.3400, 4233.525
362.5400, 4553.609
363.7410, 4791.465
364.9410, 4937.465
366.1410, 5089.478
367.3410, 5290.029
368.5410, 5516.366
369.7410, 5518.007
370.9400, 5773.451
372.1400, 5801.982
373.3390, 5901.005
374.5380, 6019.341
375.7370, 6069.969
376.9360, 6028.310
378.1350, 6136.447
379.3330, 6013.974
380.5310, 5969.891
381.7300, 5981.460
382.9280, 5940.227
384.1260, 6029.580
385.3230, 5952.333
386.5210, 5942.182
387.7180, 5920.855
388.9160, 5828.815
390.1130, 5721.713
391.3100, 5592.902
392.5060, 5408.785
393.7030, 5277.942
394.9000, 5017.630
396.0960, 4713.491
397.2920, 4321.616
398.4880, 3994.135
399.6840, 3696.180
400.8800, 3357.907
402.0750, 3097.142
403.2710, 2775.262
404.4660, 2520.218
405.6610, 2290.530
406.8560, 2096.231
408.0510, 1911.091
409.2450, 1799.708
410.4400, 1681.188
411.6340, 1580.652
412.8280, 1550.257
414.0220, 1543.203
415.2160, 1531.157
416.4100, 1425.611
417.6030, 1433.625
418.7970, 1599.363
419.9900, 1605.030
421.1830, 1784.159
422.3760, 1921.166
423.5690, 1983.580
424.7610, 2295.914
425.9540, 2538.517
427.1460, 2729.146
428.3380, 2986.637
429.5300, 3300.157
430.7220, 3675.525
431.9140, 3918.947
433.1050, 4337.238
434.2970, 4759.136
435.4880, 5000.646
436.6790, 5263.169
437.8700, 5533.823
439.0610, 5681.188
440.2510, 5803.756
441.4420, 5976.983
442.6320, 5882.625
443.8220, 5867.383
445.0120, 5649.216
446.2020, 5329.645
447.3910, 5205.299
448.5810, 4778.217
449.7700, 4543.683
450.9600, 4133.115
452.1490, 3874.565
453.3370, 3579.758
454.5260, 3418.716
455.7150, 3184.569
456.9030, 2968.317
458.0910, 2717.560
459.2800, 2486.500
460.4670, 2237.997
461.6550, 1980.894
462.8430, 1860.771
464.0300, 1693.604
465.2180, 1538.393
466.4050, 1303.136
467.5920, 1200.835
468.7790, 966.4878
469.9650, 954.0945
471.1520, 775.6553
472.3380, 680.1692
473.5250, 675.6362
474.7110, 539.0554
475.8970, 550.4272
477.0820, 479.7502
478.2680, 364.0244
479.4540, 380.2495
480.6390, 302.4253
481.8240, 288.5508
483.0090, 190.6262
484.1940, 203.6506
485.3780, 127.6240
486.5630, 135.5459
487.7470, 100.4155
488.9320, 125.2324
490.1160, 53.99634
491.3000, 4.306641
492.4830, 12.70288
493.6670, 29.80298
494.8500, 17.22900
496.0340, 48.56982
497.2170, 16.16333
498.4000, 50.00000
499.5820, 47.95752
500.7650, 80.03662
501.9480, 4.253418
503.1300, 85.57129
504.3120, 95.03198
505.4940, 10.35815
506.6760, 42.34692
507.8580, 7.174316
509.0390, 1.893066
510.2210, 44.14062
511.4020, 68.70068
512.5830, 43.53296
513.7640, 43.89258
514.9450, 1.378418
516.1250, 22.96875
517.3060, 58.67505
518.4860, 21.51709
519.6660, 49.47461
520.8460, 30.43677
522.0260, 45.25757
523.2060, 7.006592
524.3850, 26.61963
525.5650, 2.846191
526.7440, 7.580811
527.9230, 5.906006
529.1020, 9.128906
530.2810, 27.74927
531.4590, 80.25293
532.6380, 18.17969
533.8160, 49.01099
534.9940, 15.24170
536.1720, 54.39258
537.3500, 4.945313
538.5270, 0.3959960
539.7050, 30.74268
540.8820, 31.00000
542.0590, 16.13770
543.2360, 44.81982
544.4130, 33.90381
545.5900, 0.1079100
546.7660, 38.41431
547.9430, 62.84253
549.1190, 47.40479
550.2950, 19.90771
551.4710, 28.86963
552.6470, 13.76099
553.8220, 55.75879
554.9980, 64.88354
556.1730, 41.13965
557.3480, 34.51367
558.5230, 13.00146
559.6980, 121.5908
560.8730, 42.33789
562.0470, 83.20044
563.2220, 19.19873
564.3960, 59.29785
565.5700, 139.5188
566.7440, 97.90137
567.9170, 68.42358
569.0910, 116.0688
570.2640, 70.86060
571.4380, 38.77393
572.6110, 57.79053
573.7840, 9.080078
574.9570, 54.12476
576.1290, 34.43750
577.3020, 100.8462
578.4740, 121.3840
579.6460, 41.06104
580.8180, 50.83154
581.9900, 53.69434
583.1620, 3.647461
584.3330, 28.65723
585.5040, 46.73389
586.6760, 23.88599
587.8470, 34.10083
589.0180, 36.61450
590.1880, 19.28198
591.3590, 45.90186
592.5290, 11.47803
593.7000, 32.01172
594.8700, 87.50269
596.0400, 2.952881
597.2090, 95.35620
598.3790, 121.7117
599.5490, 39.02661
600.7180, 160.2979
601.8870, 125.5242
603.0560, 157.7080
604.2250, 184.8445
605.3940, 198.9346
606.5620, 230.9785
607.7300, 265.9771
608.8990, 249.9309
610.0670, 311.8403
611.2350, 349.7061
612.4020, 319.5291
613.5700, 300.3096
614.7370, 388.0481
615.9050, 451.7458
617.0720, 432.4028
618.2390, 466.0203
619.4060, 548.5984
620.5720, 508.1382
621.7390, 537.6401
622.9050, 638.1050
624.0710, 576.5332
625.2370, 626.9258
626.4030, 644.2832
627.5690, 719.6060
628.7340, 712.8955
629.9000, 786.1514
631.0650, 796.2627
632.2300, 876.4163
633.3950, 902.7412
634.5600, 906.8235
635.7240, 974.9434
636.8890, 1007.455
638.0530, 1036.519
639.2170, 1044.530
640.3810, 1065.594
641.5450, 1093.676
642.7080, 1116.394
643.8720, 1127.128
645.0350, 1151.691
646.1980, 1161.882
647.3610, 1148.963
648.5240, 1196.066
649.6870, 1141.666
650.8490, 1103.511
652.0120, 1173.085
653.1740, 1122.887
654.3360, 1120.632
655.4980, 1066.916
656.6600, 988.9155
657.8210, 964.6511
658.9830, 914.6465
660.1440, 914.9817
661.3050, 831.8984
662.4660, 866.4521
663.6270, 794.3789
664.7870, 819.1333
665.9480, 732.3252
667.1080, 704.1411
668.2680, 704.8845
669.4280, 631.8247
670.5880, 669.5034
671.7480, 655.2649
672.9070, 613.7585
674.0670, 676.5801
675.2260, 568.1475
676.3850, 499.2039
677.5440, 513.1094
678.7030, 639.7698
679.8610, 555.0552
681.0200, 513.8364
682.1780, 535.5635
683.3360, 488.5820
684.4940, 478.3442
685.6520, 447.2898
686.8090, 462.8970
687.9670, 487.0410
689.1240, 491.2280
690.2810, 515.9268
691.4380, 553.0935
692.5950, 554.6375
693.7520, 582.6350
694.9080, 609.1523
696.0650, 588.2581
697.2210, 621.8804
698.3770, 559.9585
699.5330, 589.3306
700.6880, 751.7905
701.8440, 670.8037
702.9990, 682.9561
704.1550, 743.7173
705.3100, 666.5762
706.4650, 634.1816
707.6190, 747.7778
708.7740, 751.5281
709.9290, 803.2644
711.0830, 805.1685
712.2370, 810.0366
713.3910, 863.0508
714.5450, 975.4797
715.6980, 828.3130
716.8520, 966.1484
718.0050, 933.8838
719.1580, 1020.845
720.3110, 1048.383
721.4640, 1070.925
722.6170, 1033.602
723.7700, 1108.058
724.9220, 1109.622
726.0740, 1216.724
727.2260, 1276.415
728.3780, 1190.489
729.5300, 1245.470
730.6810, 1277.800
731.8330, 1237.920
732.9840, 1366.352
734.1350, 1421.900
735.2860, 1488.260
736.4370, 1487.958
737.5880, 1602.725
738.7380, 1594.561
739.8880, 1726.489
741.0390, 1781.491
742.1890, 1824.574
743.3380, 1871.730
744.4880, 1980.951
745.6380, 2097.245
746.7870, 2294.618
747.9360, 2321.066
749.0850, 2513.592
750.2340, 2635.206
751.3830, 2784.912
752.5310, 2848.695
753.6800, 3113.568
754.8280, 3267.530
755.9760, 3598.575
757.1240, 3688.723
758.2720, 3985.959
759.4190, 4269.279
760.5670, 4623.695
761.7140, 4883.190
762.8610, 5330.784
764.0080, 5773.475
765.1550, 6173.259
766.3020, 6909.130
767.4480, 7399.083
768.5950, 8170.112
769.7410, 8982.222
770.8870, 9786.434
772.0330, 10830.74
773.1780, 12084.15
774.3240, 13434.66
775.4690, 14804.27
776.6140, 16695.97
777.7590, 18485.79
778.9040, 20868.72
780.0490, 23513.79
781.1940, 26265.97
782.3380, 29822.27
783.4820, 33198.70
784.6260, 36945.21
785.7700, 41195.86
786.9140, 45222.60
788.0580, 49014.45
789.2010, 52595.41
790.3450, 55737.47
791.4880, 57861.64
792.6310, 59716.91
793.7730, 60237.29
794.9160, 60157.77
796.0590, 59662.37
797.2010, 57539.07
798.3430, 55505.89
799.4850, 52326.80
800.6270, 49195.82
801.7690, 45386.92
802.9100, 41607.13
804.0520, 38119.45
805.1930, 34760.86
806.3340, 31575.38
807.4750, 28689.99
808.6160, 26031.22
809.7560, 23633.52
810.8970, 21402.42
812.0370, 19436.97
813.1770, 17818.05
814.3170, 16100.72
815.4570, 14733.01
816.5960, 13500.40
817.7360, 12443.89
818.8750, 11562.48
820.0140, 10667.17
821.1530, 10266.97
822.2920, 9530.878
823.4310, 9022.892
824.5690, 8358.017
825.7070, 7973.255
826.8460, 7744.606
827.9840, 7397.053
829.1220, 7068.605
830.2590, 6705.258
831.3970, 6419.507
832.5340, 6256.909
833.6710, 5831.903
834.8080, 5861.003
835.9450, 5564.226
837.0820, 5371.370
838.2190, 5698.992
839.3550, 5112.550
840.4910, 4910.205
841.6270, 5040.228
842.7630, 5066.124
843.8990, 4891.140
845.0350, 5021.266
846.1700, 5056.513
847.3060, 5316.867
848.4410, 5507.491
849.5760, 5755.246
850.7100, 6009.930
851.8450, 6057.969
852.9800, 6134.808
854.1140, 6281.854
855.2480, 6081.071
856.3820, 5973.509
857.5160, 5789.764
858.6500, 5408.010
859.7830, 5193.783
860.9170, 4822.703
862.0500, 4440.088
863.1830, 4117.234
864.3160, 3753.822
865.4480, 3438.985
866.5810, 3081.604
867.7130, 2824.788
868.8460, 2526.854
869.9780, 2299.459
871.1100, 2089.609
872.2410, 1910.727
873.3730, 1788.528
874.5050, 1641.683
875.6360, 1550.230
876.7670, 1460.183
877.8980, 1405.669
879.0290, 1350.500
880.1590, 1316.906
881.2900, 1212.099
882.4200, 1243.666
883.5500, 1197.805
884.6800, 1130.796
885.8100, 1203.489
886.9400, 1176.998
888.0690, 1216.997
889.1990, 1170.935
890.3280, 1226.813
891.4570, 1286.891
892.5860, 1273.805
893.7140, 1298.318
894.8430, 1318.001
895.9710, 1271.727
897.1000, 1338.540
898.2280, 1304.238
899.3560, 1334.059
900.4830, 1375.023
901.6110, 1373.119
902.7380, 1301.921
903.8660, 1316.873
904.9930, 1284.634
906.1200, 1180.806
907.2460, 1265.328
908.3730, 1114.635
909.5000, 1191.851
910.6260, 1129.899
911.7520, 1299.546
912.8780, 1041.606
914.0040, 1072.008
915.1290, 1041.718
916.2550, 941.4644
917.3800, 1036.557
918.5050, 862.8372
919.6300, 799.6521
920.7550, 796.0142
921.8800, 741.4463
923.0040, 685.8252
924.1290, 618.6479
925.2530, 539.6343
926.3770, 596.3247
927.5010, 529.3301
928.6250, 542.5396
929.7480, 504.4817
930.8720, 462.9634
931.9950, 376.6672
933.1180, 389.2007
934.2410, 327.8994
935.3640, 357.5601
936.4860, 253.8635
937.6090, 407.4976
938.7310, 311.5420
939.8530, 287.9651
940.9750, 224.7561
942.0970, 189.8545
943.2180, 289.1060
944.3400, 170.9824
945.4610, 264.7356
946.5820, 216.0549
947.7030, 158.8276
948.8240, 129.1885
949.9450, 233.3872
951.0650, 115.7876
952.1860, 156.7756
953.3060, 89.21167
954.4260, 92.73804
955.5460, 82.57275
956.6650, 103.6465
957.7850, 80.32739
958.9040, 114.9429
960.0230, 90.31201
961.1420, 100.8870
962.2610, 86.73682
963.3800, 94.80762
964.4990, 50.72729
965.6170, 112.1121
966.7350, 110.4363
967.8530, 88.55859
968.9710, 63.03052
970.0890, 1.864502
971.2070, 73.97192
972.3240, 72.54932
973.4410, 30.94873
974.5580, 10.03638
975.6750, 20.85059
976.7920, 13.81104
977.9090, 15.59277
979.0250, 24.22852
980.1410, 21.00220
981.2580, 10.68604
982.3740, 12.61694
983.4890, 13.66357
984.6050, 49.04346
985.7200, 18.36719
986.8360, 12.22900
987.9510, 99.18018
989.0660, 47.62500
990.1810, 50.06812
991.2950, 21.44678
992.4100, 36.04614
993.5240, 47.51440
994.6390, 17.05005
995.7530, 55.40820
996.8660, 45.95020
997.9800, 71.31030
999.0940, 19.83618
1000.207, 105.1587
1001.320, 55.79321
1002.433, 70.54565
1003.546, 71.81470
1004.659, 107.4751
1005.772, 61.14551
1006.884, 51.41113
1007.996, 55.09326
1009.108, 132.1233
1010.220, 59.12256
1011.332, 86.20068
1012.444, 54.09082
1013.555, 2.718750
1014.666, 40.35742
1015.777, 56.70142
1016.888, 46.06421
1017.999, 40.16724
1019.110, 82.55591
1020.220, 92.10645
1021.331, 30.58325
1022.441, 76.21631
1023.551, 71.97949
1024.661, 39.61670
1025.770, 110.5273
1026.880, 54.47412
1027.989, 29.47974
1029.098, 85.50708
1030.207, 3.367432
1031.316, 78.94653
1032.425, 61.98804
1033.533, 61.37549
1034.642, 12.82056
1035.750, 5.350098
1036.858, 32.02710
1037.966, 40.34473
1039.073, 13.64868
1040.181, 29.28540
1041.288, 15.71631
1042.396, 22.10229
1043.503, 21.20996
1044.610, 27.42676
1045.716, 58.73438
1046.823, 4.354980
1047.929, 9.544434
1049.036, 11.48535
1050.142, 47.35498
1051.248, 46.24487
1052.353, 61.08472
1053.459, 50.92725
1054.564, 52.49194
1055.670, 85.07300
1056.775, 49.49414
1057.880, 73.85962
1058.985, 86.34790
1060.089, 117.6191
1061.194, 112.4524
1062.298, 89.24756
1063.402, 109.5337
1064.506, 104.7102
1065.610, 115.4434
1066.713, 112.7979
1067.817, 118.1711
1068.920, 98.35620
1070.023, 127.2236
1071.126, 114.0466
1072.229, 146.8677
1073.332, 131.7131
1074.435, 122.5764
1075.537, 210.3416
1076.639, 139.1252
1077.741, 108.6731
1078.843, 195.1675
1079.945, 155.6191
1081.046, 206.0474
1082.148, 141.4106
1083.249, 209.8574
1084.350, 158.1272
1085.451, 234.3481
1086.551, 201.7100
1087.652, 177.8425
1088.752, 166.9612
1089.853, 142.1201
1090.953, 210.1433
1092.053, 161.0771
1093.152, 224.9587
1094.252, 167.7952
1095.351, 235.6694
1096.451, 199.7417
1097.550, 173.4385
1098.649, 179.0752
1099.748, 193.7393
1100.846, 176.2723
1101.945, 222.7515
1103.043, 202.1605
1104.141, 177.5408
1105.239, 188.8657
1106.337, 211.1367
1107.434, 211.3568
1108.532, 266.3074
1109.629, 176.5332
1110.726, 297.5981
1111.823, 246.6152
1112.920, 291.5829
1114.017, 269.5354
1115.113, 236.3053
1116.210, 298.9298
1117.306, 273.6602
1118.402, 311.0963
1119.498, 306.7721
1120.593, 332.3052
1121.689, 289.7335
1122.784, 298.9896
1123.879, 305.5464
1124.974, 288.0914
1126.069, 305.1416
1127.164, 262.0840
1128.259, 291.6609
1129.353, 255.6752
1130.447, 272.5142
1131.541, 244.1116
1132.635, 278.6449
1133.729, 306.6503
1134.822, 220.7155
1135.916, 255.7700
1137.009, 245.4708
1138.102, 200.5503
1139.195, 234.0254
1140.288, 291.2174
1141.380, 254.6753
1142.473, 260.1605
1143.565, 217.0076
1144.657, 254.4902
1145.749, 228.8542
1146.841, 302.0367
1147.932, 263.1072
1149.024, 207.4785
1150.115, 241.0503
1151.206, 257.8669
1152.297, 215.9167
1153.388, 239.5355
1154.479, 248.2385
1155.569, 200.0115
1156.659, 250.5605
1157.750, 222.3273
1158.839, 215.4751
1159.929, 203.9624
1161.019, 158.7533
1162.108, 127.4736
1163.198, 156.3149
1164.287, 197.1332
1165.376, 186.0856
1166.465, 189.5665
1167.553, 196.0374
1168.642, 200.1261
1169.730, 194.0366
1170.818, 169.7346
1171.906, 173.1774
1172.994, 98.62036
1174.082, 182.2555
1175.170, 144.4940
1176.257, 125.8987
1177.344, 198.7137
1178.431, 174.6775
1179.518, 146.7177
1180.605, 145.6685
1181.691, 131.2806
1182.778, 129.7253
1183.864, 122.8502
1184.950, 146.4642
1186.036, 167.9498
1187.122, 206.7653
1188.207, 201.8337
1189.292, 132.5503
1190.378, 193.8091
1191.463, 155.6460
1192.548, 140.3473
1193.632, 137.4045
1194.717, 152.7371
1195.801, 141.8229
1196.886, 108.1287
1197.970, 181.5087
1199.054, 112.7200
1200.137, 189.3693
1201.221, 228.7729
1202.305, 155.6476
1203.388, 139.0322
1204.471, 123.0070
1205.554, 133.7295
1206.637, 119.5859
1207.719, 189.5789
1208.802, 171.3538
1209.884, 174.8859
1210.966, 156.4244
1212.048, 187.9294
1213.130, 128.4094
1214.212, 197.8348
1215.293, 196.6143
1216.374, 114.8618
1217.456, 187.9330
1218.536, 149.7006
1219.617, 127.1991
1220.698, 145.1542
1221.778, 159.2720
1222.859, 172.4860
1223.939, 166.5997
1225.019, 130.9006
1226.099, 85.90930
1227.178, 149.4663
1228.258, 166.6833
1229.337, 129.8018
1230.417, 211.1029
1231.496, 177.2042
1232.574, 184.9486
1233.653, 250.2080
1234.732, 201.9777
1235.810, 182.9048
1236.888, 157.2340
1237.966, 131.7253
1239.044, 115.3741
