##NAMES=Erythrite
##RRUFFID=R050073
##IDEAL CHEMISTRY=Co^2+^_3_(As^5+^O_4_)_2_&#183;8H_2_O
##LOCALITY=Bou Azzer, Morocco
##OWNER=RRUFF
##SOURCE=Rock Currier
##DESCRIPTION=Crimson flattened crystals
##STATUS=The identification of this mineral has been confirmed by X-ray diffraction and chemical analysis
##URL=rruff.info/R050073
##MEASURED CHEMISTRY=(Co_0.65_Mg_0.35_)_3_(As_1.00_O_4_)_2_Â·8H_2_O
##PIN_ID=M00190
##ORIENTATION=Laser parallel to -b* (0 -1 0). Fiducial mark perpendicular to laser is parallel to c [0 0 1]
52.67100, 0.0000000E+00
53.91000, 42.99661
55.14900, 99.97284
56.38700, 127.8823
57.62600, 110.9121
58.86400, 70.42065
60.10300, 25.40125
61.34100, 11.05652
62.57900, 8.143921
63.81700, 92.68225
65.05400, 187.3640
66.29200, 296.0687
67.52900, 318.8235
68.76700, 269.2994
70.00400, 244.2959
71.24100, 155.6377
72.47700, 18.16675
73.71400, 99.27393
74.95100, 63.83252
76.18700, 3.357422
77.42300, 7.177734
78.65900, 8.473755
79.89500, 13.31299
81.13100, 124.4601
82.36700, 318.8986
83.60200, 507.5679
84.83700, 608.4139
86.07200, 446.3889
87.30800, 754.4500
88.54200, 461.5571
89.77700, 506.6726
91.01200, 776.7334
92.24600, 1043.662
93.48000, 868.3938
94.71400, 849.8806
95.94800, 863.0803
97.18200, 765.9592
98.41600, 745.4912
99.64900, 959.6545
100.8830, 1031.430
102.1160, 991.8022
103.3490, 1239.756
104.5820, 1734.280
105.8150, 2365.363
107.0470, 3206.996
108.2800, 4655.168
109.5120, 5681.870
110.7440, 5515.095
111.9760, 5362.834
113.2080, 5130.081
114.4400, 4490.828
115.6710, 3862.068
116.9030, 3135.795
118.1340, 2404.007
119.3650, 1927.699
120.5960, 1548.861
121.8270, 1487.484
123.0580, 1543.561
124.2880, 1490.085
125.5190, 1244.052
126.7490, 1290.370
127.9790, 1285.774
129.2090, 1475.252
130.4390, 1587.796
131.6680, 1705.409
132.8980, 1671.148
134.1270, 1856.037
135.3560, 2089.095
136.5850, 2554.336
137.8140, 3090.721
139.0430, 3890.305
140.2710, 4643.107
141.5000, 5379.139
142.7280, 6511.406
143.9560, 7731.916
145.1840, 9471.676
146.4120, 10984.69
147.6390, 11677.95
148.8670, 11088.48
150.0940, 9860.268
151.3210, 8333.321
152.5490, 6847.641
153.7750, 5450.230
155.0020, 4500.092
156.2290, 3659.222
157.4550, 2829.624
158.6810, 2307.295
159.9080, 1779.238
161.1340, 1420.450
162.3590, 1262.931
163.5850, 1177.679
164.8110, 1286.693
166.0360, 1358.973
167.2610, 1355.515
168.4860, 1552.320
169.7110, 1674.385
170.9360, 1852.710
172.1610, 1910.292
173.3850, 1983.131
174.6100, 2078.225
175.8340, 2173.572
177.0580, 2345.169
178.2820, 2454.016
179.5050, 2665.110
180.7290, 2997.450
181.9520, 3424.105
183.1760, 3853.098
184.3990, 4285.161
185.6220, 4712.700
186.8450, 5074.377
188.0670, 5388.893
189.2900, 5724.984
190.5120, 5838.202
191.7340, 6028.646
192.9560, 6033.309
194.1780, 6087.193
195.4000, 6362.292
196.6220, 6699.605
197.8430, 7142.131
199.0640, 7454.866
200.2860, 8310.871
201.5070, 8990.702
202.7270, 9568.378
203.9480, 10080.99
205.1690, 10628.26
206.3890, 10720.81
207.6090, 10924.21
208.8290, 11227.05
210.0490, 11226.91
211.2690, 10986.33
212.4890, 10791.15
213.7080, 10764.36
214.9280, 10425.94
216.1470, 10052.89
217.3660, 9996.194
218.5850, 9800.831
219.8030, 9808.073
221.0220, 9821.555
222.2400, 10007.53
223.4590, 10040.44
224.6770, 10277.64
225.8950, 10566.06
227.1120, 11181.85
228.3300, 11608.91
229.5480, 12000.25
230.7650, 12225.85
231.9820, 12554.71
233.1990, 12622.84
234.4160, 12343.21
235.6330, 12006.84
236.8490, 11615.71
238.0660, 11066.80
239.2820, 10822.13
240.4980, 10675.67
241.7140, 10210.46
242.9300, 10601.47
244.1460, 10839.70
245.3610, 11537.15
246.5770, 12594.83
247.7920, 13504.73
249.0070, 14673.84
250.2220, 15842.18
251.4370, 17138.74
252.6510, 18502.51
253.8660, 19713.47
255.0800, 20499.64
256.2940, 21869.99
257.5080, 22760.50
258.7220, 23835.21
259.9360, 24124.10
261.1490, 23307.16
262.3630, 22559.41
263.5760, 21655.83
264.7890, 20411.42
266.0020, 19009.18
267.2150, 17669.10
268.4270, 15977.18
269.6400, 14501.41
270.8520, 12938.80
272.0640, 11606.35
273.2760, 10181.04
274.4880, 9035.893
275.7000, 8043.881
276.9120, 7137.009
278.1230, 6329.279
279.3340, 5384.703
280.5450, 4769.282
281.7560, 4004.010
282.9670, 3556.877
284.1780, 3196.891
285.3880, 2726.047
286.5980, 2304.339
287.8090, 2079.770
289.0190, 1714.340
290.2290, 1465.046
291.4380, 1157.890
292.6480, 1028.868
293.8570, 883.9795
295.0670, 684.2227
296.2760, 532.5945
297.4850, 425.0942
298.6930, 317.7153
299.9020, 210.4590
301.1110, 163.3223
302.3190, 101.3167
303.5270, 63.43408
304.7350, 86.67603
305.9430, 52.03149
307.1510, 70.49902
308.3580, 113.0776
309.5660, 2.236816
310.7730, 88.55566
311.9800, 23.54761
313.1870, 67.45435
314.3940, 84.56250
315.6010, 12.77539
316.8070, 37.91333
318.0130, 111.4922
319.2200, 144.9949
320.4260, 130.5913
321.6310, 199.2805
322.8370, 300.0605
324.0430, 346.9287
325.2480, 352.8848
326.4540, 639.9268
327.6590, 738.0540
328.8640, 744.2627
330.0680, 1000.554
331.2730, 1066.923
332.4780, 1129.373
333.6820, 1361.902
334.8860, 1344.507
336.0900, 1431.188
337.2940, 1490.944
338.4980, 1568.773
339.7010, 1644.674
340.9050, 1886.646
342.1080, 1979.688
343.3110, 2227.798
344.5140, 2398.358
345.7170, 2614.874
346.9200, 2940.505
348.1220, 3329.187
349.3240, 3832.700
350.5270, 4364.283
351.7290, 4856.536
352.9310, 5516.853
354.1320, 6120.261
355.3340, 6900.998
356.5350, 7696.740
357.7370, 8496.540
358.9380, 9219.123
360.1390, 9895.480
361.3400, 10508.46
362.5400, 11051.50
363.7410, 11739.10
364.9410, 11967.00
366.1410, 12223.00
367.3410, 12256.67
368.5410, 12323.49
369.7410, 12300.46
370.9400, 12038.29
372.1400, 11951.45
373.3390, 11649.07
374.5380, 11433.53
375.7370, 11011.07
376.9360, 10420.48
378.1350, 9790.634
379.3330, 9214.729
380.5310, 8658.080
381.7300, 7916.583
382.9280, 7398.196
384.1260, 6826.513
385.3230, 6321.620
386.5210, 5821.343
387.7180, 5344.239
388.9160, 4905.866
390.1130, 4504.959
391.3100, 4130.840
392.5060, 3831.201
393.7030, 3595.163
394.9000, 3324.044
396.0960, 3045.979
397.2920, 2749.321
398.4880, 2498.898
399.6840, 2368.451
400.8800, 2236.995
402.0750, 2104.353
403.2710, 2036.780
404.4660, 1954.086
405.6610, 1910.172
406.8560, 1861.009
408.0510, 1811.334
409.2450, 1790.859
410.4400, 1785.291
411.6340, 1843.765
412.8280, 1951.376
414.0220, 2002.680
415.2160, 2099.229
416.4100, 2344.937
417.6030, 2444.611
418.7970, 2618.755
419.9900, 2877.117
421.1830, 3171.252
422.3760, 3441.702
423.5690, 3755.021
424.7610, 4238.693
425.9540, 4544.105
427.1460, 4945.384
428.3380, 5459.605
429.5300, 6044.047
430.7220, 6534.200
431.9140, 6969.634
433.1050, 7573.627
434.2970, 7940.578
435.4880, 8406.628
436.6790, 8581.926
437.8700, 8682.074
439.0610, 8592.916
440.2510, 8548.673
441.4420, 8175.579
442.6320, 7849.806
443.8220, 7450.553
445.0120, 6990.403
446.2020, 6536.757
447.3910, 6060.535
448.5810, 5704.151
449.7700, 5106.983
450.9600, 4827.562
452.1490, 4264.788
453.3370, 3903.205
454.5260, 3580.278
455.7150, 3278.835
456.9030, 2940.915
458.0910, 2629.946
459.2800, 2259.958
460.4670, 2008.344
461.6550, 1780.470
462.8430, 1651.147
464.0300, 1431.040
465.2180, 1253.509
466.4050, 1083.950
467.5920, 967.4082
468.7790, 844.8867
469.9650, 702.2400
471.1520, 548.5627
472.3380, 537.8542
473.5250, 411.1133
474.7110, 292.3689
475.8970, 249.5623
477.0820, 300.7686
478.2680, 191.8933
479.4540, 171.9824
480.6390, 120.0356
481.8240, 49.05249
483.0090, 42.03198
484.1940, 56.97363
485.3780, 43.87671
486.5630, 3.259033
487.7470, 67.44067
488.9320, 3.305420
490.1160, 98.99463
491.3000, 54.38599
492.4830, 69.84937
493.6670, 59.39404
494.8500, 96.01685
496.0340, 83.73755
497.2170, 72.55249
498.4000, 85.45801
499.5820, 133.4622
500.7650, 108.5908
501.9480, 117.8333
503.1300, 73.19580
504.3120, 87.65869
505.4940, 59.23071
506.6760, 94.89917
507.8580, 92.68408
509.0390, 83.58618
510.2210, 65.60205
511.4020, 97.72437
512.5830, 107.9719
513.7640, 27.35156
514.9450, 113.8235
516.1250, 26.43384
517.3060, 90.13916
518.4860, 68.97363
519.6660, 61.92822
520.8460, 58.00000
522.0260, 75.18896
523.2060, 10.50537
524.3850, 49.91675
525.5650, 1.555176
526.7440, 88.06396
527.9230, 67.82275
529.1020, 20.71167
530.2810, 85.70728
531.4590, 89.84497
532.6380, 45.12769
533.8160, 82.53345
534.9940, 90.08252
536.1720, 102.7803
537.3500, 101.7758
538.5270, 43.35571
539.7050, 60.73804
540.8820, 5.031494
542.0590, 74.69800
543.2360, 4.710693
544.4130, 62.22900
545.5900, 44.11230
546.7660, 24.63428
547.9430, 27.49707
549.1190, 13.46753
550.2950, 0.4501950
551.4710, 20.25757
552.6470, 40.96338
553.8220, 63.57715
554.9980, 8.105957
556.1730, 22.52637
557.3480, 40.84448
558.5230, 22.06885
559.6980, 85.18994
560.8730, 121.2310
562.0470, 88.19946
563.2220, 11.08838
564.3960, 13.86743
565.5700, 26.53833
566.7440, 83.10645
567.9170, 35.59229
569.0910, 60.97949
570.2640, 84.27661
571.4380, 63.79248
572.6110, 56.61719
573.7840, 68.65186
574.9570, 44.59912
576.1290, 67.44995
577.3020, 60.85547
578.4740, 64.88672
579.6460, 73.47119
580.8180, 75.96973
581.9900, 105.3833
583.1620, 92.71924
584.3330, 110.9749
585.5040, 24.15405
586.6760, 57.22949
587.8470, 46.21484
589.0180, 114.1057
590.1880, 103.9216
591.3590, 113.6609
592.5290, 130.3257
593.7000, 115.9211
594.8700, 138.4395
596.0400, 102.8901
597.2090, 87.26587
598.3790, 87.56250
599.5490, 133.7805
600.7180, 178.9294
601.8870, 121.0151
603.0560, 157.0300
604.2250, 131.9792
605.3940, 184.8604
606.5620, 185.6777
607.7300, 170.4314
608.8990, 159.1216
610.0670, 189.7476
611.2350, 253.3113
612.4020, 200.8125
613.5700, 268.2517
614.7370, 166.6321
615.9050, 220.9504
617.0720, 159.2090
618.2390, 190.4060
619.4060, 234.5449
620.5720, 258.6245
621.7390, 223.6445
622.9050, 254.8242
624.0710, 233.5127
625.2370, 252.3613
626.4030, 237.1536
627.5690, 213.5164
628.7340, 334.9727
629.9000, 1056.367
631.0650, 259.7681
632.2300, 414.3928
633.3950, 1154.006
634.5600, 240.0085
635.7240, 226.7402
636.8890, 300.9824
638.0530, 271.6743
639.2170, 302.4106
640.3810, 235.1345
641.5450, 250.1208
642.7080, 207.3735
643.8720, 237.0525
645.0350, 207.6997
646.1980, 280.8303
647.3610, 236.6934
648.5240, 238.5117
649.6870, 308.6921
650.8490, 297.7588
652.0120, 279.7144
653.1740, 232.8381
654.3360, 293.6655
655.4980, 222.0574
656.6600, 250.6367
657.8210, 217.1660
658.9830, 242.8560
660.1440, 240.8235
661.3050, 259.8774
662.4660, 295.6968
663.6270, 256.3887
664.7870, 271.4934
665.9480, 236.6455
667.1080, 259.0701
668.2680, 270.6274
669.4280, 296.0095
670.5880, 325.1826
671.7480, 301.9714
672.9070, 333.4473
674.0670, 345.4597
675.2260, 260.8870
676.3850, 354.4114
677.5440, 320.8979
678.7030, 471.9912
679.8610, 465.8638
681.0200, 405.7754
682.1780, 414.7080
683.3360, 498.8386
684.4940, 415.2798
685.6520, 498.9048
686.8090, 519.5566
687.9670, 576.2529
689.1240, 624.4705
690.2810, 592.4983
691.4380, 727.6282
692.5950, 720.7246
693.7520, 683.6924
694.9080, 756.9734
696.0650, 735.0178
697.2210, 865.9106
698.3770, 919.8428
699.5330, 920.3118
700.6880, 949.5681
701.8440, 1025.056
702.9990, 1017.235
704.1550, 1151.549
705.3100, 1211.514
706.4650, 1248.744
707.6190, 1290.110
708.7740, 1301.534
709.9290, 1451.742
711.0830, 1439.243
712.2370, 1520.463
713.3910, 1639.124
714.5450, 1591.830
715.6980, 1664.438
716.8520, 1765.796
718.0050, 1806.308
719.1580, 1879.121
720.3110, 1929.023
721.4640, 1885.771
722.6170, 2025.199
723.7700, 2128.106
724.9220, 2098.907
726.0740, 2304.202
727.2260, 2258.072
728.3780, 2307.100
729.5300, 2439.909
730.6810, 2603.967
731.8330, 2589.377
732.9840, 2702.528
734.1350, 2697.081
735.2860, 2703.994
736.4370, 2944.532
737.5880, 2994.115
738.7380, 3093.710
739.8880, 3200.707
741.0390, 3268.180
742.1890, 3420.094
743.3380, 3447.787
744.4880, 3570.899
745.6380, 3673.031
746.7870, 3879.141
747.9360, 4057.223
749.0850, 4218.424
750.2340, 4410.649
751.3830, 4636.898
752.5310, 4853.939
753.6800, 5074.230
754.8280, 5363.515
755.9760, 5564.819
757.1240, 5868.731
758.2720, 6197.293
759.4190, 6458.755
760.5670, 6862.294
761.7140, 7329.074
762.8610, 7702.621
764.0080, 8445.605
765.1550, 9009.355
766.3020, 9745.981
767.4480, 10614.83
768.5950, 11415.60
769.7410, 12634.55
770.8870, 13698.93
772.0330, 15135.06
773.1780, 16692.11
774.3240, 18492.35
775.4690, 20410.63
776.6140, 22899.59
777.7590, 25316.84
778.9040, 28794.45
780.0490, 31719.87
781.1940, 35151.38
782.3380, 38949.96
783.4820, 42778.61
784.6260, 46076.34
785.7700, 49776.14
786.9140, 52796.03
788.0580, 54972.99
789.2010, 56493.02
790.3450, 57277.20
791.4880, 57316.32
792.6310, 56591.58
793.7730, 55116.92
794.9160, 52815.34
796.0590, 50376.82
797.2010, 46794.37
798.3430, 43700.02
799.4850, 40303.74
800.6270, 36970.54
801.7690, 33667.43
802.9100, 30455.39
804.0520, 27836.43
805.1930, 25350.54
806.3340, 23302.74
807.4750, 21253.79
808.6160, 19541.36
809.7560, 17824.81
810.8970, 16357.34
812.0370, 14980.96
813.1770, 13936.67
814.3170, 12898.49
815.4570, 11967.40
816.5960, 11012.36
817.7360, 10267.41
818.8750, 9515.527
820.0140, 8868.703
821.1530, 8466.952
822.2920, 7896.285
823.4310, 7466.684
824.5690, 7015.159
825.7070, 6700.699
826.8460, 6340.324
827.9840, 6022.025
829.1220, 5685.792
830.2590, 5387.641
831.3970, 5195.547
832.5340, 5023.529
833.6710, 4680.584
834.8080, 4602.701
835.9450, 4519.894
837.0820, 4245.151
838.2190, 4253.461
839.3550, 4165.827
840.4910, 4061.269
841.6270, 4212.788
842.7630, 4219.378
843.8990, 4438.028
845.0350, 4517.743
846.1700, 4748.521
847.3060, 4991.357
848.4410, 5007.256
849.5760, 5209.220
850.7100, 5279.245
851.8450, 5304.337
852.9800, 5090.494
854.1140, 5002.713
855.2480, 4731.994
856.3820, 4297.337
857.5160, 3967.738
858.6500, 3709.198
859.7830, 3212.714
860.9170, 2855.289
862.0500, 2519.934
863.1830, 2282.641
864.3160, 1920.418
865.4480, 1736.251
866.5810, 1406.142
867.7130, 1192.088
868.8460, 964.0916
869.9780, 821.1497
871.1100, 796.2612
872.2410, 643.4326
873.3730, 556.6633
874.5050, 521.9517
875.6360, 366.2939
876.7670, 320.6860
877.8980, 232.1318
879.0290, 167.6277
880.1590, 133.1792
881.2900, 102.7805
882.4200, 73.29150
883.5500, 124.1382
884.6800, 52.89697
885.8100, 64.70752
886.9400, 87.56812
888.0690, 45.52124
889.1990, 2.432617
890.3280, 21.56226
891.4570, 30.48877
892.5860, 44.32422
893.7140, 17.17871
894.8430, 1.2207000E-02
895.9710, 7.748779
897.1000, 81.68604
898.2280, 1.681885
899.3560, 36.93506
900.4830, 115.4097
901.6110, 6.050293
902.7380, 16.69189
903.8660, 68.29541
904.9930, 15.53687
906.1200, 40.91284
907.2460, 74.48071
908.3730, 106.7341
909.5000, 18.95605
910.6260, 16.77905
911.7520, 51.54321
912.8780, 47.64844
914.0040, 21.54883
915.1290, 41.37769
916.2550, 38.93164
917.3800, 24.55176
918.5050, 76.36743
919.6300, 68.54004
920.7550, 127.4768
921.8800, 96.93750
923.0040, 62.77905
924.1290, 117.1948
925.2530, 127.8577
926.3770, 142.0532
927.5010, 130.0146
928.6250, 207.4197
929.7480, 160.1245
930.8720, 234.6035
931.9950, 236.1157
933.1180, 278.8628
934.2410, 362.8376
935.3640, 288.1357
936.4860, 363.6550
937.6090, 353.4102
938.7310, 398.2288
939.8530, 360.0066
940.9750, 367.7937
942.0970, 474.6133
943.2180, 425.2158
944.3400, 379.5081
945.4610, 444.3523
946.5820, 511.2917
947.7030, 479.3811
948.8240, 503.1416
949.9450, 543.1667
951.0650, 527.5684
952.1860, 505.6660
953.3060, 553.4854
954.4260, 583.5791
955.5460, 622.5347
956.6650, 569.7524
957.7850, 607.1018
958.9040, 597.3271
960.0230, 572.1409
961.1420, 631.6240
962.2610, 547.9810
963.3800, 588.2947
964.4990, 586.1101
965.6170, 600.4639
966.7350, 636.2512
967.8530, 559.8247
968.9710, 551.2354
970.0890, 567.3477
971.2070, 567.7021
972.3240, 521.1675
973.4410, 544.9026
974.5580, 469.5505
975.6750, 568.0532
976.7920, 523.7751
977.9090, 484.4568
979.0250, 549.0930
980.1410, 442.9521
981.2580, 511.5449
982.3740, 389.5273
983.4890, 446.7744
984.6050, 439.4055
985.7200, 376.8108
986.8360, 371.2354
987.9510, 329.9639
989.0660, 390.6797
990.1810, 288.7361
991.2950, 322.4746
992.4100, 331.4458
993.5240, 255.1638
994.6390, 316.4939
995.7530, 274.4827
996.8660, 321.2434
997.9800, 316.2048
999.0940, 268.1860
1000.207, 251.5090
1001.320, 235.7651
1002.433, 274.1548
1003.546, 205.9795
1004.659, 214.1091
1005.772, 195.8333
1006.884, 123.1870
1007.996, 167.0308
1009.108, 112.2786
1010.220, 119.0845
1011.332, 96.96240
1012.444, 110.7734
1013.555, 102.9927
1014.666, 129.3308
1015.777, 83.72803
1016.888, 70.97070
1017.999, 32.81812
1019.110, 80.24243
1020.220, 28.41357
1021.331, 89.40918
1022.441, 28.77759
1023.551, 39.19287
1024.661, 48.80688
1025.770, 12.38257
1026.880, 24.62622
1027.989, 35.27026
1029.098, 27.16309
1030.207, 3.024902
1031.316, 19.51465
1032.425, 22.40698
1033.533, 9.964111
1034.642, 20.75171
1035.750, 23.97705
1036.858, 24.98730
1037.966, 68.88257
1039.073, 31.59058
1040.181, 22.05737
1041.288, 46.65015
1042.396, 18.47290
1043.503, 53.15063
1044.610, 52.70532
1045.716, 50.98438
1046.823, 60.21948
1047.929, 24.65845
1049.036, 34.52881
1050.142, 34.16943
1051.248, 36.16235
1052.353, 3.865723
1053.459, 35.34399
1054.564, 15.88867
1055.670, 30.62793
1056.775, 21.67554
1057.880, 15.47876
1058.985, 32.10107
1060.089, 8.695313
1061.194, 34.43994
1062.298, 21.99512
1063.402, 106.6990
1064.506, 5.277832
1065.610, 15.62695
1066.713, 21.45532
1067.817, 39.34741
1068.920, 24.63721
1070.023, 10.25049
1071.126, 10.02563
1072.229, 41.56567
1073.332, 67.53516
1074.435, 98.89575
1075.537, 1.247070
1076.639, 28.86499
1077.741, 20.02148
1078.843, 65.80127
1079.945, 13.69873
1081.046, 1.956787
1082.148, 73.73413
1083.249, 36.45190
1084.350, 53.02222
1085.451, 27.74170
1086.551, 22.28589
1087.652, 27.35767
1088.752, 55.80005
1089.853, 20.45435
1090.953, 94.09668
1092.053, 37.88843
1093.152, 2.334229
1094.252, 25.69922
1095.351, 78.97314
1096.451, 31.77417
1097.550, 84.44727
1098.649, 21.61890
1099.748, 27.79639
1100.846, 78.04395
1101.945, 18.38623
1103.043, 14.66211
1104.141, 92.81323
1105.239, 61.96899
1106.337, 34.15015
1107.434, 39.41943
1108.532, 34.94946
1109.629, 72.73779
1110.726, 77.91089
1111.823, 66.91235
1112.920, 127.6941
1114.017, 65.45190
1115.113, 57.36914
1116.210, 124.0691
1117.306, 54.84668
1118.402, 55.59570
1119.498, 88.30762
1120.593, 92.18652
1121.689, 73.79797
1122.784, 94.43384
1123.879, 81.24573
1124.974, 114.8755
1126.069, 68.51575
1127.164, 85.24158
1128.259, 103.8099
1129.353, 50.33203
1130.447, 90.82520
1131.541, 75.18042
1132.635, 140.6127
1133.729, 56.95837
1134.822, 109.1699
1135.916, 89.53931
1137.009, 64.84058
1138.102, 80.95935
1139.195, 115.1014
1140.288, 88.16089
1141.380, 130.2346
1142.473, 116.3307
1143.565, 133.3938
1144.657, 71.52515
1145.749, 124.6216
1146.841, 86.77979
1147.932, 95.74792
1149.024, 69.00403
1150.115, 87.92163
1151.206, 102.7855
1152.297, 116.6854
1153.388, 127.3840
1154.479, 90.34741
1155.569, 152.0123
1156.659, 164.6622
1157.750, 85.15833
1158.839, 151.8030
1159.929, 128.3240
1161.019, 132.8073
1162.108, 140.3386
1163.198, 128.8689
1164.287, 115.6860
1165.376, 131.9902
1166.465, 99.44763
1167.553, 57.99670
1168.642, 101.4171
1169.730, 70.70581
1170.818, 115.9209
1171.906, 150.4373
1172.994, 85.73389
1174.082, 182.9624
1175.170, 128.9266
1176.257, 172.5865
1177.344, 99.48108
1178.431, 88.78418
1179.518, 65.78906
1180.605, 170.2281
1181.691, 64.64941
1182.778, 133.7998
1183.864, 92.60583
1184.950, 134.7155
1186.036, 89.42773
1187.122, 104.7003
1188.207, 60.31433
1189.292, 87.74670
1190.378, 82.59790
1191.463, 119.1100
1192.548, 66.81274
1193.632, 56.25464
1194.717, 63.33618
1195.801, 114.9100
1196.886, 108.2578
1197.970, 88.42480
1199.054, 42.54150
1200.137, 57.33459
1201.221, 65.80273
1202.305, 37.20630
1203.388, 86.65234
1204.471, 48.99353
1205.554, 102.3495
1206.637, 62.88940
1207.719, 60.88159
1208.802, 85.18933
1209.884, 74.47876
1210.966, 40.55603
1212.048, 79.12451
1213.130, 84.30701
1214.212, 114.0703
1215.293, 79.13733
1216.374, 109.6443
1217.456, 39.78882
1218.536, 129.0106
1219.617, 73.27319
1220.698, 70.08752
1221.778, 52.16150
1222.859, 95.50635
1223.939, 103.1805
1225.019, 124.9788
1226.099, 124.8182
1227.178, 106.2137
1228.258, 132.1080
1229.337, 102.7627
1230.417, 77.36414
1231.496, 60.08997
1232.574, 62.13257
1233.653, 73.97668
1234.732, 67.82007
1235.810, 61.19763
1236.888, 45.69421
1237.966, 58.37866
1239.044, 44.89832
