##NAMES=Erythrite
##RRUFFID=R050073
##IDEAL CHEMISTRY=Co^2+^_3_(As^5+^O_4_)_2_&#183;8H_2_O
##LOCALITY=Bou Azzer, Morocco
##OWNER=RRUFF
##SOURCE=Rock Currier
##DESCRIPTION=Crimson flattened crystals
##STATUS=The identification of this mineral has been confirmed by X-ray diffraction and chemical analysis
##URL=rruff.info/R050073
##MEASURED CHEMISTRY=(Co_0.65_Mg_0.35_)_3_(As_1.00_O_4_)_2_Â·8H_2_O
##PIN_ID=M00098
##ORIENTATION=Laser parallel to (1 0 1). Fiducial mark perpendicular to laser is parallel to b [0 1 0]
93.48000, 0.0000000E+00
94.71400, 143.8389
95.94800, 183.9912
97.18200, 2.087891
98.41600, 32.03857
99.64900, 110.0107
100.8830, 32.14453
102.1160, 98.12354
103.3490, 386.7319
104.5820, 834.8296
105.8150, 1480.730
107.0470, 1977.894
108.2800, 2318.905
109.5120, 2592.461
110.7440, 1892.287
111.9760, 1657.128
113.2080, 1957.756
114.4400, 2423.967
115.6710, 2766.582
116.9030, 2848.449
118.1340, 2637.446
119.3650, 1943.500
120.5960, 1212.529
121.8270, 777.5122
123.0580, 456.5161
124.2880, 360.4653
125.5190, 149.2417
126.7490, 244.7456
127.9790, 252.8950
129.2090, 590.6182
130.4390, 722.8550
131.6680, 829.5449
132.8980, 1055.631
134.1270, 1408.073
135.3560, 1708.839
136.5850, 2267.900
137.8140, 2953.236
139.0430, 3818.825
140.2710, 4528.652
141.5000, 5449.622
142.7280, 6198.254
143.9560, 6978.334
145.1840, 7802.229
146.4120, 8530.617
147.6390, 9422.256
148.8670, 10240.58
150.0940, 11335.17
151.3210, 11905.95
152.5490, 11799.11
153.7750, 11271.17
155.0020, 9981.148
156.2290, 9243.058
157.4550, 8473.904
158.6810, 7825.687
159.9080, 7206.415
161.1340, 6606.097
162.3590, 5913.730
163.5850, 5199.323
164.8110, 4633.968
166.0360, 4042.398
167.2610, 3681.865
168.4860, 3562.216
169.7110, 3605.433
170.9360, 3777.570
172.1610, 3574.650
173.3850, 3572.695
174.6100, 3603.718
175.8340, 3506.729
177.0580, 3428.737
178.2820, 3417.440
179.5050, 3364.769
180.7290, 3286.803
181.9520, 3044.852
183.1760, 2836.921
184.3990, 2606.011
185.6220, 2273.124
186.8450, 2244.261
188.0670, 2227.421
189.2900, 2203.607
190.5120, 2419.618
191.7340, 2711.210
192.9560, 2897.853
194.1780, 3229.555
195.4000, 3516.000
196.6220, 3935.092
197.8430, 4176.213
199.0640, 4748.058
200.2860, 5148.262
201.5070, 5924.622
202.7270, 6075.736
203.9480, 6385.957
205.1690, 6010.560
206.3890, 6063.604
207.6090, 5987.663
208.8290, 6085.784
210.0490, 6247.784
211.2690, 6099.614
212.4890, 5843.489
213.7080, 5637.410
214.9280, 5211.371
216.1470, 4542.373
217.3660, 4200.412
218.5850, 3492.484
219.8030, 3243.591
221.0220, 2795.727
222.2400, 2524.890
223.4590, 2327.075
224.6770, 2232.276
225.8950, 2175.492
227.1120, 2053.719
228.3300, 2078.890
229.5480, 2152.228
230.7650, 2105.508
231.9820, 2100.808
233.1990, 2065.144
234.4160, 2088.498
235.6330, 1931.857
236.8490, 1721.225
238.0660, 1641.611
239.2820, 1610.018
240.4980, 1488.431
241.7140, 1393.748
242.9300, 1434.871
244.1460, 1479.604
245.3610, 1333.372
246.5770, 1535.447
247.7920, 1482.258
249.0070, 1722.853
250.2220, 1760.656
251.4370, 1928.655
252.6510, 2272.824
253.8660, 2353.146
255.0800, 2643.612
256.2940, 2817.205
257.5080, 2780.914
258.7220, 3181.729
259.9360, 3074.743
261.1490, 3438.641
262.3630, 2969.724
263.5760, 3006.886
264.7890, 2838.122
266.0020, 2789.429
267.2150, 2648.800
268.4270, 2424.230
269.6400, 2242.711
270.8520, 1922.237
272.0640, 1786.804
273.2760, 1464.418
274.4880, 1268.065
275.7000, 1033.750
276.9120, 821.4639
278.1230, 674.1074
279.3340, 486.0737
280.5450, 400.7700
281.7560, 248.5820
282.9670, 128.8896
284.1780, 162.2607
285.3880, 4.127441
286.5980, 14.99219
287.8090, 94.89795
289.0190, 109.1914
290.2290, 59.29688
291.4380, 6.387695
292.6480, 64.25488
293.8570, 64.48242
295.0670, 33.57324
296.2760, 5.374512
297.4850, 27.31152
298.6930, 89.28516
299.9020, 63.30078
301.1110, 54.34863
302.3190, 1.578613
303.5270, 25.50244
304.7350, 27.58350
305.9430, 8.691895
307.1510, 60.16309
308.3580, 46.01318
309.5660, 21.22559
310.7730, 125.5347
311.9800, 119.3291
313.1870, 121.1333
314.3940, 82.95801
315.6010, 161.8135
316.8070, 250.7139
318.0130, 233.6626
319.2200, 165.6743
320.4260, 124.7344
321.6310, 63.84375
322.8370, 89.98535
324.0430, 93.16162
325.2480, 19.38086
326.4540, 82.37598
327.6590, 201.1211
328.8640, 259.8540
330.0680, 224.5752
331.2730, 428.2827
332.4780, 445.9790
333.6820, 542.6611
334.8860, 465.3306
336.0900, 615.9790
337.2940, 557.5752
338.4980, 557.1338
339.7010, 922.6562
340.9050, 959.1504
342.1080, 1131.631
343.3110, 818.0977
344.5140, 543.5322
345.7170, 354.9502
346.9200, 399.3286
348.1220, 353.6431
349.3240, 367.8477
350.5270, 448.9409
351.7290, 464.8413
352.9310, 586.6167
354.1320, 628.3120
355.3340, 725.5020
356.5350, 845.7026
357.7370, 939.3096
358.9380, 1022.905
360.1390, 1159.690
361.3400, 1222.858
362.5400, 1280.200
363.7410, 1378.160
364.9410, 1578.861
366.1410, 1546.563
367.3410, 1596.110
368.5410, 1719.017
369.7410, 1702.077
370.9400, 1729.435
372.1400, 1826.091
373.3390, 1939.843
374.5380, 1875.263
375.7370, 1951.698
376.9360, 1866.270
378.1350, 1866.642
379.3330, 1958.744
380.5310, 1817.845
381.7300, 1945.971
382.9280, 2014.816
384.1260, 2029.488
385.3230, 1828.377
386.5210, 1906.037
387.7180, 1925.576
388.9160, 1972.027
390.1130, 1916.290
391.3100, 1912.628
392.5060, 1791.867
393.7030, 1770.091
394.9000, 1719.578
396.0960, 1709.738
397.2920, 1640.913
398.4880, 1531.929
399.6840, 1403.791
400.8800, 1494.839
402.0750, 1528.394
403.2710, 1507.403
404.4660, 1268.952
405.6610, 1311.421
406.8560, 1241.696
408.0510, 1248.956
409.2450, 1202.093
410.4400, 1232.040
411.6340, 1368.650
412.8280, 1344.667
414.0220, 1387.583
415.2160, 1513.416
416.4100, 1542.014
417.6030, 1730.792
418.7970, 1806.573
419.9900, 2010.296
421.1830, 2170.175
422.3760, 2426.841
423.5690, 2694.479
424.7610, 2989.087
425.9540, 3375.666
427.1460, 3625.261
428.3380, 4560.090
429.5300, 4494.562
430.7220, 4754.508
431.9140, 6018.635
433.1050, 5719.625
434.2970, 5952.813
435.4880, 6212.666
436.6790, 6697.983
437.8700, 6963.258
439.0610, 7141.436
440.2510, 7380.653
441.4420, 7345.890
442.6320, 7307.465
443.8220, 7212.423
445.0120, 7271.026
446.2020, 7174.217
447.3910, 6839.464
448.5810, 6870.775
449.7700, 6577.288
450.9600, 6264.363
452.1490, 6125.802
453.3370, 5820.591
454.5260, 5580.005
455.7150, 5271.229
456.9030, 5251.539
458.0910, 4844.501
459.2800, 4656.860
460.4670, 4321.375
461.6550, 4010.472
462.8430, 3762.803
464.0300, 3377.444
465.2180, 3045.203
466.4050, 2704.837
467.5920, 2472.118
468.7790, 2172.587
469.9650, 2003.224
471.1520, 1692.499
472.3380, 1526.739
473.5250, 1354.943
474.7110, 1308.110
475.8970, 1186.242
477.0820, 971.3389
478.2680, 907.3984
479.4540, 832.4224
480.6390, 735.4106
481.8240, 757.3638
483.0090, 598.2808
484.1940, 601.1631
485.3780, 527.0098
486.5630, 453.8213
487.7470, 484.5977
488.9320, 404.3394
490.1160, 284.0464
491.3000, 389.7178
492.4830, 298.3560
493.6670, 315.9600
494.8500, 214.5312
496.0340, 240.0703
497.2170, 154.5776
498.4000, 205.0508
499.5820, 205.4937
500.7650, 240.9043
501.9480, 144.2837
503.1300, 112.6289
504.3120, 101.9375
505.4940, 122.2070
506.6760, 144.4409
507.8580, 141.6421
509.0390, 86.81006
510.2210, 117.9370
511.4020, 66.02930
512.5830, 56.07520
513.7640, 133.0723
514.9450, 121.0366
516.1250, 174.9673
517.3060, 161.8667
518.4860, 130.7354
519.6660, 188.5713
520.8460, 53.37695
522.0260, 196.1362
523.2060, 48.86572
524.3850, 132.5469
525.5650, 101.1973
526.7440, 36.81348
527.9230, 145.3794
529.1020, 126.9146
530.2810, 61.41895
531.4590, 150.8818
532.6380, 14.31494
533.8160, 189.6895
534.9940, 169.0352
536.1720, 60.35107
537.3500, 101.6284
538.5270, 146.8740
539.7050, 62.09082
540.8820, 147.2700
542.0590, 143.4209
543.2360, 123.5430
544.4130, 129.6362
545.5900, 105.4126
546.7660, 102.7373
547.9430, 65.74512
549.1190, 54.71875
550.2950, 38.54150
551.4710, 42.55664
552.6470, 50.41895
553.8220, 86.24609
554.9980, 100.0459
556.1730, 138.8184
557.3480, 16.56494
558.5230, 131.2666
559.6980, 30.94287
560.8730, 206.5830
562.0470, 24.19727
563.2220, 545.7744
564.3960, 307.7427
565.5700, 467.8530
566.7440, 124.3564
567.9170, 77.83594
569.0910, 43.29004
570.2640, 85.71729
571.4380, 114.1216
572.6110, 3.506348
573.7840, 39.85010
574.9570, 44.80566
576.1290, 17.51270
577.3020, 72.26660
578.4740, 117.9180
579.6460, 32.91992
580.8180, 56.19678
581.9900, 154.7070
583.1620, 177.7275
584.3330, 137.8765
585.5040, 118.1318
586.6760, 39.48242
587.8470, 93.88232
589.0180, 103.3535
590.1880, 172.9092
591.3590, 212.5825
592.5290, 159.3774
593.7000, 135.2822
594.8700, 39.28271
596.0400, 129.2920
597.2090, 88.35645
598.3790, 16.45215
599.5490, 41.55078
600.7180, 120.6426
601.8870, 52.74414
603.0560, 39.82227
604.2250, 16.11279
605.3940, 11.92627
606.5620, 26.96143
607.7300, 6.927246
608.8990, 53.99658
610.0670, 63.98535
611.2350, 105.2866
612.4020, 124.9287
613.5700, 165.8833
614.7370, 180.8281
615.9050, 205.7627
617.0720, 106.6875
618.2390, 204.6025
619.4060, 266.5083
620.5720, 234.4053
621.7390, 368.2939
622.9050, 490.1748
624.0710, 214.0469
625.2370, 183.9121
626.4030, 266.7705
627.5690, 247.6221
628.7340, 291.4673
629.9000, 342.3066
631.0650, 332.6958
632.2300, 384.2549
633.3950, 333.7930
634.5600, 421.6128
635.7240, 400.4287
636.8890, 359.2412
638.0530, 425.9053
639.2170, 459.7119
640.3810, 579.5156
641.5450, 568.3174
642.7080, 570.9160
643.8720, 694.1191
645.0350, 585.1348
646.1980, 581.5190
647.3610, 593.1484
648.5240, 646.7642
649.6870, 599.5220
650.8490, 591.9062
652.0120, 552.1260
653.1740, 571.0332
654.3360, 535.6304
655.4980, 499.1187
656.6600, 517.9282
657.8210, 544.7095
658.9830, 501.3418
660.1440, 493.1606
661.3050, 443.2378
662.4660, 401.9443
663.6270, 399.0596
664.7870, 332.7798
665.9480, 333.2012
667.1080, 365.8472
668.2680, 322.8784
669.4280, 422.4072
670.5880, 332.0981
671.7480, 319.9746
672.9070, 402.7734
674.0670, 370.6704
675.2260, 358.5767
676.3850, 362.4702
677.5440, 328.1699
678.7030, 326.1050
679.8610, 322.1895
681.0200, 325.1455
682.1780, 318.0532
683.3360, 344.6470
684.4940, 300.0259
685.6520, 312.9253
686.8090, 291.3506
687.9670, 328.3438
689.1240, 309.6558
690.2810, 308.5420
691.4380, 386.6270
692.5950, 384.9985
693.7520, 401.3975
694.9080, 389.0601
696.0650, 398.2085
697.2210, 394.5942
698.3770, 362.7935
699.5330, 466.9785
700.6880, 513.2114
701.8440, 518.2783
702.9990, 464.5483
704.1550, 502.8350
705.3100, 482.1392
706.4650, 578.4619
707.6190, 574.7690
708.7740, 585.8311
709.9290, 674.2241
711.0830, 596.6421
712.2370, 614.3838
713.3910, 650.6143
714.5450, 706.5117
715.6980, 732.2129
716.8520, 639.5962
718.0050, 811.1748
719.1580, 733.2393
720.3110, 722.8647
721.4640, 828.5000
722.6170, 874.7954
723.7700, 766.7139
724.9220, 960.9795
726.0740, 979.3066
727.2260, 892.3481
728.3780, 948.9263
729.5300, 825.2573
730.6810, 876.2217
731.8330, 872.6572
732.9840, 928.7378
734.1350, 947.9951
735.2860, 1098.752
736.4370, 1210.242
737.5880, 1219.409
738.7380, 1302.066
739.8880, 1203.084
741.0390, 1324.414
742.1890, 1408.699
743.3380, 1382.157
744.4880, 1537.236
745.6380, 1613.721
746.7870, 1749.299
747.9360, 1770.933
749.0850, 1912.614
750.2340, 1969.347
751.3830, 2262.116
752.5310, 2226.922
753.6800, 2486.762
754.8280, 2613.637
755.9760, 2747.546
757.1240, 2954.490
758.2720, 3115.471
759.4190, 3391.485
760.5670, 3689.552
761.7140, 3963.655
762.8610, 4330.812
764.0080, 4649.005
765.1550, 5249.235
766.3020, 5478.501
767.4480, 6154.823
768.5950, 6858.189
769.7410, 7577.618
770.8870, 8336.092
772.0330, 9397.602
773.1780, 10555.17
774.3240, 11732.78
775.4690, 13082.45
776.6140, 15000.16
777.7590, 16980.92
778.9040, 18955.73
780.0490, 21616.57
781.1940, 24393.45
782.3380, 27466.38
783.4820, 30664.54
784.6260, 34296.34
785.7700, 37593.39
786.9140, 41072.49
788.0580, 44820.61
789.2010, 47588.79
790.3450, 49921.02
791.4880, 51947.28
792.6310, 53136.59
793.7730, 53149.93
794.9160, 53236.33
796.0590, 51870.75
797.2010, 50175.22
798.3430, 48025.73
799.4850, 45086.30
800.6270, 41895.89
801.7690, 38588.55
802.9100, 35268.23
804.0520, 31850.96
805.1930, 28466.87
806.3340, 25661.69
807.4750, 22969.54
808.6160, 20349.44
809.7560, 18266.37
810.8970, 16751.37
812.0370, 14706.40
813.1770, 13402.47
814.3170, 12108.59
815.4570, 10988.74
816.5960, 10052.34
817.7360, 9351.167
818.8750, 8583.441
820.0140, 7865.756
821.1530, 7521.107
822.2920, 7015.662
823.4310, 6599.092
824.5690, 6275.755
825.7070, 6000.267
826.8460, 5595.407
827.9840, 5361.002
829.1220, 4961.643
830.2590, 4888.051
831.3970, 4773.772
832.5340, 4394.530
833.6710, 4446.635
834.8080, 4094.376
835.9450, 4054.256
837.0820, 3775.189
838.2190, 3693.559
839.3550, 3594.560
840.4910, 3595.599
841.6270, 3617.673
842.7630, 3466.785
843.8990, 3534.932
845.0350, 3404.517
846.1700, 3588.206
847.3060, 3615.622
848.4410, 3694.915
849.5760, 3873.254
850.7100, 3669.543
851.8450, 3896.035
852.9800, 3886.430
854.1140, 3967.974
855.2480, 3785.925
856.3820, 3697.554
857.5160, 3619.114
858.6500, 3323.765
859.7830, 3056.333
860.9170, 2884.241
862.0500, 2555.235
863.1830, 2354.452
864.3160, 2124.097
865.4480, 1907.252
866.5810, 1717.521
867.7130, 1597.508
868.8460, 1376.189
869.9780, 1355.099
871.1100, 1290.107
872.2410, 1179.910
873.3730, 1061.574
874.5050, 1022.080
875.6360, 977.5679
876.7670, 920.1533
877.8980, 847.7031
879.0290, 816.5713
880.1590, 854.4668
881.2900, 798.0010
882.4200, 779.5552
883.5500, 649.2593
884.6800, 797.2871
885.8100, 863.1655
886.9400, 675.8115
888.0690, 756.9033
889.1990, 684.0225
890.3280, 769.1650
891.4570, 759.3315
892.5860, 762.5220
893.7140, 716.7358
894.8430, 709.9727
895.9710, 756.6538
897.1000, 830.1802
898.2280, 745.4937
899.3560, 656.8242
900.4830, 734.1855
901.6110, 729.5757
902.7380, 731.1152
903.8660, 749.7222
904.9930, 744.8574
906.1200, 739.9424
907.2460, 717.4263
908.3730, 705.9678
909.5000, 645.8213
910.6260, 639.9561
911.7520, 574.4648
912.8780, 602.9937
914.0040, 559.7759
915.1290, 554.5615
916.2550, 556.2349
917.3800, 473.9673
918.5050, 562.6396
919.6300, 433.3730
920.7550, 332.8252
921.8800, 333.5435
923.0040, 414.2759
924.1290, 474.0244
925.2530, 295.7861
926.3770, 263.7695
927.5010, 244.5586
928.6250, 279.3599
929.7480, 263.1729
930.8720, 191.1445
931.9950, 245.9028
933.1180, 115.8647
934.2410, 178.9331
935.3640, 75.80371
936.4860, 201.6846
937.6090, 132.6890
938.7310, 118.7041
939.8530, 12.38770
940.9750, 129.5298
942.0970, 132.4556
943.2180, 43.40869
944.3400, 64.35107
945.4610, 60.30078
946.5820, 43.25732
947.7030, 65.74902
948.8240, 8.189453
949.9450, 82.22705
951.0650, 135.3052
952.1860, 127.5996
953.3060, 61.28467
954.4260, 78.28223
955.5460, 68.28467
956.6650, 12.70850
957.7850, 86.30029
958.9040, 50.68750
960.0230, 28.51074
961.1420, 30.48340
962.2610, 43.51904
963.3800, 128.5249
964.4990, 81.46729
965.6170, 39.51611
966.7350, 85.50098
967.8530, 89.51318
968.9710, 35.55664
970.0890, 48.39062
971.2070, 2.337891
972.3240, 18.71533
973.4410, 46.22510
974.5580, 32.16504
975.6750, 39.10400
976.7920, 50.23926
977.9090, 61.02344
979.0250, 38.88867
980.1410, 16.20117
981.2580, 32.29883
982.3740, 25.58936
983.4890, 78.47510
984.6050, 44.63818
985.7200, 0.2255860
986.8360, 108.9165
987.9510, 35.88379
989.0660, 97.31982
990.1810, 49.42383
991.2950, 86.83740
992.4100, 17.14600
993.5240, 65.47021
994.6390, 67.16455
995.7530, 51.20752
996.8660, 52.61572
997.9800, 57.06104
999.0940, 99.45264
1000.207, 9.056641
1001.320, 4.450684
1002.433, 14.97607
1003.546, 48.51465
1004.659, 48.10596
1005.772, 90.23633
1006.884, 85.93604
1007.996, 65.70166
1009.108, 0.4790040
1010.220, 0.9399410
1011.332, 12.76758
1012.444, 26.71582
1013.555, 29.84814
1014.666, 8.923828
1015.777, 54.02197
1016.888, 38.96289
1017.999, 26.34326
1019.110, 38.43457
1020.220, 16.42383
1021.331, 97.25977
1022.441, 207.7656
1023.551, 245.5996
1024.661, 379.3887
1025.770, 282.3008
1026.880, 78.23291
1027.989, 101.9868
1029.098, 22.65234
1030.207, 39.04053
1031.316, 30.08545
1032.425, 81.99512
1033.533, 121.8853
1034.642, 68.54736
1035.750, 27.88916
1036.858, 6.795410
1037.966, 49.64160
1039.073, 11.98096
1040.181, 84.57178
1041.288, 22.02490
1042.396, 6.369141
1043.503, 24.12109
1044.610, 60.50781
1045.716, 17.32471
1046.823, 67.14844
1047.929, 69.67188
1049.036, 90.98633
1050.142, 85.93115
1051.248, 128.2148
1052.353, 43.36523
1053.459, 53.50635
1054.564, 124.8472
1055.670, 184.0645
1056.775, 192.4902
1057.880, 136.5244
1058.985, 83.64502
1060.089, 125.6328
1061.194, 144.4409
1062.298, 168.2266
1063.402, 50.98877
1064.506, 58.99365
1065.610, 104.8516
1066.713, 94.04883
1067.817, 155.6948
1068.920, 141.3169
1070.023, 111.9160
1071.126, 113.6304
1072.229, 243.1787
1073.332, 252.0093
1074.435, 210.5088
1075.537, 143.0034
1076.639, 193.7402
1077.741, 203.2109
1078.843, 180.6318
1079.945, 263.0278
1081.046, 273.3994
1082.148, 142.7510
1083.249, 136.2412
1084.350, 235.5405
1085.451, 281.8906
1086.551, 207.1387
1087.652, 233.4648
1088.752, 190.8125
1089.853, 238.8228
1090.953, 205.9697
1092.053, 124.8970
1093.152, 245.9917
1094.252, 250.4902
1095.351, 233.8818
1096.451, 286.8989
1097.550, 248.1611
1098.649, 191.1323
1099.748, 211.0698
1100.846, 227.7573
1101.945, 240.7886
1103.043, 181.6479
1104.141, 272.4688
1105.239, 267.8638
1106.337, 193.6719
1107.434, 188.4272
1108.532, 308.1553
1109.629, 223.8657
1110.726, 241.6172
1111.823, 237.2764
1112.920, 234.6416
1114.017, 233.3882
1115.113, 210.9668
1116.210, 243.6582
1117.306, 188.2710
1118.402, 224.7090
1119.498, 197.2676
1120.593, 288.9131
1121.689, 250.1968
1122.784, 230.0684
1123.879, 328.0337
1124.974, 261.5425
1126.069, 304.3706
1127.164, 234.9102
1128.259, 250.1650
1129.353, 192.3906
1130.447, 196.1001
1131.541, 141.2930
1132.635, 284.4297
1133.729, 271.9146
1134.822, 162.8643
1135.916, 203.5239
1137.009, 76.28467
1138.102, 241.2847
1139.195, 161.2803
1140.288, 145.4463
1141.380, 80.72168
1142.473, 108.0317
1143.565, 70.22412
1144.657, 135.1113
1145.749, 149.9805
1146.841, 210.4551
1147.932, 127.8149
1149.024, 10.05176
1150.115, 205.7983
1151.206, 137.6987
1152.297, 148.8345
1153.388, 35.73389
1154.479, 196.5269
1155.569, 135.3438
1156.659, 101.9790
1157.750, 100.0576
1158.839, 218.6313
1159.929, 43.47900
1161.019, 187.3994
1162.108, 88.67285
1163.198, 49.14551
1164.287, 6.334961
1165.376, 115.2046
1166.465, 172.5859
1167.553, 88.81641
1168.642, 107.1294
1169.730, 71.83936
1170.818, 69.49365
1171.906, 109.7734
1172.994, 6.157227
1174.082, 56.12305
1175.170, 31.82666
1176.257, 184.0835
1177.344, 36.52832
1178.431, 28.79541
1179.518, 52.74951
1180.605, 11.96191
1181.691, 50.03125
1182.778, 77.92041
1183.864, 71.90234
1184.950, 31.16113
1186.036, 43.30664
1187.122, 19.76367
1188.207, 74.24902
1189.292, 48.17871
1190.378, 73.87988
1191.463, 211.7676
1192.548, 124.6377
1193.632, 171.4893
1194.717, 44.17529
1195.801, 71.07080
1196.886, 16.75439
1197.970, 116.5591
1199.054, 113.3154
1200.137, 179.3452
1201.221, 75.95068
1202.305, 130.5859
1203.388, 23.27002
1204.471, 169.9326
1205.554, 164.1509
1206.637, 49.00977
1207.719, 106.8047
1208.802, 127.3970
1209.884, 166.9717
1210.966, 182.8174
1212.048, 172.1958
1213.130, 73.04639
1214.212, 149.4746
1215.293, 93.97754
1216.374, 120.6797
1217.456, 87.49268
1218.536, 76.25049
1219.617, 171.9009
1220.698, 127.3389
1221.778, 248.7593
1222.859, 134.2349
1223.939, 106.6294
1225.019, 32.07422
1226.099, 217.6802
1227.178, 147.0254
1228.258, 108.3682
1229.337, 134.6968
1230.417, 89.01025
1231.496, 98.50000
1232.574, 210.8018
1233.653, 125.0869
1234.732, 180.3936
1235.810, 101.6509
1236.888, 200.4287
1237.966, 186.7266
1239.044, 198.9839
1240.122, 15.33350
1241.199, 165.7773
1242.277, 60.95557
1243.354, 37.29541
1244.431, 176.4482
1245.508, 11.41260
1246.585, 149.7007
1247.661, 186.8086
1248.738, 137.0542
1249.814, 59.16113
1250.890, 50.25146
1251.966, 10.34961
1253.042, 8.055664
1254.117, 88.68506
1255.193, 46.85254
1256.268, 48.42725
1257.343, 107.4883
1258.418, 65.79004
1259.493, 95.85059
1260.567, 146.9126
1261.642, 133.8613
1262.716, 160.1455
1263.790, 80.18555
1264.864, 175.2344
1265.938, 62.43896
1267.011, 63.95508
1268.085, 138.9878
1269.158, 177.0337
1270.231, 87.08447
1271.304, 63.82422
1272.377, 133.7061
1273.450, 118.3555
1274.522, 103.3281
1275.594, 46.47412
