##NAMES=Erythrite
##RRUFFID=R050073
##IDEAL CHEMISTRY=Co^2+^_3_(As^5+^O_4_)_2_&#183;8H_2_O
##LOCALITY=Bou Azzer, Morocco
##OWNER=RRUFF
##SOURCE=Rock Currier
##DESCRIPTION=Crimson flattened crystals
##STATUS=The identification of this mineral has been confirmed by X-ray diffraction and chemical analysis
##URL=rruff.info/R050073
##MEASURED CHEMISTRY=(Co_0.65_Mg_0.35_)_3_(As_1.00_O_4_)_2_Â·8H_2_O
##PIN_ID=M00408
##ORIENTATION=Laser parallel to a* (1 0 0). Fiducial mark perpendicular to laser is parallel to b [0 1 0]
93.48000, 0.0000000E+00
94.71400, 39.47070
95.94800, 136.6289
97.18200, 95.50195
98.41600, 264.2881
99.64900, 485.0664
100.8830, 147.7090
102.1160, 31.70996
103.3490, 392.3027
104.5820, 782.2500
105.8150, 1524.857
107.0470, 2142.878
108.2800, 2828.680
109.5120, 3668.576
110.7440, 2360.343
111.9760, 1365.947
113.2080, 1458.898
114.4400, 2089.527
115.6710, 2450.067
116.9030, 2183.002
118.1340, 1926.295
119.3650, 1129.911
120.5960, 782.8379
121.8270, 541.1074
123.0580, 169.8174
124.2880, 99.93164
125.5190, 44.05176
126.7490, 5.448242
127.9790, 255.1748
129.2090, 293.1016
130.4390, 463.2080
131.6680, 311.4854
132.8980, 22.91406
134.1270, 44.52344
135.3560, 198.1611
136.5850, 267.9600
137.8140, 501.8623
139.0430, 730.8594
140.2710, 654.9414
141.5000, 262.0996
142.7280, 314.3311
143.9560, 480.6318
145.1840, 660.0137
146.4120, 881.5801
147.6390, 1034.486
148.8670, 886.8252
150.0940, 1026.616
151.3210, 1343.767
152.5490, 1891.904
153.7750, 2093.014
155.0020, 2188.101
156.2290, 2276.164
157.4550, 1925.204
158.6810, 1699.226
159.9080, 1305.231
161.1340, 1097.225
162.3590, 972.2061
163.5850, 858.1797
164.8110, 809.1572
166.0360, 1106.108
167.2610, 855.0947
168.4860, 905.1543
169.7110, 1064.227
170.9360, 780.2881
172.1610, 655.2461
173.3850, 548.2080
174.6100, 484.1777
175.8340, 463.0439
177.0580, 477.7510
178.2820, 511.0879
179.5050, 570.0586
180.7290, 651.0332
181.9520, 662.0098
183.1760, 855.9482
184.3990, 829.8428
185.6220, 1102.749
186.8450, 1258.659
188.0670, 1593.526
189.2900, 1804.407
190.5120, 2149.304
191.7340, 2455.215
192.9560, 2691.145
194.1780, 2943.089
195.4000, 2908.050
196.6220, 3086.930
197.8430, 3121.050
199.0640, 3245.820
200.2860, 3404.991
201.5070, 3951.092
202.7270, 3958.306
203.9480, 3234.894
205.1690, 2109.590
206.3890, 1393.573
207.6090, 1155.198
208.8290, 1160.644
210.0490, 1279.014
211.2690, 1302.755
212.4890, 1423.408
213.7080, 1415.975
214.9280, 1474.773
216.1470, 1345.402
217.3660, 1370.172
218.5850, 1423.862
219.8030, 1436.652
221.0220, 1506.052
222.2400, 1669.107
223.4590, 1844.058
224.6770, 2030.729
225.8950, 2364.570
227.1120, 2745.435
228.3300, 3096.319
229.5480, 3491.223
230.7650, 4022.146
231.9820, 4548.092
233.1990, 5353.051
234.4160, 5859.031
235.6330, 6427.029
236.8490, 6953.406
238.0660, 7439.080
239.2820, 7812.130
240.4980, 8098.812
241.7140, 8418.347
242.9300, 8657.028
244.1460, 8441.714
245.3610, 8037.688
246.5770, 7341.089
247.7920, 6593.487
249.0070, 5705.607
250.2220, 4873.015
251.4370, 4405.414
252.6510, 4042.812
253.8660, 3804.217
255.0800, 3474.616
256.2940, 3619.834
257.5080, 3496.025
258.7220, 3941.250
259.9360, 3547.582
261.1490, 3934.614
262.3630, 2990.794
263.5760, 2578.010
264.7890, 2413.260
266.0020, 2169.541
267.2150, 1990.854
268.4270, 1848.195
269.6400, 1786.158
270.8520, 1699.828
272.0640, 1271.892
273.2760, 1021.708
274.4880, 1005.175
275.7000, 966.6621
276.9120, 1076.170
278.1230, 752.6973
279.3340, 668.1250
280.5450, 500.1143
281.7560, 504.6133
282.9670, 330.2158
284.1780, 480.8350
285.3880, 270.4717
286.5980, 306.1250
287.8090, 281.7949
289.0190, 180.4785
290.2290, 164.1787
291.4380, 166.8936
292.6480, 165.6211
293.8570, 179.3613
295.0670, 109.1133
296.2760, 98.87207
297.4850, 143.6396
298.6930, 16.58203
299.9020, 19.21289
301.1110, 97.02734
302.3190, 119.1367
303.5270, 44.69531
304.7350, 39.45703
305.9430, 9.427734
307.1510, 99.64941
308.3580, 56.70215
309.5660, 104.6904
310.7730, 13.33691
311.9800, 53.60254
313.1870, 88.50879
314.3940, 73.40723
315.6010, 96.30957
316.8070, 95.21680
318.0130, 23.12305
319.2200, 135.0146
320.4260, 62.91504
321.6310, 53.18750
322.8370, 200.3115
324.0430, 116.6484
325.2480, 19.40918
326.4540, 41.74316
327.6590, 1.076172
328.8640, 159.1123
330.0680, 7.318359
331.2730, 109.5596
332.4780, 134.8057
333.6820, 6.9335997E-02
334.8860, 109.3398
336.0900, 141.6162
337.2940, 237.8984
338.4980, 57.18555
339.7010, 6.477539
340.9050, 154.7744
342.1080, 105.0713
343.3110, 282.3896
344.5140, 138.6738
345.7170, 43.95117
346.9200, 54.18652
348.1220, 43.59375
349.3240, 221.5664
350.5270, 199.6924
351.7290, 257.7920
352.9310, 433.8389
354.1320, 443.8906
355.3340, 580.9453
356.5350, 520.0039
357.7370, 721.0674
358.9380, 790.1367
360.1390, 1014.210
361.3400, 1024.287
362.5400, 1171.370
363.7410, 1331.457
364.9410, 1519.548
366.1410, 1691.924
367.3410, 1886.703
368.5410, 2065.845
369.7410, 2257.952
370.9400, 2438.062
372.1400, 2564.175
373.3390, 2633.290
374.5380, 2887.409
375.7370, 3045.530
376.9360, 3402.654
378.1350, 3558.781
379.3330, 3687.910
380.5310, 3951.041
381.7300, 4119.705
382.9280, 4253.311
384.1260, 4554.444
385.3230, 4845.572
386.5210, 5082.686
387.7180, 5523.796
388.9160, 5452.904
390.1130, 5840.015
391.3100, 6156.124
392.5060, 6249.240
393.7030, 6422.890
394.9000, 6550.031
396.0960, 6719.172
397.2920, 6874.312
398.4880, 6773.451
399.6840, 7166.590
400.8800, 7051.739
402.0750, 6893.906
403.2710, 6566.073
404.4660, 6499.250
405.6610, 6329.450
406.8560, 5984.656
408.0510, 5720.873
409.2450, 5608.107
410.4400, 5455.344
411.6340, 5361.601
412.8280, 5200.889
414.0220, 5298.203
415.2160, 5216.521
416.4100, 5419.863
417.6030, 5474.229
418.7970, 5464.609
419.9900, 5921.008
421.1830, 6176.423
422.3760, 6483.861
423.5690, 6873.316
424.7610, 7342.783
425.9540, 7832.494
427.1460, 8456.716
428.3380, 9009.195
429.5300, 9674.668
430.7220, 10396.14
431.9140, 11022.60
433.1050, 11589.40
434.2970, 12109.52
435.4880, 12654.97
436.6790, 13007.41
437.8700, 13533.85
439.0610, 13462.28
440.2510, 13397.00
441.4420, 12947.44
442.6320, 12623.95
443.8220, 12202.96
445.0120, 11661.61
446.2020, 11048.29
447.3910, 10263.73
448.5810, 9737.750
449.7700, 9114.608
450.9600, 8531.916
452.1490, 8028.330
453.3370, 7404.514
454.5260, 6890.920
455.7150, 6477.448
456.9030, 5848.916
458.0910, 5586.124
459.2800, 4907.881
460.4670, 4696.526
461.6550, 4283.461
462.8430, 3932.903
464.0300, 3455.744
465.2180, 2962.026
466.4050, 2889.447
467.5920, 2431.684
468.7790, 2206.619
469.9650, 2026.756
471.1520, 1758.342
472.3380, 1597.836
473.5250, 1489.594
474.7110, 1321.403
475.8970, 1305.497
477.0820, 1152.966
478.2680, 1014.046
479.4540, 1056.112
480.6390, 908.1631
481.8240, 811.1992
483.0090, 670.1426
484.1940, 656.6992
485.3780, 646.2988
486.5630, 613.5938
487.7470, 617.6523
488.9320, 599.4971
490.1160, 592.4258
491.3000, 571.3379
492.4830, 506.2363
493.6670, 423.1191
494.8500, 380.9883
496.0340, 363.7812
497.2170, 344.0195
498.4000, 350.5039
499.5820, 352.3135
500.7650, 316.1074
501.9480, 308.8877
503.1300, 344.6523
504.3120, 350.4023
505.4940, 266.1367
506.6760, 267.8555
507.8580, 237.6104
509.0390, 179.1494
510.2210, 204.9229
511.4020, 209.5801
512.5830, 217.9551
513.7640, 110.8525
514.9450, 212.4658
516.1250, 162.0625
517.3060, 151.6436
518.4860, 182.2109
519.6660, 155.1807
520.8460, 338.2969
522.0260, 81.81738
523.2060, 277.3213
524.3850, 102.8105
525.5650, 125.2842
526.7440, 68.74219
527.9230, 88.18359
529.1020, 156.6104
530.2810, 261.0215
531.4590, 188.4180
532.6380, 73.79785
533.8160, 122.1631
534.9940, 28.51270
536.1720, 99.84082
537.3500, 228.1543
538.5270, 162.4512
539.7050, 128.7334
540.8820, 110.0039
542.0590, 184.3789
543.2360, 140.6582
544.4130, 72.07129
545.5900, 206.3252
546.7660, 211.5410
547.9430, 216.7422
549.1190, 280.2285
550.2950, 159.0303
551.4710, 231.4336
552.6470, 221.5723
553.8220, 404.7754
554.9980, 281.6113
556.1730, 207.9062
557.3480, 324.3750
558.5230, 318.5332
559.6980, 411.0830
560.8730, 304.0586
562.0470, 202.3799
563.2220, 342.2920
564.3960, 338.7676
565.5700, 372.7246
566.7440, 368.6104
567.9170, 241.0879
569.0910, 401.0146
570.2640, 223.8428
571.4380, 362.6514
572.6110, 296.4414
573.7840, 195.2129
574.9570, 234.9648
576.1290, 306.6973
577.3020, 231.4111
578.4740, 174.1074
579.6460, 126.7832
580.8180, 83.44141
581.9900, 53.30859
583.1620, 12.68652
584.3330, 12.75195
585.5040, 3.006836
586.6760, 3.750000
587.8470, 23.70020
589.0180, 76.88672
590.1880, 68.55566
591.3590, 92.30859
592.5290, 211.1357
593.7000, 65.11035
594.8700, 48.14160
596.0400, 85.24609
597.2090, 24.42871
598.3790, 30.34863
599.5490, 9.113281
600.7180, 5.141602
601.8870, 5.539063
603.0560, 11.94629
604.2250, 4.931641
605.3940, 5.425781
606.5620, 27.17188
607.7300, 74.74121
608.8990, 19.29492
610.0670, 39.17578
611.2350, 40.29395
612.4020, 0.7441410
613.5700, 63.84277
614.7370, 67.49902
615.9050, 2.829102
617.0720, 36.12402
618.2390, 90.10254
619.4060, 75.71875
620.5720, 137.9238
621.7390, 106.1670
622.9050, 55.40039
624.0710, 44.62305
625.2370, 26.16699
626.4030, 102.0000
627.5690, 103.1592
628.7340, 113.3086
629.9000, 104.4502
631.0650, 63.58301
632.2300, 162.7070
633.3950, 58.82422
634.5600, 223.9336
635.7240, 220.0371
636.8890, 197.1318
638.0530, 180.2188
639.2170, 166.3018
640.3810, 251.3770
641.5450, 249.4473
642.7080, 221.5117
643.8720, 269.5713
645.0350, 404.6270
646.1980, 339.6768
647.3610, 370.7227
648.5240, 198.7637
649.6870, 412.8027
650.8490, 297.8369
652.0120, 401.8691
653.1740, 366.8975
654.3360, 244.9229
655.4980, 390.9453
656.6600, 261.9668
657.8210, 308.9863
658.9830, 352.0039
660.1440, 329.0205
661.3050, 299.0361
662.4660, 145.0508
663.6270, 238.0654
664.7870, 211.0791
665.9480, 336.0947
667.1080, 178.1045
668.2680, 256.1211
669.4280, 171.1377
670.5880, 187.1553
671.7480, 144.1758
672.9070, 67.19629
674.0670, 36.22070
675.2260, 39.73926
676.3850, 69.76855
677.5440, 14.80176
678.7030, 48.83691
679.8610, 6.877930
681.0200, 49.07812
682.1780, 67.05176
683.3360, 5.050781
684.4940, 50.04980
685.6520, 106.0625
686.8090, 30.11719
687.9670, 58.17773
689.1240, 84.25684
690.2810, 10.36328
691.4380, 111.4658
692.5950, 148.6104
693.7520, 126.8115
694.9080, 10.05664
696.0650, 45.29785
697.2210, 100.5469
698.3770, 90.82520
699.5330, 100.1299
700.6880, 108.0430
701.8440, 138.8271
702.9990, 75.23438
704.1550, 0.3427730
705.3100, 73.92773
706.4650, 79.47363
707.6190, 68.89062
708.7740, 71.68359
709.9290, 30.26953
711.0830, 121.8691
712.2370, 263.4824
713.3910, 21.10938
714.5450, 204.7500
715.6980, 207.4043
716.8520, 217.0732
718.0050, 127.7578
719.1580, 170.4580
720.3110, 259.8838
721.4640, 250.5996
722.6170, 320.6152
723.7700, 434.6787
724.9220, 373.2158
726.0740, 258.3770
727.2260, 183.1484
728.3780, 226.8203
729.5300, 338.0674
730.6810, 363.8809
731.8330, 228.2969
732.9840, 419.9414
734.1350, 505.7197
735.2860, 508.2383
736.4370, 677.6465
737.5880, 565.2734
738.7380, 737.9238
739.8880, 681.7686
741.0390, 792.3594
742.1890, 794.9492
743.3380, 851.6777
744.4880, 955.6631
745.6380, 957.9775
746.7870, 1152.215
747.9360, 1095.117
749.0850, 1154.544
750.2340, 1386.347
751.3830, 1512.451
752.5310, 1505.591
753.6800, 1690.141
754.8280, 1645.723
755.9760, 2098.890
757.1240, 2105.644
758.2720, 2153.441
759.4190, 2457.304
760.5670, 2592.227
761.7140, 2786.176
762.8610, 3113.092
764.0080, 3434.829
765.1550, 3572.003
766.3020, 4089.238
767.4480, 4352.518
768.5950, 4750.832
769.7410, 5134.183
770.8870, 5820.571
772.0330, 6664.996
773.1780, 7224.479
774.3240, 7911.013
775.4690, 8917.603
776.6140, 9733.229
777.7590, 11014.90
778.9040, 12627.60
780.0490, 14118.36
781.1940, 15553.16
782.3380, 17778.01
783.4820, 20040.90
784.6260, 22137.84
785.7700, 24817.81
786.9140, 27622.82
788.0580, 30643.88
789.2010, 33612.98
790.3450, 37309.12
791.4880, 40151.29
792.6310, 42932.53
793.7730, 45520.79
794.9160, 47444.12
796.0590, 49025.46
797.2010, 49780.86
798.3430, 50222.29
799.4850, 49769.79
800.6270, 49161.31
801.7690, 47616.88
802.9100, 45941.49
804.0520, 43704.15
805.1930, 41228.86
806.3340, 38711.60
807.4750, 36261.39
808.6160, 33658.23
809.7560, 31221.11
810.8970, 28949.03
812.0370, 26839.00
813.1770, 24508.03
814.3170, 22307.10
815.4570, 20660.24
816.5960, 18848.44
817.7360, 17185.69
818.8750, 15772.86
820.0140, 14798.16
821.1530, 13672.36
822.2920, 12750.74
823.4310, 11830.19
824.5690, 11128.69
825.7070, 10745.95
826.8460, 10197.92
827.9840, 9958.326
829.1220, 9556.026
830.2590, 9525.692
831.3970, 9598.761
832.5340, 9602.400
833.6710, 9542.903
834.8080, 9607.741
835.9450, 9697.224
837.0820, 10175.31
838.2190, 10551.09
839.3550, 10925.31
840.4910, 11772.99
841.6270, 12438.23
842.7630, 13281.57
843.8990, 14455.36
845.0350, 15831.74
846.1700, 17406.23
847.3060, 19061.79
848.4410, 21364.40
849.5760, 23766.06
850.7100, 26131.78
851.8450, 29127.54
852.9800, 32470.37
854.1140, 35478.24
855.2480, 38546.17
856.3820, 41774.15
857.5160, 44905.19
858.6500, 47222.29
859.7830, 49538.45
860.9170, 50893.67
862.0500, 51817.97
863.1830, 51883.34
864.3160, 51280.77
865.4480, 49792.29
866.5810, 47948.89
867.7130, 45642.60
868.8460, 42868.43
869.9780, 39266.49
871.1100, 35833.48
872.2410, 32273.66
873.3730, 29044.92
874.5050, 25817.42
875.6360, 23423.70
876.7670, 20795.05
877.8980, 18684.29
879.0290, 17010.95
880.1590, 15417.49
881.2900, 14111.10
882.4200, 13066.31
883.5500, 11868.11
884.6800, 11355.90
885.8100, 10591.76
886.9400, 9960.685
888.0690, 9446.670
889.1990, 8823.307
890.3280, 8538.958
891.4570, 7977.932
892.5860, 7653.377
893.7140, 7439.488
894.8430, 7168.792
895.9710, 6981.808
897.1000, 6710.987
898.2280, 6501.584
899.3560, 6143.553
900.4830, 5992.709
901.6110, 5754.018
902.7380, 5507.084
903.8660, 5304.822
904.9930, 5084.566
906.1200, 4836.432
907.2460, 4702.324
908.3730, 4587.576
909.5000, 4448.442
910.6260, 4093.239
911.7520, 3974.340
912.8780, 3720.492
914.0040, 3652.703
915.1290, 3256.561
916.2550, 3347.854
917.3800, 3073.190
918.5050, 2845.682
919.6300, 2786.097
920.7550, 2634.555
921.8800, 2518.051
923.0040, 2264.589
924.1290, 2200.168
925.2530, 2015.786
926.3770, 1994.450
927.5010, 1908.612
928.6250, 1725.363
929.7480, 1635.402
930.8720, 1767.025
931.9950, 1405.931
933.1180, 1379.155
934.2410, 1416.146
935.3640, 1168.182
936.4860, 1108.263
937.6090, 1276.383
938.7310, 1209.542
939.8530, 1150.756
940.9750, 950.9980
942.0970, 1060.275
943.2180, 1012.590
944.3400, 963.9395
945.4610, 920.3242
946.5820, 830.7432
947.7030, 730.3311
948.8240, 733.7607
949.9450, 857.1953
951.0650, 903.6816
952.1860, 839.6279
953.3060, 692.2900
954.4260, 637.9600
955.5460, 762.6748
956.6650, 647.4229
957.7850, 742.2119
958.9040, 682.0527
960.0230, 611.4980
961.1420, 620.4170
962.2610, 424.3818
963.3800, 541.3770
964.4990, 601.4229
965.6170, 405.5293
966.7350, 512.6895
967.8530, 408.8809
968.9710, 358.1064
970.0890, 426.3779
971.2070, 575.6924
972.3240, 337.0518
973.4410, 353.4570
974.5580, 417.9160
975.6750, 326.4102
976.7920, 369.9297
977.9090, 228.4727
979.0250, 162.2900
980.1410, 325.9082
981.2580, 333.5479
982.3740, 202.2109
983.4890, 326.9004
984.6050, 237.6104
985.7200, 210.3408
986.8360, 175.0928
987.9510, 123.0938
989.0660, 247.6572
990.1810, 118.4717
991.2950, 44.30469
992.4100, 189.1582
993.5240, 224.0303
994.6390, 99.91992
995.7530, 134.8262
996.8660, 38.75000
997.9800, 99.69043
999.0940, 49.64648
1000.207, 143.6182
1001.320, 177.6064
1002.433, 122.7109
1003.546, 6.265625
1004.659, 195.7676
1005.772, 3.187500
1006.884, 2.133789
1007.996, 11.07031
1009.108, 125.9990
1010.220, 35.07910
1011.332, 91.64062
1012.444, 4.565430
1013.555, 92.48438
1014.666, 109.3652
1015.777, 61.16113
1016.888, 28.12402
1017.999, 52.86719
1019.110, 13.20703
1020.220, 42.21094
1021.331, 21.06348
1022.441, 228.8047
1023.551, 90.80762
1024.661, 229.1406
1025.770, 64.19922
1026.880, 36.07715
1027.989, 128.7617
1029.098, 104.7031
1030.207, 31.66016
1031.316, 144.4717
1032.425, 97.61328
1033.533, 165.9531
1034.642, 99.31445
1035.750, 19.91113
1036.858, 23.86035
1037.966, 56.12793
1039.073, 25.79883
1040.181, 105.0879
1041.288, 68.39941
1042.396, 42.01465
1043.503, 56.88379
1044.610, 144.5635
1045.716, 24.12793
1046.823, 205.0381
1047.929, 45.76074
1049.036, 345.6768
1050.142, 224.3584
1051.248, 34.48828
1052.353, 106.8203
1053.459, 48.14648
1054.564, 39.25000
1055.670, 177.2100
1056.775, 112.2041
1057.880, 55.72852
1058.985, 155.4639
1060.089, 1.441406
1061.194, 107.0869
1062.298, 153.9609
1063.402, 100.6055
1064.506, 268.2539
1065.610, 37.31836
1066.713, 186.0547
1067.817, 180.5420
1068.920, 166.1895
1070.023, 147.8066
1071.126, 274.1133
1072.229, 59.24023
1073.332, 185.9424
1074.435, 70.47559
1075.537, 191.3516
1076.639, 81.91406
1077.741, 74.88867
1078.843, 77.23828
1079.945, 10.84668
1081.046, 36.20410
1082.148, 7.8130001E-03
1083.249, 15.26758
1084.350, 57.70410
1085.451, 76.12402
1086.551, 170.8594
1087.652, 188.7266
1088.752, 159.4873
1089.853, 144.0527
1090.953, 153.5996
1092.053, 14.69629
1093.152, 142.1797
1094.252, 115.6445
1095.351, 198.0859
1096.451, 305.5059
1097.550, 193.9395
1098.649, 272.3203
1099.748, 220.4746
1100.846, 241.8213
1101.945, 243.1299
1103.043, 251.2783
1104.141, 270.2529
1105.239, 288.5234
1106.337, 274.9385
1107.434, 271.1963
1108.532, 209.3604
1109.629, 181.4990
1110.726, 102.7305
1111.823, 272.1299
1112.920, 286.2148
1114.017, 370.6973
1115.113, 337.5977
1116.210, 417.5977
1117.306, 607.5723
1118.402, 445.5176
1119.498, 869.6650
1120.593, 799.3193
1121.689, 801.3340
1122.784, 853.4834
1123.879, 960.4951
1124.974, 896.5283
1126.069, 857.4580
1127.164, 859.1758
1128.259, 783.9395
1129.353, 538.5967
1130.447, 544.2236
1131.541, 224.2021
1132.635, 225.5615
1133.729, 159.6787
1134.822, 210.1846
1135.916, 201.5840
1137.009, 202.9766
1138.102, 246.3037
1139.195, 243.9756
1140.288, 274.4824
1141.380, 374.4375
1142.473, 162.8926
1143.565, 319.6436
1144.657, 105.1309
1145.749, 184.7510
1146.841, 155.9307
1147.932, 187.5410
1149.024, 277.5762
1150.115, 139.6465
1151.206, 207.6816
1152.297, 107.9521
1153.388, 179.2773
1154.479, 175.6318
1155.569, 98.27734
1156.659, 141.3750
1157.750, 113.9814
1158.839, 96.79004
1159.929, 106.8750
1161.019, 99.95312
1162.108, 41.20605
1163.198, 118.7236
1164.287, 101.2744
1165.376, 101.5977
1166.465, 38.46680
1167.553, 24.10742
1168.642, 142.5596
1169.730, 80.99023
1170.818, 34.62109
1171.906, 113.6963
1172.994, 147.9902
1174.082, 15.35352
1175.170, 82.98242
1176.257, 84.24609
1177.344, 53.66016
1178.431, 180.3604
1179.518, 93.14258
1180.605, 66.09961
1181.691, 171.5674
1182.778, 111.3496
1183.864, 107.5723
1184.950, 165.4844
1186.036, 42.46875
1187.122, 99.23340
1188.207, 144.1445
1189.292, 10.84375
1190.378, 41.60547
1191.463, 11.80078
1192.548, 42.18555
1193.632, 11.66797
1194.717, 22.87988
1195.801, 33.96094
1196.886, 8.452148
1197.970, 18.56250
1199.054, 3.181641
1200.137, 36.24121
1201.221, 94.40332
1202.305, 127.5312
1203.388, 9.395508
1204.471, 65.64062
1205.554, 293.6484
1206.637, 61.62891
1207.719, 107.9834
1208.802, 277.8994
1209.884, 151.0098
1210.966, 72.78906
1212.048, 168.6523
1213.130, 98.34375
1214.212, 130.5020
1215.293, 8.139648
1216.374, 27.08594
1217.456, 114.7295
1218.536, 136.6660
1219.617, 320.3574
1220.698, 259.7354
1221.778, 71.54883
1222.859, 229.4570
1223.939, 179.9023
1225.019, 249.3574
1226.099, 192.7393
1227.178, 174.3896
1228.258, 82.70996
1229.337, 105.1230
1230.417, 180.3730
1231.496, 219.6670
1232.574, 83.85254
1233.653, 161.0029
1234.732, 178.4922
1235.810, 138.5791
1236.888, 170.6914
1237.966, 210.9219
1239.044, 198.0869
1240.122, 160.5957
1241.199, 15.51172
1242.277, 184.3984
1243.354, 89.57422
1244.431, 42.39355
1245.508, 223.8896
1246.585, 235.8701
1247.661, 321.6045
1248.738, 139.8330
1249.814, 54.48340
1250.890, 158.5977
1251.966, 120.3047
1253.042, 145.8496
1254.117, 134.3623
1255.193, 151.8906
1256.268, 253.2861
1257.343, 177.7002
1258.418, 244.0850
1259.493, 212.4385
1260.567, 105.1396
1261.642, 50.43066
1262.716, 1.055664
1263.790, 213.5000
1264.864, 331.1631
1265.938, 509.8828
1267.011, 447.0303
1268.085, 187.2383
1269.158, 243.2900
1270.231, 117.3516
1271.304, 9.646484
1272.377, 126.1143
1273.450, 100.0361
1274.522, 99.25977
