##NAMES=Euclase
##RRUFFID=R050032
##IDEAL CHEMISTRY=BeAlSiO_4_(OH)
##LOCALITY=Minas Gerais, Brazil
##OWNER=RRUFF
##SOURCE=University of Arizona Mineral Museum
##DESCRIPTION=Colorless crystal fragments
##STATUS=The identification of this mineral has been confirmed by X-ray diffraction and chemical analysis
##URL=rruff.info/R050032
##MEASURED CHEMISTRY=Be_1.00_Al_1.00_Si_1.00_O_4_(OH)
##PIN_ID=L00259
##ORIENTATION=Laser parallel to a* (1 0 0). Fiducial mark perpendicular to laser is parallel to -b [0 -1 0]
51.274, 0.000
52.673, 2.625
54.072, 137.515
55.470, 190.127
56.868, 163.852
58.266, 213.901
59.664, 331.703
61.061, 411.438
62.458, 358.896
63.855, 215.234
65.252, 142.540
66.649, 67.324
68.045, 1.142
69.441, 8.916
70.837, 18.181
72.233, 65.221
73.628, 112.502
75.023, 289.818
76.418, 389.125
77.813, 448.508
79.208, 444.091
80.602, 397.125
81.996, 334.026
83.390, 341.094
84.784, 340.961
86.178, 362.694
87.571, 415.761
88.964, 498.956
90.357, 559.397
91.749, 680.449
93.142, 581.938
94.534, 663.515
95.926, 467.757
97.318, 429.975
98.709, 417.248
100.101, 359.660
101.492, 409.192
102.883, 301.771
104.273, 318.568
105.664, 353.224
107.054, 431.059
108.444, 389.149
109.834, 404.893
111.223, 405.499
112.613, 401.786
114.002, 363.767
115.391, 349.911
116.780, 311.330
118.168, 285.968
119.556, 251.361
120.944, 212.767
122.332, 181.901
123.720, 140.663
125.107, 122.031
126.495, 89.479
127.882, 85.626
129.268, 116.835
130.655, 73.135
132.041, 168.777
133.427, 214.590
134.813, 243.024
136.199, 358.539
137.584, 460.731
138.970, 826.002
140.355, 1358.939
141.740, 2109.292
143.124, 2855.679
144.509, 3483.031
145.893, 3294.382
147.277, 2195.775
148.660, 1373.219
150.044, 810.694
151.427, 486.182
152.810, 309.677
154.193, 150.179
155.576, 140.686
156.958, 86.186
158.341, 14.662
159.723, 16.104
161.105, 9.496
162.486, 77.855
163.867, 3.154
165.249, 80.397
166.630, 92.583
168.010, 199.706
169.391, 489.757
170.771, 894.723
172.151, 1951.594
173.531, 3752.367
174.911, 6970.035
176.290, 8654.611
177.669, 6978.107
179.049, 4923.553
180.427, 2858.958
181.806, 1375.543
183.184, 649.092
184.562, 341.619
185.940, 138.602
187.318, 13.773
188.696, 8.474
190.073, 16.722
191.450, 61.488
192.827, 273.169
194.204, 644.816
195.580, 1010.450
196.956, 1321.065
198.332, 1213.716
199.708, 724.255
201.084, 437.612
202.459, 185.700
203.834, 122.551
205.209, 2.981
206.584, 45.417
207.958, 56.286
209.333, 73.678
210.707, 55.615
212.081, 105.643
213.454, 35.814
214.828, 85.138
216.201, 92.603
217.574, 27.791
218.947, 66.879
220.320, 18.168
221.692, 14.095
223.064, 82.605
224.436, 127.138
225.808, 239.810
227.179, 470.370
228.551, 787.106
229.922, 2589.937
231.293, 3162.969
232.663, 5544.959
234.034, 5183.521
235.404, 7245.764
236.774, 4567.521
238.144, 2525.607
239.514, 1691.010
240.883, 1371.277
242.252, 1256.744
243.621, 1426.233
244.990, 1666.492
246.359, 2164.343
247.727, 2981.731
249.095, 4745.957
250.463, 7913.996
251.831, 13526.927
253.198, 22249.865
254.566, 31742.928
255.933, 42216.016
257.299, 41618.922
258.666, 31931.668
260.033, 20454.279
261.399, 12266.318
262.765, 7628.099
264.131, 4807.734
265.496, 3278.047
266.862, 2472.474
268.227, 2030.312
269.592, 2109.054
270.957, 2397.695
272.321, 3059.432
273.685, 3377.799
275.050, 3328.118
276.413, 3054.392
277.777, 3282.612
279.141, 4547.637
280.504, 7038.567
281.867, 11566.307
283.230, 16805.895
284.592, 21755.197
285.955, 24364.146
287.317, 20012.770
288.679, 14301.035
290.041, 9229.128
291.403, 5864.880
292.764, 3917.538
294.125, 2608.339
295.486, 1936.280
296.847, 1374.876
298.207, 1085.595
299.568, 886.307
300.928, 773.541
302.288, 631.152
303.647, 543.856
305.007, 547.542
306.366, 456.214
307.725, 439.872
309.084, 447.516
310.443, 377.147
311.801, 384.843
313.159, 402.718
314.517, 393.650
315.875, 380.144
317.233, 346.423
318.590, 314.822
319.947, 256.226
321.304, 249.291
322.661, 267.852
324.018, 271.264
325.374, 311.923
326.730, 390.220
328.086, 412.547
329.442, 542.690
330.797, 798.001
332.153, 1073.574
333.508, 1495.390
334.863, 1898.508
336.217, 2173.198
337.572, 2170.038
338.926, 1604.770
340.280, 1039.435
341.634, 628.955
342.988, 336.207
344.341, 189.446
345.694, 76.670
347.047, 30.875
348.400, 32.865
349.753, 155.743
351.105, 144.507
352.457, 131.647
353.809, 175.096
355.161, 145.272
356.512, 221.172
357.864, 155.447
359.215, 152.899
360.566, 208.257
361.916, 188.731
363.267, 236.044
364.617, 264.027
365.967, 342.554
367.317, 381.510
368.667, 482.013
370.016, 576.545
371.366, 777.460
372.715, 1063.347
374.064, 1288.447
375.412, 1842.463
376.761, 2373.934
378.109, 2935.377
379.457, 3268.417
380.805, 3022.480
382.152, 2805.053
383.500, 2651.155
384.847, 3118.177
386.194, 4117.875
387.541, 5637.919
388.887, 8627.488
390.233, 13345.998
391.580, 20234.844
392.926, 26393.666
394.271, 28582.469
395.617, 25001.240
396.962, 17160.008
398.307, 11128.750
399.652, 7041.491
400.997, 4395.209
402.341, 3041.918
403.686, 1962.603
405.030, 1514.263
406.374, 1084.903
407.717, 900.520
409.061, 727.126
410.404, 617.712
411.747, 566.299
413.090, 543.870
414.433, 619.424
415.775, 774.964
417.117, 1052.492
418.459, 1537.998
419.801, 1921.486
421.143, 2446.954
422.484, 2431.404
423.825, 2183.838
425.166, 1712.256
426.507, 1211.659
427.848, 977.050
429.188, 657.426
430.528, 506.791
431.868, 523.145
433.208, 463.488
434.547, 582.819
435.887, 756.141
437.226, 1307.453
438.565, 2329.756
439.904, 4553.050
441.242, 6623.333
442.580, 5448.610
443.918, 3495.879
445.256, 2153.141
446.594, 1544.397
447.932, 1459.648
449.269, 1504.897
450.606, 1538.144
451.943, 1570.389
453.280, 1524.635
454.616, 1691.882
455.952, 1693.128
457.288, 2030.378
458.624, 1903.746
459.960, 1499.101
461.295, 1101.650
462.631, 670.945
463.966, 529.453
465.300, 316.700
466.635, 267.244
467.969, 196.811
469.304, 144.377
470.638, 158.978
471.972, 108.021
473.305, 60.077
474.639, 41.208
475.972, 16.700
477.305, 40.333
478.638, 3.769
479.970, 8.994
481.303, 52.454
482.635, 27.946
483.967, 18.340
485.298, 40.697
486.630, 63.143
487.961, 47.291
489.293, 114.451
490.624, 125.617
491.954, 44.787
493.285, 65.955
494.615, 48.884
495.945, 18.252
497.275, 5.624
498.605, 1.487
499.935, 11.586
501.264, 41.673
502.593, 149.749
503.922, 169.763
505.251, 258.166
506.579, 346.102
507.908, 380.848
509.236, 439.608
510.564, 315.895
511.891, 232.172
513.219, 131.469
514.546, 104.111
515.873, 39.666
517.200, 46.587
518.527, 5.642
519.853, 29.768
521.180, 4.768
522.506, 49.218
523.832, 4.872
525.157, 80.747
526.483, 145.606
527.808, 135.425
529.133, 293.070
530.458, 324.431
531.783, 520.263
533.107, 722.086
534.431, 1067.614
535.756, 1583.769
537.079, 2359.080
538.403, 3737.623
539.727, 5205.721
541.050, 6506.853
542.373, 6697.525
543.696, 5795.372
545.018, 4457.742
546.341, 3137.331
547.663, 2163.273
548.985, 1511.718
550.307, 1075.016
551.629, 868.098
552.950, 635.273
554.271, 635.507
555.592, 582.688
556.913, 570.825
558.234, 583.949
559.554, 628.061
560.875, 736.518
562.195, 817.611
563.514, 989.834
564.834, 1309.799
566.154, 1640.176
567.473, 2304.855
568.792, 3104.919
570.111, 4089.926
571.429, 4929.446
572.748, 4995.042
574.066, 4519.015
575.384, 3496.436
576.702, 2808.378
578.019, 2436.306
579.337, 2199.220
580.654, 2295.122
581.971, 2225.011
583.288, 2002.886
584.605, 1727.747
585.921, 1323.596
587.237, 1062.432
588.553, 775.253
589.869, 691.062
591.185, 615.858
592.500, 635.641
593.815, 725.411
595.130, 940.167
596.445, 1300.910
597.760, 1825.641
599.074, 2440.358
600.389, 3241.062
601.703, 3389.752
603.016, 3149.431
604.330, 2548.094
605.644, 1790.747
606.957, 1349.385
608.270, 870.010
609.583, 621.622
610.895, 436.221
612.208, 309.807
613.520, 267.379
614.832, 190.938
616.144, 105.484
617.455, 108.016
618.767, 60.533
620.078, 121.773
621.389, 69.260
622.700, 128.732
624.011, 55.191
625.321, 46.634
626.631, 44.060
627.941, 33.469
629.251, 120.862
630.561, 180.160
631.870, 246.250
633.180, 258.253
634.489, 359.776
635.798, 564.760
637.106, 772.506
638.415, 1034.162
639.723, 1331.524
641.031, 1253.711
642.339, 1251.148
643.647, 1030.913
644.954, 855.948
646.261, 727.909
647.568, 581.508
648.875, 529.345
650.182, 424.270
651.488, 377.274
652.795, 440.659
654.101, 323.448
655.407, 458.058
656.712, 322.683
658.018, 297.485
659.323, 187.337
660.628, 221.434
661.933, 325.976
663.238, 350.548
664.542, 325.616
665.847, 307.676
667.151, 185.729
668.455, 184.944
669.758, 88.274
671.062, 53.345
672.365, 47.359
673.668, 8.321
674.971, 14.637
676.274, 16.060
677.577, 26.423
678.879, 66.919
680.181, 55.330
681.483, 49.114
682.785, 18.168
684.086, 81.509
685.388, 62.922
686.689, 58.396
687.990, 49.928
689.290, 97.516
690.591, 13.182
691.891, 54.884
693.192, 41.642
694.491, 13.449
695.791, 22.291
697.091, 7.172
698.390, 21.916
699.689, 51.013
700.988, 11.996
702.287, 16.010
703.586, 6.059
704.884, 1.863
706.182, 13.239
707.480, 10.373
708.778, 61.464
710.076, 35.289
711.373, 43.102
712.670, 88.903
713.968, 67.693
715.264, 70.370
716.561, 21.760
717.857, 38.976
719.154, 20.700
720.450, 1.412
721.746, 13.104
723.041, 29.219
724.337, 22.424
725.632, 67.944
726.927, 5.634
728.222, 3.196
729.517, 4.258
730.811, 12.732
732.105, 23.771
733.400, 23.264
734.693, 96.749
735.987, 51.226
737.281, 114.694
738.574, 143.154
739.867, 251.606
741.160, 287.050
742.453, 434.487
743.745, 656.917
745.038, 730.339
746.330, 905.753
747.622, 851.162
748.913, 788.563
750.205, 853.958
751.496, 823.347
752.788, 1095.729
754.079, 1279.105
755.369, 1381.476
756.660, 1507.841
757.950, 1317.201
759.241, 997.555
760.531, 782.905
761.820, 530.249
763.110, 463.589
764.399, 293.925
765.689, 226.255
766.978, 169.582
768.267, 102.905
769.555, 142.224
770.844, 112.539
772.132, 82.734
773.420, 11.939
774.708, 18.054
775.996, 68.198
777.283, 27.231
778.570, 78.514
779.857, 34.489
781.144, 17.430
782.431, 60.362
783.718, 88.249
785.004, 140.505
786.290, 198.783
787.576, 179.061
788.862, 241.339
790.147, 224.620
791.433, 279.901
792.718, 257.184
794.003, 178.470
795.288, 211.765
796.572, 149.064
797.857, 152.368
799.141, 136.678
800.425, 114.436
801.709, 154.304
802.992, 91.618
804.276, 99.933
805.559, 86.251
806.842, 38.570
808.125, 122.899
809.407, 30.231
810.690, 27.568
811.972, 104.908
813.254, 27.252
814.536, 22.599
815.818, 23.051
817.099, 24.704
818.381, 81.641
819.662, 25.988
820.943, 4.338
822.223, 12.308
823.504, 69.954
824.784, 3.655
826.065, 6.504
827.345, 13.354
828.624, 17.250
829.904, 45.446
831.183, 41.065
832.462, 0.953
833.741, 41.499
835.020, 26.695
836.299, 25.697
837.577, 40.851
838.856, 49.442
840.134, 9.223
841.412, 151.312
842.689, 71.958
843.967, 95.646
845.244, 136.658
846.521, 127.085
847.798, 152.387
849.075, 136.494
850.351, 172.097
851.628, 161.707
852.904, 244.808
854.180, 268.750
855.455, 321.183
856.731, 376.406
858.006, 436.291
859.281, 493.679
860.556, 598.217
861.831, 723.971
863.106, 766.634
864.380, 980.240
865.655, 1070.902
866.929, 1343.608
868.202, 1476.346
869.476, 1886.098
870.750, 2403.513
872.023, 2861.300
873.296, 3748.961
874.569, 4894.882
875.842, 6277.395
877.114, 8850.609
878.386, 10416.451
879.658, 12327.353
880.930, 12112.765
882.202, 10178.104
883.474, 8443.074
884.745, 6537.618
886.016, 5534.646
887.287, 5086.692
888.558, 4687.777
889.829, 4918.878
891.099, 4758.000
892.369, 4980.147
893.639, 5308.315
894.909, 5600.521
896.179, 6652.747
897.448, 7638.993
898.718, 9355.272
899.987, 11801.573
901.256, 15313.289
902.524, 19644.248
903.793, 24710.623
905.061, 31057.033
906.329, 37843.469
907.597, 39809.930
908.865, 41176.402
910.133, 36582.918
911.400, 30809.445
912.667, 25166.020
913.934, 19972.613
915.201, 16089.238
916.468, 12815.884
917.734, 10112.548
919.001, 8609.236
920.267, 7015.946
921.532, 6042.676
922.798, 5363.426
924.064, 4525.199
925.329, 4265.001
926.594, 3812.824
927.859, 3549.935
929.124, 3449.806
930.388, 3058.700
931.653, 2845.631
932.917, 2707.586
934.181, 2306.564
935.445, 2237.570
936.708, 1886.601
937.972, 1742.653
939.235, 1595.728
940.498, 1389.826
941.761, 1373.946
943.024, 1168.097
944.286, 1050.271
945.548, 1050.468
946.811, 855.688
948.072, 1008.930
949.334, 897.199
950.596, 843.490
951.857, 828.807
953.118, 794.147
954.379, 758.510
955.640, 880.896
956.901, 786.304
958.161, 828.736
959.421, 866.193
960.681, 1023.673
961.941, 1171.176
963.201, 1300.702
964.460, 1581.250
965.720, 1779.822
966.979, 2288.417
968.238, 3053.578
969.496, 3793.723
970.755, 4718.390
972.013, 5521.078
973.272, 5444.791
974.529, 5547.356
975.787, 5236.822
977.045, 4990.561
978.302, 4716.367
979.560, 4015.021
980.817, 3357.628
982.073, 2570.525
983.330, 1977.462
984.587, 1573.416
985.843, 1244.441
987.099, 1012.514
988.355, 833.266
989.611, 648.556
990.866, 604.629
992.122, 458.885
993.377, 421.189
994.632, 470.539
995.887, 314.946
997.141, 391.402
998.396, 368.961
999.650, 351.504
1000.904, 423.316
1002.158, 404.372
1003.412, 432.022
1004.665, 538.630
1005.918, 477.349
1007.172, 675.100
1008.425, 663.177
1009.677, 831.993
1010.930, 918.838
1012.182, 971.716
1013.434, 1132.701
1014.687, 1239.636
1015.938, 1380.593
1017.190, 2025.572
1018.441, 2258.104
1019.693, 3102.127
1020.944, 3587.241
1022.195, 3754.466
1023.445, 3852.566
1024.696, 3294.794
1025.946, 2815.940
1027.197, 2551.113
1028.446, 1907.998
1029.696, 1798.224
1030.946, 1527.876
1032.195, 1387.167
1033.445, 1369.482
1034.694, 1273.465
1035.942, 1245.831
1037.191, 1300.220
1038.440, 1282.909
1039.688, 1480.335
1040.936, 1431.780
1042.184, 1577.086
1043.432, 1907.624
1044.679, 1909.326
1045.927, 2256.931
1047.174, 2561.625
1048.421, 2964.527
1049.668, 3484.104
1050.914, 4129.065
1052.161, 5236.284
1053.407, 6543.894
1054.653, 7627.083
1055.899, 10128.216
1057.145, 11957.893
1058.391, 13779.739
1059.636, 15329.444
1060.881, 14669.386
1062.126, 13844.791
1063.371, 11854.537
1064.615, 9426.136
1065.860, 7925.911
1067.104, 6255.701
1068.348, 4932.766
1069.592, 4256.583
1070.836, 3262.415
1072.079, 2935.260
1073.323, 2398.214
1074.566, 1901.435
1075.809, 1824.318
1077.052, 1550.752
1078.294, 1366.761
1079.537, 1193.684
1080.779, 961.208
1082.021, 906.167
1083.263, 803.135
1084.504, 712.030
1085.746, 781.030
1086.987, 583.042
1088.228, 610.167
1089.469, 547.213
1090.710, 489.271
1091.951, 465.327
1093.191, 423.407
1094.431, 397.598
1095.671, 371.697
1096.911, 338.805
1098.151, 351.875
1099.390, 357.002
1100.630, 270.678
1101.869, 292.912
1103.108, 251.064
1104.346, 205.330
1105.585, 318.522
1106.823, 244.697
1108.062, 297.490
1109.300, 246.680
1110.537, 168.882
1111.775, 291.093
1113.013, 188.305
1114.250, 183.586
1115.487, 302.817
1116.724, 194.054
1117.961, 287.734
1119.197, 227.989
1120.434, 185.249
1121.670, 259.779
1122.906, 201.050
1124.142, 241.534
1125.377, 252.826
1126.613, 125.124
1127.848, 193.535
1129.083, 190.842
1130.318, 79.155
1131.553, 202.996
1132.787, 18.317
1134.022, 76.063
1135.256, 87.499
1136.490, 23.832
1137.724, 12.660
1138.957, 97.999
1140.191, 60.338
1141.424, 118.258
1142.657, 28.600
1143.890, 32.259
1145.123, 70.897
1146.355, 53.760
1147.588, 82.646
1148.820, 74.031
1150.052, 92.738
1151.284, 60.950
1152.516, 27.800
1153.747, 5.585
1154.978, 22.075
1156.209, 33.690
1157.440, 38.653
1158.671, 16.444
1159.902, 55.658
1161.132, 1.782
1162.362, 14.424
1163.592, 46.628
1164.822, 26.073
1166.052, 66.732
1167.281, 66.659
1168.511, 23.501
1169.740, 24.362
1170.969, 41.872
1172.197, 1.011
1173.426, 16.272
1174.654, 140.317
1175.883, 30.585
1177.111, 19.701
1178.338, 72.095
1179.566, 15.939
1180.794, 41.956
1182.021, 73.977
1183.248, 59.119
1184.475, 50.147
1185.702, 65.883
1186.928, 97.018
1188.155, 41.234
1189.381, 24.881
1190.607, 6.454
1191.833, 60.952
1193.059, 6.863
1194.284, 6.178
1195.509, 45.031
1196.735, 30.721
1197.960, 12.215
1199.184, 0.505
1200.409, 4.792
1201.633, 45.048
1202.858, 11.406
1204.082, 49.290
1205.306, 21.104
1206.529, 134.473
1207.753, 13.233
1208.976, 75.215
1210.199, 64.277
1211.422, 12.968
1212.645, 41.485
1213.868, 70.998
1215.090, 17.654
1216.313, 156.068
1217.535, 43.656
1218.757, 89.045
1219.978, 28.423
1221.200, 0.935
1222.421, 66.404
1223.643, 15.757
1224.864, 33.064
1226.084, 74.356
1227.305, 33.447
1228.526, 79.670
1229.746, 124.890
1230.966, 12.533
1232.186, 116.766
1233.406, 107.937
1234.625, 49.550
1235.845, 105.691
1237.064, 114.236
1238.283, 1.963
1239.502, 98.124
1240.721, 54.290
1241.939, 109.351
1243.157, 185.396
1244.376, 20.441
1245.594, 120.459
1246.811, 34.462
1248.029, 64.737
1249.247, 88.713
1250.464, 63.677
1251.681, 84.762
1252.898, 116.696
1254.115, 36.617
1255.331, 165.521
1256.548, 94.412
1257.764, 95.532
1258.980, 153.468
1260.196, 84.312
1261.411, 110.663
1262.627, 192.472
1263.842, 51.413
1265.057, 110.171
1266.272, 135.914
1267.487, 64.635
1268.702, 193.338
1269.916, 71.024
1271.130, 136.833
1272.344, 241.477
1273.558, 87.104
1274.772, 163.826
1275.986, 169.415
1277.199, 55.119
1278.412, 256.755
1279.625, 62.284
1280.838, 94.625
1282.051, 258.117
1283.263, 60.590
1284.475, 135.039
1285.687, 148.469
1286.899, 57.879
1288.111, 172.265
1289.323, 75.625
1290.534, 7.037
1291.745, 153.271
1292.957, 107.504
1294.167, 133.777
1295.378, 129.798
1296.589, 22.594
1297.799, 190.814
1299.009, 88.079
1300.219, 76.258
1301.429, 154.420
1302.639, 94.272
1303.848, 54.400
1305.057, 186.493
1306.267, 25.562
1307.476, 130.519
1308.684, 158.500
1309.893, 80.461
1311.101, 147.419
1312.310, 79.807
1313.518, 48.708
1314.725, 144.521
1315.933, 98.233
1317.141, 157.074
1318.348, 112.788
1319.555, 32.592
1320.762, 151.372
1321.969, 82.437
1323.176, 94.160
1324.382, 120.482
1325.589, 141.168
1326.795, 109.835
1328.001, 87.848
1329.206, 25.476
1330.412, 115.079
1331.617, 124.371
1332.823, 61.926
1334.028, 189.462
1335.233, 49.136
1336.437, 34.580
1337.642, 170.511
1338.846, 8.886
1340.051, 183.169
1341.255, 167.241
1342.458, 57.636
1343.662, 159.646
1344.866, 119.397
1346.069, 96.757
1347.272, 191.534
1348.475, 88.366
1349.678, 120.657
1350.880, 107.771
1352.083, 64.028
1353.285, 162.045
1354.487, 158.604
1355.689, 49.815
1356.891, 210.179
1358.093, 82.360
1359.294, 54.528
1360.495, 125.346
1361.696, 59.440
1362.897, 159.480
1364.098, 178.503
1365.298, 48.410
1366.499, 224.045
1367.699, 92.011
1368.899, 126.417
1370.099, 253.243
1371.298, 7.853
1372.498, 10.444
1373.697, 100.303
1374.896, 1.577
1376.095, 5.341
1377.294, 100.153
1378.493, 34.060
1379.691, 151.544
1380.889, 32.169
1382.087, 15.929
1383.285, 215.539
1384.483, 72.221
1385.681, 116.888
1386.878, 149.842
1388.075, 91.309
1389.272, 108.831
1390.469, 132.694
1391.666, 42.162
1392.862, 153.541
1394.059, 122.943
1395.255, 61.831
1396.451, 253.869
1397.647, 98.935
1398.842, 104.201
1400.038, 174.308
1401.233, 46.897
1402.428, 75.561
1403.623, 151.550
1404.818, 4.958
1406.013, 153.386
1407.207, 58.002
1408.401, 105.889
1409.595, 160.702
1410.789, 89.829
1411.983, 133.566
1413.177, 182.135
1414.370, 53.102
1415.563, 177.156
1416.756, 136.940
1417.949, 58.359
1419.142, 214.865
1420.335, 52.447
1421.527, 64.084
1422.719, 189.270
1423.911, 2.435
1425.103, 190.100
1426.295, 179.500
1427.486, 97.549
1428.677, 161.751
1429.869, 89.695
1431.060, 88.204
1432.250, 218.478
1433.441, 156.598
1434.632, 149.220
1435.822, 228.768
1437.012, 95.309
1438.202, 134.664
1439.392, 180.366
1440.581, 74.633
1441.771, 164.841
1442.960, 246.224
1444.149, 95.917
1445.338, 171.099
1446.527, 151.733
1447.715, 108.806
1448.904, 223.790
1450.092, 103.604
1451.280, 145.333
1452.468, 146.928
1453.656, 54.924
1454.843, 174.087
1456.031, 210.387
1457.218, 73.664
1458.405, 286.273
1459.592, 210.462
1460.778, 487.286
1461.965, 232.379
1463.151, 170.674
1464.337, 202.009
1465.523, 257.562
1466.709, 92.516
1467.895, 244.467
1469.080, 153.015
1470.266, 48.938
1471.451, 193.529
1472.636, 156.789
1473.821, 72.250
1475.005, 268.011
1476.190, 72.772
1477.374, 139.523
1478.558, 189.309
1479.742, 35.950
1480.926, 159.743
1482.109, 164.367
1483.293, 72.961
1484.476, 250.495
1485.659, 136.016
1486.842, 75.656
1488.025, 186.562
1489.207, 128.408
1490.390, 69.307
1491.572, 171.204
1492.754, 64.079
1493.936, 160.041
1495.118, 203.092
1496.299, 59.151
