##NAMES=Euclase
##RRUFFID=R050032
##IDEAL CHEMISTRY=BeAlSiO_4_(OH)
##LOCALITY=Minas Gerais, Brazil
##OWNER=RRUFF
##SOURCE=University of Arizona Mineral Museum
##DESCRIPTION=Colorless crystal fragments
##STATUS=The identification of this mineral has been confirmed by X-ray diffraction and chemical analysis
##URL=rruff.info/R050032
##MEASURED CHEMISTRY=Be_1.00_Al_1.00_Si_1.00_O_4_(OH)
##PIN_ID=L00185
##ORIENTATION=Laser parallel to -c* (0 0 -1). Fiducial mark perpendicular to laser is parallel to a [1 0 0]
51.274, 0.000
52.673, 125.389
54.072, 314.149
55.470, 437.969
56.868, 501.204
58.266, 413.799
59.664, 457.870
61.061, 459.150
62.458, 598.668
63.855, 559.365
65.252, 429.317
66.649, 229.791
68.045, 159.957
69.441, 103.482
70.837, 167.346
72.233, 200.938
73.628, 259.370
75.023, 188.212
76.418, 153.173
77.813, 34.023
79.208, 31.537
80.602, 14.516
81.996, 33.560
83.390, 26.444
84.784, 40.754
86.178, 15.093
87.571, 48.067
88.964, 100.912
90.357, 170.998
91.749, 173.447
93.142, 152.412
94.534, 188.628
95.926, 143.795
97.318, 108.729
98.709, 71.098
100.101, 92.266
101.492, 79.749
102.883, 92.842
104.273, 87.114
105.664, 206.340
107.054, 277.852
108.444, 329.703
109.834, 598.999
111.223, 1729.249
112.613, 1155.731
114.002, 1372.524
115.391, 634.404
116.780, 439.156
118.168, 301.812
119.556, 257.736
120.944, 203.206
122.332, 178.949
123.720, 144.791
125.107, 127.620
126.495, 118.293
127.882, 100.300
129.268, 118.818
130.655, 91.799
132.041, 110.837
133.427, 97.608
134.813, 32.888
136.199, 91.996
137.584, 75.896
138.970, 137.722
140.355, 158.507
141.740, 296.475
143.124, 500.597
144.509, 611.845
145.893, 454.196
147.277, 267.631
148.660, 84.119
150.044, 53.627
151.427, 2.132
152.810, 41.615
154.193, 9.910
155.576, 28.549
156.958, 85.022
158.341, 36.639
159.723, 54.311
161.105, 35.053
162.486, 37.867
163.867, 65.749
165.249, 58.690
166.630, 87.690
168.010, 51.764
169.391, 40.931
170.771, 5.794
172.151, 62.404
173.531, 187.894
174.911, 581.265
176.290, 1384.508
177.669, 2877.623
179.049, 3442.636
180.427, 2191.580
181.806, 1051.711
183.184, 509.028
184.562, 213.568
185.940, 101.372
187.318, 67.876
188.696, 20.359
190.073, 51.711
191.450, 110.498
192.827, 140.072
194.204, 334.391
195.580, 462.393
196.956, 502.434
198.332, 375.507
199.708, 165.339
201.084, 126.532
202.459, 69.734
203.834, 61.161
205.209, 10.407
206.584, 53.009
207.958, 3.369
209.333, 6.307
210.707, 34.323
212.081, 24.704
213.454, 33.615
214.828, 51.555
216.201, 53.678
217.574, 87.803
218.947, 103.910
220.320, 113.848
221.692, 201.552
223.064, 260.988
224.436, 294.139
225.808, 490.975
227.179, 790.494
228.551, 1345.705
229.922, 2737.616
231.293, 5479.179
232.663, 9970.377
234.034, 12809.142
235.404, 10097.591
236.774, 5881.761
238.144, 3122.660
239.514, 1936.287
240.883, 1384.637
242.252, 1209.715
243.621, 1159.988
244.990, 1290.938
246.359, 1648.021
247.727, 2063.420
249.095, 3017.493
250.463, 4773.902
251.831, 8493.263
253.198, 15434.570
254.566, 26228.850
255.933, 38063.137
257.299, 35827.137
258.666, 24890.738
260.033, 14094.225
261.399, 7993.327
262.765, 4794.148
264.131, 3002.544
265.496, 2135.935
266.862, 1578.908
268.227, 1281.662
269.592, 1076.874
270.957, 1025.469
272.321, 950.005
273.685, 914.343
275.050, 993.316
276.413, 1084.118
277.777, 1393.843
279.141, 1881.538
280.504, 2993.204
281.867, 5197.212
283.230, 8321.614
284.592, 12194.738
285.955, 12334.320
287.317, 8833.658
288.679, 5444.647
290.041, 3214.423
291.403, 2104.062
292.764, 1408.401
294.125, 1041.957
295.486, 811.020
296.847, 630.346
298.207, 512.450
299.568, 519.954
300.928, 513.944
302.288, 548.663
303.647, 612.324
305.007, 672.339
306.366, 625.177
307.725, 524.902
309.084, 417.816
310.443, 317.307
311.801, 289.996
313.159, 332.189
314.517, 292.077
315.875, 248.778
317.233, 231.146
318.590, 211.072
319.947, 225.706
321.304, 219.747
322.661, 163.670
324.018, 212.216
325.374, 239.715
326.730, 293.013
328.086, 376.449
329.442, 348.815
330.797, 328.282
332.153, 288.942
333.508, 203.945
334.863, 120.887
336.217, 58.507
337.572, 92.337
338.926, 50.554
340.280, 70.751
341.634, 46.928
342.988, 48.084
344.341, 66.222
345.694, 60.339
347.047, 94.435
348.400, 150.289
349.753, 219.350
351.105, 217.058
352.457, 216.945
353.809, 142.466
355.161, 64.610
356.512, 89.008
357.864, 17.323
359.215, 36.166
360.566, 16.087
361.916, 13.552
363.267, 0.130
364.617, 0.568
365.967, 22.269
367.317, 27.970
368.667, 13.048
370.016, 3.116
371.366, 32.204
372.715, 46.142
374.064, 79.239
375.412, 75.409
376.761, 157.989
378.109, 201.811
379.457, 230.680
380.805, 235.795
382.152, 309.995
383.500, 341.232
384.847, 540.860
386.194, 795.694
387.541, 1228.632
388.887, 2275.193
390.233, 4256.723
391.580, 7903.213
392.926, 11003.661
394.271, 11523.078
395.617, 8552.459
396.962, 5177.811
398.307, 3276.134
399.652, 1998.421
400.997, 1392.677
402.341, 948.906
403.686, 712.106
405.030, 635.275
406.374, 469.417
407.717, 453.537
409.061, 355.638
410.404, 325.716
411.747, 284.776
413.090, 211.826
414.433, 264.853
415.775, 203.858
417.117, 263.840
418.459, 341.799
419.801, 444.736
421.143, 663.654
422.484, 625.551
423.825, 654.431
425.166, 548.293
426.507, 470.141
427.848, 442.973
429.188, 380.791
430.528, 435.598
431.868, 439.393
433.208, 542.177
434.547, 694.949
435.887, 1041.710
437.226, 1786.458
438.565, 3106.192
439.904, 4982.913
441.242, 5467.625
442.580, 3979.321
443.918, 2607.007
445.256, 1813.688
446.594, 1631.362
447.932, 1525.032
449.269, 1523.699
450.606, 1477.365
451.943, 1648.030
453.280, 1512.777
454.616, 1152.443
455.952, 746.191
457.288, 593.886
458.624, 435.556
459.960, 318.228
461.295, 221.910
462.631, 132.593
463.966, 71.281
465.300, 26.968
466.635, 38.651
467.969, 26.329
469.304, 37.996
470.638, 26.984
471.972, 27.112
473.305, 16.460
474.639, 12.003
475.972, 2.379
477.305, 11.612
478.638, 16.789
479.970, 29.080
481.303, 32.875
482.635, 26.911
483.967, 15.575
485.298, 2.738
486.630, 13.214
487.961, 44.964
489.293, 43.769
490.624, 47.601
491.954, 16.469
493.285, 78.360
494.615, 106.049
495.945, 111.418
497.275, 178.541
498.605, 228.812
499.935, 387.909
501.264, 453.091
502.593, 690.175
503.922, 899.263
505.251, 1196.429
506.579, 1509.571
507.908, 1716.856
509.236, 1665.382
510.564, 1387.206
511.891, 1175.034
513.219, 774.881
514.546, 638.430
515.873, 492.663
517.200, 344.007
518.527, 250.054
519.853, 212.199
521.180, 153.005
522.506, 106.042
523.832, 87.492
525.157, 52.329
526.483, 78.952
527.808, 35.165
529.133, 16.449
530.458, 55.447
531.783, 63.179
533.107, 1.070
534.431, 38.739
535.756, 58.654
537.079, 71.235
538.403, 96.734
539.727, 99.108
541.050, 118.597
542.373, 122.065
543.696, 99.602
545.018, 119.403
546.341, 114.583
547.663, 96.385
548.985, 88.059
550.307, 125.365
551.629, 140.320
552.950, 145.548
554.271, 200.916
555.592, 232.649
556.913, 312.787
558.234, 353.138
559.554, 386.406
560.875, 521.973
562.195, 630.195
563.514, 932.554
564.834, 1204.089
566.154, 1939.334
567.473, 3167.706
568.792, 5191.034
570.111, 8138.718
571.429, 9594.240
572.748, 9232.964
574.066, 7356.680
575.384, 5152.462
576.702, 4237.163
578.019, 3652.855
579.337, 3669.541
580.654, 3785.219
581.971, 3571.891
583.288, 3168.555
584.605, 2220.213
585.921, 1549.862
587.237, 1035.505
588.553, 672.141
589.869, 536.771
591.185, 374.393
592.500, 341.009
593.815, 280.617
595.130, 288.219
596.445, 280.815
597.760, 237.403
599.074, 324.985
600.389, 345.560
601.703, 335.129
603.016, 309.692
604.330, 200.247
605.644, 165.797
606.957, 130.339
608.270, 124.876
609.583, 88.406
610.895, 60.929
612.208, 89.445
613.520, 59.955
614.832, 72.457
616.144, 124.953
617.455, 89.442
618.767, 116.925
620.078, 100.401
621.389, 97.870
622.700, 188.264
624.011, 137.471
625.321, 194.725
626.631, 160.926
627.941, 203.175
629.251, 278.376
630.561, 252.578
631.870, 329.734
633.180, 388.636
634.489, 474.732
635.798, 672.868
637.106, 761.025
638.415, 1153.504
639.723, 1493.870
641.031, 1975.411
642.339, 2588.237
643.647, 2964.336
644.954, 3030.479
646.261, 2683.750
647.568, 2115.016
648.875, 1742.293
650.182, 1313.437
651.488, 1180.775
652.795, 911.106
654.101, 736.432
655.407, 632.754
656.712, 460.072
658.018, 418.386
659.323, 344.696
660.628, 321.003
661.933, 289.305
663.238, 284.604
664.542, 255.899
665.847, 170.189
667.151, 190.474
668.455, 140.752
669.758, 90.023
671.062, 87.288
672.365, 57.547
673.668, 57.802
674.971, 73.053
676.274, 42.301
677.577, 5.544
678.879, 55.776
680.181, 12.005
681.483, 1.227
682.785, 14.435
684.086, 11.365
685.388, 34.234
686.689, 31.105
687.990, 39.645
689.290, 41.011
690.591, 35.198
691.891, 39.265
693.192, 44.295
694.491, 25.346
695.791, 39.427
697.091, 9.545
698.390, 22.131
699.689, 13.848
700.988, 31.037
702.287, 53.255
703.586, 47.515
704.884, 45.811
706.182, 8.146
707.480, 2.500
708.778, 23.871
710.076, 10.270
711.373, 32.688
712.670, 23.625
713.968, 6.384
715.264, 10.105
716.561, 15.613
717.857, 10.143
719.154, 4.308
720.450, 0.748
721.746, 11.825
723.041, 14.417
724.337, 2.971
725.632, 20.652
726.927, 1.298
728.222, 23.043
729.517, 32.380
730.811, 15.713
732.105, 67.040
733.400, 48.363
734.693, 75.682
735.987, 65.998
737.281, 46.310
738.574, 104.619
739.867, 157.924
741.160, 163.226
742.453, 248.524
743.745, 365.820
745.038, 418.113
746.330, 522.403
747.622, 445.690
748.913, 532.975
750.205, 543.258
751.496, 630.538
752.788, 906.817
754.079, 954.093
755.369, 1116.367
756.660, 1043.640
757.950, 861.911
759.241, 634.181
760.531, 445.449
761.820, 362.716
763.110, 277.982
764.399, 224.246
765.689, 210.510
766.978, 155.692
768.267, 186.955
769.555, 181.136
770.844, 162.372
772.132, 239.634
773.420, 134.895
774.708, 261.156
775.996, 258.418
777.283, 283.680
778.570, 430.943
779.857, 492.207
781.144, 609.472
782.431, 790.740
783.718, 1043.009
785.004, 1493.280
786.290, 1845.554
787.576, 2275.830
788.862, 2702.108
790.147, 2643.390
791.433, 2570.676
792.718, 2174.964
794.003, 1795.257
795.288, 1601.557
796.572, 1253.864
797.857, 1128.175
799.141, 1014.489
800.425, 954.807
801.709, 906.128
802.992, 837.452
804.276, 801.779
805.559, 688.109
806.842, 611.443
808.125, 556.779
809.407, 456.119
810.690, 489.462
811.972, 416.809
813.254, 357.158
814.536, 358.512
815.818, 306.869
817.099, 336.230
818.381, 307.594
819.662, 220.963
820.943, 301.336
822.223, 227.713
823.504, 225.094
824.784, 237.479
826.065, 241.870
827.345, 236.264
828.624, 245.664
829.904, 244.068
831.183, 231.458
832.462, 236.111
833.741, 365.530
835.020, 282.480
836.299, 331.910
837.577, 357.963
838.856, 327.643
840.134, 370.894
841.412, 425.619
842.689, 399.547
843.967, 472.750
845.244, 475.992
846.521, 559.985
847.798, 557.380
849.075, 558.269
850.351, 709.290
851.628, 688.667
852.904, 828.809
854.180, 922.625
855.455, 1035.781
856.731, 1165.453
858.006, 1224.209
859.281, 1458.090
860.556, 1631.220
861.831, 1830.708
863.106, 2205.922
864.380, 2484.998
865.655, 2988.713
866.929, 3773.026
868.202, 4320.130
869.476, 5778.321
870.750, 7040.219
872.023, 9332.464
873.296, 12759.576
874.569, 17196.523
875.842, 25412.762
877.114, 35718.871
878.386, 45776.043
879.658, 53671.859
880.930, 48778.848
882.202, 39386.641
883.474, 29084.439
884.745, 20102.195
886.016, 15080.034
887.287, 11037.891
888.558, 8585.766
889.829, 7273.653
891.099, 5583.562
892.369, 5022.488
893.639, 4257.429
894.909, 3782.393
896.179, 3714.372
897.448, 3601.369
898.718, 4021.396
899.987, 4338.448
901.256, 5103.523
902.524, 6627.620
903.793, 8141.732
905.061, 10469.867
906.329, 12328.019
907.597, 12286.187
908.865, 12464.371
910.133, 10182.577
911.400, 8610.812
912.667, 6910.063
913.934, 5353.340
915.201, 4499.638
916.468, 3610.950
917.734, 2972.288
919.001, 2615.645
920.267, 2109.016
921.532, 1932.408
922.798, 1721.816
924.064, 1445.254
925.329, 1403.721
926.594, 1081.205
927.859, 1124.706
929.124, 974.224
930.388, 869.758
931.653, 858.319
932.917, 717.897
934.181, 635.491
935.445, 642.119
936.708, 570.763
937.972, 569.424
939.235, 474.104
940.498, 454.801
941.761, 506.528
943.024, 385.272
944.286, 345.033
945.548, 379.823
946.811, 298.629
948.072, 395.452
949.334, 312.294
950.596, 304.153
951.857, 285.029
953.118, 275.924
954.379, 300.835
955.640, 293.766
956.901, 302.714
958.161, 383.679
959.421, 331.660
960.681, 455.659
961.941, 470.675
963.201, 545.707
964.460, 792.757
965.720, 903.823
966.979, 1234.907
968.238, 1714.007
969.496, 2132.124
970.755, 2678.259
972.013, 2799.410
973.272, 2632.579
974.529, 2301.765
975.787, 1773.967
977.045, 1467.187
978.302, 1149.423
979.560, 845.677
980.817, 679.947
982.073, 493.235
983.330, 384.540
984.587, 276.865
985.843, 188.210
987.099, 227.573
988.355, 109.960
989.611, 113.365
990.866, 62.796
992.122, 20.742
993.377, 19.748
994.632, 24.730
995.887, 0.178
997.141, 1.406
998.396, 39.979
999.650, 30.663
1000.904, 39.334
1002.158, 29.962
1003.412, 13.761
1004.665, 12.488
1005.918, 32.712
1007.172, 27.912
1008.425, 54.080
1009.677, 11.224
1010.930, 7.664
1012.182, 1.575
1013.434, 63.511
1014.687, 4.475
1015.938, 32.462
1017.190, 116.479
1018.441, 102.524
1019.693, 196.587
1020.944, 218.674
1022.195, 242.785
1023.445, 268.919
1024.696, 114.073
1025.946, 163.248
1027.197, 103.445
1028.446, 41.666
1029.696, 148.905
1030.946, 35.175
1032.195, 66.458
1033.445, 71.757
1034.694, 92.125
1035.942, 95.456
1037.191, 112.374
1038.440, 121.323
1039.688, 278.700
1040.936, 216.810
1042.184, 307.216
1043.432, 356.366
1044.679, 339.957
1045.927, 522.646
1047.174, 547.897
1048.421, 766.931
1049.668, 922.366
1050.914, 1026.992
1052.161, 1487.600
1053.407, 1822.369
1054.653, 2185.628
1055.899, 2962.190
1057.145, 3266.058
1058.391, 3768.398
1059.636, 3795.601
1060.881, 3383.237
1062.126, 2996.135
1063.371, 2224.742
1064.615, 1803.523
1065.860, 1415.181
1067.104, 1078.061
1068.348, 907.084
1069.592, 747.774
1070.836, 543.129
1072.079, 456.841
1073.323, 365.732
1074.566, 274.491
1075.809, 279.233
1077.052, 260.269
1078.294, 244.034
1079.537, 205.809
1080.779, 179.118
1082.021, 203.951
1083.263, 138.754
1084.504, 171.422
1085.746, 165.242
1086.987, 126.073
1088.228, 204.461
1089.469, 190.322
1090.710, 211.529
1091.951, 253.406
1093.191, 175.291
1094.431, 259.857
1095.671, 242.757
1096.911, 240.683
1098.151, 304.028
1099.390, 348.949
1100.630, 393.072
1101.869, 432.278
1103.108, 462.219
1104.346, 543.740
1105.585, 616.696
1106.823, 668.132
1108.062, 755.657
1109.300, 806.634
1110.537, 852.637
1111.775, 952.625
1113.013, 939.619
1114.250, 1139.619
1115.487, 1127.625
1116.724, 1218.636
1117.961, 1294.653
1119.197, 1341.674
1120.434, 1418.767
1121.670, 1423.798
1122.906, 1405.834
1124.142, 1452.875
1125.377, 1321.921
1126.613, 1203.970
1127.848, 1168.029
1129.083, 1065.091
1130.318, 898.196
1131.553, 835.268
1132.787, 661.344
1134.022, 633.799
1135.256, 575.881
1136.490, 511.967
1137.724, 444.177
1138.957, 393.269
1140.191, 336.368
1141.424, 310.195
1142.657, 283.293
1143.890, 281.222
1145.123, 236.311
1146.355, 177.409
1147.588, 176.835
1148.820, 117.942
1150.052, 134.139
1151.284, 101.784
1152.516, 78.893
1153.747, 95.190
1154.978, 93.766
1156.209, 68.452
1157.440, 98.652
1158.671, 57.667
1159.902, 97.777
1161.132, 69.673
1162.362, 23.783
1163.592, 55.928
1164.822, 31.256
1166.052, 37.405
1167.281, 73.548
1168.511, 5.651
1169.740, 29.792
1170.969, 32.137
1172.197, 23.235
1173.426, 67.593
1174.654, 40.686
1175.883, 30.776
1177.111, 52.876
1178.338, 14.039
1179.566, 25.033
1180.794, 24.154
1182.021, 13.781
1183.248, 37.584
1184.475, 4.170
1185.702, 4.095
1186.928, 47.068
1188.155, 22.907
1189.381, 22.115
1190.607, 5.229
1191.833, 12.240
1193.059, 4.859
1194.284, 5.140
1195.509, 49.187
1196.735, 23.037
1197.960, 25.233
1199.184, 8.362
1200.409, 7.588
1201.633, 17.472
1202.858, 45.354
1204.082, 7.202
1205.306, 0.986
1206.529, 1.823
1207.753, 36.365
1208.976, 9.389
1210.199, 18.832
1211.422, 5.111
1212.645, 40.593
1213.868, 21.497
1215.090, 10.175
1216.313, 27.836
1217.535, 4.701
1218.757, 71.343
1219.978, 34.973
1221.200, 32.373
1222.421, 56.194
1223.643, 15.611
1224.864, 46.165
1226.084, 68.707
1227.305, 22.691
1228.526, 26.966
1229.746, 32.468
1230.966, 43.001
1232.186, 100.453
1233.406, 40.230
1234.625, 14.934
1235.845, 90.360
1237.064, 32.090
1238.283, 79.368
1239.502, 43.742
1240.721, 20.749
1241.939, 80.586
1243.157, 39.029
1244.376, 21.349
1245.594, 87.657
1246.811, 30.990
1248.029, 28.282
1249.247, 60.595
1250.464, 19.193
1251.681, 79.545
1252.898, 83.844
1254.115, 44.711
1255.331, 65.956
1256.548, 47.193
1257.764, 97.461
1258.980, 64.682
1260.196, 56.120
1261.411, 79.468
1262.627, 77.660
1263.842, 70.844
1265.057, 107.019
1266.272, 48.185
1267.487, 103.555
1268.702, 123.701
1269.916, 81.920
1271.130, 126.094
1272.344, 100.210
1273.558, 82.329
1274.772, 105.419
1275.986, 56.499
1277.199, 117.113
1278.412, 140.171
1279.625, 36.217
1280.838, 112.318
1282.051, 124.342
1283.263, 52.354
1284.475, 137.352
1285.687, 70.339
1286.899, 93.341
1288.111, 131.302
1289.323, 50.252
1290.534, 106.199
1291.745, 79.122
1292.957, 68.031
1294.167, 126.934
1295.378, 59.826
1296.589, 82.707
1297.799, 143.580
1299.009, 44.441
1300.219, 96.291
1301.429, 107.131
1302.639, 51.963
1303.848, 74.783
1305.057, 81.593
1306.267, 26.391
1307.476, 95.176
1308.684, 73.948
1309.893, 53.683
1311.101, 73.404
1312.310, 75.114
1313.518, 88.812
1314.725, 75.501
1315.933, 53.178
1317.141, 93.842
1318.348, 52.493
1319.555, 87.126
1320.762, 130.749
1321.969, 84.357
1323.176, 110.954
1324.382, 89.533
1325.589, 75.105
1326.795, 124.665
1328.001, 49.158
1329.206, 57.682
1330.412, 78.615
1331.617, 62.519
1332.823, 120.999
1334.028, 81.749
1335.233, 30.205
1336.437, 96.918
1337.642, 61.195
1338.846, 76.375
1340.051, 131.997
1341.255, 47.838
1342.458, 15.279
1343.662, 118.533
1344.866, 56.806
1346.069, 56.920
1347.272, 83.582
1348.475, 68.908
1349.678, 124.930
1350.880, 72.482
1352.083, 68.174
1353.285, 105.436
1354.487, 63.438
1355.689, 94.733
1356.891, 86.856
1358.093, 37.108
1359.294, 103.140
1360.495, 85.033
1361.696, 35.263
1362.897, 104.832
1364.098, 55.048
1365.298, 95.107
1366.499, 130.285
1367.699, 2.486
1368.899, 60.398
1370.099, 138.588
1371.298, 45.782
1372.498, 32.444
1373.697, 68.454
1374.896, 51.641
1376.095, 61.975
1377.294, 17.264
1378.493, 38.661
1379.691, 61.825
1380.889, 31.758
1382.087, 35.275
1383.285, 89.860
1384.483, 24.707
1385.681, 91.772
1386.878, 29.077
1388.075, 75.279
1389.272, 55.140
1390.469, 44.545
1391.666, 53.939
1392.862, 45.637
1394.059, 12.711
1395.255, 33.067
1396.451, 43.331
1397.647, 0.648
1398.842, 96.944
1400.038, 59.216
1401.233, 43.418
1402.428, 115.641
1403.623, 18.401
1404.818, 25.434
1406.013, 95.584
1407.207, 56.721
1408.401, 93.620
1409.595, 94.676
1410.789, 18.637
1411.983, 100.690
1413.177, 32.310
1414.370, 40.039
1415.563, 88.990
1416.756, 8.093
1417.949, 77.493
1419.142, 115.288
1420.335, 0.885
1421.527, 96.635
1422.719, 79.100
1423.911, 32.889
1425.103, 97.681
1426.295, 57.383
1427.486, 49.403
1428.677, 152.902
1429.869, 40.619
1431.060, 92.359
1432.250, 114.842
1433.441, 43.225
1434.632, 132.572
1435.822, 125.056
1437.012, 56.798
1438.202, 120.563
1439.392, 67.321
1440.581, 77.091
1441.771, 162.570
1442.960, 97.432
1444.149, 138.917
1445.338, 154.697
1446.527, 106.061
1447.715, 153.951
1448.904, 137.448
1450.092, 61.272
1451.280, 206.575
1452.468, 122.055
1453.656, 123.480
1454.843, 160.042
1456.031, 104.681
1457.218, 147.544
1458.405, 174.323
1459.592, 118.381
1460.778, 179.888
1461.965, 192.244
1463.151, 64.855
1464.337, 143.000
1465.523, 96.303
1466.709, 78.933
1467.895, 187.005
1469.080, 50.376
1470.266, 128.815
1471.451, 97.657
1472.636, 55.661
1473.821, 67.121
1475.005, 49.373
1476.190, 25.806
1477.374, 82.156
1478.558, 103.597
1479.742, 51.024
1480.926, 183.485
1482.109, 100.927
1483.293, 126.350
1484.476, 165.754
1485.659, 32.158
1486.842, 41.558
1488.025, 90.941
1489.207, 14.523
1490.390, 108.103
1491.572, 122.662
1492.754, 35.233
1493.936, 131.850
1495.118, 77.487
1496.299, 33.138
1497.481, 130.813
1498.662, 31.666
1499.843, 57.593
1501.024, 99.570
1502.205, 37.600
1503.385, 73.687
1504.565, 129.844
1505.746, 57.088
1506.926, 22.140
1508.106, 91.560
1509.285, 28.099
1510.465, 107.776
