##NAMES=Euclase
##RRUFFID=R050032
##IDEAL CHEMISTRY=BeAlSiO_4_(OH)
##LOCALITY=Minas Gerais, Brazil
##OWNER=RRUFF
##SOURCE=University of Arizona Mineral Museum
##DESCRIPTION=Colorless crystal fragments
##STATUS=The identification of this mineral has been confirmed by X-ray diffraction and chemical analysis
##URL=rruff.info/R050032
##MEASURED CHEMISTRY=Be_1.00_Al_1.00_Si_1.00_O_4_(OH)
##PIN_ID=L00259
##ORIENTATION=Laser parallel to a* (1 0 0). Fiducial mark perpendicular to laser is parallel to -b [0 -1 0]
51.274, 0.000
52.673, 114.944
54.072, 85.113
55.470, 105.238
56.868, 101.457
58.266, 157.646
59.664, 289.314
61.061, 276.495
62.458, 303.376
63.855, 221.994
65.252, 94.380
66.649, 17.282
68.045, 5.462
69.441, 14.424
70.837, 91.822
72.233, 90.224
73.628, 196.760
75.023, 386.646
76.418, 361.590
77.813, 395.258
79.208, 259.805
80.602, 332.632
81.996, 384.780
83.390, 431.903
84.784, 436.006
86.178, 393.484
87.571, 340.222
88.964, 431.936
90.357, 429.245
91.749, 565.626
93.142, 469.399
94.534, 530.561
95.926, 478.498
97.318, 401.988
98.709, 353.376
100.101, 304.924
101.492, 305.015
102.883, 313.917
104.273, 369.727
105.664, 388.092
107.054, 463.127
108.444, 469.237
109.834, 451.704
111.223, 479.120
112.613, 429.320
114.002, 404.306
115.391, 428.083
116.780, 360.665
118.168, 291.508
119.556, 266.928
120.944, 238.853
122.332, 241.618
123.720, 230.860
125.107, 102.945
126.495, 117.013
127.882, 64.381
129.268, 82.968
130.655, 132.730
132.041, 61.921
133.427, 94.697
134.813, 124.921
136.199, 123.498
137.584, 208.331
138.970, 329.584
140.355, 508.181
141.740, 766.923
143.124, 1005.697
144.509, 1216.504
145.893, 1254.362
147.277, 879.285
148.660, 546.255
150.044, 303.248
151.427, 183.260
152.810, 80.272
154.193, 33.730
155.576, 17.750
156.958, 68.802
158.341, 27.901
159.723, 53.059
161.105, 41.287
162.486, 21.595
163.867, 28.014
165.249, 91.542
166.630, 175.983
168.010, 426.337
169.391, 875.589
170.771, 1884.737
172.151, 3594.763
173.531, 5875.653
174.911, 9627.413
176.290, 12350.036
177.669, 10122.533
179.049, 6261.944
180.427, 3428.356
181.806, 1690.258
183.184, 843.376
184.562, 433.537
185.940, 210.685
187.318, 110.819
188.696, 98.421
190.073, 155.296
191.450, 412.861
192.827, 660.013
194.204, 1264.140
195.580, 1800.249
196.956, 2297.339
198.332, 2219.732
199.708, 1506.041
201.084, 924.201
202.459, 483.530
203.834, 272.358
205.209, 168.556
206.584, 28.123
207.958, 47.171
209.333, 11.478
210.707, 12.812
212.081, 60.187
213.454, 87.631
214.828, 81.174
216.201, 75.856
217.574, 36.773
218.947, 31.542
220.320, 67.489
221.692, 147.009
223.064, 209.175
224.436, 317.381
225.808, 494.396
227.179, 906.428
228.551, 1585.970
229.922, 3203.769
231.293, 5883.259
232.663, 10710.537
234.034, 9840.995
235.404, 14150.354
236.774, 8996.336
238.144, 4829.959
239.514, 2978.142
240.883, 2086.792
242.252, 1733.018
243.621, 1796.063
244.990, 1983.216
246.359, 2567.363
247.727, 3304.443
249.095, 5004.453
250.463, 8132.214
251.831, 13516.522
253.198, 22610.348
254.566, 33334.254
255.933, 47657.801
257.299, 49401.633
258.666, 36914.777
260.033, 22577.938
261.399, 12670.729
262.765, 7650.105
264.131, 4825.191
265.496, 3440.981
266.862, 2636.622
268.227, 2405.971
269.592, 2690.098
270.957, 3110.885
272.321, 3919.625
273.685, 4454.233
275.050, 4230.697
276.413, 3465.257
277.777, 3094.590
279.141, 3719.801
280.504, 5305.094
281.867, 8465.091
283.230, 12714.669
284.592, 18173.990
285.955, 21933.021
287.317, 18292.064
288.679, 12711.025
290.041, 7597.675
291.403, 4813.515
292.764, 3137.524
294.125, 2177.838
295.486, 1723.748
296.847, 1200.343
298.207, 999.096
299.568, 735.056
300.928, 617.980
302.288, 596.839
303.647, 462.666
305.007, 466.243
306.366, 422.904
307.725, 409.600
309.084, 363.280
310.443, 354.944
311.801, 338.591
313.159, 315.328
314.517, 308.186
315.875, 306.828
317.233, 279.429
318.590, 287.375
319.947, 261.309
321.304, 228.184
322.661, 150.679
324.018, 162.684
325.374, 173.381
326.730, 204.375
328.086, 279.119
329.442, 313.086
330.797, 495.910
332.153, 579.106
333.508, 806.478
334.863, 1015.886
336.217, 1106.233
337.572, 1137.569
338.926, 828.894
340.280, 467.208
341.634, 203.513
342.988, 119.807
344.341, 17.087
345.694, 77.649
347.047, 19.413
348.400, 8.180
349.753, 33.103
351.105, 4.560
352.457, 0.078
353.809, 24.229
355.161, 2.089
356.512, 10.620
357.864, 65.147
359.215, 55.263
360.566, 107.492
361.916, 113.517
363.267, 199.960
364.617, 169.653
365.967, 273.461
367.317, 346.834
368.667, 440.450
370.016, 518.424
371.366, 680.653
372.715, 937.386
374.064, 1238.131
375.412, 1734.986
376.761, 2316.221
378.109, 2946.954
379.457, 3458.109
380.805, 3200.690
382.152, 2890.976
383.500, 2698.561
384.847, 3074.787
386.194, 4069.244
387.541, 5211.123
388.887, 7645.719
390.233, 11524.656
391.580, 18104.568
392.926, 25664.453
394.271, 28934.303
395.617, 25924.146
396.962, 17203.977
398.307, 10413.785
399.652, 6440.579
400.997, 3913.355
402.341, 2737.112
403.686, 1839.850
405.030, 1340.564
406.374, 987.260
407.717, 793.943
409.061, 699.625
410.404, 533.291
411.747, 526.950
413.090, 451.593
414.433, 531.217
415.775, 585.825
417.117, 765.416
418.459, 1109.990
419.801, 1362.547
421.143, 1725.091
422.484, 1763.619
423.825, 1515.134
425.166, 1212.639
426.507, 800.132
427.848, 670.618
429.188, 510.094
430.528, 560.564
431.868, 590.027
433.208, 652.485
434.547, 1002.938
435.887, 1568.387
437.226, 2899.832
438.565, 5445.272
439.904, 9710.711
441.242, 13750.144
442.580, 11519.574
443.918, 7532.003
445.256, 4620.431
446.594, 3293.859
447.932, 2949.289
449.269, 2684.720
450.606, 2908.154
451.943, 2934.594
453.280, 2935.041
454.616, 3110.498
455.952, 3085.962
457.288, 3402.725
458.624, 3145.442
459.960, 2562.272
461.295, 1835.037
462.631, 1307.863
463.966, 1019.475
465.300, 699.260
466.635, 562.020
467.969, 462.045
469.304, 385.565
470.638, 341.079
471.972, 243.340
473.305, 193.539
474.639, 126.650
475.972, 130.744
477.305, 124.853
478.638, 72.874
479.970, 101.993
481.303, 69.059
482.635, 70.068
483.967, 61.812
485.298, 94.678
486.630, 193.656
487.961, 169.818
489.293, 230.325
490.624, 303.998
491.954, 228.742
493.285, 151.484
494.615, 68.219
495.945, 85.947
497.275, 94.668
498.605, 153.383
499.935, 246.090
501.264, 260.791
502.593, 485.066
503.922, 497.996
505.251, 672.500
506.579, 855.611
507.908, 865.718
509.236, 965.046
510.564, 733.647
511.891, 597.146
513.219, 387.626
514.546, 246.703
515.873, 160.263
517.200, 65.348
518.527, 84.725
519.853, 35.731
521.180, 59.245
522.506, 2.950
523.832, 49.166
525.157, 3.675
526.483, 20.353
527.808, 4.821
529.133, 73.275
530.458, 92.433
531.783, 171.015
533.107, 224.973
534.431, 414.545
535.756, 620.400
537.079, 938.706
538.403, 1559.466
539.727, 2235.262
541.050, 2776.245
542.373, 3066.611
543.696, 2704.370
545.018, 2150.637
546.341, 1495.641
547.663, 1066.402
548.985, 822.511
550.307, 592.027
551.629, 516.621
552.950, 422.580
554.271, 450.357
555.592, 462.328
556.913, 522.666
558.234, 648.943
559.554, 711.764
560.875, 911.655
562.195, 1057.085
563.514, 1309.154
564.834, 1690.086
566.154, 2020.384
567.473, 2749.714
568.792, 3770.284
570.111, 4355.015
571.429, 5047.228
572.748, 4980.759
574.066, 4456.205
575.384, 3446.639
576.702, 2662.059
578.019, 2107.467
579.337, 1691.861
580.654, 1471.243
581.971, 1280.611
583.288, 1131.967
584.605, 980.309
585.921, 803.639
587.237, 616.955
588.553, 529.258
589.869, 416.549
591.185, 388.826
592.500, 416.090
593.815, 539.341
595.130, 595.579
596.445, 850.804
597.760, 1154.016
599.074, 1510.214
600.389, 2074.400
601.703, 2227.572
603.016, 2134.730
604.330, 1775.876
605.644, 1270.008
606.957, 930.127
608.270, 618.232
609.583, 462.324
610.895, 301.403
612.208, 173.468
613.520, 197.519
614.832, 64.557
616.144, 77.579
617.455, 52.584
618.767, 69.573
620.078, 60.165
621.389, 6.879
622.700, 70.043
624.011, 76.341
625.321, 26.277
626.631, 120.146
627.941, 76.001
629.251, 175.841
630.561, 197.668
631.870, 302.481
633.180, 425.283
634.489, 582.072
635.798, 930.848
637.106, 1289.536
638.415, 1681.287
639.723, 2056.943
641.031, 2001.595
642.339, 1885.205
643.647, 1642.909
644.954, 1305.601
646.261, 1131.280
647.568, 831.944
648.875, 818.594
650.182, 623.229
651.488, 608.848
652.795, 607.403
654.101, 475.991
655.407, 495.565
656.712, 355.123
658.018, 361.667
659.323, 419.195
660.628, 382.709
661.933, 479.213
663.238, 488.706
664.542, 488.200
665.847, 462.687
667.151, 332.164
668.455, 232.631
669.758, 122.087
671.062, 105.535
672.365, 80.975
673.668, 26.404
674.971, 2.817
676.274, 39.204
677.577, 52.544
678.879, 10.134
680.181, 44.195
681.483, 0.558
682.785, 44.650
684.086, 38.227
685.388, 47.544
686.689, 80.539
687.990, 71.567
689.290, 77.662
690.591, 39.826
691.891, 108.041
693.192, 67.340
694.491, 42.704
695.791, 91.118
697.091, 30.609
698.390, 37.143
699.689, 91.725
700.988, 4.383
702.287, 33.069
703.586, 45.799
704.884, 3.580
706.182, 43.388
707.480, 3.756
708.778, 17.876
710.076, 18.020
711.373, 15.050
712.670, 5.103
713.968, 11.865
715.264, 4.862
716.561, 6.883
717.857, 16.930
719.154, 5.993
720.450, 10.102
721.746, 17.223
723.041, 67.372
724.337, 6.576
725.632, 43.802
726.927, 2.068
728.222, 12.646
729.517, 30.347
730.811, 81.038
732.105, 20.718
733.400, 86.389
734.693, 64.049
735.987, 92.700
737.281, 152.341
738.574, 257.973
739.867, 362.596
741.160, 470.209
742.453, 650.814
743.745, 973.410
745.038, 1081.998
746.330, 1273.577
747.622, 1165.148
748.913, 916.712
750.205, 852.268
751.496, 716.816
752.788, 799.357
754.079, 843.891
755.369, 868.418
756.660, 833.976
757.950, 796.453
759.241, 662.960
760.531, 526.462
761.820, 344.958
763.110, 273.448
764.399, 153.932
765.689, 131.412
766.978, 123.886
768.267, 87.355
769.555, 75.820
770.844, 6.988
772.132, 34.208
773.420, 20.323
774.708, 43.492
775.996, 17.630
777.283, 22.968
778.570, 17.869
779.857, 2.687
781.144, 15.219
782.431, 48.585
783.718, 32.767
785.004, 121.170
786.290, 123.572
787.576, 129.972
788.862, 257.371
790.147, 237.768
791.433, 272.165
792.718, 200.560
794.003, 144.956
795.288, 235.351
796.572, 154.746
797.857, 159.142
799.141, 190.537
800.425, 188.934
801.709, 203.330
802.992, 165.728
804.276, 148.126
805.559, 219.525
806.842, 134.926
808.125, 154.328
809.407, 99.732
810.690, 58.138
811.972, 121.546
813.254, 46.957
814.536, 67.369
815.818, 77.785
817.099, 30.203
818.381, 113.624
819.662, 22.049
820.943, 5.477
822.223, 18.908
823.504, 47.343
824.784, 14.781
826.065, 24.223
827.345, 63.591
828.624, 103.527
829.904, 26.408
831.183, 83.627
832.462, 65.055
833.741, 122.231
835.020, 103.286
836.299, 112.156
837.577, 166.276
838.856, 157.837
840.134, 214.839
841.412, 222.793
842.689, 133.334
843.967, 230.519
845.244, 222.107
846.521, 277.446
847.798, 305.378
849.075, 312.893
850.351, 354.407
851.628, 363.773
852.904, 415.771
854.180, 512.403
855.455, 524.537
856.731, 624.947
858.006, 756.620
859.281, 793.949
860.556, 966.878
861.831, 989.734
863.106, 1242.230
864.380, 1471.930
865.655, 1650.443
866.929, 2099.593
868.202, 2456.825
869.476, 2949.520
870.750, 3827.155
872.023, 4529.256
873.296, 6149.725
874.569, 7987.351
875.842, 10702.615
877.114, 15004.857
878.386, 18070.863
879.658, 21474.715
880.930, 21291.090
882.202, 17428.158
883.474, 14405.313
884.745, 10512.490
886.016, 8819.690
887.287, 7536.907
888.558, 6590.150
889.829, 6650.414
891.099, 6150.703
892.369, 6085.020
893.639, 6140.356
894.909, 6103.737
896.179, 7108.144
897.448, 7835.571
898.718, 9483.034
899.987, 11790.522
901.256, 14528.050
902.524, 19345.605
903.793, 24583.178
905.061, 30680.793
906.329, 38418.438
907.597, 40236.109
908.865, 42353.812
910.133, 37971.531
911.400, 31359.283
912.667, 25947.066
913.934, 20274.873
915.201, 16252.726
916.468, 13140.600
917.734, 10528.494
919.001, 8826.419
920.267, 7364.366
921.532, 6122.343
922.798, 5614.347
924.064, 4634.377
925.329, 4464.446
926.594, 4010.539
927.859, 3776.043
929.124, 3647.195
930.388, 3349.380
931.653, 3050.212
932.917, 2931.417
934.181, 2482.696
935.445, 2430.017
936.708, 1965.367
937.972, 1784.755
939.235, 1641.168
940.498, 1356.607
941.761, 1365.073
943.024, 1191.567
944.286, 1017.087
945.548, 1055.643
946.811, 827.227
948.072, 832.835
949.334, 798.474
950.596, 714.138
951.857, 756.827
953.118, 639.550
954.379, 660.299
955.640, 696.074
956.901, 581.875
958.161, 624.703
959.421, 671.561
960.681, 691.444
961.941, 759.355
963.201, 748.292
964.460, 945.255
965.720, 1142.245
966.979, 1368.261
968.238, 1770.303
969.496, 2134.372
970.755, 2769.467
972.013, 3269.588
973.272, 3389.738
974.529, 4003.916
975.787, 4259.119
977.045, 4473.350
978.302, 4745.606
979.560, 4272.892
980.817, 3651.207
982.073, 2715.557
983.330, 2063.933
984.587, 1566.359
985.843, 1211.822
987.099, 927.332
988.355, 790.875
989.611, 574.465
990.866, 540.099
992.122, 388.779
993.377, 361.514
994.632, 345.301
995.887, 237.143
997.141, 309.029
998.396, 299.181
999.650, 275.181
1000.904, 366.275
1002.158, 291.473
1003.412, 411.616
1004.665, 483.416
1005.918, 418.656
1007.172, 615.514
1008.425, 629.740
1009.677, 828.098
1010.930, 883.237
1012.182, 845.670
1013.434, 1097.570
1014.687, 1161.100
1015.938, 1377.821
1017.190, 1969.390
1018.441, 2399.058
1019.693, 3137.671
1020.944, 3732.416
1022.195, 3981.090
1023.445, 4304.794
1024.696, 3643.086
1025.946, 3094.846
1027.197, 2723.638
1028.446, 2036.474
1029.696, 1940.339
1030.946, 1633.240
1032.195, 1380.168
1033.445, 1380.119
1034.694, 1177.092
1035.942, 1185.086
1037.191, 1196.104
1038.440, 1120.985
1039.688, 1292.043
1040.936, 1229.897
1042.184, 1436.179
1043.432, 1617.328
1044.679, 1608.361
1045.927, 1945.182
1047.174, 2116.397
1048.421, 2467.644
1049.668, 2988.153
1050.914, 3391.778
1052.161, 4312.438
1053.407, 5380.082
1054.653, 6215.195
1055.899, 8355.473
1057.145, 9846.808
1058.391, 11580.481
1059.636, 12991.850
1060.881, 12545.233
1062.126, 11957.661
1063.371, 10299.182
1064.615, 8314.832
1065.860, 7136.279
1067.104, 5624.744
1068.348, 4355.835
1069.592, 3778.330
1070.836, 2916.455
1072.079, 2542.353
1073.323, 2123.896
1074.566, 1705.557
1075.809, 1585.124
1077.052, 1302.383
1078.294, 1145.658
1079.537, 1061.274
1080.779, 800.559
1082.021, 778.596
1083.263, 717.254
1084.504, 613.062
1085.746, 658.162
1086.987, 461.826
1088.228, 477.547
1089.469, 453.279
1090.710, 362.574
1091.951, 375.761
1093.191, 316.525
1094.431, 293.065
1095.671, 303.087
1096.911, 228.916
1098.151, 240.499
1099.390, 315.313
1100.630, 222.154
1101.869, 314.699
1103.108, 238.551
1104.346, 229.611
1105.585, 251.473
1106.823, 164.343
1108.062, 218.052
1109.300, 223.422
1110.537, 235.373
1111.775, 294.274
1113.013, 228.182
1114.250, 267.208
1115.487, 284.150
1116.724, 275.080
1117.961, 312.226
1119.197, 280.197
1120.434, 238.157
1121.670, 319.716
1122.906, 231.676
1124.142, 307.101
1125.377, 279.071
1126.613, 212.045
1127.848, 258.686
1129.083, 204.669
1130.318, 193.656
1131.553, 191.772
1132.787, 89.767
1134.022, 110.861
1135.256, 150.915
1136.490, 49.920
1137.724, 93.180
1138.957, 35.191
1140.191, 40.277
1141.424, 115.291
1142.657, 10.305
1143.890, 60.520
1145.123, 21.660
1146.355, 40.293
1147.588, 78.102
1148.820, 2.893
1150.052, 74.890
1151.284, 27.690
1152.516, 82.338
1153.747, 34.676
1154.978, 21.346
1156.209, 67.418
1157.440, 31.877
1158.671, 23.902
1159.902, 23.983
1161.132, 15.042
1162.362, 81.168
1163.592, 7.142
1164.822, 1.068
1166.052, 79.039
1167.281, 15.748
1168.511, 26.337
1169.740, 7.424
1170.969, 53.179
1172.197, 66.073
1173.426, 26.737
1174.654, 10.804
1175.883, 5.503
1177.111, 11.554
1178.338, 10.873
1179.566, 14.917
1180.794, 31.866
1182.021, 11.585
1183.248, 31.376
1184.475, 9.340
1185.702, 12.020
1186.928, 31.603
1188.155, 9.377
1189.381, 15.775
1190.607, 6.875
1191.833, 73.183
1193.059, 4.663
1194.284, 9.193
1195.509, 41.314
1196.735, 4.142
1197.960, 61.053
1199.184, 3.341
1200.409, 4.734
1201.633, 33.829
1202.858, 19.501
1204.082, 22.846
1205.306, 23.865
1206.529, 47.392
1207.753, 17.241
1208.976, 1.025
1210.199, 19.170
1211.422, 50.469
1212.645, 32.665
1213.868, 42.827
1215.090, 9.936
1216.313, 37.027
1217.535, 5.775
1218.757, 18.276
1219.978, 36.310
1221.200, 27.668
1222.421, 66.314
1223.643, 14.283
1224.864, 15.231
1226.084, 94.160
1227.305, 17.404
1228.526, 25.475
1229.746, 65.336
1230.966, 39.230
1232.186, 27.675
1233.406, 19.543
1234.625, 63.033
1235.845, 80.761
1237.064, 28.474
1238.283, 33.320
1239.502, 107.994
1240.721, 12.227
1241.939, 44.394
1243.157, 61.998
1244.376, 26.673
1245.594, 103.240
1246.811, 69.792
1248.029, 8.089
1249.247, 75.601
1250.464, 53.224
1251.681, 134.883
1252.898, 84.351
1254.115, 25.056
1255.331, 114.488
1256.548, 51.902
1257.764, 97.327
1258.980, 106.707
1260.196, 68.071
1261.411, 85.946
1262.627, 129.276
1263.842, 63.590
1265.057, 86.887
1266.272, 92.165
1267.487, 46.425
1268.702, 177.758
1269.916, 53.979
1271.130, 115.179
1272.344, 159.361
1273.558, 47.525
1274.772, 127.662
1275.986, 143.780
1277.199, 80.039
1278.412, 172.120
1279.625, 85.184
1280.838, 95.690
1282.051, 195.714
1283.263, 73.720
1284.475, 156.727
1285.687, 93.691
1286.899, 114.638
1288.111, 124.563
1289.323, 81.468
1290.534, 89.420
1291.745, 108.285
1292.957, 68.924
1294.167, 157.848
1295.378, 167.604
1296.589, 56.294
1297.799, 165.060
1299.009, 94.193
1300.219, 102.922
1301.429, 161.051
1302.639, 62.833
1303.848, 67.508
1305.057, 129.415
1306.267, 34.054
1307.476, 153.234
1308.684, 74.788
1309.893, 61.168
1311.101, 92.685
1312.310, 105.113
1313.518, 78.608
1314.725, 105.986
1315.933, 112.447
1317.141, 114.885
1318.348, 80.742
1319.555, 57.143
1320.762, 139.523
1321.969, 57.886
1323.176, 112.231
1324.382, 161.553
1325.589, 64.859
1326.795, 94.146
1328.001, 79.414
1329.206, 62.665
1330.412, 121.898
1331.617, 121.268
1332.823, 56.465
1334.028, 118.940
1335.233, 91.916
1336.437, 58.028
1337.642, 123.257
1338.846, 54.703
1340.051, 112.755
1341.255, 134.779
1342.458, 51.543
1343.662, 133.195
1344.866, 93.813
1346.069, 79.449
1347.272, 151.618
1348.475, 81.625
1349.678, 170.580
1350.880, 108.227
1352.083, 64.153
1353.285, 109.063
1354.487, 97.933
1355.689, 54.712
1356.891, 116.366
1358.093, 75.244
1359.294, 115.088
1360.495, 172.279
1361.696, 58.097
1362.897, 130.258
1364.098, 142.688
1365.298, 86.436
1366.499, 170.066
1367.699, 94.792
1368.899, 89.827
1370.099, 153.855
1371.298, 22.544
1372.498, 126.564
1373.697, 148.836
1374.896, 17.488
1376.095, 47.996
1377.294, 83.670
1378.493, 27.668
1379.691, 69.945
1380.889, 81.558
1382.087, 39.527
1383.285, 94.561
1384.483, 42.983
1385.681, 126.147
1386.878, 137.457
1388.075, 46.537
1389.272, 126.821
1390.469, 81.617
1391.666, 3.486
1392.862, 156.085
1394.059, 37.986
1395.255, 31.712
1396.451, 103.315
1397.647, 25.067
1398.842, 98.156
1400.038, 86.363
1401.233, 55.299
1402.428, 119.944
1403.623, 128.411
1404.818, 7.814
1406.013, 76.052
1407.207, 77.463
1408.401, 66.926
1409.595, 86.964
1410.789, 78.845
1411.983, 37.208
1413.177, 135.814
1414.370, 65.029
1415.563, 75.875
1416.756, 111.790
1417.949, 57.668
1419.142, 148.216
1420.335, 24.407
1421.527, 123.511
1422.719, 103.779
1423.911, 3.422
1425.103, 91.163
1426.295, 128.369
1427.486, 46.066
1428.677, 131.551
1429.869, 92.657
1431.060, 60.134
1432.250, 159.535
1433.441, 31.088
1434.632, 108.168
1435.822, 151.709
1437.012, 23.686
1438.202, 91.753
1439.392, 120.899
1440.581, 46.853
1441.771, 105.711
1442.960, 123.835
1444.149, 62.010
1445.338, 150.975
1446.527, 114.141
1447.715, 116.335
1448.904, 214.528
1450.092, 45.765
1451.280, 140.857
1452.468, 123.880
1453.656, 93.629
1454.843, 98.484
1456.031, 57.393
1457.218, 83.570
1458.405, 163.561
1459.592, 98.106
1460.778, 137.952
1461.965, 139.646
1463.151, 33.137
1464.337, 103.105
1465.523, 121.123
1466.709, 33.871
1467.895, 116.827
1469.080, 119.774
1470.266, 58.480
1471.451, 145.411
1472.636, 108.353
1473.821, 26.883
1475.005, 164.818
1476.190, 17.546
1477.374, 138.294
1478.558, 159.202
1479.742, 40.124
1480.926, 160.841
1482.109, 62.451
1483.293, 64.364
1484.476, 111.269
1485.659, 114.160
1486.842, 33.036
1488.025, 111.888
1489.207, 47.763
1490.390, 69.727
1491.572, 105.781
1492.754, 11.830
1493.936, 59.935
1495.118, 134.067
1496.299, 45.215
1497.481, 128.421
1498.662, 84.649
