##NAMES=Euclase
##RRUFFID=R050032
##IDEAL CHEMISTRY=BeAlSiO_4_(OH)
##LOCALITY=Minas Gerais, Brazil
##OWNER=RRUFF
##SOURCE=University of Arizona Mineral Museum
##DESCRIPTION=Colorless crystal fragments
##STATUS=The identification of this mineral has been confirmed by X-ray diffraction and chemical analysis
##URL=rruff.info/R050032
##MEASURED CHEMISTRY=Be_1.00_Al_1.00_Si_1.00_O_4_(OH)
##PIN_ID=L00356
##ORIENTATION=Laser parallel to b* (0 1 0). Fiducial mark perpendicular to laser is parallel to c [0 0 1]
93.142, 0.000
94.534, 136.916
95.926, 61.747
97.318, 193.124
98.709, 121.988
100.101, 106.869
101.492, 29.052
102.883, 3.703
104.273, 8.958
105.664, 19.973
107.054, 129.493
108.444, 230.842
109.834, 378.767
111.223, 376.327
112.613, 454.110
114.002, 357.458
115.391, 435.008
116.780, 439.866
118.168, 267.930
119.556, 221.733
120.944, 142.552
122.332, 5.380
123.720, 116.261
125.107, 71.883
126.495, 27.688
127.882, 83.034
129.268, 28.960
130.655, 140.481
132.041, 45.335
133.427, 79.492
134.813, 173.062
136.199, 83.869
137.584, 251.474
138.970, 211.565
140.355, 212.395
141.740, 253.724
143.124, 554.441
144.509, 1102.361
145.893, 1283.652
147.277, 929.062
148.660, 483.229
150.044, 276.097
151.427, 214.446
152.810, 198.204
154.193, 257.596
155.576, 263.821
156.958, 207.978
158.341, 170.864
159.723, 136.223
161.105, 129.534
162.486, 144.437
163.867, 79.194
165.249, 157.757
166.630, 111.127
168.010, 110.938
169.391, 96.312
170.771, 66.110
172.151, 129.739
173.531, 104.231
174.911, 206.604
176.290, 493.023
177.669, 1879.975
179.049, 2028.939
180.427, 1795.367
181.806, 2855.833
183.184, 890.435
184.562, 290.087
185.940, 159.702
187.318, 50.061
188.696, 28.309
190.073, 65.454
191.450, 9.708
192.827, 15.210
194.204, 13.530
195.580, 5.274
196.956, 29.587
198.332, 1.413
199.708, 2.275
201.084, 7.684
202.459, 39.095
203.834, 12.171
205.209, 31.726
206.584, 68.621
207.958, 10.340
209.333, 18.990
210.707, 34.444
212.081, 33.141
213.454, 43.321
214.828, 0.797
216.201, 36.538
217.574, 69.322
218.947, 5.603
220.320, 50.280
221.692, 24.979
223.064, 84.408
224.436, 85.659
225.808, 122.719
227.179, 235.552
228.551, 357.618
229.922, 594.692
231.293, 1299.756
232.663, 3385.157
234.034, 9211.275
235.404, 10567.229
236.774, 6886.024
238.144, 2891.680
239.514, 1257.226
240.883, 839.672
242.252, 590.034
243.621, 673.335
244.990, 608.601
246.359, 794.844
247.727, 967.063
249.095, 1211.255
250.463, 1970.418
251.831, 2831.495
253.198, 5283.748
254.566, 10165.008
255.933, 22700.939
257.299, 34466.191
258.666, 27993.990
260.033, 16439.994
261.399, 7279.190
262.765, 3831.100
264.131, 2184.162
265.496, 1407.026
266.862, 1040.760
268.227, 678.272
269.592, 628.358
270.957, 487.621
272.321, 414.666
273.685, 507.986
275.050, 392.482
276.413, 466.150
277.777, 438.489
279.141, 594.844
280.504, 738.015
281.867, 1201.774
283.230, 2087.427
284.592, 4094.584
285.955, 3778.298
287.317, 5697.730
288.679, 3674.073
290.041, 1854.611
291.403, 1049.079
292.764, 710.869
294.125, 479.508
295.486, 435.008
296.847, 310.167
298.207, 226.453
299.568, 241.326
300.928, 199.300
302.288, 270.329
303.647, 193.037
305.007, 212.510
306.366, 237.741
307.725, 208.915
309.084, 192.671
310.443, 185.221
311.801, 184.757
313.159, 158.800
314.517, 179.611
315.875, 159.878
317.233, 164.570
318.590, 175.594
319.947, 164.556
321.304, 144.548
322.661, 160.516
324.018, 138.845
325.374, 139.309
326.730, 120.553
328.086, 101.096
329.442, 138.644
330.797, 167.335
332.153, 96.386
333.508, 137.898
334.863, 117.145
336.217, 108.076
337.572, 135.649
338.926, 130.152
340.280, 134.021
341.634, 82.170
342.988, 102.274
344.341, 190.334
345.694, 174.350
347.047, 286.310
348.400, 449.130
349.753, 799.065
351.105, 1515.802
352.457, 1630.129
353.809, 1518.266
355.161, 920.051
356.512, 548.399
357.864, 419.380
359.215, 270.034
360.566, 318.568
361.916, 276.447
363.267, 291.035
364.617, 248.520
365.967, 331.488
367.317, 361.620
368.667, 373.481
370.016, 511.087
371.366, 577.708
372.715, 819.373
374.064, 1106.116
375.412, 1573.011
376.761, 2711.904
378.109, 3967.407
379.457, 6251.697
380.805, 6462.382
382.152, 4912.670
383.500, 3333.124
384.847, 1813.271
386.194, 1266.069
387.541, 865.892
388.887, 968.365
390.233, 1289.410
391.580, 2199.244
392.926, 4769.780
394.271, 6521.006
395.617, 6423.115
396.962, 3851.023
398.307, 1997.075
399.652, 1250.878
400.997, 686.689
402.341, 582.528
403.686, 385.108
405.030, 341.392
406.374, 246.950
407.717, 142.309
409.061, 210.835
410.404, 118.342
411.747, 167.827
413.090, 139.293
414.433, 185.735
415.775, 180.153
417.117, 224.546
418.459, 407.917
419.801, 558.269
421.143, 816.509
422.484, 964.643
423.825, 700.680
425.166, 519.623
426.507, 306.482
427.848, 205.261
429.188, 124.963
430.528, 136.592
431.868, 189.150
433.208, 107.087
434.547, 241.651
435.887, 239.546
437.226, 397.899
438.565, 726.506
439.904, 1504.945
441.242, 1548.493
442.580, 2681.063
443.918, 1906.084
445.256, 1427.060
446.594, 1323.990
447.932, 1703.879
449.269, 1754.738
450.606, 2280.695
451.943, 2407.680
453.280, 2153.673
454.616, 2081.793
455.952, 1490.271
457.288, 1335.583
458.624, 1041.511
459.960, 788.895
461.295, 688.464
462.631, 514.711
463.966, 495.266
465.300, 331.458
466.635, 292.623
467.969, 326.004
469.304, 221.961
470.638, 257.001
471.972, 156.919
473.305, 162.807
474.639, 159.461
475.972, 120.191
477.305, 142.942
478.638, 116.601
479.970, 149.302
481.303, 117.955
482.635, 79.523
483.967, 129.160
485.298, 64.711
486.630, 156.268
487.961, 112.752
489.293, 98.165
490.624, 178.738
491.954, 88.440
493.285, 169.851
494.615, 124.445
495.945, 161.964
497.275, 235.453
498.605, 215.065
499.935, 371.676
501.264, 383.488
502.593, 585.890
503.922, 710.661
505.251, 887.562
506.579, 1306.456
507.908, 1362.931
509.236, 1586.899
510.564, 1381.600
511.891, 1049.916
513.219, 826.145
514.546, 455.750
515.873, 401.591
517.200, 209.355
518.527, 151.415
519.853, 110.076
521.180, 8.020
522.506, 63.648
523.832, 13.402
525.157, 25.688
526.483, 33.761
527.808, 39.909
529.133, 35.334
530.458, 10.114
531.783, 56.563
533.107, 49.414
534.431, 39.206
535.756, 128.653
537.079, 150.916
538.403, 228.444
539.727, 394.550
541.050, 567.513
542.373, 514.174
543.696, 524.000
545.018, 393.906
546.341, 208.980
547.663, 81.073
548.985, 98.753
550.307, 35.849
551.629, 101.264
552.950, 28.391
554.271, 53.932
555.592, 96.222
556.913, 58.185
558.234, 112.158
559.554, 109.599
560.875, 101.558
562.195, 194.638
563.514, 197.739
564.834, 340.233
566.154, 388.816
567.473, 764.144
568.792, 1152.463
570.111, 1836.384
571.429, 3148.501
572.748, 3313.486
574.066, 3012.657
575.384, 2250.792
576.702, 1644.147
578.019, 1496.704
579.337, 1450.241
580.654, 1931.759
581.971, 2599.259
583.288, 2215.740
584.605, 2053.204
585.921, 1314.649
587.237, 1008.798
588.553, 603.604
589.869, 453.450
591.185, 403.508
592.500, 238.217
593.815, 268.486
595.130, 173.740
596.445, 265.066
597.760, 299.380
599.074, 291.681
600.389, 435.968
601.703, 488.241
603.016, 456.498
604.330, 346.742
605.644, 174.971
606.957, 177.187
608.270, 95.388
609.583, 79.574
610.895, 69.745
612.208, 30.901
613.520, 65.040
614.832, 54.165
616.144, 17.277
617.455, 59.377
618.767, 24.468
620.078, 55.549
621.389, 47.621
622.700, 51.683
624.011, 72.737
625.321, 41.783
626.631, 108.819
627.941, 66.849
629.251, 82.872
630.561, 83.685
631.870, 109.523
633.180, 116.351
634.489, 82.016
635.798, 130.779
637.106, 162.434
638.415, 247.229
639.723, 293.895
641.031, 403.402
642.339, 564.121
643.647, 734.572
644.954, 776.409
646.261, 849.067
647.568, 606.668
648.875, 516.608
650.182, 339.172
651.488, 260.079
652.795, 260.800
654.101, 107.679
655.407, 195.600
656.712, 87.516
658.018, 41.427
659.323, 84.331
660.628, 13.231
661.933, 67.123
663.238, 50.009
664.542, 19.888
665.847, 65.377
667.151, 19.648
668.455, 7.183
669.758, 21.161
671.062, 0.965
672.365, 3.249
673.668, 53.482
674.971, 46.241
676.274, 27.963
677.577, 7.546
678.879, 19.621
680.181, 44.034
681.483, 3.985
682.785, 11.659
684.086, 30.560
685.388, 8.567
686.689, 31.373
687.990, 1.377
689.290, 19.524
690.591, 35.484
691.891, 6.473
693.192, 26.207
694.491, 47.836
695.791, 40.507
697.091, 38.215
698.390, 4.961
699.689, 46.727
700.988, 20.534
702.287, 57.368
703.586, 41.249
704.884, 0.505
706.182, 58.681
707.480, 4.813
708.778, 26.431
710.076, 17.013
711.373, 5.487
712.670, 7.847
713.968, 17.640
715.264, 34.652
716.561, 26.993
717.857, 12.399
719.154, 30.579
720.450, 2.789
721.746, 14.984
723.041, 13.251
724.337, 71.496
725.632, 294.236
726.927, 452.971
728.222, 462.700
729.517, 50.424
730.811, 75.141
732.105, 13.853
733.400, 45.558
734.693, 51.255
735.987, 45.945
737.281, 134.628
738.574, 93.304
739.867, 138.972
741.160, 131.634
742.453, 154.290
743.745, 296.940
745.038, 277.586
746.330, 416.228
747.622, 504.866
748.913, 561.500
750.205, 931.129
751.496, 1114.752
752.788, 1685.370
754.079, 2452.982
755.369, 2843.589
756.660, 2787.865
757.950, 2808.787
759.241, 2171.379
760.531, 1649.965
761.820, 998.547
763.110, 914.125
764.399, 590.562
765.689, 484.933
766.978, 437.264
768.267, 315.431
769.555, 347.742
770.844, 252.008
772.132, 234.120
773.420, 267.408
774.708, 180.551
775.996, 268.825
777.283, 254.067
778.570, 217.327
779.857, 362.676
781.144, 351.896
782.431, 503.399
783.718, 578.727
785.004, 753.124
786.290, 1070.527
787.576, 1154.040
788.862, 1542.554
790.147, 1574.958
791.433, 1432.470
792.718, 1467.981
794.003, 985.492
795.288, 858.001
796.572, 655.511
797.857, 437.021
799.141, 440.531
800.425, 298.040
801.709, 261.549
802.992, 195.058
804.276, 108.566
805.559, 156.074
806.842, 73.582
808.125, 145.090
809.407, 74.597
810.690, 8.103
811.972, 80.590
813.254, 21.888
814.536, 30.369
815.818, 36.556
817.099, 17.972
818.381, 59.321
819.662, 18.453
820.943, 5.042
822.223, 31.725
823.504, 7.125
824.784, 41.109
826.065, 28.989
827.345, 4.635
828.624, 25.365
829.904, 53.275
831.183, 19.869
832.462, 6.948
833.741, 2.811
835.020, 48.387
836.299, 13.098
837.577, 41.988
838.856, 31.969
840.134, 23.118
841.412, 46.429
842.689, 9.942
843.967, 48.625
845.244, 77.379
846.521, 55.490
847.798, 111.804
849.075, 71.856
850.351, 130.346
851.628, 162.980
852.904, 132.545
854.180, 204.707
855.455, 198.415
856.731, 170.953
858.006, 320.478
859.281, 284.413
860.556, 428.929
861.831, 382.118
863.106, 489.583
864.380, 646.623
865.655, 621.901
866.929, 860.493
868.202, 999.070
869.476, 1715.168
870.750, 1724.740
872.023, 1941.180
873.296, 2701.587
874.569, 3745.599
875.842, 4796.270
877.114, 7857.756
878.386, 10126.536
879.658, 13505.326
880.930, 15554.126
882.202, 12342.941
883.474, 10091.766
884.745, 6798.610
886.016, 4739.417
887.287, 3598.285
888.558, 2530.167
889.829, 2198.060
891.099, 1819.964
892.369, 1587.879
893.639, 1650.804
894.909, 1439.751
896.179, 1707.711
897.448, 1777.682
898.718, 1956.672
899.987, 2623.673
901.256, 2935.687
902.524, 4074.717
903.793, 5512.758
905.061, 6621.822
906.329, 9202.897
907.597, 9681.984
908.865, 9811.084
910.133, 9430.198
911.400, 7001.331
912.667, 5899.476
913.934, 4507.631
915.201, 3380.811
916.468, 2927.002
917.734, 2100.207
919.001, 1809.427
920.267, 1547.660
921.532, 1202.910
922.798, 1208.175
924.064, 877.454
925.329, 792.754
926.594, 752.072
927.859, 581.404
929.124, 615.752
930.388, 498.113
931.653, 443.492
932.917, 493.891
934.181, 336.304
935.445, 363.731
936.708, 276.172
937.972, 251.625
939.235, 273.093
940.498, 171.574
941.761, 217.068
943.024, 199.576
944.286, 69.097
945.548, 222.636
946.811, 152.188
948.072, 140.754
949.334, 178.345
950.596, 113.950
951.857, 186.571
953.118, 169.205
954.379, 125.853
955.640, 190.514
956.901, 87.190
958.161, 183.879
959.421, 206.584
960.681, 191.302
961.941, 309.034
963.201, 247.782
964.460, 396.544
965.720, 485.320
966.979, 491.111
968.238, 846.916
969.496, 994.735
970.755, 1233.569
972.013, 1715.797
973.272, 1504.542
974.529, 1516.427
975.787, 1196.165
977.045, 862.080
978.302, 753.012
979.560, 555.962
980.817, 457.944
982.073, 408.855
983.330, 250.879
984.587, 265.919
985.843, 181.933
987.099, 160.017
988.355, 218.198
989.611, 130.323
990.866, 210.475
992.122, 173.642
993.377, 147.836
994.632, 231.073
995.887, 154.307
997.141, 232.567
998.396, 240.605
999.650, 218.908
1000.904, 347.239
1002.158, 347.920
1003.412, 342.308
1004.665, 469.228
1005.918, 391.701
1007.172, 602.159
1008.425, 612.696
1009.677, 707.213
1010.930, 937.465
1012.182, 1022.030
1013.434, 1378.612
1014.687, 1827.741
1015.938, 2118.367
1017.190, 3262.009
1018.441, 3975.749
1019.693, 5515.423
1020.944, 7187.067
1022.195, 7126.858
1023.445, 7712.599
1024.696, 6665.998
1025.946, 5135.777
1027.197, 4657.570
1028.446, 3295.382
1029.696, 2924.206
1030.946, 2593.190
1032.195, 2064.539
1033.445, 2103.399
1034.694, 1833.513
1035.942, 1701.399
1037.191, 1807.125
1038.440, 1543.917
1039.688, 1698.846
1040.936, 1726.984
1042.184, 1713.938
1043.432, 1990.903
1044.679, 1986.340
1045.927, 2288.784
1047.174, 2654.784
1048.421, 2799.584
1049.668, 3603.606
1050.914, 3928.979
1052.161, 4875.151
1053.407, 6394.203
1054.653, 7177.736
1055.899, 9561.809
1057.145, 11602.891
1058.391, 12664.768
1059.636, 13088.812
1060.881, 13128.608
1062.126, 11649.727
1063.371, 10210.860
1064.615, 7411.796
1065.860, 6323.943
1067.104, 4923.106
1068.348, 3661.960
1069.592, 3337.135
1070.836, 2515.688
1072.079, 2153.430
1073.323, 1990.632
1074.566, 1481.367
1075.809, 1486.690
1077.052, 1185.916
1078.294, 1061.399
1079.537, 1053.640
1080.779, 1142.688
1082.021, 840.516
1083.263, 752.779
1084.504, 551.304
1085.746, 585.584
1086.987, 490.871
1088.228, 426.199
1089.469, 464.502
1090.710, 322.989
1091.951, 397.305
1093.191, 332.627
1094.431, 281.064
1095.671, 323.409
1096.911, 242.764
1098.151, 267.156
1099.390, 289.511
1100.630, 191.428
1101.869, 241.887
1103.108, 193.258
1104.346, 171.634
1105.585, 290.365
1106.823, 145.761
1108.062, 192.609
1109.300, 198.005
1110.537, 136.406
1111.775, 194.541
1113.013, 146.951
1114.250, 138.396
1115.487, 170.849
1116.724, 92.272
1117.961, 120.751
1119.197, 119.182
1120.434, 110.617
1121.670, 185.059
1122.906, 190.506
1124.142, 161.057
1125.377, 122.511
1126.613, 91.968
1127.848, 122.677
1129.083, 66.140
1130.318, 58.689
1131.553, 139.977
1132.787, 37.458
1134.022, 51.981
1135.256, 78.468
1136.490, 14.044
1137.724, 73.145
1138.957, 28.651
1140.191, 32.144
1141.424, 102.033
1142.657, 1.472
1143.890, 24.023
1145.123, 27.815
1146.355, 22.688
1147.588, 71.252
1148.820, 33.743
1150.052, 11.765
1151.284, 43.271
1152.516, 35.241
1153.747, 1.767
1154.978, 52.004
1156.209, 25.524
1157.440, 45.041
1158.671, 18.425
1159.902, 19.028
1161.132, 42.001
1162.362, 13.548
1163.592, 40.897
1164.822, 31.479
1166.052, 41.080
1167.281, 41.564
1168.511, 19.932
1169.740, 1.525
1170.969, 20.009
1172.197, 31.572
1173.426, 23.811
1174.654, 18.765
1175.883, 3.142
1177.111, 16.571
1178.338, 2.057
1179.566, 8.623
1180.794, 60.822
1182.021, 37.528
1183.248, 24.852
1184.475, 12.561
1185.702, 13.245
1186.928, 46.058
1188.155, 0.140
1189.381, 23.153
1190.607, 52.578
1191.833, 36.792
1193.059, 3.706
1194.284, 43.817
1195.509, 24.934
1196.735, 15.290
1197.960, 0.491
1199.184, 13.280
1200.409, 24.916
1201.633, 33.893
1202.858, 25.271
1204.082, 37.030
1205.306, 5.817
1206.529, 28.326
1207.753, 18.536
1208.976, 18.581
1210.199, 42.693
1211.422, 36.200
1212.645, 24.876
1213.868, 16.418
1215.090, 1.517
1216.313, 70.535
1217.535, 4.581
1218.757, 1.618
1219.978, 53.643
1221.200, 13.337
1222.421, 6.339
1223.643, 45.644
1224.864, 9.775
1226.084, 57.742
1227.305, 0.289
1228.526, 12.325
1229.746, 51.601
1230.966, 12.263
1232.186, 36.172
1233.406, 47.133
1234.625, 24.513
1235.845, 48.401
1237.064, 17.284
1238.283, 37.228
1239.502, 104.094
1240.721, 2.035
1241.939, 31.809
1243.157, 31.634
1244.376, 32.065
1245.594, 43.732
1246.811, 9.521
1248.029, 26.298
1249.247, 58.065
1250.464, 47.825
1251.681, 16.578
1252.898, 39.323
1254.115, 14.061
1255.331, 47.789
1256.548, 44.510
1257.764, 8.316
1258.980, 95.013
1260.196, 38.703
1261.411, 38.384
1262.627, 76.055
1263.842, 36.715
1265.057, 96.367
1266.272, 87.010
1267.487, 58.664
1268.702, 78.285
1269.916, 34.897
1271.130, 71.517
1272.344, 106.110
1273.558, 27.691
1274.772, 84.263
1275.986, 38.825
1277.199, 10.376
1278.412, 106.914
1279.625, 46.443
1280.838, 82.134
1282.051, 92.641
1283.263, 13.820
1284.475, 54.470
1285.687, 83.930
1286.899, 24.377
1288.111, 87.813
1289.323, 62.211
1290.534, 29.662
1291.745, 69.066
1292.957, 22.699
1294.167, 75.082
1295.378, 78.451
1296.589, 19.489
1297.799, 84.911
1299.009, 87.737
1300.219, 29.025
1301.429, 89.341
1302.639, 41.600
1303.848, 44.898
1305.057, 87.466
1306.267, 18.744
1307.476, 79.010
1308.684, 78.738
1309.893, 38.975
1311.101, 68.203
1312.310, 31.339
1313.518, 42.546
1314.725, 103.793
1315.933, 37.908
1317.141, 57.083
1318.348, 72.610
1319.555, 13.766
1320.762, 94.911
1321.969, 48.045
1323.176, 63.170
1324.382, 45.138
1325.589, 41.744
1326.795, 25.840
1328.001, 47.685
1329.206, 18.238
1330.412, 69.000
1331.617, 61.176
1332.823, 13.214
1334.028, 95.045
1335.233, 34.061
1336.437, 20.068
1337.642, 51.605
1338.846, 38.138
1340.051, 56.117
1341.255, 77.297
1342.458, 64.826
1343.662, 84.871
1344.866, 59.686
1346.069, 65.624
1347.272, 72.083
1348.475, 4.006
1349.678, 65.920
1350.880, 91.617
1352.083, 53.517
1353.285, 103.784
1354.487, 65.671
1355.689, 61.551
1356.891, 109.626
1358.093, 4.573
1359.294, 51.430
1360.495, 89.599
1361.696, 52.449
1362.897, 60.926
1364.098, 79.215
1365.298, 48.051
1366.499, 81.356
1367.699, 77.113
1368.899, 18.915
1370.099, 92.461
1371.298, 44.248
1372.498, 41.232
1373.697, 87.437
1374.896, 3.790
1376.095, 64.719
1377.294, 30.486
1378.493, 0.242
1379.691, 54.964
1380.889, 58.008
1382.087, 27.601
1383.285, 117.060
1384.483, 40.064
1385.681, 75.137
1386.878, 67.092
1388.075, 1.546
1389.272, 58.467
1390.469, 87.086
1391.666, 50.578
1392.862, 80.753
1394.059, 46.654
1395.255, 41.533
1396.451, 70.374
1397.647, 56.256
1398.842, 90.007
1400.038, 98.854
1401.233, 19.400
1402.428, 66.181
1403.623, 58.917
1404.818, 43.680
1406.013, 83.578
1407.207, 53.827
1408.401, 82.528
1409.595, 76.851
1410.789, 32.966
1411.983, 67.932
1413.177, 88.568
1414.370, 32.817
1415.563, 100.210
1416.756, 77.139
1417.949, 63.726
1419.142, 107.113
1420.335, 45.274
1421.527, 72.667
1422.719, 78.206
1423.911, 4.963
1425.103, 83.418
1426.295, 56.717
1427.486, 4.738
1428.677, 60.943
1429.869, 78.677
1431.060, 59.930
1432.250, 96.824
1433.441, 20.153
1434.632, 55.615
1435.822, 99.076
1437.012, 30.547
1438.202, 75.045
1439.392, 82.495
1440.581, 9.954
1441.771, 132.420
1442.960, 75.081
1444.149, 48.539
1445.338, 140.994
1446.527, 69.450
1447.715, 66.642
1448.904, 135.090
1450.092, 66.533
1451.280, 106.593
1452.468, 91.988
1453.656, 48.404
1454.843, 114.666
1456.031, 99.035
1457.218, 74.464
1458.405, 142.870
1459.592, 62.274
1460.778, 50.664
1461.965, 99.033
1463.151, 68.384
1464.337, 94.512
1465.523, 131.845
1466.709, 56.182
1467.895, 100.511
1469.080, 73.793
1470.266, 53.079
1471.451, 73.412
1472.636, 78.741
1473.821, 60.071
1475.005, 111.913
1476.190, 23.233
1477.374, 47.106
1478.558, 91.515
1479.742, 29.822
1480.926, 61.240
1482.109, 72.665
1483.293, 24.856
1484.476, 113.292
1485.659, 52.735
1486.842, 42.179
1488.025, 85.623
1489.207, 43.891
1490.390, 38.285
1491.572, 64.220
1492.754, 12.195
1493.936, 74.401
1495.118, 59.017
1496.299, 42.655
1497.481, 54.316
1498.662, 46.005
1499.843, 1.721
1501.024, 82.495
1502.205, 20.329
1503.385, 47.208
1504.565, 72.138
1505.746, 37.127
1506.926, 73.177
1508.106, 65.293
1509.285, 6.408
1510.465, 49.267
1511.644, 53.147
1512.823, 55.134
1514.002, 78.927
1515.181, 59.679
1516.360, 43.328
1517.538, 57.145
1518.717, 23.204
1519.895, 47.469
1521.073, 97.914
1522.251, 0.399
1523.428, 31.080
1524.606, 0.000
##END=



