##NAMES=Euclase
##RRUFFID=R050032
##IDEAL CHEMISTRY=BeAlSiO_4_(OH)
##LOCALITY=Minas Gerais, Brazil
##OWNER=RRUFF
##SOURCE=University of Arizona Mineral Museum
##DESCRIPTION=Colorless crystal fragments
##STATUS=The identification of this mineral has been confirmed by X-ray diffraction and chemical analysis
##URL=rruff.info/R050032
##MEASURED CHEMISTRY=Be_1.00_Al_1.00_Si_1.00_O_4_(OH)
##PIN_ID=L00356
##ORIENTATION=Laser parallel to b* (0 1 0). Fiducial mark perpendicular to laser is parallel to c [0 0 1]
90.357, 0.000
91.749, 192.596
93.142, 56.171
94.534, 204.197
95.926, 158.584
97.318, 216.688
98.709, 162.793
100.101, 106.513
101.492, 7.289
102.883, 16.000
104.273, 42.612
105.664, 61.683
107.054, 195.092
108.444, 227.077
109.834, 293.317
111.223, 289.040
112.613, 352.815
114.002, 340.820
115.391, 279.837
116.780, 350.641
118.168, 371.437
119.556, 351.327
120.944, 269.094
122.332, 117.266
123.720, 147.842
125.107, 181.949
126.495, 144.846
127.882, 203.486
129.268, 221.698
130.655, 301.373
132.041, 321.368
133.427, 392.783
134.813, 356.938
136.199, 406.581
137.584, 359.323
138.970, 529.715
140.355, 662.316
141.740, 674.196
143.124, 1238.158
144.509, 1899.559
145.893, 1969.095
147.277, 1397.512
148.660, 675.510
150.044, 370.693
151.427, 311.469
152.810, 302.212
154.193, 239.481
155.576, 272.144
156.958, 213.537
158.341, 159.263
159.723, 155.337
161.105, 106.261
162.486, 59.094
163.867, 98.785
165.249, 78.333
166.630, 19.742
168.010, 37.016
169.391, 24.163
170.771, 36.189
172.151, 23.099
173.531, 13.063
174.911, 67.475
176.290, 188.264
177.669, 521.367
179.049, 529.438
180.427, 462.971
181.806, 646.404
183.184, 177.234
184.562, 33.286
185.940, 9.670
187.318, 60.563
188.696, 41.417
190.073, 14.281
191.450, 9.177
192.827, 44.125
194.204, 14.864
195.580, 12.722
196.956, 14.358
198.332, 50.276
199.708, 6.035
201.084, 26.894
202.459, 32.806
203.834, 53.170
205.209, 26.199
206.584, 53.219
207.958, 25.713
209.333, 7.340
210.707, 8.725
212.081, 25.516
213.454, 23.443
214.828, 25.839
216.201, 32.659
217.574, 67.092
218.947, 75.322
220.320, 114.716
221.692, 107.639
223.064, 142.340
224.436, 230.855
225.808, 235.000
227.179, 449.422
228.551, 629.488
229.922, 1230.215
231.293, 2670.747
232.663, 7201.742
234.034, 17443.553
235.404, 19725.828
236.774, 12738.015
238.144, 5345.124
239.514, 2388.159
240.883, 1378.144
242.252, 910.098
243.621, 838.040
244.990, 757.972
246.359, 906.891
247.727, 1017.796
249.095, 1278.688
250.463, 1945.566
251.831, 2763.432
253.198, 5197.411
254.566, 10073.994
255.933, 21644.082
257.299, 31153.037
258.666, 25461.248
260.033, 14818.740
261.399, 6767.417
262.765, 3667.406
264.131, 2179.837
265.496, 1465.518
266.862, 1077.515
268.227, 811.520
269.592, 754.219
270.957, 594.531
272.321, 587.837
273.685, 532.700
275.050, 572.289
276.413, 604.337
277.777, 728.166
279.141, 896.494
280.504, 1186.160
281.867, 2054.737
283.230, 3807.039
284.592, 7425.890
285.955, 6818.027
287.317, 10202.716
288.679, 6507.270
290.041, 3483.615
291.403, 2067.136
292.764, 1450.653
294.125, 1029.757
295.486, 821.755
296.847, 701.405
298.207, 578.071
299.568, 529.427
300.928, 454.846
302.288, 482.813
303.647, 398.025
305.007, 469.379
306.366, 428.404
307.725, 400.623
309.084, 399.647
310.443, 359.490
311.801, 391.203
313.159, 336.101
314.517, 343.363
315.875, 322.287
317.233, 314.733
318.590, 310.762
319.947, 293.737
321.304, 278.405
322.661, 304.611
324.018, 292.561
325.374, 293.296
326.730, 267.854
328.086, 289.269
329.442, 265.457
330.797, 264.794
332.153, 276.852
333.508, 267.510
334.863, 330.643
336.217, 344.234
337.572, 332.409
338.926, 274.119
340.280, 250.245
341.634, 180.198
342.988, 192.169
344.341, 251.844
345.694, 306.268
347.047, 407.275
348.400, 568.468
349.753, 1022.796
351.105, 1733.978
352.457, 1852.408
353.809, 1551.587
355.161, 868.131
356.512, 544.527
357.864, 376.428
359.215, 271.882
360.566, 185.235
361.916, 153.801
363.267, 197.502
364.617, 159.027
365.967, 188.712
367.317, 181.081
368.667, 148.517
370.016, 190.970
371.366, 181.068
372.715, 208.497
374.064, 256.802
375.412, 330.381
376.761, 461.781
378.109, 668.352
379.457, 913.923
380.805, 1035.804
382.152, 910.810
383.500, 877.165
384.847, 839.482
386.194, 1028.109
387.541, 1326.588
388.887, 2121.464
390.233, 3581.727
391.580, 6856.982
392.926, 13884.465
394.271, 17875.994
395.617, 16477.480
396.962, 9528.756
398.307, 4602.173
399.652, 2736.402
400.997, 1504.633
402.341, 1091.862
403.686, 793.086
405.030, 564.312
406.374, 516.537
407.717, 340.768
409.061, 359.002
410.404, 267.232
411.747, 300.468
413.090, 225.704
414.433, 122.938
415.775, 204.173
417.117, 132.406
418.459, 235.565
419.801, 236.650
421.143, 316.662
422.484, 356.608
423.825, 309.486
425.166, 315.305
426.507, 226.062
427.848, 256.758
429.188, 342.404
430.528, 359.996
431.868, 522.536
433.208, 624.919
434.547, 981.224
435.887, 1435.252
437.226, 2608.401
438.565, 5457.640
439.904, 11817.890
441.242, 10924.324
442.580, 19038.258
443.918, 10958.386
445.256, 5643.471
446.594, 3142.521
447.932, 2472.537
449.269, 1978.524
450.606, 1932.484
451.943, 1803.417
453.280, 1584.328
454.616, 1436.214
455.952, 1031.080
457.288, 892.924
458.624, 713.749
459.960, 501.492
461.295, 459.023
462.631, 370.232
463.966, 339.552
465.300, 292.509
466.635, 244.322
467.969, 189.828
469.304, 171.776
470.638, 172.715
471.972, 143.482
473.305, 113.378
474.639, 142.042
475.972, 75.744
477.305, 124.367
478.638, 71.969
479.970, 129.568
481.303, 68.110
482.635, 39.602
483.967, 87.223
485.298, 5.813
486.630, 53.426
487.961, 44.963
489.293, 21.612
490.624, 93.186
491.954, 83.795
493.285, 85.489
494.615, 80.179
495.945, 117.165
497.275, 185.245
498.605, 167.315
499.935, 233.169
501.264, 230.940
502.593, 384.426
503.922, 512.970
505.251, 676.772
506.579, 914.809
507.908, 1036.285
509.236, 1016.098
510.564, 1067.820
511.891, 797.573
513.219, 676.354
514.546, 401.251
515.873, 299.108
517.200, 177.151
518.527, 125.954
519.853, 60.489
521.180, 32.780
522.506, 59.767
523.832, 31.232
525.157, 15.377
526.483, 35.022
527.808, 14.536
529.133, 30.723
530.458, 41.572
531.783, 23.973
533.107, 7.973
534.431, 10.112
535.756, 58.286
537.079, 35.242
538.403, 63.374
539.727, 148.462
541.050, 179.685
542.373, 234.033
543.696, 131.561
545.018, 179.215
546.341, 50.634
547.663, 10.492
548.985, 87.319
550.307, 30.404
551.629, 36.995
552.950, 25.715
554.271, 37.099
555.592, 95.131
556.913, 64.118
558.234, 150.849
559.554, 127.622
560.875, 151.713
562.195, 185.864
563.514, 219.060
564.834, 332.890
566.154, 398.626
567.473, 604.901
568.792, 931.325
570.111, 1411.085
571.429, 2123.221
572.748, 2369.187
574.066, 2200.905
575.384, 1661.222
576.702, 1326.315
578.019, 1299.909
579.337, 1398.161
580.654, 1773.377
581.971, 2161.285
583.288, 2105.825
584.605, 1962.826
585.921, 1326.627
587.237, 1022.096
588.553, 780.866
589.869, 681.626
591.185, 674.377
592.500, 576.120
593.815, 750.854
595.130, 866.581
596.445, 1098.300
597.760, 1546.011
599.074, 2054.714
600.389, 3131.408
601.703, 3440.095
603.016, 3233.774
604.330, 2532.445
605.644, 1541.109
606.957, 1095.766
608.270, 745.415
609.583, 528.057
610.895, 456.692
612.208, 307.319
613.520, 262.940
614.832, 254.553
616.144, 177.160
617.455, 195.760
618.767, 181.353
620.078, 194.941
621.389, 143.525
622.700, 195.103
624.011, 201.678
625.321, 132.249
626.631, 159.816
627.941, 153.380
629.251, 187.940
630.561, 203.418
631.870, 186.776
633.180, 256.260
634.489, 201.471
635.798, 313.892
637.106, 326.100
638.415, 404.555
639.723, 592.759
641.031, 741.850
642.339, 996.146
643.647, 1184.106
644.954, 1238.272
646.261, 1314.407
647.568, 1042.450
648.875, 917.798
650.182, 824.112
651.488, 693.437
652.795, 722.745
654.101, 592.211
655.407, 568.723
656.712, 424.230
658.018, 325.735
659.323, 284.237
660.628, 178.736
661.933, 178.234
663.238, 128.728
664.542, 123.219
665.847, 142.703
667.151, 54.180
668.455, 103.650
669.758, 87.112
671.062, 55.567
672.365, 69.014
673.668, 30.453
674.971, 60.882
676.274, 30.304
677.577, 11.544
678.879, 57.667
680.181, 6.904
681.483, 39.018
682.785, 3.066
684.086, 28.809
685.388, 28.955
686.689, 6.032
687.990, 10.785
689.290, 2.243
690.591, 13.195
691.891, 30.013
693.192, 38.888
694.491, 6.899
695.791, 5.810
697.091, 42.609
698.390, 27.444
699.689, 30.308
700.988, 15.202
702.287, 28.119
703.586, 52.269
704.884, 0.176
706.182, 4.886
707.480, 31.203
708.778, 33.528
710.076, 44.939
711.373, 71.348
712.670, 38.580
713.968, 50.984
715.264, 18.232
716.561, 6.505
717.857, 15.204
719.154, 26.096
720.450, 2.424
721.746, 35.768
723.041, 28.144
724.337, 4.452
725.632, 36.966
726.927, 9.415
728.222, 8.883
729.517, 29.369
730.811, 16.882
732.105, 35.415
733.400, 1.977
734.693, 4.446
735.987, 13.142
737.281, 16.250
738.574, 19.365
739.867, 9.998
741.160, 23.352
742.453, 1.300
743.745, 54.034
745.038, 39.363
746.330, 37.686
747.622, 68.003
748.913, 80.314
750.205, 93.620
751.496, 102.921
752.788, 109.216
754.079, 254.506
755.369, 225.790
756.660, 329.070
757.950, 251.344
759.241, 190.614
760.531, 216.879
761.820, 129.138
763.110, 133.394
764.399, 95.645
765.689, 90.891
766.978, 102.132
768.267, 75.369
769.555, 102.602
770.844, 77.831
772.132, 81.056
773.420, 99.277
774.708, 69.493
775.996, 70.706
777.283, 116.915
778.570, 126.119
779.857, 172.321
781.144, 176.598
782.431, 180.712
783.718, 205.903
785.004, 249.090
786.290, 308.274
787.576, 304.456
788.862, 431.634
790.147, 479.811
791.433, 416.985
792.718, 456.158
794.003, 312.328
795.288, 303.496
796.572, 260.664
797.857, 229.829
799.141, 212.994
800.425, 153.158
801.709, 145.321
802.992, 170.484
804.276, 114.645
805.559, 128.804
806.842, 75.961
808.125, 88.118
809.407, 129.272
810.690, 65.424
811.972, 210.574
813.254, 109.722
814.536, 148.868
815.818, 157.012
817.099, 110.155
818.381, 173.296
819.662, 196.435
820.943, 182.572
822.223, 235.598
823.504, 197.732
824.784, 237.865
826.065, 215.899
827.345, 196.997
828.624, 295.935
829.904, 216.001
831.183, 306.945
832.462, 297.812
833.741, 257.879
835.020, 363.692
836.299, 298.692
837.577, 368.344
838.856, 400.253
840.134, 388.230
841.412, 458.003
842.689, 435.933
843.967, 503.566
845.244, 493.525
846.521, 525.352
847.798, 596.664
849.075, 651.810
850.351, 636.010
851.628, 758.083
852.904, 759.037
854.180, 933.818
855.455, 932.479
856.731, 1028.380
858.006, 1206.828
859.281, 1243.338
860.556, 1495.574
861.831, 1588.297
863.106, 1750.885
864.380, 2157.810
865.655, 2243.082
866.929, 2932.393
868.202, 3348.953
869.476, 4010.469
870.750, 5384.660
872.023, 6104.789
873.296, 8454.869
874.569, 11362.312
875.842, 14807.848
877.114, 23483.840
878.386, 30011.676
879.658, 39677.176
880.930, 44444.293
882.202, 35561.453
883.474, 28767.430
884.745, 19254.158
886.016, 13379.816
887.287, 10127.414
888.558, 6994.377
889.829, 6103.405
891.099, 4887.740
892.369, 4114.440
893.639, 4139.678
894.909, 3646.083
896.179, 3998.848
897.448, 4214.313
898.718, 4550.787
899.987, 5757.271
901.256, 6461.768
902.524, 8664.278
903.793, 11372.796
905.061, 13821.335
906.329, 18999.885
907.597, 20038.441
908.865, 20387.008
910.133, 19285.586
911.400, 14484.170
912.667, 12202.770
913.934, 9461.380
915.201, 7259.002
916.468, 6259.630
917.734, 4667.273
919.001, 4019.924
920.267, 3514.585
921.532, 2715.257
922.798, 2707.939
924.064, 2069.632
925.329, 1945.334
926.594, 1812.047
927.859, 1453.769
929.124, 1498.503
930.388, 1254.247
931.653, 1162.001
932.917, 1121.766
934.181, 986.541
935.445, 980.327
936.708, 856.123
937.972, 735.929
939.235, 710.747
940.498, 603.575
941.761, 684.414
943.024, 584.265
944.286, 495.128
945.548, 557.001
946.811, 436.885
948.072, 471.781
949.334, 463.687
950.596, 371.604
951.857, 405.533
953.118, 349.473
954.379, 320.423
955.640, 344.385
956.901, 267.359
958.161, 291.343
959.421, 242.339
960.681, 226.346
961.941, 274.364
963.201, 230.394
964.460, 213.478
965.720, 198.531
966.979, 167.598
968.238, 283.677
969.496, 258.768
970.755, 336.870
972.013, 460.984
973.272, 357.109
974.529, 357.248
975.787, 310.397
977.045, 183.559
978.302, 242.169
979.560, 145.354
980.817, 118.552
982.073, 129.499
983.330, 57.723
984.587, 104.694
985.843, 67.105
987.099, 41.369
988.355, 93.455
989.611, 2.361
990.866, 99.950
992.122, 25.435
993.377, 41.774
994.632, 103.889
995.887, 28.126
997.141, 84.509
998.396, 122.382
999.650, 94.814
1000.904, 128.438
1002.158, 112.902
1003.412, 123.393
1004.665, 151.906
1005.918, 140.498
1007.172, 177.058
1008.425, 219.639
1009.677, 233.249
1010.930, 373.875
1012.182, 332.543
1013.434, 480.214
1014.687, 625.817
1015.938, 731.540
1017.190, 1111.296
1018.441, 1306.078
1019.693, 1817.886
1020.944, 2300.714
1022.195, 2370.092
1023.445, 2496.947
1024.696, 2175.650
1025.946, 1741.541
1027.197, 1558.455
1028.446, 1121.444
1029.696, 1006.391
1030.946, 896.363
1032.195, 764.350
1033.445, 768.356
1034.694, 646.582
1035.942, 639.629
1037.191, 758.471
1038.440, 640.610
1039.688, 780.710
1040.936, 809.837
1042.184, 814.975
1043.432, 922.142
1044.679, 904.321
1045.927, 1148.508
1047.174, 1324.711
1048.421, 1423.923
1049.668, 1847.144
1050.914, 2085.622
1052.161, 2592.413
1053.407, 3496.665
1054.653, 3985.505
1055.899, 5159.820
1057.145, 6396.098
1058.391, 7078.458
1059.636, 7290.512
1060.881, 7463.057
1062.126, 6623.526
1063.371, 5616.847
1064.615, 4212.282
1065.860, 3484.619
1067.104, 2662.257
1068.348, 2051.611
1069.592, 1800.970
1070.836, 1357.339
1072.079, 1155.981
1073.323, 985.365
1074.566, 760.755
1075.809, 743.153
1077.052, 563.558
1078.294, 502.097
1079.537, 520.516
1080.779, 379.944
1082.021, 394.378
1083.263, 362.820
1084.504, 299.269
1085.746, 272.727
1086.987, 232.191
1088.228, 151.677
1089.469, 194.170
1090.710, 127.669
1091.951, 166.568
1093.191, 160.079
1094.431, 139.638
1095.671, 145.163
1096.911, 59.692
1098.151, 83.228
1099.390, 118.771
1100.630, 55.319
1101.869, 121.908
1103.108, 73.467
1104.346, 30.040
1105.585, 109.610
1106.823, 34.185
1108.062, 58.769
1109.300, 47.354
1110.537, 26.946
1111.775, 75.544
1113.013, 2.853
1114.250, 14.802
1115.487, 54.208
1116.724, 3.824
1117.961, 24.444
1119.197, 52.068
1120.434, 27.696
1121.670, 33.496
1122.906, 5.133
1124.142, 30.774
1125.377, 32.418
1126.613, 35.935
1127.848, 2.773
1129.083, 4.414
1130.318, 20.942
1131.553, 34.036
1132.787, 20.321
1134.022, 28.658
1135.256, 50.324
1136.490, 21.042
1137.724, 22.414
1138.957, 10.186
1140.191, 27.189
1141.424, 19.778
1142.657, 37.605
1143.890, 57.002
1145.123, 36.653
1146.355, 65.767
1147.588, 3.730
1148.820, 4.634
1150.052, 6.398
1151.284, 13.270
1152.516, 15.176
1153.747, 0.668
1154.978, 8.117
1156.209, 5.978
1157.440, 3.605
1158.671, 14.437
1159.902, 1.116
1161.132, 11.414
1162.362, 34.491
1163.592, 10.338
1164.822, 26.328
1166.052, 17.148
1167.281, 19.808
1168.511, 4.528
1169.740, 7.850
1170.969, 34.681
1172.197, 12.707
1173.426, 12.816
1174.654, 57.399
1175.883, 2.930
1177.111, 22.527
1178.338, 18.254
1179.566, 38.817
1180.794, 75.973
1182.021, 1.090
1183.248, 62.665
1184.475, 8.738
1185.702, 45.236
1186.928, 44.279
1188.155, 41.491
1189.381, 38.914
1190.607, 58.354
1191.833, 55.831
1193.059, 51.712
1194.284, 73.282
1195.509, 26.750
1196.735, 24.246
1197.960, 10.868
1199.184, 0.571
1200.409, 82.289
1201.633, 31.137
1202.858, 14.276
1204.082, 69.628
1205.306, 14.062
1206.529, 81.491
1207.753, 26.010
1208.976, 6.680
1210.199, 74.677
1211.422, 15.093
1212.645, 44.355
1213.868, 9.917
1215.090, 32.298
1216.313, 31.537
1217.535, 49.925
1218.757, 12.283
1219.978, 74.500
1221.200, 32.881
1222.421, 49.084
1223.643, 33.375
1224.864, 19.660
1226.084, 63.841
1227.305, 46.433
1228.526, 52.677
1229.746, 78.101
1230.966, 58.168
1232.186, 44.120
1233.406, 55.255
1234.625, 57.234
1235.845, 84.353
1237.064, 63.604
1238.283, 17.850
1239.502, 124.940
1240.721, 36.082
1241.939, 67.465
1243.157, 79.542
1244.376, 61.853
1245.594, 66.195
1246.811, 74.250
1248.029, 42.578
1249.247, 101.622
1250.464, 50.779
1251.681, 67.903
1252.898, 77.923
1254.115, 53.962
1255.331, 116.057
1256.548, 56.057
1257.764, 79.119
1258.980, 138.102
1260.196, 48.035
1261.411, 14.190
1262.627, 144.147
1263.842, 78.105
1265.057, 93.046
1266.272, 137.979
1267.487, 38.900
1268.702, 96.236
1269.916, 81.138
1271.130, 99.023
1272.344, 137.897
1273.558, 49.318
1274.772, 99.328
1275.986, 114.161
1277.199, 31.389
1278.412, 99.202
1279.625, 62.273
1280.838, 30.031
1282.051, 129.814
1283.263, 71.775
1284.475, 100.653
1285.687, 105.396
1286.899, 28.950
1288.111, 81.637
1289.323, 70.556
1290.534, 46.353
1291.745, 93.096
1292.957, 5.267
1294.167, 98.938
1295.378, 89.377
1296.589, 15.982
1297.799, 55.574
1299.009, 44.189
1300.219, 7.299
1301.429, 61.254
1302.639, 36.797
1303.848, 17.329
1305.057, 61.848
1306.267, 2.671
1307.476, 17.817
1308.684, 27.380
1309.893, 19.809
1311.101, 28.225
1312.310, 39.628
1313.518, 35.018
1314.725, 44.382
1315.933, 64.225
1317.141, 44.575
1318.348, 63.085
1319.555, 48.411
1320.762, 60.724
1321.969, 43.961
1323.176, 32.239
1324.382, 51.503
1325.589, 12.755
1326.795, 13.988
1328.001, 46.010
1329.206, 2.215
1330.412, 59.632
1331.617, 46.753
1332.823, 26.089
1334.028, 67.045
1335.233, 29.834
1336.437, 52.262
1337.642, 67.346
1338.846, 11.417
1340.051, 51.472
1341.255, 43.572
1342.458, 16.602
1343.662, 51.373
1344.866, 21.834
1346.069, 30.823
1347.272, 44.219
1348.475, 57.137
1349.678, 38.089
1350.880, 37.956
1352.083, 28.885
1353.285, 61.800
1354.487, 45.547
1355.689, 34.440
1356.891, 74.214
1358.093, 22.129
1359.294, 35.695
1360.495, 102.544
1361.696, 33.382
1362.897, 36.209
1364.098, 93.078
1365.298, 31.885
1366.499, 77.681
1367.699, 42.511
1368.899, 42.289
1370.099, 95.932
1371.298, 15.690
1372.498, 46.439
1373.697, 24.222
1374.896, 36.060
1376.095, 8.756
1377.294, 92.439
1378.493, 45.891
1379.691, 75.725
1380.889, 35.438
1382.087, 35.063
1383.285, 87.040
1384.483, 51.342
1385.681, 21.668
1386.878, 64.976
1388.075, 26.228
1389.272, 23.491
1390.469, 98.745
1391.666, 23.978
1392.862, 74.191
1394.059, 39.333
1395.255, 43.640
1396.451, 72.790
1397.647, 60.736
1398.842, 45.845
1400.038, 132.937
1401.233, 2.054
1402.428, 118.630
1403.623, 74.663
1404.818, 31.309
1406.013, 75.360
1407.207, 64.984
1408.401, 94.026
1409.595, 125.000
1410.789, 80.918
1411.983, 14.299
1413.177, 138.190
1414.370, 76.984
1415.563, 115.066
1416.756, 141.085
1417.949, 29.916
1419.142, 94.841
1420.335, 32.304
1421.527, 68.038
1422.719, 132.759
1423.911, 34.474
1425.103, 92.857
1426.295, 94.634
1427.486, 58.390
1428.677, 119.482
1429.869, 98.036
1431.060, 60.240
1432.250, 139.818
1433.441, 66.392
1434.632, 30.089
1435.822, 124.051
1437.012, 40.195
1438.202, 107.583
1439.392, 140.647
1440.581, 52.105
1441.771, 43.474
1442.960, 122.323
1444.149, 51.641
1445.338, 133.983
1446.527, 132.239
1447.715, 82.439
1448.904, 144.199
1450.092, 62.064
1451.280, 122.170
1452.468, 128.146
1453.656, 90.197
1454.843, 120.224
1456.031, 134.768
1457.218, 99.487
1458.405, 138.078
1459.592, 94.612
1460.778, 88.224
1461.965, 128.213
1463.151, 117.015
1464.337, 92.495
1465.523, 161.925
1466.709, 42.724
1467.895, 88.500
1469.080, 89.179
1470.266, 54.885
1471.451, 106.600
1472.636, 56.871
1473.821, 70.152
1475.005, 132.408
1476.190, 68.976
1477.374, 62.499
1478.558, 106.187
1479.742, 51.897
1480.926, 114.313
1482.109, 127.831
1483.293, 13.462
1484.476, 109.944
1485.659, 104.493
1486.842, 22.993
1488.025, 118.466
1489.207, 76.049
1490.390, 75.718
1491.572, 116.381
1492.754, 86.044
1493.936, 71.702
1495.118, 77.387
1496.299, 63.123
1497.481, 68.875
1498.662, 69.649
1499.843, 10.454
1501.024, 82.299
1502.205, 52.166
1503.385, 30.052
1504.565, 83.590
1505.746, 4.475
1506.926, 68.437
1508.106, 63.460
1509.285, 9.527
1510.465, 71.644
1511.644, 79.815
1512.823, 37.548
1514.002, 57.783
1515.181, 11.097
1516.360, 0.591
1517.538, 76.320
1518.717, 46.680
1519.895, 30.691
1521.073, 78.850
1522.251, 0.046
1523.428, 4.090
1524.606, 0.000
##END=



