##NAMES=Euclase
##RRUFFID=R050032
##IDEAL CHEMISTRY=BeAlSiO_4_(OH)
##LOCALITY=Minas Gerais, Brazil
##OWNER=RRUFF
##SOURCE=University of Arizona Mineral Museum
##DESCRIPTION=Colorless crystal fragments
##STATUS=The identification of this mineral has been confirmed by X-ray diffraction and chemical analysis
##URL=rruff.info/R050032
##MEASURED CHEMISTRY=Be_1.00_Al_1.00_Si_1.00_O_4_(OH)
##PIN_ID=L00185
##ORIENTATION=Laser parallel to -c* (0 0 -1). Fiducial mark perpendicular to laser is parallel to a [1 0 0]
79.208, 0.000
80.602, 1.101
81.996, 43.425
83.390, 44.006
84.784, 51.025
86.178, 17.587
87.571, 69.112
88.964, 53.131
90.357, 208.542
91.749, 219.861
93.142, 135.428
94.534, 211.785
95.926, 108.083
97.318, 116.991
98.709, 39.281
100.101, 103.531
101.492, 6.419
102.883, 44.261
104.273, 109.821
105.664, 256.112
107.054, 375.776
108.444, 441.727
109.834, 1028.984
111.223, 3582.677
112.613, 2393.465
114.002, 5523.837
115.391, 1334.425
116.780, 1104.835
118.168, 450.232
119.556, 363.534
120.944, 260.103
122.332, 368.412
123.720, 336.860
125.107, 228.723
126.495, 253.754
127.882, 147.933
129.268, 211.610
130.655, 173.827
132.041, 113.485
133.427, 128.711
134.813, 115.565
136.199, 124.229
137.584, 248.593
138.970, 344.674
140.355, 579.532
141.740, 1209.138
143.124, 2013.140
144.509, 2835.586
145.893, 2649.182
147.277, 1652.903
148.660, 978.476
150.044, 596.452
151.427, 383.021
152.810, 255.630
154.193, 277.489
155.576, 200.326
156.958, 37.073
158.341, 50.731
159.723, 5.697
161.105, 16.208
162.486, 12.668
163.867, 56.731
165.249, 9.454
166.630, 15.897
168.010, 16.896
169.391, 41.887
170.771, 187.036
172.151, 411.304
173.531, 772.650
174.911, 1444.038
176.290, 2148.468
177.669, 3269.937
179.049, 3777.434
180.427, 2377.949
181.806, 1075.467
183.184, 507.945
184.562, 261.351
185.940, 117.656
187.318, 185.844
188.696, 222.909
190.073, 533.840
191.450, 946.645
192.827, 1664.371
194.204, 3039.067
195.580, 4472.740
196.956, 5548.382
198.332, 4624.976
199.708, 2836.831
201.084, 1649.499
202.459, 829.946
203.834, 468.996
205.209, 202.811
206.584, 165.423
207.958, 47.896
209.333, 85.693
210.707, 52.319
212.081, 55.021
213.454, 86.067
214.828, 77.697
216.201, 70.358
217.574, 22.768
218.947, 54.065
220.320, 31.401
221.692, 18.137
223.064, 94.616
224.436, 199.024
225.808, 321.493
227.179, 589.421
228.551, 1665.584
229.922, 2813.537
231.293, 5054.306
232.663, 8682.937
234.034, 11234.480
235.404, 8975.974
236.774, 5219.448
238.144, 2758.913
239.514, 1765.370
240.883, 1171.820
242.252, 1151.263
243.621, 1231.700
244.990, 1434.706
246.359, 1980.721
247.727, 2632.261
249.095, 4104.104
250.463, 6791.316
251.831, 12085.752
253.198, 21748.801
254.566, 35651.160
255.933, 52003.301
257.299, 50864.930
258.666, 36965.809
260.033, 21576.568
261.399, 12126.491
262.765, 7286.076
264.131, 4492.797
265.496, 3072.464
266.862, 2130.475
268.227, 1731.590
269.592, 1529.675
270.957, 1469.893
272.321, 1610.114
273.685, 1590.203
275.050, 1657.159
276.413, 1755.958
277.777, 2403.601
279.141, 3389.081
280.504, 5679.340
281.867, 9995.344
283.230, 16080.565
284.592, 23854.896
285.955, 25788.199
287.317, 19231.332
288.679, 12503.880
290.041, 7263.367
291.403, 4649.976
292.764, 3088.535
294.125, 2169.677
295.486, 1547.451
296.847, 1283.385
298.207, 1216.365
299.568, 1242.097
300.928, 1505.907
302.288, 2064.901
303.647, 3082.535
305.007, 4348.611
306.366, 4449.508
307.725, 3476.565
309.084, 2157.499
310.443, 1411.385
311.801, 1057.960
313.159, 857.264
314.517, 718.506
315.875, 606.498
317.233, 507.410
318.590, 416.839
319.947, 493.599
321.304, 431.534
322.661, 531.304
324.018, 711.205
325.374, 1055.849
326.730, 1781.713
328.086, 2861.939
329.442, 4250.601
330.797, 4780.738
332.153, 3656.838
333.508, 2658.902
334.863, 2297.332
336.217, 2217.115
337.572, 1954.245
338.926, 1369.156
340.280, 857.784
341.634, 505.378
342.988, 307.946
344.341, 158.486
345.694, 105.994
347.047, 432.323
348.400, 303.419
349.753, 338.136
351.105, 365.588
352.457, 361.345
353.809, 258.706
355.161, 172.022
356.512, 197.311
357.864, 9.573
359.215, 49.803
360.566, 23.006
361.916, 116.178
363.267, 75.318
364.617, 51.450
365.967, 158.712
367.317, 149.880
368.667, 203.485
370.016, 267.745
371.366, 317.628
372.715, 477.903
374.064, 599.357
375.412, 883.695
376.761, 1229.148
378.109, 1634.191
379.457, 1999.757
380.805, 1793.382
382.152, 1723.093
383.500, 1836.058
384.847, 2240.813
386.194, 3043.717
387.541, 4086.577
388.887, 6402.118
390.233, 10700.807
391.580, 18381.926
392.926, 25803.049
394.271, 27484.176
395.617, 21585.307
396.962, 13086.452
398.307, 7987.591
399.652, 4839.738
400.997, 3086.903
402.341, 2117.067
403.686, 1471.237
405.030, 1187.420
406.374, 838.610
407.717, 770.741
409.061, 590.813
410.404, 466.830
411.747, 484.779
413.090, 468.665
414.433, 486.494
415.775, 566.262
417.117, 732.973
418.459, 1165.625
419.801, 1581.223
421.143, 2090.768
422.484, 2117.260
423.825, 1826.705
425.166, 1435.102
426.507, 957.455
427.848, 835.764
429.188, 641.036
430.528, 588.271
431.868, 547.468
433.208, 552.627
434.547, 784.748
435.887, 1105.831
437.226, 1826.876
438.565, 2997.884
439.904, 4618.856
441.242, 5028.792
442.580, 3703.693
443.918, 2666.559
445.256, 2032.395
446.594, 2312.202
447.932, 2737.988
449.269, 3125.750
450.606, 2981.492
451.943, 2259.219
453.280, 1847.929
454.616, 1616.627
455.952, 1612.310
457.288, 1821.979
458.624, 1579.639
459.960, 1147.429
461.295, 674.285
462.631, 467.915
463.966, 260.898
465.300, 140.495
466.635, 100.066
467.969, 36.607
469.304, 18.115
470.638, 5.408
471.972, 0.966
473.305, 9.446
474.639, 40.174
475.972, 27.171
477.305, 33.504
478.638, 41.513
479.970, 41.920
481.303, 65.501
482.635, 29.397
483.967, 64.346
485.298, 51.157
486.630, 24.975
487.961, 26.793
489.293, 2.681
490.624, 27.600
491.954, 26.807
493.285, 17.014
494.615, 16.216
495.945, 57.404
497.275, 92.571
498.605, 166.713
499.935, 226.833
501.264, 293.932
502.593, 531.010
503.922, 664.289
505.251, 1010.932
506.579, 1181.346
507.908, 1350.120
509.236, 1317.356
510.564, 1080.747
511.891, 1007.257
513.219, 643.752
514.546, 523.812
515.873, 442.499
517.200, 435.557
518.527, 380.399
519.853, 290.802
521.180, 279.006
522.506, 216.272
523.832, 199.910
525.157, 161.795
526.483, 153.772
527.808, 193.615
529.133, 241.467
530.458, 265.609
531.783, 391.257
533.107, 494.671
534.431, 780.045
535.756, 989.807
537.079, 1619.437
538.403, 2667.441
539.727, 3888.460
541.050, 5173.765
542.373, 6400.398
543.696, 4235.712
545.018, 3020.058
546.341, 1965.538
547.663, 1421.988
548.985, 990.181
550.307, 766.232
551.629, 658.695
552.950, 550.524
554.271, 558.767
555.592, 546.506
556.913, 542.479
558.234, 568.575
559.554, 695.741
560.875, 856.333
562.195, 961.669
563.514, 1318.324
564.834, 1696.789
566.154, 2437.006
567.473, 3677.225
568.792, 5593.953
570.111, 8397.336
571.429, 9905.766
572.748, 9485.209
574.066, 7883.481
575.384, 5853.724
576.702, 4888.938
578.019, 4355.124
579.337, 4390.282
580.654, 4763.411
581.971, 4409.515
583.288, 3983.589
584.605, 2989.637
585.921, 2145.657
587.237, 1558.650
588.553, 1063.616
589.869, 904.555
591.185, 711.468
592.500, 728.353
593.815, 791.212
595.130, 803.044
596.445, 1105.850
597.760, 1363.630
599.074, 1891.384
600.389, 2204.112
601.703, 2277.813
603.016, 2180.489
604.330, 1569.139
605.644, 1129.764
606.957, 827.363
608.270, 664.936
609.583, 513.484
610.895, 376.007
612.208, 313.505
613.520, 385.977
614.832, 270.424
616.144, 270.845
617.455, 220.241
618.767, 200.611
620.078, 272.954
621.389, 161.272
622.700, 282.527
624.011, 258.259
625.321, 277.804
626.631, 249.065
627.941, 249.231
629.251, 338.201
630.561, 328.217
631.870, 430.293
633.180, 425.172
634.489, 500.287
635.798, 760.395
637.106, 890.156
638.415, 1240.882
639.723, 1560.438
641.031, 1976.632
642.339, 2511.209
643.647, 2694.438
644.954, 2751.721
646.261, 2468.925
647.568, 2005.707
648.875, 1768.650
650.182, 1360.573
651.488, 1212.438
652.795, 1075.284
654.101, 939.285
655.407, 836.417
656.712, 681.843
658.018, 781.504
659.323, 824.154
660.628, 960.781
661.933, 1148.391
663.238, 1145.985
664.542, 1104.565
665.847, 864.124
667.151, 612.666
668.455, 462.188
669.758, 304.692
671.062, 219.177
672.365, 166.645
673.668, 99.098
674.971, 136.532
676.274, 79.954
677.577, 71.360
678.879, 74.751
680.181, 40.125
681.483, 43.455
682.785, 41.392
684.086, 7.650
685.388, 53.179
686.689, 22.020
687.990, 42.915
689.290, 110.875
690.591, 1.064
691.891, 85.033
693.192, 51.219
694.491, 41.462
695.791, 89.769
697.091, 15.165
698.390, 68.606
699.689, 96.126
700.988, 17.738
702.287, 100.399
703.586, 37.156
704.884, 65.969
706.182, 64.859
707.480, 7.177
708.778, 47.822
710.076, 7.886
711.373, 32.992
712.670, 6.153
713.968, 25.354
715.264, 75.606
716.561, 3.932
717.857, 33.296
719.154, 55.711
720.450, 38.189
721.746, 35.720
723.041, 21.302
724.337, 30.926
725.632, 47.404
726.927, 32.718
728.222, 3.016
729.517, 102.287
730.811, 115.543
732.105, 100.787
733.400, 187.017
734.693, 191.234
735.987, 281.439
737.281, 381.632
738.574, 492.812
739.867, 757.980
741.160, 1016.137
742.453, 1421.283
743.745, 1910.418
745.038, 2138.542
746.330, 2267.656
747.622, 1917.760
748.913, 1713.854
750.205, 1574.939
751.496, 1461.015
752.788, 1724.082
754.079, 1810.141
755.369, 2105.191
756.660, 2045.234
757.950, 1718.270
759.241, 1380.298
760.531, 933.320
761.820, 709.335
763.110, 591.344
764.399, 427.348
765.689, 358.346
766.978, 298.338
768.267, 250.326
769.555, 294.310
770.844, 217.289
772.132, 308.265
773.420, 257.096
774.708, 341.849
775.996, 300.815
777.283, 293.411
778.570, 458.372
779.857, 474.334
781.144, 650.297
782.431, 820.262
783.718, 983.232
785.004, 1401.206
786.290, 1847.184
787.576, 2156.167
788.862, 2640.160
790.147, 2645.158
791.433, 2725.166
792.718, 2542.186
794.003, 2292.217
795.288, 2291.266
796.572, 2206.326
797.857, 2430.403
799.141, 2457.495
800.425, 2621.598
801.709, 2980.711
802.992, 2786.833
804.276, 2894.962
805.559, 2655.099
806.842, 2201.244
808.125, 2062.399
809.407, 1629.560
810.690, 1404.729
811.972, 1244.905
813.254, 959.086
814.536, 938.274
815.818, 726.468
817.099, 704.669
818.381, 623.876
819.662, 426.091
820.943, 472.312
822.223, 403.542
823.504, 350.779
824.784, 405.024
826.065, 327.278
827.345, 347.540
828.624, 239.537
829.904, 322.708
831.183, 346.661
832.462, 226.595
833.741, 311.563
835.020, 276.949
836.299, 275.459
837.577, 294.375
838.856, 311.394
840.134, 331.640
841.412, 378.881
842.689, 381.848
843.967, 425.482
845.244, 420.618
846.521, 499.340
847.798, 586.259
849.075, 520.927
850.351, 604.358
851.628, 593.008
852.904, 824.831
854.180, 815.179
855.455, 890.479
856.731, 1087.434
858.006, 1125.040
859.281, 1316.261
860.556, 1553.622
861.831, 1751.565
863.106, 2121.139
864.380, 2492.295
865.655, 2968.951
866.929, 3692.368
868.202, 4193.662
869.476, 5623.881
870.750, 6930.672
872.023, 8881.716
873.296, 12341.436
874.569, 16652.346
875.842, 23843.504
877.114, 34165.656
878.386, 43057.293
879.658, 50712.281
880.930, 47317.223
882.202, 38451.152
883.474, 29386.254
884.745, 21091.379
886.016, 16666.537
887.287, 13441.725
888.558, 11636.953
889.829, 11142.212
891.099, 9487.499
892.369, 8962.819
893.639, 7998.180
894.909, 7353.584
896.179, 7839.020
897.448, 7944.503
898.718, 9340.019
899.987, 11125.570
901.256, 13491.164
902.524, 18176.791
903.793, 22442.477
905.061, 29178.203
906.329, 34613.965
907.597, 35129.793
908.865, 35515.652
910.133, 29311.559
911.400, 24197.506
912.667, 19473.490
913.934, 15477.073
915.201, 12135.634
916.468, 9531.773
917.734, 7777.969
919.001, 6544.195
920.267, 5324.458
921.532, 4690.775
922.798, 4095.126
924.064, 3392.525
925.329, 3135.984
926.594, 2660.481
927.859, 2572.019
929.124, 2301.595
930.388, 2000.208
931.653, 1854.889
932.917, 1666.605
934.181, 1441.357
935.445, 1369.167
936.708, 1013.012
937.972, 1093.908
939.235, 1020.840
940.498, 754.812
941.761, 906.826
943.024, 656.876
944.286, 633.962
945.548, 631.095
946.811, 510.265
948.072, 639.478
949.334, 462.733
950.596, 466.024
951.857, 520.359
953.118, 453.737
954.379, 601.151
955.640, 505.609
956.901, 530.104
958.161, 644.636
959.421, 586.220
960.681, 798.841
961.941, 831.507
963.201, 1049.210
964.460, 1431.953
965.720, 1652.736
966.979, 2355.558
968.238, 3206.416
969.496, 4018.312
970.755, 5278.247
972.013, 5804.219
973.272, 5545.229
974.529, 5096.276
975.787, 4198.368
977.045, 3652.496
978.302, 2905.661
979.560, 2223.865
980.817, 1806.108
982.073, 1230.389
983.330, 948.709
984.587, 681.068
985.843, 542.466
987.099, 396.907
988.355, 215.389
989.611, 131.934
990.866, 122.527
992.122, 20.190
993.377, 33.910
994.632, 61.309
995.887, 80.456
997.141, 25.565
998.396, 148.603
999.650, 33.605
1000.904, 13.552
1002.158, 91.423
1003.412, 8.245
1004.665, 26.000
1005.918, 23.677
1007.172, 0.305
1008.425, 48.858
1009.677, 49.643
1010.930, 39.209
1012.182, 42.841
1013.434, 215.528
1014.687, 110.275
1015.938, 296.073
1017.190, 444.925
1018.441, 535.825
1019.693, 859.783
1020.944, 1616.805
1022.195, 1470.876
1023.445, 1618.004
1024.696, 1950.191
1025.946, 988.436
1027.197, 594.733
1028.446, 318.079
1029.696, 385.479
1030.946, 226.914
1032.195, 222.385
1033.445, 293.896
1034.694, 230.441
1035.942, 360.023
1037.191, 308.639
1038.440, 430.988
1039.688, 547.673
1040.936, 473.391
1042.184, 720.142
1043.432, 818.465
1044.679, 876.303
1045.927, 1289.154
1047.174, 1352.890
1048.421, 1758.138
1049.668, 2220.092
1050.914, 2528.838
1052.161, 3607.292
1053.407, 4454.332
1054.653, 5390.058
1055.899, 7313.278
1057.145, 8268.156
1058.391, 9561.956
1059.636, 9943.152
1060.881, 8808.403
1062.126, 7850.051
1063.371, 6155.963
1064.615, 4923.413
1065.860, 4021.042
1067.104, 3008.948
1068.348, 2432.339
1069.592, 2033.755
1070.836, 1582.310
1072.079, 1421.777
1073.323, 1143.149
1074.566, 1012.879
1075.809, 944.868
1077.052, 690.285
1078.294, 846.504
1079.537, 684.117
1080.779, 604.688
1082.021, 750.345
1083.263, 643.027
1084.504, 700.538
1085.746, 767.263
1086.987, 650.014
1088.228, 878.800
1089.469, 695.184
1090.710, 806.928
1091.951, 881.777
1093.191, 896.645
1094.431, 1017.601
1095.671, 1104.506
1096.911, 1148.775
1098.151, 1440.679
1099.390, 1447.640
1100.630, 1518.956
1101.869, 1834.278
1103.108, 1909.316
1104.346, 2140.503
1105.585, 2447.551
1106.823, 2590.711
1108.062, 2980.190
1109.300, 3161.285
1110.537, 3473.106
1111.775, 3923.230
1113.013, 3997.718
1114.250, 4517.647
1115.487, 4706.886
1116.724, 4976.078
1117.961, 5377.477
1119.197, 5487.688
1120.434, 5703.005
1121.670, 5868.242
1122.906, 5677.490
1124.142, 5879.143
1125.377, 5362.413
1126.613, 5107.695
1127.848, 4749.144
1129.083, 4227.446
1130.318, 3759.760
1131.553, 3506.085
1132.787, 2922.420
1134.022, 2594.827
1135.256, 2392.181
1136.490, 2048.543
1137.724, 1883.947
1138.957, 1611.327
1140.191, 1484.776
1141.424, 1347.243
1142.657, 1160.644
1143.890, 1112.355
1145.123, 940.469
1146.355, 799.285
1147.588, 824.596
1148.820, 630.643
1150.052, 640.837
1151.284, 587.498
1152.516, 474.858
1153.747, 511.469
1154.978, 382.709
1156.209, 356.131
1157.440, 424.712
1158.671, 256.164
1159.902, 402.730
1161.132, 229.758
1162.362, 187.212
1163.592, 225.042
1164.822, 213.526
1166.052, 154.053
1167.281, 197.735
1168.511, 148.185
1169.740, 142.079
1170.969, 105.662
1172.197, 71.104
1173.426, 58.685
1174.654, 53.895
1175.883, 33.325
1177.111, 33.689
1178.338, 51.110
1179.566, 111.526
1180.794, 42.942
1182.021, 56.406
1183.248, 139.382
1184.475, 29.812
1185.702, 28.803
1186.928, 26.100
1188.155, 27.659
1189.381, 58.006
1190.607, 41.149
1191.833, 30.842
1193.059, 34.526
1194.284, 61.745
1195.509, 4.497
1196.735, 30.487
1197.960, 40.179
1199.184, 3.991
1200.409, 58.831
1201.633, 35.587
1202.858, 25.514
1204.082, 51.717
1205.306, 32.719
1206.529, 24.247
1207.753, 53.344
1208.976, 10.558
1210.199, 61.074
1211.422, 84.243
1212.645, 15.523
1213.868, 56.934
1215.090, 31.761
1216.313, 92.508
1217.535, 47.600
1218.757, 78.019
1219.978, 26.331
1221.200, 62.718
1222.421, 17.787
1223.643, 9.252
1224.864, 14.760
1226.084, 45.201
1227.305, 86.295
1228.526, 52.056
1229.746, 47.300
1230.966, 50.168
1232.186, 102.160
1233.406, 18.265
1234.625, 64.374
1235.845, 26.563
1237.064, 19.574
1238.283, 80.934
1239.502, 100.100
1240.721, 0.334
1241.939, 75.410
1243.157, 14.632
1244.376, 23.896
1245.594, 84.900
1246.811, 17.094
1248.029, 18.092
1249.247, 61.018
1250.464, 23.566
1251.681, 79.451
1252.898, 60.319
1254.115, 14.471
1255.331, 137.344
1256.548, 15.142
1257.764, 98.196
1258.980, 54.954
1260.196, 40.692
1261.411, 72.127
1262.627, 80.829
1263.842, 66.908
1265.057, 93.566
1266.272, 76.201
1267.487, 89.817
1268.702, 123.508
1269.916, 30.058
1271.130, 154.582
1272.344, 160.082
1273.558, 79.546
1274.772, 206.988
1275.986, 142.408
1277.199, 135.385
1278.412, 186.746
1279.625, 94.081
1280.838, 134.717
1282.051, 175.001
1283.263, 104.263
1284.475, 126.635
1285.687, 48.847
1286.899, 101.150
1288.111, 128.301
1289.323, 92.428
1290.534, 115.531
1291.745, 67.604
1292.957, 96.651
1294.167, 163.687
1295.378, 60.697
1296.589, 9.676
1297.799, 190.623
1299.009, 43.547
1300.219, 122.437
1301.429, 151.302
1302.639, 69.145
1303.848, 137.963
1305.057, 113.750
1306.267, 17.513
1307.476, 139.234
1308.684, 93.930
1309.893, 133.562
1311.101, 124.163
1312.310, 55.737
1313.518, 214.280
1314.725, 92.796
1315.933, 60.284
1317.141, 167.743
1318.348, 74.171
1319.555, 126.567
1320.762, 157.938
1321.969, 70.281
1323.176, 193.587
1324.382, 164.863
1325.589, 151.113
1326.795, 139.335
1328.001, 90.531
1329.206, 145.699
1330.412, 179.840
1331.617, 92.248
1332.823, 118.324
1334.028, 161.373
1335.233, 95.395
1336.437, 171.849
1337.642, 131.794
1338.846, 94.733
1340.051, 146.792
1341.255, 35.346
1342.458, 122.199
1343.662, 217.264
1344.866, 142.628
1346.069, 115.411
1347.272, 184.512
1348.475, 64.125
1349.678, 171.085
1350.880, 134.131
1352.083, 75.786
1353.285, 168.390
1354.487, 70.604
1355.689, 127.559
1356.891, 160.981
1358.093, 44.230
1359.294, 197.209
1360.495, 102.708
1361.696, 78.189
1362.897, 166.538
1364.098, 103.982
1365.298, 100.528
1366.499, 146.725
1367.699, 22.669
1368.899, 95.196
1370.099, 108.930
1371.298, 87.281
1372.498, 118.684
1373.697, 19.014
1374.896, 61.333
1376.095, 79.838
1377.294, 45.496
1378.493, 36.806
1379.691, 123.097
1380.889, 15.762
1382.087, 53.031
1383.285, 82.173
1384.483, 62.468
1385.681, 115.425
1386.878, 57.713
1388.075, 47.181
1389.272, 128.108
1390.469, 51.114
1391.666, 75.568
1392.862, 141.728
1394.059, 16.448
1395.255, 118.242
1396.451, 103.852
1397.647, 33.535
1398.842, 137.719
1400.038, 97.408
1401.233, 38.876
1402.428, 125.478
1403.623, 124.962
1404.818, 11.473
1406.013, 84.900
1407.207, 27.962
1408.401, 145.093
1409.595, 83.572
1410.789, 96.616
1411.983, 52.188
1413.177, 145.496
1414.370, 83.512
1415.563, 132.532
1416.756, 146.987
1417.949, 74.369
1419.142, 204.053
1420.335, 6.169
1421.527, 148.715
1422.719, 145.213
1423.911, 18.661
1425.103, 189.862
1426.295, 116.315
1427.486, 33.806
1428.677, 179.102
1429.869, 33.319
1431.060, 92.820
1432.250, 141.935
1433.441, 124.448
1434.632, 110.685
1435.822, 155.816
1437.012, 68.798
1438.202, 228.798
1439.392, 197.268
1440.581, 128.701
1441.771, 199.005
1442.960, 191.989
1444.149, 177.023
1445.338, 309.072
1446.527, 137.375
1447.715, 287.911
1448.904, 228.131
1450.092, 173.858
1451.280, 290.744
1452.468, 182.926
1453.656, 189.537
1454.843, 225.250
1456.031, 185.192
1457.218, 203.542
1458.405, 270.252
1459.592, 143.301
1460.778, 175.006
1461.965, 189.229
1463.151, 132.198
1464.337, 267.449
1465.523, 185.568
1466.709, 107.317
1467.895, 198.974
1469.080, 88.333
1470.266, 109.998
1471.451, 148.659
1472.636, 107.315
1473.821, 158.375
1475.005, 201.096
1476.190, 45.692
1477.374, 177.861
1478.558, 149.047
1479.742, 43.585
1480.926, 159.175
1482.109, 26.750
1483.293, 113.334
1484.476, 177.903
1485.659, 76.458
1486.842, 78.989
1488.025, 128.521
1489.207, 55.190
1490.390, 94.035
1491.572, 90.881
1492.754, 54.731
1493.936, 197.625
1495.118, 118.535
1496.299, 15.549
1497.481, 156.611
1498.662, 86.707
1499.843, 143.872
1501.024, 65.165
1502.205, 48.550
1503.385, 142.025
1504.565, 102.588
1505.746, 31.256
1506.926, 94.054
