##NAMES=Euclase
##RRUFFID=R050032
##IDEAL CHEMISTRY=BeAlSiO_4_(OH)
##LOCALITY=Minas Gerais, Brazil
##OWNER=RRUFF
##SOURCE=University of Arizona Mineral Museum
##DESCRIPTION=Colorless crystal fragments
##STATUS=The identification of this mineral has been confirmed by X-ray diffraction and chemical analysis
##URL=rruff.info/R050032
##MEASURED CHEMISTRY=Be_1.00_Al_1.00_Si_1.00_O_4_(OH)
##PIN_ID=L00411
##ORIENTATION=Laser parallel to (-1 0 -1). Fiducial mark perpendicular to laser is parallel to -b [0 -1 0]
101.492, 0.000
102.883, 2.380
104.273, 76.841
105.664, 132.681
107.054, 266.997
108.444, 272.975
109.834, 249.820
111.223, 219.796
112.613, 417.810
114.002, 517.821
115.391, 593.025
116.780, 503.830
118.168, 450.042
119.556, 298.530
120.944, 191.519
122.332, 151.775
123.720, 184.134
125.107, 41.931
126.495, 2.981
127.882, 52.113
129.268, 25.793
130.655, 132.589
132.041, 91.138
133.427, 237.311
134.813, 211.531
136.199, 181.584
137.584, 344.765
138.970, 480.871
140.355, 795.093
141.740, 1055.609
143.124, 1511.451
144.509, 2004.132
145.893, 2116.658
147.277, 1918.537
148.660, 1167.519
150.044, 723.688
151.427, 399.122
152.810, 285.894
154.193, 141.879
155.576, 92.668
156.958, 68.737
158.341, 57.600
159.723, 126.170
161.105, 201.879
162.486, 287.687
163.867, 339.456
165.249, 343.609
166.630, 339.768
168.010, 430.040
169.391, 690.402
170.771, 1220.760
172.151, 2259.005
173.531, 3648.638
174.911, 5028.598
176.290, 6566.417
177.669, 7055.100
179.049, 5423.654
180.427, 3538.108
181.806, 2095.474
183.184, 1171.720
184.562, 609.992
185.940, 413.681
187.318, 163.643
188.696, 484.065
190.073, 507.639
191.450, 820.392
192.827, 1557.271
194.204, 2601.229
195.580, 3612.221
196.956, 4534.198
198.332, 5019.066
199.708, 4279.884
201.084, 2995.747
202.459, 1759.177
203.834, 1053.875
205.209, 629.592
206.584, 343.568
207.958, 121.002
209.333, 27.873
210.707, 10.034
212.081, 19.965
213.454, 62.186
214.828, 30.936
216.201, 111.124
217.574, 80.443
218.947, 73.843
220.320, 99.292
221.692, 39.797
223.064, 63.902
224.436, 31.896
225.808, 79.163
227.179, 189.208
228.551, 545.125
229.922, 1453.125
231.293, 2894.784
232.663, 4514.109
234.034, 5968.443
235.404, 6641.115
236.774, 5625.413
238.144, 3562.079
239.514, 2200.449
240.883, 1379.058
242.252, 989.352
243.621, 786.343
244.990, 857.066
246.359, 1078.580
247.727, 1427.998
249.095, 2143.382
250.463, 3557.736
251.831, 6341.060
253.198, 11336.357
254.566, 17641.619
255.933, 23836.852
257.299, 27912.764
258.666, 26069.266
260.033, 18995.637
261.399, 11520.724
262.765, 6945.781
264.131, 4250.809
265.496, 2625.805
266.862, 1875.734
268.227, 1493.012
269.592, 1586.969
270.957, 1841.956
272.321, 2220.413
273.685, 2685.981
275.050, 2957.852
276.413, 2707.981
277.777, 2424.426
279.141, 2530.098
280.504, 3561.883
281.867, 5899.087
283.230, 9407.805
284.592, 12690.423
285.955, 15762.225
287.317, 15083.483
288.679, 11774.640
290.041, 7664.207
291.403, 4735.707
292.764, 3048.348
294.125, 2028.284
295.486, 1394.979
296.847, 939.628
298.207, 748.429
299.568, 642.752
300.928, 666.703
302.288, 823.753
303.647, 1021.398
305.007, 1303.927
306.366, 1495.502
307.725, 1369.057
309.084, 1106.520
310.443, 726.587
311.801, 528.250
313.159, 421.400
314.517, 304.912
315.875, 244.484
317.233, 237.126
318.590, 247.823
319.947, 204.210
321.304, 260.583
322.661, 271.814
324.018, 296.020
325.374, 523.118
326.730, 750.545
328.086, 1241.753
329.442, 1684.150
330.797, 2106.340
332.153, 2191.497
333.508, 1896.815
334.863, 1742.510
336.217, 1640.262
337.572, 1575.658
338.926, 1298.954
340.280, 941.201
341.634, 613.417
342.988, 340.230
344.341, 290.875
345.694, 251.039
347.047, 368.163
348.400, 480.749
349.753, 691.423
351.105, 890.621
352.457, 937.616
353.809, 873.688
355.161, 672.098
356.512, 444.457
357.864, 339.637
359.215, 240.049
360.566, 232.550
361.916, 182.902
363.267, 176.979
364.617, 200.394
365.967, 233.658
367.317, 228.600
368.667, 218.301
370.016, 273.460
371.366, 335.954
372.715, 415.202
374.064, 518.412
375.412, 724.004
376.761, 1063.964
378.109, 1334.912
379.457, 1589.883
380.805, 1725.823
382.152, 1755.221
383.500, 1912.067
384.847, 2295.707
386.194, 3037.870
387.541, 5589.065
388.887, 5453.933
390.233, 8239.355
391.580, 12281.944
392.926, 17185.883
394.271, 20059.799
395.617, 19083.670
396.962, 14537.505
398.307, 9331.290
399.652, 5812.048
400.997, 3580.772
402.341, 2214.471
403.686, 1487.158
405.030, 1087.819
406.374, 735.233
407.717, 554.852
409.061, 440.451
410.404, 331.033
411.747, 324.590
413.090, 294.121
414.433, 238.624
415.775, 387.101
417.117, 474.551
418.459, 612.978
419.801, 862.377
421.143, 1126.747
422.484, 1288.087
423.825, 1224.404
425.166, 1007.697
426.507, 700.965
427.848, 588.209
429.188, 471.358
430.528, 362.415
431.868, 434.380
433.208, 388.257
434.547, 577.049
435.887, 1007.759
437.226, 1898.390
438.565, 3514.946
439.904, 5552.428
441.242, 7195.841
442.580, 7158.186
443.918, 5286.466
445.256, 3418.687
446.594, 2186.849
447.932, 1550.956
449.269, 1206.010
450.606, 930.013
451.943, 781.971
453.280, 520.887
454.616, 433.779
455.952, 333.632
457.288, 357.441
458.624, 268.212
459.960, 231.936
461.295, 194.220
462.631, 117.443
463.966, 66.305
465.300, 47.050
466.635, 8.722
467.969, 2.630
469.304, 40.152
470.638, 2.149
471.972, 26.759
473.305, 13.553
474.639, 8.153
475.972, 19.674
477.305, 39.823
478.638, 26.084
479.970, 16.289
481.303, 19.879
482.635, 22.076
483.967, 43.240
485.298, 2.327
486.630, 6.624
487.961, 89.236
489.293, 34.920
490.624, 74.576
491.954, 21.207
493.285, 41.806
494.615, 24.370
495.945, 1.892
497.275, 74.370
498.605, 87.809
499.935, 89.209
501.264, 86.570
502.593, 172.547
503.922, 201.358
505.251, 328.939
506.579, 402.336
507.908, 499.204
509.236, 529.599
510.564, 522.788
511.891, 392.163
513.219, 335.639
514.546, 277.191
515.873, 169.556
517.200, 205.870
518.527, 138.242
519.853, 103.950
521.180, 128.493
522.506, 180.880
523.832, 86.183
525.157, 109.062
526.483, 175.720
527.808, 170.975
529.133, 197.455
530.458, 272.902
531.783, 397.670
533.107, 459.426
534.431, 625.521
535.756, 843.283
537.079, 1223.542
538.403, 1830.349
539.727, 2735.224
541.050, 3626.111
542.373, 4118.261
543.696, 3745.008
545.018, 3055.375
546.341, 2175.877
547.663, 1532.204
548.985, 1187.140
550.307, 858.498
551.629, 711.652
552.950, 670.090
554.271, 629.145
555.592, 663.179
556.913, 612.617
558.234, 706.719
559.554, 797.673
560.875, 808.777
562.195, 991.728
563.514, 1244.621
564.834, 1509.746
566.154, 1872.405
567.473, 2238.862
568.792, 2832.416
570.111, 3390.581
571.429, 3837.450
572.748, 3978.097
574.066, 3721.489
575.384, 3313.479
576.702, 2836.727
578.019, 2596.943
579.337, 2607.127
580.654, 2718.280
581.971, 2967.401
583.288, 2812.492
584.605, 2417.551
585.921, 1825.578
587.237, 1472.574
588.553, 1141.540
589.869, 893.184
591.185, 756.089
592.500, 707.800
593.815, 771.645
595.130, 936.461
596.445, 1095.248
597.760, 1511.006
599.074, 1972.736
600.389, 2601.438
601.703, 2971.112
603.016, 2770.758
604.330, 2440.377
605.644, 1868.968
606.957, 1365.532
608.270, 1019.070
609.583, 738.581
610.895, 548.065
612.208, 458.522
613.520, 371.954
614.832, 283.866
616.144, 260.386
617.455, 207.254
618.767, 195.953
620.078, 224.480
621.389, 163.671
622.700, 177.630
624.011, 179.491
625.321, 170.157
626.631, 194.675
627.941, 218.034
629.251, 261.603
630.561, 283.446
631.870, 344.685
633.180, 440.290
634.489, 586.350
635.798, 760.685
637.106, 1119.537
638.415, 1404.697
639.723, 1799.755
641.031, 1960.744
642.339, 2015.936
643.647, 1983.425
644.954, 1716.987
646.261, 1570.884
647.568, 1327.542
648.875, 1129.354
650.182, 995.933
651.488, 805.586
652.795, 747.156
654.101, 635.612
655.407, 576.369
656.712, 474.173
658.018, 387.971
659.323, 304.749
660.628, 257.878
661.933, 233.124
663.238, 201.800
664.542, 220.465
665.847, 148.117
667.151, 151.754
668.455, 103.372
669.758, 71.969
671.062, 46.545
672.365, 83.047
673.668, 26.913
674.971, 19.235
676.274, 33.089
677.577, 2.793
678.879, 37.583
680.181, 40.588
681.483, 12.193
682.785, 1.116
684.086, 12.167
685.388, 25.734
686.689, 45.259
687.990, 109.990
689.290, 7.798
690.591, 20.634
691.891, 44.896
693.192, 1.422
694.491, 91.368
695.791, 44.388
697.091, 44.454
698.390, 48.573
699.689, 105.743
700.988, 51.999
702.287, 38.303
703.586, 51.650
704.884, 4.948
706.182, 3.481
707.480, 34.941
708.778, 40.447
710.076, 18.002
711.373, 18.594
712.670, 9.778
713.968, 54.874
715.264, 2.580
716.561, 6.313
717.857, 39.076
719.154, 19.117
720.450, 9.709
721.746, 40.436
723.041, 0.566
724.337, 4.328
725.632, 15.753
726.927, 50.819
728.222, 81.873
729.517, 91.918
730.811, 115.954
732.105, 154.979
733.400, 184.991
734.693, 230.992
735.987, 254.981
737.281, 380.959
738.574, 524.926
739.867, 726.881
741.160, 1027.826
742.453, 1259.760
743.745, 1814.684
745.038, 2157.597
746.330, 2342.503
747.622, 2234.398
748.913, 1977.286
750.205, 1594.164
751.496, 1342.033
752.788, 1216.894
754.079, 1162.746
755.369, 1160.590
756.660, 1175.427
757.950, 1073.255
759.241, 786.077
760.531, 707.891
761.820, 449.698
763.110, 417.498
764.399, 320.292
765.689, 253.080
766.978, 217.861
768.267, 126.636
769.555, 132.406
770.844, 128.172
772.132, 159.932
773.420, 98.579
774.708, 92.183
775.996, 103.913
777.283, 154.395
778.570, 117.944
779.857, 97.510
781.144, 166.046
782.431, 180.696
783.718, 206.465
785.004, 206.241
786.290, 256.025
787.576, 287.813
788.862, 318.606
790.147, 408.405
791.433, 404.214
792.718, 511.031
794.003, 560.854
795.288, 572.683
796.572, 733.520
797.857, 848.368
799.141, 1023.222
800.425, 1139.080
801.709, 1275.941
802.992, 1388.807
804.276, 1353.677
805.559, 1397.552
806.842, 1360.432
808.125, 1156.317
809.407, 1000.208
810.690, 811.105
811.972, 696.006
813.254, 589.911
814.536, 509.822
815.818, 424.736
817.099, 425.653
818.381, 331.572
819.662, 348.493
820.943, 297.348
822.223, 243.227
823.504, 228.912
824.784, 248.476
826.065, 215.944
827.345, 147.574
828.624, 219.315
829.904, 200.543
831.183, 173.002
832.462, 228.576
833.741, 145.081
835.020, 273.613
836.299, 210.666
837.577, 196.064
838.856, 235.829
840.134, 177.316
841.412, 259.064
842.689, 313.787
843.967, 242.579
845.244, 283.040
846.521, 347.631
847.798, 310.867
849.075, 374.672
850.351, 321.948
851.628, 473.174
852.904, 511.291
854.180, 504.478
855.455, 643.710
856.731, 653.811
858.006, 734.492
859.281, 794.566
860.556, 929.212
861.831, 1106.048
863.106, 1226.580
864.380, 1469.476
865.655, 1735.373
866.929, 2073.847
868.202, 2499.639
869.476, 3101.562
870.750, 3873.317
872.023, 4954.215
873.296, 6312.155
874.569, 8746.844
875.842, 11642.985
877.114, 16758.309
878.386, 22153.406
879.658, 26699.432
880.930, 29315.715
882.202, 25982.102
883.474, 21258.496
884.745, 16604.914
886.016, 12961.344
887.287, 10707.789
888.558, 9134.258
889.829, 8640.740
891.099, 8227.246
892.369, 7463.773
893.639, 6780.317
894.909, 6124.883
896.179, 6003.475
897.448, 6280.083
898.718, 6806.726
899.987, 7923.398
901.256, 9870.103
902.524, 12176.826
903.793, 16063.565
905.061, 20180.328
906.329, 24907.119
907.597, 28003.926
908.865, 28730.762
910.133, 26687.615
911.400, 22814.496
912.667, 18291.416
913.934, 15078.348
915.201, 11535.301
916.468, 9332.278
917.734, 7449.273
919.001, 6057.290
920.267, 5083.326
921.532, 4323.382
922.798, 3752.458
924.064, 3069.556
925.329, 2739.678
926.594, 2488.826
927.859, 2244.999
929.124, 2009.195
930.388, 2005.410
931.653, 1726.648
932.917, 1639.908
934.181, 1429.188
935.445, 1330.489
936.708, 1136.810
937.972, 1024.151
939.235, 933.513
940.498, 887.895
941.761, 815.296
943.024, 770.725
944.286, 635.173
945.548, 650.641
946.811, 540.130
948.072, 528.640
949.334, 457.174
950.596, 444.742
951.857, 458.330
953.118, 439.951
954.379, 399.592
955.640, 407.254
956.901, 368.938
958.161, 436.641
959.421, 364.366
960.681, 350.112
961.941, 470.879
963.201, 536.667
964.460, 604.475
965.720, 717.303
966.979, 969.154
968.238, 1306.027
969.496, 1774.919
970.755, 2136.834
972.013, 2623.769
973.272, 2628.725
974.529, 2533.702
975.787, 2320.700
977.045, 2000.721
978.302, 1775.765
979.560, 1471.831
980.817, 1044.931
982.073, 891.056
983.330, 587.214
984.587, 405.398
985.843, 379.606
987.099, 159.847
988.355, 163.113
989.611, 47.408
990.866, 35.734
992.122, 45.084
993.377, 0.525
994.632, 40.078
995.887, 54.607
997.141, 41.109
998.396, 40.579
999.650, 44.435
1000.904, 61.432
1002.158, 18.810
1003.412, 25.153
1004.665, 48.541
1005.918, 70.711
1007.172, 69.934
1008.425, 9.871
1009.677, 15.716
1010.930, 69.601
1012.182, 94.513
1013.434, 105.475
1014.687, 175.481
1015.938, 137.518
1017.190, 299.602
1018.441, 365.717
1019.693, 568.873
1020.944, 683.067
1022.195, 831.287
1023.445, 755.548
1024.696, 751.839
1025.946, 587.158
1027.197, 409.498
1028.446, 324.863
1029.696, 273.255
1030.946, 241.670
1032.195, 170.930
1033.445, 182.385
1034.694, 169.252
1035.942, 126.354
1037.191, 203.867
1038.440, 224.866
1039.688, 266.416
1040.936, 279.998
1042.184, 349.814
1043.432, 440.418
1044.679, 484.729
1045.927, 595.239
1047.174, 713.898
1048.421, 852.087
1049.668, 1026.007
1050.914, 1275.266
1052.161, 1618.156
1053.407, 2123.394
1054.653, 2581.159
1055.899, 3282.988
1057.145, 4159.783
1058.391, 4861.955
1059.636, 5281.782
1060.881, 5406.568
1062.126, 4799.708
1063.371, 4221.580
1064.615, 3427.466
1065.860, 2664.901
1067.104, 2288.328
1068.348, 1656.255
1069.592, 1382.195
1070.836, 1168.224
1072.079, 902.189
1073.323, 810.726
1074.566, 587.478
1075.809, 573.774
1077.052, 543.873
1078.294, 446.093
1079.537, 412.132
1080.779, 411.493
1082.021, 366.555
1083.263, 377.628
1084.504, 321.713
1085.746, 397.841
1086.987, 358.949
1088.228, 345.077
1089.469, 390.219
1090.710, 369.360
1091.951, 441.714
1093.191, 421.876
1094.431, 447.082
1095.671, 471.339
1096.911, 501.579
1098.151, 583.637
1099.390, 713.880
1100.630, 726.098
1101.869, 833.197
1103.108, 882.472
1104.346, 901.843
1105.585, 1102.240
1106.823, 1173.547
1108.062, 1267.898
1109.300, 1477.394
1110.537, 1527.694
1111.775, 1702.035
1113.013, 1900.334
1114.250, 1966.641
1115.487, 2226.577
1116.724, 2278.895
1117.961, 2316.232
1119.197, 2644.789
1120.434, 2614.125
1121.670, 2705.589
1122.906, 2765.938
1124.142, 2623.292
1125.377, 2634.710
1126.613, 2483.073
1127.848, 2341.510
1129.083, 2185.888
1130.318, 1864.265
1131.553, 1718.822
1132.787, 1489.233
1134.022, 1274.779
1135.256, 1229.537
1136.490, 1024.929
1137.724, 905.463
1138.957, 879.976
1140.191, 648.701
1141.424, 745.295
1142.657, 591.859
1143.890, 445.598
1145.123, 497.212
1146.355, 388.994
1147.588, 438.710
1148.820, 358.551
1150.052, 250.634
1151.284, 269.953
1152.516, 218.985
1153.747, 180.501
1154.978, 217.128
1156.209, 123.358
1157.440, 151.957
1158.671, 155.692
1159.902, 101.259
1161.132, 140.154
1162.362, 118.322
1163.592, 38.863
1164.822, 109.228
1166.052, 47.425
1167.281, 130.074
1168.511, 67.657
1169.740, 39.322
1170.969, 36.703
1172.197, 59.179
1173.426, 42.885
1174.654, 34.314
1175.883, 53.296
1177.111, 7.034
1178.338, 38.037
1179.566, 32.242
1180.794, 47.195
1182.021, 28.916
1183.248, 9.651
1184.475, 18.024
1185.702, 4.324
1186.928, 22.917
1188.155, 14.320
1189.381, 17.841
1190.607, 53.429
1191.833, 6.993
1193.059, 27.423
1194.284, 32.826
1195.509, 52.335
1196.735, 47.220
1197.960, 35.887
1199.184, 6.278
1200.409, 0.674
1201.633, 19.922
1202.858, 25.854
1204.082, 43.103
1205.306, 29.817
1206.529, 35.831
1207.753, 22.128
1208.976, 42.973
1210.199, 39.968
1211.422, 25.018
1212.645, 2.834
1213.868, 3.633
1215.090, 21.697
1216.313, 59.576
1217.535, 17.334
1218.757, 72.296
1219.978, 5.029
1221.200, 1.744
1222.421, 6.294
1223.643, 2.511
1224.864, 17.182
1226.084, 38.815
1227.305, 14.518
1228.526, 54.121
1229.746, 71.816
1230.966, 70.780
1232.186, 33.838
1233.406, 83.460
1234.625, 42.360
1235.845, 43.005
1237.064, 54.577
1238.283, 0.504
1239.502, 87.031
1240.721, 43.589
1241.939, 35.212
1243.157, 42.636
1244.376, 9.050
1245.594, 26.456
1246.811, 66.918
1248.029, 23.123
1249.247, 52.261
1250.464, 37.615
1251.681, 36.967
1252.898, 54.268
1254.115, 47.217
1255.331, 35.166
1256.548, 65.590
1257.764, 59.173
1258.980, 91.529
1260.196, 90.453
1261.411, 22.920
1262.627, 81.101
1263.842, 74.252
1265.057, 41.428
1266.272, 81.668
1267.487, 51.775
1268.702, 86.965
1269.916, 89.029
1271.130, 70.059
1272.344, 138.305
1273.558, 70.251
1274.772, 86.315
1275.986, 106.195
1277.199, 4.958
1278.412, 84.023
1279.625, 55.818
1280.838, 7.363
1282.051, 133.376
1283.263, 61.095
1284.475, 67.949
1285.687, 47.678
1286.899, 57.331
1288.111, 59.088
1289.323, 87.689
1290.534, 13.272
1291.745, 72.833
1292.957, 92.377
1294.167, 55.901
1295.378, 104.407
1296.589, 65.898
1297.799, 113.373
1299.009, 78.828
1300.219, 29.263
1301.429, 12.684
1302.639, 65.084
1303.848, 19.535
1305.057, 69.813
1306.267, 21.864
1307.476, 6.422
1308.684, 74.677
1309.893, 29.093
1311.101, 6.101
1312.310, 63.360
1313.518, 16.498
1314.725, 41.605
1315.933, 38.689
1317.141, 0.256
1318.348, 55.766
1319.555, 90.760
1320.762, 40.731
1321.969, 53.677
1323.176, 39.599
1324.382, 54.495
1325.589, 77.572
1326.795, 51.417
1328.001, 50.394
1329.206, 89.192
1330.412, 54.968
1331.617, 116.254
1332.823, 46.986
1334.028, 64.680
1335.233, 97.138
1336.437, 53.803
1337.642, 52.761
1338.846, 88.515
1340.051, 4.118
1341.255, 106.188
1342.458, 55.524
1343.662, 72.515
1344.866, 97.874
1346.069, 31.879
1347.272, 57.354
1348.475, 133.793
1349.678, 73.229
1350.880, 22.285
1352.083, 70.682
1353.285, 48.117
1354.487, 74.919
1355.689, 52.258
1356.891, 113.581
1358.093, 110.353
1359.294, 45.128
1360.495, 73.402
1361.696, 110.661
1362.897, 52.829
1364.098, 150.058
1365.298, 126.715
1366.499, 46.155
1367.699, 71.014
1368.899, 86.121
1370.099, 124.050
1371.298, 77.157
1372.498, 108.936
1373.697, 72.010
1374.896, 28.180
1376.095, 33.224
1377.294, 80.228
1378.493, 36.544
1379.691, 68.177
1380.889, 84.429
1382.087, 31.440
1383.285, 88.525
1384.483, 77.754
1385.681, 54.721
1386.878, 110.731
1388.075, 155.462
1389.272, 72.312
1390.469, 129.012
1391.666, 18.879
1392.862, 85.084
1394.059, 89.929
1395.255, 87.503
1396.451, 101.161
1397.647, 75.858
1398.842, 47.513
1400.038, 60.173
1401.233, 35.292
1402.428, 60.913
1403.623, 100.311
1404.818, 105.312
1406.013, 92.356
1407.207, 100.124
1408.401, 84.354
1409.595, 65.419
1410.789, 133.574
1411.983, 68.645
1413.177, 103.788
1414.370, 100.395
1415.563, 30.503
1416.756, 134.971
1417.949, 41.072
1419.142, 72.624
1420.335, 139.508
1421.527, 28.581
1422.719, 98.732
1423.911, 53.771
1425.103, 72.500
1426.295, 136.205
1427.486, 26.129
1428.677, 49.411
1429.869, 100.157
1431.060, 30.816
1432.250, 162.530
1433.441, 74.321
1434.632, 65.735
1435.822, 121.765
1437.012, 77.733
1438.202, 76.427
1439.392, 142.278
1440.581, 77.656
1441.771, 55.325
1442.960, 115.256
1444.149, 58.546
1445.338, 74.132
1446.527, 117.323
1447.715, 90.415
1448.904, 133.498
1450.092, 120.087
1451.280, 150.876
1452.468, 93.931
1453.656, 56.637
1454.843, 23.253
1456.031, 86.980
1457.218, 96.534
1458.405, 61.138
1459.592, 167.737
1460.778, 41.574
1461.965, 110.917
1463.151, 53.087
1464.337, 40.493
1465.523, 111.777
1466.709, 120.774
1467.895, 28.762
1469.080, 73.433
1470.266, 0.558
1471.451, 86.216
1472.636, 170.431
1473.821, 67.982
1475.005, 185.198
1476.190, 55.707
1477.374, 64.002
1478.558, 74.717
1479.742, 47.434
1480.926, 98.157
1482.109, 54.855
1483.293, 64.534
1484.476, 68.193
1485.659, 106.835
1486.842, 64.504
1488.025, 48.198
1489.207, 55.475
1490.390, 19.190
1491.572, 87.923
1492.754, 106.740
1493.936, 41.594
1495.118, 120.353
1496.299, 15.509
1497.481, 42.502
1498.662, 139.570
1499.843, 83.703
1501.024, 57.885
1502.205, 79.111
1503.385, 47.395
1504.565, 40.752
1505.746, 97.207
1506.926, 38.467
1508.106, 79.123
1509.285, 123.657
1510.465, 12.793
1511.644, 75.893
1512.823, 38.907
1514.002, 64.751
1515.181, 85.305
1516.360, 4.790
1517.538, 78.581
1518.717, 89.911
1519.895, 0.359
1521.073, 0.000
##END=



