##NAMES=Euclase
##RRUFFID=R050032
##IDEAL CHEMISTRY=BeAlSiO_4_(OH)
##LOCALITY=Minas Gerais, Brazil
##OWNER=RRUFF
##SOURCE=University of Arizona Mineral Museum
##DESCRIPTION=Colorless crystal fragments
##STATUS=The identification of this mineral has been confirmed by X-ray diffraction and chemical analysis
##URL=rruff.info/R050032
##MEASURED CHEMISTRY=Be_1.00_Al_1.00_Si_1.00_O_4_(OH)
##PIN_ID=L00411
##ORIENTATION=Laser parallel to (-1 0 -1). Fiducial mark perpendicular to laser is parallel to -b [0 -1 0]
101.492, 0.000
102.883, 24.227
104.273, 168.047
105.664, 153.895
107.054, 73.728
108.444, 5.059
109.834, 41.489
111.223, 140.399
112.613, 224.124
114.002, 210.658
115.391, 245.472
116.780, 229.613
118.168, 162.345
119.556, 116.879
120.944, 73.725
122.332, 65.818
123.720, 94.807
125.107, 33.764
126.495, 15.490
127.882, 0.970
129.268, 81.216
130.655, 70.968
132.041, 105.434
133.427, 86.539
134.813, 107.370
136.199, 171.899
137.584, 243.935
138.970, 268.744
140.355, 368.749
141.740, 452.026
143.124, 548.546
144.509, 798.515
145.893, 935.504
147.277, 848.182
148.660, 610.195
150.044, 326.765
151.427, 172.072
152.810, 121.555
154.193, 36.560
155.576, 105.680
156.958, 99.359
158.341, 64.879
159.723, 91.212
161.105, 57.059
162.486, 112.628
163.867, 61.711
165.249, 76.677
166.630, 40.593
168.010, 38.491
169.391, 89.412
170.771, 109.336
172.151, 201.201
173.531, 396.994
174.911, 524.718
176.290, 752.376
177.669, 930.970
179.049, 1126.505
180.427, 1074.982
181.806, 722.411
183.184, 414.796
184.562, 230.224
185.940, 89.930
187.318, 77.827
188.696, 48.830
190.073, 3.937
191.450, 33.128
192.827, 91.375
194.204, 176.646
195.580, 276.922
196.956, 366.185
198.332, 351.031
199.708, 357.619
201.084, 271.789
202.459, 170.083
203.834, 78.321
205.209, 16.442
206.584, 3.619
207.958, 54.265
209.333, 45.922
210.707, 24.397
212.081, 20.749
213.454, 33.889
214.828, 24.624
216.201, 21.046
217.574, 17.281
218.947, 18.726
220.320, 30.943
221.692, 33.979
223.064, 46.389
224.436, 179.232
225.808, 224.359
227.179, 463.430
228.551, 940.428
229.922, 1913.355
231.293, 3837.238
232.663, 6575.839
234.034, 11108.384
235.404, 14613.035
236.774, 12657.657
238.144, 7985.999
239.514, 4622.337
240.883, 2799.654
242.252, 1663.880
243.621, 1163.033
244.990, 945.143
246.359, 945.225
247.727, 1142.298
249.095, 1503.364
250.463, 2289.427
251.831, 3751.483
253.198, 6429.532
254.566, 10658.575
255.933, 16700.607
257.299, 23952.639
258.666, 23894.656
260.033, 17746.863
261.399, 11009.284
262.765, 6599.560
264.131, 3952.548
265.496, 2348.528
266.862, 1533.982
268.227, 1026.022
269.592, 827.029
270.957, 665.751
272.321, 680.518
273.685, 623.260
275.050, 647.710
276.413, 700.280
277.777, 749.751
279.141, 994.678
280.504, 1502.317
281.867, 2532.560
283.230, 4274.207
284.592, 6542.416
285.955, 9615.136
287.317, 10309.634
288.679, 7986.218
290.041, 5304.095
291.403, 3302.539
292.764, 2121.452
294.125, 1364.154
295.486, 982.511
296.847, 677.905
298.207, 482.904
299.568, 422.821
300.928, 337.034
302.288, 278.433
303.647, 284.105
305.007, 297.075
306.366, 302.273
307.725, 295.266
309.084, 227.269
310.443, 197.142
311.801, 156.914
313.159, 110.908
314.517, 112.322
315.875, 104.716
317.233, 84.044
318.590, 82.830
319.947, 64.562
321.304, 56.018
322.661, 34.593
324.018, 25.590
325.374, 40.147
326.730, 83.413
328.086, 84.101
329.442, 123.794
330.797, 155.832
332.153, 157.764
333.508, 150.497
334.863, 173.275
336.217, 153.574
337.572, 130.685
338.926, 136.908
340.280, 66.118
341.634, 87.313
342.988, 31.494
344.341, 80.660
345.694, 119.813
347.047, 297.836
348.400, 545.085
349.753, 910.523
351.105, 1585.863
352.457, 1937.887
353.809, 1768.869
355.161, 1308.692
356.512, 759.154
357.864, 477.148
359.215, 280.556
360.566, 179.332
361.916, 134.084
363.267, 66.813
364.617, 50.210
365.967, 54.204
367.317, 21.637
368.667, 34.576
370.016, 19.030
371.366, 25.972
372.715, 33.538
374.064, 74.279
375.412, 142.231
376.761, 206.381
378.109, 324.010
379.457, 424.895
380.805, 585.035
382.152, 635.113
383.500, 727.019
384.847, 801.977
386.194, 1053.067
387.541, 1586.948
388.887, 2427.027
390.233, 4171.866
391.580, 6697.698
392.926, 10734.473
394.271, 14586.333
395.617, 14858.207
396.962, 11800.102
398.307, 7413.891
399.652, 4625.599
400.997, 2778.297
402.341, 1766.994
403.686, 1182.693
405.030, 758.390
406.374, 573.087
407.717, 409.786
409.061, 369.483
410.404, 267.174
411.747, 203.861
413.090, 167.542
414.433, 140.219
415.775, 117.675
417.117, 95.552
418.459, 105.209
419.801, 111.859
421.143, 116.502
422.484, 180.138
423.825, 197.765
425.166, 204.385
426.507, 211.998
427.848, 202.605
429.188, 281.158
430.528, 319.662
431.868, 419.122
433.208, 621.543
434.547, 858.929
435.887, 1545.289
437.226, 2814.619
438.565, 5503.920
439.904, 9391.190
441.242, 14662.434
442.580, 16553.650
443.918, 12564.842
445.256, 7794.011
446.594, 4611.160
447.932, 2737.290
449.269, 1709.403
450.606, 1066.498
451.943, 732.577
453.280, 567.644
454.616, 425.699
455.952, 352.740
457.288, 237.767
458.624, 191.782
459.960, 129.784
461.295, 88.761
462.631, 92.753
463.966, 35.622
465.300, 49.505
466.635, 12.429
467.969, 45.352
469.304, 18.244
470.638, 18.839
471.972, 19.296
473.305, 11.426
474.639, 2.355
475.972, 28.289
477.305, 10.730
478.638, 16.343
479.970, 4.574
481.303, 4.414
482.635, 28.782
483.967, 2.074
485.298, 17.411
486.630, 4.674
487.961, 13.756
489.293, 4.831
490.624, 8.263
491.954, 27.500
493.285, 14.755
494.615, 43.983
495.945, 63.311
497.275, 63.556
498.605, 103.704
499.935, 161.874
501.264, 220.746
502.593, 316.704
503.922, 428.426
505.251, 596.351
506.579, 796.438
507.908, 931.054
509.236, 1027.664
510.564, 1035.273
511.891, 841.880
513.219, 703.513
514.546, 513.258
515.873, 400.872
517.200, 258.663
518.527, 179.419
519.853, 145.205
521.180, 73.155
522.506, 91.484
523.832, 73.520
525.157, 65.485
526.483, 61.148
527.808, 7.952
529.133, 37.827
530.458, 17.737
531.783, 0.442
533.107, 45.879
534.431, 54.292
535.756, 54.859
537.079, 90.639
538.403, 117.897
539.727, 160.886
541.050, 211.456
542.373, 210.361
543.696, 255.572
545.018, 203.049
546.341, 158.489
547.663, 120.521
548.985, 74.581
550.307, 78.797
551.629, 92.789
552.950, 74.003
554.271, 69.639
555.592, 63.670
556.913, 86.614
558.234, 116.970
559.554, 159.623
560.875, 120.544
562.195, 180.089
563.514, 234.197
564.834, 268.280
566.154, 360.587
567.473, 408.623
568.792, 546.254
570.111, 664.972
571.429, 845.614
572.748, 1022.174
574.066, 1040.631
575.384, 1149.946
576.702, 1171.194
578.019, 1350.392
579.337, 1691.611
580.654, 2140.841
581.971, 2742.186
583.288, 2868.519
584.605, 2670.841
585.921, 2095.151
587.237, 1535.451
588.553, 1130.739
589.869, 855.017
591.185, 724.284
592.500, 648.540
593.815, 679.786
595.130, 767.022
596.445, 923.247
597.760, 1300.463
599.074, 1681.668
600.389, 2204.864
601.703, 2645.049
603.016, 2598.225
604.330, 2264.391
605.644, 1630.548
606.957, 1222.694
608.270, 854.832
609.583, 618.960
610.895, 443.078
612.208, 317.188
613.520, 288.287
614.832, 205.378
616.144, 165.459
617.455, 171.531
618.767, 140.594
620.078, 139.525
621.389, 131.467
622.700, 96.165
624.011, 128.916
625.321, 89.506
626.631, 145.229
627.941, 127.834
629.251, 138.437
630.561, 178.038
631.870, 203.350
633.180, 222.831
634.489, 261.634
635.798, 360.192
637.106, 495.369
638.415, 634.984
639.723, 795.426
641.031, 1028.198
642.339, 1312.674
643.647, 1598.813
644.954, 1742.248
646.261, 1792.484
647.568, 1584.915
648.875, 1355.452
650.182, 1220.067
651.488, 983.626
652.795, 931.304
654.101, 850.060
655.407, 701.814
656.712, 547.697
658.018, 455.575
659.323, 365.448
660.628, 280.316
661.933, 219.180
663.238, 161.039
664.542, 130.893
665.847, 119.739
667.151, 78.577
668.455, 94.408
669.758, 68.231
671.062, 42.047
672.365, 72.853
673.668, 29.652
674.971, 36.442
676.274, 27.222
677.577, 4.994
678.879, 38.710
680.181, 40.462
681.483, 40.172
682.785, 26.845
684.086, 2.498
685.388, 4.083
686.689, 5.554
687.990, 17.125
689.290, 11.799
690.591, 8.299
691.891, 21.784
693.192, 21.294
694.491, 44.707
695.791, 10.846
697.091, 17.610
698.390, 11.091
699.689, 39.587
700.988, 32.120
702.287, 15.685
703.586, 25.274
704.884, 25.890
706.182, 28.635
707.480, 9.399
708.778, 29.128
710.076, 3.973
711.373, 10.856
712.670, 9.787
713.968, 16.645
715.264, 5.453
716.561, 26.277
717.857, 20.582
719.154, 2.992
720.450, 13.899
721.746, 17.812
723.041, 3.252
724.337, 14.304
725.632, 10.348
726.927, 12.382
728.222, 15.407
729.517, 22.425
730.811, 31.232
732.105, 22.440
733.400, 41.438
734.693, 48.431
735.987, 64.319
737.281, 87.720
738.574, 110.380
739.867, 134.351
741.160, 169.317
742.453, 187.278
743.745, 271.233
745.038, 370.183
746.330, 399.128
747.622, 394.068
748.913, 360.002
750.205, 335.932
751.496, 298.857
752.788, 252.777
754.079, 261.693
755.369, 215.604
756.660, 261.511
757.950, 215.413
759.241, 192.311
760.531, 161.205
761.820, 141.095
763.110, 130.980
764.399, 130.862
765.689, 119.740
766.978, 77.614
768.267, 110.484
769.555, 95.351
770.844, 123.214
772.132, 120.074
773.420, 104.930
774.708, 70.784
775.996, 93.634
777.283, 108.482
778.570, 87.328
779.857, 119.172
781.144, 78.005
782.431, 114.847
783.718, 114.688
785.004, 144.527
786.290, 179.366
787.576, 155.205
788.862, 194.044
790.147, 183.886
791.433, 155.727
792.718, 212.570
794.003, 179.413
795.288, 220.255
796.572, 243.101
797.857, 234.946
799.141, 258.793
800.425, 282.641
801.709, 326.490
802.992, 381.340
804.276, 383.190
805.559, 385.039
806.842, 380.888
808.125, 373.737
809.407, 354.585
810.690, 298.432
811.972, 256.278
813.254, 280.123
814.536, 275.967
815.818, 279.810
817.099, 256.651
818.381, 254.492
819.662, 254.332
820.943, 251.147
822.223, 278.009
823.504, 271.847
824.784, 265.658
826.065, 300.360
827.345, 263.193
828.624, 309.847
829.904, 323.530
831.183, 336.177
832.462, 335.446
833.741, 363.145
835.020, 366.853
836.299, 402.563
837.577, 414.219
838.856, 410.351
840.134, 450.099
841.412, 509.761
842.689, 583.697
843.967, 536.969
845.244, 615.462
846.521, 639.861
847.798, 665.721
849.075, 700.108
850.351, 773.166
851.628, 859.084
852.904, 931.734
854.180, 1014.280
855.455, 1082.495
856.731, 1180.605
858.006, 1309.337
859.281, 1483.768
860.556, 1590.281
861.831, 1854.766
863.106, 1995.022
864.380, 2419.849
865.655, 2813.275
866.929, 3223.779
868.202, 4032.867
869.476, 4817.650
870.750, 6127.160
872.023, 7622.041
873.296, 9564.352
874.569, 13461.682
875.842, 17888.781
877.114, 26107.146
878.386, 35725.918
879.658, 44124.598
880.930, 51013.344
882.202, 46102.168
883.474, 37291.043
884.745, 28219.965
886.016, 20258.863
887.287, 14887.848
888.558, 11106.847
889.829, 8795.857
891.099, 7280.879
892.369, 6152.908
893.639, 5400.943
894.909, 4831.984
896.179, 4527.033
897.448, 4586.088
898.718, 4709.154
899.987, 5333.226
901.256, 6339.311
902.524, 7511.408
903.793, 9925.513
905.061, 12204.630
906.329, 15343.756
907.597, 17932.891
908.865, 18662.031
910.133, 18041.188
911.400, 15640.352
912.667, 12479.522
913.934, 10498.703
915.201, 8151.891
916.468, 6646.096
917.734, 5445.307
919.001, 4443.525
920.267, 3870.755
921.532, 3177.992
922.798, 2815.237
924.064, 2432.493
925.329, 2135.756
926.594, 1960.028
927.859, 1725.313
929.124, 1535.605
930.388, 1464.906
931.653, 1273.215
932.917, 1228.531
934.181, 1067.856
935.445, 1043.192
936.708, 931.538
937.972, 860.899
939.235, 839.276
940.498, 719.667
941.761, 671.069
943.024, 650.480
944.286, 581.900
945.548, 575.328
946.811, 506.764
948.072, 507.209
949.334, 481.661
950.596, 418.121
951.857, 418.590
953.118, 360.067
954.379, 337.552
955.640, 320.046
956.901, 257.547
958.161, 268.057
959.421, 258.575
960.681, 240.101
961.941, 212.636
963.201, 221.179
964.460, 190.730
965.720, 204.290
966.979, 191.861
968.238, 189.440
969.496, 183.028
970.755, 209.626
972.013, 220.232
973.272, 230.848
974.529, 205.472
975.787, 238.104
977.045, 207.746
978.302, 245.397
979.560, 205.057
980.817, 170.726
982.073, 167.404
983.330, 127.093
984.587, 73.793
985.843, 120.503
987.099, 28.222
988.355, 46.951
989.611, 4.689
990.866, 42.439
992.122, 12.202
993.377, 2.980
994.632, 33.775
995.887, 4.586
997.141, 31.583
998.396, 11.734
999.650, 42.869
1000.904, 25.989
1002.158, 14.895
1003.412, 46.203
1004.665, 6.706
1005.918, 12.361
1007.172, 4.408
1008.425, 15.439
1009.677, 7.546
1010.930, 14.449
1012.182, 7.573
1013.434, 26.611
1014.687, 59.670
1015.938, 71.803
1017.190, 69.830
1018.441, 114.933
1019.693, 123.053
1020.944, 170.187
1022.195, 174.341
1023.445, 243.511
1024.696, 248.697
1025.946, 139.899
1027.197, 76.118
1028.446, 84.064
1029.696, 90.304
1030.946, 36.553
1032.195, 6.813
1033.445, 18.199
1034.694, 62.476
1035.942, 19.762
1037.191, 49.055
1038.440, 24.917
1039.688, 23.575
1040.936, 47.778
1042.184, 42.102
1043.432, 20.433
1044.679, 54.773
1045.927, 48.225
1047.174, 59.601
1048.421, 113.761
1049.668, 112.157
1050.914, 147.350
1052.161, 196.406
1053.407, 226.260
1054.653, 299.656
1055.899, 395.158
1057.145, 500.567
1058.391, 563.414
1059.636, 591.680
1060.881, 615.616
1062.126, 578.092
1063.371, 489.573
1064.615, 422.103
1065.860, 311.980
1067.104, 287.439
1068.348, 195.903
1069.592, 144.121
1070.836, 143.631
1072.079, 99.167
1073.323, 92.415
1074.566, 63.907
1075.809, 70.417
1077.052, 68.075
1078.294, 92.583
1079.537, 64.139
1080.779, 50.769
1082.021, 54.291
1083.263, 31.822
1084.504, 27.988
1085.746, 40.482
1086.987, 54.166
1088.228, 71.558
1089.469, 71.314
1090.710, 83.730
1091.951, 81.565
1093.191, 113.160
1094.431, 72.730
1095.671, 94.309
1096.911, 124.909
1098.151, 107.491
1099.390, 211.076
1100.630, 173.665
1101.869, 160.268
1103.108, 227.864
1104.346, 197.480
1105.585, 258.083
1106.823, 278.707
1108.062, 285.317
1109.300, 380.932
1110.537, 366.549
1111.775, 423.203
1113.013, 453.826
1114.250, 456.455
1115.487, 536.752
1116.724, 564.384
1117.961, 593.019
1119.197, 618.025
1120.434, 651.666
1121.670, 673.529
1122.906, 709.175
1124.142, 653.823
1125.377, 700.631
1126.613, 638.283
1127.848, 589.101
1129.083, 585.758
1130.318, 442.416
1131.553, 421.338
1132.787, 418.000
1134.022, 333.664
1135.256, 373.575
1136.490, 281.242
1137.724, 227.909
1138.957, 217.579
1140.191, 173.250
1141.424, 131.008
1142.657, 152.681
1143.890, 97.354
1145.123, 116.227
1146.355, 103.730
1147.588, 132.329
1148.820, 89.870
1150.052, 51.979
1151.284, 74.703
1152.516, 83.917
1153.747, 58.926
1154.978, 87.562
1156.209, 40.187
1157.440, 23.594
1158.671, 47.347
1159.902, 28.819
1161.132, 50.626
1162.362, 44.522
1163.592, 14.238
1164.822, 7.177
1166.052, 34.878
1167.281, 27.592
1168.511, 44.566
1169.740, 4.293
1170.969, 47.966
1172.197, 22.461
1173.426, 12.412
1174.654, 39.136
1175.883, 11.982
1177.111, 8.684
1178.338, 30.396
1179.566, 7.462
1180.794, 0.131
1182.021, 25.844
1183.248, 35.536
1184.475, 25.171
1185.702, 24.009
1186.928, 20.392
1188.155, 12.791
1189.381, 18.831
1190.607, 26.419
1191.833, 10.214
1193.059, 1.796
1194.284, 4.373
1195.509, 9.995
1196.735, 4.574
1197.960, 9.850
1199.184, 23.274
1200.409, 3.685
1201.633, 11.933
1202.858, 13.495
1204.082, 37.125
1205.306, 18.368
1206.529, 0.882
1207.753, 12.597
1208.976, 6.161
1210.199, 11.368
1211.422, 5.489
1212.645, 17.058
1213.868, 20.378
1215.090, 29.810
1216.313, 5.762
1217.535, 8.656
1218.757, 8.129
1219.978, 5.464
1221.200, 26.933
1222.421, 11.356
1223.643, 11.256
1224.864, 39.119
1226.084, 10.489
1227.305, 7.860
1228.526, 18.223
1229.746, 16.634
1230.966, 2.012
1232.186, 2.622
1233.406, 14.194
1234.625, 20.879
1235.845, 10.530
1237.064, 4.692
1238.283, 5.813
1239.502, 16.073
1240.721, 30.366
1241.939, 22.618
1243.157, 18.945
1244.376, 24.918
1245.594, 41.451
1246.811, 31.688
1248.029, 24.029
1249.247, 33.258
1250.464, 23.535
1251.681, 30.750
1252.898, 24.283
1254.115, 34.230
1255.331, 28.803
1256.548, 41.677
1257.764, 21.865
1258.980, 31.049
1260.196, 30.255
1261.411, 0.589
1262.627, 38.799
1263.842, 42.965
1265.057, 7.343
1266.272, 62.518
1267.487, 12.644
1268.702, 37.878
1269.916, 40.985
1271.130, 16.087
1272.344, 50.204
1273.558, 16.291
1274.772, 38.433
1275.986, 53.503
1277.199, 12.567
1278.412, 43.641
1279.625, 57.683
1280.838, 13.719
1282.051, 56.791
1283.263, 48.809
1284.475, 69.933
1285.687, 67.938
1286.899, 23.936
1288.111, 57.925
1289.323, 77.908
1290.534, 6.116
1291.745, 12.152
1292.957, 23.802
1294.167, 32.762
1295.378, 51.720
1296.589, 31.661
1297.799, 0.363
1299.009, 12.565
1300.219, 21.484
1301.429, 45.397
1302.639, 62.304
1303.848, 28.206
1305.057, 35.101
1306.267, 23.990
1307.476, 18.546
1308.684, 35.746
1309.893, 16.606
1311.101, 39.458
1312.310, 36.328
1313.518, 15.167
1314.725, 32.997
1315.933, 45.819
1317.141, 0.635
1318.348, 16.439
1319.555, 33.322
1320.762, 20.111
1321.969, 44.174
1323.176, 32.946
1324.382, 10.708
1325.589, 42.464
1326.795, 32.092
1328.001, 35.830
1329.206, 62.561
1330.412, 22.285
1331.617, 49.468
1332.823, 46.829
1334.028, 38.645
1335.233, 56.342
1336.437, 18.032
1337.642, 74.716
1338.846, 59.287
1340.051, 32.935
1341.255, 44.800
1342.458, 42.431
1343.662, 39.265
1344.866, 30.237
1346.069, 24.412
1347.272, 31.754
1348.475, 21.576
1349.678, 42.200
1350.880, 55.456
1352.083, 50.716
1353.285, 23.323
1354.487, 53.885
1355.689, 3.442
1356.891, 51.952
1358.093, 41.117
1359.294, 68.703
1360.495, 76.284
1361.696, 64.116
1362.897, 25.657
1364.098, 63.177
1365.298, 59.987
1366.499, 32.554
1367.699, 89.107
1368.899, 38.555
1370.099, 56.120
1371.298, 37.641
1372.498, 48.991
1373.697, 27.559
1374.896, 45.189
1376.095, 29.127
1377.294, 19.894
1378.493, 43.883
1379.691, 23.355
1380.889, 6.612
1382.087, 17.069
1383.285, 45.842
1384.483, 26.606
1385.681, 46.388
1386.878, 18.149
1388.075, 30.893
1389.272, 40.625
1390.469, 70.362
1391.666, 15.053
1392.862, 37.766
1394.059, 22.736
1395.255, 45.014
1396.451, 20.440
1397.647, 41.098
1398.842, 23.565
1400.038, 40.012
1401.233, 44.330
1402.428, 45.940
1403.623, 29.246
1404.818, 9.831
1406.013, 25.301
1407.207, 34.864
1408.401, 1.976
1409.595, 23.303
1410.789, 53.737
1411.983, 9.701
1413.177, 48.955
1414.370, 48.295
1415.563, 26.492
1416.756, 84.552
1417.949, 16.549
1419.142, 40.454
1420.335, 89.725
1421.527, 24.510
1422.719, 91.425
1423.911, 44.622
1425.103, 18.273
1426.295, 34.365
1427.486, 7.348
1428.677, 31.622
1429.869, 49.858
1431.060, 47.805
1432.250, 45.972
1433.441, 46.270
1434.632, 42.323
1435.822, 36.356
1437.012, 24.434
1438.202, 24.718
1439.392, 65.844
1440.581, 16.439
1441.771, 48.722
1442.960, 93.002
1444.149, 46.169
1445.338, 40.391
1446.527, 60.663
1447.715, 30.924
1448.904, 87.073
1450.092, 48.227
1451.280, 53.301
1452.468, 53.053
1453.656, 50.189
1454.843, 19.394
1456.031, 60.444
1457.218, 28.681
1458.405, 67.659
1459.592, 42.745
1460.778, 54.796
1461.965, 6.856
1463.151, 45.026
1464.337, 37.725
1465.523, 78.727
1466.709, 43.206
1467.895, 23.073
1469.080, 78.252
1470.266, 48.365
1471.451, 55.374
1472.636, 32.505
1473.821, 17.724
1475.005, 62.822
1476.190, 69.715
1477.374, 45.945
1478.558, 66.181
1479.742, 42.420
1480.926, 52.576
1482.109, 24.675
1483.293, 52.932
1484.476, 50.189
1485.659, 49.444
1486.842, 34.702
1488.025, 74.993
1489.207, 43.215
1490.390, 37.547
1491.572, 47.896
1492.754, 10.860
1493.936, 29.238
1495.118, 50.664
1496.299, 47.119
1497.481, 56.623
1498.662, 74.010
1499.843, 57.583
1501.024, 43.197
1502.205, 29.851
1503.385, 37.581
1504.565, 55.319
1505.746, 62.139
1506.926, 59.031
1508.106, 72.343
1509.285, 65.377
1510.465, 26.503
1511.644, 66.748
1512.823, 62.117
1514.002, 5.370
1515.181, 59.311
1516.360, 30.314
1517.538, 73.576
1518.717, 47.408
1519.895, 14.934
1521.073, 10.252
1522.251, 0.000
##END=



