##NAMES=Euclase
##RRUFFID=R050032
##IDEAL CHEMISTRY=BeAlSiO_4_(OH)
##LOCALITY=Minas Gerais, Brazil
##OWNER=RRUFF
##SOURCE=University of Arizona Mineral Museum
##DESCRIPTION=Colorless crystal fragments
##STATUS=The identification of this mineral has been confirmed by X-ray diffraction and chemical analysis
##URL=rruff.info/R050032
##MEASURED CHEMISTRY=Be_1.00_Al_1.00_Si_1.00_O_4_(OH)
##PIN_ID=L00356
##ORIENTATION=Laser parallel to b* (0 1 0). Fiducial mark perpendicular to laser is parallel to c [0 0 1]
101.492, 0.000
102.883, 30.487
104.273, 0.675
105.664, 76.443
107.054, 148.437
108.444, 231.311
109.834, 130.038
111.223, 249.128
112.613, 230.552
114.002, 321.261
115.391, 417.625
116.780, 368.307
118.168, 332.455
119.556, 178.020
120.944, 202.580
122.332, 136.559
123.720, 207.144
125.107, 188.313
126.495, 10.149
127.882, 17.622
129.268, 45.765
130.655, 95.631
132.041, 33.561
133.427, 107.861
134.813, 131.631
136.199, 149.125
137.584, 264.942
138.970, 347.012
140.355, 385.663
141.740, 408.489
143.124, 863.800
144.509, 1483.012
145.893, 1653.867
147.277, 1043.518
148.660, 494.978
150.044, 255.625
151.427, 171.296
152.810, 309.346
154.193, 266.289
155.576, 264.201
156.958, 285.091
158.341, 229.589
159.723, 269.298
161.105, 219.883
162.486, 220.236
163.867, 251.450
165.249, 220.621
166.630, 200.194
168.010, 175.718
169.391, 108.115
170.771, 144.420
172.151, 118.574
173.531, 190.579
174.911, 149.439
176.290, 314.159
177.669, 750.745
179.049, 720.332
180.427, 634.846
181.806, 869.820
183.184, 249.974
184.562, 94.142
185.940, 86.321
187.318, 35.159
188.696, 57.958
190.073, 8.731
191.450, 21.033
192.827, 2.536
194.204, 0.016
195.580, 45.564
196.956, 40.170
198.332, 31.751
199.708, 26.063
201.084, 0.548
202.459, 9.307
203.834, 28.657
205.209, 18.928
206.584, 13.094
207.958, 34.272
209.333, 35.632
210.707, 19.916
212.081, 38.473
213.454, 86.006
214.828, 39.133
216.201, 16.032
217.574, 36.615
218.947, 41.375
220.320, 48.506
221.692, 48.950
223.064, 73.441
224.436, 134.483
225.808, 155.503
227.179, 321.726
228.551, 460.809
229.922, 901.739
231.293, 2013.015
232.663, 5595.221
234.034, 13990.332
235.404, 15237.522
236.774, 9634.020
238.144, 3945.560
239.514, 1724.436
240.883, 1051.124
242.252, 676.699
243.621, 687.184
244.990, 604.587
246.359, 678.925
247.727, 796.225
249.095, 968.508
250.463, 1573.772
251.831, 2223.017
253.198, 4250.239
254.566, 8222.440
255.933, 18406.619
257.299, 26231.426
258.666, 20616.371
260.033, 12041.345
261.399, 5422.053
262.765, 2836.107
264.131, 1643.140
265.496, 1035.372
266.862, 744.173
268.227, 515.137
269.592, 442.363
270.957, 308.320
272.321, 352.764
273.685, 349.683
275.050, 337.072
276.413, 433.943
277.777, 401.320
279.141, 585.115
280.504, 812.376
281.867, 1438.151
283.230, 2810.500
284.592, 5634.000
285.955, 5163.045
287.317, 7663.878
288.679, 4932.515
290.041, 2619.764
291.403, 1456.199
292.764, 1043.344
294.125, 692.468
295.486, 619.635
296.847, 419.709
298.207, 400.192
299.568, 310.508
300.928, 313.590
302.288, 298.888
303.647, 242.276
305.007, 273.674
306.366, 226.021
307.725, 254.559
309.084, 218.955
310.443, 221.036
311.801, 210.261
313.159, 204.808
314.517, 222.186
315.875, 187.801
317.233, 191.893
318.590, 196.548
319.947, 153.754
321.304, 185.838
322.661, 180.217
324.018, 139.752
325.374, 196.119
326.730, 177.892
328.086, 144.915
329.442, 136.874
330.797, 173.421
332.153, 160.920
333.508, 188.422
334.863, 238.424
336.217, 240.013
337.572, 251.146
338.926, 202.948
340.280, 193.723
341.634, 206.041
342.988, 150.330
344.341, 189.398
345.694, 215.628
347.047, 309.031
348.400, 518.969
349.753, 984.811
351.105, 1615.713
352.457, 1736.100
353.809, 1483.122
355.161, 863.666
356.512, 561.113
357.864, 422.023
359.215, 299.465
360.566, 286.801
361.916, 193.638
363.267, 229.196
364.617, 215.971
365.967, 183.788
367.317, 191.300
368.667, 212.411
370.016, 243.007
371.366, 243.129
372.715, 360.271
374.064, 453.340
375.412, 648.570
376.761, 1065.404
378.109, 1478.454
379.457, 2201.113
380.805, 2162.079
382.152, 1755.144
383.500, 1323.310
384.847, 983.488
386.194, 1063.046
387.541, 1110.320
388.887, 1681.724
390.233, 2762.178
391.580, 5131.443
392.926, 10717.923
394.271, 13391.540
395.617, 12284.911
396.962, 7163.112
398.307, 3457.464
399.652, 2045.582
400.997, 1118.695
402.341, 824.804
403.686, 545.902
405.030, 432.995
406.374, 352.075
407.717, 271.143
409.061, 219.206
410.404, 165.258
411.747, 180.299
413.090, 158.330
414.433, 130.352
415.775, 186.368
417.117, 143.375
418.459, 220.380
419.801, 259.375
421.143, 321.360
422.484, 340.329
423.825, 265.289
425.166, 312.244
426.507, 193.186
427.848, 217.115
429.188, 241.968
430.528, 296.732
431.868, 360.120
433.208, 465.878
434.547, 789.753
435.887, 1103.551
437.226, 1965.233
438.565, 4692.261
439.904, 9817.094
441.242, 8893.346
442.580, 14821.604
443.918, 8663.784
445.256, 4873.914
446.594, 3409.996
447.932, 3241.035
449.269, 2958.031
450.606, 3609.985
451.943, 4071.897
453.280, 2379.782
454.616, 2241.634
455.952, 1559.453
457.288, 1371.241
458.624, 1038.624
459.960, 740.901
461.295, 681.780
462.631, 518.649
463.966, 441.433
465.300, 308.956
466.635, 297.587
467.969, 227.996
469.304, 174.500
470.638, 197.831
471.972, 99.150
473.305, 129.400
474.639, 113.607
475.972, 80.873
477.305, 77.983
478.638, 68.096
479.970, 89.218
481.303, 81.152
482.635, 32.212
483.967, 39.244
485.298, 13.899
486.630, 70.187
487.961, 56.197
489.293, 2.065
490.624, 54.896
491.954, 13.881
493.285, 65.812
494.615, 53.865
495.945, 74.131
497.275, 117.409
498.605, 111.736
499.935, 194.865
501.264, 194.954
502.593, 348.087
503.922, 484.980
505.251, 563.029
506.579, 821.180
507.908, 853.722
509.236, 1024.761
510.564, 885.841
511.891, 674.876
513.219, 494.958
514.546, 291.262
515.873, 214.487
517.200, 77.703
518.527, 82.766
519.853, 81.627
521.180, 19.476
522.506, 30.756
523.832, 21.369
525.157, 2.760
526.483, 13.947
527.808, 39.457
529.133, 2.617
530.458, 29.621
531.783, 5.549
533.107, 29.910
534.431, 12.343
535.756, 53.028
537.079, 1.174
538.403, 113.510
539.727, 157.096
541.050, 256.534
542.373, 284.081
543.696, 175.881
545.018, 123.703
546.341, 86.751
547.663, 102.846
548.985, 52.268
550.307, 0.449
551.629, 80.747
552.950, 45.316
554.271, 102.201
555.592, 138.557
556.913, 99.236
558.234, 165.086
559.554, 182.919
560.875, 229.407
562.195, 298.847
563.514, 333.973
564.834, 457.036
566.154, 595.072
567.473, 965.002
568.792, 1486.116
570.111, 2420.425
571.429, 3800.781
572.748, 4024.480
574.066, 3705.868
575.384, 2833.370
576.702, 2042.880
578.019, 2023.555
579.337, 2032.933
580.654, 2547.749
581.971, 2903.681
583.288, 2840.300
584.605, 2490.940
585.921, 1697.636
587.237, 1274.167
588.553, 885.698
589.869, 730.248
591.185, 690.746
592.500, 563.229
593.815, 669.699
595.130, 775.155
596.445, 935.597
597.760, 1286.025
599.074, 1593.438
600.389, 2529.835
601.703, 2661.217
603.016, 2420.583
604.330, 1935.933
605.644, 1203.268
606.957, 906.588
608.270, 550.893
609.583, 470.183
610.895, 351.458
612.208, 233.719
613.520, 241.965
614.832, 215.196
616.144, 202.414
617.455, 181.619
618.767, 150.811
620.078, 203.993
621.389, 135.165
622.700, 189.326
624.011, 173.478
625.321, 180.621
626.631, 189.755
627.941, 152.797
629.251, 177.913
630.561, 206.637
631.870, 172.486
633.180, 226.267
634.489, 187.909
635.798, 302.538
637.106, 330.125
638.415, 387.798
639.723, 569.438
641.031, 596.871
642.339, 881.333
643.647, 1042.430
644.954, 1084.019
646.261, 1185.549
647.568, 859.850
648.875, 850.374
650.182, 671.725
651.488, 574.293
652.795, 628.809
654.101, 446.408
655.407, 458.185
656.712, 339.936
658.018, 267.887
659.323, 250.830
660.628, 185.766
661.933, 166.694
663.238, 143.616
664.542, 119.519
665.847, 122.723
667.151, 93.325
668.455, 111.206
669.758, 91.075
671.062, 37.932
672.365, 56.774
673.668, 59.604
674.971, 96.149
676.274, 49.708
677.577, 30.255
678.879, 109.121
680.181, 26.554
681.483, 38.219
682.785, 9.335
684.086, 28.541
685.388, 9.756
686.689, 14.150
687.990, 16.081
689.290, 24.797
690.591, 14.608
691.891, 15.229
693.192, 31.524
694.491, 45.560
695.791, 28.152
697.091, 73.681
698.390, 7.733
699.689, 47.870
700.988, 1.484
702.287, 36.259
703.586, 53.201
704.884, 9.867
706.182, 23.287
707.480, 41.701
708.778, 13.818
710.076, 36.109
711.373, 11.204
712.670, 17.172
713.968, 3.333
715.264, 37.296
716.561, 32.295
717.857, 2.673
719.154, 27.375
720.450, 12.547
721.746, 13.457
723.041, 25.645
724.337, 2.226
725.632, 5.918
726.927, 6.078
728.222, 14.255
729.517, 28.452
730.811, 9.675
732.105, 46.917
733.400, 11.193
734.693, 21.489
735.987, 8.191
737.281, 15.139
738.574, 27.490
739.867, 29.133
741.160, 1.748
742.453, 17.352
743.745, 70.948
745.038, 27.537
746.330, 90.119
747.622, 79.693
748.913, 101.260
750.205, 151.821
751.496, 178.375
752.788, 325.922
754.079, 461.463
755.369, 490.998
756.660, 518.722
757.950, 512.048
759.241, 416.565
760.531, 322.075
761.820, 171.579
763.110, 170.079
764.399, 95.572
765.689, 73.060
766.978, 132.543
768.267, 43.021
769.555, 121.494
770.844, 36.961
772.132, 85.424
773.420, 79.883
774.708, 55.336
775.996, 102.786
777.283, 110.231
778.570, 102.671
779.857, 137.108
781.144, 139.540
782.431, 222.968
783.718, 235.393
785.004, 319.814
786.290, 472.233
787.576, 455.650
788.862, 662.064
790.147, 607.477
791.433, 603.888
792.718, 561.298
794.003, 369.707
795.288, 401.114
796.572, 305.521
797.857, 266.927
799.141, 242.335
800.425, 134.742
801.709, 143.148
802.992, 157.555
804.276, 90.962
805.559, 131.369
806.842, 66.775
808.125, 80.181
809.407, 85.587
810.690, 52.992
811.972, 62.862
813.254, 50.798
814.536, 57.198
815.818, 55.597
817.099, 67.995
818.381, 104.391
819.662, 111.786
820.943, 66.180
822.223, 110.527
823.504, 107.919
824.784, 200.263
826.065, 107.386
827.345, 108.592
828.624, 232.812
829.904, 133.190
831.183, 217.380
832.462, 196.494
833.741, 206.424
835.020, 286.836
836.299, 228.008
837.577, 282.974
838.856, 251.120
840.134, 225.134
841.412, 354.920
842.689, 300.059
843.967, 347.223
845.244, 368.006
846.521, 381.176
847.798, 472.959
849.075, 413.870
850.351, 473.886
851.628, 544.066
852.904, 538.136
854.180, 648.964
855.455, 680.774
856.731, 767.362
858.006, 890.911
859.281, 915.128
860.556, 1127.579
861.831, 1214.902
863.106, 1347.940
864.380, 1687.651
865.655, 1705.882
866.929, 2268.780
868.202, 2626.497
869.476, 3139.220
870.750, 4207.283
872.023, 4804.386
873.296, 6726.792
874.569, 9028.254
875.842, 11686.731
877.114, 19023.303
878.386, 23791.490
879.658, 31889.260
880.930, 35767.043
882.202, 27764.385
883.474, 22920.914
884.745, 15248.569
886.016, 10444.032
887.287, 8151.649
888.558, 5606.704
889.829, 4883.312
891.099, 3887.794
892.369, 3331.581
893.639, 3342.338
894.909, 2933.818
896.179, 3275.564
897.448, 3358.410
898.718, 3683.240
899.987, 4655.116
901.256, 5257.005
902.524, 7047.903
903.793, 9270.812
905.061, 11209.735
906.329, 15478.664
907.597, 16157.604
908.865, 16426.559
910.133, 15395.524
911.400, 11534.500
912.667, 9813.487
913.934, 7532.487
915.201, 5730.496
916.468, 4984.518
917.734, 3698.549
919.001, 3252.592
920.267, 2728.647
921.532, 2228.713
922.798, 2158.791
924.064, 1694.879
925.329, 1579.981
926.594, 1500.094
927.859, 1144.220
929.124, 1177.356
930.388, 1007.504
931.653, 921.664
932.917, 913.836
934.181, 748.020
935.445, 791.216
936.708, 678.424
937.972, 583.644
939.235, 633.875
940.498, 506.120
941.761, 520.376
943.024, 506.645
944.286, 390.926
945.548, 466.219
946.811, 337.524
948.072, 345.843
949.334, 359.173
950.596, 313.516
951.857, 343.871
953.118, 329.239
954.379, 242.619
955.640, 288.011
956.901, 224.417
958.161, 264.834
959.421, 222.265
960.681, 181.708
961.941, 246.164
963.201, 201.633
964.460, 250.114
965.720, 258.608
966.979, 225.115
968.238, 427.665
969.496, 446.198
970.755, 506.743
972.013, 691.302
973.272, 558.874
974.529, 584.458
975.787, 458.079
977.045, 349.690
978.302, 335.315
979.560, 229.954
980.817, 169.607
982.073, 138.816
983.330, 126.497
984.587, 147.191
985.843, 100.247
987.099, 103.978
988.355, 166.893
989.611, 112.654
990.866, 135.535
992.122, 97.647
993.377, 123.016
994.632, 146.287
995.887, 96.010
997.141, 176.878
998.396, 166.692
999.650, 107.598
1000.904, 243.773
1002.158, 215.921
1003.412, 232.915
1004.665, 271.963
1005.918, 235.754
1007.172, 354.114
1008.425, 401.616
1009.677, 456.722
1010.930, 586.440
1012.182, 629.582
1013.434, 814.750
1014.687, 1072.145
1015.938, 1292.191
1017.190, 1899.424
1018.441, 2305.414
1019.693, 3143.886
1020.944, 4008.782
1022.195, 4055.948
1023.445, 4298.283
1024.696, 3660.002
1025.946, 2942.371
1027.197, 2550.752
1028.446, 1878.313
1029.696, 1736.729
1030.946, 1483.160
1032.195, 1238.607
1033.445, 1281.072
1034.694, 1109.656
1035.942, 1090.158
1037.191, 1167.687
1038.440, 1054.834
1039.688, 1220.398
1040.936, 1231.973
1042.184, 1247.564
1043.432, 1493.183
1044.679, 1520.686
1045.927, 1745.812
1047.174, 2046.471
1048.421, 2181.223
1049.668, 2882.901
1050.914, 3261.189
1052.161, 3862.899
1053.407, 5238.618
1054.653, 5904.369
1055.899, 8084.113
1057.145, 9544.867
1058.391, 10486.224
1059.636, 12166.995
1060.881, 12717.777
1062.126, 10538.673
1063.371, 8389.470
1064.615, 6112.277
1065.860, 5111.176
1067.104, 4013.000
1068.348, 3015.882
1069.592, 2639.732
1070.836, 2041.590
1072.079, 1746.456
1073.323, 1541.329
1074.566, 1199.517
1075.809, 1117.406
1077.052, 910.303
1078.294, 767.207
1079.537, 793.118
1080.779, 593.062
1082.021, 526.990
1083.263, 512.926
1084.504, 390.875
1085.746, 454.831
1086.987, 274.804
1088.228, 302.784
1089.469, 316.770
1090.710, 197.762
1091.951, 271.782
1093.191, 220.788
1094.431, 189.802
1095.671, 189.822
1096.911, 120.848
1098.151, 180.880
1099.390, 175.917
1100.630, 69.961
1101.869, 142.011
1103.108, 157.067
1104.346, 74.129
1105.585, 151.197
1106.823, 95.269
1108.062, 67.348
1109.300, 61.442
1110.537, 66.542
1111.775, 77.667
1113.013, 65.778
1114.250, 61.894
1115.487, 54.019
1116.724, 1.855
1117.961, 64.276
1119.197, 54.410
1120.434, 11.547
1121.670, 63.689
1122.906, 31.835
1124.142, 0.978
1125.377, 29.177
1126.613, 5.335
1127.848, 32.498
1129.083, 3.666
1130.318, 17.163
1131.553, 30.005
1132.787, 15.177
1134.022, 11.648
1135.256, 27.526
1136.490, 6.298
1137.724, 2.961
1138.957, 3.859
1140.191, 64.679
1141.424, 14.525
1142.657, 31.374
1143.890, 20.213
1145.123, 63.960
1146.355, 55.906
1147.588, 24.204
1148.820, 25.653
1150.052, 58.552
1151.284, 22.715
1152.516, 39.211
1153.747, 15.155
1154.978, 25.107
1156.209, 44.070
1157.440, 27.952
1158.671, 10.854
1159.902, 25.155
1161.132, 15.461
1162.362, 2.150
1163.592, 14.056
1164.822, 13.290
1166.052, 11.694
1167.281, 0.998
1168.511, 8.427
1169.740, 12.684
1170.969, 65.900
1172.197, 3.124
1173.426, 7.861
1174.654, 38.103
1175.883, 32.948
1177.111, 30.117
1178.338, 54.221
1179.566, 40.262
1180.794, 13.358
1182.021, 4.605
1183.248, 33.516
1184.475, 54.163
1185.702, 20.911
1186.928, 35.974
1188.155, 11.081
1189.381, 24.000
1190.607, 25.834
1191.833, 6.804
1193.059, 0.050
1194.284, 65.541
1195.509, 24.586
1196.735, 39.365
1197.960, 0.919
1199.184, 44.137
1200.409, 63.090
1201.633, 18.483
1202.858, 38.266
1204.082, 50.584
1205.306, 3.568
1206.529, 51.385
1207.753, 34.224
1208.976, 17.038
1210.199, 57.777
1211.422, 30.846
1212.645, 19.717
1213.868, 76.510
1215.090, 24.382
1216.313, 80.086
1217.535, 40.829
1218.757, 76.531
1219.978, 95.214
1221.200, 16.268
1222.421, 75.934
1223.643, 49.691
1224.864, 50.343
1226.084, 78.987
1227.305, 32.469
1228.526, 54.148
1229.746, 100.771
1230.966, 45.857
1232.186, 53.718
1233.406, 77.639
1234.625, 66.368
1235.845, 81.981
1237.064, 67.601
1238.283, 43.344
1239.502, 125.041
1240.721, 91.951
1241.939, 99.573
1243.157, 89.179
1244.376, 94.884
1245.594, 124.419
1246.811, 112.304
1248.029, 106.364
1249.247, 113.411
1250.464, 79.005
1251.681, 78.733
1252.898, 86.229
1254.115, 60.954
1255.331, 111.971
1256.548, 78.667
1257.764, 59.521
1258.980, 130.044
1260.196, 82.498
1261.411, 65.188
1262.627, 153.626
1263.842, 67.041
1265.057, 99.463
1266.272, 88.879
1267.487, 75.369
1268.702, 88.876
1269.916, 62.268
1271.130, 78.060
1272.344, 141.500
1273.558, 99.893
1274.772, 111.805
1275.986, 162.145
1277.199, 83.932
1278.412, 156.254
1279.625, 81.639
1280.838, 94.603
1282.051, 120.944
1283.263, 58.058
1284.475, 137.414
1285.687, 127.571
1286.899, 89.491
1288.111, 111.552
1289.323, 70.317
1290.534, 65.625
1291.745, 118.852
1292.957, 92.074
1294.167, 66.213
1295.378, 125.103
1296.589, 40.035
1297.799, 93.143
1299.009, 88.188
1300.219, 72.509
1301.429, 100.268
1302.639, 64.899
1303.848, 36.946
1305.057, 70.380
1306.267, 29.401
1307.476, 25.400
1308.684, 46.161
1309.893, 26.286
1311.101, 62.229
1312.310, 12.422
1313.518, 16.136
1314.725, 60.442
1315.933, 24.487
1317.141, 63.363
1318.348, 59.864
1319.555, 28.690
1320.762, 83.500
1321.969, 38.136
1323.176, 34.920
1324.382, 40.692
1325.589, 35.449
1326.795, 25.189
1328.001, 70.821
1329.206, 9.527
1330.412, 62.218
1331.617, 69.292
1332.823, 30.956
1334.028, 56.603
1335.233, 12.767
1336.437, 16.842
1337.642, 74.611
1338.846, 8.293
1340.051, 58.267
1341.255, 36.730
1342.458, 26.736
1343.662, 17.185
1344.866, 33.679
1346.069, 8.839
1347.272, 65.607
1348.475, 12.057
1349.678, 29.491
1350.880, 50.323
1352.083, 43.732
1353.285, 48.129
1354.487, 84.410
1355.689, 20.784
1356.891, 35.145
1358.093, 46.425
1359.294, 18.235
1360.495, 88.045
1361.696, 53.354
1362.897, 61.654
1364.098, 82.945
1365.298, 18.228
1366.499, 67.194
1367.699, 40.459
1368.899, 63.717
1370.099, 66.968
1371.298, 2.724
1372.498, 52.940
1373.697, 73.175
1374.896, 7.592
1376.095, 25.635
1377.294, 21.212
1378.493, 35.908
1379.691, 56.993
1380.889, 53.056
1382.087, 31.899
1383.285, 36.744
1384.483, 19.573
1385.681, 48.384
1386.878, 51.178
1388.075, 33.954
1389.272, 82.712
1390.469, 86.440
1391.666, 16.117
1392.862, 67.794
1394.059, 46.448
1395.255, 29.087
1396.451, 94.710
1397.647, 28.273
1398.842, 25.145
1400.038, 29.417
1401.233, 17.960
1402.428, 52.489
1403.623, 110.003
1404.818, 27.402
1406.013, 73.899
1407.207, 64.382
1408.401, 67.843
1409.595, 86.329
1410.789, 47.625
1411.983, 42.179
1413.177, 76.749
1414.370, 15.098
1415.563, 52.290
1416.756, 61.229
1417.949, 9.289
1419.142, 86.072
1420.335, 67.075
1421.527, 69.546
1422.719, 49.665
1423.911, 64.755
1425.103, 55.854
1426.295, 87.883
1427.486, 46.254
1428.677, 106.419
1429.869, 79.862
1431.060, 14.556
1432.250, 107.386
1433.441, 108.275
1434.632, 44.739
1435.822, 99.501
1437.012, 100.587
1438.202, 81.665
1439.392, 150.861
1440.581, 88.339
1441.771, 111.732
1442.960, 122.882
1444.149, 73.088
1445.338, 115.623
1446.527, 124.650
1447.715, 80.263
1448.904, 119.339
1450.092, 81.150
1451.280, 129.395
1452.468, 98.263
1453.656, 114.626
1454.843, 148.698
1456.031, 118.125
1457.218, 94.984
1458.405, 176.878
1459.592, 107.962
1460.778, 62.153
1461.965, 150.439
1463.151, 85.896
1464.337, 89.759
1465.523, 139.124
1466.709, 72.471
1467.895, 119.281
1469.080, 105.385
1470.266, 29.297
1471.451, 123.900
1472.636, 110.960
1473.821, 81.731
1475.005, 129.535
1476.190, 33.177
1477.374, 45.868
1478.558, 102.794
1479.742, 11.582
1480.926, 90.541
1482.109, 113.438
1483.293, 68.380
1484.476, 97.252
1485.659, 36.078
1486.842, 45.898
1488.025, 91.857
1489.207, 33.781
1490.390, 54.663
1491.572, 93.519
1492.754, 42.465
1493.936, 36.547
1495.118, 82.612
1496.299, 27.700
1497.481, 81.823
1498.662, 116.018
1499.843, 11.254
1501.024, 61.594
1502.205, 38.648
1503.385, 44.063
1504.565, 69.540
1505.746, 16.093
1506.926, 39.728
1508.106, 96.471
1509.285, 39.320
1510.465, 27.294
1511.644, 133.285
1512.823, 5.436
1514.002, 99.057
1515.181, 54.789
1516.360, 37.811
1517.538, 71.212
1518.717, 49.696
1519.895, 12.271
1521.073, 71.416
1522.251, 0.000
##END=



