##NAMES=Euclase
##RRUFFID=R050032
##IDEAL CHEMISTRY=BeAlSiO_4_(OH)
##LOCALITY=Minas Gerais, Brazil
##OWNER=RRUFF
##SOURCE=University of Arizona Mineral Museum
##DESCRIPTION=Colorless crystal fragments
##STATUS=The identification of this mineral has been confirmed by X-ray diffraction and chemical analysis
##URL=rruff.info/R050032
##MEASURED CHEMISTRY=Be_1.00_Al_1.00_Si_1.00_O_4_(OH)
##PIN_ID=L00185
##ORIENTATION=Laser parallel to -c* (0 0 -1). Fiducial mark perpendicular to laser is parallel to a [1 0 0]
77.813, 0.000
79.208, 39.857
80.602, 0.744
81.996, 70.893
83.390, 81.162
84.784, 70.584
86.178, 30.182
87.571, 37.912
88.964, 124.550
90.357, 98.477
91.749, 120.471
93.142, 52.817
94.534, 121.810
95.926, 115.020
97.318, 23.751
98.709, 11.505
100.101, 35.544
101.492, 32.700
102.883, 48.305
104.273, 108.527
105.664, 141.172
107.054, 186.916
108.444, 211.115
109.834, 369.698
111.223, 1076.298
112.613, 779.170
114.002, 759.087
115.391, 579.410
116.780, 250.750
118.168, 174.268
119.556, 141.206
120.944, 66.065
122.332, 64.620
123.720, 68.313
125.107, 27.797
126.495, 4.466
127.882, 5.170
129.268, 23.828
130.655, 11.377
132.041, 1.528
133.427, 60.725
134.813, 102.515
136.199, 212.331
137.584, 333.438
138.970, 702.437
140.355, 1345.657
141.740, 2404.322
143.124, 3993.421
144.509, 5587.007
145.893, 5269.658
147.277, 3159.968
148.660, 1754.777
150.044, 974.977
151.427, 617.561
152.810, 432.085
154.193, 286.441
155.576, 260.779
156.958, 95.099
158.341, 82.401
159.723, 86.685
161.105, 41.030
162.486, 24.623
163.867, 33.417
165.249, 22.372
166.630, 24.454
168.010, 19.638
169.391, 90.897
170.771, 189.215
172.151, 395.561
173.531, 758.923
174.911, 1468.291
176.290, 1835.663
177.669, 2191.049
179.049, 2411.448
180.427, 1465.852
181.806, 597.240
183.184, 191.591
184.562, 33.891
185.940, 40.885
187.318, 38.760
188.696, 8.711
190.073, 46.708
191.450, 69.278
192.827, 167.259
194.204, 412.236
195.580, 676.206
196.956, 908.166
198.332, 739.115
199.708, 426.047
201.084, 243.953
202.459, 62.822
203.834, 46.642
205.209, 10.589
206.584, 15.127
207.958, 18.826
209.333, 36.467
210.707, 36.757
212.081, 43.048
213.454, 0.718
214.828, 21.519
216.201, 34.008
217.574, 37.446
218.947, 10.139
220.320, 39.267
221.692, 60.665
223.064, 62.041
224.436, 117.372
225.808, 124.654
227.179, 219.856
228.551, 409.976
229.922, 769.043
231.293, 1335.076
232.663, 2394.077
234.034, 3445.057
235.404, 3045.025
236.774, 2017.993
238.144, 1281.965
239.514, 1083.940
240.883, 1029.918
242.252, 1119.899
243.621, 1326.079
244.990, 1632.228
246.359, 2266.479
247.727, 2990.619
249.095, 4711.287
250.463, 7632.438
251.831, 13394.965
253.198, 23601.102
254.566, 37767.160
255.933, 56562.688
257.299, 56957.973
258.666, 41542.668
260.033, 23837.441
261.399, 13331.989
262.765, 7987.770
264.131, 4887.146
265.496, 3342.510
266.862, 2372.549
268.227, 1942.296
269.592, 1688.096
270.957, 1641.756
272.321, 1784.453
273.685, 1869.162
275.050, 2111.314
276.413, 2397.401
277.777, 3312.421
279.141, 5026.378
280.504, 8343.270
281.867, 14936.665
283.230, 23788.602
284.592, 35830.266
285.955, 39271.195
287.317, 29451.959
288.679, 18632.629
290.041, 10732.720
291.403, 6734.201
292.764, 4429.106
294.125, 3067.826
295.486, 2215.483
296.847, 1665.195
298.207, 1373.125
299.568, 1143.299
300.928, 1026.268
302.288, 932.669
303.647, 891.593
305.007, 1031.678
306.366, 931.482
307.725, 889.493
309.084, 711.306
310.443, 632.105
311.801, 585.031
313.159, 508.465
314.517, 540.173
315.875, 491.751
317.233, 515.382
318.590, 489.777
319.947, 435.730
321.304, 436.756
322.661, 455.787
324.018, 520.101
325.374, 541.310
326.730, 670.364
328.086, 898.966
329.442, 1129.985
330.797, 1512.407
332.153, 1835.398
333.508, 2517.586
334.863, 3194.657
336.217, 4027.145
337.572, 3965.673
338.926, 2697.475
340.280, 1679.032
341.634, 892.622
342.988, 570.963
344.341, 370.530
345.694, 225.823
347.047, 230.390
348.400, 206.837
349.753, 274.441
351.105, 293.616
352.457, 349.635
353.809, 264.270
355.161, 219.908
356.512, 279.143
357.864, 236.414
359.215, 269.430
360.566, 228.448
361.916, 233.462
363.267, 317.479
364.617, 359.964
365.967, 435.490
367.317, 503.896
368.667, 566.863
370.016, 674.911
371.366, 832.040
372.715, 1146.499
374.064, 1393.983
375.412, 2111.099
376.761, 2843.000
378.109, 3661.545
379.457, 4247.995
380.805, 3778.516
382.152, 3318.910
383.500, 2946.493
384.847, 3323.286
386.194, 4286.117
387.541, 6125.328
388.887, 10394.581
390.233, 17465.244
391.580, 30076.422
392.926, 41597.598
394.271, 44448.777
395.617, 34439.965
396.962, 20161.178
398.307, 11962.389
399.652, 7256.598
400.997, 4621.815
402.341, 3129.030
403.686, 2207.248
405.030, 1725.479
406.374, 1326.668
407.717, 1153.834
409.061, 961.971
410.404, 882.076
411.747, 862.154
413.090, 832.203
414.433, 928.230
415.775, 1151.235
417.117, 1595.214
418.459, 2328.171
419.801, 3195.105
421.143, 4103.017
422.484, 3903.909
423.825, 3212.781
425.166, 2309.633
426.507, 1579.471
427.848, 1232.293
429.188, 823.100
430.528, 682.894
431.868, 542.674
433.208, 448.440
434.547, 447.194
435.887, 397.933
437.226, 555.657
438.565, 703.365
439.904, 1022.058
441.242, 1091.737
442.580, 791.400
443.918, 528.051
445.256, 338.690
446.594, 309.320
447.932, 350.942
449.269, 274.558
450.606, 363.168
451.943, 256.775
453.280, 208.380
454.616, 233.986
455.952, 183.599
457.288, 254.209
458.624, 227.821
459.960, 187.429
461.295, 107.033
462.631, 122.628
463.966, 77.214
465.300, 29.785
466.635, 81.398
467.969, 18.942
469.304, 40.588
470.638, 24.313
471.972, 4.103
473.305, 85.509
474.639, 11.994
475.972, 36.453
477.305, 14.900
478.638, 11.668
479.970, 7.749
481.303, 26.845
482.635, 4.457
483.967, 12.078
485.298, 22.710
486.630, 9.645
487.961, 31.004
489.293, 17.330
490.624, 9.340
491.954, 18.983
493.285, 4.698
494.615, 12.389
495.945, 17.905
497.275, 23.815
498.605, 7.560
499.935, 6.678
501.264, 25.099
502.593, 53.098
503.922, 0.282
505.251, 59.450
506.579, 27.563
507.908, 16.691
509.236, 106.720
510.564, 8.870
511.891, 26.096
513.219, 33.802
514.546, 73.962
515.873, 85.281
517.200, 54.180
518.527, 143.627
519.853, 137.812
521.180, 121.492
522.506, 202.452
523.832, 175.306
525.157, 264.532
526.483, 296.674
527.808, 416.312
529.133, 545.953
530.458, 672.619
531.783, 905.127
533.107, 1091.182
534.431, 1673.582
535.756, 2481.543
537.079, 3843.719
538.403, 6190.749
539.727, 8963.458
541.050, 11986.693
542.373, 11480.786
543.696, 9016.303
545.018, 6345.164
546.341, 3952.824
547.663, 2750.514
548.985, 1824.689
550.307, 1354.974
551.629, 1060.576
552.950, 808.379
554.271, 725.293
555.592, 588.505
556.913, 523.325
558.234, 578.451
559.554, 491.991
560.875, 580.941
562.195, 559.453
563.514, 685.963
564.834, 787.164
566.154, 1030.089
567.473, 1446.036
568.792, 2057.067
570.111, 2984.007
571.429, 3565.038
572.748, 3611.857
574.066, 3172.263
575.384, 2449.005
576.702, 2268.941
578.019, 2288.533
579.337, 2531.108
580.654, 2977.664
581.971, 3003.201
583.288, 2863.718
584.605, 2182.219
585.921, 1654.701
587.237, 1252.164
588.553, 929.609
589.869, 832.035
591.185, 712.444
592.500, 762.833
593.815, 916.205
595.130, 1115.558
596.445, 1552.893
597.760, 2059.210
599.074, 2921.508
600.389, 3651.789
601.703, 3699.052
603.016, 3351.296
604.330, 2408.523
605.644, 1761.731
606.957, 1278.922
608.270, 882.094
609.583, 660.249
610.895, 460.385
612.208, 389.504
613.520, 374.605
614.832, 274.688
616.144, 296.752
617.455, 181.799
618.767, 186.827
620.078, 183.720
621.389, 165.663
622.700, 193.400
624.011, 127.923
625.321, 144.647
626.631, 111.093
627.941, 87.614
629.251, 117.050
630.561, 105.282
631.870, 131.941
633.180, 156.278
634.489, 147.703
635.798, 220.022
637.106, 245.957
638.415, 297.216
639.723, 345.432
641.031, 310.528
642.339, 342.380
643.647, 260.745
644.954, 288.941
646.261, 295.794
647.568, 235.993
648.875, 345.853
650.182, 343.031
651.488, 381.999
652.795, 395.699
654.101, 305.832
655.407, 325.953
656.712, 204.776
658.018, 194.821
659.323, 125.808
660.628, 168.022
661.933, 200.985
663.238, 125.199
664.542, 196.267
665.847, 167.277
667.151, 102.652
668.455, 76.604
669.758, 26.616
671.062, 14.726
672.365, 6.158
673.668, 0.016
674.971, 7.026
676.274, 5.737
677.577, 22.466
678.879, 3.288
680.181, 18.137
681.483, 42.974
682.785, 7.929
684.086, 19.133
685.388, 32.824
686.689, 17.828
687.990, 15.869
689.290, 40.947
690.591, 22.927
691.891, 56.218
693.192, 12.419
694.491, 10.654
695.791, 85.920
697.091, 31.258
698.390, 45.638
699.689, 69.067
700.988, 43.557
702.287, 57.094
703.586, 10.685
704.884, 19.306
706.182, 37.959
707.480, 4.345
708.778, 16.370
710.076, 35.115
711.373, 40.900
712.670, 35.726
713.968, 8.410
715.264, 33.470
716.561, 10.614
717.857, 19.315
719.154, 52.272
720.450, 0.727
721.746, 45.290
723.041, 14.346
724.337, 0.575
725.632, 16.518
726.927, 1.633
728.222, 16.763
729.517, 10.766
730.811, 0.918
732.105, 4.262
733.400, 30.545
734.693, 31.343
735.987, 80.133
737.281, 64.915
738.574, 136.688
739.867, 221.454
741.160, 242.213
742.453, 400.964
743.745, 545.708
745.038, 620.445
746.330, 718.176
747.622, 737.900
748.913, 800.618
750.205, 951.331
751.496, 1098.037
752.788, 1546.739
754.079, 1780.435
755.369, 2203.126
756.660, 2170.813
757.950, 1726.495
759.241, 1388.174
760.531, 946.847
761.820, 683.518
763.110, 565.184
764.399, 349.848
765.689, 313.508
766.978, 200.166
768.267, 178.820
769.555, 125.473
770.844, 116.123
772.132, 77.771
773.420, 65.418
774.708, 58.063
775.996, 62.707
777.283, 19.351
778.570, 72.994
779.857, 49.583
781.144, 73.229
782.431, 115.759
783.718, 65.198
785.004, 191.766
786.290, 190.294
787.576, 198.939
788.862, 349.598
790.147, 287.260
791.433, 307.926
792.718, 251.596
794.003, 225.271
795.288, 306.955
796.572, 266.644
797.857, 318.340
799.141, 361.044
800.425, 367.753
801.709, 445.474
802.992, 413.200
804.276, 453.933
805.559, 408.672
806.842, 346.417
808.125, 355.171
809.407, 207.931
810.690, 217.702
811.972, 185.481
813.254, 125.267
814.536, 146.065
815.818, 66.870
817.099, 69.682
818.381, 77.502
819.662, 37.328
820.943, 55.163
822.223, 50.004
823.504, 24.784
824.784, 35.093
826.065, 4.034
827.345, 33.681
828.624, 28.816
829.904, 32.396
831.183, 63.235
832.462, 7.425
833.741, 39.631
835.020, 16.791
836.299, 20.576
837.577, 65.449
838.856, 3.830
840.134, 66.217
841.412, 59.585
842.689, 30.118
843.967, 99.119
845.244, 61.794
846.521, 114.925
847.798, 161.851
849.075, 118.936
850.351, 171.345
851.628, 126.236
852.904, 181.277
854.180, 244.902
855.455, 263.183
856.731, 339.672
858.006, 353.135
859.281, 401.118
860.556, 504.991
861.831, 477.548
863.106, 653.902
864.380, 725.147
865.655, 787.094
866.929, 1022.438
868.202, 1104.476
869.476, 1465.099
870.750, 1674.318
872.023, 2033.975
873.296, 2678.636
874.569, 3331.617
875.842, 4464.875
877.114, 6004.119
878.386, 7014.280
879.658, 7060.140
880.930, 7550.713
882.202, 6351.106
883.474, 5252.926
884.745, 4179.432
886.016, 4043.747
887.287, 3843.417
888.558, 3970.117
889.829, 4504.840
891.099, 4576.595
892.369, 5256.373
893.639, 5661.180
894.909, 6347.014
896.179, 7837.874
897.448, 8905.771
898.718, 11533.707
899.987, 14661.670
901.256, 18559.684
902.524, 25827.709
903.793, 32245.779
905.061, 41523.879
906.329, 49782.020
907.597, 49720.180
908.865, 50418.383
910.133, 41076.617
911.400, 33174.883
912.667, 26623.168
913.934, 20772.301
915.201, 16279.841
916.468, 12678.227
917.734, 10166.646
919.001, 8715.086
920.267, 6903.557
921.532, 6027.060
922.798, 5187.589
924.064, 4193.149
925.329, 3955.743
926.594, 3273.366
927.859, 3053.026
929.124, 2724.717
930.388, 2366.433
931.653, 2213.186
932.917, 1931.966
934.181, 1715.771
935.445, 1730.612
936.708, 1397.481
937.972, 1373.376
939.235, 1249.299
940.498, 1043.248
941.761, 1084.234
943.024, 913.248
944.286, 913.288
945.548, 904.356
946.811, 723.451
948.072, 873.576
949.334, 755.729
950.596, 773.907
951.857, 757.116
953.118, 652.351
954.379, 797.613
955.640, 761.902
956.901, 713.218
958.161, 901.562
959.421, 809.938
960.681, 1115.340
961.941, 1179.771
963.201, 1332.229
964.460, 1795.713
965.720, 2057.229
966.979, 2791.772
968.238, 3763.340
969.496, 4673.937
970.755, 6006.559
972.013, 6387.208
973.272, 5969.885
974.529, 5358.589
975.787, 4015.320
977.045, 3258.081
978.302, 2512.837
979.560, 1834.667
980.817, 1516.530
982.073, 1022.429
983.330, 913.364
984.587, 724.267
985.843, 513.268
987.099, 484.307
988.355, 305.374
989.611, 286.478
990.866, 286.611
992.122, 134.787
993.377, 190.000
994.632, 121.251
995.887, 83.546
997.141, 103.869
998.396, 72.240
999.650, 114.650
1000.904, 150.095
1002.158, 67.596
1003.412, 127.137
1004.665, 128.722
1005.918, 106.359
1007.172, 206.040
1008.425, 111.023
1009.677, 249.786
1010.930, 249.584
1012.182, 240.422
1013.434, 452.293
1014.687, 428.413
1015.938, 623.358
1017.190, 896.162
1018.441, 971.190
1019.693, 1582.248
1020.944, 1570.181
1022.195, 1652.302
1023.445, 1692.457
1024.696, 1259.900
1025.946, 1143.123
1027.197, 922.576
1028.446, 698.866
1029.696, 752.184
1030.946, 594.666
1032.195, 583.039
1033.445, 663.119
1034.694, 571.338
1035.942, 674.791
1037.191, 645.229
1038.440, 678.365
1039.688, 875.889
1040.936, 841.414
1042.184, 1117.981
1043.432, 1202.245
1044.679, 1326.274
1045.927, 1693.562
1047.174, 1857.243
1048.421, 2323.300
1049.668, 2832.089
1050.914, 3306.386
1052.161, 4521.261
1053.407, 5602.362
1054.653, 6739.721
1055.899, 9283.510
1057.145, 10237.861
1058.391, 12001.779
1059.636, 12094.028
1060.881, 10768.013
1062.126, 9820.747
1063.371, 7643.615
1064.615, 6098.563
1065.860, 5086.491
1067.104, 3734.193
1068.348, 3097.298
1069.592, 2536.534
1070.836, 1975.388
1072.079, 1775.394
1073.323, 1370.643
1074.566, 1146.908
1075.809, 1118.959
1077.052, 835.128
1078.294, 834.031
1079.537, 682.130
1080.779, 606.817
1082.021, 624.945
1083.263, 480.086
1084.504, 447.254
1085.746, 437.421
1086.987, 327.695
1088.228, 434.922
1089.469, 375.135
1090.710, 337.990
1091.951, 385.219
1093.191, 291.477
1094.431, 386.162
1095.671, 348.428
1096.911, 330.657
1098.151, 408.946
1099.390, 398.244
1100.630, 426.302
1101.869, 465.621
1103.108, 459.949
1104.346, 526.424
1105.585, 612.774
1106.823, 585.649
1108.062, 727.056
1109.300, 720.432
1110.537, 790.193
1111.775, 867.608
1113.013, 914.045
1114.250, 1042.552
1115.487, 1128.969
1116.724, 1150.393
1117.961, 1276.855
1119.197, 1286.294
1120.434, 1323.825
1121.670, 1344.522
1122.906, 1335.982
1124.142, 1370.544
1125.377, 1257.015
1126.613, 1138.514
1127.848, 1160.092
1129.083, 947.580
1130.318, 902.663
1131.553, 840.161
1132.787, 674.664
1134.022, 628.382
1135.256, 516.894
1136.490, 493.500
1137.724, 475.141
1138.957, 343.662
1140.191, 332.189
1141.424, 339.717
1142.657, 220.247
1143.890, 260.830
1145.123, 184.365
1146.355, 171.901
1147.588, 208.348
1148.820, 142.887
1150.052, 102.463
1151.284, 116.092
1152.516, 40.633
1153.747, 104.895
1154.978, 49.505
1156.209, 11.955
1157.440, 109.154
1158.671, 9.689
1159.902, 75.263
1161.132, 33.562
1162.362, 8.908
1163.592, 45.034
1164.822, 24.256
1166.052, 16.255
1167.281, 64.459
1168.511, 22.955
1169.740, 56.783
1170.969, 8.494
1172.197, 48.020
1173.426, 40.547
1174.654, 26.965
1175.883, 16.474
1177.111, 51.207
1178.338, 58.363
1179.566, 40.033
1180.794, 32.305
1182.021, 81.936
1183.248, 52.424
1184.475, 34.883
1185.702, 28.564
1186.928, 24.974
1188.155, 32.711
1189.381, 34.525
1190.607, 26.150
1191.833, 2.944
1193.059, 6.751
1194.284, 45.202
1195.509, 50.059
1196.735, 12.655
1197.960, 67.569
1199.184, 6.468
1200.409, 30.435
1201.633, 49.438
1202.858, 21.518
1204.082, 31.332
1205.306, 23.417
1206.529, 4.469
1207.753, 22.501
1208.976, 1.658
1210.199, 2.833
1211.422, 35.029
1212.645, 44.739
1213.868, 13.371
1215.090, 16.360
1216.313, 14.078
1217.535, 13.104
1218.757, 56.573
1219.978, 1.758
1221.200, 17.111
1222.421, 65.505
1223.643, 29.422
1224.864, 8.144
1226.084, 48.690
1227.305, 19.301
1228.526, 80.200
1229.746, 48.689
1230.966, 8.753
1232.186, 51.716
1233.406, 34.751
1234.625, 39.171
1235.845, 43.577
1237.064, 16.022
1238.283, 71.338
1239.502, 45.685
1240.721, 27.812
1241.939, 103.131
1243.157, 15.710
1244.376, 58.040
1245.594, 88.315
1246.811, 22.632
1248.029, 96.879
1249.247, 66.103
1250.464, 47.832
1251.681, 104.030
1252.898, 33.215
1254.115, 19.459
1255.331, 112.610
1256.548, 40.747
1257.764, 65.866
1258.980, 63.971
1260.196, 21.060
1261.411, 104.347
1262.627, 84.403
1263.842, 70.571
1265.057, 98.598
1266.272, 64.606
1267.487, 54.598
1268.702, 116.569
1269.916, 66.525
1271.130, 102.461
1272.344, 80.377
1273.558, 69.368
1274.772, 129.242
1275.986, 44.096
1277.199, 119.003
1278.412, 101.817
1279.625, 64.614
1280.838, 118.391
1282.051, 76.150
1283.263, 73.891
1284.475, 119.612
1285.687, 96.314
1286.899, 118.024
1288.111, 155.712
1289.323, 87.360
1290.534, 113.153
1291.745, 122.765
1292.957, 40.360
1294.167, 169.081
1295.378, 95.637
1296.589, 86.176
1297.799, 176.698
1299.009, 49.204
1300.219, 90.689
1301.429, 114.157
1302.639, 56.353
1303.848, 140.775
1305.057, 100.177
1306.267, 49.563
1307.476, 134.929
1308.684, 66.058
1309.893, 36.385
1311.101, 120.875
1312.310, 53.157
1313.518, 94.417
1314.725, 77.821
1315.933, 80.046
1317.141, 132.417
1318.348, 90.353
1319.555, 105.521
1320.762, 167.480
1321.969, 72.612
1323.176, 118.725
1324.382, 116.686
1325.589, 72.765
1326.795, 123.292
1328.001, 96.546
1329.206, 60.573
1330.412, 97.622
1331.617, 64.980
1332.823, 90.956
1334.028, 127.959
1335.233, 80.903
1336.437, 117.154
1337.642, 117.644
1338.846, 54.880
1340.051, 165.727
1341.255, 54.203
1342.458, 111.953
1343.662, 133.227
1344.866, 73.900
1346.069, 88.352
1347.272, 124.595
1348.475, 52.369
1349.678, 135.582
1350.880, 97.233
1352.083, 52.557
1353.285, 114.152
1354.487, 116.996
1355.689, 99.712
1356.891, 129.354
1358.093, 50.019
1359.294, 97.914
1360.495, 128.412
1361.696, 50.782
1362.897, 108.540
1364.098, 83.036
1365.298, 91.408
1366.499, 156.769
1367.699, 3.637
1368.899, 133.831
1370.099, 155.571
1371.298, 18.123
1372.498, 107.094
1373.697, 66.719
1374.896, 46.171
1376.095, 58.588
1377.294, 9.990
1378.493, 64.243
1379.691, 128.516
1380.889, 61.785
1382.087, 89.193
1383.285, 98.753
1384.483, 2.755
1385.681, 94.695
1386.878, 22.824
1388.075, 51.555
1389.272, 89.846
1390.469, 46.538
1391.666, 58.872
1392.862, 108.367
1394.059, 9.056
1395.255, 107.680
1396.451, 98.936
1397.647, 41.418
1398.842, 88.952
1400.038, 93.369
1401.233, 70.176
1402.428, 104.383
1403.623, 69.695
1404.818, 23.938
1406.013, 101.290
1407.207, 32.550
1408.401, 99.839
1409.595, 69.956
1410.789, 58.010
1411.983, 101.263
1413.177, 65.305
1414.370, 67.657
1415.563, 96.649
1416.756, 31.106
1417.949, 70.482
1419.142, 78.353
1420.335, 30.604
1421.527, 51.322
1422.719, 77.129
1423.911, 57.526
1425.103, 130.955
1426.295, 80.734
1427.486, 84.974
1428.677, 114.329
1429.869, 37.010
1431.060, 37.832
1432.250, 96.077
1433.441, 12.466
1434.632, 84.254
1435.822, 86.184
1437.012, 12.798
1438.202, 103.505
1439.392, 83.492
1440.581, 72.501
1441.771, 123.292
1442.960, 76.109
1444.149, 115.128
1445.338, 100.157
1446.527, 37.487
1447.715, 91.623
1448.904, 94.659
1450.092, 62.490
1451.280, 81.868
1452.468, 39.318
1453.656, 50.337
1454.843, 112.686
1456.031, 66.972
1457.218, 92.772
1458.405, 135.678
1459.592, 1.421
1460.778, 103.100
1461.965, 102.921
1463.151, 50.728
1464.337, 119.991
1465.523, 61.428
1466.709, 50.156
1467.895, 121.885
1469.080, 0.614
1470.266, 61.114
1471.451, 122.902
1472.636, 30.500
1473.821, 57.307
1475.005, 89.127
1476.190, 16.965
1477.374, 134.668
1478.558, 72.004
1479.742, 30.854
1480.926, 112.210
1482.109, 29.041
1483.293, 55.865
1484.476, 108.675
1485.659, 13.569
1486.842, 55.466
1488.025, 87.394
1489.207, 9.340
1490.390, 140.338
1491.572, 43.605
1492.754, 32.635
1493.936, 122.687
1495.118, 83.783
1496.299, 30.140
1497.481, 122.264
1498.662, 57.419
1499.843, 84.459
1501.024, 103.680
1502.205, 39.962
1503.385, 82.300
1504.565, 52.471
1505.746, 11.102
1506.926, 66.981
1508.106, 44.545
1509.285, 21.174
1510.465, 138.949
1511.644, 49.833
1512.823, 61.841
1514.002, 126.997
1515.181, 0.068
1516.360, 102.425
1517.538, 38.969
1518.717, 16.364
1519.895, 102.607
1521.073, 58.464
1522.251, 0.000
##END=



