##NAMES=Euclase
##RRUFFID=R050032
##IDEAL CHEMISTRY=BeAlSiO_4_(OH)
##LOCALITY=Minas Gerais, Brazil
##OWNER=RRUFF
##SOURCE=University of Arizona Mineral Museum
##DESCRIPTION=Colorless crystal fragments
##STATUS=The identification of this mineral has been confirmed by X-ray diffraction and chemical analysis
##URL=rruff.info/R050032
##MEASURED CHEMISTRY=Be_1.00_Al_1.00_Si_1.00_O_4_(OH)
##PIN_ID=L00259
##ORIENTATION=Laser parallel to a* (1 0 0). Fiducial mark perpendicular to laser is parallel to -b [0 -1 0]
51.274, 0.000
52.673, 131.513
54.072, 403.707
55.470, 746.142
56.868, 936.491
58.266, 1239.418
59.664, 1243.160
61.061, 1196.606
62.458, 862.491
63.855, 584.707
65.252, 295.392
66.649, 303.678
68.045, 279.253
69.441, 243.476
70.837, 226.998
72.233, 363.868
73.628, 358.483
75.023, 445.591
76.418, 430.386
77.813, 228.701
79.208, 208.118
80.602, 260.921
81.996, 154.896
83.390, 127.293
84.784, 58.171
86.178, 34.476
87.571, 29.556
88.964, 49.816
90.357, 108.376
91.749, 172.397
93.142, 167.321
94.534, 181.044
95.926, 150.900
97.318, 121.036
98.709, 50.181
100.101, 4.096
101.492, 29.077
102.883, 53.743
104.273, 137.214
105.664, 192.414
107.054, 305.912
108.444, 380.599
109.834, 473.150
111.223, 437.865
112.613, 457.494
114.002, 421.802
115.391, 351.820
116.780, 348.607
118.168, 238.857
119.556, 218.102
120.944, 221.885
122.332, 138.936
123.720, 147.769
125.107, 98.716
126.495, 56.640
127.882, 27.287
129.268, 14.661
130.655, 63.145
132.041, 59.635
133.427, 114.130
134.813, 202.307
136.199, 120.823
137.584, 145.771
138.970, 268.975
140.355, 459.565
141.740, 760.503
143.124, 1212.742
144.509, 1661.233
145.893, 1656.934
147.277, 968.802
148.660, 382.799
150.044, 206.890
151.427, 18.029
152.810, 38.825
154.193, 70.704
155.576, 74.632
156.958, 111.630
158.341, 114.991
159.723, 129.927
161.105, 121.273
162.486, 125.771
163.867, 115.421
165.249, 55.219
166.630, 34.168
168.010, 111.720
169.391, 357.428
170.771, 877.936
172.151, 1594.226
173.531, 2498.210
174.911, 4399.938
176.290, 6346.449
177.669, 6425.212
179.049, 6049.069
180.427, 4259.895
181.806, 2142.905
183.184, 1026.743
184.562, 509.320
185.940, 158.955
187.318, 42.542
188.696, 26.090
190.073, 1.791
191.450, 60.114
192.827, 184.673
194.204, 408.462
195.580, 669.064
196.956, 859.877
198.332, 905.602
199.708, 585.918
201.084, 373.863
202.459, 173.973
203.834, 65.812
205.209, 38.754
206.584, 32.628
207.958, 9.628
209.333, 93.141
210.707, 79.350
212.081, 60.982
213.454, 75.740
214.828, 10.679
216.201, 19.773
217.574, 62.618
218.947, 56.127
220.320, 112.449
221.692, 231.453
223.064, 294.064
224.436, 516.237
225.808, 770.941
227.179, 1425.150
228.551, 2566.847
229.922, 5238.022
231.293, 9828.675
232.663, 16766.791
234.034, 24084.334
235.404, 20951.291
236.774, 13507.657
238.144, 7304.458
239.514, 4476.708
240.883, 2973.413
242.252, 2183.564
243.621, 2047.178
244.990, 2002.268
246.359, 2391.881
247.727, 2906.602
249.095, 4159.667
250.463, 6415.902
251.831, 10649.491
253.198, 18628.486
254.566, 28606.945
255.933, 41174.781
257.299, 41982.297
258.666, 30539.330
260.033, 18945.980
261.399, 10802.185
262.765, 6795.018
264.131, 4283.050
265.496, 2952.282
266.862, 2207.470
268.227, 1925.991
269.592, 1874.243
270.957, 1928.908
272.321, 2181.531
273.685, 2331.003
275.050, 2331.634
276.413, 1987.043
277.777, 1806.488
279.141, 2107.739
280.504, 2883.475
281.867, 4761.157
283.230, 7502.878
284.592, 10840.295
285.955, 13110.466
287.317, 10349.480
288.679, 7184.616
290.041, 4423.939
291.403, 2940.238
292.764, 2093.239
294.125, 1479.829
295.486, 1192.674
296.847, 909.862
298.207, 799.170
299.568, 670.711
300.928, 611.061
302.288, 578.835
303.647, 434.968
305.007, 503.390
306.366, 457.056
307.725, 445.589
309.084, 421.083
310.443, 409.708
311.801, 421.953
313.159, 400.925
314.517, 407.489
315.875, 405.207
317.233, 357.509
318.590, 337.858
319.947, 291.008
321.304, 283.881
322.661, 243.588
324.018, 229.402
325.374, 221.804
326.730, 202.274
328.086, 205.446
329.442, 198.508
330.797, 221.559
332.153, 249.966
333.508, 273.448
334.863, 317.089
336.217, 292.808
337.572, 309.497
338.926, 198.157
340.280, 121.788
341.634, 39.388
342.988, 54.950
344.341, 76.474
345.694, 69.961
347.047, 107.411
348.400, 84.330
349.753, 134.252
351.105, 191.781
352.457, 159.169
353.809, 157.378
355.161, 90.268
356.512, 151.427
357.864, 130.855
359.215, 147.375
360.566, 194.549
361.916, 195.835
363.267, 234.201
364.617, 247.647
365.967, 281.818
367.317, 332.306
368.667, 449.405
370.016, 527.142
371.366, 621.431
372.715, 853.257
374.064, 1086.086
375.412, 1575.157
376.761, 2022.159
378.109, 2516.338
379.457, 2959.052
380.805, 2705.726
382.152, 2358.281
383.500, 2053.228
384.847, 2049.970
386.194, 2678.895
387.541, 3345.680
388.887, 5013.448
390.233, 7996.141
391.580, 12815.782
392.926, 18606.354
394.271, 20366.875
395.617, 17847.326
396.962, 11767.722
398.307, 7275.052
399.652, 4561.322
400.997, 2764.549
402.341, 2012.733
403.686, 1374.864
405.030, 1042.950
406.374, 829.988
407.717, 619.974
409.061, 555.918
410.404, 430.817
411.747, 428.688
413.090, 374.518
414.433, 422.315
415.775, 491.084
417.117, 524.818
418.459, 701.529
419.801, 753.208
421.143, 939.858
422.484, 940.481
423.825, 774.076
425.166, 724.647
426.507, 539.198
427.848, 593.730
429.188, 576.244
430.528, 752.744
431.868, 907.229
433.208, 1200.703
434.547, 1787.165
435.887, 2811.616
437.226, 5333.057
438.565, 9920.485
439.904, 16809.904
441.242, 23099.311
442.580, 19808.711
443.918, 13368.104
445.256, 8657.492
446.594, 6420.876
447.932, 5676.260
449.269, 5255.647
450.606, 5393.036
451.943, 5247.431
453.280, 5159.837
454.616, 4982.271
455.952, 4210.731
457.288, 4072.204
458.624, 3483.692
459.960, 2873.191
461.295, 2371.771
462.631, 1896.168
463.966, 1583.780
465.300, 1239.492
466.635, 1067.694
467.969, 951.739
469.304, 773.514
470.638, 768.314
471.972, 593.946
473.305, 613.632
474.639, 512.243
475.972, 443.903
477.305, 428.605
478.638, 349.187
479.970, 363.781
481.303, 314.274
482.635, 331.852
483.967, 277.376
485.298, 284.964
486.630, 348.636
487.961, 306.346
489.293, 438.182
490.624, 381.072
491.954, 345.128
493.285, 414.330
494.615, 387.644
495.945, 387.146
497.275, 428.550
498.605, 469.028
499.935, 624.044
501.264, 701.745
502.593, 980.105
503.922, 1212.535
505.251, 1492.059
506.579, 1743.559
507.908, 1811.222
509.236, 1861.797
510.564, 1519.603
511.891, 1216.680
513.219, 909.805
514.546, 582.128
515.873, 450.051
517.200, 232.778
518.527, 163.012
519.853, 124.235
521.180, 45.055
522.506, 33.286
523.832, 42.218
525.157, 34.469
526.483, 43.260
527.808, 39.084
529.133, 54.223
530.458, 52.710
531.783, 30.006
533.107, 27.062
534.431, 36.832
535.756, 102.558
537.079, 108.473
538.403, 225.318
539.727, 336.181
541.050, 450.963
542.373, 563.228
543.696, 448.560
545.018, 404.056
546.341, 249.490
547.663, 217.346
548.985, 198.134
550.307, 199.040
551.629, 238.693
552.950, 208.454
554.271, 292.101
555.592, 319.516
556.913, 370.050
558.234, 497.521
559.554, 537.271
560.875, 690.713
562.195, 887.262
563.514, 1087.049
564.834, 1461.614
566.154, 1831.640
567.473, 2677.637
568.792, 3811.997
570.111, 5457.681
571.429, 7083.565
572.748, 7129.679
574.066, 6445.452
575.384, 4698.167
576.702, 3461.740
578.019, 2692.427
579.337, 1932.102
580.654, 1751.763
581.971, 1445.410
583.288, 1296.044
584.605, 1188.665
585.921, 891.272
587.237, 892.867
588.553, 704.448
589.869, 752.016
591.185, 819.571
592.500, 761.112
593.815, 1025.641
595.130, 1187.156
596.445, 1653.658
597.760, 2269.147
599.074, 3151.622
600.389, 4293.083
601.703, 4586.532
603.016, 4382.969
604.330, 3439.392
605.644, 2362.801
606.957, 1746.197
608.270, 1214.580
609.583, 851.949
610.895, 632.305
612.208, 429.647
613.520, 1772.976
614.832, 1257.363
616.144, 2173.665
617.455, 219.951
618.767, 130.223
620.078, 162.481
621.389, 70.725
622.700, 145.953
624.011, 99.169
625.321, 91.372
626.631, 147.561
627.941, 113.740
629.251, 179.906
630.561, 174.061
631.870, 222.205
633.180, 286.339
634.489, 386.410
635.798, 598.573
637.106, 694.674
638.415, 919.765
639.723, 1182.845
641.031, 1215.915
642.339, 1246.973
643.647, 1127.022
644.954, 1034.059
646.261, 931.085
647.568, 764.099
648.875, 706.101
650.182, 596.090
651.488, 534.066
652.795, 538.028
654.101, 406.976
655.407, 374.909
656.712, 291.828
658.018, 267.734
659.323, 228.629
660.628, 202.514
661.933, 227.389
663.238, 243.254
664.542, 278.108
665.847, 245.950
667.151, 180.783
668.455, 204.604
669.758, 84.411
671.062, 44.205
672.365, 77.984
673.668, 1.751
674.971, 49.488
676.274, 11.210
677.577, 29.093
678.879, 19.567
680.181, 21.137
681.483, 8.710
682.785, 62.132
684.086, 26.877
685.388, 53.574
686.689, 64.809
687.990, 37.108
689.290, 58.135
690.591, 69.252
691.891, 68.413
693.192, 39.384
694.491, 38.393
695.791, 118.449
697.091, 85.599
698.390, 45.823
699.689, 95.103
700.988, 34.462
702.287, 65.869
703.586, 41.340
704.884, 7.862
706.182, 75.417
707.480, 24.040
708.778, 58.703
710.076, 25.425
711.373, 5.187
712.670, 7.979
713.968, 24.802
715.264, 46.663
716.561, 58.574
717.857, 11.540
719.154, 33.537
720.450, 13.576
721.746, 16.355
723.041, 22.730
724.337, 5.149
725.632, 52.991
726.927, 15.820
728.222, 11.385
729.517, 23.616
730.811, 58.121
732.105, 22.154
733.400, 34.540
734.693, 28.223
735.987, 35.894
737.281, 69.554
738.574, 87.203
739.867, 183.842
741.160, 205.469
742.453, 325.087
743.745, 456.693
745.038, 488.290
746.330, 523.367
747.622, 506.455
748.913, 484.023
750.205, 402.582
751.496, 336.132
752.788, 369.673
754.079, 317.206
755.369, 324.730
756.660, 353.246
757.950, 264.755
759.241, 255.255
760.531, 176.749
761.820, 75.234
763.110, 127.713
764.399, 70.185
765.689, 57.650
766.978, 57.109
768.267, 40.562
769.555, 2.991
770.844, 24.448
772.132, 72.882
773.420, 19.310
774.708, 28.656
775.996, 52.074
777.283, 42.168
778.570, 77.575
779.857, 109.785
781.144, 47.962
782.431, 178.359
783.718, 137.628
785.004, 295.019
786.290, 351.405
787.576, 410.789
788.862, 568.170
790.147, 480.549
791.433, 512.925
792.718, 517.298
794.003, 403.670
795.288, 376.040
796.572, 291.408
797.857, 211.775
799.141, 309.140
800.425, 217.505
801.709, 229.869
802.992, 156.232
804.276, 182.594
805.559, 156.957
806.842, 151.319
808.125, 139.682
809.407, 115.045
810.690, 69.408
811.972, 138.773
813.254, 65.138
814.536, 99.505
815.818, 93.873
817.099, 66.242
818.381, 124.614
819.662, 62.988
820.943, 80.363
822.223, 89.741
823.504, 82.122
824.784, 112.378
826.065, 91.473
827.345, 100.718
828.624, 98.436
829.904, 114.577
831.183, 151.808
832.462, 131.648
833.741, 139.091
835.020, 175.440
836.299, 161.601
837.577, 216.460
838.856, 176.583
840.134, 215.079
841.412, 269.941
842.689, 235.615
843.967, 335.988
845.244, 339.685
846.521, 343.458
847.798, 414.085
849.075, 379.801
850.351, 467.521
851.628, 520.335
852.904, 578.680
854.180, 643.969
855.455, 643.103
856.731, 796.308
858.006, 883.104
859.281, 974.969
860.556, 1161.718
861.831, 1310.721
863.106, 1452.618
864.380, 1859.647
865.655, 2042.912
866.929, 2577.067
868.202, 3028.289
869.476, 3764.238
870.750, 4762.507
872.023, 5833.676
873.296, 7958.611
874.569, 10493.784
875.842, 13870.500
877.114, 19995.254
878.386, 24161.660
879.658, 28564.752
880.930, 28381.652
882.202, 23067.332
883.474, 18622.354
884.745, 13429.464
886.016, 10444.717
887.287, 8391.871
888.558, 6671.065
889.829, 6339.283
891.099, 5429.540
892.369, 5298.820
893.639, 5290.124
894.909, 5170.453
896.179, 5787.808
897.448, 6301.197
898.718, 7517.620
899.987, 9385.071
901.256, 11272.569
902.524, 15230.094
903.793, 19157.648
905.061, 24025.232
906.329, 30382.846
907.597, 31940.490
908.865, 33708.176
910.133, 30335.895
911.400, 24923.643
912.667, 20931.418
913.934, 16349.226
915.201, 13067.077
916.468, 10604.953
917.734, 8352.860
919.001, 7129.809
920.267, 5820.782
921.532, 4902.793
922.798, 4500.760
924.064, 3616.832
925.329, 3444.939
926.594, 3032.073
927.859, 2766.246
929.124, 2670.447
930.388, 2450.677
931.653, 2220.943
932.917, 2141.236
934.181, 1734.561
935.445, 1711.921
936.708, 1435.310
937.972, 1232.729
939.235, 1250.180
940.498, 930.658
941.761, 998.172
943.024, 886.713
944.286, 668.282
945.548, 768.886
946.811, 581.519
948.072, 613.181
949.334, 524.881
950.596, 460.609
951.857, 521.375
953.118, 415.169
954.379, 432.993
955.640, 412.852
956.901, 318.739
958.161, 412.656
959.421, 332.601
960.681, 385.574
961.941, 397.581
963.201, 351.616
964.460, 554.680
965.720, 524.782
966.979, 631.914
968.238, 917.074
969.496, 966.265
970.755, 1201.486
972.013, 1562.736
973.272, 1627.016
974.529, 1981.325
975.787, 2135.663
977.045, 2390.032
978.302, 2558.430
979.560, 2259.860
980.817, 2084.327
982.073, 1561.825
983.330, 1187.358
984.587, 984.937
985.843, 689.560
987.099, 628.229
988.355, 482.938
989.611, 350.703
990.866, 394.512
992.122, 332.372
993.377, 259.287
994.632, 327.310
995.887, 268.324
997.141, 390.398
998.396, 340.884
999.650, 373.055
1000.904, 421.273
1002.158, 391.558
1003.412, 545.907
1004.665, 593.457
1005.918, 640.917
1007.172, 866.625
1008.425, 964.024
1009.677, 1132.628
1010.930, 1384.269
1012.182, 1489.965
1013.434, 1974.707
1014.687, 2301.978
1015.938, 2846.863
1017.190, 3944.881
1018.441, 4806.035
1019.693, 6587.984
1020.944, 7816.882
1022.195, 8257.924
1023.445, 8709.004
1024.696, 7542.149
1025.946, 6373.304
1027.197, 5563.489
1028.446, 4245.981
1029.696, 3918.234
1030.946, 3260.828
1032.195, 2833.153
1033.445, 2819.513
1034.694, 2477.450
1035.942, 2436.873
1037.191, 2425.113
1038.440, 2378.650
1039.688, 2640.156
1040.936, 2617.380
1042.184, 2840.045
1043.432, 3111.625
1044.679, 3202.733
1045.927, 3749.361
1047.174, 4182.721
1048.421, 4836.582
1049.668, 5775.701
1050.914, 6486.454
1052.161, 8280.222
1053.407, 10492.139
1054.653, 11985.836
1055.899, 16058.432
1057.145, 18902.012
1058.391, 21597.365
1059.636, 22788.170
1060.881, 23553.402
1062.126, 22245.795
1063.371, 19838.609
1064.615, 15945.070
1065.860, 13227.087
1067.104, 10199.367
1068.348, 8114.923
1069.592, 6924.946
1070.836, 5422.212
1072.079, 4707.913
1073.323, 3973.081
1074.566, 3197.956
1075.809, 2982.067
1077.052, 2380.981
1078.294, 2226.345
1079.537, 1964.505
1080.779, 1605.658
1082.021, 1594.850
1083.263, 1334.312
1084.504, 1187.552
1085.746, 1145.851
1086.987, 875.774
1088.228, 895.680
1089.469, 838.965
1090.710, 688.859
1091.951, 745.173
1093.191, 545.500
1094.431, 602.247
1095.671, 571.685
1096.911, 457.443
1098.151, 516.732
1099.390, 436.123
1100.630, 346.782
1101.869, 425.198
1103.108, 365.750
1104.346, 300.545
1105.585, 385.055
1106.823, 247.514
1108.062, 362.987
1109.300, 340.470
1110.537, 256.796
1111.775, 351.299
1113.013, 242.849
1114.250, 271.362
1115.487, 266.894
1116.724, 220.631
1117.961, 274.271
1119.197, 255.091
1120.434, 229.658
1121.670, 287.378
1122.906, 255.960
1124.142, 251.551
1125.377, 229.149
1126.613, 155.754
1127.848, 150.370
1129.083, 145.249
1130.318, 92.878
1131.553, 122.512
1132.787, 97.149
1134.022, 36.094
1135.256, 117.201
1136.490, 48.854
1137.724, 69.784
1138.957, 67.446
1140.191, 15.113
1141.424, 29.855
1142.657, 5.471
1143.890, 75.392
1145.123, 2.236
1146.355, 50.083
1147.588, 75.681
1148.820, 6.360
1150.052, 4.039
1151.284, 21.929
1152.516, 10.390
1153.747, 28.103
1154.978, 12.201
1156.209, 54.525
1157.440, 3.149
1158.671, 15.807
1159.902, 6.463
1161.132, 3.582
1162.362, 80.677
1163.592, 2.739
1164.822, 34.750
1166.052, 11.149
1167.281, 76.123
1168.511, 47.246
1169.740, 12.324
1170.969, 60.658
1172.197, 46.780
1173.426, 20.810
1174.654, 3.752
1175.883, 48.720
1177.111, 25.101
1178.338, 8.314
1179.566, 22.173
1180.794, 2.696
1182.021, 48.830
1183.248, 10.742
1184.475, 15.519
1185.702, 70.096
1186.928, 24.297
1188.155, 62.331
1189.381, 1.001
1190.607, 15.968
1191.833, 5.683
1193.059, 13.641
1194.284, 41.671
1195.509, 32.414
1196.735, 1.185
1197.960, 75.894
1199.184, 10.732
1200.409, 6.410
1201.633, 23.460
1202.858, 4.358
1204.082, 19.240
1205.306, 46.183
1206.529, 21.834
1207.753, 25.123
1208.976, 4.852
1210.199, 1.184
1211.422, 58.240
1212.645, 20.655
1213.868, 12.611
1215.090, 40.522
1216.313, 51.302
1217.535, 17.886
1218.757, 8.895
1219.978, 1.656
1221.200, 8.605
1222.421, 48.105
1223.643, 23.197
1224.864, 24.464
1226.084, 65.109
1227.305, 8.226
1228.526, 73.375
1229.746, 27.962
1230.966, 6.740
1232.186, 38.799
1233.406, 19.487
1234.625, 21.189
1235.845, 77.674
1237.064, 3.272
1238.283, 69.760
1239.502, 67.187
1240.721, 8.648
1241.939, 48.037
1243.157, 35.403
1244.376, 1.745
1245.594, 79.065
1246.811, 2.634
1248.029, 78.648
1249.247, 52.909
1250.464, 15.156
1251.681, 59.374
1252.898, 71.576
1254.115, 76.229
1255.331, 117.400
1256.548, 31.558
1257.764, 80.708
1258.980, 68.831
1260.196, 7.938
1261.411, 98.018
1262.627, 61.080
1263.842, 69.243
1265.057, 59.272
1266.272, 86.282
1267.487, 68.275
1268.702, 123.250
1269.916, 98.203
1271.130, 108.134
1272.344, 91.047
1273.558, 65.944
1274.772, 100.812
1275.986, 91.659
1277.199, 93.484
1278.412, 168.291
1279.625, 68.076
1280.838, 60.850
1282.051, 163.589
1283.263, 72.310
1284.475, 129.004
1285.687, 140.677
1286.899, 89.331
1288.111, 160.965
1289.323, 81.516
1290.534, 84.104
1291.745, 158.669
1292.957, 89.857
1294.167, 200.020
1295.378, 120.531
1296.589, 41.023
1297.799, 132.491
1299.009, 54.788
1300.219, 108.215
1301.429, 166.422
1302.639, 107.971
1303.848, 142.343
1305.057, 130.697
1306.267, 35.032
1307.476, 98.343
1308.684, 77.151
1309.893, 74.367
1311.101, 145.464
1312.310, 58.441
1313.518, 103.646
1314.725, 176.926
1315.933, 54.094
1317.141, 174.242
1318.348, 99.348
1319.555, 70.459
1320.762, 164.547
1321.969, 74.347
1323.176, 94.398
1324.382, 140.134
1325.589, 42.147
1326.795, 120.138
1328.001, 88.571
1329.206, 74.526
1330.412, 126.679
1331.617, 103.544
1332.823, 107.446
1334.028, 154.681
1335.233, 49.439
1336.437, 96.288
1337.642, 98.618
1338.846, 62.435
1340.051, 116.505
1341.255, 128.079
1342.458, 84.404
1343.662, 114.100
1344.866, 111.788
1346.069, 139.330
1347.272, 172.102
1348.475, 84.979
1349.678, 192.875
1350.880, 116.012
1352.083, 79.633
1353.285, 124.957
1354.487, 118.465
1355.689, 139.160
1356.891, 110.209
1358.093, 66.711
1359.294, 150.954
1360.495, 124.926
1361.696, 96.437
1362.897, 141.710
1364.098, 127.555
1365.298, 83.939
1366.499, 167.624
1367.699, 82.080
1368.899, 78.740
1370.099, 128.900
1371.298, 63.268
1372.498, 82.645
1373.697, 114.987
1374.896, 16.059
1376.095, 109.354
1377.294, 42.588
1378.493, 39.204
1379.691, 170.843
1380.889, 44.113
1382.087, 52.790
1383.285, 85.071
1384.483, 52.383
1385.681, 124.796
1386.878, 114.328
1388.075, 73.836
1389.272, 117.477
1390.469, 102.734
1391.666, 57.425
1392.862, 110.197
1394.059, 78.773
1395.255, 79.202
1396.451, 135.419
1397.647, 15.623
1398.842, 121.918
1400.038, 77.339
1401.233, 52.427
1402.428, 119.771
1403.623, 75.084
1404.818, 57.479
1406.013, 112.397
1407.207, 33.596
1408.401, 112.674
1409.595, 75.375
1410.789, 59.357
1411.983, 90.410
1413.177, 79.914
1414.370, 61.833
1415.563, 134.748
1416.756, 53.658
1417.949, 75.502
1419.142, 166.445
1420.335, 45.369
1421.527, 63.111
1422.719, 108.832
1423.911, 37.945
1425.103, 120.218
1426.295, 106.788
1427.486, 81.956
1428.677, 89.973
1429.869, 46.584
1431.060, 54.229
1432.250, 121.844
1433.441, 75.802
1434.632, 58.410
1435.822, 120.923
1437.012, 18.427
1438.202, 114.174
1439.392, 91.854
1440.581, 49.486
1441.771, 153.162
1442.960, 88.756
1444.149, 62.482
1445.338, 166.225
1446.527, 86.981
1447.715, 95.750
1448.904, 130.542
1450.092, 31.269
1451.280, 153.689
1452.468, 131.159
1453.656, 62.550
1454.843, 168.975
1456.031, 119.636
1457.218, 79.400
1458.405, 131.188
1459.592, 71.958
1460.778, 64.718
1461.965, 131.489
1463.151, 54.200
1464.337, 139.878
1465.523, 98.558
1466.709, 32.232
1467.895, 135.603
1469.080, 73.240
1470.266, 79.874
1471.451, 107.531
1472.636, 50.198
1473.821, 67.908
1475.005, 130.637
1476.190, 3.363
1477.374, 76.149
1478.558, 85.976
1479.742, 17.824
1480.926, 144.712
1482.109, 32.413
1483.293, 34.186
1484.476, 88.962
1485.659, 21.743
1486.842, 41.523
1488.025, 139.299
1489.207, 12.095
1490.390, 66.929
1491.572, 99.783
1492.754, 39.642
1493.936, 87.501
1495.118, 77.384
1496.299, 23.702
1497.481, 113.233
