##NAMES=Eudialyte
##RRUFFID=R050230
##IDEAL CHEMISTRY=Na_15_Ca_6_Fe^2+^_3_Zr^4+^_3_Si(Si_25_O_73_)(O,OH,H_2_O)_3_(Cl,OH)_2_
##LOCALITY=Kipawa alkaline complex, near Sheffield Lake, Villedieu Township, Temiscamingue County, Quebec, Canada
##OWNER=RRUFF
##SOURCE=Marcus Origlieri
##DESCRIPTION=Massive aggregate of red crystals
##STATUS=The identification of this mineral has been confirmed by X-ray diffraction and chemical analysis
##URL=rruff.info/R050230
##MEASURED CHEMISTRY=(Na_14.50_K_0.35_Ca_0.15_)_Σ=15_Ca_6.00_(Fe_1.86_Mn_1.01_Mg_0.13_)_Σ=3_(Zr_2.91_Ti_0.09_)_3_(Si_0.94_Nb_0.06_)_Σ=1.00_(Si_25.00_O_73_)(OH)_1.10_(H_2_O)_1.90_)_Σ=3_(Cl_1.17_(OH)_0.83_)_Σ=2_
##PIN_ID=M00176
##ORIENTATION=Laser parallel to a* (1 0 0). Fiducial mark perpendicular to laser is parallel to c [0 0 1]
118.1340, 0.0000000E+00
119.3650, 94.96289
120.5960, 153.2461
121.8270, 420.2383
123.0580, 488.7676
124.2880, 228.6602
125.5190, 94.38477
126.7490, 56.11328
127.9790, 254.9531
129.2090, 248.5195
130.4390, 538.4648
131.6680, 506.8340
132.8980, 640.8359
134.1270, 908.8340
135.3560, 1191.291
136.5850, 1296.811
137.8140, 1335.771
139.0430, 1444.975
140.2710, 1569.988
141.5000, 1385.480
142.7280, 1432.164
143.9560, 1426.801
145.1840, 1641.207
146.4120, 1455.240
147.6390, 1484.795
148.8670, 1726.756
150.0940, 1425.016
151.3210, 1936.459
152.5490, 1624.973
153.7750, 1359.441
155.0020, 1574.756
156.2290, 1675.766
157.4550, 1822.305
158.6810, 1788.232
159.9080, 1748.451
161.1340, 2015.865
162.3590, 2183.406
163.5850, 2136.008
164.8110, 2274.875
166.0360, 2103.189
167.2610, 2248.709
168.4860, 2142.188
169.7110, 1966.678
170.9360, 1943.225
172.1610, 1971.871
173.3850, 1842.648
174.6100, 1700.574
175.8340, 1638.635
177.0580, 1892.799
178.2820, 2094.000
179.5050, 2195.180
180.7290, 2457.268
181.9520, 2549.205
183.1760, 3230.936
184.3990, 3516.406
185.6220, 4114.566
186.8450, 4375.373
188.0670, 4957.779
189.2900, 5605.746
190.5120, 6030.238
191.7340, 7009.104
192.9560, 7603.939
194.1780, 8378.707
195.4000, 8936.375
196.6220, 9760.955
197.8430, 10460.60
199.0640, 11295.35
200.2860, 12039.23
201.5070, 12739.26
202.7270, 13024.46
203.9480, 13857.83
205.1690, 14014.40
206.3890, 14417.16
207.6090, 14666.13
208.8290, 14996.34
210.0490, 15143.68
211.2690, 15403.54
212.4890, 15192.56
213.7080, 14972.96
214.9280, 14588.86
216.1470, 14048.38
217.3660, 13486.77
218.5850, 12844.29
219.8030, 11849.98
221.0220, 11270.78
222.2400, 10284.80
223.4590, 9671.012
224.6770, 8863.469
225.8950, 7819.967
227.1120, 6855.580
228.3300, 6180.176
229.5480, 5353.721
230.7650, 4635.969
231.9820, 3996.818
233.1990, 3581.020
234.4160, 2874.500
235.6330, 2591.061
236.8490, 2143.613
238.0660, 1612.104
239.2820, 1759.520
240.4980, 1795.830
241.7140, 1387.016
242.9300, 1370.074
244.1460, 1616.008
245.3610, 1505.871
246.5770, 1900.480
247.7920, 1755.023
249.0070, 1790.434
250.2220, 1988.711
251.4370, 2165.852
252.6510, 2324.855
253.8660, 2042.721
255.0800, 2377.443
256.2940, 2610.023
257.5080, 3536.457
258.7220, 3784.748
259.9360, 3644.889
261.1490, 2726.885
262.3630, 3003.730
263.5760, 3001.422
264.7890, 2929.270
266.0020, 3068.922
267.2150, 3341.639
268.4270, 3244.615
269.6400, 3492.207
270.8520, 3670.549
272.0640, 3773.939
273.2760, 3830.119
274.4880, 4153.496
275.7000, 4104.441
276.9120, 4397.908
278.1230, 4431.865
279.3340, 4717.281
280.5450, 4946.121
281.7560, 5037.363
282.9670, 5010.982
284.1780, 5370.957
285.3880, 5219.264
286.5980, 5727.885
287.8090, 5743.805
289.0190, 5532.006
290.2290, 6005.475
291.4380, 5809.195
292.6480, 6072.158
293.8570, 6321.348
295.0670, 6351.754
296.2760, 6417.680
297.4850, 6680.572
298.6930, 6703.438
299.9020, 6629.193
301.1110, 6986.316
302.3190, 7430.115
303.5270, 7368.281
304.7350, 7496.889
305.9430, 7499.146
307.1510, 7753.453
308.3580, 7856.680
309.5660, 8406.727
310.7730, 8257.961
311.9800, 8680.742
313.1870, 8934.914
314.3940, 9144.971
315.6010, 9421.766
316.8070, 9707.213
318.0130, 9802.625
319.2200, 10320.02
320.4260, 10360.73
321.6310, 10670.55
322.8370, 10371.61
324.0430, 10854.88
325.2480, 10915.79
326.4540, 10766.29
327.6590, 11213.83
328.8640, 11216.25
330.0680, 11595.66
331.2730, 11486.55
332.4780, 12044.49
333.6820, 12469.50
334.8860, 12603.07
336.0900, 12834.29
337.2940, 13115.89
338.4980, 13269.80
339.7010, 13056.99
340.9050, 13118.22
342.1080, 12628.83
343.3110, 11989.32
344.5140, 11658.94
345.7170, 11092.74
346.9200, 10521.85
348.1220, 9931.781
349.3240, 9321.371
350.5270, 8881.180
351.7290, 8436.629
352.9310, 8418.160
354.1320, 7807.471
355.3340, 7595.543
356.5350, 7511.758
357.7370, 7197.629
358.9380, 7122.312
360.1390, 6956.498
361.3400, 6675.025
362.5400, 6316.156
363.7410, 6269.061
364.9410, 5727.875
366.1410, 5552.596
367.3410, 5397.211
368.5410, 5001.723
369.7410, 4669.115
370.9400, 4501.393
372.1400, 4174.543
373.3390, 4126.562
374.5380, 3982.447
375.7370, 4035.195
376.9360, 3375.799
378.1350, 3281.258
379.3330, 3351.570
380.5310, 3194.736
381.7300, 3160.754
382.9280, 3187.621
384.1260, 3268.340
385.3230, 2993.910
386.5210, 3269.330
387.7180, 2936.600
388.9160, 3324.721
390.1130, 3338.693
391.3100, 3349.516
392.5060, 3543.186
393.7030, 3414.711
394.9000, 3410.082
396.0960, 3538.307
397.2920, 3611.379
398.4880, 3674.303
399.6840, 3613.078
400.8800, 3612.713
402.0750, 3713.180
403.2710, 3529.508
404.4660, 3575.686
405.6610, 3611.713
406.8560, 3312.594
408.0510, 3459.326
409.2450, 3438.969
410.4400, 3299.523
411.6340, 3128.996
412.8280, 3106.391
414.0220, 2991.400
415.2160, 3181.928
416.4100, 2882.100
417.6030, 2883.193
418.7970, 2872.189
419.9900, 2549.090
421.1830, 2434.887
422.3760, 2453.578
423.5690, 2333.164
424.7610, 2020.641
425.9540, 2114.010
427.1460, 1735.268
428.3380, 1793.412
429.5300, 1490.443
430.7220, 1529.361
431.9140, 1402.160
433.1050, 1414.844
434.2970, 1369.406
435.4880, 1099.854
436.6790, 1136.178
437.8700, 1214.383
439.0610, 1031.467
440.2510, 856.4258
441.4420, 916.2520
442.6320, 754.9434
443.8220, 716.5020
445.0120, 600.9180
446.2020, 601.1895
447.3910, 453.3145
448.5810, 382.2891
449.7700, 120.1094
450.9600, 4.753906
452.1490, 18.81836
453.3370, 0.6250000
454.5260, 131.6543
455.7150, 100.9785
456.9030, 269.5859
458.0910, 308.5664
459.2800, 467.9414
460.4670, 522.7988
461.6550, 433.1680
462.8430, 514.0039
464.0300, 419.3535
465.2180, 479.1660
466.4050, 593.4707
467.5920, 521.3340
468.7790, 528.7207
469.9650, 670.6309
471.1520, 651.1465
472.3380, 490.2578
473.5250, 448.8750
474.7110, 623.9824
475.8970, 624.6719
477.0820, 425.9453
478.2680, 563.6992
479.4540, 474.0059
480.6390, 638.8184
481.8240, 277.2227
483.0090, 406.0312
484.1940, 301.3125
485.3780, 364.0098
486.5630, 128.1562
487.7470, 100.6289
488.9320, 154.4121
490.1160, 73.53320
491.3000, 26.05078
492.4830, 61.38867
493.6670, 164.5020
494.8500, 231.4180
496.0340, 436.1484
497.2170, 478.7031
498.4000, 666.6621
499.5820, 733.3184
500.7650, 1000.383
501.9480, 1100.297
503.1300, 1240.064
504.3120, 1313.688
505.4940, 1396.172
506.6760, 1723.516
507.8580, 1707.725
509.0390, 1802.793
510.2210, 2207.727
511.4020, 2259.523
512.5830, 2481.182
513.7640, 2547.703
514.9450, 2619.090
516.1250, 2810.336
517.3060, 2873.449
518.4860, 2947.426
519.6660, 3344.270
520.8460, 3369.973
522.0260, 3462.543
523.2060, 3603.980
524.3850, 3604.281
525.5650, 3947.449
526.7440, 3928.482
527.9230, 4232.385
529.1020, 4337.152
530.2810, 4654.785
531.4590, 5006.287
532.6380, 5464.656
533.8160, 5715.891
534.9940, 6108.000
536.1720, 6571.975
537.3500, 7224.820
538.5270, 7792.145
539.7050, 8506.117
540.8820, 9204.574
542.0590, 10152.91
543.2360, 11019.12
544.4130, 11861.20
545.5900, 12722.16
546.7660, 13665.01
547.9430, 14750.75
549.1190, 15610.37
550.2950, 16652.14
551.4710, 17925.33
552.6470, 18612.67
553.8220, 19721.97
554.9980, 20626.15
556.1730, 21870.29
557.3480, 22733.37
558.5230, 23591.45
559.6980, 24260.53
560.8730, 24787.73
562.0470, 25086.64
563.2220, 25490.69
564.3960, 25610.70
565.5700, 25670.69
566.7440, 25861.72
567.9170, 25985.81
569.0910, 26126.99
570.2640, 26156.25
571.4380, 24924.62
572.6110, 24156.06
573.7840, 22837.59
574.9570, 20994.19
576.1290, 18867.82
577.3020, 16909.54
578.4740, 15058.35
579.6460, 13339.20
580.8180, 11497.79
581.9900, 10038.67
583.1620, 8910.846
584.3330, 7893.404
585.5040, 7347.830
586.6760, 6635.809
587.8470, 6353.773
589.0180, 6114.137
590.1880, 5570.209
591.3590, 5601.367
592.5290, 5860.787
593.7000, 5784.502
594.8700, 6285.125
596.0400, 6541.301
597.2090, 6712.133
598.3790, 6889.172
599.5490, 7378.570
600.7180, 7828.793
601.8870, 8092.344
603.0560, 8375.320
604.2250, 8344.023
605.3940, 8538.504
606.5620, 8476.000
607.7300, 8459.160
608.8990, 8329.691
610.0670, 8026.539
611.2350, 7489.314
612.4020, 7457.115
613.5700, 6923.832
614.7370, 6496.988
615.9050, 6349.994
617.0720, 5824.807
618.2390, 5828.961
619.4060, 5367.340
620.5720, 5428.238
621.7390, 5187.695
622.9050, 5327.764
624.0710, 5309.672
625.2370, 5333.086
626.4030, 5352.723
627.5690, 5250.691
628.7340, 5323.559
629.9000, 5388.012
631.0650, 5307.516
632.2300, 5099.236
633.3950, 5012.623
634.5600, 4891.744
635.7240, 4844.646
636.8890, 4467.141
638.0530, 4596.748
639.2170, 4490.074
640.3810, 4153.613
641.5450, 4412.203
642.7080, 4194.141
643.8720, 4231.600
645.0350, 5989.297
646.1980, 5290.066
647.3610, 5276.758
648.5240, 5893.377
649.6870, 4600.924
650.8490, 4854.395
652.0120, 5076.791
653.1740, 5164.113
654.3360, 5378.357
655.4980, 5630.529
656.6600, 5865.592
657.8210, 6338.637
658.9830, 6471.576
660.1440, 6825.434
661.3050, 7171.809
662.4660, 7349.924
663.6270, 7980.547
664.7870, 8295.094
665.9480, 8608.557
667.1080, 9015.939
668.2680, 9699.246
669.4280, 9950.469
670.5880, 10057.61
671.7480, 10712.67
672.9070, 10819.64
674.0670, 11540.54
675.2260, 11909.35
676.3850, 12223.42
677.5440, 12771.07
678.7030, 13168.63
679.8610, 13616.50
681.0200, 14075.52
682.1780, 14196.38
683.3360, 14612.94
684.4940, 15045.20
685.6520, 15337.51
686.8090, 15854.21
687.9670, 16079.40
689.1240, 16355.76
690.2810, 16890.90
691.4380, 17183.05
692.5950, 17828.48
693.7520, 18282.69
694.9080, 18612.35
696.0650, 19136.47
697.2210, 19467.39
698.3770, 19817.28
699.5330, 20316.78
700.6880, 20251.38
701.8440, 20147.88
702.9990, 20376.13
704.1550, 19819.34
705.3100, 19960.07
706.4650, 19222.21
707.6190, 18561.00
708.7740, 17601.83
709.9290, 17260.00
711.0830, 16685.11
712.2370, 14861.62
713.3910, 14460.71
714.5450, 13438.92
715.6980, 12791.26
716.8520, 12114.62
718.0050, 11635.43
719.1580, 11160.29
720.3110, 11080.30
721.4640, 11170.21
722.6170, 10676.18
723.7700, 11077.88
724.9220, 11096.32
726.0740, 11255.15
727.2260, 11560.45
728.3780, 12139.54
729.5300, 12586.62
730.6810, 12727.02
731.8330, 13165.86
732.9840, 13604.45
734.1350, 14490.08
735.2860, 14398.98
736.4370, 15235.85
737.5880, 15299.92
738.7380, 15799.40
739.8880, 16141.08
741.0390, 16250.91
742.1890, 16461.03
743.3380, 16355.62
744.4880, 16539.44
745.6380, 16589.31
746.7870, 16316.01
747.9360, 16205.64
749.0850, 15829.08
750.2340, 15406.61
751.3830, 15089.02
752.5310, 14944.21
753.6800, 14463.57
754.8280, 14251.95
755.9760, 13766.34
757.1240, 13599.70
758.2720, 13343.05
759.4190, 13213.38
760.5670, 12767.73
761.7140, 12554.00
762.8610, 12183.23
764.0080, 12103.39
765.1550, 11865.49
766.3020, 11454.48
767.4480, 11127.34
768.5950, 10760.09
769.7410, 10660.71
770.8870, 10277.16
772.0330, 9810.453
773.1780, 9607.555
774.3240, 9001.469
775.4690, 8754.189
776.6140, 8615.709
777.7590, 8160.029
778.9040, 8047.145
780.0490, 7654.051
781.1940, 7489.750
782.3380, 7041.236
783.4820, 6760.510
784.6260, 6531.564
785.7700, 6138.406
786.9140, 5854.031
788.0580, 5624.443
789.2010, 5430.637
790.3450, 5150.613
791.4880, 4951.377
792.6310, 4414.924
793.7730, 4194.252
794.9160, 4044.369
796.0590, 3601.268
797.2010, 3448.949
798.3430, 3185.416
799.4850, 2837.668
800.6270, 2552.703
801.7690, 2383.521
802.9100, 2375.127
804.0520, 2107.516
805.1930, 2198.688
806.3340, 1920.646
807.4750, 1807.391
808.6160, 1714.918
809.7560, 1596.230
810.8970, 1427.328
812.0370, 1220.213
813.1770, 1106.883
814.3170, 1201.334
815.4570, 1204.572
816.5960, 1061.836
817.7360, 995.7617
818.8750, 765.9883
820.0140, 804.3496
821.1530, 625.4844
822.2920, 800.3867
823.4310, 459.0625
824.5690, 584.4785
825.7070, 375.6602
826.8460, 493.5625
827.9840, 242.2168
829.1220, 133.5566
830.2590, 373.5449
831.3970, 180.2617
832.5340, 80.64844
833.6710, 101.3340
834.8080, 138.3398
835.9450, 37.29297
837.0820, 146.0176
838.2190, 86.80859
839.3550, 21.95703
840.4910, 47.66211
841.6270, 317.6953
842.7630, 331.2891
843.8990, 476.4395
845.0350, 500.7852
846.1700, 529.9180
847.3060, 457.7207
848.4410, 504.4062
849.5760, 442.7207
850.7100, 310.6289
851.8450, 529.0547
852.9800, 523.1094
854.1140, 412.7871
855.2480, 392.0195
856.3820, 452.7930
857.5160, 573.1328
858.6500, 617.0977
859.7830, 512.7051
860.9170, 551.8945
862.0500, 378.6797
863.1830, 493.9648
864.3160, 470.8008
865.4480, 340.1699
866.5810, 532.9980
867.7130, 313.3789
868.8460, 288.1387
869.9780, 322.1406
871.1100, 157.0508
872.2410, 333.0215
873.3730, 428.4043
874.5050, 463.2402
875.6360, 215.5449
876.7670, 297.1797
877.8980, 262.1816
879.0290, 366.5215
880.1590, 67.24805
881.2900, 326.2090
882.4200, 266.5195
883.5500, 15.85156
884.6800, 156.9570
885.8100, 40.98242
886.9400, 59.75781
888.0690, 46.62109
889.1990, 131.8105
890.3280, 251.0957
891.4570, 380.2363
892.5860, 451.2324
893.7140, 507.0859
894.8430, 785.8008
895.9710, 841.3750
897.1000, 1058.807
898.2280, 1238.105
899.3560, 1441.840
900.4830, 1771.301
901.6110, 1924.201
902.7380, 2086.969
903.8660, 2318.613
904.9930, 2690.127
906.1200, 2758.523
907.2460, 3132.795
908.3730, 3415.947
909.5000, 3365.986
910.6260, 3574.910
911.7520, 3881.721
912.8780, 4092.426
914.0040, 4200.021
915.1290, 4629.516
916.2550, 4718.908
917.3800, 5249.201
918.5050, 5790.398
919.6300, 5867.504
920.7550, 6530.516
921.8800, 6537.441
923.0040, 6848.281
924.1290, 7233.035
925.2530, 7303.717
926.3770, 7388.314
927.5010, 7608.838
928.6250, 7660.297
929.7480, 7643.680
930.8720, 7575.000
931.9950, 7349.254
933.1180, 7267.449
934.2410, 7043.588
935.3640, 6953.672
936.4860, 6798.699
937.6090, 6518.684
938.7310, 6273.619
939.8530, 6152.508
940.9750, 5985.357
942.0970, 5914.170
943.2180, 5827.945
944.3400, 5850.691
945.4610, 5765.406
946.5820, 5683.098
947.7030, 5720.762
948.8240, 5695.057
949.9450, 5590.686
951.0650, 5716.297
952.1860, 5457.488
953.3060, 5432.443
954.4260, 5507.475
955.5460, 5312.711
956.6650, 5186.152
957.7850, 5030.469
958.9040, 4841.975
960.0230, 4748.568
961.1420, 4460.600
962.2610, 4306.770
963.3800, 4082.852
964.4990, 4005.594
965.6170, 3811.486
966.7350, 3472.861
967.8530, 3504.725
968.9710, 3467.727
970.0890, 3241.713
971.2070, 3540.035
972.3240, 3295.197
973.4410, 3210.422
974.5580, 3156.844
975.6750, 3289.273
976.7920, 3162.145
977.9090, 3366.574
979.0250, 3348.324
980.1410, 3505.996
981.2580, 3640.311
982.3740, 3529.656
983.4890, 3685.582
984.6050, 3634.920
985.7200, 3887.105
986.8360, 3997.158
987.9510, 4342.180
989.0660, 4168.744
990.1810, 4348.254
991.2950, 4451.605
992.4100, 4530.082
993.5240, 4424.500
994.6390, 4678.191
995.7530, 4561.172
996.8660, 4845.787
997.9800, 4841.949
999.0940, 4533.371
1000.207, 4570.816
1001.320, 4565.000
1002.433, 4732.830
1003.546, 4484.121
1004.659, 4271.172
1005.772, 4021.217
1006.884, 3735.414
1007.996, 3954.568
1009.108, 3935.488
1010.220, 3706.438
1011.332, 3397.479
1012.444, 3667.451
1013.555, 3542.205
1014.666, 3482.939
1015.777, 3565.881
1016.888, 3331.250
1017.999, 3379.965
1019.110, 3243.131
1020.220, 3349.514
1021.331, 3267.316
1022.441, 3538.594
1023.551, 3222.963
1024.661, 3653.617
1025.770, 3542.562
1026.880, 3743.797
1027.989, 3549.328
1029.098, 3760.154
1030.207, 3704.277
1031.316, 3654.705
1032.425, 3649.438
1033.533, 3689.643
1034.642, 3760.430
1035.750, 3829.516
1036.858, 4065.516
1037.966, 4148.842
1039.073, 4472.500
1040.181, 4471.492
1041.288, 4596.820
1042.396, 4937.506
1043.503, 5042.533
1044.610, 4753.922
1045.716, 5221.664
1046.823, 5497.762
1047.929, 5404.207
1049.036, 5981.014
1050.142, 6258.178
1051.248, 6612.693
1052.353, 6850.582
1053.459, 7320.846
1054.564, 7468.477
1055.670, 8053.469
1056.775, 8799.840
1057.880, 9483.582
1058.985, 10728.70
1060.089, 11550.22
1061.194, 12310.10
1062.298, 12737.38
1063.402, 14221.06
1064.506, 14848.12
1065.610, 15406.56
1066.713, 15668.38
1067.817, 15812.61
1068.920, 15881.21
1070.023, 15485.23
1071.126, 15340.64
1072.229, 14975.44
1073.332, 14801.66
1074.435, 14927.31
1075.537, 15136.36
1076.639, 15263.80
1077.741, 15535.66
1078.843, 15741.93
1079.945, 16163.49
1081.046, 16840.67
1082.148, 17130.14
1083.249, 17973.00
1084.350, 18569.28
1085.451, 19185.97
1086.551, 20068.06
1087.652, 19924.59
1088.752, 19574.58
1089.853, 18405.04
1090.953, 17895.94
1092.053, 17612.36
1093.152, 17091.23
1094.252, 16661.61
1095.351, 16063.52
1096.451, 15718.96
1097.550, 14921.99
1098.649, 14287.55
1099.748, 13812.68
1100.846, 13172.34
1101.945, 12566.30
1103.043, 12126.56
1104.141, 11376.08
1105.239, 10864.96
1106.337, 10431.93
1107.434, 9865.316
1108.532, 9580.344
1109.629, 9198.055
1110.726, 8812.395
1111.823, 8418.414
1112.920, 8248.121
1114.017, 8072.539
1115.113, 7847.678
1116.210, 7557.523
1117.306, 7779.078
1118.402, 7454.240
1119.498, 7197.068
1120.593, 7203.574
1121.689, 7462.770
1122.784, 7006.664
1123.879, 7370.271
1124.974, 7198.617
1126.069, 7233.711
1127.164, 7039.498
1128.259, 6850.018
1129.353, 6732.266
1130.447, 6343.273
1131.541, 6333.982
1132.635, 5708.363
1133.729, 5123.422
1134.822, 4912.127
1135.916, 4393.484
1137.009, 3705.459
1138.102, 2806.018
1139.195, 2309.172
1140.288, 2094.965
1141.380, 1404.361
1142.473, 1021.318
1143.565, 583.8691
1144.657, 373.3125
1145.749, 229.6387
1146.841, 239.7676
1147.932, 185.4258
1149.024, 292.5723
1150.115, 601.1348
1151.206, 650.1543
1152.297, 928.5762
1153.388, 1215.369
1154.479, 1912.533
1155.569, 2366.062
1156.659, 2785.936
1157.750, 3381.141
1158.839, 3884.676
1159.929, 4453.418
1161.019, 5045.740
1162.108, 5658.701
1163.198, 6298.055
1164.287, 6959.467
1165.376, 7612.086
1166.465, 8094.902
1167.553, 8854.275
1168.642, 9537.816
1169.730, 9574.465
1170.818, 10012.63
1171.906, 10243.31
1172.994, 10543.89
1174.082, 10316.19
1175.170, 10670.19
1176.257, 10031.93
1177.344, 9950.189
1178.431, 9680.535
1179.518, 9521.143
1180.605, 9221.074
1181.691, 9075.312
1182.778, 8701.102
1183.864, 8545.520
1184.950, 8136.717
1186.036, 7959.307
1187.122, 7968.082
1188.207, 7451.746
1189.292, 7476.217
1190.378, 7249.484
1191.463, 6980.416
1192.548, 6812.848
1193.632, 6444.436
1194.717, 6254.180
1195.801, 5892.000
1196.886, 5604.191
1197.970, 5240.617
1199.054, 4941.537
1200.137, 4586.898
1201.221, 3849.361
1202.305, 3928.035
1203.388, 3363.549
1204.471, 3036.930
1205.554, 2863.596
1206.637, 2623.615
1207.719, 2376.211
1208.802, 1838.238
1209.884, 1814.705
1210.966, 1485.367
1212.048, 1424.068
1213.130, 1198.258
1214.212, 1046.654
1215.293, 1009.037
1216.374, 973.1367
1217.456, 898.7168
1218.536, 978.3398
1219.617, 1212.387
1220.698, 1215.902
1221.778, 1469.012
1222.859, 1773.084
1223.939, 1586.930
1225.019, 1982.672
1226.099, 2055.959
1227.178, 2095.486
1228.258, 2419.570
1229.337, 2763.484
1230.417, 2373.336
1231.496, 2541.283
1232.574, 2987.355
1233.653, 3013.035
1234.732, 3254.891
1235.810, 2854.645
1236.888, 3165.006
1237.966, 3075.334
1239.044, 2985.658
1240.122, 2870.686
1241.199, 2800.125
1242.277, 2793.746
1243.354, 2745.309
1244.431, 2590.107
1245.508, 2538.000
1246.585, 2255.355
1247.661, 2077.344
1248.738, 1931.543
1249.814, 2020.562
1250.890, 1941.721
1251.966, 1987.379
1253.042, 1884.402
1254.117, 1687.275
1255.193, 1897.283
1256.268, 1885.811
1257.343, 2042.273
1258.418, 2159.277
1259.493, 2264.215
1260.567, 2158.732
1261.642, 2588.281
1262.716, 2611.215
1263.790, 2591.627
1264.864, 2475.709
1265.938, 2612.453
1267.011, 2564.148
1268.085, 2682.453
1269.158, 2594.643
1270.231, 2492.951
1271.304, 2267.242
1272.377, 2295.967
1273.450, 2200.951
1274.522, 2166.543
1275.594, 2031.850
1276.666, 1978.566
1277.738, 1751.191
1278.810, 1541.855
1279.882, 1461.658
1280.953, 1447.688
