##NAMES=Eudialyte
##RRUFFID=R060206
##IDEAL CHEMISTRY=Na_15_Ca_6_Fe^2+^_3_Zr^4+^_3_Si(Si_25_O_73_)(O,OH,H_2_O)_3_(Cl,OH)_2_
##LOCALITY=Desourdy Quarry, Mont Saint-Hilaire, Rouville County, Quebec, Canada
##OWNER=RRUFF
##SOURCE=Royal Ontario Museum
##DESCRIPTION=Yellowish-brown gemmy fragment
##STATUS=The identification of this mineral is confirmed by single-crystal X-ray diffraction and chemical analysis.
##URL=rruff.info/R060206
##MEASURED CHEMISTRY=(Na_13.12_Ca_1.62_K_0.26_)_Σ=15_(Ca_4.47_Mn_1.00_Ce_0.32_La_0.21_)_Σ=6_(Fe_2.91_Mn_0.09_)_Σ=3_Zr_3.00_(Si_0.85_Nb_0.15_)_Σ=1_Si_25.00_O_73_((OH)_2.70_O_0.30_)_Σ=3_(Cl_1.20_(OH)_0.80_)_Σ=2_
##PIN_ID=M00202
##ORIENTATION=Laser parallel to -c* (0 0 -1). Fiducial mark perpendicular to laser is parallel to a [1 0 0]
116.9030, 0.0000000E+00
118.1340, 452.2637
119.3650, 19.82031
120.5960, 136.2852
121.8270, 3.419922
123.0580, 407.4238
124.2880, 281.1816
125.5190, 89.96289
126.7490, 475.6055
127.9790, 740.3105
129.2090, 1234.344
130.4390, 1579.256
131.6680, 2008.885
132.8980, 2459.359
134.1270, 2982.000
135.3560, 3347.139
136.5850, 3705.840
137.8140, 4070.996
139.0430, 4307.977
140.2710, 4546.248
141.5000, 4374.416
142.7280, 3845.172
143.9560, 3538.305
145.1840, 3164.656
146.4120, 2649.117
147.6390, 2576.611
148.8670, 1852.430
150.0940, 1740.283
151.3210, 1719.674
152.5490, 1257.490
153.7750, 817.3750
155.0020, 1021.424
156.2290, 701.7090
157.4550, 750.3184
158.6810, 819.3184
159.9080, 781.7793
161.1340, 997.7637
162.3590, 1232.332
163.5850, 1568.535
164.8110, 1721.420
166.0360, 1977.035
167.2610, 2175.453
168.4860, 2366.764
169.7110, 2635.053
170.9360, 2955.398
172.1610, 3368.873
173.3850, 3832.533
174.6100, 4398.355
175.8340, 5051.855
177.0580, 5731.094
178.2820, 6586.859
179.5050, 7406.871
180.7290, 8349.057
181.9520, 9580.195
183.1760, 10660.64
184.3990, 12080.50
185.6220, 13302.66
186.8450, 15070.61
188.0670, 16695.28
189.2900, 18082.08
190.5120, 19666.94
191.7340, 21570.75
192.9560, 23168.55
194.1780, 25038.39
195.4000, 26969.30
196.6220, 28599.30
197.8430, 29995.41
199.0640, 31209.61
200.2860, 32484.91
201.5070, 32750.33
202.7270, 33503.92
203.9480, 33185.68
205.1690, 32914.66
206.3890, 31465.79
207.6090, 30110.08
208.8290, 28534.50
210.0490, 27088.05
211.2690, 25144.78
212.4890, 23094.70
213.7080, 21539.86
214.9280, 19268.40
216.1470, 17497.54
217.3660, 15833.44
218.5850, 13968.14
219.8030, 12558.38
221.0220, 10943.47
222.2400, 9841.451
223.4590, 8510.301
224.6770, 7613.863
225.8950, 6998.125
227.1120, 5896.082
228.3300, 5250.783
229.5480, 4604.271
230.7650, 3775.447
231.9820, 3465.234
233.1990, 2946.648
234.4160, 2442.514
235.6330, 1996.736
236.8490, 1602.639
238.0660, 1278.508
239.2820, 921.5234
240.4980, 586.1582
241.7140, 305.3789
242.9300, 129.1543
244.1460, 134.5234
245.3610, 343.6562
246.5770, 358.2363
247.7920, 462.5479
249.0070, 507.7490
250.2220, 397.6787
251.4370, 480.0576
252.6510, 311.8848
253.8660, 490.1992
255.0800, 226.2744
256.2940, 3.722656
257.5080, 457.7988
258.7220, 612.0107
259.9360, 881.7070
261.1490, 1075.620
262.3630, 1370.303
263.5760, 1672.896
264.7890, 2067.176
266.0020, 2623.145
267.2150, 3021.114
268.4270, 3613.689
269.6400, 4065.938
270.8520, 4519.234
272.0640, 4936.049
273.2760, 5250.142
274.4880, 5489.467
275.7000, 5665.979
276.9120, 5861.648
278.1230, 5908.443
279.3340, 5833.338
280.5450, 6164.308
281.7560, 6022.324
282.9670, 6496.367
284.1780, 6419.865
285.3880, 6713.999
286.5980, 6724.113
287.8090, 7286.055
289.0190, 7330.203
290.2290, 7457.082
291.4380, 7757.877
292.6480, 7699.922
293.8570, 7822.395
295.0670, 7946.826
296.2760, 8083.037
297.4850, 8141.582
298.6930, 8206.726
299.9020, 8260.944
301.1110, 8268.730
302.3190, 8294.650
303.5270, 8321.466
304.7350, 8276.140
305.9430, 8138.387
307.1510, 7965.197
308.3580, 7905.389
309.5660, 7309.434
310.7730, 7329.753
311.9800, 6862.634
313.1870, 6545.676
314.3940, 6170.221
315.6010, 5774.187
316.8070, 5676.838
318.0130, 5484.901
319.2200, 5251.913
320.4260, 5519.785
321.6310, 5432.545
322.8370, 5683.778
324.0430, 5862.896
325.2480, 6140.478
326.4540, 6791.939
327.6590, 6767.742
328.8640, 7540.118
330.0680, 8079.721
331.2730, 8433.608
332.4780, 8615.618
333.6820, 8982.731
334.8860, 8861.585
336.0900, 9068.709
337.2940, 8703.757
338.4980, 8531.453
339.7010, 8152.869
340.9050, 7864.776
342.1080, 7551.633
343.3110, 7401.779
344.5140, 6903.688
345.7170, 6806.717
346.9200, 6688.436
348.1220, 6621.674
349.3240, 6543.371
350.5270, 6546.707
351.7290, 6759.015
352.9310, 6884.363
354.1320, 6910.724
355.3340, 6943.092
356.5350, 7096.688
357.7370, 6849.172
358.9380, 6747.323
360.1390, 6804.643
361.3400, 6431.465
362.5400, 6072.658
363.7410, 5969.524
364.9410, 5681.188
366.1410, 5571.730
367.3410, 5320.699
368.5410, 5282.395
369.7410, 5113.811
370.9400, 5134.945
372.1400, 5063.795
373.3390, 5159.352
374.5380, 5032.613
375.7370, 5144.576
376.9360, 5249.238
378.1350, 5470.596
379.3330, 5820.642
380.5310, 6106.377
381.7300, 6273.801
382.9280, 6718.910
384.1260, 7229.707
385.3230, 7540.191
386.5210, 8120.363
387.7180, 8724.777
388.9160, 8922.766
390.1130, 9286.123
391.3100, 9504.977
392.5060, 9690.699
393.7030, 9398.011
394.9000, 9432.663
396.0960, 9006.590
397.2920, 8745.524
398.4880, 8468.728
399.6840, 7992.974
400.8800, 7486.339
402.0750, 7059.631
403.2710, 6613.646
404.4660, 6284.384
405.6610, 5941.862
406.8560, 5666.059
408.0510, 5400.953
409.2450, 5236.621
410.4400, 5072.037
411.6340, 4950.189
412.8280, 4820.068
414.0220, 4709.676
415.2160, 4573.870
416.4100, 4505.064
417.6030, 4274.842
418.7970, 4105.338
419.9900, 3877.551
421.1830, 3551.481
422.3760, 3249.127
423.5690, 3042.486
424.7610, 2659.560
425.9540, 2355.346
427.1460, 2073.845
428.3380, 1916.051
429.5300, 1673.957
430.7220, 1465.558
431.9140, 1401.842
433.1050, 1212.809
434.2970, 1215.453
435.4880, 1135.773
436.6790, 1252.768
437.8700, 1449.442
439.0610, 1289.804
440.2510, 1378.847
441.4420, 1472.576
442.6320, 1410.000
443.8220, 1110.113
445.0120, 1115.911
446.2020, 890.3926
447.3910, 763.5508
448.5810, 670.3779
449.7700, 578.8711
450.9600, 447.0225
452.1490, 321.8203
453.3370, 295.2471
454.5260, 44.29883
455.7150, 51.88379
456.9030, 106.9912
458.0910, 72.40625
459.2800, 233.3389
460.4670, 230.8711
461.6550, 13.99805
462.8430, 45.39648
464.0300, 215.6504
465.2180, 326.2744
466.4050, 236.5293
467.5920, 363.3643
468.7790, 370.8428
469.9650, 390.9639
471.1520, 321.7344
472.3380, 278.1113
473.5250, 394.0645
474.7110, 311.6533
475.8970, 369.8242
477.0820, 374.6084
478.2680, 404.0020
479.4540, 444.0166
480.6390, 511.6709
481.8240, 532.9932
483.0090, 502.9912
484.1940, 464.6455
485.3780, 495.6597
486.5630, 422.8574
487.7470, 515.3848
488.9320, 521.5537
490.1160, 493.3623
491.3000, 384.7930
492.4830, 390.7812
493.6670, 386.3262
494.8500, 335.4180
496.0340, 316.0254
497.2170, 201.1309
498.4000, 105.7939
499.5820, 107.4121
500.7650, 209.2158
501.9480, 380.7539
503.1300, 660.0381
504.3120, 729.0840
505.4940, 964.8984
506.6760, 1174.488
507.8580, 1349.865
509.0390, 1569.039
510.2210, 1877.014
511.4020, 1994.791
512.5830, 2417.373
513.7640, 2730.762
514.9450, 3158.958
516.1250, 3379.965
517.3060, 3753.783
518.4860, 4326.416
519.6660, 4892.866
520.8460, 5150.133
522.0260, 5568.217
523.2060, 6131.125
524.3850, 6467.857
525.5650, 6780.412
526.7440, 7076.797
527.9230, 7301.012
529.1020, 7594.057
530.2810, 8003.936
531.4590, 8441.686
532.6380, 8749.359
533.8160, 9422.962
534.9940, 10408.53
536.1720, 11204.07
537.3500, 11796.57
538.5270, 12819.03
539.7050, 13471.43
540.8820, 14534.82
542.0590, 15272.12
543.2360, 15880.30
544.4130, 16647.32
545.5900, 17718.21
546.7660, 18989.96
547.9430, 20149.57
549.1190, 21878.04
550.2950, 24193.38
551.4710, 26595.59
552.6470, 29439.66
553.8220, 32437.61
554.9980, 35541.43
556.1730, 37616.12
557.3480, 39086.70
558.5230, 40187.16
559.6980, 39903.48
560.8730, 40003.70
562.0470, 40444.79
563.2220, 41812.78
564.3960, 43525.65
565.5700, 45058.41
566.7440, 45620.07
567.9170, 44552.62
569.0910, 40625.62
570.2640, 35899.87
571.4380, 30592.02
572.6110, 25447.21
573.7840, 20905.07
574.9570, 16767.07
576.1290, 13847.05
577.3020, 11253.72
578.4740, 9553.960
579.6460, 7738.131
580.8180, 6500.745
581.9900, 5452.864
583.1620, 4609.543
584.3330, 3774.147
585.5040, 3256.724
586.6760, 3480.536
587.8470, 2822.508
589.0180, 2890.664
590.1880, 2648.258
591.3590, 2749.340
592.5290, 2762.094
593.7000, 3309.034
594.8700, 3582.746
596.0400, 4170.931
597.2090, 4694.986
598.3790, 5342.521
599.5490, 6258.645
600.7180, 6915.019
601.8870, 7868.934
603.0560, 8727.830
604.2250, 9617.782
605.3940, 10386.76
606.5620, 10979.14
607.7300, 11738.50
608.8990, 11879.51
610.0670, 11953.81
611.2350, 11868.32
612.4020, 11467.60
613.5700, 11033.95
614.7370, 10507.38
615.9050, 9890.368
617.0720, 9318.084
618.2390, 8722.898
619.4060, 8296.280
620.5720, 7878.578
621.7390, 8023.070
622.9050, 8032.678
624.0710, 7973.642
625.2370, 8159.500
626.4030, 8173.914
627.5690, 7783.413
628.7340, 7741.635
629.9000, 7144.015
631.0650, 6817.724
632.2300, 6175.820
633.3950, 5209.127
634.5600, 4713.313
635.7240, 4081.306
636.8890, 3647.136
638.0530, 3335.808
639.2170, 2972.103
640.3810, 2666.359
641.5450, 2506.799
642.7080, 2182.915
643.8720, 2010.377
645.0350, 1928.310
646.1980, 1789.407
647.3610, 1682.563
648.5240, 1604.638
649.6870, 1640.063
650.8490, 1757.730
652.0120, 1794.429
653.1740, 1871.229
654.3360, 1962.035
655.4980, 2213.145
656.6600, 2257.262
657.8210, 2442.486
658.9830, 2536.820
660.1440, 2706.264
661.3050, 2965.817
662.4660, 3060.484
663.6270, 3268.264
664.7870, 3344.156
665.9480, 3673.165
667.1080, 4067.289
668.2680, 4445.531
669.4280, 4561.891
670.5880, 5099.371
671.7480, 5664.969
672.9070, 5960.689
674.0670, 6909.531
675.2260, 7289.494
676.3850, 7972.581
677.5440, 8597.787
678.7030, 9366.119
679.8610, 10125.57
681.0200, 10814.15
682.1780, 11538.85
683.3360, 12314.68
684.4940, 13096.63
685.6520, 13656.71
686.8090, 14212.92
687.9670, 15118.26
689.1240, 16036.72
690.2810, 16920.32
691.4380, 17560.05
692.5950, 18701.90
693.7520, 19692.90
694.9080, 20777.03
696.0650, 22280.28
697.2210, 23549.68
698.3770, 25023.21
699.5330, 26315.88
700.6880, 27676.67
701.8440, 29452.62
702.9990, 30431.70
704.1550, 31837.91
705.3100, 32717.28
706.4650, 33694.78
707.6190, 33701.42
708.7740, 33673.20
709.9290, 32933.14
711.0830, 31420.23
712.2370, 30193.47
713.3910, 28406.79
714.5450, 27060.64
715.6980, 25438.63
716.8520, 25089.22
718.0050, 24430.24
719.1580, 24713.38
720.3110, 25027.71
721.4640, 25953.06
722.6170, 27101.89
723.7700, 28333.89
724.9220, 30045.08
726.0740, 31656.15
727.2260, 33805.34
728.3780, 35826.94
729.5300, 37737.54
730.6810, 39771.55
731.8330, 41655.44
732.9840, 43534.84
734.1350, 45120.33
735.2860, 46674.16
736.4370, 48432.09
737.5880, 49167.58
738.7380, 49803.38
739.8880, 50495.46
741.0390, 50163.47
742.1890, 50196.91
743.3380, 49803.48
744.4880, 49161.53
745.6380, 47975.58
746.7870, 47358.58
747.9360, 46016.45
749.0850, 45009.58
750.2340, 44539.00
751.3830, 43754.67
752.5310, 43629.59
753.6800, 43104.77
754.8280, 42984.23
755.9760, 42488.95
757.1240, 41730.94
758.2720, 41496.18
759.4190, 40756.73
760.5670, 39907.56
761.7140, 38633.71
762.8610, 37609.14
764.0080, 36295.27
765.1550, 34867.85
766.3020, 33519.10
767.4480, 31794.65
768.5950, 30291.48
769.7410, 28810.59
770.8870, 27293.94
772.0330, 25732.54
773.1780, 24102.38
774.3240, 22719.44
775.4690, 21189.72
776.6140, 19882.19
777.7590, 18598.80
778.9040, 17559.54
780.0490, 16295.35
781.1940, 15123.29
782.3380, 14246.30
783.4820, 13457.39
784.6260, 12510.57
785.7700, 11847.83
786.9140, 11054.16
788.0580, 10611.56
789.2010, 9976.028
790.3450, 9212.566
791.4880, 8542.172
792.6310, 7922.848
793.7730, 7364.592
794.9160, 7000.404
796.0590, 6416.281
797.2010, 5988.227
798.3430, 5739.238
799.4850, 5346.315
800.6270, 5095.459
801.7690, 5159.665
802.9100, 4903.938
804.0520, 5057.276
805.1930, 5015.680
806.3340, 5268.143
807.4750, 5346.672
808.6160, 5508.264
809.7560, 5890.917
810.8970, 6325.633
812.0370, 6525.410
813.1770, 7051.250
814.3170, 7351.150
815.4570, 7717.111
816.5960, 7904.131
817.7360, 7803.213
818.8750, 8090.354
820.0140, 7954.554
821.1530, 7640.812
822.2920, 7299.130
823.4310, 6960.506
824.5690, 6415.937
825.7070, 5942.424
826.8460, 5484.969
827.9840, 5064.439
829.1220, 4701.124
830.2590, 4334.934
831.3970, 4049.696
832.5340, 3776.513
833.6710, 3484.381
834.8080, 3352.300
835.9450, 3079.271
837.0820, 2773.291
838.2190, 2397.361
839.3550, 2152.479
840.4910, 1817.867
841.6270, 1484.861
842.7630, 1240.122
843.8990, 1013.429
845.0350, 796.7812
846.1700, 489.1758
847.3060, 346.6143
848.4410, 70.09668
849.5760, 10.60254
850.7100, 34.89453
851.8450, 312.4150
852.9800, 492.0938
854.1140, 602.0273
855.2480, 595.2793
856.3820, 637.8477
857.5160, 773.7607
858.6500, 837.0928
859.7830, 959.8789
860.9170, 892.1885
862.0500, 962.9883
863.1830, 894.3203
864.3160, 767.1494
865.4480, 904.4121
866.5810, 889.1836
867.7130, 833.4561
868.8460, 852.2041
869.9780, 784.4414
871.1100, 784.1299
872.2410, 573.2754
873.3730, 671.7686
874.5050, 384.6621
875.6360, 462.8076
876.7670, 360.2471
877.8980, 314.9297
879.0290, 280.8311
880.1590, 201.9365
881.2900, 34.20605
882.4200, 117.4434
883.5500, 310.0762
884.6800, 507.5283
885.8100, 777.3984
886.9400, 938.0859
888.0690, 1176.787
889.1990, 1403.503
890.3280, 1437.233
891.4570, 1771.977
892.5860, 2147.730
893.7140, 2457.495
894.8430, 2342.270
895.9710, 2841.054
897.1000, 2968.845
898.2280, 3144.648
899.3560, 3535.459
900.4830, 3537.275
901.6110, 3840.098
902.7380, 4250.922
903.8660, 4415.748
904.9930, 4889.574
906.1200, 5155.400
907.2460, 5324.224
908.3730, 5678.047
909.5000, 6146.865
910.6260, 6300.682
911.7520, 6597.490
912.8780, 6787.296
914.0040, 7100.108
915.1290, 7444.913
916.2550, 7672.714
917.3800, 8152.518
918.5050, 8706.317
919.6300, 9152.139
920.7550, 9860.950
921.8800, 10626.56
923.0040, 11593.61
924.1290, 12422.45
925.2530, 13411.30
926.3770, 14450.16
927.5010, 15153.02
928.6250, 16069.92
929.7480, 16961.84
930.8720, 17579.79
931.9950, 18258.77
933.1180, 18263.78
934.2410, 18596.83
935.3640, 18827.91
936.4860, 18393.04
937.6090, 18224.23
938.7310, 17543.47
939.8530, 17011.72
940.9750, 16578.99
942.0970, 15711.30
943.2180, 14820.65
944.3400, 14319.08
945.4610, 13720.58
946.5820, 12835.15
947.7030, 12230.79
948.8240, 11558.48
949.9450, 10756.20
951.0650, 10257.97
952.1860, 9497.790
953.3060, 8820.645
954.4260, 8024.543
955.5460, 7635.502
956.6650, 7251.504
957.7850, 7061.542
958.9040, 6703.595
960.0230, 6606.648
961.1420, 6566.742
962.2610, 6400.830
963.3800, 6467.952
964.4990, 6496.081
965.6170, 6635.205
966.7350, 6687.318
967.8530, 6786.420
968.9710, 6993.513
970.0890, 7059.607
971.2070, 7243.136
972.3240, 7501.783
973.4410, 7557.855
974.5580, 7718.918
975.6750, 7845.971
976.7920, 8027.008
977.9090, 8171.033
979.0250, 8332.045
980.1410, 8605.041
981.2580, 8684.027
982.3740, 8898.001
983.4890, 9078.963
984.6050, 9658.979
985.7200, 9953.633
986.8360, 10465.28
987.9510, 10933.50
989.0660, 11192.42
990.1810, 11982.38
991.2950, 12415.30
992.4100, 13177.34
993.5240, 13588.06
994.6390, 14287.77
995.7530, 14670.44
996.8660, 15053.38
997.9800, 15645.39
999.0940, 15919.14
1000.207, 15802.06
1001.320, 16112.72
1002.433, 16313.72
1003.546, 16149.37
1004.659, 16452.14
1005.772, 16343.80
1006.884, 16077.59
1007.996, 16224.10
1009.108, 16042.56
1010.220, 15903.05
1011.332, 15877.93
1012.444, 15686.60
1013.555, 15591.39
1014.666, 15505.00
1015.777, 15528.94
1016.888, 15207.21
1017.999, 15126.98
1019.110, 15020.80
1020.220, 14738.69
1021.331, 14790.64
1022.441, 14398.64
1023.551, 14307.71
1024.661, 14248.83
1025.770, 14122.02
1026.880, 13849.27
1027.989, 13703.59
1029.098, 13574.97
1030.207, 13188.41
1031.316, 13001.65
1032.425, 12614.36
1033.533, 12428.98
1034.642, 11852.87
1035.750, 11682.61
1036.858, 11273.42
1037.966, 10815.28
1039.073, 10680.20
1040.181, 10229.18
1041.288, 9931.231
1042.396, 9673.335
1043.503, 9399.502
1044.610, 9253.725
1045.716, 9077.007
1046.823, 9214.462
1047.929, 9431.866
1049.036, 9504.333
1050.142, 9696.480
1051.248, 10099.06
1052.353, 10512.41
1053.459, 11040.10
1054.564, 11420.66
1055.670, 12100.63
1056.775, 12913.95
1057.880, 13608.21
1058.985, 14662.50
1060.089, 15751.33
1061.194, 17074.27
1062.298, 18269.60
1063.402, 19933.25
1064.506, 21727.73
1065.610, 23962.17
1066.713, 26084.35
1067.817, 27920.62
1068.920, 28094.78
1070.023, 27685.73
1071.126, 27337.22
1072.229, 26950.33
1073.332, 26280.93
1074.435, 25407.28
1075.537, 24526.44
1076.639, 23837.42
1077.741, 22698.56
1078.843, 21693.12
1079.945, 20494.90
1081.046, 19697.41
1082.148, 19044.77
1083.249, 18204.75
1084.350, 17663.23
1085.451, 17236.69
1086.551, 16891.39
1087.652, 16840.39
1088.752, 16461.38
1089.853, 16303.57
1090.953, 15925.96
1092.053, 15784.21
1093.152, 15600.65
1094.252, 14896.79
1095.351, 14782.12
1096.451, 14061.64
1097.550, 13555.97
1098.649, 12924.81
1099.748, 12098.57
1100.846, 10993.79
1101.945, 10278.11
1103.043, 9449.030
1104.141, 8072.477
1105.239, 7427.217
1106.337, 6758.594
1107.434, 5990.451
1108.532, 5452.202
1109.629, 4865.274
1110.726, 4350.076
1111.823, 3846.905
1112.920, 3743.080
1114.017, 3472.959
1115.113, 3350.843
1116.210, 3101.877
1117.306, 3066.955
1118.402, 2913.902
1119.498, 2690.417
1120.593, 2784.802
1121.689, 2647.699
1122.784, 2503.352
1123.879, 2493.287
1124.974, 2416.039
1126.069, 2242.275
1127.164, 2113.933
1128.259, 2051.830
1129.353, 1870.681
1130.447, 1779.061
1131.541, 1862.328
1132.635, 1651.133
1133.729, 1501.143
1134.822, 1606.200
1135.916, 1397.574
1137.009, 1391.831
1138.102, 1337.579
1139.195, 1358.417
1140.288, 1154.367
1141.380, 1093.841
1142.473, 957.3320
1143.565, 758.8564
1144.657, 907.7266
1145.749, 728.4512
1146.841, 681.5205
1147.932, 587.6748
1149.024, 456.1436
1150.115, 494.5801
1151.206, 263.8145
1152.297, 187.1152
1153.388, 301.4805
1154.479, 228.0791
1155.569, 90.95703
1156.659, 90.33887
1157.750, 54.52832
1158.839, 93.43652
1159.929, 105.4150
1161.019, 93.41016
1162.108, 41.62012
1163.198, 2.091797
1164.287, 144.1162
1165.376, 7.555664
1166.465, 157.8574
1167.553, 31.97461
1168.642, 88.00488
1169.730, 149.0557
1170.818, 108.7256
1171.906, 160.3799
1172.994, 152.2109
1174.082, 152.9570
1175.170, 96.25977
1176.257, 126.0703
1177.344, 68.86133
1178.431, 172.5391
1179.518, 28.62988
1180.605, 50.95508
1181.691, 20.18750
1182.778, 126.6113
1183.864, 26.40625
1184.950, 66.57422
1186.036, 73.43164
1187.122, 51.31543
1188.207, 68.03809
1189.292, 26.05859
1190.378, 52.31348
1191.463, 134.4336
1192.548, 104.3672
1193.632, 120.7637
1194.717, 177.4463
1195.801, 60.90332
1196.886, 147.9443
1197.970, 144.9678
1199.054, 202.6484
1200.137, 195.0732
1201.221, 183.6289
1202.305, 30.22461
1203.388, 65.80859
1204.471, 121.3887
1205.554, 162.4219
1206.637, 267.0127
1207.719, 249.9248
1208.802, 221.1025
1209.884, 252.7871
1210.966, 165.3418
1212.048, 80.02148
1213.130, 134.1924
1214.212, 170.8242
1215.293, 87.38477
1216.374, 136.0439
1217.456, 185.2002
1218.536, 118.2959
1219.617, 102.8799
1220.698, 8.623047
1221.778, 31.22168
1222.859, 98.14453
1223.939, 95.46484
1225.019, 74.97070
1226.099, 20.56055
1227.178, 103.7090
1228.258, 135.8779
1229.337, 155.9404
1230.417, 125.8076
1231.496, 60.61914
1232.574, 105.3555
1233.653, 91.82520
1234.732, 221.6318
1235.810, 146.2920
1236.888, 217.0410
1237.966, 271.0889
1239.044, 191.2275
1240.122, 316.5146
1241.199, 278.7549
1242.277, 203.6123
1243.354, 303.4258
1244.431, 164.1055
1245.508, 274.6641
1246.585, 281.1123
1247.661, 181.4482
1248.738, 230.6504
1249.814, 307.8984
1250.890, 239.0254
1251.966, 148.3926
1253.042, 379.7852
1254.117, 233.3262
1255.193, 128.3945
1256.268, 216.5879
1257.343, 225.5811
1258.418, 148.6191
1259.493, 243.8203
1260.567, 293.2100
1261.642, 261.5928
1262.716, 274.8770
1263.790, 320.8887
1264.864, 315.9111
1265.938, 486.7676
1267.011, 359.7441
1268.085, 394.6895
1269.158, 427.5928
1270.231, 343.3066
1271.304, 386.9062
1272.377, 418.9775
1273.450, 374.5469
1274.522, 446.7119
1275.594, 395.3965
1276.666, 397.7803
1277.738, 343.3779
1278.810, 355.5889
1279.882, 426.0508
1280.953, 417.7500
