##NAMES=Eudialyte
##RRUFFID=R050230
##IDEAL CHEMISTRY=Na_15_Ca_6_Fe^2+^_3_Zr^4+^_3_Si(Si_25_O_73_)(O,OH,H_2_O)_3_(Cl,OH)_2_
##LOCALITY=Kipawa alkaline complex, near Sheffield Lake, Villedieu Township, Temiscamingue County, Quebec, Canada
##OWNER=RRUFF
##SOURCE=Marcus Origlieri
##DESCRIPTION=Massive aggregate of red crystals
##STATUS=The identification of this mineral has been confirmed by X-ray diffraction and chemical analysis
##URL=rruff.info/R050230
##MEASURED CHEMISTRY=(Na_14.50_K_0.35_Ca_0.15_)_Σ=15_Ca_6.00_(Fe_1.86_Mn_1.01_Mg_0.13_)_Σ=3_(Zr_2.91_Ti_0.09_)_3_(Si_0.94_Nb_0.06_)_Σ=1.00_(Si_25.00_O_73_)(OH)_1.10_(H_2_O)_1.90_)_Σ=3_(Cl_1.17_(OH)_0.83_)_Σ=2_
##PIN_ID=M00392
##ORIENTATION=Laser parallel to c* (0 0 1). Fiducial mark perpendicular to laser is parallel to -a [-1 0 0]
118.1340, 0.0000000E+00
119.3650, 109.8691
120.5960, 274.1562
121.8270, 275.8691
123.0580, 395.4980
124.2880, 470.7363
125.5190, 211.3223
126.7490, 55.33594
127.9790, 154.5742
129.2090, 420.8945
130.4390, 499.2363
131.6680, 739.8828
132.8980, 1052.434
134.1270, 1246.770
135.3560, 1792.965
136.5850, 2291.234
137.8140, 2993.877
139.0430, 3771.227
140.2710, 4241.676
141.5000, 4553.695
142.7280, 4469.812
143.9560, 4385.629
145.1840, 3933.824
146.4120, 3305.160
147.6390, 2774.449
148.8670, 2955.523
150.0940, 2524.211
151.3210, 2683.342
152.5490, 2638.727
153.7750, 2606.195
155.0020, 2756.568
156.2290, 3019.607
157.4550, 3017.053
158.6810, 3470.693
159.9080, 3828.365
161.1340, 4159.932
162.3590, 4363.273
163.5850, 4453.289
164.8110, 4506.893
166.0360, 4045.016
167.2610, 3813.598
168.4860, 3783.617
169.7110, 3307.107
170.9360, 3250.160
172.1610, 2545.859
173.3850, 2552.266
174.6100, 2060.422
175.8340, 1951.338
177.0580, 2421.982
178.2820, 2126.295
179.5050, 2510.172
180.7290, 2774.516
181.9520, 3227.227
183.1760, 3720.207
184.3990, 4427.998
185.6220, 5473.658
186.8450, 6125.973
188.0670, 7113.250
189.2900, 8110.719
190.5120, 9000.965
191.7340, 10399.00
192.9560, 11184.47
194.1780, 12355.78
195.4000, 13884.97
196.6220, 14919.14
197.8430, 16007.43
199.0640, 17354.89
200.2860, 18921.56
201.5070, 20109.48
202.7270, 21049.66
203.9480, 21828.12
205.1690, 22531.89
206.3890, 23260.98
207.6090, 23999.38
208.8290, 23894.15
210.0490, 24293.32
211.2690, 23891.90
212.4890, 23660.94
213.7080, 22941.43
214.9280, 22241.42
216.1470, 21295.96
217.3660, 20395.22
218.5850, 18960.73
219.8030, 17920.82
221.0220, 16386.65
222.2400, 15073.40
223.4590, 13725.20
224.6770, 12071.97
225.8950, 10557.69
227.1120, 9318.230
228.3300, 7903.434
229.5480, 6932.146
230.7650, 5711.195
231.9820, 4997.457
233.1990, 3898.766
234.4160, 3303.852
235.6330, 2534.381
236.8490, 2241.092
238.0660, 1873.832
239.2820, 1617.490
240.4980, 1524.725
241.7140, 1714.393
242.9300, 1556.551
244.1460, 1810.486
245.3610, 2098.201
246.5770, 2346.688
247.7920, 2615.445
249.0070, 2878.992
250.2220, 3147.799
251.4370, 3506.375
252.6510, 3793.711
253.8660, 4029.809
255.0800, 4040.668
256.2940, 4083.283
257.5080, 4556.650
258.7220, 4460.135
259.9360, 4554.930
261.1490, 4483.238
262.3630, 4507.592
263.5760, 4326.684
264.7890, 4253.984
266.0020, 4482.438
267.2150, 4240.039
268.4270, 4460.926
269.6400, 4802.666
270.8520, 4810.939
272.0640, 5064.438
273.2760, 5249.672
274.4880, 5391.871
275.7000, 5799.965
276.9120, 5911.881
278.1230, 6067.561
279.3340, 6440.951
280.5450, 6552.008
281.7560, 7158.684
282.9670, 7176.945
284.1780, 7477.750
285.3880, 7879.068
286.5980, 7879.871
287.8090, 8416.133
289.0190, 8680.828
290.2290, 8996.926
291.4380, 9333.414
292.6480, 9374.266
293.8570, 9553.467
295.0670, 9878.994
296.2760, 10465.13
297.4850, 10558.28
298.6930, 10881.26
299.9020, 11112.02
301.1110, 11220.06
302.3190, 11658.50
303.5270, 11704.66
304.7350, 11907.64
305.9430, 12133.47
307.1510, 12479.46
308.3580, 12836.41
309.5660, 13212.75
310.7730, 13642.79
311.9800, 14237.79
313.1870, 14865.33
314.3940, 15370.12
315.6010, 16016.41
316.8070, 16354.86
318.0130, 16733.58
319.2200, 17179.58
320.4260, 16812.86
321.6310, 17128.46
322.8370, 16852.67
324.0430, 16759.34
325.2480, 17212.91
326.4540, 17010.44
327.6590, 17322.09
328.8640, 17868.53
330.0680, 18701.30
331.2730, 19166.68
332.4780, 20131.33
333.6820, 21049.23
334.8860, 21595.79
336.0900, 21733.79
337.2940, 21833.69
338.4980, 21449.41
339.7010, 21190.54
340.9050, 20148.46
342.1080, 18909.79
343.3110, 17854.44
344.5140, 16617.85
345.7170, 15560.60
346.9200, 14729.61
348.1220, 13718.34
349.3240, 13013.45
350.5270, 12371.40
351.7290, 11820.74
352.9310, 11389.65
354.1320, 11071.26
355.3340, 10820.36
356.5350, 10718.75
357.7370, 10231.82
358.9380, 10102.34
360.1390, 9820.070
361.3400, 9340.336
362.5400, 9196.293
363.7410, 8666.740
364.9410, 8315.549
366.1410, 7645.623
367.3410, 7720.529
368.5410, 7265.260
369.7410, 6736.805
370.9400, 6377.152
372.1400, 6096.297
373.3390, 5624.227
374.5380, 5638.938
375.7370, 5302.418
376.9360, 5177.666
378.1350, 5047.672
379.3330, 4672.434
380.5310, 4813.945
381.7300, 4675.207
382.9280, 4837.215
384.1260, 4863.973
385.3230, 4898.473
386.5210, 4876.723
387.7180, 5021.717
388.9160, 5097.459
390.1130, 5140.947
391.3100, 5366.179
392.5060, 5370.157
393.7030, 5399.882
394.9000, 5642.353
396.0960, 5588.572
397.2920, 5563.535
398.4880, 5742.243
399.6840, 5591.700
400.8800, 5587.899
402.0750, 5432.848
403.2710, 5335.541
404.4660, 5323.984
405.6610, 5225.171
406.8560, 5098.106
408.0510, 5037.790
409.2450, 4900.324
410.4400, 4905.713
411.6340, 4864.960
412.8280, 4528.080
414.0220, 4499.049
415.2160, 4203.861
416.4100, 4158.550
417.6030, 3856.070
418.7970, 3804.416
419.9900, 3599.584
421.1830, 3345.567
422.3760, 3297.363
423.5690, 3228.969
424.7610, 2849.379
425.9540, 2546.592
427.1460, 2772.604
428.3380, 2476.410
429.5300, 2475.013
430.7220, 2410.406
431.9140, 2151.588
433.1050, 2141.558
434.2970, 1912.313
435.4880, 1948.854
436.6790, 1884.176
437.8700, 1837.279
439.0610, 1699.162
440.2510, 1544.818
441.4420, 1427.243
442.6320, 1317.430
443.8220, 1088.374
445.0120, 1064.064
446.2020, 956.5000
447.3910, 828.6748
448.5810, 926.5850
449.7700, 708.2324
450.9600, 538.6084
452.1490, 522.7021
453.3370, 239.5137
454.5260, 268.0186
455.7150, 167.2168
456.9030, 171.0947
458.0910, 202.3477
459.2800, 325.3027
460.4670, 338.8369
461.6550, 543.9590
462.8430, 669.7803
464.0300, 637.3711
465.2180, 721.7158
466.4050, 787.8604
467.5920, 988.8438
468.7790, 952.7734
469.9650, 839.6299
471.1520, 1008.356
472.3380, 852.0430
473.5250, 1050.610
474.7110, 878.1631
475.8970, 944.6113
477.0820, 842.9922
478.2680, 881.2549
479.4540, 736.4180
480.6390, 797.4082
481.8240, 725.2568
483.0090, 626.9277
484.1940, 698.3691
485.3780, 593.6172
486.5630, 559.6211
487.7470, 519.3584
488.9320, 493.8105
490.1160, 300.9629
491.3000, 277.7129
492.4830, 87.04980
493.6670, 0.8710940
494.8500, 88.86816
496.0340, 123.2178
497.2170, 245.1953
498.4000, 470.8359
499.5820, 745.1650
500.7650, 847.2051
501.9480, 1003.959
503.1300, 1321.434
504.3120, 1599.641
505.4940, 1923.588
506.6760, 2039.288
507.8580, 2333.747
509.0390, 2516.971
510.2210, 2794.959
511.4020, 3131.710
512.5830, 3356.229
513.7640, 3645.511
514.9450, 3777.560
516.1250, 4221.375
517.3060, 4282.959
518.4860, 4547.309
519.6660, 4628.428
520.8460, 5008.316
522.0260, 5091.973
523.2060, 5449.402
524.3850, 5694.600
525.5650, 5914.571
526.7440, 5969.313
527.9230, 6409.830
529.1020, 6687.121
530.2810, 7126.184
531.4590, 7482.021
532.6380, 8132.637
533.8160, 8695.028
534.9940, 9543.196
536.1720, 10524.14
537.3500, 11593.87
538.5270, 12651.37
539.7050, 13825.97
540.8820, 14911.71
542.0590, 16272.56
543.2360, 17199.19
544.4130, 18442.59
545.5900, 19547.78
546.7660, 21051.76
547.9430, 22562.53
549.1190, 24177.09
550.2950, 25791.45
551.4710, 27558.59
552.6470, 29468.53
553.8220, 31336.28
554.9980, 33003.82
556.1730, 34092.17
557.3480, 35047.35
558.5230, 35657.34
559.6980, 36123.20
560.8730, 36178.93
562.0470, 36425.52
563.2220, 37260.01
564.3960, 38092.39
565.5700, 39222.69
566.7440, 40087.91
567.9170, 40193.09
569.0910, 39796.35
570.2640, 39216.33
571.4380, 37318.43
572.6110, 35092.51
573.7840, 32403.62
574.9570, 29469.78
576.1290, 26307.96
577.3020, 23056.18
578.4740, 20309.44
579.6460, 17898.73
580.8180, 15647.76
581.9900, 13830.76
583.1620, 12261.09
584.3330, 10950.59
585.5040, 9950.127
586.6760, 9118.563
587.8470, 8526.783
589.0180, 8267.077
590.1880, 7966.045
591.3590, 8041.123
592.5290, 8198.520
593.7000, 8488.796
594.8700, 8801.597
596.0400, 9297.638
597.2090, 9729.331
598.3790, 10676.95
599.5490, 10982.20
600.7180, 11559.43
601.8870, 11978.52
603.0560, 12368.42
604.2250, 12636.16
605.3940, 12604.67
606.5620, 12630.81
607.7300, 12430.32
608.8990, 12137.08
610.0670, 11784.98
611.2350, 11170.77
612.4020, 10761.78
613.5700, 10039.39
614.7370, 9402.357
615.9050, 9123.908
617.0720, 8624.062
618.2390, 8155.370
619.4060, 8118.063
620.5720, 7969.659
621.7390, 8006.260
622.9050, 8355.238
624.0710, 8349.262
625.2370, 8478.690
626.4030, 8683.597
627.5690, 8648.561
628.7340, 8684.994
629.9000, 8696.985
631.0650, 8465.046
632.2300, 8136.549
633.3950, 8242.010
634.5600, 7672.876
635.7240, 7516.984
636.8890, 7468.182
638.0530, 7242.682
639.2170, 7118.688
640.3810, 7205.793
641.5450, 7043.240
642.7080, 6998.257
643.8720, 6938.517
645.0350, 7030.855
646.1980, 7121.463
647.3610, 7342.471
648.5240, 7445.960
649.6870, 7509.352
650.8490, 7845.645
652.0120, 8202.843
653.1740, 8331.939
654.3360, 9021.939
655.4980, 9180.841
656.6600, 9857.641
657.8210, 10224.35
658.9830, 10601.95
660.1440, 11424.45
661.3050, 11934.85
662.4660, 12352.16
663.6270, 13077.36
664.7870, 13451.45
665.9480, 14016.45
667.1080, 14527.35
668.2680, 15273.14
669.4280, 15741.83
670.5880, 16463.41
671.7480, 17077.89
672.9070, 17492.27
674.0670, 18202.55
675.2260, 18620.71
676.3850, 19199.78
677.5440, 20172.73
678.7030, 20396.58
679.8610, 20880.33
681.0200, 21594.97
682.1780, 21845.50
683.3360, 22559.92
684.4940, 23045.40
685.6520, 23416.03
686.8090, 24225.29
687.9670, 24580.04
689.1240, 24994.59
690.2810, 25496.21
691.4380, 25971.81
692.5950, 26593.13
693.7520, 27100.49
694.9080, 27725.60
696.0650, 28421.53
697.2210, 28896.88
698.3770, 29528.05
699.5330, 29575.81
700.6880, 30069.47
701.8440, 30131.13
702.9990, 29830.52
704.1550, 29372.68
705.3100, 28694.99
706.4650, 28036.96
707.6190, 26859.19
708.7740, 25535.50
709.9290, 24333.05
711.0830, 22787.92
712.2370, 21689.56
713.3910, 20052.66
714.5450, 18851.11
715.6980, 17952.89
716.8520, 17426.66
718.0050, 16744.47
719.1580, 16272.08
720.3110, 15984.84
721.4640, 15818.86
722.6170, 15941.16
723.7700, 15928.73
724.9220, 16367.34
726.0740, 16778.64
727.2260, 17407.60
728.3780, 17519.81
729.5300, 18343.95
730.6810, 18858.94
731.8330, 19613.76
732.9840, 20324.40
734.1350, 21144.41
735.2860, 21730.24
736.4370, 22337.62
737.5880, 22834.26
738.7380, 23334.25
739.8880, 23694.58
741.0390, 23913.88
742.1890, 24053.84
743.3380, 24062.48
744.4880, 24048.20
745.6380, 23858.62
746.7870, 23582.74
747.9360, 23043.10
749.0850, 22638.79
750.2340, 22384.42
751.3830, 21607.26
752.5310, 21254.70
753.6800, 20702.94
754.8280, 20274.97
755.9760, 19906.07
757.1240, 19645.22
758.2720, 19055.43
759.4190, 18775.65
760.5670, 18043.91
761.7140, 18152.19
762.8610, 17834.45
764.0080, 17270.72
765.1550, 16653.98
766.3020, 16562.20
767.4480, 15678.37
768.5950, 15628.51
769.7410, 15176.54
770.8870, 14331.46
772.0330, 14206.23
773.1780, 13618.82
774.3240, 13193.19
775.4690, 12766.35
776.6140, 12625.28
777.7590, 11945.97
778.9040, 11720.39
780.0490, 11213.56
781.1940, 11114.46
782.3380, 10781.09
783.4820, 10366.45
784.6260, 10221.53
785.7700, 9666.322
786.9140, 9022.831
788.0580, 8595.051
789.2010, 8059.389
790.3450, 7770.631
791.4880, 7146.993
792.6310, 6817.064
793.7730, 6438.850
794.9160, 5936.344
796.0590, 5491.553
797.2010, 5226.473
798.3430, 4702.105
799.4850, 4463.448
800.6270, 4095.503
801.7690, 3661.270
802.9100, 3504.750
804.0520, 3264.939
805.1930, 3187.842
806.3340, 2890.455
807.4750, 2900.780
808.6160, 2665.817
809.7560, 2559.566
810.8970, 2240.027
812.0370, 2331.201
813.1770, 1988.087
814.3170, 2145.685
815.4570, 1980.995
816.5960, 1945.021
817.7360, 1824.758
818.8750, 1690.209
820.0140, 1668.374
821.1530, 1511.253
822.2920, 1435.845
823.4310, 1243.145
824.5690, 1329.147
825.7070, 1093.857
826.8460, 1040.269
827.9840, 954.3779
829.1220, 835.1846
830.2590, 674.6855
831.3970, 755.8584
832.5340, 518.7217
833.6710, 421.2295
834.8080, 385.3594
835.9450, 162.1016
837.0820, 220.3740
838.2190, 128.2061
839.3550, 88.55957
840.4910, 19.41797
841.6270, 37.90430
842.7630, 119.4814
843.8990, 131.3047
845.0350, 283.7246
846.1700, 311.8184
847.3060, 245.5957
848.4410, 426.0195
849.5760, 522.1768
850.7100, 489.1172
851.8450, 440.8164
852.9800, 546.2441
854.1140, 509.4502
855.2480, 501.4111
856.3820, 722.1152
857.5160, 737.6738
858.6500, 754.0879
859.7830, 643.3623
860.9170, 672.4297
862.0500, 760.2988
863.1830, 816.0107
864.3160, 881.5850
865.4480, 799.0498
866.5810, 811.3555
867.7130, 887.4980
868.8460, 740.5127
869.9780, 698.3096
871.1100, 697.8604
872.2410, 642.1553
873.3730, 578.1572
874.5050, 634.8242
875.6360, 591.7441
876.7670, 598.1768
877.8980, 624.8271
879.0290, 610.1309
880.1590, 690.0684
881.2900, 732.6748
882.4200, 694.9619
883.5500, 697.9014
884.6800, 540.4834
885.8100, 485.6162
886.9400, 400.2617
888.0690, 374.3701
889.1990, 46.91797
890.3280, 74.74512
891.4570, 169.1445
892.5860, 172.8252
893.7140, 393.2979
894.8430, 701.5654
895.9710, 1001.629
897.1000, 1126.488
898.2280, 1426.148
899.3560, 1679.609
900.4830, 1982.874
901.6110, 2148.943
902.7380, 2567.820
903.8660, 2691.506
904.9930, 2933.004
906.1200, 3355.315
907.2460, 3568.443
908.3730, 3728.390
909.5000, 4191.160
910.6260, 4468.751
911.7520, 4679.173
912.8780, 5319.426
914.0040, 5620.514
915.1290, 6236.438
916.2550, 6756.203
917.3800, 7188.814
918.5050, 7578.273
919.6300, 8178.581
920.7550, 8626.747
921.8800, 9030.771
923.0040, 9475.652
924.1290, 9594.402
925.2530, 10000.02
926.3770, 9984.518
927.5010, 10211.88
928.6250, 10191.14
929.7480, 10052.27
930.8720, 9798.290
931.9950, 9719.204
933.1180, 9256.011
934.2410, 8822.718
935.3640, 8431.325
936.4860, 7997.843
937.6090, 7398.270
938.7310, 7312.609
939.8530, 6605.869
940.9750, 6284.051
942.0970, 6099.158
943.2180, 5586.197
944.3400, 5568.168
945.4610, 5183.078
946.5820, 4976.930
947.7030, 4941.730
948.8240, 4834.477
949.9450, 4645.430
951.0650, 4282.840
952.1860, 4246.465
953.3060, 4142.055
954.4260, 3857.615
955.5460, 3952.150
956.6650, 3878.508
957.7850, 3589.586
958.9040, 3815.900
960.0230, 3190.627
961.1420, 3188.422
962.2610, 3314.051
963.3800, 3164.387
964.4990, 3154.297
965.6170, 2987.881
966.7350, 3098.613
967.8530, 3010.436
968.9710, 2952.750
970.0890, 2938.174
971.2070, 3033.910
972.3240, 3160.693
973.4410, 3182.396
974.5580, 3315.303
975.6750, 3603.381
976.7920, 3638.848
977.9090, 3818.307
979.0250, 3927.250
980.1410, 4099.975
981.2580, 4361.406
982.3740, 4591.488
983.4890, 4815.758
984.6050, 4997.535
985.7200, 5172.957
986.8360, 5379.260
987.9510, 5511.914
989.0660, 5759.041
990.1810, 5860.219
991.2950, 6038.238
992.4100, 6358.008
993.5240, 6271.506
994.6390, 6429.738
995.7530, 6390.965
996.8660, 6247.520
997.9800, 6429.451
999.0940, 6280.174
1000.207, 6299.014
1001.320, 6021.051
1002.433, 5658.309
1003.546, 5425.818
1004.659, 5162.037
1005.772, 5112.373
1006.884, 5121.316
1007.996, 4647.418
1009.108, 4657.127
1010.220, 4101.734
1011.332, 4116.150
1012.444, 3844.133
1013.555, 3868.307
1014.666, 3533.750
1015.777, 3720.836
1016.888, 3589.629
1017.999, 3447.604
1019.110, 3266.693
1020.220, 3262.736
1021.331, 3390.068
1022.441, 3233.691
1023.551, 3391.994
1024.661, 3360.947
1025.770, 3557.283
1026.880, 3525.006
1027.989, 3722.115
1029.098, 3645.615
1030.207, 3589.512
1031.316, 4137.803
1032.425, 4126.496
1033.533, 4072.594
1034.642, 4190.102
1035.750, 4277.023
1036.858, 4659.365
1037.966, 5021.137
1039.073, 4967.340
1040.181, 5440.977
1041.288, 5307.057
1042.396, 5903.582
1043.503, 5981.561
1044.610, 6521.996
1045.716, 6745.889
1046.823, 7204.250
1047.929, 7314.074
1049.036, 7941.373
1050.142, 8152.158
1051.248, 8789.424
1052.353, 9461.166
1053.459, 10111.41
1054.564, 10661.13
1055.670, 11745.35
1056.775, 12437.07
1057.880, 13610.28
1058.985, 14658.98
1060.089, 16281.21
1061.194, 18147.94
1062.298, 19700.19
1063.402, 20947.95
1064.506, 22448.23
1065.610, 23344.04
1066.713, 23630.39
1067.817, 23559.31
1068.920, 23399.77
1070.023, 23087.79
1071.126, 22590.34
1072.229, 22496.46
1073.332, 22439.15
1074.435, 22739.39
1075.537, 23453.21
1076.639, 24186.60
1077.741, 24921.57
1078.843, 26005.11
1079.945, 26609.24
1081.046, 27565.99
1082.148, 28092.31
1083.249, 29043.26
1084.350, 29120.77
1085.451, 29743.88
1086.551, 30225.61
1087.652, 30447.95
1088.752, 30496.88
1089.853, 30741.49
1090.953, 30638.73
1092.053, 30789.62
1093.152, 30297.10
1094.252, 29763.23
1095.351, 29596.06
1096.451, 28610.57
1097.550, 27867.79
1098.649, 26722.71
1099.748, 26264.31
1100.846, 25162.62
1101.945, 24163.62
1103.043, 23411.35
1104.141, 22693.83
1105.239, 22154.07
1106.337, 21334.13
1107.434, 20543.95
1108.532, 19820.57
1109.629, 19365.04
1110.726, 18859.31
1111.823, 18360.41
1112.920, 17685.37
1114.017, 17367.20
1115.113, 16882.83
1116.210, 16677.39
1117.306, 16439.84
1118.402, 15921.17
1119.498, 15692.39
1120.593, 15133.52
1121.689, 15524.54
1122.784, 15688.47
1123.879, 15607.39
1124.974, 15396.26
1126.069, 15345.15
1127.164, 14935.96
1128.259, 15120.76
1129.353, 14622.59
1130.447, 14421.39
1131.541, 13124.23
1132.635, 12838.06
1133.729, 11932.83
1134.822, 10815.60
1135.916, 9792.340
1137.009, 8593.004
1138.102, 7516.582
1139.195, 6404.027
1140.288, 5441.357
1141.380, 4646.561
1142.473, 3818.609
1143.565, 3397.508
1144.657, 2675.242
1145.749, 2300.801
1146.841, 2027.172
1147.932, 2135.355
1149.024, 2155.301
1150.115, 2146.990
1151.206, 2553.375
1152.297, 2556.422
1153.388, 3094.092
1154.479, 3760.367
1155.569, 4496.176
1156.659, 4694.500
1157.750, 5454.289
1158.839, 5927.535
1159.929, 6812.213
1161.019, 7485.314
1162.108, 8420.836
1163.198, 9110.770
1164.287, 9840.123
1165.376, 10705.82
1166.465, 11626.97
1167.553, 11902.66
1168.642, 12585.74
1169.730, 12960.24
1170.818, 12951.32
1171.906, 13093.66
1172.994, 13116.39
1174.082, 12904.02
1175.170, 12882.20
1176.257, 12495.48
1177.344, 12062.45
1178.431, 11028.49
1179.518, 10730.96
1180.605, 10128.47
1181.691, 9617.613
1182.778, 9063.469
1183.864, 8573.598
1184.950, 8173.354
1186.036, 7577.625
1187.122, 6977.812
1188.207, 6800.131
1189.292, 6315.125
1190.378, 6221.906
1191.463, 5801.090
1192.548, 5349.766
1193.632, 5275.223
1194.717, 4886.578
1195.801, 4294.150
1196.886, 4503.094
1197.970, 3916.506
1199.054, 3506.650
1200.137, 3229.133
1201.221, 2827.283
1202.305, 2504.262
1203.388, 2393.857
1204.471, 1961.652
1205.554, 2100.650
1206.637, 1516.316
1207.719, 1128.686
1208.802, 1211.898
1209.884, 973.2988
1210.966, 931.5996
1212.048, 890.5488
1213.130, 953.2441
1214.212, 1081.934
1215.293, 1312.422
1216.374, 1571.121
1217.456, 1794.621
1218.536, 1973.889
1219.617, 2303.354
1220.698, 2740.133
1221.778, 3181.541
1222.859, 3616.584
1223.939, 4060.027
1225.019, 4463.797
1226.099, 4904.582
1227.178, 5224.424
1228.258, 5492.516
1229.337, 5978.850
1230.417, 6242.629
1231.496, 6456.652
1232.574, 6795.732
1233.653, 6812.133
1234.732, 6865.680
1235.810, 7095.695
1236.888, 6879.133
1237.966, 6925.637
1239.044, 6745.449
1240.122, 6648.039
1241.199, 6471.883
1242.277, 6320.672
1243.354, 6011.234
1244.431, 5765.184
1245.508, 5494.852
1246.585, 5306.568
1247.661, 5061.322
1248.738, 4916.578
1249.814, 4677.262
1250.890, 4544.369
1251.966, 4442.520
1253.042, 4391.932
1254.117, 4516.254
1255.193, 4477.146
1256.268, 4581.533
1257.343, 4823.859
1258.418, 4780.732
1259.493, 5210.031
1260.567, 5356.273
1261.642, 5503.568
1262.716, 5433.182
1263.790, 5624.768
1264.864, 5827.068
1265.938, 5572.617
1267.011, 5689.754
1268.085, 5549.164
1269.158, 5383.215
1270.231, 5025.805
1271.304, 5004.711
1272.377, 4686.174
1273.450, 4570.047
1274.522, 4112.902
1275.594, 3949.762
1276.666, 3488.574
1277.738, 3468.314
1278.810, 3059.209
1279.882, 2804.779
1280.953, 2608.854
