##NAMES=Eudialyte
##RRUFFID=R060035
##IDEAL CHEMISTRY=Na_15_Ca_6_Fe^2+^_3_Zr^4+^_3_Si(Si_25_O_73_)(O,OH,H_2_O)_3_(Cl,OH)_2_
##LOCALITY=Chibini, Kola Peninsula, Russia
##OWNER=RRUFF
##SOURCE=University of Arizona Mineral Museum
##DESCRIPTION=Deep pink coarsely crystalline
##STATUS=The identification of this mineral has been confirmed by X-ray diffraction and chemical analysis
##URL=rruff.info/R060035
##MEASURED CHEMISTRY=(Na_14.86_K_0.14_)_Σ=15_Ca_6.00_(Fe_1.52_Mn_1.48_)_Σ=3_(Zr_2.82_Ti_0.18_)_Σ=3_(Si_0.93_Nb_0.07_)_Σ=1_(Si_25.00_O_73_)((OH)_1.01_(H_2_O)_1.99_)_Σ=3_(Cl_1.65_(OH)_0.35_)_Σ=2_
##PIN_ID=M00465
##ORIENTATION=Laser parallel to a* (1 0 0). Fiducial mark perpendicular to laser is parallel to c [0 0 1]
118.1340, 0.0000000E+00
119.3650, 113.9531
120.5960, 93.66602
121.8270, 134.2871
123.0580, 44.22461
124.2880, 19.39453
125.5190, 63.17773
126.7490, 107.7754
127.9790, 326.5312
129.2090, 579.3242
130.4390, 686.5137
131.6680, 771.5586
132.8980, 1097.016
134.1270, 1211.541
135.3560, 1623.889
136.5850, 1771.822
137.8140, 2323.104
139.0430, 2212.506
140.2710, 2353.834
141.5000, 2344.914
142.7280, 2252.594
143.9560, 2001.746
145.1840, 2027.258
146.4120, 1860.064
147.6390, 1827.115
148.8670, 1319.359
150.0940, 1127.811
151.3210, 1132.637
152.5490, 839.5977
153.7750, 1020.488
155.0020, 549.2598
156.2290, 635.8379
157.4550, 454.1504
158.6810, 489.1309
159.9080, 536.7344
161.1340, 582.9238
162.3590, 578.6602
163.5850, 976.9199
164.8110, 838.6719
166.0360, 1112.895
167.2610, 898.5645
168.4860, 1154.664
169.7110, 1447.189
170.9360, 1319.164
172.1610, 1462.660
173.3850, 1458.732
174.6100, 1846.418
175.8340, 1950.715
177.0580, 2341.596
178.2820, 2520.023
179.5050, 2835.965
180.7290, 3569.701
181.9520, 3947.260
183.1760, 4500.170
184.3990, 5252.457
185.6220, 5842.734
186.8450, 6596.922
188.0670, 7124.432
189.2900, 8100.240
190.5120, 9188.332
191.7340, 10150.61
192.9560, 10825.85
194.1780, 11805.07
195.4000, 12813.25
196.6220, 13406.45
197.8430, 14472.68
199.0640, 14759.98
200.2860, 15548.37
201.5070, 15647.86
202.7270, 15750.47
203.9480, 15476.20
205.1690, 15362.06
206.3890, 14815.04
207.6090, 14507.13
208.8290, 13873.34
210.0490, 13475.65
211.2690, 12901.08
212.4890, 12085.29
213.7080, 11672.27
214.9280, 10620.03
216.1470, 10150.91
217.3660, 9976.938
218.5850, 9023.113
219.8030, 7906.510
221.0220, 6969.312
222.2400, 6510.816
223.4590, 5646.389
224.6770, 5065.088
225.8950, 4480.857
227.1120, 3993.586
228.3300, 3335.141
229.5480, 2933.406
230.7650, 2421.062
231.9820, 2144.133
233.1990, 1687.379
234.4160, 1407.615
235.6330, 1234.832
236.8490, 1008.025
238.0660, 587.1758
239.2820, 264.2715
240.4980, 230.2988
241.7140, 276.2559
242.9300, 17.85352
244.1460, 75.02930
245.3610, 19.27148
246.5770, 138.5820
247.7920, 24.95898
249.0070, 132.5938
250.2220, 150.9219
251.4370, 109.4941
252.6510, 77.15625
253.8660, 207.1191
255.0800, 329.3125
256.2940, 572.4199
257.5080, 1152.439
258.7220, 1051.416
259.9360, 1595.236
261.1490, 1190.025
262.3630, 1210.742
263.5760, 1489.385
264.7890, 1631.291
266.0020, 1844.244
267.2150, 1945.197
268.4270, 1971.041
269.6400, 2371.953
270.8520, 2395.654
272.0640, 2233.914
273.2760, 2468.336
274.4880, 2074.074
275.7000, 2136.102
276.9120, 2285.395
278.1230, 1999.939
279.3340, 1761.918
280.5450, 1761.299
281.7560, 1633.316
282.9670, 1580.707
284.1780, 1619.703
285.3880, 1576.607
286.5980, 1580.926
287.8090, 1687.674
289.0190, 1577.238
290.2290, 1903.209
291.4380, 1852.854
292.6480, 2065.438
293.8570, 1927.160
295.0670, 2124.072
296.2760, 2222.016
297.4850, 2351.059
298.6930, 2555.197
299.9020, 2743.426
301.1110, 2700.738
302.3190, 2940.137
303.5270, 2981.611
304.7350, 3080.160
305.9430, 3143.781
307.1510, 3105.473
308.3580, 3127.279
309.5660, 3098.619
310.7730, 3068.930
311.9800, 2970.939
313.1870, 2952.734
314.3940, 2785.643
315.6010, 2753.254
316.8070, 2813.115
318.0130, 2691.045
319.2200, 2576.178
320.4260, 2443.396
321.6310, 2689.275
322.8370, 2700.828
324.0430, 2837.160
325.2480, 2702.730
326.4540, 2898.129
327.6590, 3011.520
328.8640, 2897.904
330.0680, 3275.078
331.2730, 3281.996
332.4780, 3022.229
333.6820, 3187.531
334.8860, 3483.947
336.0900, 3495.844
337.2940, 3705.488
338.4980, 3594.127
339.7010, 3648.160
340.9050, 3482.773
342.1080, 3513.359
343.3110, 3490.354
344.5140, 3416.932
345.7170, 3460.766
346.9200, 3405.002
348.1220, 3427.770
349.3240, 3425.955
350.5270, 3287.021
351.7290, 3452.152
352.9310, 3791.711
354.1320, 3798.254
355.3340, 3810.123
356.5350, 3844.373
357.7370, 3749.068
358.9380, 3741.119
360.1390, 3633.141
361.3400, 3400.133
362.5400, 3188.092
363.7410, 3173.021
364.9410, 2874.918
366.1410, 2971.779
367.3410, 2462.600
368.5410, 2606.377
369.7410, 2194.105
370.9400, 2412.779
372.1400, 2478.395
373.3390, 2020.945
374.5380, 1973.432
375.7370, 1990.848
376.9360, 2018.197
378.1350, 1869.473
379.3330, 1882.674
380.5310, 1945.807
381.7300, 1929.863
382.9280, 2004.850
384.1260, 2122.760
385.3230, 1830.602
386.5210, 2351.367
387.7180, 2326.924
388.9160, 2763.945
390.1130, 3063.354
391.3100, 3159.365
392.5060, 3485.598
393.7030, 3681.936
394.9000, 3871.504
396.0960, 3889.699
397.2920, 3781.170
398.4880, 3594.227
399.6840, 3595.215
400.8800, 3228.133
402.0750, 3007.986
403.2710, 2948.770
404.4660, 2749.484
405.6610, 2410.133
406.8560, 2169.713
408.0510, 2021.230
409.2450, 1835.715
410.4400, 1943.170
411.6340, 1639.596
412.8280, 1479.994
414.0220, 1558.359
415.2160, 1095.693
416.4100, 1222.004
417.6030, 1102.277
418.7970, 770.5137
419.9900, 717.7109
421.1830, 777.8711
422.3760, 512.9902
423.5690, 475.0625
424.7610, 492.0879
425.9540, 475.0684
427.1460, 235.9961
428.3380, 553.8652
429.5300, 260.6855
430.7220, 439.4434
431.9140, 524.1465
433.1050, 465.7949
434.2970, 342.3867
435.4880, 392.9160
436.6790, 858.3848
437.8700, 620.8008
439.0610, 973.1602
440.2510, 1149.465
441.4420, 1243.715
442.6320, 1096.906
443.8220, 1289.041
445.0120, 1126.121
446.2020, 977.1406
447.3910, 1189.102
448.5810, 1130.004
449.7700, 1154.846
450.9600, 987.6270
452.1490, 1071.346
453.3370, 927.0020
454.5260, 703.5957
455.7150, 535.1250
456.9030, 526.5840
458.0910, 376.2500
459.2800, 334.2793
460.4670, 197.5059
461.6550, 187.6426
462.8430, 22.68555
464.0300, 49.17773
465.2180, 25.70703
466.4050, 227.1738
467.5920, 451.9258
468.7790, 527.0762
469.9650, 477.6719
471.1520, 651.6836
472.3380, 472.2070
473.5250, 499.1484
474.7110, 710.5195
475.8970, 408.4355
477.0820, 441.7363
478.2680, 417.4395
479.4540, 397.5352
480.6390, 318.0078
481.8240, 260.8223
483.0090, 190.9434
484.1940, 127.3398
485.3780, 245.9707
486.5630, 98.09570
487.7470, 67.96094
488.9320, 76.77344
490.1160, 435.3770
491.3000, 350.8945
492.4830, 237.3242
493.6670, 353.6543
494.8500, 290.8965
496.0340, 482.0449
497.2170, 397.1113
498.4000, 538.0898
499.5820, 664.9863
500.7650, 920.8047
501.9480, 936.5527
503.1300, 1100.227
504.3120, 1085.828
505.4940, 1382.359
506.6760, 1479.816
507.8580, 1508.205
509.0390, 1772.520
510.2210, 1798.764
511.4020, 2104.936
512.5830, 2224.035
513.7640, 2305.062
514.9450, 2250.020
516.1250, 2580.906
517.3060, 2631.721
518.4860, 2725.465
519.6660, 2818.139
520.8460, 3155.740
522.0260, 2981.271
523.2060, 3114.738
524.3850, 3210.137
525.5650, 3643.469
526.7440, 3482.740
527.9230, 3863.949
529.1020, 4058.178
530.2810, 4283.385
531.4590, 4488.545
532.6380, 4808.723
533.8160, 5470.887
534.9940, 6002.051
536.1720, 6807.119
537.3500, 7604.402
538.5270, 8727.621
539.7050, 9731.859
540.8820, 11008.13
542.0590, 12158.40
543.2360, 13454.68
544.4130, 14695.95
545.5900, 15573.21
546.7660, 17259.47
547.9430, 18301.72
549.1190, 19871.98
550.2950, 21353.28
551.4710, 23659.58
552.6470, 25447.87
553.8220, 27009.14
554.9980, 28742.45
556.1730, 30158.79
557.3480, 31106.18
558.5230, 31314.55
559.6980, 31405.97
560.8730, 31583.51
562.0470, 32287.05
563.2220, 32786.60
564.3960, 33317.92
565.5700, 33018.05
566.7440, 31770.19
567.9170, 29282.15
569.0910, 26405.05
570.2640, 23024.18
571.4380, 19540.99
572.6110, 16528.48
573.7840, 13660.28
574.9570, 11563.79
576.1290, 9556.697
577.3020, 7943.746
578.4740, 6746.719
579.6460, 6080.543
580.8180, 5199.408
581.9900, 4575.240
583.1620, 4415.008
584.3330, 4311.707
585.5040, 4091.340
586.6760, 4127.906
587.8470, 4038.404
589.0180, 4078.836
590.1880, 4244.199
591.3590, 4350.492
592.5290, 5052.719
593.7000, 5198.875
594.8700, 5601.963
596.0400, 5872.910
597.2090, 6258.059
598.3790, 6754.078
599.5490, 7336.379
600.7180, 7125.412
601.8870, 7674.350
603.0560, 8381.059
604.2250, 7894.656
605.3940, 8091.561
606.5620, 8339.758
607.7300, 7887.137
608.8990, 7913.242
610.0670, 7486.475
611.2350, 7025.660
612.4020, 6510.791
613.5700, 6100.074
614.7370, 5688.555
615.9050, 5235.678
617.0720, 4979.678
618.2390, 4657.416
619.4060, 4423.840
620.5720, 4246.357
621.7390, 4148.832
622.9050, 4151.871
624.0710, 4138.275
625.2370, 4195.660
626.4030, 4251.590
627.5690, 4113.889
628.7340, 4007.115
629.9000, 3501.516
631.0650, 3548.393
632.2300, 3184.885
633.3950, 2796.449
634.5600, 2716.896
635.7240, 2453.863
636.8890, 2147.793
638.0530, 1837.342
639.2170, 1618.451
640.3810, 1389.068
641.5450, 1213.559
642.7080, 1090.094
643.8720, 990.5879
645.0350, 938.7031
646.1980, 973.7930
647.3610, 987.8516
648.5240, 1031.885
649.6870, 1102.889
650.8490, 984.8633
652.0120, 1157.814
653.1740, 1244.734
654.3360, 1201.625
655.4980, 1467.492
656.6600, 1319.328
657.8210, 1575.137
658.9830, 1515.918
660.1440, 1855.672
661.3050, 1741.396
662.4660, 2191.971
663.6270, 2016.945
664.7870, 2287.348
665.9480, 2390.723
667.1080, 2255.830
668.2680, 2478.613
669.4280, 2331.213
670.5880, 2539.492
671.7480, 3032.387
672.9070, 3190.375
674.0670, 3296.529
675.2260, 3704.506
676.3850, 4008.797
677.5440, 4193.562
678.7030, 4779.459
679.8610, 5302.391
681.0200, 5430.307
682.1780, 5945.105
683.3360, 6319.895
684.4940, 6820.918
685.6520, 7769.908
686.8090, 8235.223
687.9670, 8933.609
689.1240, 9663.195
690.2810, 10279.43
691.4380, 11295.46
692.5950, 11970.28
693.7520, 12837.43
694.9080, 13495.55
696.0650, 14436.26
697.2210, 14992.73
698.3770, 15845.81
699.5330, 16938.45
700.6880, 17402.55
701.8440, 18446.54
702.9990, 18510.90
704.1550, 18763.38
705.3100, 18458.16
706.4650, 18113.31
707.6190, 17756.88
708.7740, 16781.09
709.9290, 15790.98
711.0830, 14630.86
712.2370, 13188.95
713.3910, 11766.61
714.5450, 10187.01
715.6980, 9219.215
716.8520, 8057.441
718.0050, 6993.953
719.1580, 6135.328
720.3110, 5498.846
721.4640, 5077.535
722.6170, 4544.027
723.7700, 4712.652
724.9220, 4209.264
726.0740, 4239.844
727.2260, 4255.158
728.3780, 4230.102
729.5300, 4723.984
730.6810, 5078.805
731.8330, 5308.561
732.9840, 5603.254
734.1350, 6082.887
735.2860, 6607.457
736.4370, 7110.969
737.5880, 7461.418
738.7380, 7888.820
739.8880, 8752.164
741.0390, 8821.453
742.1890, 9172.707
743.3380, 9141.930
744.4880, 9307.160
745.6380, 9151.375
746.7870, 9214.637
747.9360, 8927.008
749.0850, 8563.508
750.2340, 8344.121
751.3830, 8153.766
752.5310, 7749.777
753.6800, 7797.785
754.8280, 7576.969
755.9760, 7231.246
757.1240, 7281.633
758.2720, 6907.117
759.4190, 6610.703
760.5670, 6648.355
761.7140, 6464.070
762.8610, 5994.824
764.0080, 6033.602
765.1550, 5982.438
766.3020, 6082.234
767.4480, 5952.039
768.5950, 5879.820
769.7410, 5687.543
770.8870, 5717.219
772.0330, 5661.840
773.1780, 5667.414
774.3240, 5422.941
775.4690, 5299.410
776.6140, 5633.828
777.7590, 5130.195
778.9040, 5308.500
780.0490, 4979.750
781.1940, 4924.938
782.3380, 4596.066
783.4820, 4351.129
784.6260, 4096.137
785.7700, 3952.082
786.9140, 3505.973
788.0580, 3187.797
789.2010, 2747.562
790.3450, 2420.277
791.4880, 2051.922
792.6310, 1690.516
793.7730, 1402.047
794.9160, 1084.520
796.0590, 740.9336
797.2010, 769.2891
798.3430, 652.5859
799.4850, 292.8242
800.6270, 427.9922
801.7690, 318.1055
802.9100, 94.14844
804.0520, 134.1250
805.1930, 237.9805
806.3340, 60.32031
807.4750, 47.19531
808.6160, 225.3789
809.7560, 68.18750
810.8970, 167.1367
812.0370, 117.2930
813.1770, 250.6211
814.3170, 243.1914
815.4570, 230.3828
816.5960, 248.0469
817.7360, 169.3320
818.8750, 184.8086
820.0140, 122.3242
821.1530, 95.73438
822.2920, 176.3750
823.4310, 87.58984
824.5690, 201.9609
825.7070, 318.5430
826.8460, 171.3984
827.9840, 106.4414
829.1220, 81.64453
830.2590, 326.9961
831.3970, 241.6211
832.5340, 381.0312
833.6710, 92.62109
834.8080, 375.9102
835.9450, 594.4961
837.0820, 190.4883
838.2190, 207.6719
839.3550, 73.06250
840.4910, 189.5781
841.6270, 27.72266
842.7630, 71.94531
843.8990, 10.11328
845.0350, 71.22266
846.1700, 126.2422
847.3060, 9.222656
848.4410, 125.8672
849.5760, 154.1016
850.7100, 162.5039
851.8450, 25.93359
852.9800, 6.546875
854.1140, 357.9531
855.2480, 70.67578
856.3820, 92.41016
857.5160, 206.7461
858.6500, 231.8594
859.7830, 177.9297
860.9170, 159.9609
862.0500, 145.9453
863.1830, 187.6367
864.3160, 372.7891
865.4480, 315.6562
866.5810, 558.4922
867.7130, 643.2852
868.8460, 733.7227
869.9780, 749.7773
871.1100, 964.4727
872.2410, 883.1367
873.3730, 993.7656
874.5050, 901.3633
875.6360, 964.9375
876.7670, 1077.473
877.8980, 1260.980
879.0290, 1095.461
880.1590, 1261.906
881.2900, 1169.328
882.4200, 1387.715
883.5500, 1351.082
884.6800, 1466.414
885.8100, 1427.719
886.9400, 1840.992
888.0690, 2150.238
889.1990, 2187.457
890.3280, 2193.641
891.4570, 2375.793
892.5860, 2546.918
893.7140, 2600.016
894.8430, 3141.082
895.9710, 3407.117
897.1000, 3671.121
898.2280, 3491.098
899.3560, 4209.035
900.4830, 4423.953
901.6110, 4733.836
902.7380, 5370.688
903.8660, 5466.512
904.9930, 5699.309
906.1200, 5923.078
907.2460, 6102.812
908.3730, 6704.531
909.5000, 7061.219
910.6260, 7411.875
911.7520, 7639.508
912.8780, 8119.121
914.0040, 8142.703
915.1290, 8842.270
916.2550, 9089.809
917.3800, 9237.328
918.5050, 9540.824
919.6300, 9865.301
920.7550, 9891.758
921.8800, 9869.195
923.0040, 9874.625
924.1290, 9737.082
925.2530, 9616.582
926.3770, 9146.070
927.5010, 8719.582
928.6250, 8429.070
929.7480, 7947.555
930.8720, 7359.023
931.9950, 7149.477
933.1180, 6615.914
934.2410, 6362.340
935.3640, 5988.945
936.4860, 5775.520
937.6090, 5793.852
938.7310, 5407.625
939.8530, 5474.625
940.9750, 5187.977
942.0970, 5130.512
943.2180, 5102.395
944.3400, 4836.637
945.4610, 4875.770
946.5820, 4857.738
947.7030, 4642.848
948.8240, 4719.656
949.9450, 4638.957
951.0650, 4254.094
952.1860, 4109.176
953.3060, 4410.258
954.4260, 4522.414
955.5460, 3953.555
956.6650, 3668.430
957.7850, 3443.309
958.9040, 3553.832
960.0230, 3429.289
961.1420, 3240.516
962.2610, 3386.070
963.3800, 3326.805
964.4990, 3380.199
965.6170, 3220.297
966.7350, 3213.891
967.8530, 3356.855
968.9710, 3133.055
970.0890, 3217.609
971.2070, 3045.598
972.3240, 3623.102
973.4410, 3488.742
974.5580, 3565.000
975.6750, 3462.121
976.7920, 3649.910
977.9090, 3817.195
979.0250, 3673.484
980.1410, 4045.910
981.2580, 4109.629
982.3740, 4438.406
983.4890, 4288.000
984.6050, 4562.031
985.7200, 4661.312
986.8360, 4870.797
987.9510, 5064.934
989.0660, 5286.379
990.1810, 5419.652
991.2950, 5658.770
992.4100, 5811.707
993.5240, 6009.836
994.6390, 5976.820
995.7530, 6130.863
996.8660, 6002.922
997.9800, 6115.238
999.0940, 5811.918
1000.207, 6053.652
1001.320, 5604.434
1002.433, 5572.273
1003.546, 5344.164
1004.659, 4929.117
1005.772, 4650.121
1006.884, 4473.180
1007.996, 3931.305
1009.108, 3819.480
1010.220, 3755.715
1011.332, 3260.012
1012.444, 3469.363
1013.555, 3227.781
1014.666, 3119.258
1015.777, 3303.797
1016.888, 2945.395
1017.999, 2709.059
1019.110, 2952.801
1020.220, 3128.602
1021.331, 2950.473
1022.441, 2871.414
1023.551, 3236.430
1024.661, 2972.520
1025.770, 2727.715
1026.880, 2819.977
1027.989, 2816.301
1029.098, 2803.695
1030.207, 2857.160
1031.316, 3153.688
1032.425, 2866.289
1033.533, 3167.969
1034.642, 2988.719
1035.750, 3250.543
1036.858, 3057.453
1037.966, 3179.441
1039.073, 3060.488
1040.181, 3406.598
1041.288, 3261.801
1042.396, 3216.070
1043.503, 3460.426
1044.610, 2998.848
1045.716, 3463.336
1046.823, 2943.898
1047.929, 3316.531
1049.036, 3048.234
1050.142, 3226.000
1051.248, 3339.844
1052.353, 3433.281
1053.459, 3649.254
1054.564, 3638.293
1055.670, 3922.258
1056.775, 4072.324
1057.880, 4485.285
1058.985, 4508.652
1060.089, 4770.703
1061.194, 4894.133
1062.298, 5409.445
1063.402, 5318.004
1064.506, 5654.633
1065.610, 6126.344
1066.713, 6039.094
1067.817, 6709.230
1068.920, 6744.109
1070.023, 6829.613
1071.126, 7152.863
1072.229, 7289.957
1073.332, 7328.180
1074.435, 7406.496
1075.537, 7944.289
1076.639, 8182.953
1077.741, 8553.730
1078.843, 8524.438
1079.945, 8924.320
1081.046, 9331.754
1082.148, 9592.898
1083.249, 10232.19
1084.350, 10504.40
1085.451, 10750.19
1086.551, 11118.89
1087.652, 11304.72
1088.752, 11658.70
1089.853, 11756.79
1090.953, 11906.01
1092.053, 11862.04
1093.152, 11698.73
1094.252, 11428.31
1095.351, 11069.05
1096.451, 10485.25
1097.550, 9864.242
1098.649, 9471.816
1099.748, 8764.570
1100.846, 8164.137
1101.945, 7574.699
1103.043, 6679.727
1104.141, 6481.836
1105.239, 6138.188
1106.337, 5291.039
1107.434, 4871.664
1108.532, 4882.691
1109.629, 4522.793
1110.726, 4124.711
1111.823, 4025.219
1112.920, 3856.945
1114.017, 3432.418
1115.113, 3491.363
1116.210, 3386.574
1117.306, 3429.539
1118.402, 3296.973
1119.498, 3238.441
1120.593, 3236.031
1121.689, 3114.180
1122.784, 3035.984
1123.879, 3071.184
1124.974, 3246.457
1126.069, 2966.062
1127.164, 2918.273
1128.259, 3049.484
1129.353, 2723.758
1130.447, 2711.453
1131.541, 2923.426
1132.635, 2620.434
1133.729, 2661.121
1134.822, 2136.852
1135.916, 2115.699
1137.009, 1901.547
1138.102, 1890.039
1139.195, 1416.527
1140.288, 1104.406
1141.380, 1230.445
1142.473, 1175.258
1143.565, 1055.211
1144.657, 951.1758
1145.749, 649.6875
1146.841, 587.9297
1147.932, 341.5156
1149.024, 213.0625
1150.115, 573.7305
1151.206, 698.3867
1152.297, 171.3594
1153.388, 740.6523
1154.479, 729.6641
1155.569, 532.1484
1156.659, 638.0195
1157.750, 915.5078
1158.839, 895.6289
1159.929, 1109.633
1161.019, 1073.059
1162.108, 657.2266
1163.198, 800.4414
1164.287, 438.7812
1165.376, 675.4766
1166.465, 756.7109
1167.553, 649.7227
1168.642, 583.6055
1169.730, 430.2891
1170.818, 230.5195
1171.906, 307.8477
1172.994, 254.7461
1174.082, 78.20703
1175.170, 107.1250
1176.257, 133.9141
1177.344, 157.1953
1178.431, 235.3008
1179.518, 118.0430
1180.605, 228.4062
1181.691, 166.8320
1182.778, 30.98828
1183.864, 49.57812
1184.950, 46.03125
1186.036, 107.0156
1187.122, 255.0195
1188.207, 304.1719
1189.292, 79.64844
1190.378, 184.9609
1191.463, 144.9023
1192.548, 68.12891
1193.632, 43.42969
1194.717, 267.5781
1195.801, 8.906250
1196.886, 151.5312
1197.970, 320.9961
1199.054, 40.42578
1200.137, 232.3594
1201.221, 187.0938
1202.305, 89.96484
1203.388, 283.9961
1204.471, 193.4414
1205.554, 266.8555
1206.637, 52.54297
1207.719, 112.8242
1208.802, 145.1602
1209.884, 389.0312
1210.966, 202.7188
1212.048, 167.6055
1213.130, 368.7266
1214.212, 51.76562
1215.293, 14.45312
1216.374, 138.4062
1217.456, 84.60156
1218.536, 379.0430
1219.617, 514.5234
1220.698, 290.3594
1221.778, 115.3906
1222.859, 399.7812
1223.939, 7.656250
1225.019, 200.2109
1226.099, 61.70312
1227.178, 277.4766
1228.258, 33.85938
1229.337, 67.43750
1230.417, 18.87891
1231.496, 307.2422
1232.574, 138.7305
1233.653, 181.5586
1234.732, 168.0234
1235.810, 84.15234
1236.888, 168.5898
1237.966, 109.0977
1239.044, 289.9258
1240.122, 34.22266
1241.199, 74.58594
1242.277, 491.6211
1243.354, 164.1680
1244.431, 51.98438
1245.508, 20.44922
1246.585, 44.96094
1247.661, 270.4297
1248.738, 308.4062
1249.814, 248.7656
1250.890, 154.2305
1251.966, 258.7969
1253.042, 188.7109
1254.117, 65.16406
1255.193, 360.8125
1256.268, 100.9258
1257.343, 248.4688
1258.418, 244.6719
1259.493, 403.7812
1260.567, 349.5039
1261.642, 353.0820
1262.716, 541.4297
1263.790, 577.8984
1264.864, 226.2461
1265.938, 695.3281
1267.011, 341.1953
1268.085, 351.8711
1269.158, 270.1680
1270.231, 480.5938
1271.304, 305.6133
1272.377, 287.9180
1273.450, 235.8555
1274.522, 285.3203
1275.594, 295.3789
1276.666, 234.7031
1277.738, 254.1016
1278.810, 116.0000
1279.882, 244.2773
1280.953, 147.4766
1282.025, 179.0039
1283.096, 95.27344
1284.167, 177.6133
1285.238, 11.15625
