##NAMES=Eudialyte
##RRUFFID=R060035
##IDEAL CHEMISTRY=Na_15_Ca_6_Fe^2+^_3_Zr^4+^_3_Si(Si_25_O_73_)(O,OH,H_2_O)_3_(Cl,OH)_2_
##LOCALITY=Chibini, Kola Peninsula, Russia
##OWNER=RRUFF
##SOURCE=University of Arizona Mineral Museum
##DESCRIPTION=Deep pink coarsely crystalline
##STATUS=The identification of this mineral has been confirmed by X-ray diffraction and chemical analysis
##URL=rruff.info/R060035
##MEASURED CHEMISTRY=(Na_14.86_K_0.14_)_Σ=15_Ca_6.00_(Fe_1.52_Mn_1.48_)_Σ=3_(Zr_2.82_Ti_0.18_)_Σ=3_(Si_0.93_Nb_0.07_)_Σ=1_(Si_25.00_O_73_)((OH)_1.01_(H_2_O)_1.99_)_Σ=3_(Cl_1.65_(OH)_0.35_)_Σ=2_
##PIN_ID=M00465
##ORIENTATION=Laser parallel to a* (1 0 0). Fiducial mark perpendicular to laser is parallel to c [0 0 1]
118.1340, 0.0000000E+00
119.3650, 4.796875
120.5960, 19.92773
121.8270, 79.81836
123.0580, 451.4746
124.2880, 270.0781
125.5190, 132.2070
126.7490, 56.90625
127.9790, 178.2363
129.2090, 371.0898
130.4390, 798.1797
131.6680, 836.1133
132.8980, 1051.619
134.1270, 1491.896
135.3560, 1721.914
136.5850, 1819.309
137.8140, 2571.789
139.0430, 3096.143
140.2710, 3474.211
141.5000, 3560.887
142.7280, 3372.078
143.9560, 3529.713
145.1840, 3148.740
146.4120, 2962.139
147.6390, 2526.301
148.8670, 2298.471
150.0940, 1955.387
151.3210, 1650.309
152.5490, 1354.609
153.7750, 1234.250
155.0020, 747.8613
156.2290, 875.3359
157.4550, 658.6836
158.6810, 359.9141
159.9080, 488.0488
161.1340, 83.11914
162.3590, 318.1621
163.5850, 379.1992
164.8110, 556.2285
166.0360, 467.2520
167.2610, 293.2734
168.4860, 308.2891
169.7110, 351.3203
170.9360, 665.4023
172.1610, 411.5898
173.3850, 322.9141
174.6100, 772.3906
175.8340, 795.4434
177.0580, 1014.617
178.2820, 1015.531
179.5050, 1304.125
180.7290, 1229.486
181.9520, 1522.344
183.1760, 1816.348
184.3990, 2217.676
185.6220, 2673.270
186.8450, 3086.418
188.0670, 3550.635
189.2900, 3916.908
190.5120, 4154.230
191.7340, 4290.602
192.9560, 4437.008
194.1780, 4608.426
195.4000, 4727.848
196.6220, 5124.203
197.8430, 5139.590
199.0640, 5409.023
200.2860, 5570.527
201.5070, 5658.176
202.7270, 5371.051
203.9480, 5185.301
205.1690, 5116.807
206.3890, 4962.430
207.6090, 4782.523
208.8290, 4716.871
210.0490, 4395.611
211.2690, 4122.348
212.4890, 3893.076
213.7080, 3296.799
214.9280, 3109.520
216.1470, 2605.266
217.3660, 2302.041
218.5850, 1961.869
219.8030, 1829.936
221.0220, 1386.211
222.2400, 1360.025
223.4590, 1106.523
224.6770, 895.0039
225.8950, 860.0859
227.1120, 577.9707
228.3300, 430.2480
229.5480, 366.7637
230.7650, 310.3164
231.9820, 65.80078
233.1990, 61.18945
234.4160, 71.53906
235.6330, 87.39258
236.8490, 156.3652
238.0660, 188.4570
239.2820, 188.6641
240.4980, 102.9902
241.7140, 153.4297
242.9300, 2.984375
244.1460, 142.6523
245.3610, 47.56641
246.5770, 15.67383
247.7920, 130.6680
249.0070, 142.5469
250.2220, 99.26367
251.4370, 313.7363
252.6510, 145.9414
253.8660, 262.9434
255.0800, 457.7676
256.2940, 468.4785
257.5080, 1154.084
258.7220, 1597.588
259.9360, 1264.988
261.1490, 922.2910
262.3630, 799.4922
263.5760, 1100.594
264.7890, 1318.084
266.0020, 1330.160
267.2150, 1349.777
268.4270, 1490.602
269.6400, 1450.992
270.8520, 1739.533
272.0640, 1723.041
273.2760, 1913.523
274.4880, 1989.393
275.7000, 2010.342
276.9120, 1861.557
278.1230, 2397.262
279.3340, 2017.197
280.5450, 2627.723
281.7560, 2345.844
282.9670, 2627.520
284.1780, 2820.863
285.3880, 2940.609
286.5980, 3120.967
287.8090, 3189.404
289.0190, 3117.607
290.2290, 3428.217
291.4380, 3335.191
292.6480, 3614.602
293.8570, 3617.547
295.0670, 3775.592
296.2760, 3781.660
297.4850, 4120.461
298.6930, 4089.260
299.9020, 4324.686
301.1110, 4446.812
302.3190, 4755.912
303.5270, 4746.982
304.7350, 4972.027
305.9430, 5123.041
307.1510, 4964.092
308.3580, 5337.168
309.5660, 5339.100
310.7730, 5167.023
311.9800, 5461.504
313.1870, 5141.697
314.3940, 4945.902
315.6010, 4637.090
316.8070, 4980.742
318.0130, 4446.359
319.2200, 4714.820
320.4260, 4884.920
321.6310, 4752.408
322.8370, 4807.912
324.0430, 5076.426
325.2480, 5201.543
326.4540, 5519.896
327.6590, 5821.225
328.8640, 5929.984
330.0680, 6396.180
331.2730, 6863.113
332.4780, 7228.188
333.6820, 7512.084
334.8860, 7778.832
336.0900, 8172.090
337.2940, 8594.453
338.4980, 8605.469
339.7010, 8484.951
340.9050, 8538.863
342.1080, 8004.486
343.3110, 7870.125
344.5140, 7440.328
345.7170, 7081.867
346.9200, 7046.604
348.1220, 6706.855
349.3240, 6412.898
350.5270, 6053.885
351.7290, 5784.812
352.9310, 5668.688
354.1320, 5546.500
355.3340, 5433.258
356.5350, 5231.959
357.7370, 4986.602
358.9380, 4928.186
360.1390, 5000.711
361.3400, 4889.178
362.5400, 5000.586
363.7410, 4889.941
364.9410, 4754.234
366.1410, 4376.477
367.3410, 4209.648
368.5410, 4025.756
369.7410, 3722.793
370.9400, 3593.754
372.1400, 3397.645
373.3390, 3329.455
374.5380, 3200.188
375.7370, 3102.488
376.9360, 2825.148
378.1350, 2951.340
379.3330, 2920.969
380.5310, 2872.820
381.7300, 3114.748
382.9280, 3142.527
384.1260, 3062.156
385.3230, 3218.816
386.5210, 3222.393
387.7180, 3470.447
388.9160, 3643.438
390.1130, 3741.625
391.3100, 3759.588
392.5060, 3926.943
393.7030, 4053.260
394.9000, 4274.311
396.0960, 4296.695
397.2920, 4360.775
398.4880, 4296.029
399.6840, 4233.219
400.8800, 4154.346
402.0750, 4040.408
403.2710, 3862.408
404.4660, 3559.346
405.6610, 3300.225
406.8560, 2834.041
408.0510, 2698.799
409.2450, 2441.492
410.4400, 2310.125
411.6340, 1868.703
412.8280, 1689.223
414.0220, 1856.688
415.2160, 1426.098
416.4100, 1241.449
417.6030, 854.7676
418.7970, 921.0293
419.9900, 790.2324
421.1830, 689.3770
422.3760, 648.4570
423.5690, 518.4746
424.7610, 386.4180
425.9540, 72.28711
427.1460, 93.05469
428.3380, 142.7285
429.5300, 118.6895
430.7220, 8.300781
431.9140, 100.0508
433.1050, 5.011719
434.2970, 128.9453
435.4880, 94.78125
436.6790, 131.5234
437.8700, 233.1660
439.0610, 424.7285
440.2510, 482.2090
441.4420, 715.6152
442.6320, 798.9512
443.8220, 886.8926
445.0120, 968.5293
446.2020, 985.5762
447.3910, 993.6562
448.5810, 937.6719
449.7700, 854.6270
450.9600, 843.5156
452.1490, 918.3379
453.3370, 629.0957
454.5260, 488.7832
455.7150, 552.3887
456.9030, 543.9180
458.0910, 302.3711
459.2800, 227.6484
460.4670, 229.0156
461.6550, 83.79688
462.8430, 46.78906
464.0300, 21.94336
465.2180, 7.751953
466.4050, 330.6855
467.5920, 373.4355
468.7790, 335.5137
469.9650, 462.9023
471.1520, 327.6719
472.3380, 160.7461
473.5250, 142.0410
474.7110, 416.5430
475.8970, 144.4004
477.0820, 191.4629
478.2680, 328.7598
479.4540, 77.36328
480.6390, 201.1367
481.8240, 51.14648
483.0090, 3.683594
484.1940, 166.3887
485.3780, 305.9980
486.5630, 395.5254
487.7470, 540.9727
488.9320, 718.3418
490.1160, 820.4844
491.3000, 1003.031
492.4830, 1123.055
493.6670, 1373.162
494.8500, 1638.209
496.0340, 1913.191
497.2170, 2121.109
498.4000, 2321.965
499.5820, 2490.045
500.7650, 2366.791
501.9480, 2694.738
503.1300, 2921.336
504.3120, 2879.166
505.4940, 3153.738
506.6760, 2965.322
507.8580, 3140.453
509.0390, 3313.734
510.2210, 3258.250
511.4020, 3062.758
512.5830, 3012.135
513.7640, 2714.945
514.9450, 2582.912
516.1250, 2550.818
517.3060, 2192.662
518.4860, 2389.447
519.6660, 2285.176
520.8460, 2316.852
522.0260, 2303.490
523.2060, 2226.141
524.3850, 2143.846
525.5650, 2305.617
526.7440, 2202.512
527.9230, 2442.445
529.1020, 2379.418
530.2810, 2531.398
531.4590, 2840.502
532.6380, 3053.623
533.8160, 2881.791
534.9940, 3337.971
536.1720, 3750.262
537.3500, 4094.609
538.5270, 4788.996
539.7050, 5257.402
540.8820, 5607.852
542.0590, 6124.383
543.2360, 6602.947
544.4130, 7220.531
545.5900, 7590.102
546.7660, 8492.746
547.9430, 8997.412
549.1190, 9817.078
550.2950, 11020.79
551.4710, 11953.49
552.6470, 12911.25
553.8220, 14028.00
554.9980, 15205.80
556.1730, 16319.64
557.3480, 17129.46
558.5230, 17666.33
559.6980, 18179.24
560.8730, 18973.16
562.0470, 19667.85
563.2220, 20512.09
564.3960, 21457.14
565.5700, 21508.60
566.7440, 20910.45
567.9170, 19883.74
569.0910, 17596.32
570.2640, 15443.45
571.4380, 13119.91
572.6110, 11277.25
573.7840, 9335.770
574.9570, 7851.822
576.1290, 6943.449
577.3020, 5266.582
578.4740, 4873.105
579.6460, 4081.453
580.8180, 3329.684
581.9900, 3216.092
583.1620, 2993.408
584.3330, 2948.008
585.5040, 2679.814
586.6760, 2645.559
587.8470, 2680.244
589.0180, 2634.865
590.1880, 2876.422
591.3590, 2970.855
592.5290, 3210.172
593.7000, 3418.541
594.8700, 3762.828
596.0400, 3945.461
597.2090, 4228.293
598.3790, 5096.020
599.5490, 5784.672
600.7180, 4793.762
601.8870, 4814.795
603.0560, 8437.883
604.2250, 7263.240
605.3940, 7948.105
606.5620, 5323.779
607.7300, 4839.166
608.8990, 4736.826
610.0670, 4615.832
611.2350, 4186.814
612.4020, 4166.266
613.5700, 3621.184
614.7370, 3230.270
615.9050, 2974.127
617.0720, 2476.072
618.2390, 2407.072
619.4060, 2283.471
620.5720, 1967.668
621.7390, 1967.416
622.9050, 1946.025
624.0710, 1807.398
625.2370, 1772.969
626.4030, 1644.434
627.5690, 1382.236
628.7340, 1724.611
629.9000, 1246.693
631.0650, 1456.166
632.2300, 1097.744
633.3950, 858.2832
634.5600, 928.7734
635.7240, 711.2188
636.8890, 783.6191
638.0530, 533.9766
639.2170, 361.2871
640.3810, 495.5488
641.5450, 366.7637
642.7080, 521.9297
643.8720, 364.0508
645.0350, 170.1250
646.1980, 151.1406
647.3610, 245.1016
648.5240, 437.0078
649.6870, 359.8672
650.8490, 346.6777
652.0120, 414.4375
653.1740, 451.1504
654.3360, 553.8594
655.4980, 523.4785
656.6600, 701.5449
657.8210, 934.6172
658.9830, 844.3652
660.1440, 502.4062
661.3050, 908.0918
662.4660, 1024.852
663.6270, 1376.916
664.7870, 1431.924
665.9480, 1325.764
667.1080, 1637.463
668.2680, 1795.139
669.4280, 1658.934
670.5880, 2001.762
671.7480, 2308.281
672.9070, 2310.861
674.0670, 2575.816
675.2260, 3049.859
676.3850, 3064.283
677.5440, 3432.643
678.7030, 3602.809
679.8610, 3790.473
681.0200, 4139.709
682.1780, 4516.887
683.3360, 4837.676
684.4940, 5128.004
685.6520, 5581.836
686.8090, 5953.838
687.9670, 6495.189
689.1240, 6935.502
690.2810, 7508.961
691.4380, 7911.016
692.5950, 8406.965
693.7520, 9271.000
694.9080, 9806.906
696.0650, 10296.61
697.2210, 11166.73
698.3770, 11628.59
699.5330, 12597.28
700.6880, 12722.26
701.8440, 13403.39
702.9990, 13662.98
704.1550, 13631.62
705.3100, 13644.01
706.4650, 13697.55
707.6190, 13309.99
708.7740, 12693.97
709.9290, 11794.41
711.0830, 10988.64
712.2370, 9957.793
713.3910, 8799.920
714.5450, 7754.291
715.6980, 6786.270
716.8520, 5885.174
718.0050, 5302.996
719.1580, 4522.732
720.3110, 3966.383
721.4640, 3636.943
722.6170, 3403.408
723.7700, 3146.781
724.9220, 2984.059
726.0740, 2913.238
727.2260, 2866.322
728.3780, 2968.312
729.5300, 2973.205
730.6810, 3140.002
731.8330, 3389.707
732.9840, 3440.314
734.1350, 3699.830
735.2860, 3865.260
736.4370, 4029.600
737.5880, 4498.850
738.7380, 5093.016
739.8880, 4846.102
741.0390, 5404.102
742.1890, 5496.068
743.3380, 5604.986
744.4880, 5585.857
745.6380, 5583.664
746.7870, 5446.500
747.9360, 5398.379
749.0850, 5069.285
750.2340, 4743.256
751.3830, 4450.256
752.5310, 4446.242
753.6800, 4159.207
754.8280, 3957.219
755.9760, 3693.217
757.1240, 3880.207
758.2720, 3728.221
759.4190, 3516.201
760.5670, 3261.174
761.7140, 3116.100
762.8610, 3322.965
764.0080, 3034.754
765.1550, 2884.463
766.3020, 3087.090
767.4480, 2814.629
768.5950, 2564.080
769.7410, 2618.438
770.8870, 2523.711
772.0330, 2555.887
773.1780, 2501.977
774.3240, 2419.977
775.4690, 2527.887
776.6140, 2483.703
777.7590, 2384.125
778.9040, 2429.762
780.0490, 2305.027
781.1940, 2311.492
782.3380, 2139.574
783.4820, 2101.758
784.6260, 1771.781
785.7700, 1969.109
786.9140, 1657.133
788.0580, 1647.773
789.2010, 1184.273
790.3450, 1042.973
791.4880, 738.6523
792.6310, 996.2461
793.7730, 621.7539
794.9160, 605.1758
796.0590, 427.5078
797.2010, 341.7383
798.3430, 205.8789
799.4850, 50.08984
800.6270, 136.5977
801.7690, 169.6211
802.9100, 360.3438
804.0520, 137.3789
805.1930, 91.65625
806.3340, 80.15234
807.4750, 417.8555
808.6160, 128.9492
809.7560, 244.2734
810.8970, 109.8867
812.0370, 496.7227
813.1770, 282.9805
814.3170, 237.5469
815.4570, 142.3945
816.5960, 265.4727
817.7360, 389.8477
818.8750, 217.5742
820.0140, 167.5664
821.1530, 52.79688
822.2920, 364.1992
823.4310, 202.9375
824.5690, 97.92188
825.7070, 261.1016
826.8460, 140.5508
827.9840, 282.2109
829.1220, 94.15234
830.2590, 355.2695
831.3970, 246.7031
832.5340, 73.39062
833.6710, 308.2422
834.8080, 309.3672
835.9450, 152.7734
837.0820, 67.37891
838.2190, 75.12500
839.3550, 120.0156
840.4910, 0.9179690
841.6270, 0.2421880
842.7630, 24.50000
843.8990, 389.1328
845.0350, 227.7070
846.1700, 327.2188
847.3060, 120.6719
848.4410, 410.0625
849.5760, 400.3984
850.7100, 254.6836
851.8450, 387.9102
852.9800, 345.4727
854.1140, 618.2070
855.2480, 510.2773
856.3820, 501.3008
857.5160, 811.2734
858.6500, 666.2031
859.7830, 771.0859
860.9170, 898.9219
862.0500, 1083.711
863.1830, 710.4570
864.3160, 1326.164
865.4480, 1219.828
866.5810, 1231.453
867.7130, 1537.035
868.8460, 1562.582
869.9780, 1454.086
871.1100, 1750.555
872.2410, 1634.988
873.3730, 1745.387
874.5050, 1985.750
875.6360, 1984.078
876.7670, 2343.379
877.8980, 2118.645
879.0290, 2435.879
880.1590, 2423.078
881.2900, 2542.254
882.4200, 2280.398
883.5500, 2477.520
884.6800, 2846.613
885.8100, 2501.676
886.9400, 2874.711
888.0690, 2743.723
889.1990, 2988.703
890.3280, 3227.664
891.4570, 3730.605
892.5860, 3727.516
893.7140, 4175.410
894.8430, 4375.273
895.9710, 4816.117
897.1000, 5336.941
898.2280, 5626.746
899.3560, 6056.531
900.4830, 6743.297
901.6110, 6950.043
902.7380, 7507.773
903.8660, 7820.484
904.9930, 7960.191
906.1200, 8354.883
907.2460, 8398.570
908.3730, 9116.242
909.5000, 8803.906
910.6260, 9356.562
911.7520, 9778.207
912.8780, 9945.863
914.0040, 9877.527
915.1290, 10263.22
916.2550, 10665.93
917.3800, 10445.63
918.5050, 10715.33
919.6300, 10939.05
920.7550, 10976.77
921.8800, 10928.53
923.0040, 10977.34
924.1290, 10734.17
925.2530, 10702.08
926.3770, 10835.99
927.5010, 10650.90
928.6250, 10165.89
929.7480, 9538.383
930.8720, 9883.848
931.9950, 9370.598
933.1180, 9280.012
934.2410, 9275.750
935.3640, 9002.391
936.4860, 9175.695
937.6090, 9080.020
938.7310, 9205.477
939.8530, 9162.043
940.9750, 9148.602
942.0970, 9392.023
943.2180, 9605.387
944.3400, 9879.020
945.4610, 10143.56
946.5820, 10230.70
947.7030, 10353.73
948.8240, 10271.34
949.9450, 10458.99
951.0650, 10176.81
952.1860, 9859.094
953.3060, 9611.789
954.4260, 9635.512
955.5460, 8838.602
956.6650, 8919.125
957.7850, 8466.367
958.9040, 8552.977
960.0230, 7841.422
961.1420, 7887.895
962.2610, 7708.199
963.3800, 7298.926
964.4990, 7414.738
965.6170, 7070.449
966.7350, 6986.289
967.8530, 6860.316
968.9710, 6834.914
970.0890, 6712.254
971.2070, 6654.867
972.3240, 6553.656
973.4410, 6550.336
974.5580, 6491.590
975.6750, 6664.801
976.7920, 6607.254
977.9090, 6487.633
979.0250, 6615.152
980.1410, 6552.180
981.2580, 6535.754
982.3740, 6628.652
983.4890, 7070.699
984.6050, 6760.836
985.7200, 7123.781
986.8360, 7582.133
987.9510, 7640.582
989.0660, 7846.176
990.1810, 8343.863
991.2950, 8516.680
992.4100, 8673.594
993.5240, 9038.594
994.6390, 8771.707
995.7530, 8876.914
996.8660, 8881.219
997.9800, 9049.641
999.0940, 8369.172
1000.207, 8375.820
1001.320, 8156.562
1002.433, 7765.406
1003.546, 7529.348
1004.659, 6974.395
1005.772, 6584.543
1006.884, 6171.785
1007.996, 5988.133
1009.108, 5582.582
1010.220, 5479.160
1011.332, 5386.871
1012.444, 5081.723
1013.555, 4622.691
1014.666, 4744.758
1015.777, 4440.957
1016.888, 4084.258
1017.999, 4300.695
1019.110, 4423.281
1020.220, 4300.996
1021.331, 4348.824
1022.441, 4422.773
1023.551, 4446.859
1024.661, 4583.062
1025.770, 4513.426
1026.880, 4465.918
1027.989, 4908.520
1029.098, 4751.238
1030.207, 4885.082
1031.316, 4967.043
1032.425, 5004.117
1033.533, 5383.312
1034.642, 5290.617
1035.750, 5281.109
1036.858, 5897.723
1037.966, 6241.738
1039.073, 5816.582
1040.181, 6175.797
1041.288, 6239.867
1042.396, 6083.328
1043.503, 6260.703
1044.610, 6118.301
1045.716, 6027.344
1046.823, 5826.180
1047.929, 6018.824
1049.036, 5666.625
1050.142, 5872.707
1051.248, 5692.898
1052.353, 5738.449
1053.459, 5910.977
1054.564, 5942.184
1055.670, 6387.297
1056.775, 6649.668
1057.880, 6726.688
1058.985, 6909.758
1060.089, 7069.133
1061.194, 7232.289
1062.298, 7959.684
1063.402, 8090.957
1064.506, 8450.574
1065.610, 8909.297
1066.713, 8905.754
1067.817, 9540.117
1068.920, 9603.039
1070.023, 9918.348
1071.126, 9894.848
1072.229, 10333.59
1073.332, 10630.79
1074.435, 10474.78
1075.537, 10706.21
1076.639, 11116.75
1077.741, 11118.48
1078.843, 11250.41
1079.945, 11464.52
1081.046, 11611.23
1082.148, 11793.58
1083.249, 12044.37
1084.350, 12329.37
1085.451, 12526.60
1086.551, 12783.06
1087.652, 12987.73
1088.752, 12935.79
1089.853, 12871.41
1090.953, 12794.64
1092.053, 12767.08
1093.152, 12290.68
1094.252, 12232.48
1095.351, 11668.41
1096.451, 11197.57
1097.550, 10706.86
1098.649, 9802.047
1099.748, 9135.742
1100.846, 8735.633
1101.945, 7611.961
1103.043, 7154.031
1104.141, 6657.801
1105.239, 5910.535
1106.337, 6130.531
1107.434, 4947.934
1108.532, 4889.297
1109.629, 4851.867
1110.726, 4285.387
1111.823, 4103.391
1112.920, 3497.137
1114.017, 3537.297
1115.113, 3492.762
1116.210, 3445.793
1117.306, 3704.863
1118.402, 3521.883
1119.498, 3429.828
1120.593, 3671.387
1121.689, 3555.293
1122.784, 3484.141
1123.879, 3793.328
1124.974, 3681.730
1126.069, 3632.801
1127.164, 3379.523
1128.259, 3199.477
1129.353, 2955.617
1130.447, 2679.535
1131.541, 2644.785
1132.635, 2590.781
1133.729, 2762.996
1134.822, 2702.137
1135.916, 2469.848
1137.009, 2315.230
1138.102, 2137.938
1139.195, 1944.934
1140.288, 1734.441
1141.380, 1561.387
1142.473, 1353.184
1143.565, 1102.770
1144.657, 1078.641
1145.749, 683.5117
1146.841, 654.3594
1147.932, 533.9258
1149.024, 367.1211
1150.115, 365.0977
1151.206, 333.3984
1152.297, 298.0664
1153.388, 141.2148
1154.479, 413.6719
1155.569, 163.3555
1156.659, 579.3086
1157.750, 393.9297
1158.839, 596.9883
1159.929, 590.1641
1161.019, 458.6367
1162.108, 397.2500
1163.198, 307.2852
1164.287, 318.6719
1165.376, 331.0547
1166.465, 199.9297
1167.553, 97.01172
1168.642, 86.09766
1169.730, 143.4453
1170.818, 21.83984
1171.906, 106.3242
1172.994, 81.73047
1174.082, 139.5195
1175.170, 5.707031
1176.257, 121.4414
1177.344, 172.5625
1178.431, 267.9688
1179.518, 95.71875
1180.605, 288.7891
1181.691, 29.19141
1182.778, 109.6016
1183.864, 92.19141
1184.950, 296.0977
1186.036, 308.2422
1187.122, 139.2812
1188.207, 398.8711
1189.292, 11.30859
1190.378, 248.1680
1191.463, 191.0234
1192.548, 81.85938
1193.632, 105.8125
1194.717, 95.15234
1195.801, 72.92578
1196.886, 28.17578
1197.970, 88.39844
1199.054, 33.90625
1200.137, 18.40625
1201.221, 17.48828
1202.305, 83.11328
1203.388, 46.31641
1204.471, 63.76562
1205.554, 39.78516
1206.637, 54.51953
1207.719, 22.88672
1208.802, 58.33594
1209.884, 140.4727
1210.966, 5.472656
1212.048, 80.83203
1213.130, 157.0352
1214.212, 101.6523
1215.293, 93.25000
1216.374, 83.14844
1217.456, 41.41406
1218.536, 7.078125
1219.617, 56.59375
1220.698, 112.8359
1221.778, 99.78125
1222.859, 42.74219
1223.939, 109.1328
1225.019, 143.8477
1226.099, 314.8594
1227.178, 74.48828
1228.258, 73.11328
1229.337, 206.7812
1230.417, 121.0469
1231.496, 141.7539
1232.574, 77.65625
1233.653, 83.61719
1234.732, 103.5820
1235.810, 200.0078
1236.888, 23.67188
1237.966, 64.89062
1239.044, 121.2461
1240.122, 131.2344
1241.199, 118.1289
1242.277, 100.9609
1243.354, 125.6406
1244.431, 109.9180
1245.508, 130.1484
1246.585, 46.90234
1247.661, 185.1602
1248.738, 64.50781
1249.814, 121.3945
1250.890, 292.3125
1251.966, 53.95312
1253.042, 269.0508
1254.117, 240.3594
1255.193, 104.9180
1256.268, 209.8711
1257.343, 180.3203
1258.418, 13.88672
1259.493, 61.97266
1260.567, 59.55859
1261.642, 273.1445
1262.716, 249.6328
1263.790, 293.6406
1264.864, 568.7578
1265.938, 275.6875
1267.011, 774.1523
1268.085, 592.4180
1269.158, 319.1133
1270.231, 29.82812
1271.304, 31.41797
1272.377, 45.99609
1273.450, 230.9414
1274.522, 327.6250
1275.594, 71.93359
1276.666, 198.4141
1277.738, 15.07812
1278.810, 10.88672
1279.882, 57.27344
1280.953, 241.4844
1282.025, 92.89062
1283.096, 67.14844
1284.167, 140.8438
1285.238, 39.80078
