##NAMES=Eudialyte
##RRUFFID=R060206
##IDEAL CHEMISTRY=Na_15_Ca_6_Fe^2+^_3_Zr^4+^_3_Si(Si_25_O_73_)(O,OH,H_2_O)_3_(Cl,OH)_2_
##LOCALITY=Desourdy Quarry, Mont Saint-Hilaire, Rouville County, Quebec, Canada
##OWNER=RRUFF
##SOURCE=Royal Ontario Museum
##DESCRIPTION=Yellowish-brown gemmy fragment
##STATUS=The identification of this mineral is confirmed by single-crystal X-ray diffraction and chemical analysis.
##URL=rruff.info/R060206
##MEASURED CHEMISTRY=(Na_13.12_Ca_1.62_K_0.26_)_Σ=15_(Ca_4.47_Mn_1.00_Ce_0.32_La_0.21_)_Σ=6_(Fe_2.91_Mn_0.09_)_Σ=3_Zr_3.00_(Si_0.85_Nb_0.15_)_Σ=1_Si_25.00_O_73_((OH)_2.70_O_0.30_)_Σ=3_(Cl_1.20_(OH)_0.80_)_Σ=2_
##PIN_ID=M00448
##ORIENTATION=Laser parallel to -a* (-1 0 0). Fiducial mark perpendicular to laser is parallel to c [0 0 1]
121.8270, 0.0000000E+00
123.0580, 512.7656
124.2880, 10.73438
125.5190, 22.97070
126.7490, 95.59766
127.9790, 666.3535
129.2090, 934.3496
130.4390, 1290.416
131.6680, 1576.055
132.8980, 1795.924
134.1270, 2382.012
135.3560, 3643.182
136.5850, 3739.354
137.8140, 4113.609
139.0430, 5228.895
140.2710, 5257.547
141.5000, 5422.545
142.7280, 5147.299
143.9560, 5390.229
145.1840, 5263.953
146.4120, 5214.195
147.6390, 4542.770
148.8670, 3248.578
150.0940, 2379.557
151.3210, 1947.676
152.5490, 1273.291
153.7750, 697.8828
155.0020, 391.2051
156.2290, 0.9589840
157.4550, 135.2520
158.6810, 1.511719
159.9080, 10.48438
161.1340, 207.9277
162.3590, 578.9082
163.5850, 1031.590
164.8110, 1128.109
166.0360, 1074.578
167.2610, 1256.098
168.4860, 1417.756
169.7110, 1480.646
170.9360, 2128.873
172.1610, 2163.551
173.3850, 3060.807
174.6100, 3174.744
175.8340, 3431.447
177.0580, 4013.992
178.2820, 4614.422
179.5050, 5463.760
180.7290, 6073.992
181.9520, 7374.955
183.1760, 7935.938
184.3990, 8843.262
185.6220, 10235.20
186.8450, 11776.26
188.0670, 13307.78
189.2900, 14618.60
190.5120, 16103.75
191.7340, 17710.75
192.9560, 19224.68
194.1780, 20557.51
195.4000, 21935.28
196.6220, 23181.09
197.8430, 24366.95
199.0640, 25208.88
200.2860, 25741.90
201.5070, 26472.00
202.7270, 26466.21
203.9480, 25807.56
205.1690, 24441.10
206.3890, 23302.83
207.6090, 22346.73
208.8290, 21083.79
210.0490, 19931.97
211.2690, 18541.26
212.4890, 17173.69
213.7080, 15909.19
214.9280, 14392.88
216.1470, 13264.92
217.3660, 11937.29
218.5850, 10915.10
219.8030, 10020.58
221.0220, 8829.797
222.2400, 8133.758
223.4590, 7380.572
224.6770, 6666.250
225.8950, 5873.738
227.1120, 5036.859
228.3300, 4395.631
229.5480, 3837.057
230.7650, 3386.021
231.9820, 2874.479
233.1990, 2363.281
234.4160, 2016.217
235.6330, 1728.156
236.8490, 1813.930
238.0660, 1680.396
239.2820, 1373.508
240.4980, 1079.238
241.7140, 1056.568
242.9300, 625.4746
244.1460, 225.9336
245.3610, 66.08008
246.5770, 149.5703
247.7920, 324.5332
249.0070, 315.9648
250.2220, 353.8691
251.4370, 404.2402
252.6510, 264.0762
253.8660, 220.3789
255.0800, 119.1484
256.2940, 332.5723
257.5080, 1129.539
258.7220, 2663.484
259.9360, 2872.332
261.1490, 2206.166
262.3630, 2063.236
263.5760, 1711.869
264.7890, 1843.090
266.0020, 1830.902
267.2150, 2018.305
268.4270, 2455.502
269.6400, 2958.316
270.8520, 2997.748
272.0640, 3046.188
273.2760, 3241.816
274.4880, 3379.039
275.7000, 3568.438
276.9120, 3733.211
278.1230, 3882.049
279.3340, 4037.828
280.5450, 4182.555
281.7560, 4319.590
282.9670, 4461.047
284.1780, 4485.660
285.3880, 4815.291
286.5980, 4991.053
287.8090, 5214.023
289.0190, 5213.254
290.2290, 5490.215
291.4380, 5577.891
292.6480, 5435.697
293.8570, 6475.160
295.0670, 7470.732
296.2760, 6736.293
297.4850, 7480.156
298.6930, 7161.984
299.9020, 7069.812
301.1110, 6707.762
302.3190, 6166.107
303.5270, 6202.980
304.7350, 5721.857
305.9430, 5787.574
307.1510, 5569.496
308.3580, 5478.240
309.5660, 5535.363
310.7730, 5322.797
311.9800, 5189.064
313.1870, 4916.217
314.3940, 4995.018
315.6010, 4972.557
316.8070, 5169.297
318.0130, 5188.461
319.2200, 5246.525
320.4260, 5324.615
321.6310, 5188.928
322.8370, 5274.706
324.0430, 5525.863
325.2480, 5652.430
326.4540, 6049.443
327.6590, 6190.315
328.8640, 6860.069
330.0680, 6926.512
331.2730, 7283.623
332.4780, 7429.768
333.6820, 7411.769
334.8860, 7566.143
336.0900, 7674.932
337.2940, 7606.168
338.4980, 7324.857
339.7010, 7297.227
340.9050, 6936.322
342.1080, 7073.312
343.3110, 6796.391
344.5140, 6728.250
345.7170, 6640.166
346.9200, 6425.953
348.1220, 6576.508
349.3240, 6609.654
350.5270, 6704.426
351.7290, 6719.887
352.9310, 6760.287
354.1320, 6725.900
355.3340, 6855.439
356.5350, 6689.199
357.7370, 6672.455
358.9380, 6698.095
360.1390, 6499.574
361.3400, 6357.330
362.5400, 6266.000
363.7410, 6096.018
364.9410, 5937.682
366.1410, 5807.642
367.3410, 5576.141
368.5410, 5421.365
369.7410, 5234.312
370.9400, 5240.977
372.1400, 5144.354
373.3390, 5182.442
374.5380, 4971.236
375.7370, 4945.733
376.9360, 5029.930
378.1350, 5280.826
379.3330, 5336.419
380.5310, 5708.705
381.7300, 5880.688
382.9280, 6434.368
384.1260, 6473.743
385.3230, 6717.714
386.5210, 7324.232
387.7180, 7538.597
388.9160, 7988.674
390.1130, 8169.457
391.3100, 8153.522
392.5060, 8108.133
393.7030, 7988.881
394.9000, 7925.674
396.0960, 7484.919
397.2920, 7292.520
398.4880, 6852.431
399.6840, 6420.273
400.8800, 6065.907
402.0750, 5691.537
403.2710, 5362.844
404.4660, 4975.609
405.6610, 4777.824
406.8560, 4381.775
408.0510, 4177.468
409.2450, 4033.902
410.4400, 3924.078
411.6340, 3748.689
412.8280, 3645.640
414.0220, 3468.000
415.2160, 3415.090
416.4100, 3309.898
417.6030, 3197.424
418.7970, 3043.665
419.9900, 2701.622
421.1830, 2665.293
422.3760, 2289.677
423.5690, 2044.775
424.7610, 1949.578
425.9540, 1700.082
427.1460, 1639.278
428.3380, 1241.166
429.5300, 1143.729
430.7220, 1053.967
431.9140, 955.8779
433.1050, 973.4541
434.2970, 851.7012
435.4880, 928.6113
436.6790, 957.1885
437.8700, 1122.437
439.0610, 1077.362
440.2510, 956.9639
441.4420, 1066.240
442.6320, 946.1934
443.8220, 700.8203
445.0120, 847.1084
446.2020, 614.0693
447.3910, 586.7051
448.5810, 384.9990
449.7700, 300.9355
450.9600, 169.5010
452.1490, 58.66309
453.3370, 137.3789
454.5260, 154.6895
455.7150, 6.396484
456.9030, 23.05078
458.0910, 219.9482
459.2800, 199.5186
460.4670, 198.6416
461.6550, 269.3164
462.8430, 214.5713
464.0300, 354.3760
465.2180, 354.7969
466.4050, 401.8311
467.5920, 465.4971
468.7790, 322.8242
469.9650, 473.7324
471.1520, 403.2979
472.3380, 271.4775
473.5250, 430.1953
474.7110, 420.5283
475.8970, 373.4648
477.0820, 504.9707
478.2680, 474.1123
479.4540, 427.8672
480.6390, 334.2061
481.8240, 515.0762
483.0090, 314.5674
484.1940, 419.5674
485.3780, 225.1299
486.5630, 217.1455
487.7470, 213.6045
488.9320, 143.5010
490.1160, 103.7910
491.3000, 29.45020
492.4830, 3.432617
493.6670, 60.37109
494.8500, 126.2227
496.0340, 172.9062
497.2170, 253.8359
498.4000, 312.5205
499.5820, 353.9668
500.7650, 422.1807
501.9480, 620.1631
503.1300, 712.9258
504.3120, 891.4746
505.4940, 965.8145
506.6760, 1208.954
507.8580, 1288.902
509.0390, 1593.664
510.2210, 1616.244
511.4020, 1770.643
512.5830, 1892.863
513.7640, 2141.906
514.9450, 2341.775
516.1250, 2583.470
517.3060, 2952.992
518.4860, 3231.344
519.6660, 3722.527
520.8460, 3904.545
522.0260, 4262.396
523.2060, 4460.086
524.3850, 4752.613
525.5650, 5043.770
526.7440, 5128.188
527.9230, 5582.242
529.1020, 5757.203
530.2810, 5950.897
531.4590, 6371.524
532.6380, 6740.079
533.8160, 7072.586
534.9940, 7843.092
536.1720, 8392.597
537.3500, 9342.117
538.5270, 9890.664
539.7050, 10607.21
540.8820, 11310.73
542.0590, 11830.22
543.2360, 12691.59
544.4130, 13547.84
545.5900, 14359.95
546.7660, 15541.93
547.9430, 17017.79
549.1190, 18576.52
550.2950, 20529.13
551.4710, 22728.62
552.6470, 24711.98
553.8220, 26828.22
554.9980, 28881.35
556.1730, 30781.36
557.3480, 32146.27
558.5230, 32682.04
559.6980, 32802.71
560.8730, 33182.29
562.0470, 33637.75
563.2220, 34113.09
564.3960, 35242.34
565.5700, 35373.51
566.7440, 35138.19
567.9170, 33736.76
569.0910, 30823.00
570.2640, 27305.51
571.4380, 23473.56
572.6110, 19481.16
573.7840, 16009.28
574.9570, 12789.43
576.1290, 10451.63
577.3020, 8545.452
578.4740, 7033.378
579.6460, 5728.953
580.8180, 4589.295
581.9900, 3756.096
583.1620, 2978.356
584.3330, 2465.164
585.5040, 1907.250
586.6760, 1704.723
587.8470, 1616.487
589.0180, 1581.170
590.1880, 1579.702
591.3590, 1552.129
592.5290, 1794.358
593.7000, 1920.010
594.8700, 2137.987
596.0400, 2670.178
597.2090, 3413.565
598.3790, 3714.360
599.5490, 4571.446
600.7180, 5156.381
601.8870, 5486.961
603.0560, 6353.707
604.2250, 6958.467
605.3940, 7573.050
606.5620, 7894.174
607.7300, 8402.904
608.8990, 8385.162
610.0670, 8240.854
611.2350, 8213.556
612.4020, 7758.144
613.5700, 7756.426
614.7370, 7087.152
615.9050, 6505.905
617.0720, 6245.042
618.2390, 5852.369
619.4060, 5635.092
620.5720, 5354.187
621.7390, 5393.646
622.9050, 5161.246
624.0710, 5388.939
625.2370, 5278.562
626.4030, 5261.920
627.5690, 5125.316
628.7340, 4828.482
629.9000, 4567.604
631.0650, 4127.779
632.2300, 3536.185
633.3950, 2957.795
634.5600, 2419.534
635.7240, 2235.158
636.8890, 1887.392
638.0530, 1554.521
639.2170, 1396.251
640.3810, 960.3066
641.5450, 840.7998
642.7080, 684.2744
643.8720, 445.2930
645.0350, 447.2139
646.1980, 332.6035
647.3610, 242.1689
648.5240, 252.2295
649.6870, 93.56641
650.8490, 315.9805
652.0120, 569.4717
653.1740, 459.0439
654.3360, 694.6943
655.4980, 709.4258
656.6600, 1117.236
657.8210, 1290.132
658.9830, 1475.108
660.1440, 1619.170
661.3050, 2119.315
662.4660, 2312.548
663.6270, 2828.865
664.7870, 2941.270
665.9480, 3407.763
667.1080, 3620.345
668.2680, 3689.016
669.4280, 4003.778
670.5880, 4315.631
671.7480, 4809.576
672.9070, 5175.041
674.0670, 5794.742
675.2260, 6154.963
676.3850, 6473.277
677.5440, 7172.684
678.7030, 7938.186
679.8610, 8415.779
681.0200, 9342.463
682.1780, 9967.242
683.3360, 10723.12
684.4940, 11345.08
685.6520, 12232.14
686.8090, 12858.30
687.9670, 13564.56
689.1240, 14234.91
690.2810, 14900.36
691.4380, 15500.91
692.5950, 16405.55
693.7520, 16997.30
694.9080, 17793.14
696.0650, 18875.09
697.2210, 20083.15
698.3770, 21165.29
699.5330, 22577.55
700.6880, 23780.91
701.8440, 24923.37
702.9990, 26274.93
704.1550, 27231.60
705.3100, 28232.38
706.4650, 28679.27
707.6190, 28747.25
708.7740, 28506.41
709.9290, 27919.80
711.0830, 27003.04
712.2370, 25789.54
713.3910, 24283.19
714.5450, 23362.96
715.6980, 21843.87
716.8520, 21268.91
718.0050, 20778.08
719.1580, 21055.38
720.3110, 21087.82
721.4640, 21992.47
722.6170, 22960.53
723.7700, 23740.66
724.9220, 25010.26
726.0740, 26602.71
727.2260, 27860.29
728.3780, 29567.74
729.5300, 31157.45
730.6810, 32379.19
731.8330, 33654.03
732.9840, 35039.23
734.1350, 36173.24
735.2860, 37319.32
736.4370, 38339.13
737.5880, 39246.34
738.7380, 39848.25
739.8880, 40422.21
741.0390, 40450.84
742.1890, 40403.03
743.3380, 40131.71
744.4880, 39448.39
745.6380, 38707.34
746.7870, 38168.69
747.9360, 36935.02
749.0850, 36487.52
750.2340, 36079.03
751.3830, 35225.94
752.5310, 35030.49
753.6800, 35004.30
754.8280, 34564.30
755.9760, 34262.52
757.1240, 33583.99
758.2720, 32865.68
759.4190, 31884.60
760.5670, 31416.71
761.7140, 30064.05
762.8610, 29180.58
764.0080, 28153.31
765.1550, 26563.20
766.3020, 25855.24
767.4480, 24613.44
768.5950, 23630.75
769.7410, 22353.18
770.8870, 21349.70
772.0330, 20404.30
773.1780, 19191.97
774.3240, 17889.71
775.4690, 16791.50
776.6140, 15907.34
777.7590, 14832.23
778.9040, 14110.17
780.0490, 13060.16
781.1940, 12247.19
782.3380, 11609.27
783.4820, 10611.37
784.6260, 10137.52
785.7700, 9617.696
786.9140, 8944.899
788.0580, 8498.130
789.2010, 7971.385
790.3450, 7466.664
791.4880, 6915.971
792.6310, 6611.299
793.7730, 6151.333
794.9160, 5915.031
796.0590, 5451.432
797.2010, 4932.857
798.3430, 4668.305
799.4850, 4555.774
800.6270, 4430.270
801.7690, 4306.783
802.9100, 4342.322
804.0520, 4336.292
805.1930, 4337.465
806.3340, 4556.068
807.4750, 4801.695
808.6160, 5104.344
809.7560, 5372.164
810.8970, 5633.706
812.0370, 5893.421
813.1770, 6229.156
814.3170, 6320.915
815.4570, 6638.693
816.5960, 6699.495
817.7360, 6924.318
818.8750, 6971.164
820.0140, 6860.031
821.1530, 6506.922
822.2920, 6416.835
823.4310, 5818.770
824.5690, 5679.727
825.7070, 5150.707
826.8460, 4912.707
827.9840, 4877.732
829.1220, 4600.778
830.2590, 4633.848
831.3970, 4812.936
832.5340, 4992.045
833.6710, 5331.176
834.8080, 5703.324
835.9450, 5758.492
837.0820, 5069.682
838.2190, 4207.890
839.3550, 3300.114
840.4910, 2903.356
841.6270, 2347.617
842.7630, 1804.894
843.8990, 1651.188
845.0350, 1387.496
846.1700, 1227.821
847.3060, 1132.161
848.4410, 1323.515
849.5760, 1151.882
850.7100, 1397.263
851.8450, 1293.656
852.9800, 1312.062
854.1140, 837.4785
855.2480, 443.9072
856.3820, 199.3447
857.5160, 0.7880860
858.6500, 175.8408
859.7830, 170.6357
860.9170, 442.5967
862.0500, 720.8682
863.1830, 350.6006
864.3160, 167.5996
865.4480, 866.7734
866.5810, 957.4912
867.7130, 1048.802
868.8460, 953.7568
869.9780, 1041.308
871.1100, 1159.504
872.2410, 1014.405
873.3730, 940.9385
874.5050, 974.0684
875.6360, 1034.812
876.7670, 1025.201
877.8980, 903.2344
879.0290, 923.8447
880.1590, 777.0469
881.2900, 682.7637
882.4200, 494.9453
883.5500, 284.4922
884.6800, 237.2959
885.8100, 139.3301
886.9400, 112.4561
888.0690, 401.1895
889.1990, 511.9150
890.3280, 763.6348
891.4570, 1083.345
892.5860, 1023.049
893.7140, 1639.744
894.8430, 1644.429
895.9710, 1997.105
897.1000, 2257.771
898.2280, 2553.428
899.3560, 2992.071
900.4830, 3275.705
901.6110, 3812.326
902.7380, 4370.937
903.8660, 5168.534
904.9930, 6148.120
906.1200, 7755.693
907.2460, 9307.258
908.3730, 11994.81
909.5000, 15629.35
910.6260, 19444.87
911.7520, 21703.39
912.8780, 20585.89
914.0040, 17170.39
915.1290, 14435.87
916.2550, 12789.34
917.3800, 12724.81
918.5050, 13741.26
919.6300, 15685.71
920.7550, 18314.15
921.8800, 20081.57
923.0040, 21424.99
924.1290, 22323.41
925.2530, 24504.81
926.3770, 27633.20
927.5010, 29394.60
928.6250, 28994.99
929.7480, 27123.37
930.8720, 25877.76
931.9950, 25527.20
933.1180, 24784.69
934.2410, 24768.23
935.3640, 25679.76
936.4860, 27528.36
937.6090, 28009.00
938.7310, 26447.68
939.8530, 24035.42
940.9750, 22552.24
942.0970, 22685.15
943.2180, 23865.15
944.3400, 26608.23
945.4610, 31761.39
946.5820, 36970.66
947.7030, 39722.02
948.8240, 37244.46
949.9450, 30254.02
951.0650, 23337.64
952.1860, 18628.38
953.3060, 14933.24
954.4260, 12612.21
955.5460, 10945.30
956.6650, 9738.516
957.7850, 9081.828
958.9040, 8619.221
960.0230, 8107.697
961.1420, 7727.270
962.2610, 7375.904
963.3800, 7197.578
964.4990, 7004.258
965.6170, 6929.953
966.7350, 6882.141
967.8530, 6893.383
968.9710, 6893.111
970.0890, 6892.844
971.2070, 6879.596
972.3240, 6875.305
973.4410, 6880.123
974.5580, 6861.768
975.6750, 6988.678
976.7920, 7005.465
977.9090, 7119.432
979.0250, 7276.066
980.1410, 7380.877
981.2580, 7656.699
982.3740, 7846.525
983.4890, 8227.361
984.6050, 8445.207
985.7200, 8632.062
986.8360, 8994.930
987.9510, 9493.801
989.0660, 10022.69
990.1810, 10417.58
991.2950, 10864.49
992.4100, 11652.32
993.5240, 12158.88
994.6390, 12652.52
995.7530, 13056.85
996.8660, 13529.47
997.9800, 14179.12
999.0940, 14522.05
1000.207, 14690.90
1001.320, 14954.89
1002.433, 14624.99
1003.546, 14638.93
1004.659, 14249.26
1005.772, 14247.10
1006.884, 14025.99
1007.996, 14047.46
1009.108, 14003.84
1010.220, 14193.42
1011.332, 14191.65
1012.444, 13907.59
1013.555, 13741.33
1014.666, 13594.38
1015.777, 13424.49
1016.888, 13501.52
1017.999, 13282.93
1019.110, 13365.46
1020.220, 13327.32
1021.331, 13152.10
1022.441, 13256.53
1023.551, 13252.06
1024.661, 13240.70
1025.770, 13218.13
1026.880, 13236.27
1027.989, 13036.10
1029.098, 13034.27
1030.207, 12831.43
1031.316, 12481.69
1032.425, 12276.07
1033.533, 11926.55
1034.642, 11935.14
1035.750, 11403.84
1036.858, 11144.99
1037.966, 10810.98
1039.073, 10372.60
1040.181, 10206.75
1041.288, 9782.000
1042.396, 9845.365
1043.503, 9779.840
1044.610, 9475.430
1045.716, 9556.127
1046.823, 9420.938
1047.929, 9364.857
1049.036, 9493.891
1050.142, 9552.037
1051.248, 9887.299
1052.353, 10162.67
1053.459, 10659.16
1054.564, 11170.75
1055.670, 11729.46
1056.775, 12387.29
1057.880, 12980.06
1058.985, 13978.28
1060.089, 14476.45
1061.194, 15770.78
1062.298, 16996.17
1063.402, 18203.68
1064.506, 20149.40
1065.610, 21514.07
1066.713, 22978.30
1067.817, 23924.08
1068.920, 24495.44
1070.023, 24137.34
1071.126, 24030.61
1072.229, 23776.69
1073.332, 23021.76
1074.435, 22363.55
1075.537, 21383.03
1076.639, 20495.04
1077.741, 19490.66
1078.843, 18585.62
1079.945, 17658.39
1081.046, 17107.76
1082.148, 16427.18
1083.249, 15792.36
1084.350, 15526.06
1085.451, 15155.68
1086.551, 15012.29
1087.652, 14627.70
1088.752, 14567.99
1089.853, 13915.91
1090.953, 13809.24
1092.053, 13858.55
1093.152, 13584.45
1094.252, 13011.78
1095.351, 12683.00
1096.451, 12087.79
1097.550, 11660.84
1098.649, 11104.02
1099.748, 10360.86
1100.846, 9433.701
1101.945, 8523.611
1103.043, 7710.961
1104.141, 6991.113
1105.239, 6395.455
1106.337, 5669.641
1107.434, 5128.904
1108.532, 4719.246
1109.629, 4171.668
1110.726, 3760.162
1111.823, 3562.734
1112.920, 3392.383
1114.017, 3228.109
1115.113, 3069.910
1116.210, 2926.771
1117.306, 2801.742
1118.402, 2673.770
1119.498, 2693.873
1120.593, 2622.053
1121.689, 2619.307
1122.784, 2448.635
1123.879, 2310.037
1124.974, 2238.557
1126.069, 2226.236
1127.164, 2121.076
1128.259, 2099.146
1129.353, 1903.523
1130.447, 1927.109
1131.541, 2130.859
1132.635, 1969.951
1133.729, 1811.416
1134.822, 2041.275
1135.916, 1963.502
1137.009, 2072.125
1138.102, 1909.168
1139.195, 1834.598
1140.288, 1710.395
1141.380, 1875.562
1142.473, 1925.123
1143.565, 1796.068
1144.657, 1708.369
1145.749, 1837.027
1146.841, 1664.004
1147.932, 1671.277
1149.024, 1651.801
1150.115, 1593.537
1151.206, 1566.412
1152.297, 1479.652
1153.388, 1463.031
1154.479, 1350.646
1155.569, 1292.455
1156.659, 1327.510
1157.750, 1483.771
1158.839, 1266.301
1159.929, 1273.996
1161.019, 1347.883
1162.108, 1229.957
1163.198, 1194.207
1164.287, 1128.621
1165.376, 1140.139
1166.465, 1234.727
1167.553, 1076.373
1168.642, 1080.334
1169.730, 1443.820
1170.818, 984.6074
1171.906, 1068.434
1172.994, 1143.301
1174.082, 940.2031
1175.170, 1048.146
1176.257, 902.1406
1177.344, 856.1777
1178.431, 728.2656
1179.518, 705.4023
1180.605, 543.5938
1181.691, 562.8242
1182.778, 323.0898
1183.864, 344.3867
1184.950, 322.7090
1186.036, 454.0566
1187.122, 286.4277
1188.207, 196.8242
1189.292, 308.2402
1190.378, 167.6758
1191.463, 21.13086
1192.548, 66.59961
1193.632, 70.91211
1194.717, 258.2832
1195.801, 249.9082
1196.886, 200.4355
1197.970, 22.23047
1199.054, 270.6562
1200.137, 172.2227
1201.221, 153.8594
1202.305, 290.5820
1203.388, 282.4551
1204.471, 334.2402
1205.554, 353.4336
1206.637, 291.0215
1207.719, 261.4062
1208.802, 386.9805
1209.884, 345.0117
1210.966, 252.0176
1212.048, 361.6035
1213.130, 215.4043
1214.212, 380.3457
1215.293, 388.5195
1216.374, 365.9316
1217.456, 356.5742
1218.536, 380.4453
1219.617, 304.5605
1220.698, 209.8848
1221.778, 219.3984
1222.859, 255.0215
1223.939, 128.8652
1225.019, 25.83789
1226.099, 135.1133
1227.178, 56.05273
1228.258, 105.9492
1229.337, 77.82812
1230.417, 250.6680
1231.496, 264.4961
1232.574, 90.30469
1233.653, 268.0762
1234.732, 254.8281
1235.810, 339.5605
1236.888, 411.2754
1237.966, 399.9688
1239.044, 464.3730
1240.122, 519.3223
1241.199, 532.9160
1242.277, 623.5059
1243.354, 688.0645
1244.431, 690.5859
1245.508, 869.0723
1246.585, 790.5195
1247.661, 734.9258
1248.738, 931.2930
1249.814, 890.6191
1250.890, 1084.904
1251.966, 896.1445
1253.042, 867.3418
1254.117, 949.4902
1255.193, 1093.596
1256.268, 1261.650
1257.343, 1226.018
1258.418, 1274.613
1259.493, 1167.516
1260.567, 1289.365
1261.642, 1271.158
1262.716, 1523.895
1263.790, 1427.568
1264.864, 1482.180
1265.938, 1435.725
1267.011, 1505.205
1268.085, 1425.615
1269.158, 1494.955
1270.231, 1488.221
1271.304, 1473.412
1272.377, 1520.523
1273.450, 1350.557
1274.522, 1424.510
1275.594, 1360.377
1276.666, 1452.527
1277.738, 1325.750
1278.810, 1443.666
1279.882, 1269.535
1280.953, 1300.188
1282.025, 1527.762
1283.096, 1399.608
1284.167, 1439.352
1285.238, 1399.668
