##NAMES=Eudialyte
##RRUFFID=R060035
##IDEAL CHEMISTRY=Na_15_Ca_6_Fe^2+^_3_Zr^4+^_3_Si(Si_25_O_73_)(O,OH,H_2_O)_3_(Cl,OH)_2_
##LOCALITY=Chibini, Kola Peninsula, Russia
##OWNER=RRUFF
##SOURCE=University of Arizona Mineral Museum
##DESCRIPTION=Deep pink coarsely crystalline
##STATUS=The identification of this mineral has been confirmed by X-ray diffraction and chemical analysis
##URL=rruff.info/R060035
##MEASURED CHEMISTRY=(Na_14.86_K_0.14_)_Σ=15_Ca_6.00_(Fe_1.52_Mn_1.48_)_Σ=3_(Zr_2.82_Ti_0.18_)_Σ=3_(Si_0.93_Nb_0.07_)_Σ=1_(Si_25.00_O_73_)((OH)_1.01_(H_2_O)_1.99_)_Σ=3_(Cl_1.65_(OH)_0.35_)_Σ=2_
##PIN_ID=M00150
##ORIENTATION=Laser parallel to c* (0 0 1). Fiducial mark perpendicular to laser is parallel to b [0 1 0]
118.1340, 0.0000000E+00
119.3650, 258.9395
120.5960, 10.32617
121.8270, 274.9883
123.0580, 133.7520
124.2880, 256.3008
125.5190, 223.1094
126.7490, 152.4062
127.9790, 257.9043
129.2090, 296.9297
130.4390, 375.0254
131.6680, 545.9082
132.8980, 592.3359
134.1270, 799.7402
135.3560, 921.8301
136.5850, 885.3594
137.8140, 1287.078
139.0430, 1324.770
140.2710, 1528.234
141.5000, 1494.314
142.7280, 1353.863
143.9560, 1201.758
145.1840, 1140.893
146.4120, 1035.209
147.6390, 1036.590
148.8670, 868.0352
150.0940, 904.5254
151.3210, 772.0938
152.5490, 601.6934
153.7750, 517.0996
155.0020, 397.2695
156.2290, 371.1387
157.4550, 327.6465
158.6810, 239.7363
159.9080, 161.3672
161.1340, 176.3086
162.3590, 319.1270
163.5850, 238.2051
164.8110, 322.7129
166.0360, 420.6328
167.2610, 328.9512
168.4860, 614.6426
169.7110, 564.7031
170.9360, 552.1445
172.1610, 718.9941
173.3850, 507.2910
174.6100, 796.0410
175.8340, 729.2559
177.0580, 892.9180
178.2820, 1191.000
179.5050, 1476.482
180.7290, 1706.340
181.9520, 1549.713
183.1760, 1951.174
184.3990, 2255.572
185.6220, 2803.252
186.8450, 3200.553
188.0670, 3283.125
189.2900, 3798.957
190.5120, 4073.031
191.7340, 4596.676
192.9560, 5277.453
194.1780, 5735.594
195.4000, 6253.744
196.6220, 6775.932
197.8430, 7067.170
199.0640, 7431.477
200.2860, 7722.861
201.5070, 7831.334
202.7270, 8069.914
203.9480, 7787.605
205.1690, 7782.402
206.3890, 7647.305
207.6090, 7442.314
208.8290, 7176.438
210.0490, 6960.668
211.2690, 6545.012
212.4890, 6296.471
213.7080, 5882.039
214.9280, 5390.721
216.1470, 5088.514
217.3660, 4697.416
218.5850, 4196.436
219.8030, 3823.572
221.0220, 3535.934
222.2400, 3380.879
223.4590, 2882.447
224.6770, 2636.611
225.8950, 2369.391
227.1120, 1945.783
228.3300, 1754.740
229.5480, 1630.086
230.7650, 1248.816
231.9820, 1241.943
233.1990, 871.1875
234.4160, 854.5449
235.6330, 797.9355
236.8490, 531.3281
238.0660, 280.7246
239.2820, 309.1191
240.4980, 120.5117
241.7140, 254.9004
242.9300, 117.2930
244.1460, 101.3203
245.3610, 49.06250
246.5770, 57.55469
247.7920, 191.8242
249.0070, 115.7988
250.2220, 86.57227
251.4370, 110.9375
252.6510, 116.7051
253.8660, 21.64844
255.0800, 248.9824
256.2940, 335.3008
257.5080, 633.5977
258.7220, 598.6309
259.9360, 1069.146
261.1490, 644.4023
262.3630, 667.6465
263.5760, 872.8789
264.7890, 757.4883
266.0020, 961.8066
267.2150, 1118.834
268.4270, 1285.324
269.6400, 1214.271
270.8520, 1398.629
272.0640, 1350.348
273.2760, 1506.391
274.4880, 1538.734
275.7000, 1561.350
276.9120, 1412.215
278.1230, 1244.314
279.3340, 1197.631
280.5450, 1297.152
281.7560, 1032.863
282.9670, 1293.752
284.1780, 1235.059
285.3880, 1275.277
286.5980, 1382.518
287.8090, 1403.029
289.0190, 1466.676
290.2290, 1378.455
291.4380, 1465.357
292.6480, 1507.576
293.8570, 1609.514
295.0670, 1624.756
296.2760, 1854.100
297.4850, 1864.545
298.6930, 2049.082
299.9020, 2226.707
301.1110, 2185.420
302.3190, 2271.213
303.5270, 2328.086
304.7350, 2392.037
305.9430, 2448.059
307.1510, 2668.152
308.3580, 2609.316
309.5660, 2487.547
310.7730, 2276.846
311.9800, 2250.203
313.1870, 2169.834
314.3940, 2212.100
315.6010, 2126.635
316.8070, 2136.227
318.0130, 2134.254
319.2200, 2152.539
320.4260, 2122.803
321.6310, 1874.789
322.8370, 2175.758
324.0430, 2075.572
325.2480, 2298.785
326.4540, 2344.902
327.6590, 2306.711
328.8640, 2177.123
330.0680, 2405.287
331.2730, 2458.305
332.4780, 2665.672
333.6820, 2663.662
334.8860, 2688.139
336.0900, 2699.785
337.2940, 2635.609
338.4980, 2702.721
339.7010, 2673.121
340.9050, 2562.256
342.1080, 2471.914
343.3110, 2340.451
344.5140, 2492.117
345.7170, 2321.445
346.9200, 2179.650
348.1220, 1968.383
349.3240, 2198.096
350.5270, 1937.486
351.7290, 2428.504
352.9310, 2515.764
354.1320, 2428.285
355.3340, 2260.928
356.5350, 1961.199
357.7370, 1951.471
358.9380, 1933.744
360.1390, 1697.020
361.3400, 1725.297
362.5400, 1796.572
363.7410, 1755.848
364.9410, 1395.121
366.1410, 1419.391
367.3410, 1598.658
368.5410, 1782.916
369.7410, 1369.162
370.9400, 1129.395
372.1400, 1256.607
373.3390, 1127.799
374.5380, 1245.971
375.7370, 1199.119
376.9360, 1099.242
378.1350, 1083.336
379.3330, 1192.406
380.5310, 1160.445
381.7300, 1185.457
382.9280, 1124.443
384.1260, 1136.398
385.3230, 1283.328
386.5210, 1562.229
387.7180, 1382.102
388.9160, 1600.996
390.1130, 1901.814
391.3100, 2023.176
392.5060, 2250.936
393.7030, 2368.506
394.9000, 2461.191
396.0960, 2521.867
397.2920, 2641.301
398.4880, 2628.924
399.6840, 2421.520
400.8800, 2322.090
402.0750, 2321.631
403.2710, 2102.146
404.4660, 2307.633
405.6610, 1876.094
406.8560, 1990.527
408.0510, 1602.934
409.2450, 1564.346
410.4400, 1203.770
411.6340, 1492.209
412.8280, 1028.654
414.0220, 1063.102
415.2160, 967.5508
416.4100, 958.0000
417.6030, 896.4473
418.7970, 742.8906
419.9900, 817.3301
421.1830, 792.7637
422.3760, 543.1914
423.5690, 389.6113
424.7610, 337.0273
425.9540, 299.4297
427.1460, 68.82422
428.3380, 165.2031
429.5300, 15.57227
430.7220, 161.9141
431.9140, 254.2422
433.1050, 175.5566
434.2970, 324.8594
435.4880, 362.1426
436.6790, 341.4121
437.8700, 495.6641
439.0610, 661.8965
440.2510, 602.1133
441.4420, 795.3086
442.6320, 729.4883
443.8220, 724.6445
445.0120, 667.7832
446.2020, 844.9004
447.3910, 909.9980
448.5810, 814.0723
449.7700, 770.1230
450.9600, 624.1504
452.1490, 668.1562
453.3370, 752.1367
454.5260, 451.0918
455.7150, 558.0215
456.9030, 324.9277
458.0910, 417.8066
459.2800, 455.6582
460.4670, 185.4844
461.6550, 141.2754
462.8430, 163.0391
464.0300, 11.76758
465.2180, 33.22852
466.4050, 347.0215
467.5920, 191.7305
468.7790, 283.6211
469.9650, 292.7441
471.1520, 173.1074
472.3380, 390.6465
473.5250, 243.4805
474.7110, 247.5293
475.8970, 303.7969
477.0820, 310.3125
478.2680, 264.0840
479.4540, 234.0840
480.6390, 94.29883
481.8240, 193.6562
483.0090, 61.20703
484.1940, 291.8848
485.3780, 177.8086
486.5630, 51.92188
487.7470, 83.84570
488.9320, 20.55078
490.1160, 3.822266
491.3000, 252.7031
492.4830, 85.18945
493.6670, 186.6211
494.8500, 403.0117
496.0340, 310.3652
497.2170, 284.6816
498.4000, 512.9590
499.5820, 400.2031
500.7650, 715.4082
501.9480, 815.5801
503.1300, 627.7168
504.3120, 721.8145
505.4940, 958.8789
506.6760, 883.2109
507.8580, 980.2168
509.0390, 1155.174
510.2210, 1315.092
511.4020, 1265.975
512.5830, 1415.822
513.7640, 1434.633
514.9450, 1658.406
516.1250, 1603.145
517.3060, 1600.846
518.4860, 1734.510
519.6660, 1447.139
520.8460, 1778.732
522.0260, 1745.289
523.2060, 1998.816
524.3850, 1991.312
525.5650, 1951.771
526.7440, 2291.215
527.9230, 2394.689
529.1020, 2384.189
530.2810, 2376.660
531.4590, 2700.145
532.6380, 2670.605
533.8160, 2899.043
534.9940, 3003.484
536.1720, 3729.908
537.3500, 4125.418
538.5270, 4737.955
539.7050, 5337.500
540.8820, 5900.104
542.0590, 6617.713
543.2360, 7324.352
544.4130, 7870.990
545.5900, 8385.641
546.7660, 9412.262
547.9430, 9873.906
549.1190, 10828.53
550.2950, 11943.13
551.4710, 12847.77
552.6470, 13644.48
553.8220, 14717.18
554.9980, 15521.93
556.1730, 16264.70
557.3480, 16676.44
558.5230, 17073.17
559.6980, 16843.92
560.8730, 16961.69
562.0470, 17178.52
563.2220, 17542.41
564.3960, 17715.32
565.5700, 17455.21
566.7440, 16579.09
567.9170, 15579.95
569.0910, 14148.52
570.2640, 12067.32
571.4380, 10568.24
572.6110, 8678.004
573.7840, 7475.746
574.9570, 6169.449
576.1290, 5211.115
577.3020, 4159.746
578.4740, 3371.342
579.6460, 3091.934
580.8180, 2691.494
581.9900, 2381.014
583.1620, 2137.494
584.3330, 2159.938
585.5040, 1961.340
586.6760, 2050.699
587.8470, 1970.016
589.0180, 2110.289
590.1880, 2153.559
591.3590, 2240.471
592.5290, 2310.857
593.7000, 2507.959
594.8700, 2573.018
596.0400, 2770.031
597.2090, 2859.996
598.3790, 3075.920
599.5490, 3128.799
600.7180, 3231.631
601.8870, 3725.033
603.0560, 3775.184
604.2250, 3806.355
605.3940, 3933.809
606.5620, 3770.277
607.7300, 3675.895
608.8990, 3832.111
610.0670, 3674.418
611.2350, 3652.014
612.4020, 3341.988
613.5700, 2839.189
614.7370, 2860.512
615.9050, 2617.471
617.0720, 2538.797
618.2390, 2224.621
619.4060, 2221.262
620.5720, 2055.703
621.7390, 1786.844
622.9050, 2203.682
624.0710, 2090.766
625.2370, 1903.314
626.4030, 2203.969
627.5690, 1847.477
628.7340, 1719.305
629.9000, 1744.240
631.0650, 1711.635
632.2300, 1692.023
633.3950, 1539.723
634.5600, 1247.773
635.7240, 1273.561
636.8890, 1045.064
638.0530, 812.4277
639.2170, 923.1406
640.3810, 668.8242
641.5450, 511.4824
642.7080, 466.1172
643.8720, 334.7246
645.0350, 500.3066
646.1980, 107.8594
647.3610, 177.3867
648.5240, 373.8867
649.6870, 502.3574
650.8490, 301.8027
652.0120, 432.2207
653.1740, 543.6152
654.3360, 562.9805
655.4980, 666.3203
656.6600, 562.6328
657.8210, 692.9180
658.9830, 737.1758
660.1440, 889.9688
661.3050, 721.7969
662.4660, 953.7969
663.6270, 955.6094
664.7870, 1200.102
665.9480, 1209.010
667.1080, 1295.221
668.2680, 1452.723
669.4280, 1431.127
670.5880, 1542.891
671.7480, 1691.910
672.9070, 1451.164
674.0670, 2104.439
675.2260, 2193.488
676.3850, 2052.314
677.5440, 2300.545
678.7030, 2521.912
679.8610, 2456.496
681.0200, 2931.830
682.1780, 3056.932
683.3360, 3591.125
684.4940, 3592.893
685.6520, 3803.129
686.8090, 4424.879
687.9670, 4845.744
689.1240, 4892.869
690.2810, 5602.016
691.4380, 6009.039
692.5950, 6237.215
693.7520, 6762.070
694.9080, 7076.203
696.0650, 7855.250
697.2210, 8147.230
698.3770, 8501.625
699.5330, 8808.980
700.6880, 9304.260
701.8440, 9672.902
702.9990, 10137.41
704.1550, 10130.82
705.3100, 9964.789
706.4650, 10148.94
707.6190, 9698.262
708.7740, 9317.879
709.9290, 9026.066
711.0830, 8106.070
712.2370, 7367.031
713.3910, 6761.375
714.5450, 6227.055
715.6980, 5761.605
716.8520, 4966.160
718.0050, 4131.686
719.1580, 3742.100
720.3110, 3297.486
721.4640, 2715.996
722.6170, 2608.941
723.7700, 2565.465
724.9220, 2351.350
726.0740, 2506.486
727.2260, 2224.631
728.3780, 2364.445
729.5300, 2444.703
730.6810, 2631.295
731.8330, 2713.756
732.9840, 3070.160
734.1350, 2911.510
735.2860, 2856.801
736.4370, 3566.037
737.5880, 3661.219
738.7380, 4094.342
739.8880, 4126.412
741.0390, 4596.428
742.1890, 4745.389
743.3380, 4743.297
744.4880, 4841.170
745.6380, 4797.604
746.7870, 4793.938
747.9360, 4581.875
749.0850, 4460.855
750.2340, 4151.889
751.3830, 3903.936
752.5310, 3963.059
753.6800, 4106.219
754.8280, 3731.416
755.9760, 3843.668
757.1240, 3867.975
758.2720, 3831.324
759.4190, 3534.711
760.5670, 3300.094
761.7140, 3677.506
762.8610, 3196.906
764.0080, 3336.357
765.1550, 3224.832
766.3020, 3237.293
767.4480, 3376.713
768.5950, 3124.100
769.7410, 3080.465
770.8870, 3066.775
772.0330, 3197.043
773.1780, 2906.258
774.3240, 2951.416
775.4690, 2922.521
776.6140, 2689.574
777.7590, 2820.566
778.9040, 3097.506
780.0490, 2976.387
781.1940, 2764.215
782.3380, 2533.988
783.4820, 2374.865
784.6260, 2255.062
785.7700, 2059.652
786.9140, 1916.252
788.0580, 1749.184
789.2010, 1591.131
790.3450, 1422.514
791.4880, 1253.840
792.6310, 1117.113
793.7730, 988.3301
794.9160, 634.4922
796.0590, 579.6035
797.2010, 358.6602
798.3430, 343.6543
799.4850, 295.5938
800.6270, 333.4688
801.7690, 163.2871
802.9100, 42.03906
804.0520, 180.2891
805.1930, 139.8145
806.3340, 71.48438
807.4750, 78.28711
808.6160, 68.79883
809.7560, 54.81445
810.8970, 73.24805
812.0370, 59.55273
813.1770, 386.7168
814.3170, 155.2930
815.4570, 63.04883
816.5960, 258.9336
817.7360, 81.05078
818.8750, 174.3086
820.0140, 49.75586
821.1530, 92.32227
822.2920, 81.96484
823.4310, 158.8086
824.5690, 35.23828
825.7070, 7.210938
826.8460, 217.9043
827.9840, 313.2266
829.1220, 14.80273
830.2590, 282.4766
831.3970, 145.3867
832.5340, 42.53711
833.6710, 35.60742
834.8080, 139.8555
835.9450, 173.2617
837.0820, 269.8438
838.2190, 357.6504
839.3550, 182.7266
840.4910, 49.01953
841.6270, 99.29688
842.7630, 65.25977
843.8990, 29.75586
845.0350, 37.80859
846.1700, 33.46680
847.3060, 1.216797
848.4410, 35.03906
849.5760, 159.0469
850.7100, 63.08203
851.8450, 76.06055
852.9800, 57.98828
854.1140, 121.1387
855.2480, 56.60547
856.3820, 46.29688
857.5160, 237.9355
858.6500, 116.5254
859.7830, 199.3008
860.9170, 334.5684
862.0500, 257.0234
863.1830, 237.4395
864.3160, 298.8105
865.4480, 175.1426
866.5810, 316.4297
867.7130, 547.6797
868.8460, 512.8926
869.9780, 647.0684
871.1100, 753.2109
872.2410, 640.3145
873.3730, 827.3828
874.5050, 790.4180
875.6360, 1032.416
876.7670, 1053.381
877.8980, 998.3105
879.0290, 1239.207
880.1590, 1294.072
881.2900, 993.9023
882.4200, 1120.701
883.5500, 1505.467
884.6800, 1162.199
885.8100, 1479.898
886.9400, 1506.566
888.0690, 1569.203
889.1990, 1770.803
890.3280, 1972.373
891.4570, 2008.910
892.5860, 2107.412
893.7140, 2525.883
894.8430, 2614.320
895.9710, 2694.725
897.1000, 3056.098
898.2280, 3330.438
899.3560, 3755.746
900.4830, 3980.018
901.6110, 4327.262
902.7380, 4400.473
903.8660, 4899.648
904.9930, 5000.795
906.1200, 5257.910
907.2460, 5598.994
908.3730, 5784.707
909.5000, 6197.072
910.6260, 6391.064
911.7520, 6613.029
912.8780, 7098.967
914.0040, 7293.875
915.1290, 7552.758
916.2550, 8048.609
917.3800, 7919.438
918.5050, 8405.238
919.6300, 8750.012
920.7550, 8648.770
921.8800, 8922.508
923.0040, 8892.242
924.1290, 8470.953
925.2530, 8467.734
926.3770, 7982.500
927.5010, 7786.246
928.6250, 7701.012
929.7480, 6994.836
930.8720, 6982.711
931.9950, 6413.570
933.1180, 5906.855
934.2410, 5869.059
935.3640, 5599.113
936.4860, 5153.387
937.6090, 5294.961
938.7310, 5082.086
939.8530, 4957.746
940.9750, 4512.020
942.0970, 4712.914
943.2180, 4340.070
944.3400, 4603.961
945.4610, 4416.578
946.5820, 4363.125
947.7030, 4030.891
948.8240, 3981.832
949.9450, 3964.324
951.0650, 3879.664
952.1860, 3547.746
953.3060, 3797.051
954.4260, 3582.551
955.5460, 3234.977
956.6650, 3179.781
957.7850, 3331.082
958.9040, 3202.832
960.0230, 3386.418
961.1420, 2738.703
962.2610, 2879.926
963.3800, 2723.227
964.4990, 2621.336
965.6170, 2628.723
966.7350, 2545.797
967.8530, 2733.906
968.9710, 2656.055
970.0890, 2515.742
971.2070, 2842.438
972.3240, 2563.172
973.4410, 2556.500
974.5580, 2458.934
975.6750, 2766.422
976.7920, 2714.324
977.9090, 2587.992
979.0250, 2781.453
980.1410, 2736.582
981.2580, 3152.105
982.3740, 3114.789
983.4890, 3250.480
984.6050, 3408.750
985.7200, 3591.656
986.8360, 3644.652
987.9510, 3816.609
989.0660, 3961.789
990.1810, 4138.582
991.2950, 4232.605
992.4100, 4429.516
993.5240, 4433.965
994.6390, 4652.797
995.7530, 4634.254
996.8660, 4699.453
997.9800, 4602.605
999.0940, 4522.070
1000.207, 4386.086
1001.320, 4338.730
1002.433, 4078.469
1003.546, 4056.230
1004.659, 3630.016
1005.772, 3549.824
1006.884, 3751.660
1007.996, 3216.523
1009.108, 2926.410
1010.220, 2773.324
1011.332, 2921.266
1012.444, 2809.238
1013.555, 2525.246
1014.666, 2416.273
1015.777, 2295.332
1016.888, 2607.414
1017.999, 2320.520
1019.110, 2597.656
1020.220, 2435.824
1021.331, 2185.047
1022.441, 2339.297
1023.551, 2514.613
1024.661, 2166.957
1025.770, 2110.332
1026.880, 2103.730
1027.989, 2117.156
1029.098, 1965.625
1030.207, 2114.117
1031.316, 2107.645
1032.425, 2281.195
1033.533, 2213.777
1034.642, 2216.391
1035.750, 2344.035
1036.858, 2488.746
1037.966, 2054.512
1039.073, 2270.305
1040.181, 1973.133
1041.288, 2068.984
1042.396, 2095.863
1043.503, 2170.797
1044.610, 2176.504
1045.716, 2192.586
1046.823, 2174.117
1047.929, 2083.434
1049.036, 2079.516
1050.142, 2084.789
1051.248, 2046.809
1052.353, 2082.461
1053.459, 2096.062
1054.564, 2141.102
1055.670, 2262.812
1056.775, 2284.395
1057.880, 2380.262
1058.985, 2504.578
1060.089, 2737.168
1061.194, 2612.895
1062.298, 2829.703
1063.402, 3126.703
1064.506, 3352.988
1065.610, 3265.781
1066.713, 3254.090
1067.817, 3320.406
1068.920, 3426.754
1070.023, 3552.836
1071.126, 3738.473
1072.229, 3858.715
1073.332, 4035.645
1074.435, 4141.039
1075.537, 4343.918
1076.639, 4749.371
1077.741, 4657.199
1078.843, 4847.438
1079.945, 5031.867
1081.046, 4980.074
1082.148, 5302.281
1083.249, 5480.070
1084.350, 5726.242
1085.451, 5868.559
1086.551, 6135.195
1087.652, 6248.543
1088.752, 6457.828
1089.853, 6832.945
1090.953, 6825.555
1092.053, 6864.336
1093.152, 7036.355
1094.252, 6773.277
1095.351, 6431.188
1096.451, 6073.664
1097.550, 5799.020
1098.649, 5421.289
1099.748, 5173.945
1100.846, 4701.027
1101.945, 4312.652
1103.043, 3925.402
1104.141, 3581.766
1105.239, 3387.262
1106.337, 3130.199
1107.434, 2886.250
1108.532, 2731.434
1109.629, 2686.801
1110.726, 2414.625
1111.823, 2261.051
1112.920, 2099.492
1114.017, 2146.660
1115.113, 2148.156
1116.210, 1888.738
1117.306, 2031.488
1118.402, 1707.910
1119.498, 1682.875
1120.593, 1369.605
1121.689, 1929.648
1122.784, 1716.402
1123.879, 1657.055
1124.974, 1576.648
1126.069, 1571.348
1127.164, 1405.699
1128.259, 1707.238
1129.353, 1508.938
1130.447, 1466.324
1131.541, 1383.840
1132.635, 1188.973
1133.729, 1295.137
1134.822, 1248.320
1135.916, 986.6758
1137.009, 1208.500
1138.102, 813.3945
1139.195, 795.2188
1140.288, 763.6094
1141.380, 1126.488
1142.473, 913.7031
1143.565, 658.8555
1144.657, 513.2188
1145.749, 222.5703
1146.841, 174.3164
1147.932, 333.1094
1149.024, 323.7969
1150.115, 104.1406
1151.206, 328.6680
1152.297, 51.83594
1153.388, 224.8477
1154.479, 594.4492
1155.569, 142.2773
1156.659, 202.5938
1157.750, 299.7344
1158.839, 431.0859
1159.929, 227.5234
1161.019, 147.2266
1162.108, 56.23047
1163.198, 190.9023
1164.287, 249.3672
1165.376, 195.6602
1166.465, 101.9805
1167.553, 181.3320
1168.642, 131.3359
1169.730, 260.6641
1170.818, 137.9883
1171.906, 165.3047
1172.994, 194.6055
1174.082, 100.1797
1175.170, 63.71484
1176.257, 72.29297
1177.344, 142.2539
1178.431, 61.16016
1179.518, 212.0664
1180.605, 186.6836
1181.691, 330.2422
1182.778, 56.76562
1183.864, 79.64062
1184.950, 80.25781
1186.036, 58.26562
1187.122, 120.5781
1188.207, 370.7422
1189.292, 60.64453
1190.378, 151.1094
1191.463, 169.7578
1192.548, 327.8008
1193.632, 280.6992
1194.717, 26.00391
1195.801, 36.92188
1196.886, 39.80859
1197.970, 257.0352
1199.054, 308.2852
1200.137, 106.9531
1201.221, 10.97656
1202.305, 122.0234
1203.388, 238.9492
1204.471, 133.2734
1205.554, 26.95312
1206.637, 143.9336
1207.719, 68.19531
1208.802, 218.5039
1209.884, 89.14062
1210.966, 15.49219
1212.048, 414.6484
1213.130, 70.02734
1214.212, 99.17188
1215.293, 56.89844
1216.374, 33.70703
1217.456, 195.5391
1218.536, 196.3867
1219.617, 169.7266
1220.698, 101.6875
1221.778, 322.4688
1222.859, 274.2734
1223.939, 307.4219
1225.019, 332.6953
1226.099, 229.5469
1227.178, 281.8438
1228.258, 304.9883
1229.337, 244.1875
1230.417, 149.4805
1231.496, 216.0547
1232.574, 75.83203
1233.653, 133.5820
1234.732, 130.1641
1235.810, 57.63281
1236.888, 292.1953
1237.966, 440.2383
1239.044, 400.4961
1240.122, 426.4258
1241.199, 259.4648
1242.277, 264.7773
1243.354, 100.4883
1244.431, 52.51953
1245.508, 268.9062
1246.585, 235.0156
1247.661, 317.7812
1248.738, 444.5508
1249.814, 253.2227
1250.890, 192.3164
1251.966, 266.8867
1253.042, 107.2695
1254.117, 311.0859
1255.193, 78.40234
1256.268, 13.35547
1257.343, 4.804688
1258.418, 298.0234
1259.493, 36.50391
1260.567, 16.50000
1261.642, 446.1484
1262.716, 441.4023
1263.790, 438.7539
1264.864, 395.9492
1265.938, 287.3516
1267.011, 270.4766
1268.085, 287.3906
1269.158, 151.1836
1270.231, 272.6992
1271.304, 192.6562
1272.377, 207.5820
1273.450, 83.91797
1274.522, 156.8398
1275.594, 303.2031
1276.666, 290.9648
1277.738, 317.3711
1278.810, 395.5039
1279.882, 86.23438
1280.953, 6.250000
1282.025, 107.9062
1283.096, 31.25391
1284.167, 269.5039
1285.238, 163.6836
