##NAMES=Eudialyte
##RRUFFID=R060206
##IDEAL CHEMISTRY=Na_15_Ca_6_Fe^2+^_3_Zr^4+^_3_Si(Si_25_O_73_)(O,OH,H_2_O)_3_(Cl,OH)_2_
##LOCALITY=Desourdy Quarry, Mont Saint-Hilaire, Rouville County, Quebec, Canada
##OWNER=RRUFF
##SOURCE=Royal Ontario Museum
##DESCRIPTION=Yellowish-brown gemmy fragment
##STATUS=The identification of this mineral is confirmed by single-crystal X-ray diffraction and chemical analysis.
##URL=rruff.info/R060206
##MEASURED CHEMISTRY=(Na_13.12_Ca_1.62_K_0.26_)_Σ=15_(Ca_4.47_Mn_1.00_Ce_0.32_La_0.21_)_Σ=6_(Fe_2.91_Mn_0.09_)_Σ=3_Zr_3.00_(Si_0.85_Nb_0.15_)_Σ=1_Si_25.00_O_73_((OH)_2.70_O_0.30_)_Σ=3_(Cl_1.20_(OH)_0.80_)_Σ=2_
##PIN_ID=M00202
##ORIENTATION=Laser parallel to -c* (0 0 -1). Fiducial mark perpendicular to laser is parallel to a [1 0 0]
116.9030, 0.0000000E+00
118.1340, 2.851563
119.3650, 18.61914
120.5960, 90.48828
121.8270, 27.27539
123.0580, 190.0078
124.2880, 43.64258
125.5190, 23.85742
126.7490, 12.25781
127.9790, 384.0742
129.2090, 1023.588
130.4390, 1400.143
131.6680, 1768.828
132.8980, 2152.057
134.1270, 2733.162
135.3560, 3177.029
136.5850, 3634.336
137.8140, 4169.934
139.0430, 4442.020
140.2710, 4502.035
141.5000, 4623.578
142.7280, 3966.369
143.9560, 3549.230
145.1840, 3233.057
146.4120, 2781.785
147.6390, 2306.514
148.8670, 1820.494
150.0940, 1457.654
151.3210, 1135.254
152.5490, 855.4707
153.7750, 641.2793
155.0020, 563.3320
156.2290, 406.8730
157.4550, 518.1465
158.6810, 681.3613
159.9080, 693.7129
161.1340, 923.3730
162.3590, 1098.502
163.5850, 1236.232
164.8110, 1452.686
166.0360, 1779.977
167.2610, 1962.230
168.4860, 2227.580
169.7110, 2491.170
170.9360, 2942.117
172.1610, 3261.518
173.3850, 3803.463
174.6100, 4180.025
175.8340, 4741.277
177.0580, 5638.248
178.2820, 6663.998
179.5050, 7544.475
180.7290, 8451.859
181.9520, 9698.115
183.1760, 11117.12
184.3990, 12608.13
185.6220, 13893.20
186.8450, 15357.02
188.0670, 16920.01
189.2900, 18702.03
190.5120, 20848.69
191.7340, 22233.83
192.9560, 24265.13
194.1780, 26242.55
195.4000, 28029.11
196.6220, 29771.81
197.8430, 31250.65
199.0640, 32924.60
200.2860, 33840.68
201.5070, 34434.90
202.7270, 34870.31
203.9480, 34740.93
205.1690, 33725.73
206.3890, 32763.71
207.6090, 31466.82
208.8290, 30021.04
210.0490, 28300.38
211.2690, 26005.86
212.4890, 24314.51
213.7080, 22349.39
214.9280, 20338.55
216.1470, 18433.03
217.3660, 16522.02
218.5850, 14790.74
219.8030, 13080.33
221.0220, 11544.67
222.2400, 10286.77
223.4590, 9281.537
224.6770, 8117.826
225.8950, 6967.586
227.1120, 6212.924
228.3300, 5350.936
229.5480, 4664.400
230.7650, 4102.406
231.9820, 3428.975
233.1990, 3298.021
234.4160, 2702.281
235.6330, 2281.523
236.8490, 1723.637
238.0660, 1276.439
239.2820, 848.7891
240.4980, 605.6562
241.7140, 383.0000
242.9300, 181.8008
244.1460, 125.9414
245.3610, 232.2266
246.5770, 466.0469
247.7920, 457.4043
249.0070, 443.2988
250.2220, 362.7227
251.4370, 345.6934
252.6510, 173.2617
253.8660, 218.5762
255.0800, 165.0254
256.2940, 172.1934
257.5080, 501.1797
258.7220, 672.3027
259.9360, 921.4141
261.1490, 1270.590
262.3630, 1371.547
263.5760, 1912.975
264.7890, 2376.924
266.0020, 2797.430
267.2150, 3495.939
268.4270, 3705.604
269.6400, 4378.396
270.8520, 4757.117
272.0640, 5060.013
273.2760, 5491.771
274.4880, 5613.778
275.7000, 5776.933
276.9120, 5803.133
278.1230, 5926.744
279.3340, 5908.238
280.5450, 6051.602
281.7560, 6044.141
282.9670, 6203.465
284.1780, 6533.697
285.3880, 6537.533
286.5980, 6709.633
287.8090, 6905.338
289.0190, 6869.160
290.2290, 7102.293
291.4380, 7265.276
292.6480, 7253.080
293.8570, 7434.404
295.0670, 7301.664
296.2760, 7265.309
297.4850, 7455.961
298.6930, 7455.531
299.9020, 7425.170
301.1110, 7385.609
302.3190, 7410.803
303.5270, 7445.059
304.7350, 7329.121
305.9430, 7227.706
307.1510, 7086.490
308.3580, 6918.517
309.5660, 6404.002
310.7730, 6458.066
311.9800, 6026.777
313.1870, 5852.576
314.3940, 5648.185
315.6010, 5503.275
316.8070, 5242.838
318.0130, 5145.545
319.2200, 5233.322
320.4260, 5558.734
321.6310, 5589.816
322.8370, 5731.965
324.0430, 6076.192
325.2480, 6187.346
326.4540, 6676.967
327.6590, 7270.816
328.8640, 7376.874
330.0680, 7806.269
331.2730, 8225.426
332.4780, 8642.886
333.6820, 8762.583
334.8860, 9053.706
336.0900, 9011.235
337.2940, 8938.508
338.4980, 8829.948
339.7010, 8666.907
340.9050, 8471.950
342.1080, 8293.108
343.3110, 8198.431
344.5140, 8002.970
345.7170, 8205.216
346.9200, 8093.895
348.1220, 8003.393
349.3240, 8268.339
350.5270, 8191.885
351.7290, 8265.904
352.9310, 8626.849
354.1320, 8718.141
355.3340, 9001.077
356.5350, 9008.025
357.7370, 9054.123
358.9380, 8801.960
360.1390, 8684.504
361.3400, 8540.244
362.5400, 8349.620
363.7410, 8252.638
364.9410, 7820.428
366.1410, 7644.506
367.3410, 7504.275
368.5410, 7271.733
369.7410, 7111.875
370.9400, 7043.697
372.1400, 6922.199
373.3390, 6904.375
374.5380, 6759.221
375.7370, 6910.735
376.9360, 6854.914
378.1350, 7100.754
379.3330, 7205.252
380.5310, 7636.412
381.7300, 7855.229
382.9280, 8181.348
384.1260, 8815.280
385.3230, 9279.727
386.5210, 9786.836
387.7180, 10190.15
388.9160, 10673.45
390.1130, 10751.52
391.3100, 10910.40
392.5060, 10916.33
393.7030, 10648.65
394.9000, 10418.53
396.0960, 9874.021
397.2920, 9416.860
398.4880, 9145.405
399.6840, 8225.883
400.8800, 7680.093
402.0750, 7217.217
403.2710, 6837.444
404.4660, 6384.455
405.6610, 6061.754
406.8560, 5649.099
408.0510, 5401.947
409.2450, 5161.480
410.4400, 4987.691
411.6340, 4783.584
412.8280, 4657.156
414.0220, 4503.725
415.2160, 4389.334
416.4100, 4282.939
417.6030, 4064.220
418.7970, 4023.175
419.9900, 3732.805
421.1830, 3376.108
422.3760, 3244.086
423.5690, 2898.737
424.7610, 2477.062
425.9540, 2359.058
427.1460, 2088.723
428.3380, 1769.046
429.5300, 1649.016
430.7220, 1446.633
431.9140, 1358.887
433.1050, 1224.776
434.2970, 1199.690
435.4880, 1181.457
436.6790, 1234.246
437.8700, 1184.673
439.0610, 1254.737
440.2510, 1403.443
441.4420, 1330.798
442.6320, 1224.803
443.8220, 956.4551
445.0120, 937.7480
446.2020, 763.6816
447.3910, 740.2471
448.5810, 524.4473
449.7700, 475.2656
450.9600, 298.7031
452.1490, 255.7344
453.3370, 252.3574
454.5260, 149.5703
455.7150, 110.3506
456.9030, 101.6816
458.0910, 84.43164
459.2800, 6.083984
460.4670, 257.2275
461.6550, 331.9902
462.8430, 320.4082
464.0300, 325.4678
465.2180, 289.1699
466.4050, 301.4883
467.5920, 344.4248
468.7790, 399.9990
469.9650, 283.2314
471.1520, 343.0527
472.3380, 291.4873
473.5250, 291.4980
474.7110, 249.0801
475.8970, 440.2031
477.0820, 378.9639
478.2680, 492.3232
479.4540, 563.3369
480.6390, 498.0371
481.8240, 296.3828
483.0090, 530.2637
484.1940, 497.7979
485.3780, 496.9619
486.5630, 592.7480
487.7470, 553.2021
488.9320, 541.2979
490.1160, 504.0215
491.3000, 365.3486
492.4830, 245.2002
493.6670, 282.5049
494.8500, 72.27637
496.0340, 187.3994
497.2170, 195.9258
498.4000, 1.855469
499.5820, 230.9170
500.7650, 405.4248
501.9480, 623.6816
503.1300, 722.6963
504.3120, 955.4756
505.4940, 1186.029
506.6760, 1383.368
507.8580, 1643.504
509.0390, 1796.439
510.2210, 1969.179
511.4020, 2124.725
512.5830, 2374.078
513.7640, 2643.241
514.9450, 2970.217
516.1250, 3269.006
517.3060, 3728.610
518.4860, 4139.034
519.6660, 4463.246
520.8460, 4948.341
522.0260, 5198.229
523.2060, 5599.943
524.3850, 6079.488
525.5650, 6160.863
526.7440, 6602.081
527.9230, 6791.149
529.1020, 7071.076
530.2810, 7535.883
531.4590, 7799.639
532.6380, 8479.374
533.8160, 9341.155
534.9940, 9955.983
536.1720, 11096.85
537.3500, 11880.75
538.5270, 12839.67
539.7050, 13761.58
540.8820, 14754.48
542.0590, 15386.36
543.2360, 16158.16
544.4130, 17214.83
545.5900, 18032.40
546.7660, 19366.83
547.9430, 20842.15
549.1190, 22801.34
550.2950, 25194.40
551.4710, 27917.34
552.6470, 31045.16
553.8220, 34255.85
554.9980, 37161.43
556.1730, 39920.91
557.3480, 42067.24
558.5230, 42542.49
559.6980, 42582.60
560.8730, 42435.62
562.0470, 42906.55
563.2220, 44638.36
564.3960, 46414.06
565.5700, 48553.68
566.7440, 48894.86
567.9170, 47629.49
569.0910, 44020.92
570.2640, 38665.98
571.4380, 33121.46
572.6110, 27420.06
573.7840, 22273.25
574.9570, 18191.83
576.1290, 14838.29
577.3020, 12135.73
578.4740, 10123.51
579.6460, 8373.188
580.8180, 6847.284
581.9900, 5717.166
583.1620, 4900.948
584.3330, 4224.486
585.5040, 3710.084
586.6760, 3133.830
587.8470, 2947.424
589.0180, 2674.104
590.1880, 2910.212
591.3590, 3018.038
592.5290, 3282.555
593.7000, 3549.574
594.8700, 3877.941
596.0400, 4330.581
597.2090, 4837.061
598.3790, 5722.660
599.5490, 6555.646
600.7180, 7646.041
601.8870, 8264.188
603.0560, 9220.124
604.2250, 10242.31
605.3940, 11210.66
606.5620, 11976.76
607.7300, 12475.54
608.8990, 12918.08
610.0670, 13016.57
611.2350, 12817.83
612.4020, 12392.78
613.5700, 11800.42
614.7370, 11345.53
615.9050, 10489.77
617.0720, 9880.512
618.2390, 9440.596
619.4060, 8846.078
620.5720, 8591.635
621.7390, 8285.832
622.9050, 8524.246
624.0710, 8433.551
625.2370, 8441.473
626.4030, 8525.047
627.5690, 8510.222
628.7340, 7938.502
629.9000, 7726.174
631.0650, 6776.840
632.2300, 6334.879
633.3950, 5496.138
634.5600, 4928.743
635.7240, 4287.238
636.8890, 3806.210
638.0530, 3403.354
639.2170, 3002.309
640.3810, 2660.390
641.5450, 2366.630
642.7080, 2103.445
643.8720, 1873.879
645.0350, 1746.492
646.1980, 1470.277
647.3610, 1525.096
648.5240, 1350.431
649.6870, 1495.878
650.8490, 1620.436
652.0120, 1704.107
653.1740, 1791.893
654.3360, 1819.795
655.4980, 1746.812
656.6600, 2036.948
657.8210, 2127.201
658.9830, 2398.574
660.1440, 2708.069
661.3050, 2698.686
662.4660, 2930.425
663.6270, 3299.287
664.7870, 3462.276
665.9480, 3616.389
667.1080, 4187.629
668.2680, 4508.997
669.4280, 4745.492
670.5880, 5153.119
671.7480, 5855.875
672.9070, 6359.760
674.0670, 6967.776
675.2260, 7848.921
676.3850, 8471.198
677.5440, 9224.606
678.7030, 9780.143
679.8610, 10704.81
681.0200, 11262.61
682.1780, 12176.54
683.3360, 12732.60
684.4940, 13555.79
685.6520, 14251.12
686.8090, 15054.58
687.9670, 16053.18
689.1240, 16773.91
690.2810, 18068.78
691.4380, 19069.79
692.5950, 19882.93
693.7520, 21108.21
694.9080, 22259.63
696.0650, 23710.19
697.2210, 25222.89
698.3770, 26461.73
699.5330, 27913.71
700.6880, 29724.84
701.8440, 30883.11
702.9990, 32656.51
704.1550, 33995.07
705.3100, 35082.77
706.4650, 35656.63
707.6190, 36007.62
708.7740, 35878.77
709.9290, 35101.08
711.0830, 33690.56
712.2370, 32210.19
713.3910, 30280.00
714.5450, 28855.60
715.6980, 27097.04
716.8520, 26207.42
718.0050, 25903.79
719.1580, 25970.72
720.3110, 26374.23
721.4640, 27113.64
722.6170, 28203.24
723.7700, 29560.70
724.9220, 31347.27
726.0740, 33308.04
727.2260, 35392.54
728.3780, 37077.07
729.5300, 39358.29
730.6810, 41094.57
731.8330, 43411.91
732.9840, 45619.57
734.1350, 47054.61
735.2860, 48918.59
736.4370, 50076.80
737.5880, 51166.04
738.7380, 51662.71
739.8880, 52356.96
741.0390, 52608.92
742.1890, 52662.73
743.3380, 52066.90
744.4880, 51309.07
745.6380, 50218.09
746.7870, 49369.65
747.9360, 48362.34
749.0850, 47284.28
750.2340, 46433.34
751.3830, 45819.66
752.5310, 45375.21
753.6800, 45451.03
754.8280, 45318.06
755.9760, 44622.37
757.1240, 43727.94
758.2720, 43092.79
759.4190, 42265.94
760.5670, 41231.39
761.7140, 39970.04
762.8610, 39100.99
764.0080, 37329.21
765.1550, 36139.71
766.3020, 34611.51
767.4480, 32944.59
768.5950, 31672.93
769.7410, 30143.55
770.8870, 28579.38
772.0330, 27098.42
773.1780, 25242.64
774.3240, 23890.00
775.4690, 22286.53
776.6140, 21032.22
777.7590, 19542.03
778.9040, 18261.93
780.0490, 17135.92
781.1940, 16071.56
782.3380, 15415.16
783.4820, 14347.40
784.6260, 13653.71
785.7700, 13015.09
786.9140, 12163.53
788.0580, 11724.04
789.2010, 10923.62
790.3450, 9998.257
791.4880, 9359.959
792.6310, 8812.722
793.7730, 8185.548
794.9160, 7443.434
796.0590, 6951.383
797.2010, 6623.390
798.3430, 6332.457
799.4850, 5990.586
800.6270, 5674.771
801.7690, 5396.016
802.9100, 5460.316
804.0520, 5327.678
805.1930, 5387.094
806.3340, 5547.564
807.4750, 6253.094
808.6160, 6266.377
809.7560, 6732.314
810.8970, 6760.010
812.0370, 7110.756
813.1770, 7439.557
814.3170, 7838.412
815.4570, 8083.289
816.5960, 8610.278
817.7360, 8373.292
818.8750, 8568.354
820.0140, 8246.468
821.1530, 7891.631
822.2920, 7769.846
823.4310, 7427.106
824.5690, 6736.418
825.7070, 6341.779
826.8460, 5740.186
827.9840, 5317.640
829.1220, 5005.141
830.2590, 4511.684
831.3970, 4381.276
832.5340, 4002.908
833.6710, 3845.586
834.8080, 3455.306
835.9450, 3217.066
837.0820, 2834.867
838.2190, 2718.707
839.3550, 2616.588
840.4910, 2038.507
841.6270, 1924.464
842.7630, 1567.455
843.8990, 1215.484
845.0350, 884.5469
846.1700, 540.6445
847.3060, 416.7744
848.4410, 163.9375
849.5760, 122.1328
850.7100, 0.3554690
851.8450, 275.4414
852.9800, 523.3877
854.1140, 434.6191
855.2480, 482.0938
856.3820, 641.8408
857.5160, 751.9463
858.6500, 745.4736
859.7830, 807.4229
860.9170, 944.8301
862.0500, 908.7695
863.1830, 817.2285
864.3160, 986.1592
865.4480, 830.6543
866.5810, 857.6377
867.7130, 947.1211
868.8460, 787.1592
869.9780, 707.6670
871.1100, 748.6064
872.2410, 715.0010
873.3730, 486.8350
874.5050, 487.9912
875.6360, 555.4727
876.7670, 401.3145
877.8980, 456.4385
879.0290, 296.8770
880.1590, 179.5469
881.2900, 105.3887
882.4200, 37.63379
883.5500, 60.58984
884.6800, 191.4873
885.8100, 374.3779
886.9400, 571.2695
888.0690, 693.1641
889.1990, 854.0596
890.3280, 1215.955
891.4570, 1342.852
892.5860, 1470.744
893.7140, 1744.635
894.8430, 1789.522
895.9710, 2013.405
897.1000, 2309.283
898.2280, 2369.154
899.3560, 2564.018
900.4830, 2803.872
901.6110, 2832.718
902.7380, 3094.552
903.8660, 3350.374
904.9930, 3624.184
906.1200, 3858.979
907.2460, 3974.761
908.3730, 4356.524
909.5000, 4519.275
910.6260, 4926.008
911.7520, 5183.053
912.8780, 5386.421
914.0040, 5736.102
915.1290, 5984.762
916.2550, 6216.403
917.3800, 6646.027
918.5050, 7201.633
919.6300, 7752.221
920.7550, 8439.793
921.8800, 8966.371
923.0040, 9740.933
924.1290, 10249.48
925.2530, 11170.04
926.3770, 12143.60
927.5010, 12619.15
928.6250, 13322.71
929.7480, 14094.27
930.8720, 14680.85
931.9950, 14963.44
933.1180, 15139.06
934.2410, 15501.66
935.3640, 15527.30
936.4860, 15385.98
937.6090, 15072.66
938.7310, 14594.42
939.8530, 14141.21
940.9750, 13401.02
942.0970, 13072.89
943.2180, 12478.80
944.3400, 11961.78
945.4610, 11415.78
946.5820, 10799.83
947.7030, 10213.84
948.8240, 9373.090
949.9450, 8982.308
951.0650, 8388.540
952.1860, 7821.812
953.3060, 7434.118
954.4260, 6880.469
955.5460, 6729.848
956.6650, 6438.266
957.7850, 5988.689
958.9040, 5991.132
960.0230, 5823.623
961.1420, 5794.102
962.2610, 5902.586
963.3800, 5764.061
964.4990, 5945.527
965.6170, 5867.984
966.7350, 5896.422
967.8530, 6172.845
968.9710, 6363.246
970.0890, 6428.631
971.2070, 6693.993
972.3240, 6771.335
973.4410, 6897.650
974.5580, 7051.943
975.6750, 7604.213
976.7920, 7645.459
977.9090, 7804.680
979.0250, 8161.881
980.1410, 8135.060
981.2580, 8441.221
982.3740, 8580.354
983.4890, 8909.466
984.6050, 9361.558
985.7200, 9717.012
986.8360, 10107.77
987.9510, 10471.74
989.0660, 11225.86
990.1810, 11514.58
991.2950, 12291.89
992.4100, 12673.89
993.5240, 13512.94
994.6390, 13812.74
995.7530, 14687.58
996.8660, 14788.37
997.9800, 15234.60
999.0940, 15480.96
1000.207, 15817.82
1001.320, 15806.75
1002.433, 15818.85
1003.546, 15564.79
1004.659, 15618.54
1005.772, 15543.58
1006.884, 15335.57
1007.996, 15353.76
1009.108, 15130.77
1010.220, 14964.44
1011.332, 15308.70
1012.444, 15600.43
1013.555, 15866.12
1014.666, 15221.64
1015.777, 14488.59
1016.888, 13752.81
1017.999, 13574.23
1019.110, 13122.72
1020.220, 12978.38
1021.331, 12784.10
1022.441, 12578.88
1023.551, 12076.71
1024.661, 12411.59
1025.770, 11874.54
1026.880, 11888.53
1027.989, 11735.58
1029.098, 11701.70
1030.207, 11237.86
1031.316, 11071.07
1032.425, 10852.34
1033.533, 10373.66
1034.642, 10264.04
1035.750, 9878.465
1036.858, 9764.948
1037.966, 9395.480
1039.073, 9317.071
1040.181, 8945.710
1041.288, 8913.403
1042.396, 8794.150
1043.503, 8723.948
1044.610, 8832.799
1045.716, 8727.702
1046.823, 8669.661
1047.929, 8938.672
1049.036, 9290.737
1050.142, 9696.858
1051.248, 10122.30
1052.353, 10515.27
1053.459, 11134.83
1054.564, 11744.75
1055.670, 12363.09
1056.775, 13236.54
1057.880, 14237.88
1058.985, 15127.75
1060.089, 16250.72
1061.194, 17378.23
1062.298, 18879.71
1063.402, 20904.59
1064.506, 22813.64
1065.610, 25426.38
1066.713, 27779.29
1067.817, 29712.71
1068.920, 29899.85
1070.023, 29359.77
1071.126, 29185.35
1072.229, 28786.45
1073.332, 28475.03
1074.435, 27528.60
1075.537, 26267.12
1076.639, 25628.84
1077.741, 24503.36
1078.843, 23289.58
1079.945, 22389.95
1081.046, 21327.07
1082.148, 20528.81
1083.249, 19512.74
1084.350, 19142.77
1085.451, 18394.26
1086.551, 18153.59
1087.652, 17760.23
1088.752, 17733.28
1089.853, 17681.81
1090.953, 17192.60
1092.053, 17013.20
1093.152, 16685.68
1094.252, 16196.34
1095.351, 16073.67
1096.451, 15485.54
1097.550, 14936.57
1098.649, 13845.49
1099.748, 13043.61
1100.846, 12181.98
1101.945, 11116.77
1103.043, 10237.90
1104.141, 9056.157
1105.239, 8097.342
1106.337, 7310.846
1107.434, 6579.080
1108.532, 5941.344
1109.629, 5334.219
1110.726, 4823.674
1111.823, 4399.015
1112.920, 4014.622
1114.017, 3861.185
1115.113, 3711.779
1116.210, 3476.660
1117.306, 3306.236
1118.402, 3237.043
1119.498, 2999.796
1120.593, 3124.881
1121.689, 2928.984
1122.784, 2837.406
1123.879, 2827.098
1124.974, 2643.385
1126.069, 2540.241
1127.164, 2377.394
1128.259, 2347.359
1129.353, 2304.384
1130.447, 1996.462
1131.541, 1993.958
1132.635, 2012.535
1133.729, 1800.723
1134.822, 1851.099
1135.916, 1671.073
1137.009, 1609.099
1138.102, 1697.020
1139.195, 1543.185
1140.288, 1387.536
1141.380, 1170.149
1142.473, 1154.890
1143.565, 1036.051
1144.657, 992.1924
1145.749, 844.0703
1146.841, 718.4541
1147.932, 734.4492
1149.024, 621.0605
1150.115, 558.8467
1151.206, 289.8428
1152.297, 422.9893
1153.388, 361.2461
1154.479, 198.5469
1155.569, 334.6260
1156.659, 141.9248
1157.750, 170.1738
1158.839, 192.2148
1159.929, 157.5088
1161.019, 192.4404
1162.108, 139.6104
1163.198, 25.71191
1164.287, 122.4277
1165.376, 46.34570
1166.465, 78.62207
1167.553, 100.1318
1168.642, 112.5820
1169.730, 178.9766
1170.818, 142.7959
1171.906, 171.1426
1172.994, 255.0664
1174.082, 158.9277
1175.170, 175.8535
1176.257, 129.9268
1177.344, 179.2490
1178.431, 69.50195
1179.518, 99.82715
1180.605, 173.6318
1181.691, 18.26660
1182.778, 64.07812
1183.864, 5.518555
1184.950, 119.7373
1186.036, 7.528320
1187.122, 36.47852
1188.207, 139.5605
1189.292, 73.26367
1190.378, 32.38672
1191.463, 128.4297
1192.548, 72.90820
1193.632, 109.4102
1194.717, 91.94629
1195.801, 209.8975
1196.886, 18.08887
1197.970, 164.2842
1199.054, 219.2461
1200.137, 68.14648
1201.221, 329.5615
1202.305, 158.3643
1203.388, 130.2656
1204.471, 253.6992
1205.554, 201.1533
1206.637, 264.4580
1207.719, 129.9746
1208.802, 201.2715
1209.884, 279.7070
1210.966, 176.7725
1212.048, 246.9795
1213.130, 103.2188
1214.212, 149.2979
1215.293, 153.4492
1216.374, 179.5039
1217.456, 117.7197
1218.536, 153.1064
1219.617, 30.38672
1220.698, 79.50781
1221.778, 185.1152
1222.859, 48.64746
1223.939, 21.48828
1225.019, 37.04688
1226.099, 29.60742
1227.178, 50.37305
1228.258, 87.18066
1229.337, 84.46582
1230.417, 129.6514
1231.496, 71.86035
1232.574, 254.9229
1233.653, 186.3779
1234.732, 233.7744
1235.810, 153.6826
1236.888, 348.5938
1237.966, 234.4482
1239.044, 220.5234
1240.122, 145.2207
1241.199, 265.3584
1242.277, 123.3242
1243.354, 223.9736
1244.431, 227.9180
1245.508, 181.6201
1246.585, 145.2451
1247.661, 217.6553
1248.738, 263.1572
1249.814, 233.1807
1250.890, 273.2139
1251.966, 88.29492
1253.042, 238.0176
1254.117, 146.7188
1255.193, 345.3516
1256.268, 331.2881
1257.343, 226.7568
1258.418, 278.9922
1259.493, 336.2959
1260.567, 315.9971
1261.642, 384.6123
1262.716, 293.2773
1263.790, 327.6738
1264.864, 260.1465
1265.938, 303.9023
1267.011, 446.4570
1268.085, 480.9238
1269.158, 416.4521
1270.231, 391.5645
1271.304, 460.9717
1272.377, 362.2793
1273.450, 415.0850
1274.522, 291.3350
1275.594, 434.4863
1276.666, 319.7275
1277.738, 429.6826
1278.810, 402.7793
1279.882, 363.1328
1280.953, 335.8105
