##NAMES=Eudialyte
##RRUFFID=R060206
##IDEAL CHEMISTRY=Na_15_Ca_6_Fe^2+^_3_Zr^4+^_3_Si(Si_25_O_73_)(O,OH,H_2_O)_3_(Cl,OH)_2_
##LOCALITY=Desourdy Quarry, Mont Saint-Hilaire, Rouville County, Quebec, Canada
##OWNER=RRUFF
##SOURCE=Royal Ontario Museum
##DESCRIPTION=Yellowish-brown gemmy fragment
##STATUS=The identification of this mineral is confirmed by single-crystal X-ray diffraction and chemical analysis.
##URL=rruff.info/R060206
##MEASURED CHEMISTRY=(Na_13.12_Ca_1.62_K_0.26_)_Σ=15_(Ca_4.47_Mn_1.00_Ce_0.32_La_0.21_)_Σ=6_(Fe_2.91_Mn_0.09_)_Σ=3_Zr_3.00_(Si_0.85_Nb_0.15_)_Σ=1_Si_25.00_O_73_((OH)_2.70_O_0.30_)_Σ=3_(Cl_1.20_(OH)_0.80_)_Σ=2_
##PIN_ID=M00202
##ORIENTATION=Laser parallel to -c* (0 0 -1). Fiducial mark perpendicular to laser is parallel to a [1 0 0]
118.1340, 0.0000000E+00
119.3650, 2.296875
120.5960, 85.97461
121.8270, 34.35156
123.0580, 99.84180
124.2880, 189.4434
125.5190, 45.67969
126.7490, 233.1250
127.9790, 484.1152
129.2090, 1085.027
130.4390, 1457.180
131.6680, 1954.135
132.8980, 2203.771
134.1270, 2642.336
135.3560, 3324.070
136.5850, 3610.287
137.8140, 3830.541
139.0430, 4316.744
140.2710, 4365.121
141.5000, 3965.105
142.7280, 3715.279
143.9560, 3692.352
145.1840, 3062.113
146.4120, 2669.438
147.6390, 2163.232
148.8670, 1693.520
150.0940, 1279.750
151.3210, 1325.129
152.5490, 1109.270
153.7750, 589.9355
155.0020, 706.4199
156.2290, 360.9238
157.4550, 603.6406
158.6810, 675.7480
159.9080, 674.4004
161.1340, 644.7422
162.3590, 853.9043
163.5850, 880.0039
164.8110, 1311.141
166.0360, 1562.406
167.2610, 1719.895
168.4860, 1864.711
169.7110, 2290.975
170.9360, 2722.812
172.1610, 3013.320
173.3850, 3357.578
174.6100, 3878.664
175.8340, 4283.652
177.0580, 5317.590
178.2820, 5904.502
179.5050, 6628.738
180.7290, 7820.443
181.9520, 8943.895
183.1760, 10017.79
184.3990, 11625.63
185.6220, 13051.97
186.8450, 14366.98
188.0670, 15969.11
189.2900, 17224.04
190.5120, 19147.34
191.7340, 20658.65
192.9560, 22556.00
194.1780, 24493.43
195.4000, 25710.97
196.6220, 27679.64
197.8430, 29333.44
199.0640, 30631.38
200.2860, 31214.44
201.5070, 32192.64
202.7270, 32360.02
203.9480, 32009.59
205.1690, 31198.36
206.3890, 30404.33
207.6090, 28791.48
208.8290, 27831.77
210.0490, 26202.20
211.2690, 24225.79
212.4890, 22492.54
213.7080, 20818.52
214.9280, 18888.76
216.1470, 16970.41
217.3660, 15182.55
218.5850, 13576.37
219.8030, 12120.93
221.0220, 10861.32
222.2400, 9660.551
223.4590, 8591.146
224.6770, 7260.410
225.8950, 6691.707
227.1120, 5635.604
228.3300, 4715.152
229.5480, 4190.312
230.7650, 3770.238
231.9820, 3206.859
233.1990, 2833.004
234.4160, 2258.674
235.6330, 2071.617
236.8490, 1400.559
238.0660, 1173.260
239.2820, 888.5938
240.4980, 485.5137
241.7140, 315.9824
242.9300, 154.9668
244.1460, 77.54297
245.3610, 345.5430
246.5770, 458.0332
247.7920, 523.0117
249.0070, 514.4746
250.2220, 558.4219
251.4370, 576.8496
252.6510, 344.7695
253.8660, 279.2148
255.0800, 31.42773
256.2940, 510.2070
257.5080, 718.9453
258.7220, 944.0391
259.9360, 1411.137
261.1490, 1240.949
262.3630, 1426.332
263.5760, 1527.291
264.7890, 2216.717
266.0020, 2529.793
267.2150, 3084.312
268.4270, 3479.631
269.6400, 3898.143
270.8520, 4325.986
272.0640, 4698.088
273.2760, 4990.389
274.4880, 5231.062
275.7000, 5386.518
276.9120, 5561.984
278.1230, 5568.633
279.3340, 5675.290
280.5450, 5761.939
281.7560, 5893.879
282.9670, 6019.186
284.1780, 6202.477
285.3880, 6315.953
286.5980, 6434.951
287.8090, 6613.305
289.0190, 6724.090
290.2290, 6771.052
291.4380, 6999.312
292.6480, 7089.338
293.8570, 7384.301
295.0670, 7114.881
296.2760, 7239.338
297.4850, 7105.160
298.6930, 7386.797
299.9020, 7716.908
301.1110, 7548.886
302.3190, 7350.898
303.5270, 7188.574
304.7350, 7186.053
305.9430, 7324.649
307.1510, 7052.854
308.3580, 6863.984
309.5660, 6630.110
310.7730, 6364.660
311.9800, 6163.860
313.1870, 5914.268
314.3940, 5677.695
315.6010, 5351.424
316.8070, 5147.254
318.0130, 5092.801
319.2200, 5062.093
320.4260, 5037.970
321.6310, 5156.420
322.8370, 5306.541
324.0430, 5441.936
325.2480, 5905.730
326.4540, 6134.012
327.6590, 6611.736
328.8640, 7145.984
330.0680, 7537.988
331.2730, 7927.567
332.4780, 8227.440
333.6820, 8460.022
334.8860, 8636.332
336.0900, 8740.187
337.2940, 8748.223
338.4980, 8699.730
339.7010, 8367.592
340.9050, 8193.674
342.1080, 7958.193
343.3110, 7887.914
344.5140, 7826.588
345.7170, 7584.526
346.9200, 7724.043
348.1220, 7561.959
349.3240, 7747.080
350.5270, 7770.936
351.7290, 7902.855
352.9310, 8075.891
354.1320, 8113.619
355.3340, 8290.008
356.5350, 8250.606
357.7370, 8131.750
358.9380, 8304.997
360.1390, 7953.068
361.3400, 7923.896
362.5400, 7613.607
363.7410, 7595.107
364.9410, 7203.172
366.1410, 6925.416
367.3410, 6602.609
368.5410, 6403.518
369.7410, 6491.133
370.9400, 6250.454
372.1400, 6286.479
373.3390, 6229.365
374.5380, 5977.623
375.7370, 6159.734
376.9360, 6215.533
378.1350, 6215.017
379.3330, 6812.181
380.5310, 6741.021
381.7300, 7090.543
382.9280, 7568.740
384.1260, 7974.619
385.3230, 8597.751
386.5210, 8947.794
387.7180, 9357.317
388.9160, 9846.688
390.1130, 9949.686
391.3100, 10119.08
392.5060, 10140.86
393.7030, 9842.658
394.9000, 9843.181
396.0960, 9566.036
397.2920, 9004.962
398.4880, 8457.514
399.6840, 7950.144
400.8800, 7537.681
402.0750, 7055.764
403.2710, 6480.471
404.4660, 6327.213
405.6610, 5737.680
406.8560, 5723.875
408.0510, 5303.796
409.2450, 5447.436
410.4400, 5063.799
411.6340, 4899.875
412.8280, 4754.668
414.0220, 4622.170
415.2160, 4476.379
416.4100, 4297.493
417.6030, 4151.910
418.7970, 3899.230
419.9900, 3686.062
421.1830, 3425.975
422.3760, 3139.397
423.5690, 2807.520
424.7610, 2471.340
425.9540, 2196.859
427.1460, 2027.071
428.3380, 1826.971
429.5300, 1670.549
430.7220, 1550.803
431.9140, 1411.567
433.1050, 1331.969
434.2970, 1220.574
435.4880, 1236.490
436.6790, 1209.070
437.8700, 1258.103
439.0610, 1241.220
440.2510, 1332.795
441.4420, 1306.041
442.6320, 1360.960
443.8220, 1084.557
445.0120, 1008.822
446.2020, 736.7578
447.3910, 843.3447
448.5810, 555.5977
449.7700, 480.4951
450.9600, 460.0312
452.1490, 309.2080
453.3370, 232.0059
454.5260, 97.40723
455.7150, 103.3672
456.9030, 37.89160
458.0910, 23.04590
459.2800, 144.4766
460.4670, 132.4580
461.6550, 120.9805
462.8430, 362.0332
464.0300, 220.7402
465.2180, 336.0225
466.4050, 269.9365
467.5920, 413.4414
468.7790, 447.6104
469.9650, 264.4570
471.1520, 310.8779
472.3380, 282.0498
473.5250, 280.6377
474.7110, 274.6133
475.8970, 390.3057
477.0820, 366.6064
478.2680, 474.4971
479.4540, 408.0312
480.6390, 394.1680
481.8240, 553.8955
483.0090, 584.2930
484.1940, 618.3711
485.3780, 601.1436
486.5630, 484.5947
487.7470, 500.6582
488.9320, 442.3379
490.1160, 556.5957
491.3000, 540.4883
492.4830, 309.9980
493.6670, 308.0000
494.8500, 179.4873
496.0340, 76.22852
497.2170, 35.07422
498.4000, 133.7930
499.5820, 137.9512
500.7650, 313.8438
501.9480, 510.4863
503.1300, 723.8887
504.3120, 906.0625
505.4940, 1109.136
506.6760, 1420.758
507.8580, 1501.302
509.0390, 1755.652
510.2210, 1957.811
511.4020, 2107.779
512.5830, 2321.558
513.7640, 2668.150
514.9450, 2862.559
516.1250, 3108.783
517.3060, 3487.827
518.4860, 3917.691
519.6660, 4485.380
520.8460, 4783.892
522.0260, 5215.230
523.2060, 5389.400
524.3850, 5857.427
525.5650, 6093.940
526.7440, 6642.896
527.9230, 6745.406
529.1020, 6986.764
530.2810, 7559.978
531.4590, 7881.098
532.6380, 8459.196
533.8160, 8929.303
534.9940, 9756.442
536.1720, 10600.61
537.3500, 11581.83
538.5270, 12335.10
539.7050, 13307.37
540.8820, 13944.62
542.0590, 14649.78
543.2360, 15437.82
544.4130, 16281.73
545.5900, 17212.51
546.7660, 18444.15
547.9430, 19933.66
549.1190, 21569.05
550.2950, 23676.30
551.4710, 26628.44
552.6470, 29257.45
553.8220, 32235.34
554.9980, 35203.11
556.1730, 37629.77
557.3480, 39224.32
558.5230, 40229.74
559.6980, 39898.05
560.8730, 40367.26
562.0470, 40743.36
563.2220, 42222.36
564.3960, 44555.25
565.5700, 45717.03
566.7440, 46109.73
567.9170, 44963.72
569.0910, 41323.93
570.2640, 36620.24
571.4380, 31378.83
572.6110, 26311.85
573.7840, 21515.23
574.9570, 17342.22
576.1290, 14336.76
577.3020, 11812.40
578.4740, 9839.973
579.6460, 7941.883
580.8180, 6657.878
581.9900, 5569.411
583.1620, 4827.993
584.3330, 3978.995
585.5040, 3407.029
586.6760, 3086.958
587.8470, 2930.178
589.0180, 2631.540
590.1880, 2737.762
591.3590, 2941.373
592.5290, 3170.087
593.7000, 3409.792
594.8700, 3655.059
596.0400, 4311.620
597.2090, 4730.913
598.3790, 5473.143
599.5490, 6333.004
600.7180, 7073.691
601.8870, 8150.582
603.0560, 8848.604
604.2250, 9827.913
605.3940, 10437.54
606.5620, 11470.36
607.7300, 11894.75
608.8990, 12160.51
610.0670, 12260.50
611.2350, 12154.37
612.4020, 11883.71
613.5700, 11371.27
614.7370, 10706.34
615.9050, 10075.21
617.0720, 9518.263
618.2390, 9050.253
619.4060, 8639.563
620.5720, 8153.266
621.7390, 8125.959
622.9050, 7965.136
624.0710, 8013.923
625.2370, 7882.105
626.4030, 8067.924
627.5690, 7847.628
628.7340, 7773.904
629.9000, 7108.440
631.0650, 6425.412
632.2300, 5993.019
633.3950, 5192.730
634.5600, 4677.219
635.7240, 4158.427
636.8890, 3542.783
638.0530, 3211.320
639.2170, 2925.486
640.3810, 2501.945
641.5450, 2377.142
642.7080, 2229.349
643.8720, 1941.636
645.0350, 1838.875
646.1980, 1696.347
647.3610, 1526.933
648.5240, 1556.893
649.6870, 1532.954
650.8490, 1607.120
652.0120, 1708.144
653.1740, 1682.773
654.3360, 1948.261
655.4980, 2171.857
656.6600, 2234.563
657.8210, 2441.641
658.9830, 2396.311
660.1440, 2692.355
661.3050, 2802.513
662.4660, 2899.785
663.6270, 3197.173
664.7870, 3478.680
665.9480, 3666.304
667.1080, 4022.049
668.2680, 4325.910
669.4280, 4699.896
670.5880, 5194.004
671.7480, 5688.232
672.9070, 6258.583
674.0670, 6850.008
675.2260, 7442.658
676.3850, 8154.380
677.5440, 8811.227
678.7030, 9552.193
679.8610, 10160.28
681.0200, 11039.50
682.1780, 11927.84
683.3360, 12200.31
684.4940, 13083.90
685.6520, 13652.62
686.8090, 14363.46
687.9670, 15425.44
689.1240, 16180.54
690.2810, 17076.77
691.4380, 18066.14
692.5950, 18883.63
693.7520, 19958.26
694.9080, 21305.02
696.0650, 22553.91
697.2210, 23642.94
698.3770, 25370.10
699.5330, 26579.40
700.6880, 28264.83
701.8440, 29584.41
702.9990, 30917.11
704.1550, 31952.96
705.3100, 33568.95
706.4650, 33658.06
707.6190, 34098.33
708.7740, 33604.74
709.9290, 33047.31
711.0830, 32125.02
712.2370, 29927.89
713.3910, 28713.92
714.5450, 27214.10
715.6980, 25890.94
716.8520, 25085.98
718.0050, 24401.65
719.1580, 24297.47
720.3110, 25353.55
721.4640, 25687.22
722.6170, 26591.94
723.7700, 27900.06
724.9220, 29371.88
726.0740, 31185.97
727.2260, 32797.81
728.3780, 34845.63
729.5300, 37151.71
730.6810, 38570.81
731.8330, 40779.46
732.9840, 42554.76
734.1350, 44428.20
735.2860, 45631.73
736.4370, 46895.80
737.5880, 48300.85
738.7380, 48872.72
739.8880, 49306.65
741.0390, 49686.16
742.1890, 49734.85
743.3380, 49255.51
744.4880, 48669.04
745.6380, 47598.24
746.7870, 46633.36
747.9360, 45269.80
749.0850, 44426.59
750.2340, 43448.61
751.3830, 42770.89
752.5310, 42394.40
753.6800, 42187.16
754.8280, 41903.15
755.9760, 41697.39
757.1240, 40961.90
758.2720, 40330.69
759.4190, 39610.73
760.5670, 38551.04
761.7140, 37672.63
762.8610, 36504.55
764.0080, 35117.75
765.1550, 33634.27
766.3020, 32425.05
767.4480, 30795.10
768.5950, 29594.41
769.7410, 28146.00
770.8870, 26702.86
772.0330, 25325.92
773.1780, 23752.20
774.3240, 22231.64
775.4690, 20843.23
776.6140, 19508.94
777.7590, 18166.76
778.9040, 16985.67
780.0490, 15776.67
781.1940, 15006.76
782.3380, 14187.93
783.4820, 13026.17
784.6260, 12607.49
785.7700, 11781.16
786.9140, 11002.33
788.0580, 10447.84
789.2010, 10042.42
790.3450, 9208.058
791.4880, 8531.759
792.6310, 8110.523
793.7730, 7426.350
794.9160, 6856.236
796.0590, 6355.184
797.2010, 5908.192
798.3430, 5695.260
799.4850, 5287.387
800.6270, 5026.570
801.7690, 4985.812
802.9100, 4849.115
804.0520, 4817.473
805.1930, 4858.889
806.3340, 5089.359
807.4750, 5217.887
808.6160, 5483.471
809.7560, 5779.928
810.8970, 6143.102
812.0370, 6403.548
813.1770, 6963.349
814.3170, 7197.203
815.4570, 7494.109
816.5960, 7749.070
817.7360, 7691.082
818.8750, 7719.145
820.0140, 7892.258
821.1530, 7470.423
822.2920, 7216.637
823.4310, 6713.902
824.5690, 6509.217
825.7070, 5930.577
826.8460, 5458.988
827.9840, 4987.447
829.1220, 4578.923
830.2590, 4148.503
831.3970, 3913.099
832.5340, 3665.739
833.6710, 3479.424
834.8080, 3237.153
835.9450, 3041.926
837.0820, 2808.738
838.2190, 2545.144
839.3550, 2072.489
840.4910, 1932.426
841.6270, 1608.400
842.7630, 1144.414
843.8990, 879.4658
845.0350, 673.5537
846.1700, 496.6777
847.3060, 399.8389
848.4410, 139.0322
849.5760, 120.2607
850.7100, 184.4785
851.8450, 261.3174
852.9800, 324.2949
854.1140, 580.4512
855.2480, 669.9238
856.3820, 665.7617
857.5160, 650.9688
858.6500, 755.5400
859.7830, 738.5352
860.9170, 805.9453
862.0500, 882.8125
863.1830, 792.1787
864.3160, 897.0000
865.4480, 942.3330
866.5810, 1032.205
867.7130, 859.6650
868.8460, 832.6270
869.9780, 638.0762
871.1100, 633.9141
872.2410, 653.1406
873.3730, 551.7666
874.5050, 543.7441
875.6360, 475.0664
876.7670, 319.7021
877.8980, 285.5713
879.0290, 374.6562
880.1590, 208.0059
881.2900, 165.5342
882.4200, 80.77930
883.5500, 139.0508
884.6800, 414.3076
885.8100, 516.5703
886.9400, 576.8428
888.0690, 882.1201
889.1990, 1133.402
890.3280, 1184.691
891.4570, 1345.982
892.5860, 1561.277
893.7140, 1843.574
894.8430, 2035.963
895.9710, 2389.171
897.1000, 2516.469
898.2280, 2652.764
899.3560, 2919.057
900.4830, 3176.344
901.6110, 3451.627
902.7380, 3631.908
903.8660, 3941.104
904.9930, 4074.449
906.1200, 4484.706
907.2460, 4686.951
908.3730, 4898.188
909.5000, 5217.407
910.6260, 5483.618
911.7520, 5820.814
912.8780, 6155.998
914.0040, 6369.168
915.1290, 6406.322
916.2550, 6678.465
917.3800, 7286.594
918.5050, 7573.707
919.6300, 8192.819
920.7550, 8868.920
921.8800, 9422.003
923.0040, 10148.09
924.1290, 10945.17
925.2530, 11716.27
926.3770, 12695.38
927.5010, 13292.51
928.6250, 14158.65
929.7480, 14942.81
930.8720, 15244.97
931.9950, 16011.11
933.1180, 16242.25
934.2410, 16498.43
935.3640, 16495.64
936.4860, 16230.89
937.6090, 16227.16
938.7310, 15819.45
939.8530, 15128.79
940.9750, 14560.16
942.0970, 14034.94
943.2180, 13557.06
944.3400, 12878.57
945.4610, 12358.10
946.5820, 11676.66
947.7030, 11304.27
948.8240, 10830.90
949.9450, 10148.56
951.0650, 9524.271
952.1860, 8706.015
953.3060, 8286.798
954.4260, 7798.634
955.5460, 7353.516
956.6650, 7153.424
957.7850, 6820.386
958.9040, 6631.360
960.0230, 6463.374
961.1420, 6427.384
962.2610, 6329.681
963.3800, 6153.422
964.4990, 6281.458
965.6170, 6369.477
966.7350, 6393.288
967.8530, 6850.468
968.9710, 6789.488
970.0890, 6719.496
971.2070, 7146.484
972.3240, 7048.456
973.4410, 7235.438
974.5580, 7583.404
975.6750, 7725.362
976.7920, 7725.318
977.9090, 8025.256
979.0250, 8224.091
980.1410, 8361.675
981.2580, 8809.030
982.3740, 8798.918
983.4890, 9086.788
984.6050, 9481.633
985.7200, 9773.463
986.8360, 10185.78
987.9510, 10720.04
989.0660, 11158.82
990.1810, 11701.58
991.2950, 12354.23
992.4100, 12833.45
993.5240, 13567.77
994.6390, 14246.82
995.7530, 14471.34
996.8660, 14857.74
997.9800, 15339.55
999.0940, 15676.52
1000.207, 15612.42
1001.320, 15838.46
1002.433, 15676.13
1003.546, 15808.32
1004.659, 15721.56
1005.772, 15584.92
1006.884, 15544.95
1007.996, 15343.23
1009.108, 15276.81
1010.220, 15052.84
1011.332, 15058.44
1012.444, 14923.13
1013.555, 14733.17
1014.666, 14600.63
1015.777, 14370.02
1016.888, 13966.22
1017.999, 13922.71
1019.110, 13673.21
1020.220, 13441.75
1021.331, 13386.36
1022.441, 13174.02
1023.551, 13091.74
1024.661, 12869.51
1025.770, 12690.33
1026.880, 12527.22
1027.989, 12297.15
1029.098, 12165.15
1030.207, 11964.20
1031.316, 11780.30
1032.425, 11599.46
1033.533, 11149.68
1034.642, 10925.04
1035.750, 10651.88
1036.858, 10412.26
1037.966, 9857.686
1039.073, 9737.166
1040.181, 9457.532
1041.288, 9292.291
1042.396, 9130.933
1043.503, 8896.636
1044.610, 8840.389
1045.716, 8763.198
1046.823, 8755.064
1047.929, 8902.399
1049.036, 9151.024
1050.142, 9419.056
1051.248, 9683.146
1052.353, 10223.39
1053.459, 10718.59
1054.564, 11402.91
1055.670, 12118.14
1056.775, 12673.56
1057.880, 13671.04
1058.985, 14597.62
1060.089, 15397.60
1061.194, 16505.66
1062.298, 18108.78
1063.402, 20006.42
1064.506, 21763.08
1065.610, 23655.07
1066.713, 26283.63
1067.817, 28156.76
1068.920, 28830.30
1070.023, 28232.57
1071.126, 28036.65
1072.229, 27838.72
1073.332, 26933.96
1074.435, 26351.80
1075.537, 25402.92
1076.639, 24482.30
1077.741, 23316.51
1078.843, 22419.44
1079.945, 21565.57
1081.046, 20311.62
1082.148, 19604.79
1083.249, 18992.36
1084.350, 18181.49
1085.451, 17795.87
1086.551, 17523.26
1087.652, 17263.83
1088.752, 17051.99
1089.853, 16814.61
1090.953, 16570.06
1092.053, 16117.43
1093.152, 16124.92
1094.252, 15713.41
1095.351, 15258.02
1096.451, 14780.03
1097.550, 14163.19
1098.649, 13487.17
1099.748, 12639.43
1100.846, 11761.67
1101.945, 10707.80
1103.043, 9419.926
1104.141, 8753.015
1105.239, 7839.641
1106.337, 6837.815
1107.434, 6396.910
1108.532, 5673.545
1109.629, 5266.882
1110.726, 4662.755
1111.823, 4138.354
1112.920, 4019.918
1114.017, 3589.215
1115.113, 3402.763
1116.210, 3213.426
1117.306, 3142.789
1118.402, 3152.241
1119.498, 2897.799
1120.593, 2860.615
1121.689, 2856.908
1122.784, 2722.293
1123.879, 2809.902
1124.974, 2580.786
1126.069, 2511.288
1127.164, 2310.738
1128.259, 2267.789
1129.353, 2011.826
1130.447, 1993.347
1131.541, 1901.800
1132.635, 1790.501
1133.729, 1725.244
1134.822, 1658.634
1135.916, 1543.926
1137.009, 1395.434
1138.102, 1426.384
1139.195, 1104.332
1140.288, 1216.475
1141.380, 1243.298
1142.473, 1117.963
1143.565, 948.8652
1144.657, 1069.775
1145.749, 731.7100
1146.841, 639.8496
1147.932, 658.4844
1149.024, 519.0459
1150.115, 413.5557
1151.206, 482.9756
1152.297, 461.7793
1153.388, 437.8359
1154.479, 380.7578
1155.569, 306.2012
1156.659, 187.1826
1157.750, 150.6787
1158.839, 43.19922
1159.929, 33.13281
1161.019, 53.48340
1162.108, 165.7510
1163.198, 22.13867
1164.287, 154.5020
1165.376, 2.645508
1166.465, 29.99512
1167.553, 73.86816
1168.642, 95.29980
1169.730, 83.71094
1170.818, 112.5947
1171.906, 130.0557
1172.994, 115.3730
1174.082, 118.7744
1175.170, 89.49805
1176.257, 109.6602
1177.344, 62.35449
1178.431, 101.0273
1179.518, 8.906250
1180.605, 59.35449
1181.691, 177.4199
1182.778, 65.42188
1183.864, 90.73633
1184.950, 8.454102
1186.036, 94.20801
1187.122, 8.650391
1188.207, 126.3770
1189.292, 123.8555
1190.378, 141.7188
1191.463, 106.5771
1192.548, 103.4004
1193.632, 38.15723
1194.717, 15.03906
1195.801, 5.358398
1196.886, 188.6133
1197.970, 193.3408
1199.054, 163.8018
1200.137, 107.5049
1201.221, 100.3086
1202.305, 223.7441
1203.388, 142.7090
1204.471, 275.6025
1205.554, 133.1152
1206.637, 181.0156
1207.719, 79.12793
1208.802, 134.5586
1209.884, 213.8350
1210.966, 81.48633
1212.048, 95.92676
1213.130, 210.3516
1214.212, 120.2939
1215.293, 152.9336
1216.374, 197.5674
1217.456, 165.4766
1218.536, 92.14355
1219.617, 192.1201
1220.698, 43.25879
1221.778, 134.4082
1222.859, 27.07812
1223.939, 30.40234
1225.019, 66.34473
1226.099, 6.313477
1227.178, 136.6719
1228.258, 223.4551
1229.337, 80.08203
1230.417, 95.21289
1231.496, 94.60547
1232.574, 206.4346
1233.653, 244.9590
1234.732, 11.60742
1235.810, 112.5371
1236.888, 83.77148
1237.966, 48.85547
1239.044, 226.2754
1240.122, 12.73535
1241.199, 186.9102
1242.277, 205.9795
1243.354, 296.2881
1244.431, 232.7256
1245.508, 216.7900
1246.585, 354.0039
1247.661, 406.6074
1248.738, 325.2773
1249.814, 286.7285
1250.890, 224.8340
1251.966, 262.1895
1253.042, 123.1133
1254.117, 165.8613
1255.193, 152.0371
1256.268, 128.6006
1257.343, 215.5420
1258.418, 253.4248
1259.493, 230.0225
1260.567, 190.2031
1261.642, 314.4043
1262.716, 495.0059
1263.790, 302.6582
1264.864, 428.7266
1265.938, 479.1875
1267.011, 353.5234
1268.085, 466.8799
1269.158, 420.8438
1270.231, 306.1309
1271.304, 390.4834
1272.377, 371.8184
1273.450, 407.7334
1274.522, 475.2461
1275.594, 425.1553
1276.666, 336.5293
1277.738, 374.5322
1278.810, 396.3877
1279.882, 432.6855
1280.953, 347.8701
1282.025, 242.7217
