##NAMES=Eudialyte
##RRUFFID=R060035
##IDEAL CHEMISTRY=Na_15_Ca_6_Fe^2+^_3_Zr^4+^_3_Si(Si_25_O_73_)(O,OH,H_2_O)_3_(Cl,OH)_2_
##LOCALITY=Chibini, Kola Peninsula, Russia
##OWNER=RRUFF
##SOURCE=University of Arizona Mineral Museum
##DESCRIPTION=Deep pink coarsely crystalline
##STATUS=The identification of this mineral has been confirmed by X-ray diffraction and chemical analysis
##URL=rruff.info/R060035
##MEASURED CHEMISTRY=(Na_14.86_K_0.14_)_Σ=15_Ca_6.00_(Fe_1.52_Mn_1.48_)_Σ=3_(Zr_2.82_Ti_0.18_)_Σ=3_(Si_0.93_Nb_0.07_)_Σ=1_(Si_25.00_O_73_)((OH)_1.01_(H_2_O)_1.99_)_Σ=3_(Cl_1.65_(OH)_0.35_)_Σ=2_
##PIN_ID=M00465
##ORIENTATION=Laser parallel to a* (1 0 0). Fiducial mark perpendicular to laser is parallel to c [0 0 1]
118.1340, 0.0000000E+00
119.3650, 10.24805
120.5960, 37.98047
121.8270, 154.6836
123.0580, 180.7910
124.2880, 306.0625
125.5190, 298.8770
126.7490, 682.9668
127.9790, 774.7539
129.2090, 1237.193
130.4390, 1799.746
131.6680, 2376.520
132.8980, 2900.713
134.1270, 3502.527
135.3560, 4328.910
136.5850, 5199.127
137.8140, 6179.629
139.0430, 6924.996
140.2710, 7544.932
141.5000, 7791.203
142.7280, 8057.646
143.9560, 8081.625
145.1840, 7681.373
146.4120, 7398.041
147.6390, 6868.975
148.8670, 6023.422
150.0940, 5388.484
151.3210, 4685.246
152.5490, 3847.762
153.7750, 3469.088
155.0020, 2685.260
156.2290, 2087.299
157.4550, 1757.215
158.6810, 1269.039
159.9080, 1152.791
161.1340, 764.5215
162.3590, 729.2930
163.5850, 593.1582
164.8110, 569.1230
166.0360, 388.1875
167.2610, 407.3477
168.4860, 132.9844
169.7110, 355.4883
170.9360, 304.9492
172.1610, 138.0742
173.3850, 214.9746
174.6100, 262.9082
175.8340, 346.8848
177.0580, 365.5840
178.2820, 462.9316
179.5050, 455.9258
180.7290, 518.1973
181.9520, 605.7207
183.1760, 428.4648
184.3990, 773.3965
185.6220, 902.5078
186.8450, 880.7812
188.0670, 1357.205
189.2900, 1349.775
190.5120, 1514.477
191.7340, 1627.252
192.9560, 1791.984
194.1780, 2005.742
195.4000, 2061.561
196.6220, 2373.455
197.8430, 2415.451
199.0640, 2564.555
200.2860, 2618.801
201.5070, 2631.307
202.7270, 2310.172
203.9480, 2165.586
205.1690, 1922.570
206.3890, 1771.051
207.6090, 1612.029
208.8290, 1526.160
210.0490, 1346.344
211.2690, 1162.516
212.4890, 1156.820
213.7080, 771.1074
214.9280, 507.4238
216.1470, 353.7715
217.3660, 261.1445
218.5850, 22.45117
219.8030, 77.12500
221.0220, 123.8125
222.2400, 161.2773
223.4590, 301.1816
224.6770, 175.6094
225.8950, 210.8301
227.1120, 313.0234
228.3300, 144.1602
229.5480, 324.3281
230.7650, 177.5156
231.9820, 202.7520
233.1990, 76.04297
234.4160, 42.43945
235.6330, 41.21094
236.8490, 301.7559
238.0660, 450.2441
239.2820, 555.6816
240.4980, 713.0645
241.7140, 828.9883
242.9300, 951.6816
244.1460, 1028.654
245.3610, 1188.443
246.5770, 1195.969
247.7920, 1297.232
249.0070, 1184.320
250.2220, 1100.350
251.4370, 1273.344
252.6510, 1168.301
253.8660, 837.2168
255.0800, 1358.098
256.2940, 1341.941
257.5080, 1488.742
258.7220, 1970.506
259.9360, 1510.229
261.1490, 1191.910
262.3630, 1166.555
263.5760, 1413.158
264.7890, 1194.055
266.0020, 1168.064
267.2150, 1098.570
268.4270, 1111.773
269.6400, 1135.525
270.8520, 1162.918
272.0640, 1323.303
273.2760, 1268.195
274.4880, 1392.354
275.7000, 1416.744
276.9120, 1297.340
278.1230, 1514.107
279.3340, 1390.551
280.5450, 1417.262
281.7560, 1720.939
282.9670, 1542.742
284.1780, 1717.793
285.3880, 1788.174
286.5980, 1893.676
287.8090, 1972.123
289.0190, 2071.428
290.2290, 2040.396
291.4380, 2187.086
292.6480, 2161.387
293.8570, 2402.816
295.0670, 2311.051
296.2760, 2446.111
297.4850, 2362.137
298.6930, 2395.064
299.9020, 2504.699
301.1110, 2450.951
302.3190, 2604.961
303.5270, 2509.582
304.7350, 2704.197
305.9430, 2858.811
307.1510, 2497.416
308.3580, 2725.020
309.5660, 2637.619
310.7730, 2826.209
311.9800, 2478.795
313.1870, 2816.369
314.3940, 2588.924
315.6010, 2684.406
316.8070, 2473.637
318.0130, 2451.947
319.2200, 2610.727
320.4260, 2770.512
321.6310, 2697.438
322.8370, 2539.557
324.0430, 2658.102
325.2480, 2917.363
326.4540, 3069.281
327.6590, 3497.113
328.8640, 3572.053
330.0680, 3833.598
331.2730, 3891.912
332.4780, 4302.541
333.6820, 4445.840
334.8860, 4595.164
336.0900, 4937.484
337.2940, 4953.496
338.4980, 5032.238
339.7010, 5186.279
340.9050, 5281.877
342.1080, 5320.453
343.3110, 5268.516
344.5140, 5340.771
345.7170, 5112.078
346.9200, 5030.297
348.1220, 5034.498
349.3240, 5103.672
350.5270, 4983.822
351.7290, 4696.945
352.9310, 4639.039
354.1320, 4726.100
355.3340, 4554.131
356.5350, 4630.131
357.7370, 4313.098
358.9380, 4058.029
360.1390, 3887.934
361.3400, 3850.803
362.5400, 3560.637
363.7410, 3612.611
364.9410, 3166.381
366.1410, 2855.412
367.3410, 2970.691
368.5410, 2763.982
369.7410, 2678.451
370.9400, 2539.135
372.1400, 2422.469
373.3390, 2632.145
374.5380, 2260.654
375.7370, 2286.633
376.9360, 2442.271
378.1350, 2300.617
379.3330, 1844.877
380.5310, 2027.090
381.7300, 1870.266
382.9280, 1932.395
384.1260, 2073.484
385.3230, 2063.531
386.5210, 2129.535
387.7180, 2205.498
388.9160, 2275.512
390.1130, 2372.047
391.3100, 2516.156
392.5060, 2596.967
393.7030, 2804.740
394.9000, 2978.482
396.0960, 3094.188
397.2920, 3123.324
398.4880, 3243.502
399.6840, 3082.109
400.8800, 2755.682
402.0750, 2715.225
403.2710, 2369.734
404.4660, 2158.213
405.6610, 1917.662
406.8560, 1792.080
408.0510, 1581.469
409.2450, 1318.850
410.4400, 1129.229
411.6340, 933.5898
412.8280, 902.9375
414.0220, 925.2637
415.2160, 860.5703
416.4100, 694.8535
417.6030, 691.1152
418.7970, 563.8418
419.9900, 370.5605
421.1830, 399.7441
422.3760, 206.8965
423.5690, 177.0195
424.7610, 109.1055
425.9540, 22.14648
427.1460, 12.88867
428.3380, 14.98242
429.5300, 129.2266
430.7220, 198.5938
431.9140, 37.15430
433.1050, 245.8223
434.2970, 129.7109
435.4880, 107.7539
436.6790, 189.9453
437.8700, 203.3242
439.0610, 9.900391
440.2510, 75.43164
441.4420, 78.70508
442.6320, 390.9258
443.8220, 481.1133
445.0120, 519.2695
446.2020, 462.3906
447.3910, 563.4824
448.5810, 460.5410
449.7700, 543.5684
450.9600, 700.5645
452.1490, 697.5254
453.3370, 666.4570
454.5260, 603.3535
455.7150, 828.2207
456.9030, 479.0508
458.0910, 644.8535
459.2800, 424.6191
460.4670, 132.3555
461.6550, 19.04688
462.8430, 161.3320
464.0300, 261.8770
465.2180, 249.6406
466.4050, 145.6133
467.5920, 412.7441
468.7790, 185.1699
469.9650, 455.7715
471.1520, 219.6914
472.3380, 182.8047
473.5250, 53.09180
474.7110, 75.48047
475.8970, 164.0117
477.0820, 72.46875
478.2680, 59.12695
479.4540, 215.1758
480.6390, 104.4434
481.8240, 198.6641
483.0090, 45.85156
484.1940, 197.9902
485.3780, 282.0918
486.5630, 429.1582
487.7470, 350.1973
488.9320, 483.2031
490.1160, 443.1816
491.3000, 515.1309
492.4830, 635.0508
493.6670, 569.9414
494.8500, 616.8027
496.0340, 706.6367
497.2170, 831.4414
498.4000, 867.2188
499.5820, 964.9727
500.7650, 992.6816
501.9480, 1138.369
503.1300, 1214.029
504.3120, 1359.309
505.4940, 1309.260
506.6760, 1446.840
507.8580, 1583.391
509.0390, 1342.936
510.2210, 1363.480
511.4020, 1300.057
512.5830, 1354.637
513.7640, 1299.230
514.9450, 1373.863
516.1250, 1411.494
517.3060, 1310.168
518.4860, 1432.859
519.6660, 1450.576
520.8460, 1494.281
522.0260, 1687.965
523.2060, 1886.672
524.3850, 1615.359
525.5650, 1512.092
526.7440, 1626.809
527.9230, 1750.504
529.1020, 1736.184
530.2810, 1831.883
531.4590, 1890.566
532.6380, 2169.320
533.8160, 2033.115
534.9940, 2382.975
536.1720, 2700.865
537.3500, 2706.803
538.5270, 2951.826
539.7050, 3349.924
540.8820, 3592.045
542.0590, 3941.234
543.2360, 4722.523
544.4130, 5208.926
545.5900, 5543.332
546.7660, 6380.797
547.9430, 7009.389
549.1190, 7930.023
550.2950, 9234.762
551.4710, 10232.53
552.6470, 11653.36
553.8220, 12982.21
554.9980, 14583.08
556.1730, 15780.00
557.3480, 17231.96
558.5230, 18199.98
559.6980, 20308.03
560.8730, 21888.07
562.0470, 24226.12
563.2220, 26470.17
564.3960, 27618.75
565.5700, 28514.25
566.7440, 28039.89
567.9170, 26432.54
569.0910, 23923.05
570.2640, 21194.33
571.4380, 18245.54
572.6110, 15288.38
573.7840, 12726.36
574.9570, 10809.23
576.1290, 8787.387
577.3020, 7749.932
578.4740, 6414.332
579.6460, 5656.895
580.8180, 4968.600
581.9900, 4638.311
583.1620, 4397.090
584.3330, 4266.133
585.5040, 4095.148
586.6760, 4282.146
587.8470, 4291.121
589.0180, 4435.070
590.1880, 4405.996
591.3590, 4869.896
592.5290, 5027.770
593.7000, 5635.621
594.8700, 5810.445
596.0400, 6292.242
597.2090, 6876.014
598.3790, 7066.758
599.5490, 7513.477
600.7180, 8014.170
601.8870, 7970.555
603.0560, 8290.209
604.2250, 8076.578
605.3940, 8222.648
606.5620, 8056.504
607.7300, 7641.918
608.8990, 7343.592
610.0670, 6987.586
611.2350, 6609.637
612.4020, 5769.562
613.5700, 5536.855
614.7370, 4931.346
615.9050, 4353.500
617.0720, 4010.957
618.2390, 3521.355
619.4060, 3172.727
620.5720, 2901.381
621.7390, 2624.740
622.9050, 2232.826
624.0710, 2269.797
625.2370, 1974.324
626.4030, 1858.188
627.5690, 1871.402
628.7340, 1504.523
629.9000, 1468.699
631.0650, 1422.855
632.2300, 1173.992
633.3950, 1116.107
634.5600, 1065.205
635.7240, 859.2812
636.8890, 1017.340
638.0530, 521.3750
639.2170, 615.3887
640.3810, 890.3848
641.5450, 654.3594
642.7080, 679.3086
643.8720, 639.2402
645.0350, 850.1465
646.1980, 789.8828
647.3610, 570.8965
648.5240, 783.7383
649.6870, 839.5547
650.8490, 791.3477
652.0120, 929.2305
653.1740, 1041.385
654.3360, 885.2637
655.4980, 993.6777
656.6600, 1152.846
657.8210, 1078.016
658.9830, 1202.014
660.1440, 1494.242
661.3050, 1330.262
662.4660, 1281.211
663.6270, 1808.662
664.7870, 1646.387
665.9480, 2139.816
667.1080, 2224.668
668.2680, 2341.447
669.4280, 2366.477
670.5880, 2929.361
671.7480, 3046.693
672.9070, 3271.865
674.0670, 3411.611
675.2260, 4011.570
676.3850, 4210.754
677.5440, 4578.795
678.7030, 4787.424
679.8610, 5323.219
681.0200, 5764.477
682.1780, 6070.697
683.3360, 6704.121
684.4940, 7436.262
685.6520, 7798.785
686.8090, 8510.840
687.9670, 9088.977
689.1240, 9799.035
690.2810, 10681.77
691.4380, 11599.72
692.5950, 12282.76
693.7520, 13236.55
694.9080, 13977.24
696.0650, 14991.21
697.2210, 15918.09
698.3770, 16725.11
699.5330, 17843.60
700.6880, 18488.96
701.8440, 19070.95
702.9990, 19677.31
704.1550, 20055.93
705.3100, 20202.22
706.4650, 19998.70
707.6190, 19339.91
708.7740, 18309.76
709.9290, 17397.46
711.0830, 15932.64
712.2370, 14462.34
713.3910, 12903.84
714.5450, 11265.02
715.6980, 9894.406
716.8520, 8599.559
718.0050, 7647.824
719.1580, 6519.756
720.3110, 5914.219
721.4640, 5130.621
722.6170, 4364.955
723.7700, 4034.844
724.9220, 4209.189
726.0740, 3733.693
727.2260, 3792.996
728.3780, 3463.947
729.5300, 3744.818
730.6810, 3638.615
731.8330, 3688.334
732.9840, 3910.975
734.1350, 4220.537
735.2860, 4289.023
736.4370, 4796.430
737.5880, 4976.758
738.7380, 5426.008
739.8880, 5615.182
741.0390, 6025.285
742.1890, 6303.328
743.3380, 6642.361
744.4880, 6124.412
745.6380, 6225.477
746.7870, 5906.523
747.9360, 5810.631
749.0850, 5600.729
750.2340, 5091.893
751.3830, 4822.062
752.5310, 4595.227
753.6800, 4172.346
754.8280, 4059.430
755.9760, 3611.441
757.1240, 3666.383
758.2720, 3306.285
759.4190, 2944.109
760.5670, 2927.865
761.7140, 2912.543
762.8610, 2515.150
764.0080, 2294.684
765.1550, 2174.141
766.3020, 2388.518
767.4480, 1959.814
768.5950, 2034.033
769.7410, 2016.172
770.8870, 1862.232
772.0330, 2085.213
773.1780, 1826.113
774.3240, 1828.936
775.4690, 1726.678
776.6140, 1537.344
777.7590, 1543.930
778.9040, 1444.434
780.0490, 1314.859
781.1940, 1227.209
782.3380, 1122.479
783.4820, 1185.668
784.6260, 889.7793
785.7700, 1153.811
786.9140, 924.7656
788.0580, 733.6387
789.2010, 515.4336
790.3450, 443.1523
791.4880, 500.7871
792.6310, 364.3438
793.7730, 414.8145
794.9160, 121.2031
796.0590, 126.4883
797.2010, 374.6738
798.3430, 196.7754
799.4850, 50.21484
800.6270, 145.6230
801.7690, 144.6367
802.9100, 138.8809
804.0520, 187.3008
805.1930, 111.6328
806.3340, 43.13672
807.4750, 99.92578
808.6160, 226.1133
809.7560, 145.4141
810.8970, 219.9355
812.0370, 81.71484
813.1770, 166.6777
814.3170, 293.8691
815.4570, 289.3555
816.5960, 55.13086
817.7360, 240.0723
818.8750, 369.2793
820.0140, 422.8145
821.1530, 6.701172
822.2920, 206.7285
823.4310, 472.9941
824.5690, 174.6387
825.7070, 383.5000
826.8460, 126.6953
827.9840, 245.0762
829.1220, 74.71094
830.2590, 90.50586
831.3970, 171.4629
832.5340, 243.6309
833.6710, 198.0410
834.8080, 124.6660
835.9450, 40.46875
837.0820, 42.40039
838.2190, 56.46094
839.3550, 225.6562
840.4910, 250.0723
841.6270, 57.71875
842.7630, 192.4941
843.8990, 128.4648
845.0350, 142.5957
846.1700, 18.10938
847.3060, 4.253906
848.4410, 71.72266
849.5760, 30.69727
850.7100, 3.947266
851.8450, 45.67188
852.9800, 29.49805
854.1140, 49.58789
855.2480, 122.6113
856.3820, 380.5742
857.5160, 320.4844
858.6500, 314.3418
859.7830, 36.14844
860.9170, 138.8945
862.0500, 72.58789
863.1830, 94.22852
864.3160, 229.8184
865.4480, 230.3574
866.5810, 288.5293
867.7130, 319.2988
868.8460, 417.6992
869.9780, 573.0547
871.1100, 768.3652
872.2410, 487.6367
873.3730, 824.8633
874.5050, 818.0488
875.6360, 653.1934
876.7670, 878.2969
877.8980, 702.3594
879.0290, 757.3848
880.1590, 806.3750
881.2900, 1023.326
882.4200, 999.2383
883.5500, 947.1152
884.6800, 924.9570
885.8100, 1303.762
886.9400, 1302.533
888.0690, 1328.270
889.1990, 1474.971
890.3280, 1184.637
891.4570, 1384.299
892.5860, 1596.871
893.7140, 1659.441
894.8430, 1989.979
895.9710, 2101.486
897.1000, 2532.967
898.2280, 2438.418
899.3560, 2748.840
900.4830, 2936.238
901.6110, 2886.609
902.7380, 3371.955
903.8660, 3531.277
904.9930, 3716.576
906.1200, 3958.850
907.2460, 3909.105
908.3730, 4223.338
909.5000, 4368.549
910.6260, 4392.746
911.7520, 4598.928
912.8780, 4557.096
914.0040, 4674.254
915.1290, 4546.406
916.2550, 4950.539
917.3800, 4988.680
918.5050, 5115.816
919.6300, 5056.941
920.7550, 5377.055
921.8800, 5412.158
923.0040, 5465.250
924.1290, 5481.340
925.2530, 5452.311
926.3770, 5202.986
927.5010, 5287.951
928.6250, 4983.348
929.7480, 4667.965
930.8720, 4727.551
931.9950, 4501.275
933.1180, 4426.746
934.2410, 4293.391
935.3640, 4494.082
936.4860, 4272.242
937.6090, 4548.102
938.7310, 4247.230
939.8530, 4504.914
940.9750, 4463.637
942.0970, 4692.090
943.2180, 4896.670
944.3400, 4773.775
945.4610, 4925.020
946.5820, 4963.668
947.7030, 5156.074
948.8240, 5098.246
949.9450, 5091.539
951.0650, 5000.219
952.1860, 4915.316
953.3060, 5022.727
954.4260, 4688.758
955.5460, 4634.570
956.6650, 4592.656
957.7850, 4832.336
958.9040, 4800.469
960.0230, 4479.570
961.1420, 4532.746
962.2610, 4351.297
963.3800, 4533.625
964.4990, 4515.887
965.6170, 4686.363
966.7350, 4867.043
967.8530, 4845.410
968.9710, 5050.875
970.0890, 5153.168
971.2070, 5353.027
972.3240, 5586.574
973.4410, 5779.383
974.5580, 6053.391
975.6750, 6210.125
976.7920, 6407.223
977.9090, 6760.176
979.0250, 7120.473
980.1410, 7598.199
981.2580, 7973.164
982.3740, 8185.723
983.4890, 8585.871
984.6050, 8609.309
985.7200, 9296.168
986.8360, 9574.895
987.9510, 10427.92
989.0660, 10808.91
990.1810, 11024.32
991.2950, 11675.25
992.4100, 11827.28
993.5240, 12042.39
994.6390, 12200.95
995.7530, 12113.09
996.8660, 11896.09
997.9800, 12196.31
999.0940, 11642.95
1000.207, 11369.73
1001.320, 10788.59
1002.433, 10189.54
1003.546, 9697.574
1004.659, 8910.688
1005.772, 8305.887
1006.884, 7652.164
1007.996, 7264.527
1009.108, 6584.973
1010.220, 6445.508
1011.332, 6008.133
1012.444, 5580.922
1013.555, 5333.816
1014.666, 4857.844
1015.777, 4750.969
1016.888, 4405.172
1017.999, 4354.469
1019.110, 4307.855
1020.220, 4272.336
1021.331, 4197.906
1022.441, 4171.852
1023.551, 4178.496
1024.661, 4201.051
1025.770, 4262.270
1026.880, 4349.387
1027.989, 4482.637
1029.098, 4636.980
1030.207, 4902.438
1031.316, 4963.992
1032.425, 4752.633
1033.533, 5263.383
1034.642, 5041.230
1035.750, 5471.168
1036.858, 5540.203
1037.966, 5896.324
1039.073, 5984.539
1040.181, 6232.852
1041.288, 6097.273
1042.396, 6492.805
1043.503, 6438.445
1044.610, 6646.664
1045.716, 6669.543
1046.823, 6785.641
1047.929, 6798.398
1049.036, 6961.570
1050.142, 7088.391
1051.248, 7197.742
1052.353, 7134.605
1053.459, 7902.164
1054.564, 7796.820
1055.670, 8013.574
1056.775, 8572.566
1057.880, 8390.508
1058.985, 9179.820
1060.089, 9327.516
1061.194, 9603.770
1062.298, 10034.11
1063.402, 10509.56
1064.506, 10961.33
1065.610, 11381.00
1066.713, 11438.76
1067.817, 11733.62
1068.920, 12186.64
1070.023, 12581.98
1071.126, 12848.29
1072.229, 12900.70
1073.332, 13224.21
1074.435, 13360.82
1075.537, 13638.22
1076.639, 13699.09
1077.741, 14353.18
1078.843, 14732.43
1079.945, 14825.88
1081.046, 15209.48
1082.148, 16092.24
1083.249, 16749.20
1084.350, 16980.36
1085.451, 17453.66
1086.551, 17982.14
1087.652, 18430.84
1088.752, 18945.20
1089.853, 18894.26
1090.953, 19067.50
1092.053, 19081.05
1093.152, 18635.69
1094.252, 18216.70
1095.351, 18005.41
1096.451, 17023.13
1097.550, 15715.45
1098.649, 14849.09
1099.748, 14001.70
1100.846, 12691.32
1101.945, 11588.26
1103.043, 10838.50
1104.141, 9750.680
1105.239, 9114.867
1106.337, 8115.266
1107.434, 7353.055
1108.532, 6742.652
1109.629, 6287.387
1110.726, 5825.539
1111.823, 5517.977
1112.920, 5059.062
1114.017, 5080.055
1115.113, 4937.191
1116.210, 4672.414
1117.306, 4752.621
1118.402, 4559.621
1119.498, 4636.293
1120.593, 4774.625
1121.689, 4480.520
1122.784, 4639.305
1123.879, 4671.703
1124.974, 4709.895
1126.069, 4708.945
1127.164, 4572.730
1128.259, 4698.848
1129.353, 4315.848
1130.447, 4219.441
1131.541, 4395.852
1132.635, 4217.066
1133.729, 4242.539
1134.822, 4462.305
1135.916, 4082.996
1137.009, 4128.852
1138.102, 4092.648
1139.195, 4195.094
1140.288, 3542.984
1141.380, 3701.773
1142.473, 3142.629
1143.565, 2695.941
1144.657, 2419.230
1145.749, 2232.836
1146.841, 2207.125
1147.932, 1605.715
1149.024, 1508.754
1150.115, 1156.816
1151.206, 1197.371
1152.297, 973.5195
1153.388, 826.0820
1154.479, 834.5273
1155.569, 659.9219
1156.659, 743.2852
1157.750, 673.8789
1158.839, 700.3750
1159.929, 613.9453
1161.019, 668.3633
1162.108, 734.2148
1163.198, 368.4102
1164.287, 433.9414
1165.376, 428.8438
1166.465, 535.2461
1167.553, 196.6133
1168.642, 246.0664
1169.730, 253.4102
1170.818, 41.58594
1171.906, 19.73047
1172.994, 167.2227
1174.082, 143.2422
1175.170, 94.45312
1176.257, 66.75781
1177.344, 120.5000
1178.431, 52.94141
1179.518, 54.55859
1180.605, 194.8789
1181.691, 67.59766
1182.778, 33.61328
1183.864, 139.0039
1184.950, 239.2891
1186.036, 208.2812
1187.122, 70.44531
1188.207, 50.65234
1189.292, 73.33203
1190.378, 318.3672
1191.463, 138.9922
1192.548, 102.3633
1193.632, 127.9023
1194.717, 13.39062
1195.801, 141.4219
1196.886, 37.16797
1197.970, 28.64062
1199.054, 159.8789
1200.137, 13.53125
1201.221, 105.1562
1202.305, 125.5938
1203.388, 33.52734
1204.471, 242.0820
1205.554, 31.26172
1206.637, 78.51562
1207.719, 423.8594
1208.802, 145.8047
1209.884, 210.2500
1210.966, 9.960938
1212.048, 284.0664
1213.130, 54.84766
1214.212, 153.5508
1215.293, 294.8945
1216.374, 140.3594
1217.456, 159.8359
1218.536, 11.51953
1219.617, 64.37109
1220.698, 40.42188
1221.778, 310.9258
1222.859, 29.14062
1223.939, 288.3711
1225.019, 63.63672
1226.099, 153.8359
1227.178, 190.5000
1228.258, 289.4492
1229.337, 210.8242
1230.417, 8.515625
1231.496, 40.83984
1232.574, 145.0469
1233.653, 114.7734
1234.732, 150.8750
1235.810, 73.64844
1236.888, 23.51172
1237.966, 106.4453
1239.044, 184.5742
1240.122, 169.3945
1241.199, 120.9922
1242.277, 268.6172
1243.354, 26.62891
1244.431, 132.8711
1245.508, 161.4062
1246.585, 36.83203
1247.661, 36.14062
1248.738, 10.25000
1249.814, 57.39844
1250.890, 249.1875
1251.966, 49.14453
1253.042, 23.19141
1254.117, 180.3945
1255.193, 6.937500
1256.268, 65.25391
1257.343, 3.210938
1258.418, 19.30078
1259.493, 207.9258
1260.567, 105.7969
1261.642, 108.7344
1262.716, 13.29688
1263.790, 259.9727
1264.864, 315.2812
1265.938, 278.6562
1267.011, 393.0859
1268.085, 175.5117
1269.158, 326.2812
1270.231, 129.6133
1271.304, 79.24219
1272.377, 194.6562
1273.450, 0.1562500
1274.522, 50.14453
1275.594, 86.33594
1276.666, 278.1992
1277.738, 187.0547
1278.810, 193.3789
1279.882, 95.53125
1280.953, 201.4922
1282.025, 77.37109
1283.096, 42.53906
1284.167, 178.2305
1285.238, 210.2578
