##NAMES=Eudialyte
##RRUFFID=R060035
##IDEAL CHEMISTRY=Na_15_Ca_6_Fe^2+^_3_Zr^4+^_3_Si(Si_25_O_73_)(O,OH,H_2_O)_3_(Cl,OH)_2_
##LOCALITY=Chibini, Kola Peninsula, Russia
##OWNER=RRUFF
##SOURCE=University of Arizona Mineral Museum
##DESCRIPTION=Deep pink coarsely crystalline
##STATUS=The identification of this mineral has been confirmed by X-ray diffraction and chemical analysis
##URL=rruff.info/R060035
##MEASURED CHEMISTRY=(Na_14.86_K_0.14_)_Σ=15_Ca_6.00_(Fe_1.52_Mn_1.48_)_Σ=3_(Zr_2.82_Ti_0.18_)_Σ=3_(Si_0.93_Nb_0.07_)_Σ=1_(Si_25.00_O_73_)((OH)_1.01_(H_2_O)_1.99_)_Σ=3_(Cl_1.65_(OH)_0.35_)_Σ=2_
##PIN_ID=M00150
##ORIENTATION=Laser parallel to c* (0 0 1). Fiducial mark perpendicular to laser is parallel to b [0 1 0]
118.1340, 0.0000000E+00
119.3650, 31.99805
120.5960, 26.16406
121.8270, 169.0273
123.0580, 322.1875
124.2880, 137.5098
125.5190, 17.15039
126.7490, 23.57617
127.9790, 59.97070
129.2090, 134.0371
130.4390, 234.1797
131.6680, 442.9355
132.8980, 572.7070
134.1270, 677.3320
135.3560, 1023.523
136.5850, 1167.025
137.8140, 1072.621
139.0430, 1459.104
140.2710, 1700.293
141.5000, 1723.033
142.7280, 1601.189
143.9560, 1587.643
145.1840, 1474.295
146.4120, 1540.070
147.6390, 1366.920
148.8670, 1306.285
150.0940, 1029.621
151.3210, 1070.457
152.5490, 848.1719
153.7750, 666.7012
155.0020, 547.9941
156.2290, 427.6562
157.4550, 334.2109
158.6810, 335.8164
159.9080, 247.5605
161.1340, 328.8125
162.3590, 412.5449
163.5850, 502.7305
164.8110, 535.3477
166.0360, 468.3730
167.2610, 634.7871
168.4860, 527.5723
169.7110, 597.7188
170.9360, 622.2441
172.1610, 669.1797
173.3850, 595.5547
174.6100, 964.3984
175.8340, 1132.707
177.0580, 989.4668
178.2820, 1479.656
179.5050, 1479.242
180.7290, 1978.207
181.9520, 2109.523
183.1760, 2420.555
184.3990, 2893.195
185.6220, 3259.406
186.8450, 3627.961
188.0670, 4315.705
189.2900, 4771.689
190.5120, 5235.900
191.7340, 5718.256
192.9560, 6245.555
194.1780, 6850.828
195.4000, 7391.105
196.6220, 7660.391
197.8430, 8525.721
199.0640, 8653.105
200.2860, 9210.559
201.5070, 9497.143
202.7270, 9476.861
203.9480, 9694.674
205.1690, 9290.594
206.3890, 9096.611
207.6090, 8583.734
208.8290, 8636.953
210.0490, 8005.268
211.2690, 7861.676
212.4890, 7226.184
213.7080, 6679.785
214.9280, 6409.484
216.1470, 6094.279
217.3660, 5654.168
218.5850, 5141.160
219.8030, 4601.355
221.0220, 4209.797
222.2400, 3674.738
223.4590, 3406.311
224.6770, 3185.533
225.8950, 2706.379
227.1120, 2395.830
228.3300, 1944.996
229.5480, 1713.777
230.7650, 1427.883
231.9820, 1387.096
233.1990, 1135.516
234.4160, 793.1777
235.6330, 680.8438
236.8490, 470.4785
238.0660, 331.0918
239.2820, 221.1055
240.4980, 121.6582
241.7140, 52.75586
242.9300, 21.25586
244.1460, 26.73047
245.3610, 23.30469
246.5770, 68.41016
247.7920, 35.98047
249.0070, 42.66016
250.2220, 12.66992
251.4370, 134.9688
252.6510, 64.23242
253.8660, 1.468750
255.0800, 198.6699
256.2940, 282.8301
257.5080, 421.9551
258.7220, 596.3945
259.9360, 863.0977
261.1490, 876.1152
262.3630, 854.0938
263.5760, 855.0391
264.7890, 1068.049
266.0020, 1052.740
267.2150, 1046.918
268.4270, 1457.453
269.6400, 1532.336
270.8520, 1742.602
272.0640, 1547.676
273.2760, 1472.047
274.4880, 1656.234
275.7000, 1752.678
276.9120, 1483.355
278.1230, 1499.250
279.3340, 1327.348
280.5450, 1502.631
281.7560, 1440.090
282.9670, 1461.299
284.1780, 1370.098
285.3880, 1438.354
286.5980, 1418.016
287.8090, 1428.570
289.0190, 1473.959
290.2290, 1518.297
291.4380, 1564.846
292.6480, 1692.863
293.8570, 1864.086
295.0670, 1945.480
296.2760, 1957.426
297.4850, 2210.459
298.6930, 2183.574
299.9020, 2377.770
301.1110, 2441.041
302.3190, 2498.381
303.5270, 2730.791
304.7350, 2559.268
305.9430, 2648.807
307.1510, 2665.408
308.3580, 2795.066
309.5660, 2698.781
310.7730, 2652.553
311.9800, 2750.375
313.1870, 2401.246
314.3940, 2761.166
315.6010, 2421.133
316.8070, 2531.406
318.0130, 2376.209
319.2200, 2481.838
320.4260, 2246.646
321.6310, 2394.932
322.8370, 2550.125
324.0430, 2492.566
325.2480, 2490.615
326.4540, 2812.652
327.6590, 2575.039
328.8640, 2780.371
330.0680, 2797.416
331.2730, 3005.133
332.4780, 3189.484
333.6820, 3273.963
334.8860, 3398.396
336.0900, 3358.500
337.2940, 3465.457
338.4980, 3548.959
339.7010, 3425.754
340.9050, 3363.527
342.1080, 3324.648
343.3110, 3236.938
344.5140, 3176.766
345.7170, 3131.320
346.9200, 3055.621
348.1220, 2994.986
349.3240, 3098.367
350.5270, 2960.133
351.7290, 2934.672
352.9310, 3086.031
354.1320, 3184.420
355.3340, 2830.145
356.5350, 2862.438
357.7370, 2797.717
358.9380, 2643.984
360.1390, 2492.238
361.3400, 2414.938
362.5400, 2340.490
363.7410, 2235.910
364.9410, 2134.482
366.1410, 2138.277
367.3410, 1903.432
368.5410, 1785.562
369.7410, 1667.668
370.9400, 1743.744
372.1400, 1771.789
373.3390, 1674.795
374.5380, 1472.764
375.7370, 1496.693
376.9360, 1505.584
378.1350, 1285.428
379.3330, 1398.229
380.5310, 1164.988
381.7300, 1060.703
382.9280, 1587.373
384.1260, 1192.000
385.3230, 1388.582
386.5210, 1656.121
387.7180, 1719.613
388.9160, 1763.064
390.1130, 2148.471
391.3100, 2089.211
392.5060, 2339.527
393.7030, 2671.475
394.9000, 2964.705
396.0960, 2702.889
397.2920, 2821.029
398.4880, 2560.094
399.6840, 2706.150
400.8800, 2841.162
402.0750, 2638.131
403.2710, 2464.057
404.4660, 2378.941
405.6610, 2038.783
406.8560, 1999.584
408.0510, 1931.344
409.2450, 1724.098
410.4400, 1715.846
411.6340, 1501.582
412.8280, 1086.307
414.0220, 1264.018
415.2160, 922.7148
416.4100, 943.3984
417.6030, 783.0645
418.7970, 853.7129
419.9900, 560.3398
421.1830, 577.9492
422.3760, 521.5352
423.5690, 524.0977
424.7610, 288.6387
425.9540, 134.1562
427.1460, 24.35742
428.3380, 206.0508
429.5300, 147.4297
430.7220, 323.7754
431.9140, 199.0938
433.1050, 91.37891
434.2970, 558.6270
435.4880, 231.8438
436.6790, 213.0273
437.8700, 200.1738
439.0610, 623.2832
440.2510, 440.3633
441.4420, 833.4121
442.6320, 733.4258
443.8220, 827.5645
445.0120, 952.5898
446.2020, 1010.260
447.3910, 985.1387
448.5810, 1177.977
449.7700, 1013.781
450.9600, 809.5469
452.1490, 971.2773
453.3370, 860.9707
454.5260, 1130.627
455.7150, 587.2422
456.9030, 716.8164
458.0910, 588.3535
459.2800, 363.8496
460.4670, 252.3027
461.6550, 31.70898
462.8430, 13.02539
464.0300, 104.2461
465.2180, 100.5996
466.4050, 118.6055
467.5920, 301.7832
468.7790, 204.2324
469.9650, 303.8965
471.1520, 301.8301
472.3380, 232.2578
473.5250, 337.4805
474.7110, 187.2148
475.8970, 252.1621
477.0820, 413.3574
478.2680, 368.8867
479.4540, 321.7285
480.6390, 377.8516
481.8240, 159.2949
483.0090, 126.9375
484.1940, 33.76758
485.3780, 181.2695
486.5630, 25.75391
487.7470, 43.90820
488.9320, 8.205078
490.1160, 184.6250
491.3000, 145.7383
492.4830, 199.0352
493.6670, 469.2734
494.8500, 510.4590
496.0340, 502.5996
497.2170, 420.6895
498.4000, 687.7285
499.5820, 870.7207
500.7650, 809.6641
501.9480, 1056.559
503.1300, 995.4082
504.3120, 1160.209
505.4940, 1067.961
506.6760, 1377.664
507.8580, 1466.322
509.0390, 1572.930
510.2210, 1653.828
511.4020, 1738.342
512.5830, 1793.295
513.7640, 1639.221
514.9450, 1922.588
516.1250, 1710.906
517.3060, 1840.176
518.4860, 2063.400
519.6660, 1821.578
520.8460, 2053.707
522.0260, 2180.793
523.2060, 2196.838
524.3850, 2323.840
525.5650, 2300.803
526.7440, 2236.725
527.9230, 2345.609
529.1020, 2459.447
530.2810, 2608.244
531.4590, 2905.002
532.6380, 3028.717
533.8160, 3259.395
534.9940, 3834.100
536.1720, 4390.840
537.3500, 5050.676
538.5270, 5544.477
539.7050, 6197.248
540.8820, 6931.029
542.0590, 7822.793
543.2360, 8492.627
544.4130, 9108.461
545.5900, 9899.320
546.7660, 11174.15
547.9430, 11964.98
549.1190, 13006.82
550.2950, 14397.72
551.4710, 15463.62
552.6470, 16797.53
553.8220, 18041.41
554.9980, 19096.26
556.1730, 19839.10
557.3480, 20659.97
558.5230, 20625.93
559.6980, 20984.96
560.8730, 21484.00
562.0470, 21914.08
563.2220, 22234.21
564.3960, 22344.33
565.5700, 22050.45
566.7440, 21152.59
567.9170, 19801.11
569.0910, 17931.18
570.2640, 15568.89
571.4380, 13509.29
572.6110, 11250.25
573.7840, 9864.781
574.9570, 7909.793
576.1290, 6588.756
577.3020, 5677.342
578.4740, 4602.828
579.6460, 4124.193
580.8180, 3630.100
581.9900, 3123.959
583.1620, 2920.771
584.3330, 2747.535
585.5040, 2538.260
586.6760, 2299.939
587.8470, 2487.566
589.0180, 2373.148
590.1880, 2824.678
591.3590, 2851.160
592.5290, 2904.590
593.7000, 3271.969
594.8700, 3563.297
596.0400, 3672.570
597.2090, 3897.793
598.3790, 4139.961
599.5490, 4401.078
600.7180, 4575.320
601.8870, 4758.672
603.0560, 4901.559
604.2250, 5004.783
605.3940, 5107.518
606.5620, 5131.324
607.7300, 5133.855
608.8990, 5044.758
610.0670, 4806.650
611.2350, 4629.168
612.4020, 4256.695
613.5700, 3946.484
614.7370, 3788.566
615.9050, 3609.986
617.0720, 3327.242
618.2390, 3001.303
619.4060, 2934.080
620.5720, 2787.758
621.7390, 2463.855
622.9050, 2645.629
624.0710, 2430.395
625.2370, 2453.971
626.4030, 2408.539
627.5690, 2409.551
628.7340, 2368.398
629.9000, 2116.457
631.0650, 2148.418
632.2300, 2114.330
633.3950, 1857.857
634.5600, 1222.498
635.7240, 1440.312
636.8890, 1077.062
638.0530, 931.4336
639.2170, 826.2012
640.3810, 683.9355
641.5450, 586.6445
642.7080, 742.3223
643.8720, 336.9688
645.0350, 342.5879
646.1980, 438.1758
647.3610, 261.7344
648.5240, 330.2637
649.6870, 151.7598
650.8490, 490.2266
652.0120, 337.6602
653.1740, 493.0664
654.3360, 543.4395
655.4980, 413.7812
656.6600, 594.0957
657.8210, 821.3770
658.9830, 851.1094
660.1440, 941.3711
661.3050, 829.5820
662.4660, 1030.318
663.6270, 1057.066
664.7870, 1245.818
665.9480, 1562.613
667.1080, 1481.254
668.2680, 1662.402
669.4280, 1546.793
670.5880, 1804.109
671.7480, 1852.777
672.9070, 1972.402
674.0670, 1906.258
675.2260, 2376.926
676.3850, 2511.512
677.5440, 2937.648
678.7030, 2839.715
679.8610, 3299.496
681.0200, 3607.324
682.1780, 3958.516
683.3360, 4390.211
684.4940, 4875.715
685.6520, 5223.000
686.8090, 5532.539
687.9670, 5987.414
689.1240, 6155.352
690.2810, 6802.102
691.4380, 7225.961
692.5950, 7754.523
693.7520, 8421.266
694.9080, 9110.898
696.0650, 9724.910
697.2210, 10199.53
698.3770, 10721.52
699.5330, 11421.16
700.6880, 11850.88
701.8440, 12176.39
702.9990, 12592.39
704.1550, 12825.98
705.3100, 12768.78
706.4650, 12667.41
707.6190, 12391.77
708.7740, 11846.83
709.9290, 11351.88
711.0830, 10533.06
712.2370, 9549.953
713.3910, 8713.977
714.5450, 7792.832
715.6980, 6541.535
716.8520, 6063.297
718.0050, 5298.012
719.1580, 4755.359
720.3110, 4327.797
721.4640, 3697.160
722.6170, 3340.094
723.7700, 3301.570
724.9220, 2728.398
726.0740, 2833.320
727.2260, 3065.547
728.3780, 2871.195
729.5300, 3123.703
730.6810, 3004.012
731.8330, 3252.254
732.9840, 3273.434
734.1350, 3604.551
735.2860, 3989.602
736.4370, 4094.594
737.5880, 4519.512
738.7380, 4798.375
739.8880, 5325.176
741.0390, 5433.910
742.1890, 5409.605
743.3380, 5906.273
744.4880, 5794.879
745.6380, 5847.484
746.7870, 5826.086
747.9360, 5742.742
749.0850, 5428.422
750.2340, 5493.148
751.3830, 5138.922
752.5310, 5011.738
753.6800, 5136.609
754.8280, 4564.500
755.9760, 4670.434
757.1240, 4259.445
758.2720, 4216.523
759.4190, 4536.660
760.5670, 4125.867
761.7140, 4121.090
762.8610, 4285.316
764.0080, 3984.523
765.1550, 3667.680
766.3020, 3614.809
767.4480, 3606.926
768.5950, 3541.020
769.7410, 3402.129
770.8870, 3405.188
772.0330, 3310.188
773.1780, 3474.125
774.3240, 3282.996
775.4690, 3368.805
776.6140, 3463.559
777.7590, 3304.238
778.9040, 3411.863
780.0490, 3485.418
781.1940, 3349.910
782.3380, 3125.340
783.4820, 2927.707
784.6260, 2749.008
785.7700, 2447.250
786.9140, 2360.422
788.0580, 2242.199
789.2010, 1994.246
790.3450, 1465.234
791.4880, 1427.164
792.6310, 1262.020
793.7730, 953.8203
794.9160, 872.5586
796.0590, 467.2266
797.2010, 571.8359
798.3430, 336.3789
799.4850, 203.8477
800.6270, 193.2422
801.7690, 184.5586
802.9100, 164.8047
804.0520, 194.9688
805.1930, 254.0586
806.3340, 288.0781
807.4750, 249.0039
808.6160, 155.3047
809.7560, 157.6914
810.8970, 167.5859
812.0370, 213.0664
813.1770, 435.7812
814.3170, 75.16406
815.4570, 37.02344
816.5960, 123.2109
817.7360, 2.375000
818.8750, 355.1484
820.0140, 81.97266
821.1530, 166.9531
822.2920, 5.867188
823.4310, 31.42188
824.5690, 133.8398
825.7070, 327.4375
826.8460, 55.32031
827.9840, 154.3359
829.1220, 56.45703
830.2590, 44.16016
831.3970, 108.2109
832.5340, 195.7500
833.6710, 398.4961
834.8080, 358.8281
835.9450, 179.9141
837.0820, 231.4609
838.2190, 278.2344
839.3550, 97.25781
840.4910, 77.42578
841.6270, 194.7383
842.7630, 44.75000
843.8990, 47.83203
845.0350, 97.46094
846.1700, 105.6836
847.3060, 58.84766
848.4410, 116.0664
849.5760, 58.87500
850.7100, 296.2539
851.8450, 73.62891
852.9800, 141.1211
854.1140, 57.21875
855.2480, 124.5000
856.3820, 85.62891
857.5160, 322.6992
858.6500, 165.7109
859.7830, 15.66797
860.9170, 152.5508
862.0500, 347.3750
863.1830, 255.1523
864.3160, 372.8750
865.4480, 147.5469
866.5810, 467.1562
867.7130, 707.7266
868.8460, 496.2461
869.9780, 762.7227
871.1100, 982.1523
872.2410, 750.5391
873.3730, 1053.883
874.5050, 871.1836
875.6360, 1001.438
876.7670, 1072.645
877.8980, 1147.812
879.0290, 946.9414
880.1590, 1393.023
881.2900, 1121.070
882.4200, 961.0781
883.5500, 1375.039
884.6800, 1084.961
885.8100, 1074.840
886.9400, 1584.676
888.0690, 1695.477
889.1990, 1738.234
890.3280, 1806.953
891.4570, 2018.629
892.5860, 2157.926
893.7140, 2467.859
894.8430, 2609.418
895.9710, 2904.930
897.1000, 3206.227
898.2280, 3390.109
899.3560, 3710.234
900.4830, 3777.590
901.6110, 4011.910
902.7380, 4080.188
903.8660, 4368.430
904.9930, 4703.629
906.1200, 5137.797
907.2460, 5356.922
908.3730, 5463.016
909.5000, 5781.070
910.6260, 6109.094
911.7520, 6677.074
912.8780, 6754.023
914.0040, 7030.938
915.1290, 6901.824
916.2550, 7463.672
917.3800, 7617.512
918.5050, 7623.348
919.6300, 8147.203
920.7550, 8244.082
921.8800, 7805.961
923.0040, 8056.820
924.1290, 8000.648
925.2530, 7961.457
926.3770, 7871.242
927.5010, 7471.996
928.6250, 7289.719
929.7480, 6832.414
930.8720, 6712.090
931.9950, 6245.262
933.1180, 5950.848
934.2410, 5727.480
935.3640, 5688.566
936.4860, 5350.656
937.6090, 5136.695
938.7310, 5174.660
939.8530, 4848.734
940.9750, 4543.039
942.0970, 4644.484
943.2180, 4591.789
944.3400, 4636.695
945.4610, 5377.605
946.5820, 5235.266
947.7030, 5538.066
948.8240, 5216.891
949.9450, 4206.121
951.0650, 4022.418
952.1860, 4008.984
953.3060, 3920.484
954.4260, 3644.566
955.5460, 3571.828
956.6650, 3468.785
957.7850, 3195.629
958.9040, 3305.168
960.0230, 2823.320
961.1420, 3138.371
962.2610, 3100.555
963.3800, 2930.578
964.4990, 3137.848
965.6170, 2825.895
966.7350, 2837.000
967.8530, 3028.680
968.9710, 2926.715
970.0890, 3001.820
971.2070, 2880.246
972.3240, 2994.035
973.4410, 2934.992
974.5580, 2788.414
975.6750, 2979.195
976.7920, 2930.738
977.9090, 3379.402
979.0250, 2865.426
980.1410, 3348.535
981.2580, 3648.711
982.3740, 3476.727
983.4890, 3792.996
984.6050, 4063.105
985.7200, 3928.344
986.8360, 3853.691
987.9510, 4439.941
989.0660, 4439.191
990.1810, 4613.789
991.2950, 4639.258
992.4100, 4876.758
993.5240, 4851.648
994.6390, 5000.961
995.7530, 5028.891
996.8660, 4891.684
997.9800, 5148.133
999.0940, 4759.121
1000.207, 4630.215
1001.320, 4551.465
1002.433, 4098.746
1003.546, 4094.047
1004.659, 3826.375
1005.772, 3664.723
1006.884, 3488.105
1007.996, 3400.520
1009.108, 3196.953
1010.220, 3080.789
1011.332, 2984.078
1012.444, 2818.574
1013.555, 2791.195
1014.666, 2676.844
1015.777, 2548.527
1016.888, 2717.266
1017.999, 2635.043
1019.110, 2520.863
1020.220, 2298.715
1021.331, 2207.613
1022.441, 2335.586
1023.551, 2290.598
1024.661, 2122.680
1025.770, 2440.832
1026.880, 2467.027
1027.989, 2194.262
1029.098, 2516.621
1030.207, 2477.094
1031.316, 1999.668
1032.425, 2427.316
1033.533, 2358.008
1034.642, 2516.742
1035.750, 2267.516
1036.858, 2552.332
1037.966, 2514.285
1039.073, 2261.273
1040.181, 2478.234
1041.288, 2478.383
1042.396, 2298.410
1043.503, 2530.477
1044.610, 2380.570
1045.716, 2630.703
1046.823, 2419.871
1047.929, 2349.082
1049.036, 2446.727
1050.142, 2454.523
1051.248, 2406.430
1052.353, 2427.586
1053.459, 2496.723
1054.564, 2516.039
1055.670, 2752.812
1056.775, 3181.508
1057.880, 3153.734
1058.985, 3330.262
1060.089, 3361.035
1061.194, 3624.035
1062.298, 4103.055
1063.402, 3940.887
1064.506, 4321.777
1065.610, 4446.180
1066.713, 4541.395
1067.817, 4788.535
1068.920, 4879.988
1070.023, 5094.223
1071.126, 5376.719
1072.229, 5577.773
1073.332, 5598.520
1074.435, 5610.754
1075.537, 5982.434
1076.639, 5874.156
1077.741, 5980.195
1078.843, 6363.586
1079.945, 6610.734
1081.046, 6783.137
1082.148, 7267.707
1083.249, 7458.914
1084.350, 7681.418
1085.451, 8006.770
1086.551, 8223.965
1087.652, 8366.539
1088.752, 9126.824
1089.853, 8748.719
1090.953, 8659.648
1092.053, 8964.684
1093.152, 8505.844
1094.252, 8612.340
1095.351, 8510.980
1096.451, 8409.527
1097.550, 7986.559
1098.649, 7519.199
1099.748, 6896.098
1100.846, 6451.805
1101.945, 5863.117
1103.043, 5223.410
1104.141, 4889.914
1105.239, 4463.520
1106.337, 4178.609
1107.434, 3576.984
1108.532, 3451.594
1109.629, 3276.828
1110.726, 3262.293
1111.823, 3095.691
1112.920, 2702.820
1114.017, 2527.988
1115.113, 2580.176
1116.210, 2228.395
1117.306, 2392.840
1118.402, 2191.391
1119.498, 2132.008
1120.593, 1989.281
1121.689, 2184.426
1122.784, 2170.469
1123.879, 1845.246
1124.974, 2152.336
1126.069, 1952.176
1127.164, 2398.465
1128.259, 2097.457
1129.353, 1863.633
1130.447, 1895.582
1131.541, 1651.559
1132.635, 1674.340
1133.729, 1636.645
1134.822, 1605.453
1135.916, 1741.262
1137.009, 1384.656
1138.102, 1191.250
1139.195, 1342.863
1140.288, 1307.961
1141.380, 1294.012
1142.473, 884.6953
1143.565, 736.6094
1144.657, 320.7695
1145.749, 354.8672
1146.841, 401.6367
1147.932, 16.50781
1149.024, 287.4805
1150.115, 35.92188
1151.206, 170.3047
1152.297, 312.0391
1153.388, 118.5625
1154.479, 355.7812
1155.569, 345.4141
1156.659, 151.3359
1157.750, 376.0273
1158.839, 215.7656
1159.929, 642.8789
1161.019, 404.8359
1162.108, 88.02734
1163.198, 361.3477
1164.287, 484.6680
1165.376, 359.9414
1166.465, 454.4648
1167.553, 365.6797
1168.642, 59.78125
1169.730, 66.42969
1170.818, 232.5508
1171.906, 58.52734
1172.994, 318.3086
1174.082, 156.7148
1175.170, 276.9219
1176.257, 308.4062
1177.344, 316.9453
1178.431, 201.0508
1179.518, 37.73438
1180.605, 116.8750
1181.691, 175.5352
1182.778, 225.9414
1183.864, 238.5391
1184.950, 156.3008
1186.036, 56.28516
1187.122, 126.2266
1188.207, 35.83594
1189.292, 265.5938
1190.378, 143.6992
1191.463, 102.6406
1192.548, 108.1797
1193.632, 10.34766
1194.717, 163.7031
1195.801, 73.98828
1196.886, 217.9727
1197.970, 141.2930
1199.054, 282.5430
1200.137, 140.5898
1201.221, 150.1211
1202.305, 207.9414
1203.388, 56.01953
1204.471, 71.99609
1205.554, 158.1602
1206.637, 36.55859
1207.719, 18.55078
1208.802, 145.2969
1209.884, 309.2266
1210.966, 260.7969
1212.048, 23.61328
1213.130, 191.2109
1214.212, 81.69531
1215.293, 107.9180
1216.374, 176.4961
1217.456, 125.7266
1218.536, 215.3125
1219.617, 382.1641
1220.698, 385.6094
1221.778, 328.6406
1222.859, 319.9414
1223.939, 276.1133
1225.019, 258.2734
1226.099, 302.9766
1227.178, 211.9102
1228.258, 291.8281
1229.337, 262.4609
1230.417, 334.8047
1231.496, 230.1211
1232.574, 271.0703
1233.653, 243.0898
1234.732, 246.2109
1235.810, 413.2734
1236.888, 349.7031
1237.966, 20.06641
1239.044, 183.2695
1240.122, 29.82812
1241.199, 17.82422
1242.277, 238.7070
1243.354, 46.82031
1244.431, 239.1992
1245.508, 9.765625
1246.585, 445.2578
1247.661, 500.3359
1248.738, 440.6484
1249.814, 302.4609
1250.890, 46.55859
1251.966, 139.5547
1253.042, 208.5586
1254.117, 378.3711
1255.193, 67.89844
1256.268, 359.7617
1257.343, 198.0469
1258.418, 395.6523
1259.493, 452.4922
1260.567, 211.6992
1261.642, 505.8633
1262.716, 397.2891
1263.790, 616.9570
1264.864, 645.5312
1265.938, 383.4258
1267.011, 337.3047
1268.085, 347.2305
1269.158, 231.5117
1270.231, 118.9062
1271.304, 103.4375
1272.377, 277.8711
1273.450, 458.5898
1274.522, 232.6406
1275.594, 101.4336
1276.666, 48.82422
1277.738, 98.55859
1278.810, 86.35547
1279.882, 188.4180
1280.953, 81.48047
1282.025, 41.98047
1283.096, 133.3594
1284.167, 26.08984
1285.238, 30.07031
