##NAMES=Eudialyte
##RRUFFID=R050230
##IDEAL CHEMISTRY=Na_15_Ca_6_Fe^2+^_3_Zr^4+^_3_Si(Si_25_O_73_)(O,OH,H_2_O)_3_(Cl,OH)_2_
##LOCALITY=Kipawa alkaline complex, near Sheffield Lake, Villedieu Township, Temiscamingue County, Quebec, Canada
##OWNER=RRUFF
##SOURCE=Marcus Origlieri
##DESCRIPTION=Massive aggregate of red crystals
##STATUS=The identification of this mineral has been confirmed by X-ray diffraction and chemical analysis
##URL=rruff.info/R050230
##MEASURED CHEMISTRY=(Na_14.50_K_0.35_Ca_0.15_)_Σ=15_Ca_6.00_(Fe_1.86_Mn_1.01_Mg_0.13_)_Σ=3_(Zr_2.91_Ti_0.09_)_3_(Si_0.94_Nb_0.06_)_Σ=1.00_(Si_25.00_O_73_)(OH)_1.10_(H_2_O)_1.90_)_Σ=3_(Cl_1.17_(OH)_0.83_)_Σ=2_
##PIN_ID=M00176
##ORIENTATION=Laser parallel to a* (1 0 0). Fiducial mark perpendicular to laser is parallel to c [0 0 1]
118.1340, 0.0000000E+00
119.3650, 153.5410
120.5960, 13.71875
121.8270, 153.2793
123.0580, 309.5410
124.2880, 373.8965
125.5190, 540.1016
126.7490, 826.9102
127.9790, 1202.920
129.2090, 1850.232
130.4390, 2342.428
131.6680, 2673.404
132.8980, 3211.422
134.1270, 3660.643
135.3560, 4307.994
136.5850, 4786.725
137.8140, 5196.422
139.0430, 5587.023
140.2710, 6103.369
141.5000, 6140.074
142.7280, 6212.645
143.9560, 6381.916
145.1840, 6197.746
146.4120, 5976.152
147.6390, 5703.537
148.8670, 5353.150
150.0940, 4859.572
151.3210, 4475.832
152.5490, 4001.955
153.7750, 3394.896
155.0020, 3203.619
156.2290, 2647.045
157.4550, 2266.109
158.6810, 1937.760
159.9080, 1509.957
161.1340, 1577.666
162.3590, 1563.857
163.5850, 1433.508
164.8110, 1170.600
166.0360, 871.1270
167.2610, 728.0801
168.4860, 658.4766
169.7110, 807.3262
170.9360, 471.6621
172.1610, 400.5195
173.3850, 271.9199
174.6100, 14.16992
175.8340, 14.42383
177.0580, 52.42773
178.2820, 68.34570
179.5050, 53.49609
180.7290, 36.42578
181.9520, 36.93750
183.1760, 99.95312
184.3990, 162.2109
185.6220, 233.8008
186.8450, 434.7012
188.0670, 548.8828
189.2900, 636.3242
190.5120, 737.0078
191.7340, 521.8262
192.9560, 702.5273
194.1780, 623.1758
195.4000, 814.8281
196.6220, 763.5137
197.8430, 549.2539
199.0640, 493.0664
200.2860, 609.9609
201.5070, 888.9512
202.7270, 870.0410
203.9480, 892.2324
205.1690, 735.5312
206.3890, 759.9434
207.6090, 634.4883
208.8290, 888.1992
210.0490, 805.0742
211.2690, 972.1465
212.4890, 714.4023
213.7080, 982.8711
214.9280, 1056.592
216.1470, 741.7266
217.3660, 741.3164
218.5850, 554.3027
219.8030, 612.7090
221.0220, 781.7441
222.2400, 570.4551
223.4590, 420.9043
224.6770, 507.1660
225.8950, 163.0723
227.1120, 136.4531
228.3300, 96.11914
229.5480, 118.9824
230.7650, 100.0273
231.9820, 94.83984
233.1990, 273.3418
234.4160, 310.7520
235.6330, 142.0645
236.8490, 125.3066
238.0660, 51.57617
239.2820, 137.8867
240.4980, 76.74414
241.7140, 31.69531
242.9300, 12.76953
244.1460, 204.1367
245.3610, 380.4023
246.5770, 422.5625
247.7920, 495.6074
249.0070, 560.4863
250.2220, 682.1367
251.4370, 610.6387
252.6510, 722.0039
253.8660, 825.2598
255.0800, 851.4102
256.2940, 1145.451
257.5080, 1576.391
258.7220, 1477.469
259.9360, 1703.939
261.1490, 1531.553
262.3630, 1479.055
263.5760, 1655.447
264.7890, 2029.570
266.0020, 2128.062
267.2150, 2203.723
268.4270, 2342.006
269.6400, 2618.941
270.8520, 2780.428
272.0640, 3079.387
273.2760, 3122.758
274.4880, 3325.494
275.7000, 3315.555
276.9120, 3556.906
278.1230, 3694.521
279.3340, 3920.373
280.5450, 3927.439
281.7560, 3977.701
282.9670, 3949.139
284.1780, 4115.738
285.3880, 4221.492
286.5980, 4143.379
287.8090, 4053.398
289.0190, 4039.537
290.2290, 3960.787
291.4380, 3965.141
292.6480, 3647.592
293.8570, 3702.742
295.0670, 3544.090
296.2760, 3414.938
297.4850, 3344.840
298.6930, 3346.010
299.9020, 3280.123
301.1110, 3020.654
302.3190, 3056.199
303.5270, 2906.861
304.7350, 2851.590
305.9430, 2715.357
307.1510, 2817.879
308.3580, 2712.393
309.5660, 2717.936
310.7730, 2617.527
311.9800, 2490.074
313.1870, 2686.572
314.3940, 2718.688
315.6010, 2711.316
316.8070, 2905.797
318.0130, 2927.520
319.2200, 2767.227
320.4260, 2920.521
321.6310, 3113.594
322.8370, 3262.942
324.0430, 3424.858
325.2480, 3495.688
326.4540, 3554.711
327.6590, 3678.723
328.8640, 3736.784
330.0680, 4100.930
331.2730, 4065.471
332.4780, 4399.078
333.6820, 4523.527
334.8860, 4783.629
336.0900, 4854.314
337.2940, 5006.788
338.4980, 5264.613
339.7010, 5544.087
340.9050, 5333.534
342.1080, 5417.482
343.3110, 5340.403
344.5140, 5471.492
345.7170, 5424.564
346.9200, 5192.240
348.1220, 5244.762
349.3240, 5130.598
350.5270, 5131.779
351.7290, 5212.385
352.9310, 4970.595
354.1320, 5066.854
355.3340, 4981.827
356.5350, 4861.801
357.7370, 4938.723
358.9380, 4842.705
360.1390, 4578.232
361.3400, 4462.416
362.5400, 4482.711
363.7410, 4271.483
364.9410, 3907.932
366.1410, 3846.798
367.3410, 3466.067
368.5410, 3281.256
369.7410, 3039.359
370.9400, 2999.375
372.1400, 2921.300
373.3390, 2697.135
374.5380, 2520.875
375.7370, 2564.842
376.9360, 2324.812
378.1350, 2376.539
379.3330, 2165.887
380.5310, 2069.366
381.7300, 2056.154
382.9280, 2235.465
384.1260, 1975.709
385.3230, 2193.568
386.5210, 2148.897
387.7180, 2258.556
388.9160, 2408.116
390.1130, 2494.575
391.3100, 2501.936
392.5060, 2540.196
393.7030, 2676.358
394.9000, 2648.423
396.0960, 2846.389
397.2920, 2881.259
398.4880, 2814.031
399.6840, 2720.706
400.8800, 2844.283
402.0750, 2819.765
403.2710, 2751.148
404.4660, 2733.436
405.6610, 2648.629
406.8560, 2636.725
408.0510, 2607.725
409.2450, 2339.672
410.4400, 2310.564
411.6340, 2040.402
412.8280, 2051.179
414.0220, 2117.889
415.2160, 1911.527
416.4100, 1838.098
417.6030, 1723.594
418.7970, 1691.015
419.9900, 1578.359
421.1830, 1528.177
422.3760, 1397.816
423.5690, 1431.926
424.7610, 1307.955
425.9540, 1282.264
427.1460, 1034.769
428.3380, 1061.551
429.5300, 913.2500
430.7220, 709.8662
431.9140, 1241.397
433.1050, 1151.004
434.2970, 976.4961
435.4880, 1463.484
436.6790, 526.6758
437.8700, 497.7773
439.0610, 394.7861
440.2510, 186.7002
441.4420, 166.5078
442.6320, 184.2100
443.8220, 306.8066
445.0120, 79.30273
446.2020, 78.67871
447.3910, 149.9336
448.5810, 154.0781
449.7700, 102.1123
450.9600, 20.02930
452.1490, 110.7979
453.3370, 26.55176
454.5260, 152.0762
455.7150, 74.15918
456.9030, 222.7344
458.0910, 22.90625
459.2800, 115.2549
460.4670, 22.82715
461.6550, 101.5771
462.8430, 158.5449
464.0300, 235.7607
465.2180, 353.2666
466.4050, 267.1230
467.5920, 310.2871
468.7790, 356.7734
469.9650, 436.6104
471.1520, 477.8398
472.3380, 320.4873
473.5250, 359.4463
474.7110, 265.8008
475.8970, 232.4375
477.0820, 164.3623
478.2680, 31.53711
479.4540, 172.8916
480.6390, 20.50098
481.8240, 36.71680
483.0090, 49.20801
484.1940, 48.68066
485.3780, 107.5693
486.5630, 64.03516
487.7470, 224.6973
488.9320, 92.63672
490.1160, 101.2148
491.3000, 35.05859
492.4830, 24.49121
493.6670, 35.10449
494.8500, 1.123047
496.0340, 98.19336
497.2170, 194.1406
498.4000, 186.9756
499.5820, 185.6973
500.7650, 299.3057
501.9480, 393.8105
503.1300, 460.2148
504.3120, 417.5215
505.4940, 525.7275
506.6760, 824.8369
507.8580, 706.8613
509.0390, 839.7969
510.2210, 1064.648
511.4020, 934.4141
512.5830, 855.0957
513.7640, 1098.693
514.9450, 1053.207
516.1250, 1273.636
517.3060, 1348.982
518.4860, 1274.253
519.6660, 1434.448
520.8460, 1301.589
522.0260, 1487.684
523.2060, 1648.709
524.3850, 1736.661
525.5650, 1866.984
526.7440, 1830.340
527.9230, 1997.062
529.1020, 2134.703
530.2810, 2092.265
531.4590, 2254.744
532.6380, 2324.141
533.8160, 2592.457
534.9940, 2689.695
536.1720, 2777.852
537.3500, 2850.930
538.5270, 3062.129
539.7050, 3292.852
540.8820, 3543.695
542.0590, 3845.466
543.2360, 4190.131
544.4130, 4759.779
545.5900, 5157.328
546.7660, 5671.807
547.9430, 6367.221
549.1190, 6891.582
550.2950, 7884.884
551.4710, 8632.123
552.6470, 9456.334
553.8220, 10385.50
554.9980, 11438.64
556.1730, 12503.77
557.3480, 13750.88
558.5230, 14864.97
559.6980, 16182.06
560.8730, 17022.16
562.0470, 18374.28
563.2220, 19255.44
564.3960, 20165.61
565.5700, 20980.81
566.7440, 21604.05
567.9170, 22245.28
569.0910, 22483.54
570.2640, 22576.81
571.4380, 21720.11
572.6110, 20683.45
573.7840, 19126.79
574.9570, 17565.19
576.1290, 15936.69
577.3020, 13976.26
578.4740, 12477.28
579.6460, 11195.24
580.8180, 9986.812
581.9900, 8917.417
583.1620, 8187.889
584.3330, 7499.548
585.5040, 6920.902
586.6760, 6838.336
587.8470, 6390.747
589.0180, 6339.170
590.1880, 6365.629
591.3590, 6460.369
592.5290, 6691.170
593.7000, 6736.002
594.8700, 7205.830
596.0400, 7368.707
597.2090, 7827.600
598.3790, 8272.892
599.5490, 8855.644
600.7180, 8968.529
601.8870, 9374.135
603.0560, 9791.681
604.2250, 9848.550
605.3940, 9877.486
606.5620, 9888.985
607.7300, 9758.824
608.8990, 9374.891
610.0670, 9245.029
611.2350, 8523.133
612.4020, 8108.618
613.5700, 7711.001
614.7370, 6898.949
615.9050, 6464.804
617.0720, 5812.773
618.2390, 5158.059
619.4060, 4592.712
620.5720, 4264.504
621.7390, 3975.887
622.9050, 3796.518
624.0710, 3559.074
625.2370, 3481.027
626.4030, 3353.901
627.5690, 3268.501
628.7340, 3128.014
629.9000, 2876.814
631.0650, 2942.661
632.2300, 2690.084
633.3950, 2825.049
634.5600, 2532.480
635.7240, 2709.195
636.8890, 2431.744
638.0530, 2535.463
639.2170, 2687.066
640.3810, 2638.602
641.5450, 2699.955
642.7080, 2684.643
643.8720, 2795.546
645.0350, 2734.210
646.1980, 2893.265
647.3610, 3157.509
648.5240, 3381.197
649.6870, 3461.345
650.8490, 3697.428
652.0120, 3851.444
653.1740, 3967.396
654.3360, 4104.279
655.4980, 4399.100
656.6600, 4800.851
657.8210, 5224.533
658.9830, 5501.148
660.1440, 5860.746
661.3050, 6028.174
662.4660, 6463.582
663.6270, 6726.921
664.7870, 7012.188
665.9480, 7384.385
667.1080, 7769.506
668.2680, 8150.379
669.4280, 8504.539
670.5880, 8899.373
671.7480, 9202.339
672.9070, 9649.534
674.0670, 10073.42
675.2260, 10407.21
676.3850, 10895.50
677.5440, 11342.88
678.7030, 11921.23
679.8610, 12347.80
681.0200, 12740.07
682.1780, 13291.45
683.3360, 13645.87
684.4940, 14115.67
685.6520, 14495.77
686.8090, 14983.92
687.9670, 15505.27
689.1240, 16033.10
690.2810, 16157.33
691.4380, 16928.10
692.5950, 17273.88
693.7520, 17582.79
694.9080, 18297.04
696.0650, 18550.95
697.2210, 18956.31
698.3770, 19342.39
699.5330, 19482.92
700.6880, 19916.93
701.8440, 19874.40
702.9990, 19903.69
704.1550, 19576.59
705.3100, 19370.46
706.4650, 18796.57
707.6190, 17974.38
708.7740, 17203.95
709.9290, 16139.79
711.0830, 14987.73
712.2370, 14014.38
713.3910, 12653.44
714.5450, 11775.54
715.6980, 10950.96
716.8520, 10112.49
718.0050, 9396.696
719.1580, 9138.739
720.3110, 8628.070
721.4640, 8160.035
722.6170, 8145.170
723.7700, 7979.456
724.9220, 8156.812
726.0740, 7946.892
727.2260, 7997.998
728.3780, 8126.535
729.5300, 8377.223
730.6810, 8586.945
731.8330, 8938.850
732.9840, 8894.588
734.1350, 9567.431
735.2860, 9501.393
736.4370, 9910.137
737.5880, 10036.87
738.7380, 10280.21
739.8880, 10600.64
741.0390, 10725.57
742.1890, 10816.53
743.3380, 10888.14
744.4880, 10844.66
745.6380, 10868.20
746.7870, 10589.22
747.9360, 10483.07
749.0850, 10168.58
750.2340, 10062.55
751.3830, 9797.429
752.5310, 9677.793
753.6800, 9203.492
754.8280, 8858.396
755.9760, 8840.837
757.1240, 8511.729
758.2720, 8359.351
759.4190, 8001.590
760.5670, 7777.328
761.7140, 7426.920
762.8610, 7186.387
764.0080, 7355.703
765.1550, 6866.908
766.3020, 7097.992
767.4480, 6653.994
768.5950, 6520.881
769.7410, 6148.609
770.8870, 6000.205
772.0330, 5824.655
773.1780, 5595.971
774.3240, 5331.146
775.4690, 5158.160
776.6140, 4927.436
777.7590, 4711.841
778.9040, 4525.209
780.0490, 4314.557
781.1940, 4127.273
782.3380, 3986.738
783.4820, 3773.569
784.6260, 3581.225
785.7700, 3361.703
786.9140, 3210.005
788.0580, 3051.125
789.2010, 2948.065
790.3450, 2925.826
791.4880, 2746.406
792.6310, 2516.806
793.7730, 2695.026
794.9160, 2260.067
796.0590, 2254.928
797.2010, 2097.606
798.3430, 1967.108
799.4850, 2008.430
800.6270, 1722.568
801.7690, 1726.529
802.9100, 1562.311
804.0520, 1423.914
805.1930, 1309.336
806.3340, 1268.578
807.4750, 1049.643
808.6160, 1250.527
809.7560, 942.2344
810.8970, 988.7578
812.0370, 986.0996
813.1770, 840.2637
814.3170, 921.2422
815.4570, 875.0391
816.5960, 690.6523
817.7360, 732.0781
818.8750, 677.3184
820.0140, 639.3711
821.1530, 544.2344
822.2920, 503.9043
823.4310, 434.3750
824.5690, 329.6387
825.7070, 379.6738
826.8460, 395.4941
827.9840, 145.1035
829.1220, 276.4316
830.2590, 84.52734
831.3970, 91.32227
832.5340, 59.82422
833.6710, 97.02344
834.8080, 33.06641
835.9450, 23.50781
837.0820, 116.2871
838.2190, 113.4551
839.3550, 37.00586
840.4910, 227.8984
841.6270, 122.2285
842.7630, 11.06445
843.8990, 181.9473
845.0350, 57.36719
846.1700, 164.1191
847.3060, 236.2578
848.4410, 63.82031
849.5760, 252.7109
850.7100, 516.0234
851.8450, 273.8926
852.9800, 395.1895
854.1140, 429.9727
855.2480, 324.2578
856.3820, 225.9805
857.5160, 388.0879
858.6500, 415.6621
859.7830, 379.3770
860.9170, 310.2051
862.0500, 347.1152
863.1830, 293.4473
864.3160, 310.1699
865.4480, 179.2852
866.5810, 253.7227
867.7130, 314.5137
868.8460, 258.6836
869.9780, 127.2012
871.1100, 2.986328
872.2410, 209.9766
873.3730, 69.26562
874.5050, 123.7832
875.6360, 66.54297
876.7670, 110.4805
877.8980, 34.36914
879.0290, 25.89648
880.1590, 100.3398
881.2900, 65.99023
882.4200, 58.83008
883.5500, 259.8535
884.6800, 158.1445
885.8100, 119.6523
886.9400, 304.3535
888.0690, 217.3320
889.1990, 286.5410
890.3280, 227.0059
891.4570, 301.6973
892.5860, 246.6406
893.7140, 147.8086
894.8430, 213.1484
895.9710, 28.31445
897.1000, 98.66406
898.2280, 29.90430
899.3560, 164.0352
900.4830, 199.0605
901.6110, 221.9805
902.7380, 394.8008
903.8660, 293.5176
904.9930, 390.1367
906.1200, 390.6602
907.2460, 447.0859
908.3730, 551.4180
909.5000, 527.6602
910.6260, 559.8105
911.7520, 570.8770
912.8780, 628.9531
914.0040, 777.7500
915.1290, 802.5605
916.2550, 855.2949
917.3800, 1002.949
918.5050, 1011.531
919.6300, 1186.037
920.7550, 1299.475
921.8800, 1426.840
923.0040, 1447.141
924.1290, 1621.375
925.2530, 1559.547
926.3770, 1769.660
927.5010, 1590.713
928.6250, 1865.709
929.7480, 1728.650
930.8720, 1874.541
931.9950, 1855.383
933.1180, 1686.176
934.2410, 1830.922
935.3640, 1960.629
936.4860, 1920.291
937.6090, 2104.918
938.7310, 1990.506
939.8530, 1841.061
940.9750, 2126.582
942.0970, 2161.074
943.2180, 2374.477
944.3400, 2322.916
945.4610, 2245.893
946.5820, 2560.082
947.7030, 2597.277
948.8240, 2677.887
949.9450, 2813.857
951.0650, 2856.662
952.1860, 3027.729
953.3060, 3142.000
954.4260, 3379.080
955.5460, 3475.043
956.6650, 3565.545
957.7850, 3568.672
958.9040, 3627.676
960.0230, 3685.689
961.1420, 3740.492
962.2610, 3826.279
963.3800, 3874.389
964.4990, 3989.404
965.6170, 4038.240
966.7350, 4008.672
967.8530, 4254.758
968.9710, 4305.986
970.0890, 4156.025
971.2070, 4317.951
972.3240, 4509.354
973.4410, 4335.250
974.5580, 4699.266
975.6750, 4758.641
976.7920, 4849.992
977.9090, 4762.074
979.0250, 5047.414
980.1410, 4947.959
981.2580, 5217.195
982.3740, 5151.312
983.4890, 5172.678
984.6050, 5563.619
985.7200, 5671.484
986.8360, 5927.012
987.9510, 6233.406
989.0660, 6273.115
990.1810, 6596.973
991.2950, 6761.529
992.4100, 7081.453
993.5240, 7496.211
994.6390, 7645.814
995.7530, 7868.355
996.8660, 8123.186
997.9800, 8326.004
999.0940, 8264.406
1000.207, 8223.680
1001.320, 8530.938
1002.433, 8227.057
1003.546, 8156.363
1004.659, 8291.629
1005.772, 7912.859
1006.884, 7765.359
1007.996, 7409.977
1009.108, 7354.051
1010.220, 6807.137
1011.332, 6575.787
1012.444, 6296.498
1013.555, 5954.680
1014.666, 5832.684
1015.777, 5610.625
1016.888, 5538.834
1017.999, 5446.367
1019.110, 5254.422
1020.220, 5345.211
1021.331, 4992.297
1022.441, 5162.061
1023.551, 5074.680
1024.661, 4897.248
1025.770, 4867.434
1026.880, 5042.303
1027.989, 5214.561
1029.098, 5383.338
1030.207, 5175.729
1031.316, 5454.355
1032.425, 5476.227
1033.533, 5762.346
1034.642, 5913.715
1035.750, 5784.340
1036.858, 6227.215
1037.966, 6393.346
1039.073, 6375.738
1040.181, 6994.395
1041.288, 7104.312
1042.396, 7439.504
1043.503, 7906.971
1044.610, 8068.715
1045.716, 8613.738
1046.823, 8652.031
1047.929, 9160.609
1049.036, 9687.471
1050.142, 10190.60
1051.248, 10607.01
1052.353, 11205.70
1053.459, 11891.66
1054.564, 12479.91
1055.670, 12756.44
1056.775, 13667.26
1057.880, 14242.36
1058.985, 15121.76
1060.089, 15643.45
1061.194, 16379.43
1062.298, 17198.69
1063.402, 17804.23
1064.506, 18141.08
1065.610, 18763.22
1066.713, 19289.65
1067.817, 19657.38
1068.920, 20078.41
1070.023, 20146.74
1071.126, 19946.38
1072.229, 20468.31
1073.332, 20932.54
1074.435, 20731.08
1075.537, 21205.92
1076.639, 21565.09
1077.741, 21869.58
1078.843, 22176.98
1079.945, 22532.53
1081.046, 22656.98
1082.148, 23017.75
1083.249, 23258.84
1084.350, 23379.30
1085.451, 23201.07
1086.551, 23209.17
1087.652, 22635.64
1088.752, 22286.42
1089.853, 21506.53
1090.953, 20524.03
1092.053, 19524.90
1093.152, 18555.15
1094.252, 17506.73
1095.351, 16485.68
1096.451, 15489.06
1097.550, 13979.83
1098.649, 12963.05
1099.748, 11740.76
1100.846, 10777.88
1101.945, 9917.668
1103.043, 9092.391
1104.141, 8292.857
1105.239, 7649.832
1106.337, 6740.309
1107.434, 6268.271
1108.532, 5570.768
1109.629, 5565.725
1110.726, 5172.133
1111.823, 4874.020
1112.920, 4577.371
1114.017, 4127.221
1115.113, 4138.631
1116.210, 3775.537
1117.306, 4045.002
1118.402, 3942.086
1119.498, 3669.646
1120.593, 3614.764
1121.689, 3876.422
1122.784, 3586.598
1123.879, 3788.309
1124.974, 3813.615
1126.069, 3847.461
1127.164, 3780.871
1128.259, 3788.834
1129.353, 3823.340
1130.447, 3598.408
1131.541, 3571.988
1132.635, 3198.068
1133.729, 2975.670
1134.822, 2613.744
1135.916, 2416.336
1137.009, 2180.389
1138.102, 1932.854
1139.195, 1381.760
1140.288, 1578.078
1141.380, 1127.867
1142.473, 497.0859
1143.565, 584.7227
1144.657, 441.7422
1145.749, 148.1250
1146.841, 418.8770
1147.932, 427.9766
1149.024, 308.4141
1150.115, 753.2422
1151.206, 1065.414
1152.297, 1161.969
1153.388, 1639.822
1154.479, 1990.781
1155.569, 2474.312
1156.659, 2929.691
1157.750, 3481.711
1158.839, 3925.344
1159.929, 4423.590
1161.019, 5016.047
1162.108, 5598.748
1163.198, 6174.078
1164.287, 6826.145
1165.376, 7394.539
1166.465, 7909.926
1167.553, 8548.439
1168.642, 9037.555
1169.730, 9328.570
1170.818, 10003.34
1171.906, 10147.46
1172.994, 10367.57
1174.082, 10332.02
1175.170, 10146.43
1176.257, 10269.11
1177.344, 10211.99
1178.431, 10185.70
1179.518, 10212.68
1180.605, 10118.25
1181.691, 9895.742
1182.778, 9872.457
1183.864, 9807.895
1184.950, 9763.168
1186.036, 9508.312
1187.122, 9544.416
1188.207, 9415.219
1189.292, 9266.197
1190.378, 9321.805
1191.463, 8705.566
1192.548, 8695.469
1193.632, 8548.512
1194.717, 8134.738
1195.801, 8140.463
1196.886, 7589.285
1197.970, 7344.188
1199.054, 6744.180
1200.137, 6186.547
1201.221, 5997.521
1202.305, 5550.123
1203.388, 5086.715
1204.471, 4526.316
1205.554, 4212.508
1206.637, 3921.752
1207.719, 3301.188
1208.802, 3139.090
1209.884, 2659.961
1210.966, 2579.469
1212.048, 2157.873
1213.130, 2078.834
1214.212, 1798.145
1215.293, 1553.535
1216.374, 1672.781
1217.456, 1074.150
1218.536, 1420.875
1219.617, 789.7988
1220.698, 915.5977
1221.778, 923.7793
1222.859, 891.7656
1223.939, 774.0000
1225.019, 934.1152
1226.099, 886.3418
1227.178, 683.6641
1228.258, 598.8887
1229.337, 796.2012
1230.417, 637.8984
1231.496, 717.9922
1232.574, 708.3359
1233.653, 833.3809
1234.732, 761.2188
1235.810, 839.2949
1236.888, 743.8555
1237.966, 647.7012
1239.044, 655.6426
1240.122, 760.9453
1241.199, 742.3965
1242.277, 800.3750
1243.354, 732.3809
1244.431, 569.1992
1245.508, 432.5645
1246.585, 368.3145
1247.661, 327.3457
1248.738, 359.4375
1249.814, 277.2871
1250.890, 120.7383
1251.966, 512.6582
1253.042, 329.5137
1254.117, 416.3203
1255.193, 309.8672
1256.268, 296.4629
1257.343, 227.1289
1258.418, 398.2598
1259.493, 525.5098
1260.567, 555.1523
1261.642, 655.9297
1262.716, 711.8672
1263.790, 705.0488
1264.864, 812.8535
1265.938, 709.9922
1267.011, 758.8262
1268.085, 714.0605
1269.158, 673.3750
1270.231, 801.7031
1271.304, 706.9492
1272.377, 844.9902
1273.450, 728.9180
1274.522, 645.2324
1275.594, 574.8711
1276.666, 468.5781
1277.738, 488.9023
1278.810, 447.1523
1279.882, 310.7305
1280.953, 259.1836
