##NAMES=Eudialyte
##RRUFFID=R050230
##IDEAL CHEMISTRY=Na_15_Ca_6_Fe^2+^_3_Zr^4+^_3_Si(Si_25_O_73_)(O,OH,H_2_O)_3_(Cl,OH)_2_
##LOCALITY=Kipawa alkaline complex, near Sheffield Lake, Villedieu Township, Temiscamingue County, Quebec, Canada
##OWNER=RRUFF
##SOURCE=Marcus Origlieri
##DESCRIPTION=Massive aggregate of red crystals
##STATUS=The identification of this mineral has been confirmed by X-ray diffraction and chemical analysis
##URL=rruff.info/R050230
##MEASURED CHEMISTRY=(Na_14.50_K_0.35_Ca_0.15_)_Σ=15_Ca_6.00_(Fe_1.86_Mn_1.01_Mg_0.13_)_Σ=3_(Zr_2.91_Ti_0.09_)_3_(Si_0.94_Nb_0.06_)_Σ=1.00_(Si_25.00_O_73_)(OH)_1.10_(H_2_O)_1.90_)_Σ=3_(Cl_1.17_(OH)_0.83_)_Σ=2_
##PIN_ID=M00392
##ORIENTATION=Laser parallel to c* (0 0 1). Fiducial mark perpendicular to laser is parallel to -a [-1 0 0]
118.1340, 0.0000000E+00
119.3650, 45.34180
120.5960, 114.3789
121.8270, 291.9102
123.0580, 673.6699
124.2880, 468.7715
125.5190, 141.0020
126.7490, 256.9902
127.9790, 14.83203
129.2090, 83.81055
130.4390, 538.5215
131.6680, 605.7461
132.8980, 526.4844
134.1270, 995.9277
135.3560, 1271.410
136.5850, 1884.354
137.8140, 2447.225
139.0430, 2630.512
140.2710, 3083.750
141.5000, 2986.504
142.7280, 2792.404
143.9560, 3013.141
145.1840, 3219.465
146.4120, 2784.213
147.6390, 2989.254
148.8670, 2753.471
150.0940, 3056.725
151.3210, 3160.879
152.5490, 3108.781
153.7750, 3224.285
155.0020, 3568.236
156.2290, 3711.438
157.4550, 4280.666
158.6810, 4446.736
159.9080, 4712.510
161.1340, 4830.857
162.3590, 5138.682
163.5850, 5062.232
164.8110, 4940.102
166.0360, 4753.273
167.2610, 4396.316
168.4860, 3900.580
169.7110, 3539.121
170.9360, 3043.045
172.1610, 2616.457
173.3850, 2168.424
174.6100, 1979.062
175.8340, 1919.166
177.0580, 1821.908
178.2820, 1774.137
179.5050, 1983.746
180.7290, 2404.646
181.9520, 2765.734
183.1760, 3318.926
184.3990, 3937.133
185.6220, 4725.459
186.8450, 5676.287
188.0670, 6695.098
189.2900, 7437.641
190.5120, 8745.863
191.7340, 9459.559
192.9560, 10677.21
194.1780, 11620.79
195.4000, 12769.31
196.6220, 13896.54
197.8430, 15083.84
199.0640, 16508.25
200.2860, 17805.80
201.5070, 18997.52
202.7270, 19920.41
203.9480, 20762.49
205.1690, 21392.04
206.3890, 21868.43
207.6090, 22116.31
208.8290, 22162.53
210.0490, 22013.97
211.2690, 21667.06
212.4890, 21437.41
213.7080, 20646.19
214.9280, 20089.40
216.1470, 19014.14
217.3660, 17884.73
218.5850, 16708.50
219.8030, 15579.95
221.0220, 13890.26
222.2400, 12622.60
223.4590, 11186.99
224.6770, 9924.430
225.8950, 8647.793
227.1120, 7165.883
228.3300, 6056.615
229.5480, 5139.742
230.7650, 4002.166
231.9820, 3217.664
233.1990, 2283.914
234.4160, 1944.623
235.6330, 1595.506
236.8490, 1145.334
238.0660, 944.0508
239.2820, 852.5840
240.4980, 889.8887
241.7140, 1094.926
242.9300, 1199.652
244.1460, 1323.057
245.3610, 1931.146
246.5770, 2134.912
247.7920, 2532.361
249.0070, 3087.486
250.2220, 3449.289
251.4370, 3886.766
252.6510, 3989.912
253.8660, 4391.730
255.0800, 4361.219
256.2940, 4564.371
257.5080, 5009.188
258.7220, 4831.449
259.9360, 5603.812
261.1490, 4896.611
262.3630, 4659.070
263.5760, 5067.188
264.7890, 5000.164
266.0020, 4855.617
267.2150, 5434.584
268.4270, 5227.674
269.6400, 5698.207
270.8520, 5803.717
272.0640, 6211.605
273.2760, 6136.062
274.4880, 6482.035
275.7000, 6690.701
276.9120, 7025.010
278.1230, 7148.914
279.3340, 7571.381
280.5450, 7976.363
281.7560, 7889.832
282.9670, 8061.752
284.1780, 8710.098
285.3880, 8969.840
286.5980, 9096.957
287.8090, 9751.430
289.0190, 9957.223
290.2290, 9973.449
291.4380, 10382.71
292.6480, 10713.37
293.8570, 10933.81
295.0670, 11436.43
296.2760, 11965.39
297.4850, 11894.27
298.6930, 12149.34
299.9020, 12139.67
301.1110, 12601.12
302.3190, 13199.30
303.5270, 13159.80
304.7350, 13322.73
305.9430, 13779.77
307.1510, 13828.51
308.3580, 14475.65
309.5660, 15268.14
310.7730, 15574.75
311.9800, 16209.96
313.1870, 16481.42
314.3940, 17454.72
315.6010, 18415.44
316.8070, 18575.47
318.0130, 18804.44
319.2200, 19217.82
320.4260, 19143.33
321.6310, 19049.63
322.8370, 18814.90
324.0430, 18912.12
325.2480, 18817.66
326.4540, 19208.65
327.6590, 19480.04
328.8640, 20145.89
330.0680, 20740.81
331.2730, 21519.37
332.4780, 22533.99
333.6820, 23380.17
334.8860, 23964.62
336.0900, 24174.43
337.2940, 23914.20
338.4980, 23354.78
339.7010, 22312.29
340.9050, 21203.78
342.1080, 20262.59
343.3110, 19166.25
344.5140, 17717.72
345.7170, 16496.95
346.9200, 15164.33
348.1220, 14255.86
349.3240, 13302.66
350.5270, 12879.10
351.7290, 12324.26
352.9310, 11987.16
354.1320, 11590.82
355.3340, 11384.97
356.5350, 10946.00
357.7370, 10723.78
358.9380, 10472.32
360.1390, 10167.81
361.3400, 9879.174
362.5400, 9383.939
363.7410, 9122.797
364.9410, 8761.664
366.1410, 8143.947
367.3410, 7783.016
368.5410, 7612.855
369.7410, 7015.457
370.9400, 6674.812
372.1400, 6324.912
373.3390, 5986.020
374.5380, 5889.312
375.7370, 5522.600
376.9360, 5481.600
378.1350, 5374.312
379.3330, 4994.730
380.5310, 5048.855
381.7300, 5152.684
382.9280, 5084.215
384.1260, 5203.449
385.3230, 5279.387
386.5210, 5182.027
387.7180, 5396.373
388.9160, 5805.418
390.1130, 5754.172
391.3100, 5967.627
392.5060, 5858.787
393.7030, 6020.652
394.9000, 6243.225
396.0960, 6146.500
397.2920, 6138.482
398.4880, 6117.168
399.6840, 5963.562
400.8800, 6096.664
402.0750, 5948.471
403.2710, 5702.988
404.4660, 5635.213
405.6610, 5711.146
406.8560, 5464.787
408.0510, 5163.138
409.2450, 5309.270
410.4400, 5086.195
411.6340, 5115.916
412.8280, 4650.426
414.0220, 4549.730
415.2160, 4327.821
416.4100, 4168.700
417.6030, 3966.433
418.7970, 3861.941
419.9900, 3618.223
421.1830, 3549.270
422.3760, 3411.080
423.5690, 3129.650
424.7610, 3016.981
425.9540, 2749.066
427.1460, 2795.903
428.3380, 2486.490
429.5300, 2508.827
430.7220, 2554.909
431.9140, 2451.736
433.1050, 2286.309
434.2970, 2120.621
435.4880, 2103.663
436.6790, 1993.438
437.8700, 1780.938
439.0610, 1767.154
440.2510, 1608.084
441.4420, 1385.721
442.6320, 1380.059
443.8220, 1163.094
445.0120, 1041.817
446.2020, 1012.227
447.3910, 954.3174
448.5810, 730.0889
449.7700, 843.5312
450.9600, 786.6475
452.1490, 610.4385
453.3370, 378.8877
454.5260, 253.9805
455.7150, 174.6992
456.9030, 44.96680
458.0910, 238.1260
459.2800, 142.8828
460.4670, 456.1875
461.6550, 618.2080
462.8430, 808.0312
464.0300, 721.7578
465.2180, 798.3438
466.4050, 890.8311
467.5920, 1101.270
468.7790, 915.7695
469.9650, 985.2344
471.1520, 1055.703
472.3380, 1009.211
473.5250, 1003.735
474.7110, 926.2734
475.8970, 824.7832
477.0820, 990.2139
478.2680, 870.6494
479.4540, 777.0293
480.6390, 665.3047
481.8240, 858.4131
483.0090, 654.4590
484.1940, 663.3330
485.3780, 649.0381
486.5630, 347.5684
487.7470, 443.7627
488.9320, 259.6689
490.1160, 203.1924
491.3000, 37.29883
492.4830, 20.90039
493.6670, 250.0117
494.8500, 254.5439
496.0340, 435.6992
497.2170, 464.4961
498.4000, 696.7617
499.5820, 1126.049
500.7650, 1136.839
501.9480, 1579.314
503.1300, 1725.490
504.3120, 1968.371
505.4940, 2300.966
506.6760, 2482.288
507.8580, 2696.344
509.0390, 2897.139
510.2210, 3127.674
511.4020, 3395.947
512.5830, 3683.961
513.7640, 3892.786
514.9450, 4222.215
516.1250, 4307.453
517.3060, 4478.437
518.4860, 4622.163
519.6660, 4929.635
520.8460, 4956.852
522.0260, 5320.812
523.2060, 5468.523
524.3850, 5777.980
525.5650, 5985.188
526.7440, 6125.146
527.9230, 6153.852
529.1020, 6422.310
530.2810, 7127.518
531.4590, 7434.482
532.6380, 8076.197
533.8160, 8777.669
534.9940, 9404.895
536.1720, 10479.88
537.3500, 11797.62
538.5270, 12715.11
539.7050, 13734.37
540.8820, 14827.38
542.0590, 15765.16
543.2360, 16933.69
544.4130, 18196.99
545.5900, 19348.05
546.7660, 20674.88
547.9430, 21909.49
549.1190, 23251.85
550.2950, 25698.00
551.4710, 27336.92
552.6470, 29081.62
553.8220, 30773.10
554.9980, 32033.37
556.1730, 33025.45
557.3480, 33904.33
558.5230, 33949.02
559.6980, 33944.51
560.8730, 33983.84
562.0470, 34774.01
563.2220, 35830.04
564.3960, 36551.97
565.5700, 38335.80
566.7440, 38769.51
567.9170, 39045.18
569.0910, 38169.77
570.2640, 36890.33
571.4380, 34758.86
572.6110, 32088.39
573.7840, 29312.92
574.9570, 25906.33
576.1290, 23343.05
577.3020, 20550.70
578.4740, 17865.85
579.6460, 15777.10
580.8180, 13891.32
581.9900, 12168.88
583.1620, 11074.52
584.3330, 9741.192
585.5040, 9136.016
586.6760, 8283.358
587.8470, 7861.625
589.0180, 7690.662
590.1880, 7811.815
591.3590, 7723.506
592.5290, 7827.004
593.7000, 8183.349
594.8700, 8643.742
596.0400, 9164.724
597.2090, 9806.564
598.3790, 10213.70
599.5490, 11114.54
600.7180, 11366.19
601.8870, 11698.98
603.0560, 12181.43
604.2250, 12286.82
605.3940, 12207.47
606.5620, 12265.18
607.7300, 12019.99
608.8990, 11488.48
610.0670, 11078.51
611.2350, 10515.09
612.4020, 9911.190
613.5700, 9280.108
614.7370, 8818.290
615.9050, 8409.263
617.0720, 8117.408
618.2390, 7854.113
619.4060, 7737.215
620.5720, 7701.103
621.7390, 7770.936
622.9050, 7978.596
624.0710, 8074.031
625.2370, 8304.896
626.4030, 8305.661
627.5690, 8274.377
628.7340, 8212.086
629.9000, 8076.393
631.0650, 8083.305
632.2300, 7979.697
633.3950, 7638.186
634.5600, 7321.699
635.7240, 7277.225
636.8890, 7209.754
638.0530, 6955.465
639.2170, 7204.058
640.3810, 7005.643
641.5450, 7081.188
642.7080, 7185.506
643.8720, 7133.355
645.0350, 7285.279
646.1980, 7389.902
647.3610, 7558.007
648.5240, 7711.056
649.6870, 7963.000
650.8490, 8186.840
652.0120, 8681.568
653.1740, 9206.194
654.3360, 9526.708
655.4980, 9902.118
656.6600, 10356.42
657.8210, 10816.07
658.9830, 11340.25
660.1440, 11934.67
661.3050, 12461.54
662.4660, 13199.30
663.6270, 13771.94
664.7870, 14316.48
665.9480, 14967.90
667.1080, 15456.22
668.2680, 16013.42
669.4280, 16669.51
670.5880, 16974.49
671.7480, 17769.35
672.9070, 18171.10
674.0670, 18847.74
675.2260, 19484.27
676.3850, 20118.67
677.5440, 20706.79
678.7030, 21234.14
679.8610, 21842.21
681.0200, 22314.83
682.1780, 22874.06
683.3360, 23236.91
684.4940, 23819.50
685.6520, 24127.79
686.8090, 24677.13
687.9670, 25176.92
689.1240, 25740.13
690.2810, 26080.92
691.4380, 26618.57
692.5950, 27028.94
693.7520, 27919.45
694.9080, 28144.82
696.0650, 29086.11
697.2210, 29727.90
698.3770, 29856.76
699.5330, 30384.23
700.6880, 30522.81
701.8440, 30317.54
702.9990, 30403.71
704.1550, 30031.61
705.3100, 29282.97
706.4650, 28080.31
707.6190, 26856.88
708.7740, 25630.58
709.9290, 24107.70
711.0830, 23009.23
712.2370, 21484.84
713.3910, 20532.66
714.5450, 19487.93
715.6980, 18505.22
716.8520, 17956.58
718.0050, 17432.76
719.1580, 16951.02
720.3110, 16714.47
721.4640, 16907.87
722.6170, 16767.23
723.7700, 17008.55
724.9220, 17457.22
726.0740, 17811.79
727.2260, 18219.28
728.3780, 18799.10
729.5300, 19225.38
730.6810, 19799.51
731.8330, 20543.09
732.9840, 21266.62
734.1350, 21841.89
735.2860, 22337.14
736.4370, 22888.69
737.5880, 23197.27
738.7380, 23916.47
739.8880, 24321.12
741.0390, 24620.99
742.1890, 24761.85
743.3380, 24739.15
744.4880, 24523.71
745.6380, 24477.28
746.7870, 24166.21
747.9360, 23423.42
749.0850, 23151.38
750.2340, 22714.35
751.3830, 22458.07
752.5310, 21592.08
753.6800, 21279.00
754.8280, 20720.73
755.9760, 20383.35
757.1240, 19860.57
758.2720, 19758.84
759.4190, 19195.10
760.5670, 18830.37
761.7140, 18623.65
762.8610, 18075.93
764.0080, 17713.18
765.1550, 17425.41
766.3020, 17022.53
767.4480, 16704.58
768.5950, 16074.50
769.7410, 15687.26
770.8870, 15237.84
772.0330, 15060.23
773.1780, 14517.36
774.3240, 14136.24
775.4690, 13608.87
776.6140, 13501.23
777.7590, 13011.32
778.9040, 12942.12
780.0490, 12388.65
781.1940, 12064.88
782.3380, 11913.81
783.4820, 11522.45
784.6260, 11094.79
785.7700, 10651.81
786.9140, 10182.12
788.0580, 9687.926
789.2010, 9200.015
790.3450, 8661.792
791.4880, 8174.258
792.6310, 7700.412
793.7730, 7116.250
794.9160, 6553.777
796.0590, 6254.990
797.2010, 5695.894
798.3430, 5550.480
799.4850, 4904.754
800.6270, 4713.715
801.7690, 4221.363
802.9100, 4123.697
804.0520, 3888.717
805.1930, 3605.424
806.3340, 3509.817
807.4750, 3351.898
808.6160, 2991.665
809.7560, 2872.117
810.8970, 2696.258
812.0370, 2646.086
813.1770, 2426.603
814.3170, 2347.805
815.4570, 2126.694
816.5960, 2201.272
817.7360, 1862.540
818.8750, 1719.495
820.0140, 1692.137
821.1530, 1731.464
822.2920, 1498.480
823.4310, 1446.178
824.5690, 1295.555
825.7070, 1150.608
826.8460, 1206.334
827.9840, 954.7334
829.1220, 977.7998
830.2590, 748.5352
831.3970, 464.9209
832.5340, 661.8984
833.6710, 526.5156
834.8080, 510.7461
835.9450, 412.5869
837.0820, 265.0137
838.2190, 205.9775
839.3550, 74.45801
840.4910, 6.391602
841.6270, 88.74805
842.7630, 175.4258
843.8990, 12.26465
845.0350, 277.6797
846.1700, 261.2959
847.3060, 340.6289
848.4410, 383.1875
849.5760, 364.4990
850.7100, 604.5469
851.8450, 599.4551
852.9800, 436.2139
854.1140, 571.7295
855.2480, 728.0723
856.3820, 615.3145
857.5160, 722.3926
858.6500, 782.3555
859.7830, 874.2285
860.9170, 750.0537
862.0500, 841.7559
863.1830, 701.3799
864.3160, 868.8398
865.4480, 913.2178
866.5810, 862.5293
867.7130, 885.7393
868.8460, 789.8496
869.9780, 897.8037
871.1100, 675.6465
872.2410, 777.2549
873.3730, 762.6689
874.5050, 852.8740
875.6360, 637.9072
876.7670, 753.6465
877.8980, 769.1426
879.0290, 664.3945
880.1590, 764.3369
881.2900, 749.0098
882.4200, 675.3984
883.5500, 598.4521
884.6800, 643.1201
885.8100, 607.4170
886.9400, 413.3096
888.0690, 399.6963
889.1990, 135.5586
890.3280, 164.7646
891.4570, 20.31738
892.5860, 356.8535
893.7140, 325.7959
894.8430, 673.5127
895.9710, 692.0049
897.1000, 1151.274
898.2280, 1018.323
899.3560, 1533.155
900.4830, 1921.771
901.6110, 1876.172
902.7380, 2154.361
903.8660, 2500.342
904.9930, 2815.116
906.1200, 3087.497
907.2460, 3211.057
908.3730, 3606.229
909.5000, 3793.205
910.6260, 3981.993
911.7520, 4438.592
912.8780, 4607.007
914.0040, 5044.243
915.1290, 5591.301
916.2550, 5902.187
917.3800, 6437.902
918.5050, 6957.453
919.6300, 7330.840
920.7550, 7638.066
921.8800, 7948.143
923.0040, 8130.066
924.1290, 8474.846
925.2530, 8686.479
926.3770, 8786.975
927.5010, 8794.335
928.6250, 8743.566
929.7480, 8671.667
930.8720, 8440.646
931.9950, 8111.507
933.1180, 7717.254
934.2410, 7392.887
935.3640, 6867.413
936.4860, 6450.840
937.6090, 6069.168
938.7310, 5633.830
939.8530, 5489.543
940.9750, 4908.600
942.0970, 4718.574
943.2180, 4483.475
944.3400, 3822.301
945.4610, 3803.057
946.5820, 3591.750
947.7030, 3539.383
948.8240, 3022.961
949.9450, 3004.486
951.0650, 2868.965
952.1860, 2918.404
953.3060, 2718.805
954.4260, 2442.092
955.5460, 2313.297
956.6650, 2085.609
957.7850, 2196.080
958.9040, 2080.381
960.0230, 1877.104
961.1420, 1981.279
962.2610, 1912.750
963.3800, 1762.240
964.4990, 1869.900
965.6170, 1827.324
966.7350, 1806.770
967.8530, 1882.193
968.9710, 1866.021
970.0890, 1913.691
971.2070, 2220.664
972.3240, 1972.455
973.4410, 2358.996
974.5580, 2514.047
975.6750, 2541.287
976.7920, 2596.990
977.9090, 2716.674
979.0250, 2916.059
980.1410, 3214.260
981.2580, 3250.992
982.3740, 3684.268
983.4890, 3644.426
984.6050, 3875.330
985.7200, 4006.770
986.8360, 4201.160
987.9510, 4378.418
989.0660, 4561.426
990.1810, 4747.318
991.2950, 4939.523
992.4100, 5211.785
993.5240, 5415.094
994.6390, 5049.479
995.7530, 5263.529
996.8660, 5483.732
997.9800, 4993.684
999.0940, 5069.094
1000.207, 5024.723
1001.320, 4951.570
1002.433, 4743.027
1003.546, 4544.605
1004.659, 4400.836
1005.772, 4114.590
1006.884, 4007.453
1007.996, 3789.457
1009.108, 3457.051
1010.220, 3367.420
1011.332, 2883.836
1012.444, 3201.621
1013.555, 2936.877
1014.666, 3083.197
1015.777, 2653.430
1016.888, 3128.732
1017.999, 2759.236
1019.110, 2842.451
1020.220, 2919.107
1021.331, 2889.500
1022.441, 2814.084
1023.551, 2948.234
1024.661, 2830.043
1025.770, 3085.395
1026.880, 3202.637
1027.989, 3381.297
1029.098, 3481.371
1030.207, 3437.873
1031.316, 3631.801
1032.425, 3920.160
1033.533, 4397.953
1034.642, 4343.189
1035.750, 4604.873
1036.858, 4796.008
1037.966, 5067.605
1039.073, 5474.664
1040.181, 5836.195
1041.288, 6077.191
1042.396, 6242.670
1043.503, 6742.629
1044.610, 7080.078
1045.716, 7523.020
1046.823, 7958.461
1047.929, 8396.408
1049.036, 8780.863
1050.142, 9261.824
1051.248, 9827.617
1052.353, 10442.95
1053.459, 11217.83
1054.564, 11985.87
1055.670, 13073.44
1056.775, 14201.54
1057.880, 15180.18
1058.985, 16831.35
1060.089, 18013.07
1061.194, 19619.33
1062.298, 21419.13
1063.402, 22634.50
1064.506, 23956.44
1065.610, 24379.95
1066.713, 24808.04
1067.817, 24660.71
1068.920, 24473.97
1070.023, 23802.84
1071.126, 23758.31
1072.229, 23726.38
1073.332, 24385.07
1074.435, 24739.36
1075.537, 25536.26
1076.639, 26418.75
1077.741, 27385.85
1078.843, 28410.57
1079.945, 29308.97
1081.046, 30494.98
1082.148, 31441.61
1083.249, 32053.93
1084.350, 32784.84
1085.451, 33075.40
1086.551, 33239.59
1087.652, 33023.50
1088.752, 32986.07
1089.853, 33132.34
1090.953, 33373.31
1092.053, 33016.96
1093.152, 32762.36
1094.252, 32505.46
1095.351, 31953.23
1096.451, 30904.68
1097.550, 30406.89
1098.649, 29658.82
1099.748, 28955.53
1100.846, 27992.00
1101.945, 27281.20
1103.043, 26517.81
1104.141, 25503.90
1105.239, 25051.44
1106.337, 24198.81
1107.434, 23447.04
1108.532, 22885.13
1109.629, 22142.07
1110.726, 21503.92
1111.823, 20848.63
1112.920, 20712.26
1114.017, 19810.80
1115.113, 19641.25
1116.210, 18824.67
1117.306, 18837.07
1118.402, 18345.55
1119.498, 17982.05
1120.593, 17961.53
1121.689, 17882.04
1122.784, 17674.62
1123.879, 17637.22
1124.974, 17446.88
1126.069, 17665.63
1127.164, 17099.44
1128.259, 17274.31
1129.353, 16761.23
1130.447, 16416.16
1131.541, 15564.14
1132.635, 14462.22
1133.729, 13851.36
1134.822, 12339.55
1135.916, 11423.81
1137.009, 9904.059
1138.102, 8759.246
1139.195, 7662.385
1140.288, 6510.469
1141.380, 5807.547
1142.473, 5022.570
1143.565, 4166.527
1144.657, 3701.404
1145.749, 3476.119
1146.841, 3305.680
1147.932, 3185.086
1149.024, 3335.309
1150.115, 3338.297
1151.206, 3811.061
1152.297, 4147.574
1153.388, 4651.781
1154.479, 5150.668
1155.569, 5684.088
1156.659, 6584.014
1157.750, 7243.402
1158.839, 8014.262
1159.929, 9022.588
1161.019, 9934.377
1162.108, 10749.60
1163.198, 11536.26
1164.287, 12427.03
1165.376, 13238.31
1166.465, 14101.93
1167.553, 14901.90
1168.642, 15215.24
1169.730, 15708.86
1170.818, 16111.55
1171.906, 16119.54
1172.994, 16198.57
1174.082, 15794.53
1175.170, 15280.12
1176.257, 14749.73
1177.344, 14074.04
1178.431, 13410.12
1179.518, 12837.54
1180.605, 12264.44
1181.691, 11736.06
1182.778, 11015.38
1183.864, 10680.07
1184.950, 10246.88
1186.036, 9592.633
1187.122, 9040.984
1188.207, 8625.500
1189.292, 8272.730
1190.378, 7815.250
1191.463, 7458.955
1192.548, 7132.701
1193.632, 6849.451
1194.717, 6253.732
1195.801, 5661.295
1196.886, 5592.402
1197.970, 5091.742
1199.054, 5007.539
1200.137, 4365.480
1201.221, 4119.070
1202.305, 3603.701
1203.388, 3307.018
1204.471, 2751.811
1205.554, 2738.047
1206.637, 2543.781
1207.719, 2462.232
1208.802, 1857.162
1209.884, 1991.516
1210.966, 1755.582
1212.048, 1816.387
1213.130, 1913.281
1214.212, 1962.312
1215.293, 2161.346
1216.374, 2406.084
1217.456, 2672.311
1218.536, 3056.746
1219.617, 3502.545
1220.698, 3936.688
1221.778, 4329.090
1222.859, 4854.936
1223.939, 5484.180
1225.019, 5581.211
1226.099, 6405.992
1227.178, 6892.301
1228.258, 7126.891
1229.337, 7203.277
1230.417, 7710.219
1231.496, 7949.691
1232.574, 8242.062
1233.653, 8271.547
1234.732, 8520.973
1235.810, 8650.789
1236.888, 8353.211
1237.966, 8218.098
1239.044, 8263.975
1240.122, 7830.129
1241.199, 7800.879
1242.277, 7359.258
1243.354, 7258.027
1244.431, 7041.887
1245.508, 6978.691
1246.585, 6455.930
1247.661, 6141.574
1248.738, 6002.674
1249.814, 5591.494
1250.890, 5580.504
1251.966, 5597.891
1253.042, 5494.914
1254.117, 5594.545
1255.193, 5812.428
1256.268, 5940.344
1257.343, 5890.234
1258.418, 6062.434
1259.493, 6371.684
1260.567, 6215.785
1261.642, 6545.135
1262.716, 6468.043
1263.790, 6643.523
1264.864, 6467.793
1265.938, 6576.605
1267.011, 6630.807
1268.085, 6481.529
1269.158, 6146.379
1270.231, 5893.855
1271.304, 5731.264
1272.377, 5475.535
1273.450, 5241.924
1274.522, 4828.258
1275.594, 4595.297
1276.666, 4373.811
1277.738, 4060.324
1278.810, 3864.896
1279.882, 3345.367
1280.953, 3346.084
