##NAMES=Eudialyte
##RRUFFID=R050230
##IDEAL CHEMISTRY=Na_15_Ca_6_Fe^2+^_3_Zr^4+^_3_Si(Si_25_O_73_)(O,OH,H_2_O)_3_(Cl,OH)_2_
##LOCALITY=Kipawa alkaline complex, near Sheffield Lake, Villedieu Township, Temiscamingue County, Quebec, Canada
##OWNER=RRUFF
##SOURCE=Marcus Origlieri
##DESCRIPTION=Massive aggregate of red crystals
##STATUS=The identification of this mineral has been confirmed by X-ray diffraction and chemical analysis
##URL=rruff.info/R050230
##MEASURED CHEMISTRY=(Na_14.50_K_0.35_Ca_0.15_)_Σ=15_Ca_6.00_(Fe_1.86_Mn_1.01_Mg_0.13_)_Σ=3_(Zr_2.91_Ti_0.09_)_3_(Si_0.94_Nb_0.06_)_Σ=1.00_(Si_25.00_O_73_)(OH)_1.10_(H_2_O)_1.90_)_Σ=3_(Cl_1.17_(OH)_0.83_)_Σ=2_
##PIN_ID=M00176
##ORIENTATION=Laser parallel to a* (1 0 0). Fiducial mark perpendicular to laser is parallel to c [0 0 1]
118.1340, 0.0000000E+00
119.3650, 62.09961
120.5960, 209.2910
121.8270, 217.2637
123.0580, 12.93750
124.2880, 105.4043
125.5190, 40.84961
126.7490, 88.55664
127.9790, 164.2617
129.2090, 341.1699
130.4390, 642.3789
131.6680, 882.1289
132.8980, 1146.807
134.1270, 1139.926
135.3560, 1413.080
136.5850, 1716.924
137.8140, 2298.146
139.0430, 2355.445
140.2710, 2508.551
141.5000, 2362.219
142.7280, 2322.234
143.9560, 2458.414
145.1840, 2521.627
146.4120, 2298.764
147.6390, 2116.758
148.8670, 2022.539
150.0940, 1915.027
151.3210, 1773.525
152.5490, 1639.473
153.7750, 1515.920
155.0020, 1302.414
156.2290, 1142.164
157.4550, 913.0527
158.6810, 1096.977
159.9080, 1125.857
161.1340, 997.6328
162.3590, 1333.246
163.5850, 1073.645
164.8110, 1000.787
166.0360, 999.6406
167.2610, 1052.186
168.4860, 839.4180
169.7110, 666.3750
170.9360, 625.0957
172.1610, 275.6348
173.3850, 440.0449
174.6100, 259.3633
175.8340, 118.5918
177.0580, 346.7031
178.2820, 285.6426
179.5050, 347.3516
180.7290, 202.7734
181.9520, 537.8555
183.1760, 879.5547
184.3990, 966.8242
185.6220, 1302.627
186.8450, 1810.920
188.0670, 2065.670
189.2900, 2277.842
190.5120, 2856.408
191.7340, 2872.236
192.9560, 3381.973
194.1780, 3665.633
195.4000, 4075.250
196.6220, 4216.879
197.8430, 4366.559
199.0640, 4806.314
200.2860, 5247.156
201.5070, 5353.105
202.7270, 5551.174
203.9480, 5842.367
205.1690, 5827.697
206.3890, 6103.166
207.6090, 6273.781
208.8290, 6255.543
210.0490, 6473.475
211.2690, 6503.609
212.4890, 6510.965
213.7080, 6312.559
214.9280, 6058.418
216.1470, 5793.600
217.3660, 5362.301
218.5850, 5187.750
219.8030, 4573.074
221.0220, 4491.285
222.2400, 4209.465
223.4590, 3883.703
224.6770, 3314.018
225.8950, 3171.455
227.1120, 2902.086
228.3300, 2282.828
229.5480, 1911.508
230.7650, 1342.021
231.9820, 1118.037
233.1990, 986.4062
234.4160, 746.9590
235.6330, 429.4844
236.8490, 552.9297
238.0660, 207.2559
239.2820, 376.4375
240.4980, 63.48438
241.7140, 156.3887
242.9300, 279.1602
244.1460, 459.7910
245.3610, 505.2930
246.5770, 652.6543
247.7920, 706.8848
249.0070, 930.9727
250.2220, 1175.922
251.4370, 1234.736
252.6510, 1446.406
253.8660, 1487.938
255.0800, 1661.324
256.2940, 1840.564
257.5080, 2344.664
258.7220, 2289.287
259.9360, 2840.422
261.1490, 2409.086
262.3630, 2207.596
263.5760, 2344.961
264.7890, 2714.426
266.0020, 2680.230
267.2150, 3040.773
268.4270, 3055.830
269.6400, 3213.500
270.8520, 3417.777
272.0640, 3685.684
273.2760, 3967.971
274.4880, 4255.695
275.7000, 4587.953
276.9120, 4662.350
278.1230, 5247.215
279.3340, 5401.406
280.5450, 5648.906
281.7560, 6087.695
282.9670, 5983.752
284.1780, 6403.062
285.3880, 6791.611
286.5980, 6788.387
287.8090, 6760.375
289.0190, 7308.562
290.2290, 7089.943
291.4380, 7441.504
292.6480, 7317.236
293.8570, 7699.129
295.0670, 7625.174
296.2760, 8026.365
297.4850, 7874.695
298.6930, 8042.150
299.9020, 8045.656
301.1110, 7990.547
302.3190, 8252.283
303.5270, 8277.631
304.7350, 8425.115
305.9430, 8728.621
307.1510, 8647.713
308.3580, 8552.012
309.5660, 8769.654
310.7730, 9076.906
311.9800, 8971.852
313.1870, 9387.537
314.3940, 9314.395
315.6010, 9415.168
316.8070, 9577.645
318.0130, 9775.664
319.2200, 9801.297
320.4260, 9940.660
321.6310, 10256.83
322.8370, 10268.46
324.0430, 10416.00
325.2480, 10401.07
326.4540, 10913.02
327.6590, 10905.86
328.8640, 11210.76
330.0680, 11779.98
331.2730, 11807.36
332.4780, 12289.20
333.6820, 12617.71
334.8860, 13042.14
336.0900, 13705.82
337.2940, 14118.73
338.4980, 14375.27
339.7010, 14373.84
340.9050, 14304.00
342.1080, 14183.44
343.3110, 13982.60
344.5140, 13525.07
345.7170, 13145.58
346.9200, 12722.85
348.1220, 11982.94
349.3240, 11621.08
350.5270, 11101.91
351.7290, 10480.84
352.9310, 10016.12
354.1320, 9621.957
355.3340, 9298.086
356.5350, 8727.119
357.7370, 8365.094
358.9380, 7964.998
360.1390, 7555.844
361.3400, 7376.617
362.5400, 7011.320
363.7410, 6579.949
364.9410, 6176.500
366.1410, 5712.965
367.3410, 5773.340
368.5410, 5270.625
369.7410, 5058.807
370.9400, 4589.887
372.1400, 4376.852
373.3390, 4315.703
374.5380, 3927.434
375.7370, 3763.039
376.9360, 3408.516
378.1350, 3414.861
379.3330, 3265.074
380.5310, 3194.158
381.7300, 3175.107
382.9280, 3209.926
384.1260, 3077.607
385.3230, 3337.162
386.5210, 3299.584
387.7180, 3466.871
388.9160, 3424.027
390.1130, 3757.055
391.3100, 3659.945
392.5060, 4007.707
393.7030, 4038.336
394.9000, 4166.832
396.0960, 4318.199
397.2920, 4544.434
398.4880, 4787.539
399.6840, 4676.512
400.8800, 5028.355
402.0750, 4950.066
403.2710, 5045.650
404.4660, 5051.105
405.6610, 5247.430
406.8560, 5319.623
408.0510, 5215.689
409.2450, 4953.680
410.4400, 4955.604
411.6340, 4890.453
412.8280, 5040.230
414.0220, 4791.938
415.2160, 4723.562
416.4100, 4565.113
417.6030, 4271.580
418.7970, 4167.959
419.9900, 4098.250
421.1830, 3853.453
422.3760, 3850.566
423.5690, 3570.588
424.7610, 3200.516
425.9540, 3272.354
427.1460, 3052.096
428.3380, 2922.744
429.5300, 2530.299
430.7220, 2548.758
431.9140, 2365.119
433.1050, 2247.383
434.2970, 2019.553
435.4880, 1839.623
436.6790, 1714.398
437.8700, 1620.477
439.0610, 1459.254
440.2510, 1417.936
441.4420, 1313.520
442.6320, 961.0059
443.8220, 905.3838
445.0120, 737.6543
446.2020, 624.8066
447.3910, 625.8408
448.5810, 410.7539
449.7700, 540.5371
450.9600, 324.1953
452.1490, 299.7168
453.3370, 146.1006
454.5260, 103.3291
455.7150, 69.39844
456.9030, 43.70605
458.0910, 166.0479
459.2800, 173.6895
460.4670, 258.5703
461.6550, 312.9443
462.8430, 305.6328
464.0300, 299.7051
465.2180, 352.2412
466.4050, 380.0264
467.5920, 434.3223
468.7790, 462.0771
469.9650, 506.3057
471.1520, 474.0332
472.3380, 557.2422
473.5250, 542.9824
474.7110, 581.2461
475.8970, 639.0508
477.0820, 669.4346
478.2680, 641.4053
479.4540, 453.9570
480.6390, 543.9863
481.8240, 465.5449
483.0090, 443.5908
484.1940, 433.1094
485.3780, 95.10059
486.5630, 260.3828
487.7470, 119.0439
488.9320, 5.011719
490.1160, 67.22656
491.3000, 187.2832
492.4830, 289.6143
493.6670, 536.7773
494.8500, 678.7920
496.0340, 1010.660
497.2170, 1165.400
498.4000, 1417.010
499.5820, 1528.501
500.7650, 1841.874
501.9480, 1878.128
503.1300, 2219.264
504.3120, 2107.281
505.4940, 2477.181
506.6760, 2701.959
507.8580, 2764.619
509.0390, 2835.161
510.2210, 2923.422
511.4020, 2915.886
512.5830, 2981.069
513.7640, 2922.135
514.9450, 2893.080
516.1250, 2880.377
517.3060, 2854.742
518.4860, 2888.201
519.6660, 2845.668
520.8460, 3025.019
522.0260, 3056.249
523.2060, 3067.363
524.3850, 3043.357
525.5650, 3117.232
526.7440, 3153.201
527.9230, 3212.629
529.1020, 3303.148
530.2810, 3373.551
531.4590, 3478.238
532.6380, 3629.551
533.8160, 3788.069
534.9940, 4011.015
536.1720, 4233.849
537.3500, 4528.572
538.5270, 4885.186
539.7050, 5044.699
540.8820, 5466.127
542.0590, 5983.471
543.2360, 6185.727
544.4130, 6837.900
545.5900, 7306.008
546.7660, 7969.058
547.9430, 8705.066
549.1190, 9196.044
550.2950, 10124.01
551.4710, 11017.98
552.6470, 11614.95
553.8220, 12327.92
554.9980, 13312.92
556.1730, 14093.90
557.3480, 14839.94
558.5230, 15666.75
559.6980, 16662.15
560.8730, 17084.32
562.0470, 17745.62
563.2220, 18263.03
564.3960, 18617.56
565.5700, 19123.21
566.7440, 19244.96
567.9170, 19501.82
569.0910, 19609.78
570.2640, 19368.84
571.4380, 18793.99
572.6110, 17827.27
573.7840, 16569.69
574.9570, 15070.21
576.1290, 13561.88
577.3020, 12248.70
578.4740, 10704.66
579.6460, 9495.763
580.8180, 8429.974
581.9900, 7587.258
583.1620, 6682.646
584.3330, 6102.207
585.5040, 5571.842
586.6760, 6189.173
587.8470, 5150.410
589.0180, 4950.633
590.1880, 5496.967
591.3590, 4812.779
592.5290, 5056.410
593.7000, 5149.744
594.8700, 5366.498
596.0400, 5858.549
597.2090, 5961.815
598.3790, 6430.869
599.5490, 6516.955
600.7180, 6913.270
601.8870, 7095.100
603.0560, 7331.943
604.2250, 7396.099
605.3940, 7556.351
606.5620, 7570.033
607.7300, 7406.711
608.8990, 7335.730
610.0670, 7017.762
611.2350, 6686.787
612.4020, 6239.618
613.5700, 5927.856
614.7370, 5479.113
615.9050, 5209.627
617.0720, 4887.336
618.2390, 4512.985
619.4060, 4333.250
620.5720, 3974.149
621.7390, 3879.282
622.9050, 3766.233
624.0710, 3518.467
625.2370, 3501.274
626.4030, 3527.223
627.5690, 3699.729
628.7340, 3643.041
629.9000, 3574.454
631.0650, 3474.904
632.2300, 3372.158
633.3950, 3402.572
634.5600, 3311.736
635.7240, 3223.396
636.8890, 3079.354
638.0530, 3061.859
639.2170, 3048.301
640.3810, 3223.648
641.5450, 3175.896
642.7080, 3153.047
643.8720, 3057.096
645.0350, 3275.047
646.1980, 3233.898
647.3610, 3457.646
648.5240, 3536.295
649.6870, 3717.840
650.8490, 4015.283
652.0120, 4070.619
653.1740, 4201.855
654.3360, 4386.980
655.4980, 4835.004
656.6600, 4969.920
657.8210, 5324.729
658.9830, 5516.428
660.1440, 5670.020
661.3050, 5957.504
662.4660, 6172.877
663.6270, 6568.869
664.7870, 6904.799
665.9480, 7397.328
667.1080, 7697.254
668.2680, 8043.068
669.4280, 8444.770
670.5880, 8739.637
671.7480, 9154.738
672.9070, 9546.777
674.0670, 9916.695
675.2260, 10299.00
676.3850, 10692.11
677.5440, 11021.82
678.7030, 11369.90
679.8610, 11716.26
681.0200, 12146.52
682.1780, 12379.75
683.3360, 12776.10
684.4940, 13051.76
685.6520, 13556.87
686.8090, 13868.16
687.9670, 14291.72
689.1240, 14718.42
690.2810, 14947.70
691.4380, 15534.02
692.5950, 15918.95
693.7520, 16283.68
694.9080, 16566.54
696.0650, 16895.64
697.2210, 17394.47
698.3770, 17600.88
699.5330, 17924.48
700.6880, 18092.45
701.8440, 18271.29
702.9990, 18169.24
704.1550, 18051.56
705.3100, 17795.23
706.4650, 17357.65
707.6190, 16833.14
708.7740, 16192.75
709.9290, 15567.83
711.0830, 14675.10
712.2370, 14100.75
713.3910, 13350.37
714.5450, 12464.90
715.6980, 11784.18
716.8520, 11473.17
718.0050, 10881.21
719.1580, 10672.93
720.3110, 10452.57
721.4640, 10120.06
722.6170, 10370.42
723.7700, 10372.56
724.9220, 10357.27
726.0740, 10459.80
727.2260, 10791.87
728.3780, 10798.01
729.5300, 10926.64
730.6810, 11360.81
731.8330, 11548.59
732.9840, 12066.38
734.1350, 12358.55
735.2860, 12769.52
736.4370, 13013.60
737.5880, 13157.13
738.7380, 13369.64
739.8880, 13422.93
741.0390, 13454.08
742.1890, 13521.58
743.3380, 13551.49
744.4880, 13519.84
745.6380, 13613.54
746.7870, 13580.14
747.9360, 13584.66
749.0850, 13100.10
750.2340, 12940.49
751.3830, 12590.80
752.5310, 12126.07
753.6800, 12008.28
754.8280, 11734.45
755.9760, 11453.60
757.1240, 11221.73
758.2720, 11009.84
759.4190, 10671.87
760.5670, 10585.85
761.7140, 10327.76
762.8610, 10113.59
764.0080, 9824.334
765.1550, 9637.917
766.3020, 9410.371
767.4480, 9129.659
768.5950, 9070.757
769.7410, 8555.675
770.8870, 8291.364
772.0330, 8035.822
773.1780, 7368.036
774.3240, 7344.004
775.4690, 7018.723
776.6140, 6945.185
777.7590, 6622.386
778.9040, 6467.334
780.0490, 6074.020
781.1940, 6042.446
782.3380, 5739.875
783.4820, 5449.525
784.6260, 5132.175
785.7700, 5166.567
786.9140, 4597.703
788.0580, 4624.576
789.2010, 4255.195
790.3450, 4092.555
791.4880, 3941.656
792.6310, 3433.502
793.7730, 3323.089
794.9160, 3089.418
796.0590, 2935.491
797.2010, 2782.309
798.3430, 2592.869
799.4850, 2395.173
800.6270, 2372.221
801.7690, 2019.016
802.9100, 2065.554
804.0520, 1879.839
805.1930, 1658.870
806.3340, 1606.647
807.4750, 1459.172
808.6160, 1361.439
809.7560, 1228.447
810.8970, 1305.194
812.0370, 1177.680
813.1770, 1078.907
814.3170, 999.8682
815.4570, 757.5615
816.5960, 589.9688
817.7360, 599.0635
818.8750, 594.8477
820.0140, 535.3262
821.1530, 405.4844
822.2920, 349.6152
823.4310, 253.5723
824.5690, 168.7969
825.7070, 93.43164
826.8460, 45.61328
827.9840, 2.318359
829.1220, 16.53125
830.2590, 83.73438
831.3970, 123.4668
832.5340, 249.7539
833.6710, 94.58008
834.8080, 303.9316
835.9450, 124.9121
837.0820, 522.4238
838.2190, 402.6699
839.3550, 557.5840
840.4910, 494.2402
841.6270, 446.6016
842.7630, 485.6367
843.8990, 434.0430
845.0350, 497.7422
846.1700, 437.8105
847.3060, 588.5176
848.4410, 675.9473
849.5760, 513.1367
850.7100, 715.9883
851.8450, 709.6074
852.9800, 718.9805
854.1140, 702.1094
855.2480, 631.9746
856.3820, 470.5312
857.5160, 626.6875
858.6500, 592.5176
859.7830, 317.9941
860.9170, 613.9648
862.0500, 611.5781
863.1830, 365.8203
864.3160, 479.5547
865.4480, 216.8359
866.5810, 122.5117
867.7130, 234.5273
868.8460, 199.9316
869.9780, 49.69336
871.1100, 51.26367
872.2410, 4.003906
873.3730, 49.48633
874.5050, 64.76953
875.6360, 185.8535
876.7670, 178.7715
877.8980, 228.5293
879.0290, 360.1309
880.1590, 352.5820
881.2900, 476.9023
882.4200, 581.0977
883.5500, 593.1758
884.6800, 693.1211
885.8100, 821.9160
886.9400, 944.1348
888.0690, 1127.080
889.1990, 1277.426
890.3280, 1459.645
891.4570, 1634.721
892.5860, 1667.656
893.7140, 1991.457
894.8430, 2256.123
895.9710, 2587.654
897.1000, 2941.055
898.2280, 3047.328
899.3560, 3267.473
900.4830, 3607.494
901.6110, 4008.393
902.7380, 4493.172
903.8660, 4602.834
904.9930, 4738.379
906.1200, 4985.812
907.2460, 5391.137
908.3730, 5505.354
909.5000, 5770.471
910.6260, 6086.482
911.7520, 6156.398
912.8780, 6520.223
914.0040, 6954.953
915.1290, 7649.600
916.2550, 7790.160
917.3800, 8175.637
918.5050, 8537.031
919.6300, 8658.357
920.7550, 9250.605
921.8800, 9808.793
923.0040, 9959.910
924.1290, 10395.96
925.2530, 10611.96
926.3770, 10987.90
927.5010, 11086.79
928.6250, 11353.62
929.7480, 11413.41
930.8720, 11178.16
931.9950, 11138.87
933.1180, 11175.54
934.2410, 11163.17
935.3640, 11028.78
936.4860, 10972.36
937.6090, 10610.92
938.7310, 10775.46
939.8530, 10779.98
940.9750, 10644.49
942.0970, 11017.98
943.2180, 10898.19
944.3400, 11270.05
945.4610, 11295.41
946.5820, 11517.15
947.7030, 12044.44
948.8240, 11856.39
949.9450, 12179.08
951.0650, 12213.31
952.1860, 12107.41
953.3060, 12093.02
954.4260, 12141.80
955.5460, 11733.39
956.6650, 11910.57
957.7850, 11466.22
958.9040, 11279.60
960.0230, 10834.64
961.1420, 10217.29
962.2610, 9828.635
963.3800, 9475.703
964.4990, 9165.213
965.6170, 8933.264
966.7350, 8595.945
967.8530, 8287.184
968.9710, 7951.229
970.0890, 7691.846
971.2070, 7411.221
972.3240, 7232.186
973.4410, 7152.229
974.5580, 7053.129
975.6750, 6943.623
976.7920, 6879.734
977.9090, 6884.051
979.0250, 6801.285
980.1410, 6506.221
981.2580, 6791.639
982.3740, 6667.344
983.4890, 6874.332
984.6050, 7073.328
985.7200, 7230.418
986.8360, 7115.750
987.9510, 7286.363
989.0660, 7553.932
990.1810, 7382.830
991.2950, 7787.801
992.4100, 7682.945
993.5240, 8166.223
994.6390, 8098.744
995.7530, 8207.723
996.8660, 8168.906
997.9800, 8244.594
999.0940, 8244.238
1000.207, 8238.445
1001.320, 8376.172
1002.433, 8168.340
1003.546, 7981.551
1004.659, 8216.455
1005.772, 7829.641
1006.884, 7819.871
1007.996, 7575.625
1009.108, 7341.625
1010.220, 7414.016
1011.332, 7224.156
1012.444, 7024.748
1013.555, 6832.410
1014.666, 6938.969
1015.777, 6715.352
1016.888, 6950.143
1017.999, 6784.719
1019.110, 6663.193
1020.220, 6611.551
1021.331, 6686.242
1022.441, 6673.281
1023.551, 6806.668
1024.661, 6797.400
1025.770, 6914.488
1026.880, 6942.930
1027.989, 6687.730
1029.098, 6819.895
1030.207, 6981.426
1031.316, 6696.328
1032.425, 6813.613
1033.533, 6990.270
1034.642, 6741.309
1035.750, 6770.736
1036.858, 6829.555
1037.966, 6996.768
1039.073, 7021.385
1040.181, 7068.398
1041.288, 7163.814
1042.396, 7305.633
1043.503, 7214.879
1044.610, 7578.543
1045.716, 7595.617
1046.823, 7959.117
1047.929, 8078.033
1049.036, 8369.375
1050.142, 8486.141
1051.248, 8999.332
1052.353, 9336.959
1053.459, 9718.035
1054.564, 10165.55
1055.670, 10748.53
1056.775, 11334.93
1057.880, 11938.97
1058.985, 12671.09
1060.089, 13263.84
1061.194, 13815.02
1062.298, 14508.66
1063.402, 15284.74
1064.506, 15940.27
1065.610, 16282.27
1066.713, 16762.72
1067.817, 17035.64
1068.920, 17066.02
1070.023, 16973.90
1071.126, 16930.24
1072.229, 16920.04
1073.332, 16670.29
1074.435, 17109.06
1075.537, 17254.30
1076.639, 17622.05
1077.741, 17379.26
1078.843, 17819.99
1079.945, 18107.21
1081.046, 18240.94
1082.148, 18809.19
1083.249, 18582.96
1084.350, 18913.24
1085.451, 19101.04
1086.551, 19000.41
1087.652, 18903.32
1088.752, 18402.81
1089.853, 18045.87
1090.953, 17264.53
1092.053, 16608.80
1093.152, 16194.66
1094.252, 15583.16
1095.351, 14759.30
1096.451, 14462.10
1097.550, 13123.57
1098.649, 12416.73
1099.748, 11816.51
1100.846, 11064.02
1101.945, 10333.14
1103.043, 9757.367
1104.141, 9067.398
1105.239, 8578.635
1106.337, 7974.689
1107.434, 7413.562
1108.532, 7490.203
1109.629, 6713.592
1110.726, 6647.830
1111.823, 6211.840
1112.920, 5872.682
1114.017, 5282.291
1115.113, 5510.742
1116.210, 5254.008
1117.306, 5321.098
1118.402, 5107.053
1119.498, 5077.846
1120.593, 4764.467
1121.689, 5086.922
1122.784, 4984.172
1123.879, 4781.207
1124.974, 4971.039
1126.069, 5049.648
1127.164, 4763.943
1128.259, 4982.043
1129.353, 4820.922
1130.447, 4600.531
1131.541, 4403.906
1132.635, 3984.982
1133.729, 3697.748
1134.822, 3123.141
1135.916, 2711.225
1137.009, 2111.896
1138.102, 1702.164
1139.195, 1014.990
1140.288, 821.3750
1141.380, 139.3027
1142.473, 55.26562
1143.565, 87.32812
1144.657, 314.8926
1145.749, 528.9844
1146.841, 641.6289
1147.932, 764.8594
1149.024, 369.6992
1150.115, 65.11523
1151.206, 173.8984
1152.297, 650.3477
1153.388, 1115.211
1154.479, 1455.488
1155.569, 1922.164
1156.659, 2459.211
1157.750, 2939.629
1158.839, 3927.467
1159.929, 4552.824
1161.019, 5512.814
1162.108, 6194.508
1163.198, 6797.730
1164.287, 7919.270
1165.376, 8527.818
1166.465, 9235.752
1167.553, 9697.238
1168.642, 10700.03
1169.730, 10824.53
1170.818, 11525.41
1171.906, 11720.13
1172.994, 11548.25
1174.082, 12058.64
1175.170, 11900.48
1176.257, 11756.88
1177.344, 12041.57
1178.431, 11520.76
1179.518, 11513.93
1180.605, 11344.16
1181.691, 11018.32
1182.778, 10833.79
1183.864, 10739.55
1184.950, 10553.66
1186.036, 10302.24
1187.122, 10282.89
1188.207, 9950.645
1189.292, 9638.367
1190.378, 9567.527
1191.463, 9288.975
1192.548, 9142.457
1193.632, 8945.719
1194.717, 8154.340
1195.801, 7993.045
1196.886, 7394.832
1197.970, 7184.250
1199.054, 6760.439
1200.137, 6211.566
1201.221, 5697.271
1202.305, 5119.910
1203.388, 4623.828
1204.471, 4212.934
1205.554, 3717.295
1206.637, 3249.617
1207.719, 2980.582
1208.802, 2552.738
1209.884, 2342.424
1210.966, 2213.266
1212.048, 1889.939
1213.130, 1803.406
1214.212, 1511.312
1215.293, 1207.631
1216.374, 1083.836
1217.456, 985.9648
1218.536, 953.9746
1219.617, 939.5430
1220.698, 993.7441
1221.778, 1002.176
1222.859, 1154.834
1223.939, 1192.396
1225.019, 1229.764
1226.099, 1428.215
1227.178, 1643.512
1228.258, 1517.451
1229.337, 1469.648
1230.417, 1674.971
1231.496, 1781.920
1232.574, 1769.027
1233.653, 1932.266
1234.732, 1854.904
1235.810, 2047.514
1236.888, 2044.332
1237.966, 1895.023
1239.044, 2106.248
1240.122, 1794.439
1241.199, 1812.850
1242.277, 1803.354
1243.354, 1571.928
1244.431, 1592.768
1245.508, 1347.207
1246.585, 1377.736
1247.661, 1128.559
1248.738, 1151.172
1249.814, 1194.402
1250.890, 1140.951
1251.966, 1150.508
1253.042, 940.0469
1254.117, 1102.320
1255.193, 1057.334
1256.268, 1002.457
1257.343, 1129.840
1258.418, 1219.422
1259.493, 1298.000
1260.567, 1457.641
1261.642, 1351.762
1262.716, 1698.828
1263.790, 1682.641
1264.864, 1645.742
1265.938, 1852.617
1267.011, 1829.555
1268.085, 1942.121
1269.158, 1907.078
1270.231, 1631.205
1271.304, 1523.611
1272.377, 1594.564
1273.450, 1498.984
1274.522, 1545.010
1275.594, 1444.980
1276.666, 1307.943
1277.738, 1231.836
1278.810, 1097.512
1279.882, 962.9648
1280.953, 875.5996
