##NAMES=Eudialyte
##RRUFFID=R060035
##IDEAL CHEMISTRY=Na_15_Ca_6_Fe^2+^_3_Zr^4+^_3_Si(Si_25_O_73_)(O,OH,H_2_O)_3_(Cl,OH)_2_
##LOCALITY=Chibini, Kola Peninsula, Russia
##OWNER=RRUFF
##SOURCE=University of Arizona Mineral Museum
##DESCRIPTION=Deep pink coarsely crystalline
##STATUS=The identification of this mineral has been confirmed by X-ray diffraction and chemical analysis
##URL=rruff.info/R060035
##MEASURED CHEMISTRY=(Na_14.86_K_0.14_)_Σ=15_Ca_6.00_(Fe_1.52_Mn_1.48_)_Σ=3_(Zr_2.82_Ti_0.18_)_Σ=3_(Si_0.93_Nb_0.07_)_Σ=1_(Si_25.00_O_73_)((OH)_1.01_(H_2_O)_1.99_)_Σ=3_(Cl_1.65_(OH)_0.35_)_Σ=2_
##PIN_ID=M00150
##ORIENTATION=Laser parallel to c* (0 0 1). Fiducial mark perpendicular to laser is parallel to b [0 1 0]
118.1340, 0.0000000E+00
119.3650, 1.693359
120.5960, 199.5977
121.8270, 142.7012
123.0580, 414.6094
124.2880, 17.50586
125.5190, 118.5586
126.7490, 9.916016
127.9790, 15.65820
129.2090, 125.8477
130.4390, 311.9551
131.6680, 457.8887
132.8980, 661.1152
134.1270, 860.3242
135.3560, 1167.156
136.5850, 1356.471
137.8140, 1767.969
139.0430, 2061.424
140.2710, 1980.656
141.5000, 2176.551
142.7280, 1887.004
143.9560, 1816.938
145.1840, 1995.293
146.4120, 1679.035
147.6390, 1541.146
148.8670, 1263.703
150.0940, 987.1484
151.3210, 1082.396
152.5490, 858.0469
153.7750, 776.5859
155.0020, 430.9668
156.2290, 603.2109
157.4550, 324.3281
158.6810, 310.3398
159.9080, 270.2617
161.1340, 318.1250
162.3590, 483.9512
163.5850, 237.7500
164.8110, 521.5332
166.0360, 598.3008
167.2610, 450.0527
168.4860, 402.7988
169.7110, 649.5410
170.9360, 567.3125
172.1610, 708.1602
173.3850, 833.1387
174.6100, 998.2695
175.8340, 1136.562
177.0580, 1224.998
178.2820, 1576.564
179.5050, 1710.436
180.7290, 2173.131
181.9520, 2339.719
183.1760, 2828.004
184.3990, 3166.172
185.6220, 3715.920
186.8450, 4182.197
188.0670, 4674.283
189.2900, 5221.449
190.5120, 5625.682
191.7340, 6778.969
192.9560, 7349.252
194.1780, 7818.547
195.4000, 8475.846
196.6220, 8914.162
197.8430, 9524.523
199.0640, 9958.938
200.2860, 10450.45
201.5070, 10354.21
202.7270, 10583.09
203.9480, 10717.09
205.1690, 10292.24
206.3890, 10208.48
207.6090, 9403.801
208.8290, 9334.141
210.0490, 8784.500
211.2690, 8511.877
212.4890, 8252.270
213.7080, 7941.680
214.9280, 7247.102
216.1470, 6645.535
217.3660, 6099.977
218.5850, 5792.439
219.8030, 5372.957
221.0220, 4503.770
222.2400, 4394.824
223.4590, 3803.428
224.6770, 3121.699
225.8950, 2903.623
227.1120, 2567.129
228.3300, 2457.086
229.5480, 2043.369
230.7650, 1524.873
231.9820, 1348.404
233.1990, 1049.883
234.4160, 811.2969
235.6330, 618.5469
236.8490, 435.8848
238.0660, 247.0332
239.2820, 74.08203
240.4980, 57.63477
241.7140, 58.11133
242.9300, 206.3535
244.1460, 63.69141
245.3610, 133.1230
246.5770, 190.6465
247.7920, 275.2637
249.0070, 29.02539
250.2220, 167.7754
251.4370, 50.67188
252.6510, 130.3320
253.8660, 43.83789
255.0800, 274.8105
256.2940, 292.1875
257.5080, 861.3809
258.7220, 1293.432
259.9360, 976.3848
261.1490, 810.2578
262.3630, 954.0469
263.5760, 1279.758
264.7890, 1271.631
266.0020, 1363.443
267.2150, 1530.922
268.4270, 1683.381
269.6400, 1624.986
270.8520, 1784.764
272.0640, 1781.660
273.2760, 1906.494
274.4880, 1713.607
275.7000, 1678.334
276.9120, 1703.080
278.1230, 1482.637
279.3340, 1313.105
280.5450, 1218.213
281.7560, 1467.705
282.9670, 1372.303
284.1780, 1536.404
285.3880, 1554.049
286.5980, 1335.486
287.8090, 1489.182
289.0190, 1462.994
290.2290, 1234.578
291.4380, 1367.602
292.6480, 1727.084
293.8570, 1655.449
295.0670, 1667.660
296.2760, 1910.484
297.4850, 1964.207
298.6930, 1758.281
299.9020, 1992.969
301.1110, 2079.637
302.3190, 2016.287
303.5270, 2354.922
304.7350, 2285.539
305.9430, 2261.141
307.1510, 2502.725
308.3580, 2506.293
309.5660, 2576.844
310.7730, 2394.379
311.9800, 2566.896
313.1870, 2533.398
314.3940, 2413.879
315.6010, 2445.396
316.8070, 2644.842
318.0130, 2387.521
319.2200, 2249.213
320.4260, 2547.549
321.6310, 2393.512
322.8370, 2595.543
324.0430, 2460.990
325.2480, 2464.766
326.4540, 2232.086
327.6590, 2737.422
328.8640, 2653.488
330.0680, 3014.457
331.2730, 3169.893
332.4780, 3081.508
333.6820, 3345.465
334.8860, 3361.344
336.0900, 3504.865
337.2940, 3508.043
338.4980, 3494.969
339.7010, 3665.336
340.9050, 3699.273
342.1080, 3713.916
343.3110, 3759.703
344.5140, 3578.668
345.7170, 3653.689
346.9200, 3587.857
348.1220, 3795.791
349.3240, 3587.391
350.5270, 3834.672
351.7290, 3782.236
352.9310, 3809.467
354.1320, 3872.400
355.3340, 3666.289
356.5350, 3761.137
357.7370, 3653.939
358.9380, 3420.699
360.1390, 3418.414
361.3400, 3034.086
362.5400, 2961.713
363.7410, 2948.295
364.9410, 2613.832
366.1410, 2592.322
367.3410, 2433.766
368.5410, 2455.158
369.7410, 2277.494
370.9400, 2220.777
372.1400, 2227.998
373.3390, 2017.158
374.5380, 2142.256
375.7370, 1925.287
376.9360, 1716.256
378.1350, 1989.158
379.3330, 1518.996
380.5310, 1443.770
381.7300, 1705.477
382.9280, 1642.123
384.1260, 1472.705
385.3230, 1749.453
386.5210, 1636.086
387.7180, 1828.666
388.9160, 2100.881
390.1130, 2212.658
391.3100, 2536.855
392.5060, 2493.623
393.7030, 2577.711
394.9000, 2648.992
396.0960, 2499.219
397.2920, 2643.129
398.4880, 2689.455
399.6840, 2571.252
400.8800, 2615.992
402.0750, 2257.676
403.2710, 2052.309
404.4660, 1926.893
405.6610, 1894.418
406.8560, 1540.893
408.0510, 1384.316
409.2450, 1300.693
410.4400, 988.0293
411.6340, 971.3184
412.8280, 927.5645
414.0220, 1067.764
415.2160, 840.9219
416.4100, 848.0312
417.6030, 672.0977
418.7970, 521.1172
419.9900, 537.0820
421.1830, 599.9980
422.3760, 398.8613
423.5690, 260.6699
424.7610, 107.4121
425.9540, 45.91992
427.1460, 143.6074
428.3380, 74.06445
429.5300, 188.4355
430.7220, 202.7383
431.9140, 15.97461
433.1050, 116.1016
434.2970, 171.1543
435.4880, 244.1348
436.6790, 76.04883
437.8700, 315.8828
439.0610, 646.6523
440.2510, 777.3691
441.4420, 581.0352
442.6320, 817.6504
443.8220, 876.2148
445.0120, 845.7285
446.2020, 1070.191
447.3910, 1057.607
448.5810, 1028.971
449.7700, 1150.285
450.9600, 1163.547
452.1490, 1215.760
453.3370, 1171.791
454.5260, 1191.035
455.7150, 979.0957
456.9030, 872.1055
458.0910, 672.0664
459.2800, 686.9746
460.4670, 386.8301
461.6550, 185.6270
462.8430, 226.3516
464.0300, 106.9902
465.2180, 140.5078
466.4050, 103.7812
467.5920, 170.0078
468.7790, 277.0020
469.9650, 311.2578
471.1520, 391.1973
472.3380, 359.9785
473.5250, 384.8203
474.7110, 357.3008
475.8970, 364.0801
477.0820, 284.6641
478.2680, 264.6719
479.4540, 228.9766
480.6390, 178.9375
481.8240, 155.9707
483.0090, 119.1973
484.1940, 84.59180
485.3780, 59.85938
486.5630, 47.22852
487.7470, 238.5156
488.9320, 194.7383
490.1160, 236.8965
491.3000, 304.9902
492.4830, 369.0273
493.6670, 289.0020
494.8500, 595.9199
496.0340, 849.7852
497.2170, 860.6055
498.4000, 975.3770
499.5820, 868.1016
500.7650, 1111.781
501.9480, 1087.412
503.1300, 1283.998
504.3120, 1215.535
505.4940, 1521.027
506.6760, 1533.475
507.8580, 1866.877
509.0390, 1718.230
510.2210, 1899.541
511.4020, 2030.805
512.5830, 2009.023
513.7640, 2116.195
514.9450, 2037.324
516.1250, 2033.408
517.3060, 1983.449
518.4860, 1989.201
519.6660, 2016.982
520.8460, 2047.301
522.0260, 2161.162
523.2060, 2258.988
524.3850, 2460.775
525.5650, 2427.527
526.7440, 2303.238
527.9230, 2540.959
529.1020, 2711.648
530.2810, 3024.352
531.4590, 3263.145
532.6380, 3556.779
533.8160, 3882.707
534.9940, 4355.602
536.1720, 4819.473
537.3500, 5609.391
538.5270, 6434.307
539.7050, 7356.207
540.8820, 7880.107
542.0590, 8894.035
543.2360, 9765.984
544.4130, 10748.94
545.5900, 12095.93
546.7660, 12764.90
547.9430, 13924.98
549.1190, 15153.07
550.2950, 16803.20
551.4710, 17827.31
552.6470, 19716.40
553.8220, 21308.50
554.9980, 22160.63
556.1730, 23448.79
557.3480, 24262.02
558.5230, 24777.28
559.6980, 24922.58
560.8730, 25330.38
562.0470, 25802.24
563.2220, 26089.35
564.3960, 26427.62
565.5700, 25976.33
566.7440, 25083.70
567.9170, 23076.03
569.0910, 20844.88
570.2640, 18471.57
571.4380, 15839.77
572.6110, 13328.05
573.7840, 11293.20
574.9570, 9412.594
576.1290, 7649.555
577.3020, 6574.078
578.4740, 5440.723
579.6460, 4788.498
580.8180, 4298.645
581.9900, 3792.871
583.1620, 3460.732
584.3330, 3105.859
585.5040, 3006.008
586.6760, 2996.135
587.8470, 2947.229
589.0180, 3286.293
590.1880, 3557.332
591.3590, 3367.338
592.5290, 3558.309
593.7000, 3685.242
594.8700, 4092.141
596.0400, 4160.000
597.2090, 4471.824
598.3790, 4939.607
599.5490, 5262.309
600.7180, 5319.021
601.8870, 5779.445
603.0560, 5923.799
604.2250, 5876.453
605.3940, 5766.418
606.5620, 6070.262
607.7300, 5735.623
608.8990, 5585.578
610.0670, 5642.807
611.2350, 5257.875
612.4020, 5175.930
613.5700, 4713.953
614.7370, 4214.434
615.9050, 4235.664
617.0720, 3728.508
618.2390, 3604.375
619.4060, 3656.549
620.5720, 3061.016
621.7390, 2768.684
622.9050, 3059.855
624.0710, 2966.408
625.2370, 2940.203
626.4030, 2908.805
627.5690, 2737.174
628.7340, 2800.436
629.9000, 2760.496
631.0650, 2516.736
632.2300, 2376.254
633.3950, 1933.035
634.5600, 1784.477
635.7240, 1698.197
636.8890, 1361.154
638.0530, 1278.096
639.2170, 1147.023
640.3810, 778.9316
641.5450, 709.8281
642.7080, 678.7070
643.8720, 688.5723
645.0350, 608.4199
646.1980, 567.2500
647.3610, 549.3164
648.5240, 488.8672
649.6870, 503.6484
650.8490, 497.4160
652.0120, 488.1660
653.1740, 642.9004
654.3360, 808.6191
655.4980, 816.3184
656.6600, 989.0039
657.8210, 1140.672
658.9830, 910.3242
660.1440, 992.9570
661.3050, 1124.621
662.4660, 1254.430
663.6270, 1272.439
664.7870, 1569.697
665.9480, 1602.945
667.1080, 1795.768
668.2680, 1860.742
669.4280, 2081.988
670.5880, 2122.156
671.7480, 2358.621
672.9070, 2551.262
674.0670, 2553.986
675.2260, 2924.234
676.3850, 3097.832
677.5440, 3622.359
678.7030, 3453.963
679.8610, 3945.777
681.0200, 4353.029
682.1780, 4792.564
683.3360, 5222.254
684.4940, 5730.871
685.6520, 6070.078
686.8090, 6635.326
687.9670, 7095.566
689.1240, 7723.008
690.2810, 8035.496
691.4380, 8673.568
692.5950, 9294.504
693.7520, 10019.89
694.9080, 10764.95
696.0650, 11647.80
697.2210, 12118.41
698.3770, 12789.90
699.5330, 13392.12
700.6880, 13826.54
701.8440, 14232.97
702.9990, 14755.90
704.1550, 15147.90
705.3100, 15040.03
706.4650, 14887.23
707.6190, 14544.32
708.7740, 13929.92
709.9290, 13090.89
711.0830, 12176.91
712.2370, 11274.84
713.3910, 10197.04
714.5450, 9181.137
715.6980, 7938.281
716.8520, 6882.443
718.0050, 5787.121
719.1580, 5459.625
720.3110, 4841.482
721.4640, 4430.033
722.6170, 3731.436
723.7700, 3493.119
724.9220, 3281.273
726.0740, 3371.559
727.2260, 3272.535
728.3780, 3349.611
729.5300, 3306.832
730.6810, 3409.803
731.8330, 3619.648
732.9840, 3920.801
734.1350, 4281.217
735.2860, 4640.582
736.4370, 5297.891
737.5880, 5228.145
738.7380, 5940.344
739.8880, 6178.488
741.0390, 6306.582
742.1890, 6517.633
743.3380, 6740.637
744.4880, 6527.645
745.6380, 6668.672
746.7870, 6475.656
747.9360, 6554.660
749.0850, 6477.719
750.2340, 5963.836
751.3830, 6019.033
752.5310, 5856.305
753.6800, 5749.650
754.8280, 5313.070
755.9760, 5322.559
757.1240, 5108.102
758.2720, 5057.686
759.4190, 4931.309
760.5670, 4795.949
761.7140, 4605.609
762.8610, 4756.273
764.0080, 4304.934
765.1550, 4474.555
766.3020, 4364.135
767.4480, 4276.664
768.5950, 4114.146
769.7410, 3979.580
770.8870, 4081.961
772.0330, 3736.291
773.1780, 3960.568
774.3240, 3974.793
775.4690, 3941.955
776.6140, 3968.064
777.7590, 3779.113
778.9040, 3795.104
780.0490, 3665.037
781.1940, 3550.912
782.3380, 3495.727
783.4820, 3109.486
784.6260, 3228.186
785.7700, 2842.826
786.9140, 2771.408
788.0580, 2407.930
789.2010, 2460.395
790.3450, 1996.803
791.4880, 1846.150
792.6310, 1562.438
793.7730, 1160.668
794.9160, 1164.840
796.0590, 749.9531
797.2010, 853.0059
798.3430, 495.9980
799.4850, 217.9336
800.6270, 165.7988
801.7690, 102.5938
802.9100, 339.3164
804.0520, 68.02539
805.1930, 156.4980
806.3340, 86.94727
807.4750, 280.6738
808.6160, 46.54492
809.7560, 33.53906
810.8970, 146.6523
812.0370, 4.056641
813.1770, 113.3340
814.3170, 32.88281
815.4570, 18.54883
816.5960, 38.32812
817.7360, 173.2285
818.8750, 162.3164
820.0140, 75.59375
821.1530, 207.0078
822.2920, 47.62891
823.4310, 447.3750
824.5690, 114.4590
825.7070, 196.6992
826.8460, 24.14453
827.9840, 2.697266
829.1220, 65.34961
830.2590, 233.1367
831.3970, 213.1387
832.5340, 259.2207
833.6710, 240.7949
834.8080, 240.4609
835.9450, 126.3477
837.0820, 83.39453
838.2190, 69.57617
839.3550, 126.8887
840.4910, 113.9570
841.6270, 117.9746
842.7630, 152.7441
843.8990, 72.43945
845.0350, 66.74023
846.1700, 5.078125
847.3060, 39.81641
848.4410, 47.48438
849.5760, 99.91016
850.7100, 52.43945
851.8450, 135.0762
852.9800, 57.86523
854.1140, 46.23828
855.2480, 51.72266
856.3820, 59.78711
857.5160, 28.04297
858.6500, 46.80859
859.7830, 32.48438
860.9170, 7.871094
862.0500, 23.66992
863.1830, 80.15234
864.3160, 13.42383
865.4480, 226.9258
866.5810, 269.2207
867.7130, 649.4688
868.8460, 479.6699
869.9780, 505.8281
871.1100, 687.9395
872.2410, 693.0039
873.3730, 710.0273
874.5050, 554.0039
875.6360, 643.9980
876.7670, 606.8301
877.8980, 758.6758
879.0290, 735.4844
880.1590, 865.2461
881.2900, 904.9688
882.4200, 906.6504
883.5500, 969.2891
884.6800, 1066.885
885.8100, 1093.443
886.9400, 1191.955
888.0690, 1069.428
889.1990, 1266.859
890.3280, 1292.248
891.4570, 1374.594
892.5860, 1542.896
893.7140, 1644.160
894.8430, 2023.381
895.9710, 2153.559
897.1000, 2284.691
898.2280, 2410.785
899.3560, 2474.838
900.4830, 2825.852
901.6110, 2712.820
902.7380, 3164.748
903.8660, 3162.639
904.9930, 3734.490
906.1200, 3844.301
907.2460, 3571.074
908.3730, 4130.809
909.5000, 4456.504
910.6260, 4463.164
911.7520, 4641.785
912.8780, 5033.371
914.0040, 5051.916
915.1290, 5468.428
916.2550, 5356.904
917.3800, 5471.350
918.5050, 5736.758
919.6300, 5877.160
920.7550, 5628.531
921.8800, 6009.883
923.0040, 5804.227
924.1290, 5955.535
925.2530, 5820.812
926.3770, 5410.064
927.5010, 5382.281
928.6250, 5356.473
929.7480, 5043.629
930.8720, 4632.762
931.9950, 4524.875
933.1180, 4295.004
934.2410, 4187.141
935.3640, 4071.488
936.4860, 3922.164
937.6090, 3875.547
938.7310, 3704.086
939.8530, 3588.664
940.9750, 3509.789
942.0970, 3322.309
943.2180, 3411.867
944.3400, 3125.090
945.4610, 3303.098
946.5820, 3179.996
947.7030, 3449.336
948.8240, 3347.281
949.9450, 3195.285
951.0650, 3307.180
952.1860, 3402.832
953.3060, 3123.016
954.4260, 2928.883
955.5460, 2965.199
956.6650, 2641.262
957.7850, 2541.336
958.9040, 2659.328
960.0230, 2582.238
961.1420, 2570.730
962.2610, 2392.648
963.3800, 2476.664
964.4990, 2608.781
965.6170, 2433.410
966.7350, 2430.336
967.8530, 2389.414
968.9710, 2120.707
970.0890, 2449.094
971.2070, 2205.703
972.3240, 2476.145
973.4410, 2566.543
974.5580, 2601.426
975.6750, 2974.246
976.7920, 2775.992
977.9090, 3106.660
979.0250, 3097.535
980.1410, 3055.875
981.2580, 3318.832
982.3740, 3429.723
983.4890, 3468.680
984.6050, 3680.375
985.7200, 3889.113
986.8360, 3997.801
987.9510, 4111.449
989.0660, 4318.578
990.1810, 4419.066
991.2950, 4537.961
992.4100, 4655.926
993.5240, 4743.270
994.6390, 4793.312
995.7530, 4883.855
996.8660, 4824.234
997.9800, 4712.891
999.0940, 4703.414
1000.207, 4555.871
1001.320, 4192.336
1002.433, 4269.320
1003.546, 4051.328
1004.659, 3848.367
1005.772, 3933.430
1006.884, 3437.527
1007.996, 3188.648
1009.108, 3312.805
1010.220, 2777.988
1011.332, 2706.203
1012.444, 2408.445
1013.555, 2500.715
1014.666, 2557.020
1015.777, 2529.352
1016.888, 2488.719
1017.999, 2430.121
1019.110, 2377.547
1020.220, 2630.008
1021.331, 2421.527
1022.441, 2475.090
1023.551, 2439.688
1024.661, 2222.324
1025.770, 2335.988
1026.880, 2112.703
1027.989, 2179.465
1029.098, 2407.270
1030.207, 2594.168
1031.316, 2297.098
1032.425, 2655.098
1033.533, 2487.133
1034.642, 2605.203
1035.750, 2436.352
1036.858, 2517.523
1037.966, 2425.738
1039.073, 2515.984
1040.181, 2873.266
1041.288, 2905.574
1042.396, 2951.449
1043.503, 2821.301
1044.610, 2897.711
1045.716, 3055.172
1046.823, 3034.664
1047.929, 2631.203
1049.036, 2674.766
1050.142, 2794.688
1051.248, 3061.316
1052.353, 2838.273
1053.459, 3219.168
1054.564, 3265.762
1055.670, 3470.070
1056.775, 3515.156
1057.880, 3765.402
1058.985, 3957.785
1060.089, 4215.691
1061.194, 4433.629
1062.298, 4649.598
1063.402, 4896.781
1064.506, 5147.574
1065.610, 5184.770
1066.713, 5903.410
1067.817, 5871.781
1068.920, 6094.418
1070.023, 6552.949
1071.126, 6599.012
1072.229, 6697.273
1073.332, 6767.961
1074.435, 7009.094
1075.537, 7234.340
1076.639, 7368.254
1077.741, 7734.062
1078.843, 8070.219
1079.945, 8238.844
1081.046, 8559.117
1082.148, 8866.828
1083.249, 9082.988
1084.350, 9505.047
1085.451, 9830.641
1086.551, 10133.73
1087.652, 10369.48
1088.752, 10505.70
1089.853, 10647.01
1090.953, 10644.37
1092.053, 10632.89
1093.152, 10548.23
1094.252, 10293.40
1095.351, 10076.53
1096.451, 9885.148
1097.550, 9521.586
1098.649, 8772.512
1099.748, 8464.902
1100.846, 7372.016
1101.945, 7185.484
1103.043, 6326.230
1104.141, 5750.336
1105.239, 5401.910
1106.337, 4900.270
1107.434, 4382.656
1108.532, 4200.203
1109.629, 4084.215
1110.726, 4068.281
1111.823, 3598.457
1112.920, 3604.281
1114.017, 2971.973
1115.113, 3178.570
1116.210, 2851.438
1117.306, 2759.340
1118.402, 2917.234
1119.498, 2471.027
1120.593, 2668.523
1121.689, 2731.363
1122.784, 2931.547
1123.879, 2628.656
1124.974, 2781.906
1126.069, 2667.824
1127.164, 2470.074
1128.259, 2610.922
1129.353, 2473.020
1130.447, 2422.242
1131.541, 2463.793
1132.635, 2011.105
1133.729, 2087.875
1134.822, 2143.340
1135.916, 2116.734
1137.009, 1782.469
1138.102, 1629.234
1139.195, 1718.969
1140.288, 1433.578
1141.380, 1407.566
1142.473, 1223.902
1143.565, 911.0781
1144.657, 735.6758
1145.749, 699.0312
1146.841, 697.9297
1147.932, 480.2031
1149.024, 472.6250
1150.115, 562.6016
1151.206, 575.9062
1152.297, 573.7500
1153.388, 286.5586
1154.479, 468.4805
1155.569, 466.1406
1156.659, 254.9258
1157.750, 396.4531
1158.839, 515.4336
1159.929, 467.9141
1161.019, 488.9180
1162.108, 627.3164
1163.198, 593.3906
1164.287, 538.9492
1165.376, 391.4375
1166.465, 523.7031
1167.553, 739.3672
1168.642, 267.5664
1169.730, 475.1875
1170.818, 564.6914
1171.906, 186.4727
1172.994, 79.64844
1174.082, 187.8477
1175.170, 267.5039
1176.257, 149.8789
1177.344, 312.0391
1178.431, 245.0352
1179.518, 257.1406
1180.605, 10.05078
1181.691, 160.4648
1182.778, 151.1328
1183.864, 55.70312
1184.950, 75.34375
1186.036, 110.3828
1187.122, 53.62500
1188.207, 29.43359
1189.292, 104.2109
1190.378, 42.42969
1191.463, 188.9023
1192.548, 156.2266
1193.632, 111.2148
1194.717, 57.90234
1195.801, 175.1992
1196.886, 354.6992
1197.970, 427.3203
1199.054, 64.38281
1200.137, 14.70703
1201.221, 175.0547
1202.305, 29.42969
1203.388, 147.2734
1204.471, 215.4648
1205.554, 21.25781
1206.637, 122.7461
1207.719, 167.5273
1208.802, 71.86719
1209.884, 13.80859
1210.966, 125.7969
1212.048, 97.88672
1213.130, 28.23828
1214.212, 55.98047
1215.293, 2.355469
1216.374, 96.07812
1217.456, 34.20312
1218.536, 375.1758
1219.617, 310.5391
1220.698, 311.4766
1221.778, 580.6953
1222.859, 117.8633
1223.939, 183.0547
1225.019, 210.6797
1226.099, 107.1562
1227.178, 169.2656
1228.258, 319.7617
1229.337, 235.5820
1230.417, 424.0742
1231.496, 37.64844
1232.574, 237.6602
1233.653, 176.7383
1234.732, 6.449219
1235.810, 147.5391
1236.888, 109.5586
1237.966, 300.7305
1239.044, 44.32812
1240.122, 240.0781
1241.199, 15.85547
1242.277, 137.9531
1243.354, 179.6406
1244.431, 208.0938
1245.508, 401.9766
1246.585, 447.8047
1247.661, 171.6055
1248.738, 213.0820
1249.814, 30.12109
1250.890, 225.8906
1251.966, 392.6250
1253.042, 46.08984
1254.117, 152.7930
1255.193, 242.7578
1256.268, 177.0547
1257.343, 281.4961
1258.418, 225.2109
1259.493, 452.0391
1260.567, 415.6797
1261.642, 574.7227
1262.716, 370.1719
1263.790, 206.8555
1264.864, 223.0898
1265.938, 146.8672
1267.011, 141.7305
1268.085, 150.1289
1269.158, 187.8828
1270.231, 128.1758
1271.304, 273.1914
1272.377, 318.4648
1273.450, 230.3711
1274.522, 118.9883
1275.594, 166.4570
1276.666, 317.0156
1277.738, 122.8320
1278.810, 389.3984
1279.882, 311.2109
1280.953, 15.10156
1282.025, 116.0078
1283.096, 80.98828
1284.167, 218.0469
1285.238, 426.2383
