##NAMES=Fayalite
##RRUFFID=R070293
##IDEAL CHEMISTRY=Fe^2+^_2_SiO_4_
##LOCALITY=Pike's Peak, Teller County, Colorado, USA
##OWNER=RRUFF
##SOURCE=Michael Scott
##DESCRIPTION=Black single crystal fragment with internal hints of red and green
##STATUS=The identification of this mineral has been confirmed by X-ray diffraction and chemical analysis
##URL=rruff.info/R070293
##MEASURED CHEMISTRY=(Fe^2+^_1.87_Mn^2+^_0.13_)_Î£=2_Si_1.00_O_4_ ; trace amounts of Mg
##PIN_ID=L00446
##ORIENTATION=Laser parallel to b* (0 1 0). Fiducial mark perpendicular to laser is parallel to c [0 0 1]
59.13700, 0.0000000E+00
60.37200, 339.2222
61.60700, 435.3069
62.84200, 215.8752
64.07700, 18.58472
65.31200, 111.0608
66.54600, 33.70703
67.78100, 97.38403
69.01500, 124.6108
70.24900, 243.1177
71.48300, 250.7522
72.71700, 423.9949
73.95100, 301.5449
75.18500, 310.6082
76.41800, 487.5649
77.65100, 303.0596
78.88500, 29.09985
80.11800, 28.94604
81.35100, 31.91406
82.58300, 148.5764
83.81600, 83.02222
85.04900, 228.9294
86.28100, 18.62354
87.51300, 14.99463
88.74500, 33.08691
89.97700, 63.90039
91.20900, 110.5908
92.44100, 133.8049
93.67200, 99.06812
94.90400, 159.9812
96.13500, 266.5774
97.36600, 234.8948
98.59700, 311.2229
99.82800, 477.4214
101.0590, 482.9656
102.2900, 566.6636
103.5200, 659.5334
104.7500, 623.6628
105.9810, 708.4836
107.2110, 679.0220
108.4410, 732.2993
109.6700, 700.3347
110.9000, 626.1455
112.1300, 456.7480
113.3590, 455.1560
114.5880, 547.3809
115.8170, 688.4297
117.0460, 618.3130
118.2750, 593.0383
119.5040, 644.6152
120.7320, 684.1560
121.9610, 656.4858
123.1890, 665.7224
124.4170, 497.8748
125.6450, 273.9482
126.8730, 55.88135
128.1010, 152.4675
129.3280, 79.96509
130.5560, 55.15698
131.7830, 59.65479
133.0100, 28.15747
134.2380, 101.2573
135.4640, 53.22119
136.6910, 99.95142
137.9180, 212.1875
139.1440, 215.0103
140.3710, 200.1826
141.5970, 196.9951
142.8230, 237.8928
144.0490, 218.1685
145.2750, 221.4756
146.5000, 277.8086
147.7260, 357.1389
148.9510, 442.4895
150.1770, 560.8618
151.4020, 851.2524
152.6270, 1027.656
153.8520, 1186.071
155.0760, 1239.146
156.3010, 1341.920
157.5250, 1163.352
158.7500, 964.7861
159.9740, 779.2227
161.1980, 668.6592
162.4220, 607.0950
163.6450, 735.5298
164.8690, 804.9622
166.0920, 947.3909
167.3160, 1244.806
168.5390, 1695.206
169.7620, 2094.562
170.9850, 2390.864
172.2080, 2345.127
173.4300, 2230.373
174.6530, 1854.597
175.8750, 1337.805
177.0970, 973.0020
178.3190, 594.1919
179.5410, 390.3804
180.7630, 344.5679
181.9850, 161.7544
183.2060, 190.9531
184.4270, 143.1472
185.6490, 149.3374
186.8700, 101.5242
188.0910, 189.7109
189.3110, 221.8965
190.5320, 186.0793
191.7530, 120.2554
192.9730, 240.4263
194.1930, 663.6003
195.4130, 721.7642
196.6330, 750.9128
197.8530, 925.0586
199.0730, 851.2026
200.2920, 322.3787
201.5120, 173.5815
202.7310, 29.69287
203.9500, 7.208984
205.1690, 64.15601
206.3880, 87.14673
207.6070, 102.1628
208.8250, 83.26172
210.0440, 70.46118
211.2620, 69.77710
212.4800, 48.21411
213.6980, 20.88232
214.9160, 14.60181
216.1340, 41.73804
217.3510, 58.85449
218.5690, 0.8103030
219.7860, 64.75342
221.0030, 84.57104
222.2200, 38.34961
223.4370, 82.09058
224.6540, 155.7942
225.8700, 164.9648
227.0870, 284.3259
228.3030, 346.6560
229.5190, 444.1970
230.7350, 565.6572
231.9510, 721.1238
233.1670, 882.1321
234.3820, 1030.835
235.5980, 1253.870
236.8130, 1378.029
238.0280, 1482.330
239.2430, 1730.601
240.4580, 1741.771
241.6730, 1675.947
242.8880, 1528.006
244.1020, 1349.988
245.3160, 1176.911
246.5300, 1060.786
247.7450, 938.6167
248.9580, 810.4062
250.1720, 783.1636
251.3860, 708.8906
252.5990, 601.5894
253.8130, 520.2603
255.0260, 552.9045
256.2390, 525.5234
257.4520, 523.1177
258.6640, 551.6875
259.8770, 486.2346
261.0890, 536.7593
262.3020, 533.2615
263.5140, 597.7429
264.7260, 556.2036
265.9380, 599.6443
267.1500, 669.0608
268.3610, 722.4497
269.5730, 749.8066
270.7840, 824.1414
271.9950, 908.3723
273.2060, 979.0374
274.4170, 1136.150
275.6280, 1273.899
276.8390, 1451.417
278.0490, 1708.868
279.2590, 1908.472
280.4690, 2148.559
281.6800, 2456.501
282.8890, 2761.169
284.0990, 3109.627
285.3090, 3547.030
286.5180, 3926.319
287.7280, 4283.668
288.9370, 4619.155
290.1460, 4891.638
291.3550, 4874.067
292.5630, 4847.920
293.7720, 4537.833
294.9800, 4131.731
296.1890, 3676.574
297.3970, 3269.904
298.6050, 2965.343
299.8130, 2667.960
301.0200, 2469.490
302.2280, 2312.615
303.4360, 2228.522
304.6430, 2230.095
305.8500, 2311.035
307.0570, 2189.112
308.2640, 2100.963
309.4710, 2048.799
310.6770, 1814.281
311.8840, 1824.141
313.0900, 1595.070
314.2960, 1434.535
315.5020, 1301.345
316.7080, 1113.112
317.9140, 1027.203
319.1190, 927.8396
320.3250, 786.6411
321.5300, 688.5464
322.7350, 667.2982
323.9400, 602.3130
325.1450, 549.0273
326.3500, 426.0892
327.5540, 445.4608
328.7580, 332.9796
329.9630, 321.9463
331.1670, 321.0554
332.3710, 328.9008
333.5750, 305.2742
334.7780, 317.6416
335.9820, 246.0195
337.1850, 279.9810
338.3880, 232.5616
339.5920, 298.1938
340.7950, 258.8162
341.9970, 222.3843
343.2000, 311.9625
344.4030, 311.5068
345.6050, 265.0159
346.8070, 346.8491
348.0090, 362.4219
349.2110, 451.2786
350.4130, 449.6798
351.6150, 522.7377
352.8160, 525.8002
354.0170, 522.8625
355.2190, 600.7522
356.4200, 642.1553
357.6210, 772.7412
358.8210, 799.6038
360.0220, 963.4949
361.2220, 1063.032
362.4230, 1217.813
363.6230, 1271.008
364.8230, 1381.839
366.0230, 1538.871
367.2230, 1602.297
368.4220, 1698.284
369.6220, 1746.750
370.8210, 1846.261
372.0200, 1843.199
373.2190, 1742.125
374.4180, 1795.043
375.6170, 1832.948
376.8150, 1681.845
378.0140, 1746.733
379.2120, 1517.610
380.4100, 1438.483
381.6080, 1425.341
382.8060, 1243.181
384.0040, 1227.020
385.2010, 1215.848
386.3980, 1195.660
387.5960, 1144.639
388.7930, 1099.228
389.9900, 1012.002
391.1870, 963.7573
392.3830, 861.5042
393.5800, 770.2534
394.7760, 814.9934
395.9720, 738.7173
397.1680, 700.4268
398.3640, 746.1201
399.5600, 718.7971
400.7560, 675.4583
401.9510, 704.1033
403.1460, 768.7323
404.3420, 776.3455
405.5370, 723.9423
406.7320, 715.5231
407.9260, 652.0876
409.1210, 624.6357
410.3150, 543.1677
411.5100, 527.6833
412.7040, 493.1826
413.8980, 445.6656
415.0920, 423.1323
416.2850, 371.3538
417.4790, 317.0197
418.6720, 296.4408
419.8650, 239.8477
421.0590, 244.2416
422.2510, 168.6223
423.4440, 189.0061
424.6370, 173.3779
425.8290, 119.7427
427.0220, 120.0989
428.2140, 123.4406
429.4060, 129.7681
430.5980, 105.0817
431.7900, 110.3807
432.9810, 89.70178
434.1730, 104.9332
435.3640, 58.18628
436.5550, 54.42175
437.7460, 55.63879
438.9370, 66.83752
440.1280, 4.981567
441.3190, 28.17651
442.5090, 13.31543
443.6990, 11.56616
444.8890, 4.527100
446.0790, 36.59924
447.2690, 30.34778
448.4590, 23.67041
449.6480, 4.668701
450.8380, 39.64587
452.0270, 40.78088
453.2160, 12.45776
454.4050, 29.45496
455.5940, 15.34753
456.7820, 12.78015
457.9710, 33.06580
459.1590, 40.89197
460.3470, 24.30151
461.5350, 66.47290
462.7230, 24.22864
463.9110, 7.963989
465.0990, 30.71960
466.2860, 2.481934
467.4730, 34.25671
468.6600, 24.88635
469.8470, 8.822021
471.0340, 4.750000
472.2210, 16.42786
473.4070, 43.12439
474.5940, 20.91113
475.7800, 16.72754
476.9660, 49.86963
478.1520, 13.69507
479.3380, 27.50110
480.5230, 14.49512
481.7090, 30.40564
482.8940, 31.43640
484.0790, 43.68323
485.2650, 40.18384
486.4490, 54.45093
487.6340, 64.38013
488.8190, 138.0468
490.0030, 113.4249
491.1870, 143.5403
492.3720, 117.8927
493.5550, 93.00659
494.7390, 104.0801
495.9230, 143.0425
497.1060, 136.1552
498.2900, 152.6786
499.4730, 176.4347
500.6560, 205.8943
501.8390, 214.6754
503.0220, 233.1938
504.2040, 236.0972
505.3870, 250.0205
506.5690, 266.0948
507.7510, 261.8284
508.9330, 270.2544
510.1150, 236.9171
511.2970, 217.4302
512.4780, 206.7682
513.6600, 199.4797
514.8410, 228.5603
516.0220, 248.8311
517.2030, 224.8457
518.3840, 262.1212
519.5650, 258.5719
520.7450, 270.8723
521.9250, 265.4021
523.1060, 206.6881
524.2860, 253.9457
525.4660, 248.3728
526.6450, 217.6749
527.8250, 257.8966
529.0040, 237.9863
530.1840, 250.9515
531.3630, 224.6084
532.5420, 230.5927
533.7200, 266.0310
534.8990, 345.1836
536.0780, 347.4668
537.2560, 387.2787
538.4340, 414.2886
539.6120, 447.1063
540.7900, 518.8035
541.9680, 560.5267
543.1460, 593.2511
544.3230, 651.9764
545.5000, 792.6843
546.6770, 844.2639
547.8540, 936.8713
549.0310, 1061.438
550.2080, 1056.953
551.3840, 1048.531
552.5610, 1103.002
553.7370, 1136.470
554.9130, 1063.897
556.0890, 1095.348
557.2650, 1012.732
558.4400, 1027.095
559.6160, 1030.436
560.7910, 1000.755
561.9660, 1010.123
563.1410, 934.3989
564.3160, 949.6538
565.4910, 922.8871
566.6650, 822.0989
567.8400, 821.5657
569.0140, 833.5712
570.1880, 703.5707
571.3620, 704.5764
572.5360, 663.4591
573.7090, 633.3440
574.8830, 535.1226
576.0560, 564.9448
577.2290, 479.5518
578.4020, 492.1233
579.5750, 489.6802
580.7480, 374.2644
581.9200, 489.3322
583.0930, 425.7155
584.2650, 448.9808
585.4370, 472.7600
586.6090, 419.9146
587.7810, 396.2563
588.9520, 365.9034
590.1240, 400.1536
591.2950, 306.2362
592.4660, 352.5156
593.6370, 301.7815
594.8080, 288.3700
595.9790, 270.5516
597.1500, 280.6353
598.3200, 283.1520
599.4900, 232.2948
600.6600, 233.4524
601.8300, 231.2551
603.0000, 218.4844
604.1700, 177.5194
605.3390, 126.4220
606.5080, 110.4493
607.6770, 118.1846
608.8460, 84.19092
610.0150, 109.8204
611.1840, 51.64453
612.3520, 71.08728
613.5210, 135.5125
614.6890, 66.46594
615.8570, 54.30823
617.0250, 10.11157
618.1930, 4.024902
619.3600, 32.74646
620.5280, 16.52429
621.6950, 35.78601
622.8620, 2.924316
624.0290, 2.389282
625.1960, 0.3161620
626.3630, 59.02246
627.5290, 22.37634
628.6960, 34.73499
629.8620, 1.158813
631.0280, 11.07776
632.1940, 15.22534
633.3600, 27.51990
634.5250, 26.96753
635.6910, 7.582642
636.8560, 27.72644
638.0210, 48.88672
639.1860, 6.447388
640.3510, 49.78369
641.5150, 21.17224
642.6800, 14.59778
643.8440, 18.05676
645.0080, 11.55029
646.1720, 16.07495
647.3360, 11.63269
648.5000, 1.967896
649.6640, 25.83423
650.8270, 14.51514
651.9900, 6.153442
653.1530, 12.84814
654.3160, 3.572388
655.4790, 23.32068
656.6420, 4.103271
657.8040, 27.90942
658.9660, 9.751587
660.1290, 14.38049
661.2910, 31.50391
662.4520, 4.575073
663.6140, 4.636841
664.7760, 48.31799
665.9370, 15.31714
667.0980, 1.657104
668.2590, 17.61450
669.4200, 40.55688
670.5810, 8.514648
671.7420, 14.60730
672.9020, 22.72400
674.0620, 66.86865
675.2220, 22.06360
676.3820, 35.71448
677.5420, 1.519897
678.7020, 20.23010
679.8610, 41.96741
681.0210, 28.69263
682.1800, 21.40576
683.3390, 14.10681
684.4980, 11.25378
685.6560, 47.47253
686.8150, 21.13831
687.9730, 23.79309
689.1320, 51.43677
690.2900, 7.070068
691.4480, 61.69226
692.6050, 19.30432
693.7630, 28.90625
694.9200, 9.498413
696.0780, 25.08044
697.2350, 37.65308
698.3920, 48.21643
699.5490, 13.77075
700.7050, 0.6840820
701.8620, 14.85120
703.0180, 53.37805
704.1740, 52.89636
705.3300, 31.40637
706.4860, 16.09167
707.6420, 83.39807
708.7970, 48.88086
709.9530, 83.35657
711.1080, 45.82532
712.2630, 90.28796
713.4180, 119.7441
714.5730, 78.19470
715.7280, 22.63940
716.8820, 52.07922
718.0360, 96.51440
719.1900, 76.94519
720.3440, 130.3715
721.4980, 67.79553
722.6520, 55.21643
723.8050, 77.63428
724.9590, 42.05188
726.1120, 86.46716
727.2650, 87.87952
728.4180, 91.29651
729.5700, 73.71143
730.7230, 124.1245
731.8750, 85.53516
733.0280, 110.9441
734.1800, 122.3540
735.3320, 83.76221
736.4830, 133.1694
737.6350, 166.5784
738.7860, 119.9860
739.9380, 160.3934
741.0890, 150.8060
742.2400, 192.2177
743.3910, 172.6292
744.5410, 158.9994
745.6920, 206.3064
746.8420, 166.6548
747.9920, 192.8661
749.1420, 231.1996
750.2920, 231.2969
751.4420, 234.4807
752.5910, 260.9219
753.7410, 243.1121
754.8900, 261.2577
756.0390, 253.7988
757.1880, 251.1625
758.3370, 313.2676
759.4850, 281.1713
760.6340, 268.1016
761.7820, 365.4751
762.9300, 371.5449
764.0780, 305.8130
765.2260, 358.3943
766.3730, 377.3131
767.5210, 344.4805
768.6680, 417.9282
769.8150, 388.6333
770.9620, 427.1000
772.1090, 467.8247
773.2560, 503.6086
774.4020, 580.5271
775.5490, 603.3223
776.6950, 639.7271
777.8410, 721.9158
778.9870, 783.4127
780.1330, 805.7346
781.2780, 810.5078
782.4230, 919.0959
783.5690, 972.1302
784.7140, 1145.912
785.8590, 1200.005
787.0030, 1324.739
788.1480, 1473.010
789.2920, 1573.431
790.4370, 1787.017
791.5810, 1964.218
792.7250, 2175.038
793.8690, 2411.653
795.0120, 2705.599
796.1560, 3097.922
797.2990, 3430.506
798.4420, 3915.050
799.5850, 4452.353
800.7280, 5173.888
801.8710, 6032.440
803.0130, 6978.811
804.1550, 8280.295
805.2980, 9970.851
806.4400, 11714.52
807.5810, 13789.31
808.7230, 16139.40
809.8650, 18632.14
811.0060, 20740.43
812.1470, 23104.99
813.2880, 23968.40
814.4290, 24712.28
815.5700, 24325.96
816.7110, 23476.81
817.8510, 22346.77
818.9910, 21011.70
820.1310, 19583.61
821.2710, 18186.52
822.4110, 16982.44
823.5510, 16013.47
824.6900, 15119.47
825.8290, 14725.50
826.9680, 14432.58
828.1070, 14167.58
829.2460, 13882.68
830.3850, 13709.77
831.5230, 14013.91
832.6620, 13841.00
833.8000, 13972.16
834.9380, 14185.33
836.0760, 14213.51
837.2130, 14158.71
838.3510, 14247.86
839.4880, 14171.09
840.6250, 13953.33
841.7620, 13639.59
842.8990, 13205.86
844.0360, 12636.71
845.1720, 11945.01
846.3090, 11337.33
847.4450, 10530.66
848.5810, 9763.006
849.7170, 9106.370
850.8530, 8443.751
851.9880, 7729.143
853.1240, 7087.554
854.2590, 6635.979
855.3940, 6119.421
856.5290, 5686.048
857.6640, 5245.351
858.7980, 4924.840
859.9330, 4619.346
861.0670, 4293.867
862.2010, 4040.095
863.3350, 3771.957
864.4690, 3570.526
865.6030, 3272.112
866.7360, 3096.714
867.8690, 2818.332
869.0020, 2615.003
870.1350, 2467.654
871.2680, 2371.322
872.4010, 2179.010
873.5330, 2079.352
874.6660, 1992.428
875.7980, 1857.306
876.9300, 1807.062
878.0620, 1733.861
879.1930, 1608.697
880.3250, 1541.498
881.4560, 1550.314
882.5870, 1506.786
883.7180, 1483.859
884.8490, 1408.728
885.9800, 1320.935
887.1100, 1350.839
888.2410, 1334.626
889.3710, 1295.707
890.5010, 1198.815
891.6310, 1249.791
892.7610, 1166.233
893.8900, 1228.400
895.0200, 1285.883
896.1490, 1297.021
897.2780, 1338.106
898.4070, 1278.121
899.5360, 1351.621
900.6640, 1360.036
901.7920, 1370.236
902.9210, 1438.134
904.0490, 1424.840
905.1770, 1370.789
906.3040, 1332.080
907.4320, 1328.782
908.5600, 1327.126
909.6870, 1287.691
910.8140, 1292.528
911.9410, 1240.081
913.0680, 1151.515
914.1940, 1148.131
915.3210, 1089.716
916.4470, 1075.236
917.5730, 1128.230
918.6990, 1149.204
919.8250, 1149.789
920.9500, 1149.397
922.0760, 1150.196
923.2010, 1228.274
924.3260, 1227.776
925.4510, 1195.731
926.5760, 1141.443
927.7010, 1152.177
928.8250, 1084.931
929.9500, 1052.147
931.0740, 1012.946
932.1980, 990.7703
933.3220, 953.6934
934.4450, 828.5532
935.5690, 842.4380
936.6920, 799.4429
937.8150, 873.3757
938.9380, 876.8499
940.0610, 826.4895
941.1840, 915.3452
942.3060, 790.3713
943.4290, 734.4175
944.5510, 866.4819
945.6730, 847.5654
946.7950, 797.4255
947.9160, 723.8125
949.0380, 646.9775
950.1590, 584.1562
951.2800, 527.0461
952.4010, 431.5696
953.5220, 444.7983
954.6430, 373.0471
955.7630, 370.3237
956.8840, 388.6260
958.0040, 360.9451
959.1240, 451.2791
960.2440, 281.6304
961.3640, 324.9958
962.4830, 277.3826
963.6030, 364.7820
964.7220, 266.1941
965.8410, 316.6272
966.9600, 322.0723
968.0780, 277.5381
969.1970, 265.0154
970.3150, 199.5144
971.4340, 298.0249
972.5520, 143.5471
973.6700, 225.0857
974.7870, 121.6370
975.9050, 199.2004
977.0220, 169.7756
978.1390, 127.3618
979.2560, 182.9614
980.3730, 235.5720
981.4900, 144.1934
982.6070, 197.8262
983.7230, 154.4700
984.8390, 193.1250
985.9550, 139.7925
987.0710, 159.4705
988.1870, 129.1587
989.3030, 108.8572
990.4180, 125.5659
991.5330, 104.9028
992.6480, 87.01904
993.7630, 99.76367
994.8780, 91.51831
995.9930, 93.28223
997.1070, 101.0557
998.2210, 21.83838
999.3350, 44.63086
1000.449, 68.43237
1001.563, 123.2429
1002.677, 1.937500
1003.790, 52.88989
1004.903, 37.72583
1006.016, 1.570557
1007.129, 12.42358
1008.242, 2.285156
1009.355, 6.628418
1010.467, 1.213379
1011.579, 1.086182
1012.691, 2.195801
1013.803, 27.70117
1014.915, 5.606201
1016.027, 18.48169
1017.138, 7.568359
1018.249, 9.349121
1019.360, 9.726074
1020.471, 16.20190
1021.582, 41.86304
1022.693, 3.938232
1023.803, 4.008789
1024.913, 1.924805
1026.023, 69.13550
1027.133, 3.219971
1028.243, 10.30054
1029.353, 23.37988
1030.462, 36.53613
1031.571, 38.54199
1032.680, 46.63184
1033.789, 79.73755
1034.898, 74.96350
1036.007, 13.04321
1037.115, 28.21313
1038.223, 12.39185
1039.331, 27.42749
1040.439, 25.74927
1041.547, 20.06567
1042.655, 37.88477
1043.762, 29.29224
1044.869, 19.48047
1045.976, 29.32446
1047.083, 1.133057
1048.190, 2.942627
1049.297, 34.24634
1050.403, 4.449951
1051.509, 22.65601
1052.615, 13.12817
1053.721, 16.91479
1054.827, 2.756104
1055.933, 2.454590
1057.038, 28.66772
1058.143, 1.391113
1059.248, 13.16235
1060.353, 32.93579
1061.458, 62.92261
1062.563, 1.043213
1063.667, 30.84351
1064.771, 76.74927
1065.875, 12.47485
1066.979, 72.37524
1068.083, 61.14282
1069.186, 8.647949
1070.290, 112.5876
1071.393, 29.64014
1072.496, 65.96045
1073.599, 53.69165
1074.702, 70.61792
1075.804, 77.44434
1076.907, 102.5815
1078.009, 110.3474
1079.111, 58.47412
1080.213, 129.6855
1081.315, 78.27734
1082.416, 94.03882
1083.517, 83.19434
1084.619, 128.9529
1085.720, 130.2256
1086.821, 120.4448
1087.921, 93.61108
1089.022, 104.1573
1090.122, 88.75623
1091.222, 108.9065
1092.322, 134.7019
1093.422, 145.6694
1094.522, 114.4791
1095.622, 130.2122
1096.721, 150.9950
1097.820, 114.6976
1098.919, 158.4200
1100.018, 183.0116
1101.117, 82.72632
1102.215, 135.5854
1103.314, 129.2916
1104.412, 199.9934
1105.510, 145.6880
1106.608, 142.5935
1107.705, 119.5096
1108.803, 113.1930
1109.900, 128.8715
1110.997, 178.5449
1112.094, 109.2133
1113.191, 93.87646
1114.288, 244.6466
1115.384, 206.2993
1116.481, 159.2117
1117.577, 199.1858
1118.673, 207.8840
1119.769, 157.5146
1120.864, 146.1715
1121.960, 207.7905
1123.055, 195.6560
1124.150, 276.9900
1125.245, 190.0378
1126.340, 204.6326
1127.434, 223.2211
1128.529, 262.8032
1129.623, 213.3790
1130.717, 278.0477
1131.811, 231.6290
1132.905, 245.1851
1133.999, 252.7344
1135.092, 266.2410
1136.185, 274.7766
1137.279, 282.8196
1138.371, 285.6738
1139.464, 294.4258
1140.557, 291.9326
1141.649, 289.3147
1142.742, 304.8021
1143.834, 252.2562
1144.926, 241.6824
1146.017, 239.1541
1147.109, 241.6183
1148.200, 220.4369
1149.292, 255.6643
1150.383, 254.1062
1151.474, 248.2197
1152.564, 216.6465
1153.655, 212.1992
1154.745, 250.4684
1155.835, 153.7195
1156.925, 264.1135
1158.015, 147.0552
1159.105, 213.2852
1160.195, 150.2104
1161.284, 149.4917
1162.373, 193.8505
1163.462, 195.2943
1164.551, 139.2667
1165.640, 148.3397
1166.728, 148.6576
1167.817, 151.2980
1168.905, 147.1412
1169.993, 111.7809
1171.081, 125.0824
1172.168, 115.9908
1173.256, 89.27832
1174.343, 122.5592
1175.430, 122.1937
1176.517, 94.32568
1177.604, 112.5858
1178.691, 92.67981
1179.777, 73.83020
1180.864, 96.06482
1181.950, 37.84094
1183.036, 60.65564
1184.121, 81.87476
1185.207, 30.08740
1186.293, 76.12341
1187.378, 74.89429
1188.463, 16.25928
1189.548, 83.17981
1190.633, 92.35522
1191.717, 19.52405
1192.802, 17.68420
1193.886, 24.39807
1194.970, 23.54102
1196.054, 52.67578
1197.138, 25.72498
1198.221, 79.84534
1199.305, 2.959229
1200.388, 36.04163
1201.471, 5.975586
1202.554, 7.072388
1203.637, 0.8917240
1204.719, 22.12866
1205.801, 6.859253
1206.884, 26.13391
1207.966, 36.11938
1209.048, 13.09802
1210.129, 10.06665
1211.211, 1.024048
1212.292, 44.96704
1213.373, 8.096680
1214.454, 60.82043
1215.535, 7.730591
1216.616, 9.370483
1217.696, 40.49170
1218.777, 30.73181
1219.857, 0.1632080
1220.937, 10.96033
1222.017, 3.252686
1223.096, 18.51770
1224.176, 19.72070
1225.255, 62.01611
1226.334, 29.74622
1227.413, 18.53101
1228.492, 42.16785
1229.570, 17.13977
1230.649, 55.52942
1231.727, 21.80786
1232.805, 53.82959
1233.883, 42.46045
1234.961, 3.914917
1236.038, 17.69397
1237.116, 16.57043
1238.193, 83.88635
1239.270, 57.47156
1240.347, 76.05090
1241.424, 106.6237
