##NAMES=Fayalite
##RRUFFID=R070293
##IDEAL CHEMISTRY=Fe^2+^_2_SiO_4_
##LOCALITY=Pike's Peak, Teller County, Colorado, USA
##OWNER=RRUFF
##SOURCE=Michael Scott
##DESCRIPTION=Black single crystal fragment with internal hints of red and green
##STATUS=The identification of this mineral has been confirmed by X-ray diffraction and chemical analysis
##URL=rruff.info/R070293
##MEASURED CHEMISTRY=(Fe^2+^_1.87_Mn^2+^_0.13_)_Î£=2_Si_1.00_O_4_ ; trace amounts of Mg
##PIN_ID=L01546
##ORIENTATION=Laser parallel to c* (0 0 1). Fiducial mark perpendicular to laser is parallel to a [1 0 0]
99.34400, 0.0000000E+00
100.5810, 43.72046
101.8190, 1.608154
103.0560, 19.71533
104.2930, 71.09131
105.5290, 73.97559
106.7660, 140.9609
108.0020, 102.0112
109.2390, 170.8228
110.4750, 113.1836
111.7110, 153.9492
112.9460, 207.0029
114.1820, 290.5752
115.4170, 212.2163
116.6530, 292.3496
117.8880, 367.8687
119.1230, 380.5752
120.3580, 258.3770
121.5920, 273.2075
122.8270, 293.0225
124.0610, 197.7927
125.2950, 194.4988
126.5290, 75.15698
127.7630, 54.98608
128.9970, 23.94678
130.2300, 11.26978
131.4640, 49.54517
132.6970, 14.05444
133.9300, 73.33154
135.1630, 144.1963
136.3950, 122.6990
137.6280, 148.8677
138.8600, 282.7815
140.0920, 363.4365
141.3240, 339.8503
142.5560, 395.0415
143.7880, 663.0308
145.0190, 769.8354
146.2510, 975.4731
147.4820, 1236.958
148.7130, 1634.709
149.9440, 1866.519
151.1750, 2616.616
152.4050, 3324.852
153.6360, 3901.435
154.8660, 4254.102
156.0960, 3953.998
157.3260, 3439.389
158.5560, 2481.578
159.7850, 1649.670
161.0150, 1147.395
162.2440, 703.7537
163.4730, 570.9346
164.7020, 378.8767
165.9310, 462.5483
167.1590, 386.9495
168.3880, 332.4060
169.6160, 354.7461
170.8440, 411.0886
172.0720, 314.7156
173.3000, 324.1184
174.5280, 326.5051
175.7550, 284.9189
176.9820, 273.4480
178.2100, 185.6348
179.4370, 229.1345
180.6630, 261.9302
181.8900, 290.5627
183.1170, 192.1328
184.3430, 242.7295
185.5690, 335.3506
186.7950, 296.9939
188.0210, 423.6587
189.2470, 378.3408
190.4720, 484.0391
191.6970, 676.7563
192.9230, 787.4922
194.1480, 898.2419
195.3730, 977.0017
196.5970, 998.7722
197.8220, 922.5540
199.0460, 713.3440
200.2700, 638.1470
201.4940, 446.9673
202.7180, 346.8027
203.9420, 177.6406
205.1660, 109.4814
206.3890, 113.3203
207.6120, 85.16138
208.8350, 44.00781
210.0580, 56.87109
211.2810, 15.25659
212.5040, 27.61475
213.7260, 46.52124
214.9480, 49.51807
216.1700, 71.54248
217.3920, 76.57202
218.6140, 55.58838
219.8360, 67.61084
221.0570, 14.37646
222.2790, 6.360107
223.5000, 34.33911
224.7210, 21.31128
225.9410, 38.72266
227.1620, 4.232178
228.3820, 18.82910
229.6030, 4.074463
230.8230, 26.05713
232.0430, 4.211670
233.2630, 84.35522
234.4820, 49.96973
235.7020, 111.5703
236.9210, 184.1274
238.1400, 191.6511
239.3590, 233.1382
240.5780, 139.6160
241.7970, 132.0911
243.0150, 88.56909
244.2340, 159.0483
245.4520, 115.5269
246.6700, 153.6733
247.8880, 170.3093
249.1060, 177.0925
250.3230, 187.5598
251.5400, 122.1533
252.7580, 94.76294
253.9750, 24.38379
255.1920, 97.00806
256.4080, 62.63379
257.6250, 121.2590
258.8410, 146.8813
260.0580, 86.49976
261.2740, 212.1113
262.4900, 164.7109
263.7050, 112.2979
264.9210, 239.8730
266.1360, 156.4360
267.3520, 315.9873
268.5670, 333.5244
269.7820, 321.0496
270.9960, 325.5618
272.2110, 379.0605
273.4250, 449.5474
274.6400, 504.3325
275.8540, 487.4507
277.0680, 667.7900
278.2810, 668.1963
279.4950, 761.4702
280.7090, 953.8711
281.9220, 1032.330
283.1350, 1247.823
284.3480, 1340.374
285.5610, 1412.739
286.7730, 1491.076
287.9860, 1561.316
289.1980, 1757.540
290.4100, 1883.748
291.6220, 1788.941
292.8340, 1822.309
294.0460, 1742.476
295.2570, 1609.716
296.4690, 1414.931
297.6800, 1330.061
298.8910, 1218.652
300.1020, 1206.757
301.3120, 1137.070
302.5230, 1141.448
303.7330, 1233.666
304.9440, 1219.848
306.1540, 1322.758
307.3630, 1317.667
308.5730, 1397.710
309.7830, 1489.727
310.9920, 1550.416
312.2010, 1460.315
313.4100, 1505.058
314.6190, 1552.481
315.8280, 1364.492
317.0370, 1241.452
318.2450, 1144.485
319.4530, 985.8762
320.6610, 927.5056
321.8690, 829.0796
323.0770, 664.1074
324.2850, 569.9270
325.4920, 515.9766
326.6990, 488.8604
327.9060, 431.8538
329.1130, 469.6860
330.3200, 430.0273
331.5270, 358.0703
332.7330, 455.6912
333.9390, 362.4688
335.1450, 349.9617
336.3510, 359.5369
337.5570, 398.3901
338.7630, 383.0605
339.9680, 397.1099
341.1740, 387.9832
342.3790, 381.7998
343.5840, 409.6714
344.7890, 424.4648
345.9930, 442.1797
347.1980, 464.8618
348.4020, 495.4724
349.6060, 509.2852
350.8100, 544.6934
352.0140, 575.1670
353.2180, 636.4678
354.4210, 703.5549
355.6250, 774.8428
356.8280, 864.9771
358.0310, 960.9189
359.2340, 1015.030
360.4360, 1141.142
361.6390, 1255.876
362.8410, 1378.301
364.0430, 1562.054
365.2450, 1584.058
366.4470, 1631.831
367.6490, 1797.425
368.8510, 1770.430
370.0520, 1896.295
371.2530, 2013.143
372.4540, 2196.665
373.6550, 2124.774
374.8560, 2142.328
376.0560, 2312.043
377.2570, 2107.145
378.4570, 2231.467
379.6570, 2373.641
380.8570, 2194.070
382.0570, 2157.553
383.2560, 2307.267
384.4560, 2158.933
385.6550, 2200.403
386.8540, 2096.054
388.0530, 2058.428
389.2520, 1840.915
390.4510, 1733.382
391.6490, 1565.866
392.8470, 1498.363
394.0450, 1382.553
395.2430, 1265.349
396.4410, 1185.835
397.6390, 1057.198
398.8360, 929.1719
400.0340, 809.5225
401.2310, 736.5688
402.4280, 709.2100
403.6250, 608.6758
404.8210, 565.9780
406.0180, 497.4268
407.2140, 451.9150
408.4100, 347.2588
409.6060, 381.6846
410.8020, 367.1001
411.9980, 338.5049
413.1930, 210.9077
414.3890, 309.2998
415.5840, 180.6880
416.7790, 189.0679
417.9740, 270.4375
419.1680, 215.7964
420.3630, 202.1445
421.5570, 169.4834
422.7510, 132.8169
423.9450, 95.14111
425.1390, 75.74854
426.3330, 62.74658
427.5270, 44.04639
428.7200, 84.32324
429.9130, 86.59131
431.1060, 158.8491
432.2990, 116.0967
433.4920, 108.3340
434.6840, 126.5605
435.8770, 61.77686
437.0690, 117.9858
438.2610, 86.18457
439.4530, 89.37793
440.6450, 155.5601
441.8360, 6.731445
443.0280, 112.8887
444.2190, 53.03564
445.4100, 14.83105
446.6010, 51.27979
447.7920, 28.38037
448.9820, 67.46777
450.1730, 62.74268
451.3630, 27.60986
452.5530, 22.66309
453.7430, 92.70557
454.9330, 32.73730
456.1230, 68.75732
457.3120, 6.232910
458.5010, 12.76025
459.6910, 18.74023
460.8800, 9.708008
462.0680, 37.33838
463.2570, 94.58105
464.4460, 107.4907
465.6340, 9.391113
466.8220, 46.27686
468.0100, 15.84912
469.1980, 60.99854
470.3860, 46.79932
471.5730, 40.56738
472.7600, 20.47266
473.9480, 5.251953
475.1350, 89.15723
476.3210, 51.07080
477.5080, 22.91943
478.6950, 97.95605
479.8810, 30.75586
481.0670, 73.38965
482.2530, 15.95947
483.4390, 22.82910
484.6250, 37.89404
485.8100, 23.60791
486.9960, 41.32861
488.1810, 58.87256
489.3660, 70.58252
490.5510, 80.47900
491.7360, 34.26074
492.9200, 128.9736
494.1050, 95.56982
495.2890, 150.2817
496.4730, 216.0786
497.6570, 244.7915
498.8400, 287.3711
500.0240, 294.0913
501.2070, 395.8691
502.3910, 471.5605
503.5740, 382.2275
504.7570, 537.0161
505.9400, 494.9194
507.1220, 540.9873
508.3050, 471.9414
509.4870, 500.6411
510.6690, 410.3101
511.8510, 386.7832
513.0330, 349.2134
514.2140, 311.8237
515.3960, 284.1758
516.5770, 246.2593
517.7580, 263.6348
518.9390, 215.9551
520.1200, 269.4141
521.3010, 161.9385
522.4810, 202.3369
523.6610, 141.0703
524.8420, 71.64453
526.0220, 82.27588
527.2010, 178.6455
528.3810, 84.16553
529.5610, 124.0039
530.7400, 208.3560
531.9190, 213.8574
533.0980, 287.6450
534.2770, 273.3350
535.4560, 203.2319
536.6340, 200.5840
537.8120, 259.7783
538.9910, 288.9482
540.1690, 290.1030
541.3460, 312.3525
542.5240, 325.7007
543.7020, 324.9331
544.8790, 338.8926
546.0560, 349.1602
547.2330, 357.5601
548.4100, 447.3945
549.5870, 419.5229
550.7630, 489.5430
551.9400, 606.6187
553.1160, 601.6021
554.2920, 631.3149
555.4680, 666.2656
556.6440, 755.7515
557.8190, 812.0273
558.9950, 826.9287
560.1700, 868.8135
561.3450, 877.6812
562.5200, 952.6470
563.6950, 961.2002
564.8690, 1049.625
566.0440, 1010.425
567.2180, 994.0850
568.3920, 1032.712
569.5660, 988.2573
570.7400, 981.2188
571.9130, 942.9897
573.0870, 931.8174
574.2600, 836.5547
575.4330, 783.2236
576.6060, 752.5000
577.7790, 699.2407
578.9520, 694.9390
580.1240, 646.7837
581.2960, 641.2974
582.4690, 637.8667
583.6410, 566.0195
584.8120, 566.5547
585.9840, 612.8481
587.1560, 514.0640
588.3270, 506.5439
589.4980, 573.6836
590.6690, 496.0254
591.8400, 415.2754
593.0110, 369.3862
594.1810, 397.5430
595.3510, 387.8677
596.5220, 399.9253
597.6920, 327.1167
598.8610, 344.8315
600.0310, 267.7222
601.2010, 203.6465
602.3700, 245.4775
603.5390, 196.5259
604.7080, 185.1348
605.8770, 186.3735
607.0460, 201.1362
608.2140, 177.0869
609.3830, 212.7900
610.5510, 173.6387
611.7190, 189.3604
612.8870, 76.22461
614.0550, 147.5610
615.2220, 77.17773
616.3900, 72.19678
617.5570, 47.04004
618.7240, 69.14746
619.8910, 84.15332
621.0580, 164.8623
622.2240, 112.7354
623.3910, 72.20947
624.5570, 0.8403320
625.7230, 82.50293
626.8890, 77.09033
628.0550, 121.7358
629.2200, 5.441406
630.3860, 33.16797
631.5510, 47.91895
632.7160, 60.46045
633.8810, 85.29541
635.0460, 54.06348
636.2100, 46.13330
637.3750, 47.61914
638.5390, 76.35547
639.7030, 13.92334
640.8670, 31.76367
642.0310, 42.43359
643.1950, 49.08838
644.3580, 29.72607
645.5210, 1.652832
646.6850, 15.47510
647.8480, 18.48486
649.0100, 46.05273
650.1730, 50.57471
651.3350, 94.08105
652.4980, 125.5732
653.6600, 58.05127
654.8220, 5.486816
655.9840, 76.05225
657.1450, 75.68311
658.3070, 11.37793
659.4680, 82.89600
660.6300, 63.15527
661.7910, 89.40039
662.9510, 18.63184
664.1120, 38.84668
665.2730, 68.80957
666.4330, 29.80273
667.5930, 37.97314
668.7530, 56.05518
669.9130, 16.98438
671.0730, 19.91357
672.2320, 8.125488
673.3920, 71.85449
674.5510, 4.106934
675.7100, 3.951172
676.8690, 2.033203
678.0280, 85.86328
679.1860, 92.74756
680.3450, 51.61963
681.5030, 102.5205
682.6610, 46.26465
683.8190, 17.96191
684.9770, 27.78174
686.1340, 3.512207
687.2920, 15.77295
688.4490, 45.91455
689.6060, 66.58984
690.7630, 48.25439
691.9200, 80.90674
693.0760, 19.45117
694.2330, 75.16406
695.3890, 17.23193
696.5450, 1.347168
697.7010, 118.9121
698.8570, 70.46533
700.0130, 98.00879
701.1680, 27.54248
702.3230, 14.93555
703.4780, 31.56494
704.6330, 41.05420
705.7880, 66.53418
706.9430, 39.00537
708.0970, 34.46680
709.2520, 2.080566
710.4060, 12.21338
711.5600, 12.78955
712.7140, 29.20947
713.8670, 77.61914
715.0210, 72.02051
716.1740, 16.58691
717.3270, 69.78809
718.4800, 22.84521
719.6330, 90.50049
720.7860, 58.83838
721.9380, 13.16797
723.0910, 69.49072
724.2430, 75.80615
725.3950, 15.11426
726.5470, 4.579590
727.6980, 70.71729
728.8500, 9.007813
730.0010, 65.29150
731.1530, 13.56836
732.3040, 1.160645
733.4550, 43.10352
734.6050, 107.3613
735.7560, 48.61377
736.9060, 7.140137
738.0560, 149.1011
739.2060, 131.3379
740.3560, 132.5703
741.5060, 73.79736
742.6560, 93.78271
743.8050, 126.2607
744.9540, 110.4834
746.1030, 103.7021
747.2520, 118.9170
748.4010, 97.13330
749.5500, 61.36279
750.6980, 50.22266
751.8460, 40.97217
752.9950, 27.87354
754.1420, 56.92822
755.2900, 119.9609
756.4380, 172.8804
757.5850, 134.9102
758.7330, 239.0015
759.8800, 191.2412
761.0270, 153.4502
762.1730, 166.4995
763.3200, 168.2559
764.4670, 165.3481
765.6130, 168.4180
766.7590, 188.6636
767.9050, 250.7339
769.0510, 274.6021
770.1960, 263.5703
771.3420, 364.5923
772.4870, 238.7192
773.6320, 258.7158
774.7770, 315.6152
775.9220, 274.5898
777.0670, 370.6855
778.2110, 474.6377
779.3560, 443.5205
780.5000, 476.4785
781.6440, 537.4658
782.7880, 570.3438
783.9320, 647.1187
785.0750, 703.7358
786.2180, 869.4780
787.3620, 860.4658
788.5050, 1010.476
789.6480, 1056.676
790.7900, 1232.908
791.9330, 1327.965
793.0750, 1524.640
794.2170, 1563.901
795.3590, 1817.206
796.5010, 2080.566
797.6430, 2328.783
798.7850, 2670.923
799.9260, 3261.178
801.0670, 3811.086
802.2080, 4550.142
803.3490, 5110.330
804.4900, 6124.361
805.6310, 7215.435
806.7710, 8515.175
807.9110, 10068.39
809.0510, 11567.45
810.1910, 13041.23
811.3310, 14556.10
812.4710, 15589.75
813.6100, 16186.94
814.7490, 16358.27
815.8880, 16186.61
817.0270, 15529.98
818.1660, 14635.24
819.3050, 13575.39
820.4430, 12553.65
821.5820, 11627.17
822.7200, 10816.39
823.8580, 10520.32
824.9950, 9596.078
826.1330, 9365.401
827.2710, 9090.819
828.4080, 8734.174
829.5450, 8636.611
830.6820, 8292.311
831.8190, 8252.759
832.9560, 8018.665
834.0920, 8102.771
835.2280, 7941.244
836.3650, 7908.722
837.5010, 7587.208
838.6360, 7595.589
839.7720, 7369.853
840.9080, 7153.277
842.0430, 6985.755
843.1780, 6451.282
844.3130, 6104.777
845.4480, 5660.268
846.5830, 5197.504
847.7170, 4686.930
848.8520, 4320.372
849.9860, 3886.897
851.1200, 3515.482
852.2540, 3096.076
853.3870, 2843.685
854.5210, 2608.297
855.6540, 2265.591
856.7880, 1963.221
857.9210, 1798.861
859.0540, 1570.199
860.1860, 1440.096
861.3190, 1298.765
862.4510, 1227.396
863.5840, 1181.856
864.7160, 969.5532
865.8480, 852.2051
866.9790, 844.9219
868.1110, 657.6250
869.2420, 631.2544
870.3740, 644.0015
871.5050, 431.7588
872.6360, 533.5264
873.7660, 424.0830
874.8970, 402.8711
876.0280, 275.6699
877.1580, 382.4780
878.2880, 311.2974
879.4180, 374.1274
880.5480, 177.9678
881.6770, 286.8184
882.8070, 277.6802
883.9360, 269.6274
885.0650, 284.5098
886.1940, 216.4038
887.3230, 199.4829
888.4520, 170.1880
889.5800, 134.3208
890.7090, 227.2588
891.8370, 230.2080
892.9650, 127.1689
894.0930, 195.1411
895.2200, 140.1250
896.3480, 164.1191
897.4750, 153.1245
898.6020, 84.14111
899.7290, 183.1802
900.8560, 266.2310
901.9830, 142.6846
903.1090, 48.87158
904.2360, 185.9624
905.3620, 229.0654
906.4880, 145.1807
907.6140, 212.5010
908.7400, 84.63818
909.8650, 150.7876
910.9900, 215.8481
912.1160, 121.0430
913.2410, 198.2490
914.3660, 184.4771
915.4900, 165.7339
916.6150, 207.0029
917.7390, 200.2842
918.8640, 217.5776
919.9880, 233.8940
921.1120, 260.2251
922.2350, 308.7827
923.3590, 335.1475
924.4820, 358.8325
925.6060, 423.1611
926.7290, 374.5586
927.8520, 464.4673
928.9740, 432.8940
930.0970, 542.5947
931.2190, 550.0938
932.3420, 435.6123
933.4640, 445.1416
934.5860, 484.6816
935.7080, 428.2373
936.8290, 394.8057
937.9510, 399.5796
939.0720, 479.9917
940.1930, 378.6011
941.3140, 428.2217
942.4350, 424.8721
943.5560, 401.5425
944.6760, 464.9780
945.7960, 436.6899
946.9170, 422.4399
948.0370, 380.2109
949.1560, 371.2637
950.2760, 374.7983
951.3960, 334.9194
952.5150, 368.7612
953.6340, 327.8545
954.7530, 356.5059
955.8720, 350.4087
956.9910, 369.2310
958.1090, 429.1626
959.2280, 363.1060
960.3460, 306.0679
961.4640, 423.0537
962.5820, 278.0483
963.6990, 214.0522
964.8170, 236.0659
965.9340, 405.0967
967.0510, 228.1460
968.1690, 259.2363
969.2850, 226.3374
970.4020, 191.4478
971.5190, 188.5669
972.6350, 199.7905
973.7510, 179.0107
974.8670, 195.0796
975.9830, 209.2397
977.0990, 161.4199
978.2150, 268.6084
979.3300, 196.8057
980.4450, 161.0112
981.5600, 271.2266
982.6750, 278.4512
983.7900, 207.6851
984.9050, 171.9380
986.0190, 251.2090
987.1340, 162.4893
988.2480, 315.7817
989.3620, 209.0830
990.4750, 193.3979
991.5890, 271.7217
992.7020, 230.0542
993.8160, 206.3970
994.9290, 249.7480
996.0420, 257.1064
997.1550, 52.47266
998.2670, 54.84717
999.3800, 51.22852
1000.492, 91.61816
1001.604, 92.62061
1002.716, 129.4170
1003.828, 134.8281
1004.940, 138.2461
1006.051, 180.6704
1007.163, 158.9390
1008.274, 181.5410
1009.385, 131.9868
1010.496, 96.43896
1011.606, 70.89746
1012.717, 96.36279
1013.827, 52.83447
1014.937, 14.31396
1016.047, 83.80029
1017.157, 4.708008
1018.267, 110.7886
1019.377, 97.29102
1020.486, 9.201172
1021.595, 27.68896
1022.704, 58.17871
1023.813, 39.31641
1024.922, 115.8179
1026.030, 149.3237
1027.139, 79.83545
1028.247, 90.35205
1029.355, 36.87402
1030.463, 43.40088
1031.571, 24.51172
1032.678, 56.51514
1033.786, 23.05615
1034.893, 76.37305
1036.000, 31.76074
1037.107, 10.01123
1038.214, 19.52979
1039.321, 137.0527
1040.427, 7.419922
1041.533, 40.10938
1042.639, 63.64160
1043.745, 24.82178
1044.851, 24.72217
1045.957, 47.25781
1047.062, 22.79639
1048.168, 76.34717
1049.273, 51.88428
1050.378, 28.50293
1051.482, 29.05420
1052.587, 34.91895
1053.692, 30.47461
1054.796, 4.966797
1055.900, 11.59229
1057.004, 27.84717
1058.108, 47.70410
1059.212, 54.26172
1060.315, 114.1831
1061.418, 21.34570
1062.522, 26.15186
1063.625, 95.34131
1064.728, 100.8545
1065.830, 36.42627
1066.933, 25.92285
1068.035, 25.22314
1069.137, 43.15234
1070.239, 39.37158
1071.341, 98.87207
1072.443, 124.7803
1073.545, 65.87500
1074.646, 118.3770
1075.747, 8.961426
1076.848, 95.53564
1077.949, 78.71533
1079.050, 38.30029
1080.150, 76.47314
1081.251, 120.9248
1082.351, 36.37598
1083.451, 53.17334
1084.551, 62.18164
1085.651, 50.69727
1086.750, 11.18555
1087.850, 120.6016
1088.949, 26.98389
1090.048, 56.55078
1091.147, 74.94434
1092.246, 124.6812
1093.345, 96.29150
1094.443, 20.67822
1095.541, 151.1362
1096.639, 14.51904
1097.737, 66.95605
1098.835, 114.4624
1099.933, 45.70166
1101.030, 48.07275
1102.128, 100.4517
1103.225, 112.8164
1104.322, 15.17676
1105.419, 36.61182
1106.515, 148.9639
1107.612, 50.31250
1108.708, 99.12402
1109.804, 28.46484
1110.900, 109.8042
1111.996, 81.13623
1113.092, 100.4644
1114.187, 66.78906
1115.283, 27.10840
1116.378, 35.98486
1117.473, 77.71094
1118.568, 102.0874
1119.662, 159.5205
1120.757, 111.8164
1121.851, 163.1074
1122.946, 202.6450
1124.040, 129.9253
1125.134, 60.98193
1126.227, 119.2520
1127.321, 120.5161
1128.414, 183.7749
1129.508, 156.0283
1130.601, 179.2754
1131.693, 190.5171
1132.786, 166.7534
1133.879, 80.98340
1134.971, 210.2080
1136.064, 162.4263
1137.156, 231.6392
1138.248, 145.8452
1139.339, 171.0449
1140.431, 189.2393
1141.522, 200.4268
1142.614, 175.6084
1143.705, 128.7832
1144.796, 243.1201
1145.887, 164.6392
1146.977, 133.7944
1148.068, 215.9438
1149.158, 139.0107
1150.248, 109.1470
1151.338, 224.2759
1152.428, 165.2231
1153.518, 142.5498
1154.607, 189.4512
1155.696, 57.55322
1156.785, 199.6484
1157.874, 79.73730
1158.963, 161.8188
1160.052, 181.8936
1161.141, 113.9614
1162.229, 147.0225
1163.317, 10.07666
1164.405, 108.1143
1165.493, 49.14404
1166.581, 35.77490
1167.668, 27.67627
1168.756, 54.68164
1169.843, 91.67969
1170.930, 62.67090
1172.017, 99.46094
1173.103, 154.4375
1174.190, 75.40820
1175.276, 8.489258
1176.363, 87.43604
1177.449, 143.3755
1178.535, 39.69189
1179.620, 82.19824
1180.706, 42.08203
1181.791, 138.9580
1182.877, 3.826172
1183.962, 99.67578
1185.047, 132.5181
1186.131, 96.14746
1187.216, 99.97510
1188.300, 152.5439
1189.385, 58.35693
1190.469, 154.1621
1191.553, 47.46143
1192.637, 75.25244
1193.720, 84.79883
1194.804, 49.57617
1195.887, 36.34570
1196.970, 111.1079
1198.053, 1.863281
1199.136, 42.60107
1200.219, 6.669434
1201.301, 127.0376
1202.383, 119.7383
1203.465, 76.52344
1204.547, 63.20947
1205.629, 38.17090
1206.711, 84.55957
1207.792, 10.52100
1208.874, 0.1196290
1209.955, 9.256836
1211.036, 99.34521
1212.117, 86.04639
1213.198, 54.63428
1214.278, 62.09570
1215.359, 29.43652
1216.439, 34.96094
1217.519, 67.47803
1218.599, 84.98828
1219.678, 24.59033
1220.758, 130.0859
1221.837, 14.57471
1222.917, 35.94580
1223.996, 72.49951
1225.075, 33.93750
1226.153, 55.36914
1227.232, 37.79443
1228.310, 18.78711
1229.389, 78.39453
1230.467, 52.94238
1231.545, 49.27197
1232.622, 118.5957
1233.700, 187.9126
1234.777, 33.12793
1235.855, 66.43311
1236.932, 127.7324
1238.009, 24.97461
1239.086, 94.29004
1240.162, 51.54883
1241.239, 144.8013
1242.315, 206.0469
1243.391, 79.28711
1244.467, 62.52100
1245.543, 27.25195
1246.619, 25.05322
1247.694, 35.11865
1248.769, 24.28418
1249.844, 109.4424
1250.919, 92.59375
1251.994, 15.74023
1253.069, 99.87744
1254.144, 8.7890001E-03
1255.218, 174.1299
1256.292, 72.24365
1257.366, 94.35254
1258.440, 52.45557
1259.514, 98.55273
1260.587, 143.6445
1261.661, 74.73047
1262.734, 60.81055
1263.807, 106.8848
1264.880, 149.9541
1265.952, 142.0171
1267.025, 98.07568
1268.097, 161.1279
1269.170, 168.1748
1270.242, 62.21631
1271.314, 120.2534
1272.385, 70.28467
1273.457, 17.31104
1274.528, 6.329590
1275.600, 137.3413
1276.671, 217.3467
