##NAMES=Fayalite
##RRUFFID=R070293
##IDEAL CHEMISTRY=Fe^2+^_2_SiO_4_
##LOCALITY=Pike's Peak, Teller County, Colorado, USA
##OWNER=RRUFF
##SOURCE=Michael Scott
##DESCRIPTION=Black single crystal fragment with internal hints of red and green
##STATUS=The identification of this mineral has been confirmed by X-ray diffraction and chemical analysis
##URL=rruff.info/R070293
##MEASURED CHEMISTRY=(Fe^2+^_1.87_Mn^2+^_0.13_)_Î£=2_Si_1.00_O_4_ ; trace amounts of Mg
##PIN_ID=L01491
##ORIENTATION=Laser parallel to a* (1 0 0). Fiducial mark perpendicular to laser is parallel to b [0 1 0]
125.6450, 0.0000000E+00
126.8730, 14.84412
128.1010, 16.35059
129.3280, 54.71277
130.5560, 150.5341
131.7830, 56.03271
133.0100, 49.60474
134.2380, 8.982788
135.4640, 7.782959
136.6910, 23.97107
137.9180, 76.14099
139.1440, 141.5842
140.3710, 143.2365
141.5970, 93.05798
142.8230, 12.02075
144.0490, 57.10400
145.2750, 4.707520
146.5000, 42.21802
147.7260, 66.40186
148.9510, 96.53479
150.1770, 141.0664
151.4020, 178.0192
152.6270, 220.7780
153.8520, 272.8422
155.0760, 305.9165
156.3010, 362.0045
157.5250, 416.1079
158.7500, 563.2268
159.9740, 777.3629
161.1980, 1093.517
162.4220, 1639.687
163.6450, 2199.877
164.8690, 2666.085
166.0920, 2905.306
167.3160, 3196.691
168.5390, 3890.998
169.7620, 5020.863
170.9850, 6454.771
172.2080, 7381.723
173.4300, 7232.715
174.6530, 5949.748
175.8750, 4294.817
177.0970, 2702.924
178.3190, 1781.063
179.5410, 1157.233
180.7630, 747.4370
181.9850, 506.6967
183.2060, 383.0609
184.4270, 304.4443
185.6490, 298.8446
186.8700, 205.2594
188.0910, 159.6891
189.3110, 118.1327
190.5320, 121.5901
191.7530, 131.0615
192.9730, 160.5468
194.1930, 144.0447
195.4130, 169.5549
196.6330, 105.0774
197.8530, 175.6119
199.0730, 165.1671
200.2920, 247.7552
201.5120, 206.3579
202.7310, 172.9619
203.9500, 55.54834
205.1690, 23.87744
206.3880, 16.27258
207.6070, 48.64343
208.8250, 8.017578
210.0440, 3.700806
211.2620, 61.39575
212.4800, 81.10706
213.6980, 143.8536
214.9160, 155.6201
216.1340, 225.4045
217.3510, 265.2271
218.5690, 321.0580
219.7860, 420.9104
221.0030, 497.7775
222.2200, 599.6494
223.4370, 717.5254
224.6540, 894.4058
225.8700, 1111.291
227.0870, 1359.389
228.3030, 1653.527
229.5190, 1983.962
230.7350, 2357.855
231.9510, 2765.753
233.1670, 3224.644
234.3820, 3727.299
235.5980, 4193.732
236.8130, 4742.622
238.0280, 5269.719
239.2430, 5617.136
240.4580, 5711.086
241.6730, 5699.947
242.8880, 5141.802
244.1020, 4607.654
245.3160, 3990.478
246.5300, 3452.977
247.7450, 2955.176
248.9580, 2538.628
250.1720, 2090.817
251.3860, 1864.662
252.5990, 1662.513
253.8130, 1437.370
255.0260, 1385.229
256.2390, 1238.092
257.4520, 1168.027
258.6640, 1097.898
259.8770, 1070.774
261.0890, 1008.654
262.3020, 1027.538
263.5140, 853.4275
264.7260, 917.3212
265.9380, 821.2192
267.1500, 843.1218
268.3610, 911.0289
269.5730, 894.9404
270.7840, 913.8564
271.9950, 907.9451
273.2060, 960.5776
274.4170, 1061.858
275.6280, 1188.054
276.8390, 1220.952
278.0490, 1318.624
279.2590, 1528.291
280.4690, 1699.526
281.6800, 1729.875
282.8890, 1911.362
284.0990, 2115.148
285.3090, 2258.495
286.5180, 2376.397
287.7280, 2497.755
288.9370, 2630.875
290.1460, 2740.895
291.3550, 2611.680
292.5630, 2572.658
293.7720, 2420.785
294.9800, 2225.927
296.1890, 1924.071
297.3970, 1740.472
298.6050, 1487.641
299.8130, 1422.427
301.0200, 1290.605
302.2280, 1300.233
303.4360, 1291.558
304.6430, 1257.705
305.8500, 1263.826
307.0570, 1201.530
308.2640, 1183.696
309.4710, 1119.889
310.6770, 1028.024
311.8840, 976.9667
313.0900, 842.3921
314.2960, 760.9620
315.5020, 670.9579
316.7080, 556.0942
317.9140, 493.1414
319.1190, 400.2197
320.3250, 339.2655
321.5300, 331.3452
322.7350, 240.4128
323.9400, 212.4941
325.1450, 186.5699
326.3500, 141.6289
327.5540, 113.6511
328.7580, 96.63586
329.9630, 108.6182
331.1670, 72.60254
332.3710, 71.58899
333.5750, 39.57825
334.7780, 43.56946
335.9820, 61.58032
337.1850, 61.57703
338.3880, 54.04041
339.5920, 54.80994
340.7950, 30.58081
341.9970, 33.58740
343.2000, 27.59570
344.4030, 5.605347
345.6050, 17.61536
346.8070, 15.37244
348.0090, 50.63782
349.2110, 0.6490480
350.4130, 27.62427
351.6150, 50.00427
352.8160, 29.43433
354.0170, 13.31494
355.2190, 25.18396
356.4200, 54.19360
357.6210, 27.21106
358.8210, 67.23535
360.0220, 71.26233
361.2220, 29.29590
362.4230, 83.33203
363.6230, 77.37073
364.8230, 74.40979
366.0230, 67.44946
367.2230, 61.48877
368.4220, 58.02954
369.6220, 59.11414
370.8210, 54.63501
372.0200, 62.69458
373.2190, 71.75732
374.4180, 67.82336
375.6170, 67.89087
376.8150, 61.96021
378.0140, 102.0304
379.2120, 38.10229
380.4100, 77.17468
381.6080, 40.24512
382.8060, 51.31824
384.0040, 72.38037
385.2010, 42.44617
386.3980, 25.51807
387.5960, 68.59460
388.7930, 74.67651
389.9900, 80.76843
391.1870, 108.8683
392.3830, 125.9757
393.5800, 118.0819
394.7760, 188.1899
395.9720, 165.2971
397.1680, 173.4016
398.3640, 213.5164
399.5600, 219.6340
400.7560, 222.7612
401.9510, 299.8926
403.1460, 288.0225
404.3420, 317.1534
405.5370, 281.2850
406.7320, 287.4153
407.9260, 242.5535
409.1210, 295.6941
410.3150, 283.8416
411.5100, 231.9861
412.7040, 224.1429
413.8980, 191.2957
415.0920, 187.4438
416.2850, 148.5828
417.4790, 143.7245
418.6720, 123.8604
419.8650, 143.9908
421.0590, 92.11670
422.2510, 65.24438
423.4440, 45.37122
424.6370, 79.49585
425.8290, 47.62952
427.0220, 61.77344
428.2140, 23.08752
429.4060, 44.04309
430.5980, 5.831421
431.7900, 23.71582
432.9810, 7.381714
434.1730, 38.52222
435.3640, 10.55261
436.5550, 4.621338
437.7460, 5.682251
438.9370, 6.735107
440.1280, 4.219727
441.3190, 5.814209
442.5090, 26.15991
443.6990, 6.843506
444.8890, 7.161621
446.0790, 1.180054
447.2690, 16.79114
448.4590, 14.24609
449.6480, 23.30090
450.8380, 16.62195
452.0270, 11.53601
453.2160, 26.44092
454.4050, 10.66309
455.5940, 2.783203
456.7820, 4.915894
457.9710, 48.93799
459.1590, 16.78369
460.3470, 39.62024
461.5350, 33.44812
462.7230, 49.26709
463.9110, 29.07751
465.0990, 39.87866
466.2860, 37.67078
467.4730, 40.14478
468.6600, 45.22729
469.8470, 54.99170
471.0340, 64.74731
472.2210, 74.49414
473.4070, 81.26685
474.5940, 100.0234
475.7800, 76.94604
476.9660, 74.69104
478.1520, 63.75256
479.3380, 78.64978
480.5230, 78.37061
481.7090, 87.58411
482.8940, 127.6577
484.0790, 114.4395
485.2650, 149.2528
486.4490, 170.9769
487.6340, 152.5575
488.8190, 170.5569
490.0030, 165.6426
491.1870, 182.3169
492.3720, 204.2968
493.5550, 256.0148
494.7390, 327.2440
495.9230, 324.8479
497.1060, 323.4349
498.2900, 376.1689
499.4730, 379.4835
500.6560, 420.6987
501.8390, 466.9298
503.0220, 534.1093
504.2040, 552.4338
505.3870, 551.6987
506.5690, 526.5383
507.7510, 556.4955
508.9330, 540.1602
510.1150, 512.6687
511.2970, 485.5475
512.4780, 422.2482
513.6600, 386.8264
514.8410, 363.2893
516.0220, 370.8223
517.2030, 329.0806
518.3840, 295.1411
519.5650, 278.0975
520.7450, 253.3121
521.9250, 241.4279
523.1060, 247.7865
524.2860, 261.4125
525.4660, 257.1562
526.6450, 251.8381
527.8250, 258.0214
529.0040, 261.7883
530.1840, 266.7632
531.3630, 274.0129
532.5420, 266.4150
533.7200, 290.8955
534.8990, 279.3569
536.0780, 292.4548
537.2560, 302.0227
538.4340, 312.2040
539.6120, 340.3978
540.7900, 364.0238
541.9680, 386.8091
543.1460, 437.5309
544.3230, 506.9777
545.5000, 565.9534
546.6770, 579.8395
547.8540, 675.2606
549.0310, 630.9160
550.2080, 720.2922
551.3840, 675.6499
552.5610, 689.7640
553.7370, 685.4590
554.9130, 626.4004
556.0890, 563.2827
557.2650, 518.1484
558.4400, 495.2611
559.6160, 451.1013
560.7910, 387.9402
561.9660, 390.7380
563.1410, 329.6549
564.3160, 323.9292
565.4910, 332.6519
566.6650, 314.9645
567.8400, 325.6890
569.0140, 332.3837
570.1880, 337.7769
571.3620, 337.3810
572.5360, 373.5408
573.7090, 377.5908
574.8830, 418.1248
576.0560, 409.8256
577.2290, 409.3088
578.4020, 444.6399
579.5750, 464.9586
580.7480, 390.2651
581.9200, 470.3015
583.0930, 441.5583
584.2650, 497.2145
585.4370, 463.4381
586.6090, 503.2002
587.7810, 482.2515
588.9520, 517.4695
590.1240, 482.7009
591.2950, 517.3357
592.4660, 502.4969
593.6370, 468.6169
594.8080, 480.7826
595.9790, 483.0996
597.1500, 459.8815
598.3200, 435.5052
599.4900, 406.6917
600.6600, 374.7253
601.8300, 347.7495
603.0000, 308.9038
604.1700, 289.0193
605.3390, 292.0322
606.5080, 266.0725
607.6770, 170.0857
608.8460, 187.0913
610.0150, 136.1005
611.1840, 165.1329
612.3520, 154.1885
613.5210, 93.23254
614.6890, 94.25989
615.8570, 57.27063
617.0250, 91.26331
618.1930, 41.23962
619.3600, 55.18005
620.5280, 88.11914
621.6950, 56.04199
622.8620, 19.94714
624.0290, 58.82959
625.1960, 54.69519
626.3630, 62.54346
627.5290, 71.61304
628.6960, 30.19080
629.8620, 54.98743
631.0280, 70.77014
632.1940, 24.53687
633.3600, 50.28406
634.5250, 32.01465
635.6910, 73.73840
636.8560, 6.446777
638.0210, 42.13025
639.1860, 5.203003
640.3510, 4.566895
641.5150, 15.03918
642.6800, 4.375854
643.8440, 10.17957
645.0080, 11.71265
646.1720, 27.22412
647.3360, 20.34204
648.5000, 36.19287
649.6640, 3.651611
650.8270, 2.913696
651.9900, 16.50635
653.1530, 0.8670650
654.3160, 2.215576
655.4790, 0.5404050
656.6420, 7.568604
657.8040, 5.435059
658.9660, 10.37830
660.1290, 3.617188
661.2910, 4.834229
662.4520, 3.0273000E-02
663.6140, 4.796753
664.7760, 7.250000
665.9370, 6.847778
667.0980, 15.43250
668.2590, 10.36731
669.4200, 13.32886
670.5810, 31.31897
671.7420, 24.34668
672.9020, 23.30383
674.0620, 12.49817
675.2220, 2.610840
676.3820, 6.258911
677.5420, 28.11230
678.7020, 38.04675
679.8610, 10.24451
681.0210, 36.46606
682.1800, 16.72473
683.3390, 2.989868
684.4980, 6.311157
685.6560, 5.632568
686.8150, 1.026489
687.9730, 35.32996
689.1320, 15.72083
690.2900, 32.13538
691.4480, 3.418213
692.6050, 55.04089
693.7630, 9.456665
694.9200, 27.94385
696.0780, 28.42114
697.2350, 33.11108
698.3920, 10.32690
699.5490, 4.755249
700.7050, 24.17407
701.8620, 17.41589
703.0180, 8.025879
704.1740, 27.34949
705.3300, 26.28345
706.4860, 49.93970
707.6420, 4.369141
708.7970, 37.33032
709.9530, 1.050537
711.1080, 4.220703
712.2630, 22.48682
713.4180, 23.24756
714.5730, 15.99951
715.7280, 4.754517
716.8820, 9.482910
718.0360, 3.714478
719.1900, 12.94043
720.3440, 6.160645
721.4980, 8.376953
722.6520, 1.411621
723.8050, 14.80115
724.9590, 24.00928
726.1120, 39.21497
727.2650, 45.04700
728.4180, 34.61462
729.5700, 45.81238
730.7230, 49.01282
731.8750, 28.20935
733.0280, 89.40234
734.1800, 62.59155
735.3320, 117.7809
736.4830, 103.9686
737.6350, 112.1556
738.7860, 142.3391
739.9380, 134.5199
741.0890, 155.6978
742.2400, 126.8730
743.3910, 144.6709
744.5410, 154.2166
745.6920, 152.3871
746.8420, 167.2144
747.9920, 174.7262
749.1420, 182.8933
750.2920, 195.0586
751.4420, 200.2220
752.5910, 146.3494
753.7410, 189.4883
754.8900, 172.4619
756.0390, 211.6123
757.1880, 227.4363
758.3370, 203.4148
759.4850, 249.5728
760.6340, 244.5813
761.7820, 204.0237
762.9300, 269.0865
764.0780, 288.1206
765.2260, 290.2089
766.3730, 306.3391
767.5210, 333.0973
768.6680, 335.1676
769.8150, 345.3220
770.9620, 401.0181
772.1090, 420.0945
773.2560, 410.9724
774.4020, 508.1877
775.5490, 488.9650
776.6950, 531.7634
777.8410, 525.9092
778.9870, 580.4893
780.1330, 641.0796
781.2780, 656.7184
782.4230, 731.1785
783.5690, 775.7159
784.7140, 833.5171
785.8590, 963.5012
787.0030, 985.6215
788.1480, 1093.892
789.2920, 1224.785
790.4370, 1316.849
791.5810, 1460.032
792.7250, 1550.323
793.8690, 1794.538
795.0120, 1983.150
796.1560, 2285.693
797.2990, 2523.465
798.4420, 2883.970
799.5850, 3235.568
800.7280, 3801.918
801.8710, 4334.994
803.0130, 5171.946
804.1550, 6162.953
805.2980, 7297.456
806.4400, 8594.305
807.5810, 9944.005
808.7230, 11598.61
809.8650, 13179.68
811.0060, 14833.86
812.1470, 16243.05
813.2880, 17461.61
814.4290, 18045.68
815.5700, 18118.13
816.7110, 17883.58
817.8510, 17302.80
818.9910, 16497.42
820.1310, 15777.32
821.2710, 15235.49
822.4110, 14862.13
823.5510, 14604.86
824.6900, 14485.04
825.8290, 14404.89
826.9680, 14483.21
828.1070, 14584.45
829.2460, 14965.93
830.3850, 15327.83
831.5230, 15831.48
832.6620, 16300.05
833.8000, 16796.90
834.9380, 17339.37
836.0760, 17938.10
837.2130, 18436.84
838.3510, 18550.62
839.4880, 18747.27
840.6250, 18718.57
841.7620, 18525.29
842.8990, 18272.65
844.0360, 17752.47
845.1720, 17158.35
846.3090, 16380.07
847.4450, 15580.94
848.5810, 14610.86
849.7170, 13753.80
850.8530, 12935.63
851.9880, 12230.96
853.1240, 11500.85
854.2590, 10529.86
855.3940, 9970.886
856.5290, 9316.930
857.6640, 8610.988
858.7980, 8277.067
859.9330, 7698.136
861.0670, 7330.252
862.2010, 6773.385
863.3350, 6417.539
864.4690, 6177.709
865.6030, 5886.897
866.7360, 5384.105
867.8690, 5182.333
869.0020, 4917.578
870.1350, 4754.844
871.2680, 4421.127
872.4010, 4283.431
873.5330, 4065.753
874.6660, 3930.095
875.7980, 3726.456
876.9300, 3562.837
878.0620, 3516.237
879.1930, 3334.683
880.3250, 3341.123
881.4560, 3265.005
882.5870, 3209.773
883.7180, 3145.311
884.8490, 3147.831
885.9800, 2987.370
887.1100, 3049.930
888.2410, 2922.512
889.3710, 2925.311
890.5010, 3012.393
891.6310, 2930.031
892.7610, 2913.705
893.8900, 2945.391
895.0200, 3063.044
896.1490, 3056.770
897.2780, 3192.576
898.4070, 3209.994
899.5360, 3214.520
900.6640, 3263.333
901.7920, 3282.167
902.9210, 3298.352
904.0490, 3217.430
905.1770, 3268.777
906.3040, 3112.829
907.4320, 3107.300
908.5600, 2950.574
909.6870, 2930.559
910.8140, 2819.564
911.9410, 2774.405
913.0680, 2863.599
914.1940, 2774.987
915.3210, 2760.501
916.4470, 2635.559
917.5730, 2727.717
918.6990, 2681.898
919.8250, 2630.104
920.9500, 2586.331
922.0760, 2506.799
923.2010, 2398.195
924.3260, 2355.491
925.4510, 2331.812
926.5760, 2260.954
927.7010, 2136.333
928.8250, 2120.736
929.9500, 1985.165
931.0740, 1755.617
932.1980, 1689.094
933.3220, 1588.594
934.4450, 1504.118
935.5690, 1314.670
936.6920, 1188.247
937.8150, 1127.850
938.9380, 1083.482
940.0610, 1022.145
941.1840, 917.8416
942.3060, 870.5659
943.4290, 848.3236
944.5510, 749.1155
945.6730, 739.9438
946.7950, 646.8118
947.9160, 668.7012
949.0380, 666.6199
950.1590, 648.5607
951.2800, 521.5330
952.4010, 512.5388
953.5220, 561.5752
954.6430, 477.6477
955.7630, 518.7542
956.8840, 475.8906
958.0040, 445.0580
959.1240, 517.2498
960.2440, 405.4641
961.3640, 417.7241
962.4830, 374.0153
963.6030, 352.3373
964.7220, 351.6884
965.8410, 335.5266
966.9600, 332.4868
968.0780, 345.9219
969.1970, 316.3810
970.3150, 342.8759
971.4340, 273.3918
972.5520, 267.9314
973.6700, 307.4923
974.7870, 219.0823
975.9050, 298.7059
977.0220, 251.3499
978.1390, 267.0206
979.2560, 276.7238
980.3730, 199.4467
981.4900, 195.2074
982.6070, 115.9868
983.7230, 220.7874
984.8390, 192.6127
985.9550, 160.4620
987.0710, 192.3438
988.1870, 177.2445
989.3030, 120.1641
990.4180, 132.1044
991.5330, 139.0624
992.6480, 94.03992
993.7630, 108.0364
994.8780, 94.05151
995.9930, 91.08704
997.1070, 49.14612
998.2210, 112.2233
999.3350, 104.3219
1000.449, 57.43823
1001.563, 66.57422
1002.677, 22.72791
1003.790, 26.89832
1004.903, 57.08569
1006.016, 52.28955
1007.129, 54.67761
1008.242, 57.29065
1009.355, 43.00757
1010.467, 37.27954
1011.579, 29.56750
1012.691, 0.1274410
1013.803, 32.19263
1014.915, 15.46692
1016.027, 11.11536
1017.138, 0.7507320
1018.249, 9.628418
1019.360, 10.02283
1020.471, 26.43311
1021.582, 29.85852
1022.693, 33.70129
1023.803, 61.25757
1024.913, 50.82141
1026.023, 1.610962
1027.133, 22.05713
1028.243, 69.48230
1029.353, 35.96631
1030.462, 50.57129
1031.571, 57.11340
1032.680, 5.336914
1033.789, 35.80115
1034.898, 23.97705
1036.007, 33.22986
1037.115, 4.737793
1038.223, 35.23535
1039.331, 69.73328
1040.439, 13.24622
1041.547, 52.75195
1042.655, 56.73425
1043.762, 9.232788
1044.869, 19.25610
1045.976, 26.74084
1047.083, 51.22437
1048.190, 8.716675
1049.297, 21.20178
1050.403, 27.31580
1051.509, 67.84497
1052.615, 28.38562
1053.721, 33.93738
1054.827, 26.49976
1055.933, 6.2500000E-02
1057.038, 31.63367
1058.143, 73.21570
1059.248, 16.15955
1060.353, 67.43555
1061.458, 12.04077
1062.563, 40.65601
1063.667, 20.28125
1064.771, 76.91626
1065.875, 39.56091
1066.979, 48.21497
1068.083, 58.60645
1069.186, 87.27905
1070.290, 75.96069
1071.393, 81.04944
1072.496, 104.4170
1073.599, 50.31555
1074.702, 42.03394
1075.804, 62.97510
1076.907, 56.95605
1078.009, 94.87842
1079.111, 32.73364
1080.213, 131.4868
1081.315, 77.13501
1082.416, 92.90198
1083.517, 132.1664
1084.619, 93.94617
1085.720, 112.6328
1086.821, 98.13123
1087.921, 129.3687
1089.022, 127.9153
1090.122, 138.1760
1091.222, 144.0856
1092.322, 153.8254
1093.422, 148.8663
1094.522, 150.7092
1095.622, 152.5945
1096.721, 152.2516
1097.820, 170.5654
1098.919, 154.4058
1100.018, 191.6875
1101.117, 179.5352
1102.215, 187.2974
1103.314, 230.9744
1104.412, 185.7338
1105.510, 192.0405
1106.608, 177.8555
1107.705, 196.4761
1108.803, 167.5608
1109.900, 159.5349
1110.997, 197.3986
1112.094, 215.4692
1113.191, 202.4320
1114.288, 165.2977
1115.384, 182.7135
1116.481, 247.0109
1117.577, 191.8806
1118.673, 211.2013
1119.769, 179.0670
1120.864, 234.0686
1121.960, 228.5232
1123.055, 269.3866
1124.150, 229.5991
1125.245, 250.7059
1126.340, 265.7512
1127.434, 281.2126
1128.529, 252.4514
1129.623, 296.4387
1130.717, 276.2893
1131.811, 291.2593
1132.905, 239.6532
1133.999, 283.6685
1135.092, 347.5201
1136.185, 307.3612
1137.279, 300.1995
1138.371, 314.6014
1139.464, 281.4338
1140.557, 279.2874
1141.649, 275.9601
1142.742, 307.9355
1143.834, 272.9563
1144.926, 283.7465
1146.017, 293.5851
1147.109, 286.9916
1148.200, 251.7241
1149.292, 253.4858
1150.383, 279.2810
1151.474, 225.2322
1152.564, 237.0187
1153.655, 266.8008
1154.745, 219.3788
1155.835, 212.6914
1156.925, 245.4644
1158.015, 196.2167
1159.105, 229.9753
1160.195, 200.7826
1161.284, 157.5315
1162.373, 204.2178
1163.462, 176.6766
1164.551, 196.4467
1165.640, 174.1763
1166.728, 118.9008
1167.817, 178.2914
1168.905, 121.8042
1169.993, 122.0652
1171.081, 136.6364
1172.168, 155.8060
1173.256, 75.18787
1174.343, 94.87610
1175.430, 135.5591
1176.517, 47.42590
1177.604, 86.95569
1178.691, 148.3121
1179.777, 69.56653
1180.864, 97.29529
1181.950, 26.94556
1183.036, 52.59033
1184.121, 82.22913
1185.207, 49.86230
1186.293, 39.27148
1187.378, 68.76672
1188.463, 58.38220
1189.548, 23.99158
1190.633, 80.80554
1191.717, 43.40210
1192.802, 29.99219
1193.886, 42.57593
1194.970, 36.15344
1196.054, 53.72424
1197.138, 32.28857
1198.221, 1.846191
1199.305, 33.38965
1200.388, 46.92651
1201.471, 10.45642
1202.554, 3.975098
1203.637, 4.519531
1204.719, 33.96753
1205.801, 4.552734
1206.884, 17.90857
1207.966, 3.640137
1209.048, 18.20703
1210.129, 59.19983
1211.211, 1.599243
1212.292, 37.98267
1213.373, 23.64172
1214.454, 39.70435
1215.535, 2.042603
1216.616, 6.364380
1217.696, 6.328247
1218.777, 11.04187
1219.857, 4.779053
1220.937, 36.46338
1222.017, 33.69727
1223.096, 34.07764
1224.176, 1.111206
1225.255, 36.28247
1226.334, 11.55530
1227.413, 15.58252
1228.492, 52.70764
1229.570, 5.175659
1230.649, 1.919556
1231.727, 3.980469
1232.805, 21.07642
1233.883, 4.121216
1234.961, 18.14905
1236.038, 3.164307
1237.116, 25.83789
1238.193, 29.12732
1239.270, 36.08179
1240.347, 56.02625
1241.424, 30.96204
1242.500, 15.11279
1243.577, 68.78516
1244.653, 15.67444
1245.729, 4.450195
1246.805, 50.40369
1247.880, 20.75134
1248.956, 63.06360
1250.031, 36.86963
1251.106, 14.66553
1252.181, 78.44714
1253.256, 25.22009
1254.331, 30.98096
1255.405, 34.73071
1256.480, 14.46985
1257.554, 3.803223
1258.628, 38.90063
1259.701, 2.594360
1260.775, 40.27075
1261.849, 16.93713
1262.922, 36.59009
1263.995, 52.23364
1265.068, 59.86829
1266.141, 76.49438
1267.213, 16.11157
1268.286, 65.71521
1269.358, 50.31030
1270.430, 57.89648
1271.502, 77.47412
1272.573, 35.04309
1273.645, 72.60168
1274.716, 1.152100
1275.788, 51.68494
1276.859, 34.21130
1277.929, 92.72900
1279.000, 61.23865
1280.071, 38.74011
1281.141, 93.23193
1282.211, 55.71484
1283.281, 61.18896
1284.351, 90.65979
1285.421, 90.13293
1286.490, 62.60620
1287.559, 84.07007
1288.628, 58.52490
1289.697, 76.98389
1290.766, 104.4338
1291.835, 43.88403
1292.903, 51.33533
1293.972, 88.77722
1295.040, 137.2100
1296.108, 134.6335
1297.175, 110.0540
1298.243, 91.46619
1299.310, 100.8760
