##NAMES=Fayalite
##RRUFFID=R070374
##IDEAL CHEMISTRY=Fe^2+^_2_SiO_4_
##LOCALITY=Little Lake, Lake County, California, USA
##OWNER=RRUFF
##SOURCE=Michael Scott
##DESCRIPTION=Large dark brown crystal fragment
##STATUS=The identification of this mineral has been confirmed by X-ray diffraction and chemical analysis
##URL=rruff.info/R070374
##MEASURED CHEMISTRY=(Fe^2+^_1.89_Mn^2+^_0.11_)_Î£=2_Si_1.00_O_4_ ; trace amounts of Mg
##PIN_ID=M01315
##ORIENTATION=Laser parallel to c* (0 0 1). Fiducial mark perpendicular to laser is parallel to a [1 0 0]
74.56200, 0.0000000E+00
75.80300, 403.3965
77.04300, 300.0488
78.28300, 327.4863
79.52300, 459.4863
80.76300, 290.0449
82.00300, 487.1973
83.24300, 814.9160
84.48300, 393.4492
85.72200, 522.4980
86.96100, 48.83398
88.20000, 125.5195
89.43900, 622.0332
90.67800, 312.3848
91.91600, 482.5234
93.15500, 573.1211
94.39300, 501.5742
95.63100, 21.62109
96.86900, 733.8164
98.10600, 952.1914
99.34400, 146.6016
100.5810, 84.52930
101.8190, 829.8789
103.0560, 268.0059
104.2930, 207.0078
105.5290, 321.0566
106.7660, 1057.918
108.0020, 1386.725
109.2390, 1481.000
110.4750, 1246.949
111.7110, 1012.930
112.9460, 788.5430
114.1820, 1099.953
115.4170, 1292.082
116.6530, 1021.742
117.8880, 292.3105
119.1230, 597.0391
120.3580, 317.1357
121.5920, 509.7861
122.8270, 433.7852
124.0610, 769.1514
125.2950, 463.3975
126.5290, 479.9756
127.7630, 894.1260
128.9970, 626.7578
130.2300, 617.1406
131.4640, 218.9512
132.6970, 364.0312
133.9300, 0.6220700
135.1630, 105.9785
136.3950, 96.65918
137.6280, 211.2090
138.8600, 99.57520
140.0920, 101.3779
141.3240, 231.4092
142.5560, 323.2354
143.7880, 464.5654
145.0190, 632.2559
146.2510, 809.9229
147.4820, 1212.256
148.7130, 2168.382
149.9440, 2505.289
151.1750, 3685.197
152.4050, 4896.492
153.6360, 5304.450
154.8660, 5437.833
156.0960, 6029.079
157.3260, 4703.520
158.5560, 2931.355
159.7850, 2052.656
161.0150, 2031.612
162.2440, 1069.782
163.4730, 1308.277
164.7020, 1448.897
165.9310, 922.4785
167.1590, 781.7354
168.3880, 880.2432
169.6160, 809.7686
170.8440, 801.4795
172.0720, 1242.029
173.3000, 721.0156
174.5280, 946.4434
175.7550, 776.3672
176.9820, 278.1465
178.2100, 542.0996
179.4370, 1073.571
180.6630, 1131.956
181.8900, 685.7773
183.1170, 959.3652
184.3430, 698.7578
185.5690, 1235.000
186.7950, 1434.125
188.0210, 1333.156
189.2470, 1268.758
190.4720, 1061.377
191.6970, 1195.816
192.9230, 1523.051
194.1480, 1792.093
195.3730, 1852.904
196.5970, 1805.486
197.8220, 1472.903
199.0460, 1280.631
200.2700, 909.5029
201.4940, 716.2314
202.7180, 465.4629
203.9420, 273.4170
205.1660, 128.9844
206.3890, 117.3438
207.6120, 25.94043
208.8350, 317.9219
210.0580, 185.8389
211.2810, 197.6191
212.5040, 174.9658
213.7260, 45.72363
214.9480, 426.6279
216.1700, 213.9619
217.3920, 149.2178
218.6140, 396.7031
219.8360, 152.4736
221.0570, 450.0625
222.2790, 201.7412
223.5000, 23.73926
224.7210, 229.4775
225.9410, 132.8896
227.1620, 122.1504
228.3820, 301.3301
229.6030, 177.9746
230.8230, 212.3018
232.0430, 304.0693
233.2630, 320.7969
234.4820, 538.1230
235.7020, 562.8311
236.9210, 475.0098
238.1400, 769.8926
239.3590, 544.1758
240.5780, 622.2656
241.7970, 592.4736
243.0150, 329.3027
244.2340, 285.2773
245.4520, 232.5049
246.6700, 166.3096
247.8880, 346.3613
249.1060, 251.4307
250.3230, 235.0781
251.5400, 457.4053
252.7580, 415.9609
253.9750, 273.3232
255.1920, 510.4346
256.4080, 417.0859
257.6250, 629.3496
258.8410, 341.5459
260.0580, 133.8848
261.2740, 307.8496
262.4900, 285.3604
263.7050, 238.1230
264.9210, 389.9043
266.1360, 497.0020
267.3520, 397.5664
268.5670, 360.3516
269.7820, 537.7666
270.9960, 491.1172
272.2110, 371.9082
273.4250, 143.5273
274.6400, 229.4346
275.8540, 649.1543
277.0680, 893.3525
278.2810, 942.9434
279.4950, 1201.293
280.7090, 1040.159
281.9220, 1387.200
283.1350, 1282.493
284.3480, 1213.877
285.5610, 1158.678
286.7730, 1380.734
287.9860, 1729.129
289.1980, 1715.643
290.4100, 1800.789
291.6220, 2096.823
292.8340, 1908.441
294.0460, 1763.854
295.2570, 2005.985
296.4690, 1610.617
297.6800, 1476.680
298.8910, 1350.209
300.1020, 1239.584
301.3120, 1097.767
302.5230, 1340.982
303.7330, 1550.188
304.9440, 1426.868
306.1540, 1596.041
307.3630, 1617.677
308.5730, 1907.545
309.7830, 1813.653
310.9920, 2023.333
312.2010, 1825.669
313.4100, 1701.386
314.6190, 1751.911
315.8280, 1622.353
317.0370, 1389.291
318.2450, 1409.890
319.4530, 1181.185
320.6610, 1014.418
321.8690, 1038.764
323.0770, 797.6421
324.2850, 740.1143
325.4920, 923.3325
326.6990, 474.6392
327.9060, 794.9331
329.1130, 823.3755
330.3200, 425.8311
331.5270, 449.0952
332.7330, 525.7939
333.9390, 562.9536
335.1450, 484.4404
336.3510, 556.1445
337.5570, 513.5054
338.7630, 422.6626
339.9680, 492.7681
341.1740, 454.1260
342.3790, 482.2476
343.5840, 479.5352
344.7890, 490.9038
345.9930, 612.1182
347.1980, 661.8613
348.4020, 678.2637
349.6060, 507.2505
350.8100, 641.6914
352.0140, 665.6558
353.2180, 974.8057
354.4210, 836.5601
355.6250, 966.3711
356.8280, 1091.232
358.0310, 1174.731
359.2340, 1389.849
360.4360, 1530.525
361.6390, 1572.275
362.8410, 1821.922
364.0430, 1879.007
365.2450, 1855.795
366.4470, 1996.309
367.6490, 2139.393
368.8510, 2302.351
370.0520, 2469.248
371.2530, 2295.928
372.4540, 2585.086
373.6550, 2524.963
374.8560, 2609.448
376.0560, 2400.183
377.2570, 2554.520
378.4570, 2591.820
379.6570, 2740.443
380.8570, 2762.029
382.0570, 2725.777
383.2560, 2731.839
384.4560, 2566.501
385.6550, 2588.880
386.8540, 2472.018
388.0530, 2346.475
389.2520, 2369.539
390.4510, 2161.986
391.6490, 1876.818
392.8470, 1891.281
394.0450, 1584.281
395.2430, 1423.022
396.4410, 1299.322
397.6390, 1247.325
398.8360, 976.0137
400.0340, 890.1416
401.2310, 909.7388
402.4280, 584.0859
403.6250, 718.8257
404.8210, 553.5073
406.0180, 438.7119
407.2140, 358.5967
408.4100, 353.9497
409.6060, 403.4668
410.8020, 279.3228
411.9980, 215.6367
413.1930, 361.5361
414.3890, 166.1758
415.5840, 47.51709
416.7790, 106.0884
417.9740, 135.5605
419.1680, 71.72266
420.3630, 115.1436
421.5570, 38.45605
422.7510, 67.77783
423.9450, 60.22559
425.1390, 115.8359
426.3330, 206.4678
427.5270, 261.8613
428.7200, 213.9521
429.9130, 313.6885
431.1060, 214.8926
432.2990, 155.9805
433.4920, 212.9604
434.6840, 152.8320
435.8770, 67.59033
437.0690, 97.21826
438.2610, 20.27393
439.4530, 46.90967
440.6450, 213.3032
441.8360, 281.3862
443.0280, 260.3418
444.2190, 253.1152
445.4100, 194.1846
446.6010, 148.7603
447.7920, 226.2070
448.9820, 293.5293
450.1730, 364.7285
451.3630, 279.8081
452.5530, 172.0469
453.7430, 127.8911
454.9330, 116.9170
456.1230, 79.35791
457.3120, 171.6533
458.5010, 71.32959
459.6910, 140.0420
460.8800, 140.0254
462.0680, 129.2705
463.2570, 83.12793
464.4460, 61.28809
465.6340, 68.60400
466.8220, 7.670410
468.0100, 34.85156
469.1980, 74.15186
470.3860, 76.79199
471.5730, 45.73242
472.7600, 45.64990
473.9480, 62.04541
475.1350, 124.5981
476.3210, 124.8296
477.5080, 189.0913
478.6950, 136.9546
479.8810, 151.9512
481.0670, 57.06250
482.2530, 104.8423
483.4390, 10.51025
484.6250, 65.30420
485.8100, 201.7759
486.9960, 3.450195
488.1810, 29.62451
489.3660, 222.9170
490.5510, 229.3711
491.7360, 151.5693
492.9200, 293.3555
494.1050, 333.3208
495.2890, 443.6841
496.4730, 441.8125
497.6570, 529.6699
498.8400, 573.7847
500.0240, 665.8481
501.2070, 721.6880
502.3910, 786.5312
503.5740, 841.7852
504.7570, 954.2534
505.9400, 899.7104
507.1220, 1053.441
508.3050, 1018.991
509.4870, 796.8911
510.6690, 686.9243
511.8510, 730.9746
513.0330, 663.3687
514.2140, 577.2358
515.3960, 618.1768
516.5770, 549.0752
517.7580, 493.7476
518.9390, 492.5259
520.1200, 608.5107
521.3010, 537.3257
522.4810, 521.3882
523.6610, 494.8296
524.8420, 476.6606
526.0220, 438.0776
527.2010, 438.3291
528.3810, 425.5596
529.5610, 440.1729
530.7400, 407.3799
531.9190, 412.7563
533.0980, 370.6904
534.2770, 342.8154
535.4560, 497.7026
536.6340, 524.5088
537.8120, 507.1797
538.9910, 501.1758
540.1690, 541.1890
541.3460, 557.9277
542.5240, 619.5981
543.7020, 610.7168
544.8790, 649.0713
546.0560, 628.2666
547.2330, 595.0469
548.4100, 689.0488
549.5870, 784.3350
550.7630, 670.8696
551.9400, 770.0938
553.1160, 821.7734
554.2920, 933.9570
555.4680, 836.8535
556.6440, 833.9761
557.8190, 947.1958
558.9950, 1039.313
560.1700, 1216.791
561.3450, 1115.323
562.5200, 1178.893
563.6950, 1117.220
564.8690, 1047.023
566.0440, 1099.109
567.2180, 1114.843
568.3920, 1043.962
569.5660, 1053.904
570.7400, 992.4619
571.9130, 932.7241
573.0870, 890.2021
574.2600, 819.6973
575.4330, 774.3701
576.6060, 753.8940
577.7790, 707.3760
578.9520, 806.6396
580.1240, 693.3613
581.2960, 668.0635
582.4690, 539.8071
583.6410, 574.6421
584.8120, 621.5400
585.9840, 546.4834
587.1560, 456.9360
588.3270, 490.3633
589.4980, 451.9536
590.6690, 463.5137
591.8400, 438.9800
593.0110, 307.7822
594.1810, 386.6523
595.3510, 295.2871
596.5220, 275.8228
597.6920, 301.2559
598.8610, 290.9160
600.0310, 253.3369
601.2010, 159.7607
602.3700, 67.12939
603.5390, 120.3945
604.7080, 232.4111
605.8770, 151.3696
607.0460, 169.2261
608.2140, 64.63379
609.3830, 0.3920900
610.5510, 26.11963
611.7190, 11.81445
612.8870, 92.32910
614.0550, 125.5640
615.2220, 157.0610
616.3900, 28.21680
617.5570, 49.43799
618.7240, 41.31934
619.8910, 1.057617
621.0580, 112.5786
622.2240, 18.22070
623.3910, 8.123047
624.5570, 26.97070
625.7230, 63.97998
626.8890, 109.5864
628.0550, 82.25391
629.2200, 30.65820
630.3860, 54.89844
631.5510, 3.557129
632.7160, 21.61328
633.8810, 99.33984
635.0460, 36.19678
636.2100, 0.4765630
637.3750, 31.69580
638.5390, 13.14014
639.7030, 47.33301
640.8670, 31.03516
642.0310, 14.34424
643.1950, 15.40674
644.3580, 16.77100
645.5210, 62.89014
646.6850, 10.04834
647.8480, 33.94385
649.0100, 2.877930
650.1730, 1.250000
651.3350, 2.442871
652.4980, 79.70020
653.6600, 37.05908
654.8220, 99.50195
655.9840, 91.00732
657.1450, 18.54102
658.3070, 84.84033
659.4680, 17.16650
660.6300, 39.43701
661.7910, 48.34814
662.9510, 56.21680
664.1120, 47.17285
665.2730, 42.75879
666.4330, 20.48682
667.5930, 38.90723
668.7530, 35.76221
669.9130, 27.37061
671.0730, 12.20020
672.2320, 23.80615
673.3920, 28.65430
674.5510, 32.31299
675.7100, 7.246094
676.8690, 50.13428
678.0280, 13.53516
679.1860, 24.73291
680.3450, 39.04883
681.5030, 13.09570
682.6610, 92.19043
683.8190, 40.23779
684.9770, 6.241699
686.1340, 0.8051760
687.2920, 14.90137
688.4490, 21.94824
689.6060, 33.24170
690.7630, 56.50830
691.9200, 48.21924
693.0760, 89.89404
694.2330, 52.53467
695.3890, 28.13770
696.5450, 13.29395
697.7010, 3.238281
698.8570, 115.7329
700.0130, 28.19775
701.1680, 48.63086
702.3230, 15.03174
703.4780, 0.4013670
704.6330, 63.73584
705.7880, 3.040527
706.9430, 17.68994
708.0970, 13.53516
709.2520, 46.27393
710.4060, 16.14062
711.5600, 29.94678
712.7140, 31.99609
713.8670, 38.98779
715.0210, 38.92969
716.1740, 56.87158
717.3270, 41.25000
718.4800, 41.57812
719.6330, 76.38330
720.7860, 77.17188
721.9380, 107.9331
723.0910, 56.66895
724.2430, 23.37695
725.3950, 67.05713
726.5470, 12.71143
727.6980, 36.34131
728.8500, 95.94434
730.0010, 72.52246
731.1530, 110.0737
732.3040, 120.3281
733.4550, 144.8350
734.6050, 112.0132
735.7560, 62.09912
736.9060, 107.2803
738.0560, 27.40674
739.2060, 97.52881
740.3560, 106.6597
741.5060, 201.0796
742.6560, 161.4517
743.8050, 178.2832
744.9540, 175.7832
746.1030, 70.35010
747.2520, 146.4741
748.4010, 236.0596
749.5500, 156.0146
750.6980, 156.9038
751.8460, 250.1240
752.9950, 248.4873
754.1420, 255.4927
755.2900, 293.7900
756.4380, 216.0229
757.5850, 289.0132
758.7330, 234.4346
759.8800, 142.7134
761.0270, 226.1982
762.1730, 330.9756
763.3200, 238.9585
764.4670, 284.0356
765.6130, 282.2983
766.7590, 302.4487
767.9050, 340.2822
769.0510, 372.3174
770.1960, 393.5962
771.3420, 419.2305
772.4870, 425.6318
773.6320, 450.0898
774.7770, 474.1016
775.9220, 476.0205
777.0670, 510.8633
778.2110, 440.6250
779.3560, 530.5273
780.5000, 550.3525
781.6440, 607.8740
782.7880, 753.6973
783.9320, 669.7075
785.0750, 727.4844
786.2180, 861.3628
787.3620, 886.8115
788.5050, 978.0459
789.6480, 1130.211
790.7900, 1325.953
791.9330, 1449.937
793.0750, 1549.342
794.2170, 1809.449
795.3590, 1966.709
796.5010, 2223.788
797.6430, 2521.582
798.7850, 2788.470
799.9260, 3292.041
801.0670, 3965.150
802.2080, 4464.791
803.3490, 5329.709
804.4900, 6332.540
805.6310, 7653.452
806.7710, 9118.353
807.9110, 10690.22
809.0510, 12670.85
810.1910, 14425.86
811.3310, 16557.61
812.4710, 18178.51
813.6100, 19383.44
814.7490, 19745.44
815.8880, 19561.04
817.0270, 19111.95
818.1660, 18054.18
819.3050, 16779.04
820.4430, 15461.25
821.5820, 14395.27
822.7200, 13425.95
823.8580, 12535.33
824.9950, 11987.97
826.1330, 11377.94
827.2710, 10920.61
828.4080, 10686.75
829.5450, 10409.86
830.6820, 9973.159
831.8190, 9833.310
832.9560, 9912.371
834.0920, 9538.216
835.2280, 9504.942
836.3650, 9382.401
837.5010, 9117.506
838.6360, 8989.707
839.7720, 8666.781
840.9080, 8288.452
842.0430, 7959.753
843.1780, 7568.589
844.3130, 6979.363
845.4480, 6622.495
846.5830, 6035.754
847.7170, 5479.677
848.8520, 4943.917
849.9860, 4400.031
851.1200, 4028.798
852.2540, 3688.595
853.3870, 3319.024
854.5210, 2893.746
855.6540, 2646.143
856.7880, 2410.703
857.9210, 2051.280
859.0540, 1869.003
860.1860, 1642.529
861.3190, 1486.932
862.4510, 1322.534
863.5840, 1129.926
864.7160, 1113.434
865.8480, 902.2075
866.9790, 797.9009
868.1110, 765.7163
869.2420, 654.5391
870.3740, 579.3706
871.5050, 573.2109
872.6360, 461.9541
873.7660, 444.8130
874.8970, 414.4497
876.0280, 401.3286
877.1580, 371.2197
878.2880, 357.1240
879.4180, 318.2036
880.5480, 251.9702
881.6770, 251.9116
882.8070, 220.8647
883.9360, 216.8320
885.0650, 198.3311
886.1940, 196.8218
887.3230, 172.8306
888.4520, 185.8594
889.5800, 194.9009
890.7090, 156.1006
891.8370, 49.27783
892.9650, 85.37207
894.0930, 137.8042
895.2200, 215.9307
896.3480, 231.0723
897.4750, 186.2358
898.6020, 179.4155
899.7290, 124.6201
900.8560, 146.4434
901.9830, 242.6919
903.1090, 162.9443
904.2360, 213.2222
905.3620, 172.3936
906.4880, 208.7056
907.6140, 186.0337
908.7400, 175.6851
909.8650, 162.0498
910.9900, 103.4336
912.1160, 162.8989
913.2410, 260.3252
914.3660, 189.7808
915.4900, 241.2524
916.6150, 232.7407
917.7390, 278.2510
918.8640, 299.6816
919.9880, 312.3203
921.1120, 356.8838
922.2350, 426.3286
923.3590, 472.9194
924.4820, 515.3403
925.6060, 548.5718
926.7290, 580.2617
927.8520, 593.9810
928.9740, 596.7153
930.0970, 614.5381
931.2190, 620.0356
932.3420, 628.0264
933.4640, 632.8330
934.5860, 635.6997
935.7080, 635.5674
936.8290, 653.5361
937.9510, 651.1572
939.0720, 645.7793
940.1930, 647.1338
941.3140, 600.1289
942.4350, 566.1494
943.5560, 557.9121
944.6760, 586.2505
945.7960, 529.3379
946.9170, 502.4546
948.0370, 488.5894
949.1560, 443.7480
950.2760, 494.9253
951.3960, 476.8896
952.5150, 536.1230
953.6340, 507.8457
954.7530, 497.1323
955.8720, 497.4448
956.9910, 538.7705
958.1090, 416.3467
959.2280, 517.7217
960.3460, 448.8457
961.4640, 528.2593
962.5820, 339.6992
963.6990, 396.1543
964.8170, 440.6245
965.9340, 384.1201
967.0510, 463.6440
968.1690, 421.1836
969.2850, 338.7559
970.4020, 358.3325
971.5190, 317.9233
972.6350, 427.5293
973.7510, 327.1504
974.8670, 358.7866
975.9830, 286.4414
977.0990, 380.1108
978.2150, 265.7964
979.3300, 267.7549
980.4450, 269.4771
981.5600, 230.2285
982.6750, 298.0024
983.7900, 228.4604
984.9050, 320.7036
986.0190, 359.5405
987.1340, 239.4038
988.2480, 260.2847
989.3620, 278.1909
990.4750, 241.1104
991.5890, 225.0415
992.7020, 176.9858
993.8160, 194.9419
994.9290, 170.5771
996.0420, 278.8931
997.1550, 156.8872
998.2670, 227.8945
999.3800, 230.9150
1000.492, 186.9463
1001.604, 211.9893
1002.716, 146.0435
1003.828, 109.1084
1004.940, 147.1851
1006.051, 179.2734
1007.163, 148.3740
1008.274, 219.4854
1009.385, 71.60791
1010.496, 198.7412
1011.606, 137.8848
1012.717, 75.03906
1013.827, 67.20312
1014.937, 78.37793
1016.047, 37.56250
1017.157, 84.75732
1018.267, 65.96240
1019.377, 117.1772
1020.486, 108.8662
1021.595, 4.653809
1022.704, 95.90820
1023.813, 9.828613
1024.922, 39.55811
1026.030, 23.71191
1027.139, 17.00928
1028.247, 36.34961
1029.355, 48.64258
1030.463, 20.94482
1031.571, 28.25537
1032.678, 60.57471
1033.786, 25.89990
1034.893, 24.76221
1036.000, 77.57715
1037.107, 5.924805
1038.214, 53.71924
1039.321, 103.6274
1040.427, 18.09570
1041.533, 40.04785
1042.639, 25.30859
1043.745, 76.67236
1044.851, 54.50391
1045.957, 130.8560
1047.062, 14.22217
1048.168, 95.59473
1049.273, 11.97363
1050.378, 78.35986
1051.482, 80.78467
1052.587, 35.18262
1053.692, 5.589355
1054.796, 67.75635
1055.900, 16.93848
1057.004, 13.38379
1058.108, 30.01416
1059.212, 41.68994
1060.315, 72.31982
1061.418, 34.74219
1062.522, 133.1655
1063.625, 35.58594
1064.728, 53.07471
1065.830, 5.746582
1066.933, 66.82080
1068.035, 67.91211
1069.137, 0.9506840
1070.239, 44.46533
1071.341, 17.88086
1072.443, 8.687500
1073.545, 17.52100
1074.646, 78.40137
1075.747, 40.19629
1076.848, 90.71484
1077.949, 79.40820
1079.050, 16.61328
1080.150, 3.521973
1081.251, 54.69922
1082.351, 103.6523
1083.451, 53.29248
1084.551, 78.73242
1085.651, 7.304199
1086.750, 103.5444
1087.850, 4.887207
1088.949, 49.29443
1090.048, 21.44775
1091.147, 68.23682
1092.246, 10.36768
1093.345, 45.32715
1094.443, 62.71387
1095.541, 115.2378
1096.639, 19.62305
1097.737, 83.66260
1098.835, 45.25195
1099.933, 11.63379
1101.030, 10.02197
1102.128, 19.39893
1103.225, 93.79639
1104.322, 61.31396
1105.419, 79.78076
1106.515, 45.27881
1107.612, 267.8672
1108.708, 139.8018
1109.804, 171.2007
1110.900, 5.119629
1111.996, 141.6104
1113.092, 70.36865
1114.187, 147.2427
1115.283, 20.38477
1116.378, 33.06152
1117.473, 118.2363
1118.568, 59.97266
1119.662, 68.33887
1120.757, 122.6250
1121.851, 98.90723
1122.946, 131.1846
1124.040, 92.45752
1125.134, 45.84912
1126.227, 155.2017
1127.321, 61.46045
1128.414, 80.71436
1129.508, 79.04248
1130.601, 206.3252
1131.693, 146.5635
1132.786, 165.7959
1133.879, 147.0742
1134.971, 130.2959
1136.064, 174.5903
1137.156, 180.1431
1138.248, 192.4487
1139.339, 117.6479
1140.431, 146.8408
1141.522, 198.0283
1142.614, 49.20947
1143.705, 95.38477
1144.796, 89.55273
1145.887, 185.7271
1146.977, 186.8828
1148.068, 97.13379
1149.158, 195.2769
1150.248, 206.4126
1151.338, 136.6196
1152.428, 107.7690
1153.518, 183.1494
1154.607, 156.2573
1155.696, 101.2134
1156.785, 169.2153
1157.874, 123.3013
1158.963, 27.05713
1160.052, 144.1279
1161.141, 171.1909
1162.229, 113.2466
1163.317, 110.2944
1164.405, 3.334473
1165.493, 135.8516
1166.581, 98.25635
1167.668, 44.26367
1168.756, 149.2632
1169.843, 57.37646
1170.930, 28.35986
1172.017, 4.666504
1173.103, 38.98486
1174.190, 78.92920
1175.276, 20.13477
1176.363, 49.81445
1177.449, 42.71240
1178.535, 113.6489
1179.620, 85.53076
1180.706, 101.4043
1181.791, 36.26904
1182.877, 43.12549
1183.962, 42.97314
1185.047, 23.81201
1186.131, 18.77637
1187.216, 2.406738
1188.300, 2.022949
1189.385, 20.80127
1190.469, 23.56836
1191.553, 43.32471
1192.637, 45.07227
1193.720, 77.81104
1194.804, 36.54102
1195.887, 24.26123
1196.970, 57.97021
1198.053, 35.37402
1199.136, 25.71094
1200.219, 79.86182
1201.301, 23.48340
1202.383, 28.37451
1203.465, 15.97412
1204.547, 21.43945
1205.629, 18.11719
1206.711, 34.66113
1207.792, 23.19531
1208.874, 6.717285
1209.955, 15.22314
1211.036, 7.715820
1212.117, 14.19238
1213.198, 7.345215
1214.278, 24.66357
1215.359, 7.675293
1216.439, 14.76709
1217.519, 13.95508
1218.599, 77.38818
1219.678, 3.724121
1220.758, 20.18604
1221.837, 103.1040
1222.917, 19.65820
1223.996, 84.92676
1225.075, 30.18750
1226.153, 60.43701
1227.232, 26.32227
1228.310, 35.11328
1229.389, 77.05859
1230.467, 54.22168
1231.545, 73.36377
1232.622, 51.50781
1233.700, 30.64355
1234.777, 36.53955
1235.855, 32.71338
1236.932, 25.98828
1238.009, 49.08154
1239.086, 40.16602
1240.162, 45.24072
1241.239, 32.05420
1242.315, 16.10889
1243.391, 11.15088
1244.467, 52.17920
1245.543, 79.52832
1246.619, 132.1064
1247.694, 11.10840
1248.769, 3.902832
1249.844, 74.06689
1250.919, 91.02881
1251.994, 87.98145
1253.069, 56.92578
1254.144, 30.86133
1255.218, 35.78711
1256.292, 58.70361
1257.366, 118.6133
