##NAMES=Fayalite
##RRUFFID=R070374
##IDEAL CHEMISTRY=Fe^2+^_2_SiO_4_
##LOCALITY=Little Lake, Lake County, California, USA
##OWNER=RRUFF
##SOURCE=Michael Scott
##DESCRIPTION=Large dark brown crystal fragment
##STATUS=The identification of this mineral has been confirmed by X-ray diffraction and chemical analysis
##URL=rruff.info/R070374
##MEASURED CHEMISTRY=(Fe^2+^_1.89_Mn^2+^_0.11_)_Î£=2_Si_1.00_O_4_ ; trace amounts of Mg
##PIN_ID=M01107
##ORIENTATION=Laser parallel to b* (0 1 0). Fiducial mark perpendicular to laser is parallel to c [0 0 1]
78.28300, 0.0000000E+00
79.52300, 215.9131
80.76300, 278.0420
82.00300, 1018.405
83.24300, 1234.534
84.48300, 523.0498
85.72200, 22.40625
86.96100, 127.1543
88.20000, 281.6104
89.43900, 214.4971
90.67800, 336.2002
91.91600, 674.1807
93.15500, 423.4092
94.39300, 519.6104
95.63100, 380.3320
96.86900, 233.0195
98.10600, 198.0889
99.34400, 199.5059
100.5810, 174.0576
101.8190, 337.4453
103.0560, 121.6182
104.2930, 465.3574
105.5290, 590.3174
106.7660, 805.9688
108.0020, 534.1934
109.2390, 788.3486
110.4750, 612.3555
111.7110, 586.7441
112.9460, 697.7393
114.1820, 872.2373
115.4170, 823.7441
116.6530, 839.9678
117.8880, 572.8105
119.1230, 613.2383
120.3580, 442.1660
121.5920, 378.4707
122.8270, 265.0635
124.0610, 178.8535
125.2950, 169.0107
126.5290, 80.32422
127.7630, 380.6631
128.9970, 448.9385
130.2300, 426.3027
131.4640, 289.5840
132.6970, 118.1582
133.9300, 313.6650
135.1630, 31.81152
136.3950, 223.9287
137.6280, 169.3936
138.8600, 569.4229
140.0920, 478.7256
141.3240, 319.2061
142.5560, 289.7617
143.7880, 242.1016
145.0190, 109.2412
146.2510, 239.1240
147.4820, 109.9102
148.7130, 258.4746
149.9440, 374.3711
151.1750, 444.6597
152.4050, 430.8774
153.6360, 346.7158
154.8660, 550.4526
156.0960, 395.1338
157.3260, 538.7212
158.5560, 281.0366
159.7850, 104.2681
161.0150, 278.3477
162.2440, 374.7217
163.4730, 579.9990
164.7020, 441.2935
165.9310, 466.4507
167.1590, 492.9946
168.3880, 495.1016
169.6160, 368.2070
170.8440, 588.1689
172.0720, 258.2407
173.3000, 394.6455
174.5280, 308.1245
175.7550, 449.5532
176.9820, 358.9180
178.2100, 403.2471
179.4370, 185.5142
180.6630, 458.7046
181.8900, 304.8052
183.1170, 432.8530
184.3430, 312.8350
185.5690, 364.7241
186.7950, 283.5024
188.0210, 325.1792
189.2470, 475.7651
190.4720, 478.2593
191.6970, 546.6631
192.9230, 273.9438
194.1480, 422.1201
195.3730, 658.2275
196.5970, 371.2622
197.8220, 511.2847
199.0460, 591.6987
200.2700, 422.3213
201.4940, 493.6177
202.7180, 186.0317
203.9420, 19.54150
205.1660, 22.17041
206.3890, 35.30371
207.6120, 51.96680
208.8350, 44.52686
210.0580, 69.86621
211.2810, 6.728027
212.5040, 29.33545
213.7260, 78.71289
214.9480, 100.9165
216.1700, 155.9189
217.3920, 170.7163
218.6140, 41.73682
219.8360, 51.39355
221.0570, 190.1943
222.2790, 12.84863
223.5000, 44.38086
224.7210, 51.15527
225.9410, 44.34766
227.1620, 152.8843
228.3820, 164.6987
229.6030, 7.495605
230.8230, 26.04346
232.0430, 6.640137
233.2630, 132.5386
234.4820, 22.16943
235.7020, 49.58887
236.9210, 157.6113
238.1400, 280.6626
239.3590, 321.5029
240.5780, 201.1255
241.7970, 212.5312
243.0150, 149.7183
244.2340, 160.2720
245.4520, 72.00977
246.6700, 185.2129
247.8880, 205.0371
249.1060, 156.0400
250.3230, 220.0420
251.5400, 180.5728
252.7580, 264.8477
253.9750, 133.8579
255.1920, 197.6304
256.4080, 270.2256
257.6250, 343.6123
258.8410, 334.7524
260.0580, 408.6416
261.2740, 382.3140
262.4900, 515.7803
263.7050, 518.0474
264.9210, 501.4053
266.1360, 609.2109
267.3520, 654.8853
268.5670, 764.3701
269.7820, 724.1807
270.9960, 869.7207
272.2110, 823.8940
273.4250, 1087.274
274.6400, 1226.113
275.8540, 1364.150
277.0680, 1586.951
278.2810, 1940.868
279.4950, 2109.655
280.7090, 2240.827
281.9220, 2598.269
283.1350, 2770.151
284.3480, 3024.950
285.5610, 3191.334
286.7730, 3237.251
287.9860, 3568.411
289.1980, 3403.125
290.4100, 3492.453
291.6220, 3273.120
292.8340, 3170.725
294.0460, 2889.995
295.2570, 2500.746
296.4690, 2190.143
297.6800, 2041.994
298.8910, 1900.227
300.1020, 1626.913
301.3120, 1425.162
302.5230, 1288.724
303.7330, 1238.596
304.9440, 1203.205
306.1540, 1031.704
307.3630, 1087.932
308.5730, 1014.161
309.7830, 882.6377
310.9920, 785.6831
312.2010, 842.8765
313.4100, 773.5576
314.6190, 666.4375
315.8280, 661.3877
317.0370, 540.4624
318.2450, 489.9922
319.4530, 386.2617
320.6610, 566.7939
321.8690, 508.9868
323.0770, 477.0225
324.2850, 359.8481
325.4920, 361.7393
326.6990, 309.3374
327.9060, 346.8984
329.1130, 282.5259
330.3200, 303.0962
331.5270, 357.5659
332.7330, 416.2900
333.9390, 460.1938
335.1450, 535.5190
336.3510, 437.5869
337.5570, 471.0469
338.7630, 486.3867
339.9680, 564.1582
341.1740, 485.0508
342.3790, 427.6689
343.5840, 584.7998
344.7890, 454.0376
345.9930, 463.2578
347.1980, 662.0039
348.4020, 620.9673
349.6060, 673.6807
350.8100, 669.6963
352.0140, 801.4727
353.2180, 855.2720
354.4210, 838.0835
355.6250, 960.4448
356.8280, 1160.508
358.0310, 1223.260
359.2340, 1305.891
360.4360, 1282.905
361.6390, 1433.378
362.8410, 1580.096
364.0430, 1789.843
365.2450, 1748.943
366.4470, 1795.452
367.6490, 1821.496
368.8510, 1734.897
370.0520, 1929.818
371.2530, 1898.296
372.4540, 1886.256
373.6550, 1747.394
374.8560, 1721.692
376.0560, 1658.332
377.2570, 1522.337
378.4570, 1501.506
379.6570, 1314.605
380.8570, 1262.744
382.0570, 1219.060
383.2560, 1116.384
384.4560, 1089.664
385.6550, 984.0913
386.8540, 898.5654
388.0530, 861.7754
389.2520, 860.2427
390.4510, 802.9414
391.6490, 791.5381
392.8470, 841.8267
394.0450, 762.3286
395.2430, 625.2959
396.4410, 718.8584
397.6390, 633.0386
398.8360, 597.0571
400.0340, 571.5508
401.2310, 610.5400
402.4280, 559.7666
403.6250, 548.3467
404.8210, 568.2534
406.0180, 466.4414
407.2140, 410.1235
408.4100, 318.7515
409.6060, 406.2446
410.8020, 365.1270
411.9980, 314.1401
413.1930, 310.2808
414.3890, 237.3623
415.5840, 258.3838
416.7790, 217.7559
417.9740, 219.2573
419.1680, 189.1045
420.3630, 178.8906
421.5570, 210.6138
422.7510, 195.2798
423.9450, 90.89307
425.1390, 197.4453
426.3330, 233.9507
427.5270, 139.4028
428.7200, 89.80078
429.9130, 141.1382
431.1060, 108.4155
432.2990, 108.6377
433.4920, 79.80469
434.6840, 99.91895
435.8770, 83.98730
437.0690, 81.00586
438.2610, 1.020020
439.4530, 69.90039
440.6450, 3.228027
441.8360, 61.58936
443.0280, 78.35840
444.2190, 36.91895
445.4100, 23.73730
446.6010, 27.34668
447.7920, 1.091797
448.9820, 27.57471
450.1730, 24.10107
451.3630, 52.67725
452.5530, 23.31982
453.7430, 48.60596
454.9330, 7.777832
456.1230, 76.58252
457.3120, 65.46436
458.5010, 76.82471
459.6910, 2.537598
460.8800, 32.04492
462.0680, 4.880859
463.2570, 20.81396
464.4460, 27.75342
465.6340, 34.59229
466.8220, 10.96631
468.0100, 4.861816
469.1980, 71.32617
470.3860, 67.55176
471.5730, 18.93555
472.7600, 134.0205
473.9480, 33.80615
475.1350, 7.568359
476.3210, 16.16943
477.5080, 49.93457
478.6950, 97.98828
479.8810, 56.63232
481.0670, 6.395996
482.2530, 65.20166
483.4390, 17.95312
484.6250, 20.05469
485.8100, 21.53711
486.9960, 59.65088
488.1810, 116.1909
489.3660, 44.74902
490.5510, 37.92041
491.7360, 138.0664
492.9200, 73.20264
494.1050, 58.32617
495.2890, 53.45117
496.4730, 127.5615
497.6570, 83.67725
498.8400, 134.8066
500.0240, 98.93311
501.2070, 157.0620
502.3910, 139.1782
503.5740, 181.2793
504.7570, 141.3638
505.9400, 111.4312
507.1220, 114.5049
508.3050, 79.58887
509.4870, 92.87891
510.6690, 130.8403
511.8510, 131.9722
513.0330, 181.0933
514.2140, 238.2075
515.3960, 129.3066
516.5770, 127.3911
517.7580, 167.4766
518.9390, 211.5581
520.1200, 147.6431
521.3010, 125.7637
522.4810, 182.8906
523.6610, 226.0327
524.8420, 127.1631
526.0220, 219.2778
527.2010, 164.3774
528.3810, 145.4648
529.5610, 262.5396
530.7400, 186.6055
531.9190, 231.6616
533.0980, 352.7134
534.2770, 226.7559
535.4560, 263.7881
536.6340, 401.8125
537.8120, 471.8262
538.9910, 364.8315
540.1690, 447.8267
541.3460, 470.8154
542.5240, 525.7964
543.7020, 508.7661
544.8790, 578.7256
546.0560, 646.6743
547.2330, 662.6113
548.4100, 789.5381
549.5870, 874.4507
550.7630, 952.0596
551.9400, 1017.948
553.1160, 985.7441
554.2920, 1066.325
555.4680, 1095.884
556.6440, 1175.134
557.8190, 1235.467
558.9950, 1302.627
560.1700, 1299.789
561.3450, 1460.822
562.5200, 1398.810
563.6950, 1462.926
564.8690, 1439.977
566.0440, 1379.589
567.2180, 1291.645
568.3920, 1324.851
569.5660, 1166.660
570.7400, 1184.261
571.9130, 1098.074
573.0870, 1036.751
574.2600, 994.4282
575.4330, 986.9844
576.6060, 878.6245
577.7790, 946.1982
578.9520, 852.7598
580.1240, 882.9111
581.2960, 844.4272
582.4690, 788.5195
583.6410, 742.0034
584.8120, 753.5586
585.9840, 688.1968
587.1560, 757.5278
588.3270, 693.8760
589.4980, 719.0459
590.6690, 611.2407
591.8400, 602.6543
593.0110, 599.5361
594.1810, 593.0459
595.3510, 631.2954
596.5220, 525.9653
597.6920, 571.5439
598.8610, 556.9170
600.0310, 602.5776
601.2010, 579.0366
602.3700, 642.3442
603.5390, 610.6138
604.7080, 612.6055
605.8770, 606.7842
607.0460, 581.0542
608.2140, 543.1074
609.3830, 579.4575
610.5510, 526.6987
611.7190, 455.5283
612.8870, 577.9888
614.0550, 544.6538
615.2220, 487.7456
616.3900, 508.3413
617.5570, 509.3271
618.7240, 515.1475
619.8910, 541.6973
621.0580, 588.0469
622.2240, 525.7466
623.3910, 536.4932
624.5570, 542.2393
625.7230, 487.9067
626.8890, 606.5400
628.0550, 603.3066
629.2200, 536.3335
630.3860, 464.0728
631.5510, 534.7920
632.7160, 487.9438
633.8810, 430.8462
635.0460, 563.7041
636.2100, 433.5630
637.3750, 479.7466
638.5390, 556.7544
639.7030, 519.9834
640.8670, 471.0708
642.0310, 514.4087
643.1950, 445.6782
644.3580, 472.1372
645.5210, 407.4365
646.6850, 481.6182
647.8480, 413.8203
649.0100, 497.8823
650.1730, 473.0059
651.3350, 490.2939
652.4980, 488.5918
653.6600, 497.0801
654.8220, 466.5649
655.9840, 489.8687
657.1450, 458.1694
658.3070, 487.6436
659.4680, 444.1201
660.6300, 424.5220
661.7910, 420.8369
662.9510, 429.3066
664.1120, 416.7734
665.2730, 434.1997
666.4330, 487.5718
667.5930, 473.0317
668.7530, 462.4565
669.9130, 498.9121
671.0730, 377.3657
672.2320, 379.8174
673.3920, 442.2666
674.5510, 409.7134
675.7100, 450.1577
676.8690, 425.6011
678.0280, 403.0415
679.1860, 466.4805
680.3450, 442.9170
681.5030, 515.3511
682.6610, 474.7837
683.8190, 412.2139
684.9770, 335.6426
686.1340, 317.0688
687.2920, 459.4937
688.4490, 306.9160
689.6060, 406.3374
690.7630, 317.7573
691.9200, 371.1758
693.0760, 340.5928
694.2330, 317.0093
695.3890, 329.4248
696.5450, 281.8413
697.7010, 336.2588
698.8570, 352.6768
700.0130, 231.0962
701.1680, 276.5166
702.3230, 253.9395
703.4780, 230.3633
704.6330, 319.7881
705.7880, 241.2168
706.9430, 174.6465
708.0970, 284.0771
709.2520, 229.5098
710.4060, 230.9458
711.5600, 261.3838
712.7140, 252.8247
713.8670, 227.2686
715.0210, 142.7153
716.1740, 150.1680
717.3270, 121.1362
718.4800, 118.0732
719.6330, 117.5347
720.7860, 101.9990
721.9380, 124.4683
723.0910, 166.9409
724.2430, 83.41699
725.3950, 143.9043
726.5470, 122.3960
727.6980, 99.89014
728.8500, 49.39014
730.0010, 38.89893
731.1530, 83.41553
732.3040, 27.94678
733.4550, 30.48486
734.6050, 7.963379
735.7560, 43.58545
736.9060, 27.15527
738.0560, 34.74121
739.2060, 17.65381
740.3560, 6.944824
741.5060, 28.55078
742.6560, 43.83984
743.8050, 61.25049
744.9540, 22.68457
746.1030, 26.12305
747.2520, 25.42627
748.4010, 60.02100
749.5500, 102.4971
750.6980, 71.97607
751.8460, 94.54688
752.9950, 64.11914
754.1420, 14.63574
755.2900, 21.19189
756.4380, 20.33203
757.5850, 93.17920
758.7330, 23.81445
759.8800, 12.64648
761.0270, 92.00439
762.1730, 17.58252
763.3200, 41.32666
764.4670, 54.12012
765.6130, 77.64600
766.7590, 78.90869
767.9050, 94.75684
769.0510, 206.4331
770.1960, 189.1382
771.3420, 251.9170
772.4870, 253.7510
773.6320, 336.1660
774.7770, 284.3726
775.9220, 334.0820
777.0670, 442.7104
778.2110, 517.3018
779.3560, 593.8979
780.5000, 661.4346
781.6440, 758.5776
782.7880, 855.8550
783.9320, 944.5166
785.0750, 1044.149
786.2180, 1184.080
787.3620, 1281.983
788.5050, 1508.403
789.6480, 1658.821
790.7900, 1883.237
791.9330, 2075.649
793.0750, 2443.058
794.2170, 2784.466
795.3590, 3111.888
796.5010, 3608.324
797.6430, 4211.755
798.7850, 4875.184
799.9260, 5726.609
801.0670, 6568.033
802.2080, 7790.455
803.3490, 9155.873
804.4900, 10814.28
805.6310, 12287.69
806.7710, 13994.10
807.9110, 15845.50
809.0510, 17292.90
810.1910, 18759.29
811.3310, 19450.70
812.4710, 19771.09
813.6100, 19720.48
814.7490, 19138.87
815.8880, 18321.26
817.0270, 17178.63
818.1660, 15980.00
819.3050, 14779.37
820.4430, 13662.73
821.5820, 12598.09
822.7200, 11970.44
823.8580, 11311.78
824.9950, 11044.13
826.1330, 10548.47
827.2710, 10347.80
828.4080, 10273.13
829.5450, 10225.46
830.6820, 10205.77
831.8190, 10100.32
832.9560, 10100.97
834.0920, 10079.68
835.2280, 10037.58
836.3650, 9912.323
837.5010, 9894.428
838.6360, 9833.564
839.7720, 9758.172
840.9080, 9275.445
842.0430, 8796.713
843.1780, 8420.973
844.3130, 7849.227
845.4480, 7278.472
846.5830, 6700.713
847.7170, 6193.945
848.8520, 5661.167
849.9860, 5150.391
851.1200, 4672.601
852.2540, 4163.805
853.3870, 3707.003
854.5210, 3318.191
855.6540, 3002.373
856.7880, 2706.547
857.9210, 2380.713
859.0540, 2225.871
860.1860, 1967.021
861.3190, 1855.164
862.4510, 1601.297
863.5840, 1464.423
864.7160, 1294.541
865.8480, 1168.624
866.9790, 1020.654
868.1110, 925.7466
869.2420, 794.7117
870.3740, 712.6772
871.5050, 666.0747
872.6360, 651.1489
873.7660, 561.0701
874.8970, 503.0127
876.0280, 389.0227
877.1580, 434.9011
878.2880, 372.8354
879.4180, 374.2373
880.5480, 321.6326
881.6770, 267.3745
882.8070, 275.7693
883.9360, 204.7192
885.0650, 146.3887
886.1940, 177.4343
887.3230, 188.8196
888.4520, 131.0330
889.5800, 73.31543
890.7090, 80.31104
891.8370, 57.97729
892.9650, 67.05005
894.0930, 80.49561
895.2200, 53.60010
896.3480, 78.91064
897.4750, 26.78027
898.6020, 9.897461
899.7290, 7.865967
900.8560, 6.990234
901.9830, 33.42603
903.1090, 9.144775
904.2360, 21.23218
905.3620, 7.690430
906.4880, 40.66187
907.6140, 25.43384
908.7400, 34.59521
909.8650, 14.04150
910.9900, 22.77368
912.1160, 48.99878
913.2410, 58.11475
914.3660, 56.87329
915.4900, 72.54541
916.6150, 2.474609
917.7390, 37.07056
918.8640, 48.07959
919.9880, 54.67871
921.1120, 154.1123
922.2350, 189.6763
923.3590, 154.2900
924.4820, 217.0737
925.6060, 166.6882
926.7290, 268.3079
927.8520, 289.0034
928.9740, 278.9429
930.0970, 289.6091
931.2190, 282.0339
932.3420, 267.5361
933.4640, 303.3755
934.5860, 398.7534
935.7080, 323.8345
936.8290, 350.3943
937.9510, 226.0212
939.0720, 407.2783
940.1930, 324.1096
941.3140, 302.5610
942.4350, 416.0420
943.5560, 301.3057
944.6760, 301.8730
945.7960, 284.9463
946.9170, 299.4006
948.0370, 294.6208
949.1560, 281.8657
950.2760, 304.1731
951.3960, 308.3169
952.5150, 344.5444
953.6340, 251.7476
954.7530, 244.8601
955.8720, 292.9583
956.9910, 224.0430
958.1090, 281.5923
959.2280, 250.7878
960.3460, 176.8359
961.4640, 256.9841
962.5820, 244.9983
963.6990, 293.2051
964.8170, 305.1919
965.9340, 250.3875
967.0510, 320.3079
968.1690, 301.4316
969.2850, 218.5127
970.4020, 265.4636
971.5190, 288.3674
972.6350, 225.4521
973.7510, 224.3264
974.8670, 201.2644
975.9830, 163.1731
977.0990, 236.0034
978.2150, 235.0039
979.3300, 285.8047
980.4450, 276.6123
981.5600, 232.3840
982.6750, 233.1404
983.7900, 213.8821
984.9050, 254.6086
986.0190, 231.3218
987.1340, 286.0205
988.2480, 253.5269
989.3620, 171.3726
990.4750, 192.0261
991.5890, 226.6650
992.7020, 181.2883
993.8160, 212.8975
994.9290, 194.4910
996.0420, 269.0696
997.1550, 178.6333
998.2670, 262.1819
999.3800, 228.7156
1000.492, 304.2344
1001.604, 301.7380
1002.716, 231.2268
1003.828, 231.7012
1004.940, 190.1609
1006.051, 114.6086
1007.163, 166.0410
1008.274, 184.4590
1009.385, 94.86230
1010.496, 114.2549
1011.606, 119.6326
1012.717, 169.9951
1013.827, 147.1106
1014.937, 73.71411
1016.047, 108.0640
1017.157, 99.40552
1018.267, 58.73169
1019.377, 64.05566
1020.486, 38.38916
1021.595, 131.7036
1022.704, 72.02783
1023.813, 74.27173
1024.922, 68.53516
1026.030, 45.69800
1027.139, 67.87988
1028.247, 65.14502
1029.355, 63.29175
1030.463, 125.6147
1031.571, 27.34717
1032.678, 74.51807
1033.786, 44.44727
1034.893, 32.56128
1036.000, 19.78687
1037.107, 44.54858
1038.214, 5.323242
1039.321, 49.04956
1040.427, 26.68457
1041.533, 72.38159
1042.639, 24.65381
1043.745, 58.49268
1044.851, 36.53979
1045.957, 21.13599
1047.062, 62.82910
1048.168, 3.576172
1049.273, 33.62109
1050.378, 100.8796
1051.482, 21.36841
1052.587, 80.88306
1053.692, 10.59033
1054.796, 28.86743
1055.900, 67.81470
1057.004, 29.48145
1058.108, 61.13184
1059.212, 56.76660
1060.315, 35.38647
1061.418, 17.98999
1062.522, 48.42480
1063.625, 44.89014
1064.728, 69.01709
1065.830, 19.48828
1066.933, 92.11646
1068.035, 10.04150
1069.137, 42.46069
1070.239, 27.86475
1071.341, 109.2522
1072.443, 15.62695
1073.545, 53.98267
1074.646, 43.32422
1075.747, 91.65015
1076.848, 28.52466
1077.949, 24.93262
1079.050, 42.32568
1080.150, 100.7063
1081.251, 90.93579
1082.351, 74.06934
1083.451, 121.2705
1084.551, 85.45923
1085.651, 91.87256
1086.750, 195.0332
1087.850, 125.1812
1088.949, 119.3159
1090.048, 23.43799
1091.147, 4.543213
1092.246, 105.6248
1093.345, 77.69385
1094.443, 107.7493
1095.541, 55.79199
1096.639, 126.0725
1097.737, 51.08813
1098.835, 9.910156
1099.933, 60.06128
1101.030, 67.72729
1102.128, 94.67163
1103.225, 116.6033
1104.322, 54.52295
1105.419, 107.4285
1106.515, 81.32202
1107.612, 84.20288
1108.708, 129.0713
1109.804, 53.92798
1110.900, 123.7710
1111.996, 91.60254
1113.092, 135.4224
1114.187, 157.2302
1115.283, 138.0269
1116.378, 175.8118
1117.473, 161.0596
1118.568, 150.8701
1119.662, 148.3760
1120.757, 140.1157
1121.851, 136.8447
1122.946, 181.5623
1124.040, 133.2693
1125.134, 192.9656
1126.227, 144.6506
1127.321, 98.32495
1128.414, 171.9888
1129.508, 198.6421
1130.601, 137.2849
1131.693, 188.9172
1132.786, 211.5393
1133.879, 155.1511
1134.971, 172.6169
1136.064, 164.1243
1137.156, 123.9260
1138.248, 179.4241
1139.339, 151.9858
1140.431, 196.5378
1141.522, 207.9250
1142.614, 171.3845
1143.705, 163.8567
1144.796, 139.3706
1145.887, 137.8748
1146.977, 185.1282
1148.068, 91.51636
1149.158, 145.8591
1150.248, 211.0232
1151.338, 195.2004
1152.428, 132.1973
1153.518, 167.6365
1154.607, 158.8206
1155.696, 102.0054
1156.785, 132.1577
1157.874, 95.20142
1158.963, 68.33447
1160.052, 75.70654
1161.141, 43.67065
1162.229, 54.89331
1163.317, 45.78687
1164.405, 14.45581
1165.493, 97.88501
1166.581, 25.45728
1167.668, 19.99219
1168.756, 104.9902
1169.843, 87.97949
1170.930, 85.99390
1172.017, 17.77661
1173.103, 98.92017
1174.190, 99.31738
1175.276, 1.572510
1176.363, 119.1074
1177.449, 45.87817
1178.535, 21.98853
1179.620, 16.16699
1180.706, 43.01904
1181.791, 91.28271
1182.877, 83.06421
1183.962, 70.23755
1185.047, 32.55859
1186.131, 62.73169
1187.216, 31.83887
1188.300, 30.75854
1189.385, 27.83057
1190.469, 27.88086
1191.553, 52.83862
1192.637, 49.53540
1193.720, 46.48901
1194.804, 11.33301
1195.887, 16.74927
1196.970, 4.522705
1198.053, 13.35034
1199.136, 24.09961
1200.219, 79.05444
1201.301, 25.92554
1202.383, 15.15039
1203.465, 96.78442
1204.547, 46.78198
1205.629, 52.73438
1206.711, 69.11230
1207.792, 8.294678
1208.874, 18.00000
1209.955, 64.10254
1211.036, 3.999268
1212.117, 25.94019
1213.198, 30.03833
1214.278, 20.16431
1215.359, 50.80933
1216.439, 48.21558
1217.519, 13.31592
1218.599, 28.41431
1219.678, 104.5112
1220.758, 34.12769
1221.837, 56.08228
1222.917, 16.16846
1223.996, 31.13940
1225.075, 61.22949
1226.153, 11.88916
1227.232, 98.19629
1228.310, 48.05786
1229.389, 52.17896
1230.467, 24.91846
1231.545, 21.00903
1232.622, 41.05151
1233.700, 84.12646
1234.777, 36.00537
1235.855, 22.08032
1236.932, 94.07642
1238.009, 32.08740
1239.086, 107.1621
1240.162, 65.05225
1241.239, 61.12720
1242.315, 50.18091
1243.391, 117.2568
1244.467, 47.33350
1245.543, 31.41064
1246.619, 14.51123
1247.694, 131.5818
1248.769, 25.67676
1249.844, 72.77246
1250.919, 38.86914
1251.994, 25.96753
1253.069, 112.0671
1254.144, 82.16821
1255.218, 84.27051
1256.292, 115.3745
1257.366, 116.4814
1258.440, 106.2493
1259.514, 98.70044
1260.587, 96.81348
