##NAMES=Fayalite
##RRUFFID=R070293
##IDEAL CHEMISTRY=Fe^2+^_2_SiO_4_
##LOCALITY=Pike's Peak, Teller County, Colorado, USA
##OWNER=RRUFF
##SOURCE=Michael Scott
##DESCRIPTION=Black single crystal fragment with internal hints of red and green
##STATUS=The identification of this mineral has been confirmed by X-ray diffraction and chemical analysis
##URL=rruff.info/R070293
##MEASURED CHEMISTRY=(Fe^2+^_1.87_Mn^2+^_0.13_)_Î£=2_Si_1.00_O_4_ ; trace amounts of Mg
##PIN_ID=L01491
##ORIENTATION=Laser parallel to a* (1 0 0). Fiducial mark perpendicular to laser is parallel to b [0 1 0]
121.9610, 0.0000000E+00
123.1890, 89.67871
124.4170, 181.8929
125.6450, 37.05847
126.8730, 85.31018
128.1010, 0.4315190
129.3280, 75.28149
130.5560, 56.29468
131.7830, 133.6727
133.0100, 45.36340
134.2380, 19.15869
135.4640, 8.831055
136.6910, 0.6750490
137.9180, 30.49207
139.1440, 38.42029
140.3710, 49.33923
141.5970, 89.46570
142.8230, 71.28650
144.0490, 82.25049
145.2750, 111.4166
146.5000, 174.8031
147.7260, 284.7980
148.9510, 311.3105
150.1770, 364.4041
151.4020, 483.1337
152.6270, 694.5450
153.8520, 978.6765
155.0760, 1199.560
156.3010, 1332.223
157.5250, 1120.689
158.7500, 821.9803
159.9740, 549.1189
161.1980, 446.1241
162.4220, 437.0092
163.6450, 460.6094
164.8690, 512.2806
166.0920, 645.1948
167.3160, 793.7050
168.5390, 885.2834
169.7620, 1224.851
170.9850, 1519.848
172.2080, 1845.168
173.4300, 1906.015
174.6530, 1705.736
175.8750, 1235.481
177.0970, 838.2509
178.3190, 607.0422
179.5410, 458.8540
180.7630, 312.6830
181.9850, 343.5242
183.2060, 276.3743
184.4270, 259.2324
185.6490, 307.0980
186.8700, 304.9714
188.0910, 323.8527
189.3110, 337.7414
190.5320, 352.4087
191.7530, 380.4266
192.9730, 394.4532
194.1930, 431.3721
195.4130, 461.3204
196.6330, 474.3480
197.8530, 447.4260
199.0730, 409.5264
200.2920, 428.6437
201.5120, 330.7706
202.7310, 253.8810
203.9500, 96.99445
205.1690, 33.13000
206.3880, 26.71484
207.6070, 6.535889
208.8250, 1.330811
210.0440, 29.10278
211.2620, 20.85352
212.4800, 23.57159
213.6980, 29.26111
214.9160, 3.938965
216.1340, 6.604614
217.3510, 12.73834
218.5690, 21.08673
219.7860, 38.30823
221.0030, 67.78931
222.2200, 77.14734
223.4370, 125.5099
224.6540, 143.8726
225.8700, 194.2347
227.0870, 210.5958
228.3030, 270.9574
229.5190, 390.3177
230.7350, 462.6764
231.9510, 573.0328
233.1670, 655.3866
234.3820, 810.7383
235.5980, 956.0882
236.8130, 1123.431
238.0280, 1240.729
239.2430, 1382.988
240.4580, 1417.194
241.6730, 1422.350
242.8880, 1311.483
244.1020, 1152.607
245.3160, 1035.729
246.5300, 832.8535
247.7450, 736.9814
248.9580, 674.1138
250.1720, 542.2501
251.3860, 484.3904
252.5990, 465.5344
253.8130, 405.6824
255.0260, 421.8343
256.2390, 309.9899
257.4520, 340.1493
258.6640, 320.3129
259.8770, 317.4806
261.0890, 371.6522
262.3020, 347.8284
263.5140, 360.0087
264.7260, 317.1932
265.9380, 338.3815
267.1500, 370.5737
268.3610, 417.4397
269.5730, 435.9321
270.7840, 555.0380
271.9950, 568.5996
273.2060, 644.0837
274.4170, 766.6572
275.6280, 793.5378
276.8390, 1006.117
278.0490, 1119.014
279.2590, 1213.444
280.4690, 1253.682
281.6800, 1416.003
282.8890, 1488.811
284.0990, 1542.168
285.3090, 1559.770
286.5180, 1521.758
287.7280, 1552.732
288.9370, 1479.555
290.1460, 1362.334
291.3550, 1345.322
292.5630, 1263.622
293.7720, 1153.711
294.9800, 1014.742
296.1890, 957.8883
297.3970, 899.7571
298.6050, 780.9788
299.8130, 722.7798
301.0200, 696.8489
302.2280, 715.7697
303.4360, 680.6538
304.6430, 695.4391
305.8500, 676.1790
307.0570, 694.0547
308.2640, 676.7916
309.4710, 738.6935
310.6770, 710.3235
311.8840, 685.9883
313.0900, 681.5981
314.2960, 621.0317
315.5020, 571.4670
316.7080, 532.9070
317.9140, 457.4585
319.1190, 399.9626
320.3250, 370.3463
321.5300, 347.3775
322.7350, 329.7894
323.9400, 299.1776
325.1450, 252.5670
326.3500, 243.0204
327.5540, 229.3745
328.7580, 224.7212
329.9630, 184.0522
331.1670, 207.3969
332.3710, 192.8513
333.5750, 139.2860
334.7780, 163.5411
335.9820, 162.9068
337.1850, 167.1662
338.3880, 130.5253
339.5920, 188.7875
340.7950, 148.0543
341.9970, 144.3222
343.2000, 216.5934
344.4030, 163.8664
345.6050, 198.1399
346.8070, 191.4160
348.0090, 218.6993
349.2110, 202.7578
350.4130, 235.4517
351.6150, 231.8535
352.8160, 238.5466
354.0170, 289.5917
355.2190, 303.9204
356.4200, 315.7856
357.6210, 342.5033
358.8210, 351.8967
360.0220, 377.8612
361.2220, 448.7462
362.4230, 446.3349
363.6230, 458.0341
364.8230, 532.8847
366.0230, 560.9139
367.2230, 577.9863
368.4220, 629.2663
369.6220, 646.6062
370.8210, 594.9509
372.0200, 645.2948
373.2190, 603.6387
374.4180, 635.9831
375.6170, 646.3279
376.8150, 628.6752
378.0140, 623.0223
379.2120, 601.3677
380.4100, 635.7155
381.6080, 562.0658
382.8060, 570.4160
384.0040, 510.7659
385.2010, 538.1232
386.3980, 552.4793
387.5960, 545.8337
388.7930, 486.1934
389.9900, 435.5529
391.1870, 441.9230
392.3830, 330.2988
393.5800, 355.6875
394.7760, 306.0770
395.9720, 329.4751
397.1680, 251.8754
398.3640, 272.2739
399.5600, 254.6779
400.7560, 222.0845
401.9510, 211.4926
403.1460, 215.9006
404.3420, 172.3063
405.5370, 189.7095
406.7320, 172.1100
407.9260, 183.5081
409.1210, 183.9032
410.3150, 109.2967
411.5100, 152.6873
412.7040, 114.0640
413.8980, 67.42798
415.0920, 61.78113
416.2850, 71.12848
417.4790, 72.46747
418.6720, 35.80170
419.8650, 73.12933
421.0590, 55.45374
422.2510, 78.77234
423.4440, 47.08716
424.6370, 33.39801
425.8290, 40.70844
427.0220, 44.01660
428.2140, 0.3200680
429.4060, 10.37885
430.5980, 5.087646
431.7900, 2.793823
432.9810, 3.491760
434.1730, 4.223755
435.3640, 10.94855
436.5550, 5.685303
437.7460, 4.431702
438.9370, 8.181335
440.1280, 6.060730
441.3190, 10.69897
442.5090, 16.52948
443.6990, 7.249817
444.8890, 40.03979
446.0790, 1.856323
447.2690, 11.31799
448.4590, 20.48425
449.6480, 2.357422
450.8380, 17.79224
452.0270, 4.066284
453.2160, 22.06549
454.4050, 0.1896360
455.5940, 0.6945800
456.7820, 23.41290
457.9710, 16.51337
459.1590, 12.60681
460.3470, 2.306885
461.5350, 0.2292480
462.7230, 25.84027
463.9110, 14.09717
465.0990, 19.95245
466.2860, 25.99469
467.4730, 26.04565
468.6600, 11.07355
469.8470, 35.19116
471.0340, 37.30475
472.2210, 41.46033
473.4070, 38.62433
474.5940, 12.79382
475.7800, 18.04529
476.9660, 71.19293
478.1520, 35.46283
479.3380, 68.69299
480.5230, 37.77289
481.7090, 77.85242
482.8940, 88.71802
484.0790, 83.82416
485.2650, 82.50690
486.4490, 79.85913
487.6340, 66.97119
488.8190, 84.49744
490.0030, 90.32666
491.1870, 126.1305
492.3720, 120.3248
493.5550, 167.3766
494.7390, 189.2092
495.9230, 197.3702
497.1060, 264.9277
498.2900, 309.9103
499.4730, 337.0209
500.6560, 402.7328
501.8390, 438.7599
503.0220, 478.0224
504.2040, 589.1182
505.3870, 631.4457
506.5690, 591.0538
507.7510, 624.6616
508.9330, 594.1156
510.1150, 523.8329
511.2970, 492.5787
512.4780, 391.9113
513.6600, 409.9401
514.8410, 308.1722
516.0220, 309.5659
517.2030, 268.7758
518.3840, 269.6228
519.5650, 225.7779
520.7450, 239.6593
521.9250, 197.3490
523.1060, 211.1342
524.2860, 197.2870
525.4660, 178.3434
526.6450, 173.1723
527.8250, 169.8046
529.0040, 175.6282
530.1840, 175.8129
531.3630, 172.7445
532.5420, 181.2602
533.7200, 180.5601
534.8990, 193.6576
536.0780, 195.7853
537.2560, 205.8370
538.4340, 205.3630
539.6120, 211.0012
540.7900, 262.3063
541.9680, 271.9662
543.1460, 288.2957
544.3230, 298.2955
545.5000, 301.8647
546.6770, 319.3870
547.8540, 344.9108
549.0310, 347.4266
550.2080, 379.9120
551.3840, 359.5784
552.5610, 397.0391
553.7370, 375.4874
554.9130, 382.9233
556.0890, 372.3469
557.2650, 307.3768
558.4400, 364.7756
559.6160, 313.1621
560.7910, 317.4168
561.9660, 308.0574
563.1410, 282.4323
564.3160, 316.8079
565.4910, 294.0613
566.6650, 320.2451
567.8400, 285.4472
569.0140, 333.6509
570.1880, 248.5760
571.3620, 257.2618
572.5360, 280.8021
573.7090, 275.7146
574.8830, 236.0734
576.0560, 255.9188
577.2290, 282.5101
578.4020, 237.2823
579.5750, 261.5008
580.7480, 277.6754
581.9200, 234.9584
583.0930, 213.4877
584.2650, 238.4138
585.4370, 220.0486
586.6090, 208.8096
587.7810, 212.5857
588.9520, 222.4399
590.1240, 255.3202
591.2950, 206.1340
592.4660, 223.9783
593.6370, 207.6273
594.8080, 174.4651
595.9790, 204.1931
597.1500, 189.8931
598.3200, 152.7000
599.4900, 150.4659
600.6600, 169.2034
601.8300, 115.8126
603.0000, 104.4587
604.1700, 125.2155
605.3390, 103.3144
606.5080, 133.0225
607.6770, 75.74396
608.8460, 85.45355
610.0150, 55.08875
611.1840, 53.81219
612.3520, 41.53174
613.5210, 39.25562
614.6890, 37.32086
615.8570, 28.53198
617.0250, 37.11688
618.1930, 25.86981
619.3600, 27.49982
620.5280, 43.22382
621.6950, 40.83661
622.8620, 4.534729
624.0290, 34.21277
625.1960, 7.877502
626.3630, 17.52380
627.5290, 30.15448
628.6960, 10.77173
629.8620, 9.628235
631.0280, 42.94495
632.1940, 21.50568
633.3600, 30.05225
634.5250, 2.585632
635.6910, 2.900879
636.8560, 9.410217
638.0210, 39.05432
639.1860, 2.493408
640.3510, 44.06348
641.5150, 30.32251
642.6800, 15.69586
643.8440, 2.945618
645.0080, 12.39069
646.1720, 4.711670
647.3360, 11.98529
648.5000, 7.291321
649.6640, 1.551270
650.8270, 15.20795
651.9900, 8.994690
653.1530, 19.19421
654.3160, 10.37036
655.4790, 5.531677
656.6420, 9.676819
657.8040, 3.192749
658.9660, 9.917542
660.1290, 21.01361
661.2910, 1.901917
662.4520, 3.836487
663.6140, 7.209229
664.7760, 9.240601
665.9370, 21.74146
667.0980, 27.24780
668.2590, 35.22668
669.4200, 12.80457
670.5810, 9.141113
671.7420, 34.92590
672.9020, 16.02734
674.0620, 45.15295
675.2220, 1.682007
676.3820, 29.49744
677.5420, 5.707642
678.7020, 16.06433
679.8610, 19.17334
681.0210, 9.435425
682.1800, 4.716431
683.3390, 1.3916000E-02
684.4980, 11.67505
685.6560, 25.35498
686.8150, 14.02625
687.9730, 11.68884
689.1320, 21.34290
690.2900, 1.988525
691.4480, 18.24438
692.6050, 63.25024
693.7630, 23.86914
694.9200, 23.48010
696.0780, 6.916748
697.2350, 7.672607
698.3920, 16.25427
699.5490, 23.82861
700.7050, 2.604004
701.8620, 0.9528810
703.0180, 1.190308
704.1740, 7.041748
705.3300, 6.575439
706.4860, 7.102783
707.6420, 6.624023
708.7970, 15.86108
709.9530, 9.639771
711.1080, 44.69714
712.2630, 77.60596
713.4180, 24.92969
714.5730, 43.51697
715.7280, 20.29932
716.8820, 19.39880
718.0360, 27.16553
719.1900, 11.74683
720.3440, 27.33655
721.4980, 28.05676
722.6520, 36.44763
723.8050, 1.834229
724.9590, 41.21802
726.1120, 41.60693
727.2650, 16.99255
728.4180, 36.37463
729.5700, 4.246948
730.7230, 29.12720
731.8750, 33.49780
733.0280, 22.86609
734.1800, 14.23096
735.3320, 25.59338
736.4830, 15.95312
737.6350, 43.31018
738.7860, 48.66443
739.9380, 43.01611
741.0890, 29.36621
742.2400, 57.71423
743.3910, 48.05994
744.5410, 54.40637
745.6920, 51.75098
746.8420, 43.91248
747.9920, 57.41809
749.1420, 33.65979
750.2920, 79.89673
751.4420, 90.08325
752.5910, 38.25269
753.7410, 88.40796
754.8900, 92.47241
756.0390, 123.6318
757.1880, 82.66541
758.3370, 92.73010
759.4850, 87.94580
760.6340, 95.15332
761.7820, 101.5725
762.9300, 143.7435
764.0780, 158.3309
765.2260, 151.2411
766.3730, 119.3848
767.5210, 127.1069
768.6680, 146.7147
769.8150, 143.9663
770.9620, 195.0120
772.1090, 139.1960
773.2560, 169.6089
774.4020, 156.6967
775.5490, 187.3896
776.6950, 214.6660
777.8410, 207.8215
778.9870, 216.3799
780.1330, 230.6292
781.2780, 245.6423
782.4230, 279.8221
783.5690, 329.7675
784.7140, 350.4305
785.8590, 404.0895
787.0030, 432.9021
788.1480, 478.4460
789.2920, 479.9592
790.4370, 573.8798
791.5810, 590.0985
792.7250, 691.1079
793.8690, 772.9503
795.0120, 838.9720
796.1560, 992.3513
797.2990, 1142.422
798.4420, 1294.762
799.5850, 1481.287
800.7280, 1752.713
801.8710, 2027.766
803.0130, 2431.910
804.1550, 2833.278
805.2980, 3415.717
806.4400, 4044.200
807.5810, 4845.198
808.7230, 5897.444
809.8650, 6901.103
811.0060, 7921.973
812.1470, 8850.038
813.2880, 9866.074
814.4290, 10340.18
815.5700, 10482.81
816.7110, 10253.33
817.8510, 9908.162
818.9910, 9439.648
820.1310, 9009.458
821.2710, 8417.596
822.4110, 8063.160
823.5510, 7582.768
824.6900, 7221.371
825.8290, 7191.980
826.9680, 6952.617
828.1070, 6836.070
829.2460, 6888.726
830.3850, 6913.391
831.5230, 7040.066
832.6620, 6960.752
833.8000, 7066.817
834.9380, 7236.523
836.0760, 7192.240
837.2130, 7108.966
838.3510, 7281.425
839.4880, 7248.112
840.6250, 7130.832
841.7620, 7048.603
842.8990, 6797.386
844.0360, 6532.178
845.1720, 6312.983
846.3090, 5910.878
847.4450, 5468.706
848.5810, 5090.865
849.7170, 4818.715
850.8530, 4415.194
851.9880, 4128.069
853.1240, 3760.956
854.2590, 3521.857
855.3940, 3248.350
856.5290, 3075.759
857.6640, 2771.322
858.7980, 2597.274
859.9330, 2398.238
861.0670, 2200.216
862.2010, 2101.207
863.3350, 1984.212
864.4690, 1854.230
865.6030, 1669.262
866.7360, 1587.218
867.8690, 1579.277
869.0020, 1408.349
870.1350, 1358.436
871.2680, 1314.536
872.4010, 1239.651
873.5330, 1161.779
874.6660, 1138.922
875.7980, 1042.078
876.9300, 1028.249
878.0620, 985.4348
879.1930, 976.6345
880.3250, 963.4779
881.4560, 956.0779
882.5870, 971.3213
883.7180, 974.5796
884.8490, 1023.853
885.9800, 1004.178
887.1100, 1029.482
888.2410, 1099.802
889.3710, 1094.136
890.5010, 1149.487
891.6310, 1222.855
892.7610, 1351.168
893.8900, 1402.568
895.0200, 1619.811
896.1490, 1707.243
897.2780, 1918.880
898.4070, 2086.350
899.5360, 2238.850
900.6640, 2384.352
901.7920, 2552.003
902.9210, 2515.377
904.0490, 2510.090
905.1770, 2339.667
906.3040, 2125.015
907.4320, 1872.707
908.5600, 1681.241
909.6870, 1531.581
910.8140, 1416.952
911.9410, 1264.153
913.0680, 1184.526
914.1940, 1094.254
915.3210, 985.0137
916.4470, 955.7898
917.5730, 917.8444
918.6990, 946.4014
919.8250, 932.6636
920.9500, 876.5203
922.0760, 935.3519
923.2010, 920.5052
924.3260, 899.8226
925.4510, 922.7655
926.5760, 897.7310
927.7010, 818.7131
928.8250, 877.7134
929.9500, 865.9327
931.0740, 774.9722
932.1980, 799.1382
933.3220, 715.2208
934.4450, 753.3221
935.5690, 701.4517
936.6920, 654.6018
937.8150, 656.7756
938.9380, 653.9673
940.0610, 574.1954
941.1840, 509.4410
942.3060, 582.7124
943.4290, 542.0096
944.5510, 513.3284
945.6730, 477.6794
946.7950, 448.0537
947.9160, 537.4648
949.0380, 528.8945
950.1590, 496.3507
951.2800, 459.8269
952.4010, 431.3232
953.5220, 342.8511
954.6430, 377.3997
955.7630, 346.9736
956.8840, 376.5658
958.0040, 385.1737
959.1240, 326.8000
960.2440, 350.4445
961.3640, 287.1057
962.4830, 274.7843
963.6030, 292.4808
964.7220, 285.1951
965.8410, 279.9248
966.9600, 253.6736
968.0780, 251.6531
969.1970, 241.4039
970.3150, 238.0463
971.4340, 235.8746
972.5520, 237.7195
973.6700, 250.5814
974.7870, 198.4600
975.9050, 222.3546
977.0220, 199.2662
978.1390, 171.1930
979.2560, 181.1389
980.3730, 195.1001
981.4900, 178.0804
982.6070, 138.0758
983.7230, 180.1011
984.8390, 209.1418
985.9550, 104.2090
987.0710, 143.2947
988.1870, 109.3971
989.3030, 126.5142
990.4180, 137.6523
991.5330, 146.8079
992.6480, 127.9879
993.7630, 89.18298
994.8780, 78.39343
995.9930, 60.61841
997.1070, 79.85754
998.2210, 61.87891
999.3350, 92.37854
1000.449, 68.66028
1001.563, 49.95654
1002.677, 95.26758
1003.790, 55.59399
1004.903, 97.93591
1006.016, 59.29175
1007.129, 98.66125
1008.242, 78.04419
1009.355, 33.44080
1010.467, 55.85229
1011.579, 68.27722
1012.691, 18.71521
1013.803, 10.16675
1014.915, 11.63184
1016.027, 28.11060
1017.138, 51.60266
1018.249, 6.107300
1019.360, 2.374878
1020.471, 49.15588
1021.582, 9.699707
1022.693, 9.256104
1023.803, 14.82520
1024.913, 13.40894
1026.023, 30.99487
1027.133, 6.605713
1028.243, 51.78149
1029.353, 21.82703
1030.462, 36.55225
1031.571, 1.069702
1032.680, 0.2966310
1033.789, 12.34814
1034.898, 5.995117
1036.007, 28.67163
1037.115, 53.65015
1038.223, 62.02185
1039.331, 24.29504
1040.439, 3.607544
1041.547, 27.91003
1042.655, 22.20996
1043.762, 22.33130
1044.869, 17.06238
1045.976, 21.08179
1047.083, 5.637329
1048.190, 15.36682
1049.297, 19.10657
1050.403, 2.170898
1051.509, 15.14270
1052.615, 13.81970
1053.721, 12.19470
1054.827, 26.88367
1055.933, 2.905762
1057.038, 19.29517
1058.143, 32.50720
1059.248, 10.31873
1060.353, 16.13940
1061.458, 5.026489
1062.563, 6.134766
1063.667, 57.29089
1064.771, 28.73596
1065.875, 43.11658
1066.979, 8.444336
1068.083, 60.11316
1069.186, 30.99048
1070.290, 32.20862
1071.393, 22.18115
1072.496, 21.64392
1073.599, 3.842041
1074.702, 10.04480
1075.804, 59.66113
1076.907, 9.538574
1078.009, 50.38135
1079.111, 59.32397
1080.213, 41.66296
1081.315, 36.61792
1082.416, 73.57886
1083.517, 42.54590
1084.619, 25.43579
1085.720, 62.23376
1086.821, 57.21753
1087.921, 87.51038
1089.022, 52.50439
1090.122, 55.50354
1091.222, 39.08374
1092.322, 31.54211
1093.422, 49.79248
1094.522, 25.21204
1095.622, 9.395874
1096.721, 7.969971
1097.820, 49.86731
1098.919, 12.71863
1100.018, 67.97888
1101.117, 51.99829
1102.215, 89.52734
1103.314, 68.12183
1104.412, 58.40784
1105.510, 76.53113
1106.608, 49.69482
1107.705, 33.78186
1108.803, 87.27283
1109.900, 37.33997
1110.997, 83.31384
1112.094, 97.38599
1113.191, 43.46045
1114.288, 60.53735
1115.384, 42.29578
1116.481, 96.49255
1117.577, 86.74426
1118.673, 85.71875
1119.769, 61.20764
1120.864, 81.29504
1121.960, 74.88000
1123.055, 116.4740
1124.150, 84.38586
1125.245, 103.6276
1126.340, 106.9065
1127.434, 122.0081
1128.529, 115.1023
1129.623, 88.19788
1130.717, 88.29358
1131.811, 107.4189
1132.905, 97.51538
1133.999, 148.7476
1135.092, 127.1824
1136.185, 135.6605
1137.279, 166.7571
1138.371, 134.8534
1139.464, 111.9493
1140.557, 125.0448
1141.649, 142.4410
1142.742, 135.5353
1143.834, 138.6289
1144.926, 107.7218
1146.017, 106.9019
1147.109, 97.14124
1148.200, 83.23096
1149.292, 89.18652
1150.383, 92.93689
1151.474, 91.60925
1152.564, 117.7856
1153.655, 110.8687
1154.745, 122.9501
1155.835, 105.5284
1156.925, 78.63098
1158.015, 71.87366
1159.105, 78.94800
1160.195, 75.19397
1161.284, 82.26416
1162.373, 83.17664
1163.462, 66.20703
1164.551, 80.25476
1165.640, 63.31665
1166.728, 41.24512
1167.817, 74.30237
1168.905, 41.36133
1169.993, 42.41370
1171.081, 39.70959
1172.168, 43.13062
1173.256, 49.04834
1174.343, 59.16162
1175.430, 68.50464
1176.517, 57.03149
1177.604, 71.39905
1178.691, 21.43066
1179.777, 27.45935
1180.864, 4.485229
1181.950, 7.505005
1183.036, 6.135742
1184.121, 6.794556
1185.207, 10.47290
1186.293, 25.88159
1187.378, 35.87683
1188.463, 54.21619
1189.548, 43.62268
1190.633, 33.18982
1191.717, 14.17151
1192.802, 25.14880
1193.886, 7.8002997E-02
1194.970, 9.113403
1196.054, 52.73633
1197.138, 1.683472
1198.221, 20.37769
1199.305, 36.54138
1200.388, 12.54346
1201.471, 14.35669
1202.554, 31.74890
1203.637, 7.119141
1204.719, 27.01978
1205.801, 1.182861
1206.884, 5.356445
1207.966, 4.542969
1209.048, 30.25769
1210.129, 11.94604
1211.211, 26.83350
1212.292, 30.60840
1213.373, 34.37903
1214.454, 3.855225
1215.535, 18.10205
1216.616, 33.63025
1217.696, 9.641968
1218.777, 57.06921
1219.857, 35.77576
1220.937, 2.477417
1222.017, 5.168823
1223.096, 12.85095
1224.176, 6.997925
1225.255, 16.19202
1226.334, 10.85156
1227.413, 18.50232
1228.492, 0.8522950
1229.570, 7.219482
1230.649, 3.241821
1231.727, 6.000000
1232.805, 4.593140
1233.883, 14.17603
1234.961, 23.75122
1236.038, 21.32056
1237.116, 27.88354
1238.193, 8.440674
1239.270, 36.98865
1240.347, 1.468750
1241.424, 35.06030
1242.500, 38.58374
1243.577, 60.10181
1244.653, 2.614380
1245.729, 22.11523
1246.805, 5.390381
1247.880, 0.9121090
1248.956, 10.55286
1250.031, 41.00854
1251.106, 45.45850
1252.181, 39.38794
1253.256, 0.3417970
1254.331, 21.76758
1255.405, 20.18628
1256.480, 34.59778
1257.554, 48.00330
1258.628, 50.55737
1259.701, 58.83704
1260.775, 32.34094
1261.849, 61.72388
1262.922, 24.10120
1263.995, 14.47974
1265.068, 12.84167
1266.141, 89.19446
1267.213, 40.54138
1268.286, 40.88293
1269.358, 63.21887
1270.430, 16.54919
1271.502, 42.87097
1272.573, 46.18726
1273.645, 47.49768
1274.716, 28.80261
1275.788, 25.10120
1276.859, 46.39258
1277.929, 46.67847
1279.000, 99.95874
1280.071, 25.23364
1281.141, 29.50171
1282.211, 99.76453
1283.281, 63.02441
1284.351, 9.278687
1285.421, 35.52307
1286.490, 29.76172
1287.559, 46.99817
1288.628, 80.22937
1289.697, 74.46326
1290.766, 80.69165
1291.835, 59.92004
1292.903, 69.14282
1293.972, 85.36011
1295.040, 63.57202
