##NAMES=Fayalite
##RRUFFID=R070293
##IDEAL CHEMISTRY=Fe^2+^_2_SiO_4_
##LOCALITY=Pike's Peak, Teller County, Colorado, USA
##OWNER=RRUFF
##SOURCE=Michael Scott
##DESCRIPTION=Black single crystal fragment with internal hints of red and green
##STATUS=The identification of this mineral has been confirmed by X-ray diffraction and chemical analysis
##URL=rruff.info/R070293
##MEASURED CHEMISTRY=(Fe^2+^_1.87_Mn^2+^_0.13_)_Î£=2_Si_1.00_O_4_ ; trace amounts of Mg
##PIN_ID=L00446
##ORIENTATION=Laser parallel to b* (0 1 0). Fiducial mark perpendicular to laser is parallel to c [0 0 1]
59.13700, 0.0000000E+00
60.37200, 214.2837
61.60700, 338.5786
62.84200, 343.3735
64.07700, 207.0762
65.31200, 76.67822
66.54600, 7.795410
67.78100, 135.5396
69.01500, 237.2095
70.24900, 183.9355
71.48300, 280.5527
72.71700, 387.5635
73.95100, 240.6919
75.18500, 391.5830
76.41800, 497.9971
77.65100, 372.3149
78.88500, 32.17041
80.11800, 194.6309
81.35100, 216.2275
82.58300, 438.6152
83.81600, 480.0015
85.04900, 267.5732
86.28100, 43.41943
87.51300, 90.61572
88.74500, 4.773926
89.97700, 10.69482
91.20900, 63.94238
92.44100, 323.9050
93.67200, 148.1592
94.90400, 326.5764
96.13500, 268.1299
97.36600, 242.3484
98.59700, 312.0168
99.82800, 267.9968
101.0590, 220.7234
102.2900, 99.11719
103.5200, 137.1904
104.7500, 188.4387
105.9810, 389.5837
107.2110, 452.6401
108.4410, 493.5625
109.6700, 420.3591
110.9000, 507.0381
112.1300, 387.6060
113.3590, 324.0684
114.5880, 434.4304
115.8170, 439.6934
117.0460, 348.8584
118.2750, 362.9290
119.5040, 419.9082
120.7320, 365.8008
121.9610, 356.6348
123.1890, 435.5212
124.4170, 399.1892
125.6450, 37.37720
126.8730, 100.6289
128.1010, 92.27881
129.3280, 59.10645
130.5560, 172.0461
131.7830, 26.72998
133.0100, 17.47095
134.2380, 60.65698
135.4640, 70.90308
136.6910, 21.61084
137.9180, 104.0046
139.1440, 218.0442
140.3710, 274.8577
141.5970, 24.39038
142.8230, 63.93970
144.0490, 38.50122
145.2750, 51.07617
146.5000, 125.6550
147.7260, 44.21484
148.9510, 81.73071
150.1770, 122.2432
151.4020, 176.7537
152.6270, 266.2568
153.8520, 331.7483
155.0760, 461.2134
156.3010, 437.6565
157.5250, 566.0864
158.7500, 576.5020
159.9740, 445.9014
161.1980, 701.2861
162.4220, 954.6589
163.6450, 1338.019
164.8690, 1719.363
166.0920, 2279.686
167.3160, 3041.978
168.5390, 4250.244
169.7620, 5330.464
170.9850, 6169.602
172.2080, 6335.656
173.4300, 6031.690
174.6530, 4749.681
175.8750, 3550.627
177.0970, 2396.539
178.3190, 1458.416
179.5410, 895.2815
180.7630, 615.1494
181.9850, 469.0283
183.2060, 332.8997
184.4270, 273.7568
185.6490, 222.5977
186.8700, 101.4277
188.0910, 182.2495
189.3110, 67.08472
190.5320, 132.3076
191.7530, 52.64136
192.9730, 17.71313
194.1930, 88.56421
195.4130, 106.9529
196.6330, 170.7495
197.8530, 205.2759
199.0730, 156.4163
200.2920, 153.3650
201.5120, 81.98926
202.7310, 26.89502
203.9500, 101.4280
205.1690, 97.92773
206.3880, 13.56372
207.6070, 6.555664
208.8250, 32.79810
210.0440, 26.06958
211.2620, 0.1135250
212.4800, 60.31128
213.6980, 41.14990
214.9160, 94.47583
216.1340, 195.6467
217.3510, 234.7217
218.5690, 231.7063
219.7860, 229.5688
221.0030, 452.2600
222.2200, 560.7776
223.4370, 521.2310
224.6540, 560.6279
225.8700, 756.0376
227.0870, 1038.294
228.3030, 1278.455
229.5190, 1474.546
230.7350, 1773.579
231.9510, 2125.558
233.1670, 2652.619
234.3820, 3021.999
235.5980, 3580.999
236.8130, 4203.586
238.0280, 4524.609
239.2430, 4744.291
240.4580, 4662.613
241.6730, 4321.167
242.8880, 3979.619
244.1020, 3539.847
245.3160, 3013.037
246.5300, 2644.187
247.7450, 2208.089
248.9580, 1862.421
250.1720, 1581.823
251.3860, 1421.385
252.5990, 1190.343
253.8130, 1047.179
255.0260, 933.2925
256.2390, 849.1670
257.4520, 771.9370
258.6640, 670.6875
259.8770, 634.4067
261.0890, 624.2559
262.3020, 636.1489
263.5140, 556.0142
264.7260, 512.0671
265.9380, 570.8977
267.1500, 526.6099
268.3610, 483.3140
269.5730, 473.9929
270.7840, 622.7275
271.9950, 533.2173
273.2060, 631.4326
274.4170, 612.5776
275.6280, 583.5408
276.8390, 635.8906
278.0490, 728.9541
279.2590, 747.5615
280.4690, 857.5525
281.6800, 812.6182
282.8890, 885.0667
284.0990, 968.7534
285.3090, 915.8962
286.5180, 926.3391
287.7280, 1006.709
288.9370, 1000.741
290.1460, 1070.339
291.3550, 941.3794
292.5630, 869.0342
293.7720, 854.0105
294.9800, 846.2070
296.1890, 671.8062
297.3970, 552.3589
298.6050, 524.8191
299.8130, 555.2310
301.0200, 465.5767
302.2280, 446.6292
303.4360, 450.5474
304.6430, 451.9878
305.8500, 400.1543
307.0570, 464.3057
308.2640, 426.4333
309.4710, 457.3149
310.6770, 456.3948
311.8840, 431.4265
313.0900, 334.3943
314.2960, 343.6248
315.5020, 296.7085
316.7080, 264.0205
317.9140, 227.1597
319.1190, 168.7495
320.3250, 204.7566
321.5300, 169.6704
322.7350, 172.7571
323.9400, 110.8379
325.1450, 70.83643
326.3500, 159.0417
327.5540, 61.89258
328.7580, 37.74707
329.9630, 65.67407
331.1670, 10.00024
332.3710, 34.11133
333.5750, 12.66382
334.7780, 64.13159
335.9820, 86.21387
337.1850, 37.74805
338.3880, 55.80420
339.5920, 82.48315
340.7950, 3.392822
341.9970, 28.59375
343.2000, 27.57715
344.4030, 58.08887
345.6050, 51.65820
346.8070, 150.8608
348.0090, 139.4553
349.2110, 27.31787
350.4130, 128.2341
351.6150, 104.4092
352.8160, 128.5857
354.0170, 185.4880
355.2190, 168.8799
356.4200, 179.7866
357.6210, 151.4421
358.8210, 192.9260
360.0220, 269.7961
361.2220, 310.0647
362.4230, 299.4785
363.6230, 436.8518
364.8230, 406.1907
366.0230, 436.6814
367.2230, 375.1499
368.4220, 466.5925
369.6220, 515.0093
370.8210, 546.4077
372.0200, 411.7837
373.2190, 432.1511
374.4180, 410.4971
375.6170, 370.8188
376.8150, 444.1184
378.0140, 391.4102
379.2120, 360.6797
380.4100, 383.9470
381.6080, 314.1995
382.8060, 299.4307
384.0040, 258.6482
385.2010, 308.8428
386.3980, 199.0134
387.5960, 300.1741
388.7930, 236.3254
389.9900, 212.4539
391.1870, 215.7319
392.3830, 163.8201
393.5800, 183.8887
394.7760, 206.9363
395.9720, 157.3945
397.1680, 242.9678
398.3640, 107.9502
399.5600, 158.9080
400.7560, 177.8433
401.9510, 176.7568
403.1460, 184.6479
404.3420, 141.5166
405.5370, 125.3618
406.7320, 126.3904
407.9260, 75.97900
409.1210, 123.7500
410.3150, 146.4971
411.5100, 143.2212
412.7040, 141.6313
413.8980, 120.1277
415.0920, 103.2615
416.2850, 56.89917
417.4790, 50.51392
418.6720, 22.10522
419.8650, 77.67358
421.0590, 65.21802
422.2510, 43.74365
423.4440, 101.2524
424.6370, 71.75000
425.8290, 63.25415
427.0220, 14.74219
428.2140, 37.20728
429.4060, 18.65454
430.5980, 95.07861
431.7900, 74.48755
432.9810, 98.87744
434.1730, 30.25073
435.3640, 39.60339
436.5550, 20.93359
437.7460, 59.24719
438.9370, 38.54028
440.1280, 13.18933
441.3190, 1.940796
442.5090, 19.71838
443.6990, 16.46753
444.8890, 30.36267
446.0790, 12.23499
447.2690, 0.1367190
448.4590, 39.93591
449.6480, 38.98242
450.8380, 40.00330
452.0270, 94.18140
453.2160, 42.17542
454.4050, 49.04395
455.5940, 15.15637
456.7820, 4.744263
457.9710, 22.61853
459.1590, 2.533691
460.3470, 34.71484
461.5350, 9.953369
462.7230, 22.53296
463.9110, 40.14832
465.0990, 5.593262
466.2860, 34.97412
467.4730, 11.14844
468.6600, 3.920532
469.8470, 30.35193
471.0340, 24.19397
472.2210, 7.862793
473.4070, 12.22375
474.5940, 14.22314
475.7800, 19.06360
476.9660, 11.60999
478.1520, 34.21069
479.3380, 39.03796
480.5230, 56.58118
481.7090, 65.22351
482.8940, 26.10669
484.0790, 57.38135
485.2650, 44.67542
486.4490, 151.1758
487.6340, 123.7592
488.8190, 120.3741
490.0030, 96.71472
491.1870, 107.7550
492.3720, 161.7810
493.5550, 143.8350
494.7390, 173.1222
495.9230, 217.8644
497.1060, 227.0145
498.2900, 256.4467
499.4730, 300.7242
500.6560, 280.4940
501.8390, 345.0626
503.0220, 341.3336
504.2040, 439.9064
505.3870, 460.1976
506.5690, 399.9209
507.7510, 379.0742
508.9330, 376.2109
510.1150, 414.3638
511.2970, 335.5479
512.4780, 328.2916
513.6600, 337.0798
514.8410, 239.9951
516.0220, 240.8297
517.2030, 294.9353
518.3840, 242.4713
519.5650, 231.5563
520.7450, 218.5129
521.9250, 195.6061
523.1060, 199.6631
524.2860, 178.5543
525.4660, 189.7697
526.6450, 208.6187
527.8250, 200.4781
529.0040, 246.2764
530.1840, 230.1459
531.3630, 167.8104
532.5420, 116.5039
533.7200, 202.0421
534.8990, 221.5896
536.0780, 259.1029
537.2560, 280.6602
538.4340, 245.0940
539.6120, 216.6936
540.7900, 298.8813
541.9680, 331.3411
543.1460, 348.8717
544.3230, 354.2812
545.5000, 362.6304
546.6770, 378.7806
547.8540, 382.8442
549.0310, 416.8931
550.2080, 502.8813
551.3840, 436.9011
552.5610, 446.1051
553.7370, 460.6884
554.9130, 392.8970
556.0890, 426.9186
557.2650, 382.8450
558.4400, 347.5282
559.6160, 360.1367
560.7910, 385.5903
561.9660, 407.2487
563.1410, 443.8176
564.3160, 424.6378
565.4910, 433.1484
566.6650, 381.1057
567.8400, 398.5927
569.0140, 367.8445
570.1880, 329.6229
571.3620, 377.3997
572.5360, 352.0449
573.7090, 372.5441
574.8830, 333.1345
576.0560, 339.3544
577.2290, 315.5953
578.4020, 278.4591
579.5750, 337.7830
580.7480, 367.9894
581.9200, 326.3746
583.0930, 299.5425
584.2650, 364.5254
585.4370, 378.8547
586.6090, 343.1293
587.7810, 340.1230
588.9520, 364.3379
590.1240, 407.3827
591.2950, 361.4062
592.4660, 370.6196
593.6370, 382.1155
594.8080, 384.3035
595.9790, 378.5002
597.1500, 338.4860
598.3200, 341.8481
599.4900, 327.3179
600.6600, 295.9879
601.8300, 253.6968
603.0000, 289.9829
604.1700, 268.2153
605.3390, 237.0437
606.5080, 252.6646
607.6770, 171.2565
608.8460, 156.9890
610.0150, 161.3870
611.1840, 183.1040
612.3520, 141.4722
613.5210, 92.03406
614.6890, 98.95056
615.8570, 78.02173
617.0250, 86.06299
618.1930, 78.97278
619.3600, 93.62366
620.5280, 96.28247
621.6950, 98.00366
622.8620, 61.74951
624.0290, 73.31860
625.1960, 7.009033
626.3630, 60.64233
627.5290, 86.69165
628.6960, 67.63330
629.8620, 17.54907
631.0280, 12.34888
632.1940, 36.17615
633.3600, 53.14575
634.5250, 43.09790
635.6910, 3.036255
636.8560, 43.95129
638.0210, 17.84949
639.1860, 41.72900
640.3510, 5.592041
641.5150, 14.43298
642.6800, 0.7454830
643.8440, 21.94971
645.0080, 29.80957
646.1720, 7.552002
647.3360, 16.72644
648.5000, 1.038574
649.6640, 39.62476
650.8270, 26.27197
651.9900, 3.903076
653.1530, 2.512451
654.3160, 47.90027
655.4790, 0.6383060
656.6420, 18.15430
657.8040, 4.653931
658.9660, 36.86633
660.1290, 32.57129
661.2910, 41.00574
662.4520, 39.37378
663.6140, 29.73901
664.7760, 25.91003
665.9370, 27.40588
667.0980, 18.70764
668.2590, 37.00476
669.4200, 38.75708
670.5810, 46.44983
671.7420, 5.356079
672.9020, 63.64795
674.0620, 36.80762
675.2220, 56.95496
676.3820, 40.09033
677.5420, 39.79248
678.7020, 17.32495
679.8610, 37.42383
681.0210, 17.51196
682.1800, 13.58813
683.3390, 35.65173
684.4980, 45.70410
685.6560, 74.74561
686.8150, 66.77710
687.9730, 65.76807
689.1320, 8.811646
690.2900, 40.81421
691.4480, 13.80725
692.6050, 1.210205
693.7630, 5.757690
694.9200, 13.71448
696.0780, 13.81677
697.2350, 19.82971
698.3920, 25.52991
699.5490, 28.45264
700.7050, 29.36865
701.8620, 38.27722
703.0180, 24.97290
704.1740, 19.92615
705.3300, 7.948120
706.4860, 29.81470
707.6420, 42.67505
708.7970, 20.46985
709.9530, 5.633667
711.1080, 2.191772
712.2630, 7.009399
713.4180, 3.820190
714.5730, 22.62415
715.7280, 18.28320
716.8820, 10.78271
718.0360, 4.999756
719.1900, 6.776855
720.3440, 32.45093
721.4980, 4.697266
722.6520, 27.04980
723.8050, 39.20190
724.9590, 4.522095
726.1120, 11.75000
727.2650, 8.028564
728.4180, 21.68591
729.5700, 6.396729
730.7230, 5.104248
731.8750, 3.191528
733.0280, 4.493164
734.1800, 16.80005
735.3320, 38.11743
736.4830, 5.451660
737.6350, 5.210327
738.7860, 36.87012
739.9380, 18.52893
741.0890, 2.804810
742.2400, 13.13892
743.3910, 62.52051
744.5410, 17.81909
745.6920, 40.88574
746.8420, 4.500488
747.9920, 24.16211
749.1420, 26.82495
750.2920, 19.51318
751.4420, 8.140991
752.5910, 9.693481
753.7410, 3.716309
754.8900, 18.79053
756.0390, 24.34351
757.1880, 24.87561
758.3370, 43.47473
759.4850, 38.08801
760.6340, 30.71143
761.7820, 43.18628
762.9300, 3.713135
764.0780, 63.49255
765.2260, 61.97339
766.3730, 40.57043
767.5210, 96.09436
768.6680, 96.29956
769.8150, 83.35193
770.9620, 91.77185
772.1090, 112.2690
773.2560, 166.7274
774.4020, 146.4080
775.5490, 149.8904
776.6950, 175.1798
777.8410, 141.6616
778.9870, 247.5190
780.1330, 209.7480
781.2780, 276.2688
782.4230, 268.4774
783.5690, 328.9521
784.7140, 406.9760
785.8590, 446.5520
787.0030, 496.1255
788.1480, 532.6638
789.2920, 553.1584
790.4370, 635.0748
791.5810, 703.9291
792.7250, 836.6462
793.8690, 885.4259
795.0120, 978.9165
796.1560, 1073.958
797.2990, 1248.434
798.4420, 1429.031
799.5850, 1668.293
800.7280, 1973.935
801.8710, 2236.551
803.0130, 2675.826
804.1550, 3212.451
805.2980, 3660.048
806.4400, 4451.689
807.5810, 5355.244
808.7230, 6188.986
809.8650, 7301.684
811.0060, 8150.525
812.1470, 9147.264
813.2880, 9851.101
814.4290, 10058.88
815.5700, 10356.66
816.7110, 10213.36
817.8510, 9986.160
818.9910, 9469.889
820.1310, 9275.609
821.2710, 8949.435
822.4110, 8707.314
823.5510, 8541.228
824.6900, 8485.147
825.8290, 8503.939
826.9680, 8648.839
828.1070, 8797.757
829.2460, 9045.788
830.3850, 9369.993
831.5230, 9685.769
832.6620, 10092.63
833.8000, 10540.50
834.9380, 10837.41
836.0760, 11181.36
837.2130, 11380.33
838.3510, 11772.33
839.4880, 11966.35
840.6250, 12067.35
841.7620, 12037.90
842.8990, 11887.85
844.0360, 11569.91
845.1720, 11251.97
846.3090, 10725.61
847.4450, 10334.16
848.5810, 9826.150
849.7170, 9096.191
850.8530, 8531.237
851.9880, 8055.356
853.1240, 7612.485
854.2590, 7030.906
855.3940, 6664.018
856.5290, 6165.151
857.6640, 5781.356
858.7980, 5439.223
859.9330, 5195.414
861.0670, 4967.297
862.2010, 4594.502
863.3350, 4260.097
864.4690, 4039.922
865.6030, 3809.031
866.7360, 3756.419
867.8690, 3482.683
869.0020, 3421.851
870.1350, 3264.986
871.2680, 3036.507
872.4010, 2942.811
873.5330, 2912.966
874.6660, 2733.299
875.7980, 2749.643
876.9300, 2642.000
878.0620, 2558.304
879.1930, 2441.222
880.3250, 2397.740
881.4560, 2413.017
882.5870, 2311.432
883.7180, 2303.766
884.8490, 2261.206
885.9800, 2231.656
887.1100, 2228.431
888.2410, 2371.906
889.3710, 2344.395
890.5010, 2359.271
891.6310, 2296.784
892.7610, 2353.311
893.8900, 2305.320
895.0200, 2449.872
896.1490, 2414.436
897.2780, 2449.013
898.4070, 2703.602
899.5360, 2613.205
900.6640, 2658.824
901.7920, 2681.577
902.9210, 2714.062
904.0490, 2671.584
905.1770, 2711.256
906.3040, 2664.074
907.4320, 2655.968
908.5600, 2653.345
909.6870, 2592.021
910.8140, 2614.818
911.9410, 2529.865
913.0680, 2462.638
914.1940, 2543.423
915.3210, 2530.349
916.4470, 2494.165
917.5730, 2546.739
918.6990, 2471.432
919.8250, 2543.301
920.9500, 2505.358
922.0760, 2454.264
923.2010, 2457.193
924.3260, 2365.555
925.4510, 2308.509
926.5760, 2263.660
927.7010, 2161.482
928.8250, 2064.499
929.9500, 1975.530
931.0740, 1859.575
932.1980, 1734.635
933.3220, 1643.086
934.4450, 1533.188
935.5690, 1428.318
936.6920, 1341.009
937.8150, 1273.952
938.9380, 1177.130
940.0610, 1112.322
941.1840, 1064.526
942.3060, 989.6967
943.4290, 882.0232
944.5510, 867.3032
945.6730, 766.5630
946.7950, 692.8716
947.9160, 691.2068
949.0380, 581.5537
950.1590, 645.9136
951.2800, 573.2852
952.4010, 525.6750
953.5220, 533.0787
954.6430, 524.4966
955.7630, 487.9279
956.8840, 460.3711
958.0040, 435.8262
959.1240, 441.2991
960.2440, 372.7841
961.3640, 400.2827
962.4830, 416.7942
963.6030, 374.3173
964.7220, 367.8533
965.8410, 334.4207
966.9600, 366.0004
968.0780, 344.5922
969.1970, 325.2188
970.3150, 313.8567
971.4340, 306.5083
972.5520, 253.1807
973.6700, 204.8641
974.7870, 258.5591
975.9050, 218.2650
977.0220, 220.9897
978.1390, 264.7290
979.2560, 193.4814
980.3730, 260.2466
981.4900, 262.0288
982.6070, 211.8259
983.7230, 211.6342
984.8390, 163.4532
985.9550, 206.2831
987.0710, 162.1233
988.1870, 119.9844
989.3030, 150.8605
990.4180, 149.7531
991.5330, 172.6559
992.6480, 192.5801
993.7630, 169.5164
994.8780, 167.4625
995.9930, 141.4318
997.1070, 155.4224
998.2210, 137.4288
999.3350, 162.4471
1000.449, 132.4755
1001.563, 106.5138
1002.677, 89.56140
1003.790, 102.6206
1004.903, 61.69006
1006.016, 97.77283
1007.129, 94.87427
1008.242, 99.98596
1009.355, 115.1072
1010.467, 102.2377
1011.579, 101.6901
1012.691, 112.5258
1013.803, 73.68555
1014.915, 74.24817
1016.027, 42.03125
1017.138, 47.21704
1018.249, 56.41174
1019.360, 14.61499
1020.471, 39.51428
1021.582, 10.18933
1022.693, 70.28052
1023.803, 14.48022
1024.913, 18.76270
1026.023, 44.01379
1027.133, 14.72754
1028.243, 3.533936
1029.353, 4.803223
1030.462, 4.079956
1031.571, 7.990112
1032.680, 14.65637
1033.789, 7.956055
1034.898, 27.73706
1036.007, 21.43372
1037.115, 42.02246
1038.223, 2.160889
1039.331, 46.54016
1040.439, 19.25378
1041.547, 27.03174
1042.655, 43.67615
1043.762, 24.39587
1044.869, 7.119019
1045.976, 15.16064
1047.083, 7.446655
1048.190, 44.26135
1049.297, 34.01758
1050.403, 36.69739
1051.509, 18.42273
1052.615, 11.84973
1053.721, 2.872314
1054.827, 17.40881
1055.933, 48.87390
1057.038, 28.83435
1058.143, 37.44946
1059.248, 2.261597
1060.353, 35.97009
1061.458, 38.30957
1062.563, 36.59399
1063.667, 7.882935
1064.771, 44.17639
1065.875, 44.52588
1066.979, 38.56897
1068.083, 100.8542
1069.186, 24.85681
1070.290, 44.42383
1071.393, 12.70837
1072.496, 58.34131
1073.599, 57.63293
1074.702, 103.2643
1075.804, 16.56274
1076.907, 35.28015
1078.009, 15.41541
1079.111, 61.88281
1080.213, 79.60010
1081.315, 56.90344
1082.416, 78.44861
1083.517, 89.75659
1084.619, 46.39551
1085.720, 108.1133
1086.821, 87.87573
1087.921, 98.44336
1089.022, 78.76123
1090.122, 88.14062
1091.222, 85.40601
1092.322, 55.40710
1093.422, 83.27869
1094.522, 79.75378
1095.622, 79.07971
1096.721, 94.67310
1097.820, 98.41284
1098.919, 147.4419
1100.018, 101.8888
1101.117, 124.6121
1102.215, 105.9774
1103.314, 145.8435
1104.412, 141.3677
1105.510, 117.6965
1106.608, 148.1702
1107.705, 182.4979
1108.803, 155.1001
1109.900, 156.1710
1110.997, 104.0178
1112.094, 133.7770
1113.191, 117.1005
1114.288, 119.7229
1115.384, 148.0483
1116.481, 162.3877
1117.577, 151.7058
1118.673, 170.0223
1119.769, 165.7639
1120.864, 146.3721
1121.960, 159.0382
1123.055, 184.3470
1124.150, 234.2159
1125.245, 196.5457
1126.340, 223.8779
1127.434, 182.7565
1128.529, 170.7242
1129.623, 143.6509
1130.717, 157.9417
1131.811, 194.2854
1132.905, 251.6667
1133.999, 180.9479
1135.092, 236.4728
1136.185, 199.7472
1137.279, 217.0668
1138.371, 208.4172
1139.464, 190.6881
1140.557, 203.0333
1141.649, 145.3591
1142.742, 207.6112
1143.834, 204.8593
1144.926, 233.1031
1146.017, 149.3429
1147.109, 151.5784
1148.200, 151.8096
1149.292, 194.0365
1150.383, 181.2590
1151.474, 178.4771
1152.564, 216.6906
1153.655, 176.8992
1154.745, 163.1094
1155.835, 150.8691
1156.925, 126.0637
1158.015, 138.2533
1159.105, 162.9674
1160.195, 148.1720
1161.284, 181.3469
1162.373, 117.5168
1163.462, 110.8667
1164.551, 136.0262
1165.640, 99.18066
1166.728, 118.2101
1167.817, 109.5132
1168.905, 139.7891
1169.993, 82.92224
1171.081, 80.92078
1172.168, 124.2614
1173.256, 67.37915
1174.343, 92.47144
1175.430, 117.5255
1176.517, 99.33777
1177.604, 54.43494
1178.691, 101.5270
1179.777, 108.4884
1180.864, 43.56995
1181.950, 134.9045
1183.036, 61.13818
1184.121, 103.2045
1185.207, 77.09216
1186.293, 2.852051
1187.378, 45.18774
1188.463, 44.80103
1189.548, 37.83044
1190.633, 33.67444
1191.717, 46.85693
1192.802, 31.87061
1193.886, 58.87915
1194.970, 38.88232
1196.054, 43.88000
1197.138, 0.5092770
1198.221, 88.48877
1199.305, 60.26318
1200.388, 56.39722
1201.471, 86.05872
1202.554, 10.01733
1203.637, 49.96692
1204.719, 8.088745
1205.801, 42.83789
1206.884, 9.240601
1207.966, 29.66248
1209.048, 35.59705
1210.129, 41.51086
1211.211, 30.34619
1212.292, 14.19763
1213.373, 35.04126
1214.454, 8.120728
1215.535, 8.699707
1216.616, 7.510498
1217.696, 14.31128
1218.777, 36.10400
1219.857, 24.89087
1220.937, 11.32849
1222.017, 23.43250
1223.096, 5.186646
1224.176, 19.92993
1225.255, 45.66589
1226.334, 14.39600
1227.413, 51.88232
1228.492, 28.79846
1229.570, 22.47290
1230.649, 72.85974
1231.727, 28.75586
1232.805, 5.364868
1233.883, 22.03699
1234.961, 57.53613
1236.038, 21.10339
1237.116, 55.66321
1238.193, 14.21704
1239.270, 0.7624510
1240.347, 5.294922
1241.424, 7.816650
