##NAMES=Fayalite
##RRUFFID=R070374
##IDEAL CHEMISTRY=Fe^2+^_2_SiO_4_
##LOCALITY=Little Lake, Lake County, California, USA
##OWNER=RRUFF
##SOURCE=Michael Scott
##DESCRIPTION=Large dark brown crystal fragment
##STATUS=The identification of this mineral has been confirmed by X-ray diffraction and chemical analysis
##URL=rruff.info/R070374
##MEASURED CHEMISTRY=(Fe^2+^_1.89_Mn^2+^_0.11_)_Î£=2_Si_1.00_O_4_ ; trace amounts of Mg
##PIN_ID=M01107
##ORIENTATION=Laser parallel to b* (0 1 0). Fiducial mark perpendicular to laser is parallel to c [0 0 1]
78.28300, 0.0000000E+00
79.52300, 16.45117
80.76300, 304.6182
82.00300, 663.8169
83.24300, 802.8140
84.48300, 408.0581
85.72200, 93.13965
86.96100, 17.84668
88.20000, 45.48389
89.43900, 42.62988
90.67800, 273.3525
91.91600, 407.1060
93.15500, 375.6191
94.39300, 444.7266
95.63100, 250.4292
96.86900, 587.3691
98.10600, 408.0356
99.34400, 385.2012
100.5810, 472.5151
101.8190, 195.8442
103.0560, 349.2441
104.2930, 398.3882
105.5290, 601.2539
106.7660, 976.5830
108.0020, 939.0596
109.2390, 884.3037
110.4750, 762.4849
111.7110, 493.8652
112.9460, 352.4092
114.1820, 587.9272
115.4170, 704.1104
116.6530, 523.0059
117.8880, 416.3921
119.1230, 414.5698
120.3580, 53.97656
121.5920, 445.7935
122.8270, 566.1592
124.0610, 390.1450
125.2950, 102.7080
126.5290, 96.83887
127.7630, 93.54395
128.9970, 178.7886
130.2300, 235.7329
131.4640, 78.47168
132.6970, 90.71240
133.9300, 96.55469
135.1630, 13.30420
136.3950, 93.43359
137.6280, 18.03955
138.8600, 191.5435
140.0920, 213.3960
141.3240, 43.09375
142.5560, 131.4771
143.7880, 122.8755
145.0190, 282.2349
146.2510, 311.4561
147.4820, 363.7339
148.7130, 311.5864
149.9440, 192.0791
151.1750, 298.6528
152.4050, 493.1255
153.6360, 371.4854
154.8660, 514.3979
156.0960, 346.9448
157.3260, 421.5264
158.5560, 350.1694
159.7850, 430.8809
161.0150, 565.6504
162.2440, 634.4668
163.4730, 754.3062
164.7020, 947.2231
165.9310, 965.1978
167.1590, 1018.382
168.3880, 1086.960
169.6160, 1004.355
170.8440, 1214.793
172.0720, 1245.431
173.3000, 1225.617
174.5280, 1004.431
175.7550, 854.0464
176.9820, 495.6108
178.2100, 396.1377
179.4370, 312.6211
180.6630, 171.0342
181.8900, 126.3760
183.1170, 85.67383
184.3430, 157.9077
185.5690, 189.0874
186.7950, 279.2256
188.0210, 219.3501
189.2470, 216.4609
190.4720, 333.5703
191.6970, 209.6602
192.9230, 235.7129
194.1480, 206.7271
195.3730, 296.6982
196.5970, 402.6333
197.8220, 362.5605
199.0460, 312.4609
200.2700, 372.4761
201.4940, 334.7817
202.7180, 71.04980
203.9420, 75.79004
205.1660, 17.50439
206.3890, 26.88770
207.6120, 86.89746
208.8350, 51.67041
210.0580, 22.35938
211.2810, 40.36475
212.5040, 58.65820
213.7260, 33.67236
214.9480, 23.92041
216.1700, 28.89941
217.3920, 17.47266
218.6140, 19.66260
219.8360, 54.65234
221.0570, 21.14404
222.2790, 121.9556
223.5000, 46.94775
224.7210, 83.85498
225.9410, 275.9136
227.1620, 319.3999
228.3820, 465.4678
229.6030, 389.1123
230.8230, 574.0957
232.0430, 575.8804
233.2630, 492.1758
234.4820, 679.8154
235.7020, 633.4692
236.9210, 753.9624
238.1400, 919.1260
239.3590, 784.1602
240.5780, 832.0562
241.7970, 716.8164
243.0150, 661.4414
244.2340, 604.9341
245.4520, 530.2988
246.6700, 502.4976
247.8880, 553.5815
249.1060, 354.3311
250.3230, 398.1099
251.5400, 264.7612
252.7580, 333.2505
253.9750, 293.5371
255.1920, 266.6587
256.4080, 202.6704
257.6250, 302.5293
258.8410, 295.2568
260.0580, 199.8730
261.2740, 425.3594
262.4900, 364.7456
263.7050, 390.0405
264.9210, 363.2427
266.1360, 368.3564
267.3520, 473.8169
268.5670, 418.7881
269.7820, 514.6914
270.9960, 665.5288
272.2110, 755.1123
273.4250, 846.3145
274.6400, 923.5303
275.8540, 1064.660
277.0680, 1101.983
278.2810, 1330.646
279.4950, 1379.177
280.7090, 1518.423
281.9220, 1765.186
283.1350, 1941.587
284.3480, 1979.017
285.5610, 2176.014
286.7730, 2228.743
287.9860, 2228.677
289.1980, 2304.635
290.4100, 2258.275
291.6220, 2203.625
292.8340, 1991.103
294.0460, 1946.494
295.2570, 1773.586
296.4690, 1657.817
297.6800, 1486.483
298.8910, 1486.901
300.1020, 1441.090
301.3120, 1310.326
302.5230, 1206.228
303.7330, 1167.991
304.9440, 1190.178
306.1540, 1171.328
307.3630, 1130.322
308.5730, 1088.093
309.7830, 1019.985
310.9920, 947.9133
312.2010, 843.0239
313.4100, 759.0186
314.6190, 670.4629
315.8280, 667.4556
317.0370, 601.1504
318.2450, 525.1658
319.4530, 514.8975
320.6610, 385.1501
321.8690, 368.9688
323.0770, 361.6467
324.2850, 375.7612
325.4920, 357.1497
326.6990, 280.7097
327.9060, 250.5532
329.1130, 167.5801
330.3200, 118.2791
331.5270, 221.5452
332.7330, 157.0288
333.9390, 235.5676
335.1450, 89.75439
336.3510, 188.8987
337.5570, 236.5015
338.7630, 167.8359
339.9680, 224.8672
341.1740, 81.25171
342.3790, 125.6843
343.5840, 127.0889
344.7890, 199.2576
345.9930, 196.9846
347.1980, 189.3762
348.4020, 213.4302
349.6060, 216.2705
350.8100, 234.5386
352.0140, 247.9504
353.2180, 268.6658
354.4210, 269.3115
355.6250, 269.0940
356.8280, 410.6455
358.0310, 388.7791
359.2340, 440.4607
360.4360, 403.2212
361.6390, 531.1394
362.8410, 521.6838
364.0430, 583.2019
365.2450, 650.5488
366.4470, 655.0879
367.6490, 612.2012
368.8510, 576.3994
370.0520, 646.1558
371.2530, 721.1230
372.4540, 635.1406
373.6550, 659.6289
374.8560, 655.8267
376.0560, 521.2151
377.2570, 588.5557
378.4570, 600.8503
379.6570, 525.1101
380.8570, 469.3267
382.0570, 485.5002
383.2560, 502.6284
384.4560, 502.7112
385.6550, 498.7092
386.8540, 431.7429
388.0530, 464.6929
389.2520, 469.5996
390.4510, 435.4634
391.6490, 517.2852
392.8470, 426.0654
394.0450, 435.4116
395.2430, 485.8999
396.4410, 449.7903
397.6390, 498.9275
398.8360, 483.8604
400.0340, 458.6431
401.2310, 521.1204
402.4280, 518.9792
403.6250, 464.7722
404.8210, 382.1309
406.0180, 427.3982
407.2140, 378.3779
408.4100, 392.4299
409.6060, 293.3364
410.8020, 338.2314
411.9980, 337.4243
413.1930, 294.4741
414.3890, 290.5999
415.5840, 287.6919
416.7790, 227.7561
417.9740, 141.7913
419.1680, 184.7952
420.3630, 167.7676
421.5570, 70.70654
422.7510, 104.6138
423.9450, 162.4902
425.1390, 167.3379
426.3330, 79.16797
427.5270, 48.96729
428.7200, 57.73950
429.9130, 127.4780
431.1060, 150.1848
432.2990, 73.86841
433.4920, 31.52295
434.6840, 42.14893
435.8770, 0.7434080
437.0690, 26.30396
438.2610, 18.16675
439.4530, 65.67847
440.6450, 49.74780
441.8360, 47.85449
443.0280, 0.5148930
444.2190, 62.20801
445.4100, 6.033691
446.6010, 11.75513
447.7920, 6.581543
448.9820, 7.558594
450.1730, 2.667236
451.3630, 35.74316
452.5530, 59.78906
453.7430, 82.80566
454.9330, 27.79346
456.1230, 18.24854
457.3120, 43.32935
458.5010, 20.55420
459.6910, 15.59180
460.8800, 22.77490
462.0680, 53.00146
463.2570, 9.236084
464.4460, 13.37183
465.6340, 20.10962
466.8220, 34.64160
468.0100, 29.24365
469.1980, 31.20923
470.3860, 2.755859
471.5730, 12.13818
472.7600, 89.69409
473.9480, 7.976074
475.1350, 53.74658
476.3210, 43.74487
477.5080, 44.05518
478.6950, 30.93604
479.8810, 31.36011
481.0670, 42.60571
482.2530, 34.83081
483.4390, 31.50464
484.6250, 116.3667
485.8100, 73.58887
486.9960, 70.81445
488.1810, 83.34033
489.3660, 17.84619
490.5510, 55.81787
491.7360, 36.85718
492.9200, 86.47241
494.1050, 97.18311
495.2890, 102.9746
496.4730, 176.9082
497.6570, 85.88379
498.8400, 101.8806
500.0240, 232.2451
501.2070, 193.6243
502.3910, 207.0110
503.5740, 145.3923
504.7570, 232.7668
505.9400, 167.1367
507.1220, 205.5107
508.3050, 125.8765
509.4870, 220.2454
510.6690, 170.6028
511.8510, 139.9526
513.0330, 131.2920
514.2140, 158.6157
515.3960, 241.9241
516.5770, 197.2148
517.7580, 187.4893
518.9390, 209.7466
520.1200, 173.9871
521.3010, 218.2109
522.4810, 233.4177
523.6610, 219.6082
524.8420, 212.7825
526.0220, 146.9407
527.2010, 270.0823
528.3810, 223.2083
529.5610, 162.3186
530.7400, 313.4138
531.9190, 241.4932
533.0980, 321.5576
534.2770, 267.6069
535.4560, 397.6414
536.6340, 340.6628
537.8120, 370.6704
538.9910, 434.6665
540.1690, 496.6509
541.3460, 525.6235
542.5240, 608.5854
543.7020, 568.5376
544.8790, 660.4790
546.0560, 678.4092
547.2330, 739.3303
548.4100, 853.2383
549.5870, 747.1348
550.7630, 864.0190
551.9400, 885.8918
553.1160, 845.7532
554.2920, 909.6018
555.4680, 869.4382
556.6440, 894.2625
557.8190, 847.0742
558.9950, 888.7437
560.1700, 897.0474
561.3450, 731.5247
562.5200, 771.9248
563.6950, 771.9136
564.8690, 778.0383
566.0440, 827.3997
567.2180, 732.7759
568.3920, 697.7778
569.5660, 714.6482
570.7400, 691.5498
571.9130, 672.7383
573.0870, 650.0171
574.2600, 652.9717
575.4330, 569.7444
576.6060, 624.5569
577.7790, 558.1045
578.9520, 584.8420
580.1240, 459.5076
581.2960, 476.1997
582.4690, 462.0237
583.6410, 523.8535
584.8120, 493.3650
585.9840, 417.3154
587.1560, 435.9434
588.3270, 443.9893
589.4980, 371.2786
590.6690, 363.9080
591.8400, 328.5154
593.0110, 376.4482
594.1810, 324.5044
595.3510, 291.4829
596.5220, 410.4133
597.6920, 412.3547
598.8610, 376.4250
600.0310, 347.3452
601.2010, 338.4836
602.3700, 330.9087
603.5390, 324.0747
604.7080, 360.8711
605.8770, 385.1121
607.0460, 339.5312
608.2140, 364.6851
609.3830, 445.4048
610.5510, 317.7224
611.7190, 369.6626
612.8870, 296.8735
614.0550, 316.7896
615.2220, 405.9800
616.3900, 423.7102
617.5570, 378.2253
618.7240, 312.1157
619.8910, 334.2148
621.0580, 380.8560
622.2240, 345.5979
623.3910, 315.7495
624.5570, 461.2190
625.7230, 335.5586
626.8890, 405.4551
628.0550, 376.6353
629.2200, 437.9324
630.3860, 428.8552
631.5510, 428.2854
632.7160, 378.4761
633.8810, 398.4937
635.0460, 442.5576
636.2100, 387.6467
637.3750, 281.9902
638.5390, 350.0085
639.7030, 306.0938
640.8670, 381.4214
642.0310, 336.7424
643.1950, 335.0571
644.3580, 360.5493
645.5210, 383.6194
646.6850, 387.9150
647.8480, 342.2046
649.0100, 365.3750
650.1730, 336.6521
651.3350, 356.9229
652.4980, 416.1460
653.6600, 371.3313
654.8220, 378.5835
655.9840, 388.8298
657.1450, 293.0703
658.3070, 341.3049
659.4680, 363.5339
660.6300, 226.7571
661.7910, 345.9744
662.9510, 347.1865
664.1120, 305.3928
665.2730, 418.5938
666.4330, 356.7893
667.5930, 323.9797
668.7530, 387.1648
669.9130, 372.3450
671.0730, 350.5200
672.2320, 397.6902
673.3920, 366.8552
674.5510, 407.0154
675.7100, 331.1704
676.8690, 380.3208
678.0280, 324.4668
679.1860, 321.6079
680.3450, 325.4114
681.5030, 419.8767
682.6610, 327.0042
683.8190, 354.1270
684.9770, 378.2451
686.1340, 327.3591
687.2920, 360.4685
688.4490, 359.5737
689.6060, 382.6746
690.7630, 392.1313
691.9200, 361.8635
693.0760, 380.9517
694.2330, 368.0356
695.3890, 301.1157
696.5450, 335.1914
697.7010, 341.2634
698.8570, 342.3320
700.0130, 289.3984
701.1680, 310.4624
702.3230, 305.5242
703.4780, 331.5857
704.6330, 347.6455
705.7880, 335.7034
706.9430, 355.7590
708.0970, 308.8140
709.2520, 301.8687
710.4060, 326.9231
711.5600, 225.9763
712.7140, 200.0276
713.8670, 312.0781
715.0210, 250.1292
716.1740, 277.1802
717.3270, 214.2329
718.4800, 222.2856
719.6330, 154.3442
720.7860, 188.4209
721.9380, 203.4978
723.0910, 159.5879
724.2430, 186.6792
725.3950, 175.7878
726.5470, 150.8975
727.6980, 111.0107
728.8500, 104.1267
730.0010, 111.2434
731.1530, 25.36108
732.3040, 19.47729
733.4550, 60.59155
734.6050, 16.70508
735.7560, 29.81689
736.9060, 57.06787
738.0560, 11.02515
739.2060, 53.11694
740.3560, 85.21216
741.5060, 49.68677
742.6560, 1.615723
743.8050, 2.548096
744.9540, 54.48633
746.1030, 15.55005
747.2520, 0.5930180
748.4010, 2.362549
749.5500, 0.6762700
750.6980, 68.28857
751.8460, 58.29297
752.9950, 1.333008
754.1420, 89.37817
755.2900, 27.46875
756.4380, 60.56689
757.5850, 23.70117
758.7330, 48.84473
759.8800, 45.01074
761.0270, 49.19336
762.1730, 70.40454
763.3200, 14.36304
764.4670, 8.868896
765.6130, 8.192139
766.7590, 15.35522
767.9050, 17.39380
769.0510, 2.854980
770.1960, 2.889160
771.3420, 125.6382
772.4870, 86.39258
773.6320, 139.1592
774.7770, 162.9294
775.9220, 110.7092
777.0670, 171.4973
778.2110, 180.2842
779.3560, 177.0750
780.5000, 265.8633
781.6440, 337.6497
782.7880, 435.4341
783.9320, 368.2302
785.0750, 450.0286
786.2180, 466.8274
787.3620, 493.6316
788.5050, 559.4343
789.6480, 629.9329
790.7900, 751.0356
791.9330, 861.8384
793.0750, 1073.641
794.2170, 1294.441
795.3590, 1460.239
796.5010, 1571.041
797.6430, 1885.840
798.7850, 2038.637
799.9260, 2441.432
801.0670, 2847.227
802.2080, 3386.024
803.3490, 3984.391
804.4900, 4676.643
805.6310, 5384.449
806.7710, 6150.255
807.9110, 6974.058
809.0510, 7498.860
810.1910, 7932.658
811.3310, 8272.456
812.4710, 8478.254
813.6100, 8459.049
814.7490, 8166.845
815.8880, 7827.641
817.0270, 7433.434
818.1660, 7158.225
819.3050, 6609.015
820.4430, 6405.803
821.5820, 5963.590
822.7200, 5718.375
823.8580, 5493.159
824.9950, 5456.940
826.1330, 5395.718
827.2710, 5474.496
828.4080, 5393.272
829.5450, 5435.047
830.6820, 5546.820
831.8190, 5687.591
832.9560, 5670.361
834.0920, 5876.129
835.2280, 6058.897
836.3650, 6019.662
837.5010, 6062.426
838.6360, 5938.188
839.7720, 5888.950
840.9080, 5726.707
842.0430, 5589.464
843.1780, 5389.218
844.3130, 5109.972
845.4480, 4755.722
846.5830, 4532.470
847.7170, 4171.218
848.8520, 3928.963
849.9860, 3522.706
851.1200, 3363.448
852.2540, 3061.187
853.3870, 2855.925
854.5210, 2547.660
855.6540, 2460.393
856.7880, 2299.124
857.9210, 2127.853
859.0540, 1927.579
860.1860, 1829.303
861.3190, 1678.025
862.4510, 1660.744
863.5840, 1534.461
864.7160, 1453.175
865.8480, 1315.886
866.9790, 1227.361
868.1110, 1159.113
869.2420, 1046.603
870.3740, 981.2639
871.5050, 914.7383
872.6360, 905.2654
873.7660, 765.1609
874.8970, 814.7139
876.0280, 801.3315
877.1580, 708.0161
878.2880, 616.3398
879.4180, 681.4688
880.5480, 674.5457
881.6770, 664.8892
882.8070, 614.3364
883.9360, 561.5571
885.0650, 561.6885
886.1940, 476.9043
887.3230, 595.0278
888.4520, 503.7444
889.5800, 621.9795
890.7090, 456.0103
891.8370, 519.8491
892.9650, 521.4070
894.0930, 505.4026
895.2200, 596.8757
896.3480, 547.6538
897.4750, 649.2842
898.6020, 489.8359
899.7290, 564.0303
900.8560, 516.8333
901.9830, 547.3140
903.1090, 519.2561
904.2360, 536.4077
905.3620, 536.2256
906.4880, 568.9722
907.6140, 538.9111
908.7400, 541.7837
909.8650, 537.4426
910.9900, 575.8491
912.1160, 616.6191
913.2410, 569.3306
914.3660, 562.3196
915.4900, 540.0054
916.6150, 557.7639
917.7390, 566.3987
918.8640, 549.3079
919.9880, 569.9717
921.1120, 548.0857
922.2350, 589.2727
923.3590, 560.1567
924.4820, 570.9163
925.6060, 495.6653
926.7290, 522.3655
927.8520, 503.3618
928.9740, 534.9949
930.0970, 531.5940
931.2190, 479.3503
932.3420, 460.9475
933.4640, 433.6399
934.5860, 397.3838
935.7080, 391.8477
936.8290, 374.6155
937.9510, 374.6101
939.0720, 354.6553
940.1930, 337.2649
941.3140, 306.9250
942.4350, 290.6621
943.5560, 278.1274
944.6760, 266.7241
945.7960, 240.4385
946.9170, 262.3745
948.0370, 257.0149
949.1560, 274.1392
950.2760, 257.7222
951.3960, 267.5825
952.5150, 264.0696
953.6340, 252.6692
954.7530, 247.4075
955.8720, 190.0012
956.9910, 268.5664
958.1090, 259.1272
959.2280, 276.6853
960.3460, 185.2393
961.4640, 205.9170
962.5820, 247.4717
963.6990, 173.1970
964.8170, 171.7651
965.9340, 168.3672
967.0510, 256.9451
968.1690, 164.6072
969.2850, 222.2700
970.4020, 185.7959
971.5190, 151.3203
972.6350, 145.8401
973.7510, 53.43726
974.8670, 124.9480
975.9830, 153.4541
977.0990, 152.9944
978.2150, 104.4912
979.3300, 109.9834
980.4450, 158.4709
981.5600, 181.9675
982.6750, 216.4456
983.7900, 200.9192
984.9050, 187.5054
986.0190, 197.7520
987.1340, 181.5808
988.2480, 177.8818
989.3620, 170.3308
990.4750, 127.7751
991.5890, 125.2144
992.7020, 128.6484
993.8160, 112.0779
994.9290, 197.5020
996.0420, 193.9209
997.1550, 114.3347
998.2670, 198.7439
999.3800, 139.1477
1000.492, 187.5461
1001.604, 195.9397
1002.716, 209.3284
1003.828, 133.7131
1004.940, 113.0930
1006.051, 101.4683
1007.163, 118.8391
1008.274, 25.22144
1009.385, 66.59863
1010.496, 52.97046
1011.606, 85.33716
1012.717, 61.71313
1013.827, 73.20093
1014.937, 0.5415040
1016.047, 69.83691
1017.157, 62.21069
1018.267, 37.58130
1019.377, 82.94922
1020.486, 46.31421
1021.595, 78.69312
1022.704, 22.08374
1023.813, 14.52905
1024.922, 5.866211
1026.030, 70.26294
1027.139, 18.67212
1028.247, 11.09692
1029.355, 4.514893
1030.463, 0.9384770
1031.571, 66.63257
1032.678, 5.151611
1033.786, 30.23926
1034.893, 37.62817
1036.000, 17.98853
1037.107, 3.606934
1038.214, 36.75024
1039.321, 25.89624
1040.427, 12.56616
1041.533, 43.25366
1042.639, 7.871582
1043.745, 35.60938
1044.851, 25.37769
1045.957, 39.06006
1047.062, 12.74048
1048.168, 44.44043
1049.273, 26.61450
1050.378, 55.78125
1051.482, 43.05859
1052.587, 5.897461
1053.692, 0.2429200
1054.796, 15.37915
1055.900, 8.182861
1057.004, 24.17651
1058.108, 26.51587
1059.212, 7.108154
1060.315, 5.036621
1061.418, 53.06177
1062.522, 129.0798
1063.625, 7.908691
1064.728, 75.95239
1065.830, 42.23828
1066.933, 29.21851
1068.035, 17.86279
1069.137, 2.174072
1070.239, 35.01831
1071.341, 10.89380
1072.443, 103.8462
1073.545, 55.73950
1074.646, 71.75439
1075.747, 99.63306
1076.848, 68.50439
1077.949, 39.43359
1079.050, 14.33667
1080.150, 57.12109
1081.251, 9.222168
1082.351, 96.04761
1083.451, 36.86572
1084.551, 57.69629
1085.651, 64.49805
1086.750, 30.33154
1087.850, 64.32324
1088.949, 100.1008
1090.048, 82.87109
1091.147, 86.88208
1092.246, 97.74268
1093.345, 43.45752
1094.443, 124.1973
1095.541, 29.92969
1096.639, 66.91504
1097.737, 57.63062
1098.835, 62.33838
1099.933, 41.03809
1101.030, 39.75317
1102.128, 108.4358
1103.225, 77.74390
1104.322, 94.41138
1105.419, 52.07153
1106.515, 90.72339
1107.612, 76.36743
1108.708, 62.00415
1109.804, 124.6328
1110.900, 92.25439
1111.996, 98.86841
1113.092, 67.47485
1114.187, 76.07373
1115.283, 75.66528
1116.378, 42.24927
1117.473, 119.8252
1118.568, 87.39331
1119.662, 139.9543
1120.757, 103.5081
1121.851, 127.0544
1122.946, 132.2915
1124.040, 112.1255
1125.134, 127.6501
1126.227, 152.1672
1127.321, 128.6775
1128.414, 123.1804
1129.508, 113.6760
1130.601, 101.1643
1131.693, 108.6460
1132.786, 90.11987
1133.879, 157.5872
1134.971, 92.04712
1136.064, 127.5000
1137.156, 147.9460
1138.248, 108.3848
1139.339, 128.8164
1140.431, 130.1318
1141.522, 170.5496
1142.614, 79.95996
1143.705, 118.3638
1144.796, 106.7600
1145.887, 141.1492
1146.977, 141.1753
1148.068, 132.5610
1149.158, 127.9292
1150.248, 129.2261
1151.338, 84.58032
1152.428, 147.8984
1153.518, 140.2380
1154.607, 148.4390
1155.696, 78.48950
1156.785, 112.5979
1157.874, 113.9092
1158.963, 58.06323
1160.052, 77.17700
1161.141, 94.21899
1162.229, 119.1382
1163.317, 37.79883
1164.405, 58.29956
1165.493, 60.45166
1166.581, 81.62646
1167.668, 50.27002
1168.756, 74.79932
1169.843, 60.94653
1170.930, 88.04346
1172.017, 75.96069
1173.103, 20.93677
1174.190, 81.11743
1175.276, 56.54321
1176.363, 4.597412
1177.449, 65.70117
1178.535, 73.51929
1179.620, 61.63306
1180.706, 68.61206
1181.791, 98.81494
1182.877, 25.68188
1183.962, 25.86987
1185.047, 0.4323730
1186.131, 25.99658
1187.216, 2.144775
1188.300, 0.3525390
1189.385, 1.195801
1190.469, 2.818848
1191.553, 47.52905
1192.637, 81.59424
1193.720, 124.6863
1194.804, 11.38647
1195.887, 34.31177
1196.970, 40.65015
1198.053, 56.44678
1199.136, 69.33667
1200.219, 33.67334
1201.301, 65.16479
1202.383, 7.711182
1203.465, 36.68555
1204.547, 0.3984380
1205.629, 40.56641
1206.711, 44.52759
1207.792, 2.484619
1208.874, 6.315674
1209.955, 16.08252
1211.036, 4.196777
1212.117, 32.19678
1213.198, 67.12402
1214.278, 18.08838
1215.359, 31.77051
1216.439, 4.655029
1217.519, 3.606934
1218.599, 13.26758
1219.678, 39.16333
1220.758, 4.944092
1221.837, 28.94312
1222.917, 36.17261
1223.996, 46.57178
1225.075, 15.43213
1226.153, 5.885254
1227.232, 63.94629
1228.310, 106.7363
1229.389, 19.54419
1230.467, 2.260498
1231.545, 21.96924
1232.622, 14.19238
1233.700, 51.63818
1234.777, 46.46631
1235.855, 37.21021
1236.932, 34.03369
1238.009, 31.64722
1239.086, 26.63550
1240.162, 28.45264
1241.239, 56.26758
1242.315, 53.08032
1243.391, 4.877441
1244.467, 4.686523
1245.543, 29.49854
1246.619, 70.19092
1247.694, 9.009277
1248.769, 99.82568
1249.844, 41.64087
1250.919, 60.45410
1251.994, 14.26587
1253.069, 67.07617
1254.144, 24.88623
1255.218, 103.6948
1256.292, 86.50586
1257.366, 50.31543
1258.440, 82.12378
1259.514, 110.9309
1260.587, 30.73730
