##NAMES=Fayalite
##RRUFFID=R070374
##IDEAL CHEMISTRY=Fe^2+^_2_SiO_4_
##LOCALITY=Little Lake, Lake County, California, USA
##OWNER=RRUFF
##SOURCE=Michael Scott
##DESCRIPTION=Large dark brown crystal fragment
##STATUS=The identification of this mineral has been confirmed by X-ray diffraction and chemical analysis
##URL=rruff.info/R070374
##MEASURED CHEMISTRY=(Fe^2+^_1.89_Mn^2+^_0.11_)_Î£=2_Si_1.00_O_4_ ; trace amounts of Mg
##PIN_ID=M01077
##ORIENTATION=Laser parallel to a* (1 0 0). Fiducial mark perpendicular to laser is parallel to b [0 1 0]
95.63100, 0.0000000E+00
96.86900, 1.636108
98.10600, 51.53210
99.34400, 103.5043
100.5810, 146.6989
101.8190, 115.1816
103.0560, 182.7349
104.2930, 252.7246
105.5290, 439.8761
106.7660, 516.7778
108.0020, 573.6802
109.2390, 558.6335
110.4750, 611.9032
111.7110, 629.5559
112.9460, 815.4628
114.1820, 884.7183
115.4170, 896.4358
116.6530, 903.7859
117.8880, 868.7874
119.1230, 817.5327
120.3580, 721.0892
121.5920, 626.7406
122.8270, 525.9545
124.0610, 436.0531
125.2950, 339.3462
126.5290, 204.4514
127.7630, 101.3557
128.9970, 58.50977
130.2300, 105.6711
131.4640, 0.8746340
132.6970, 20.46729
133.9300, 5.710327
135.1630, 3.133057
136.3950, 55.05127
137.6280, 17.96558
138.8600, 71.92615
140.0920, 76.83838
141.3240, 53.70886
142.5560, 52.54370
143.7880, 66.34802
145.0190, 109.2505
146.2510, 190.8871
147.4820, 257.6343
148.7130, 337.3722
149.9440, 471.0831
151.1750, 726.4246
152.4050, 1006.678
153.6360, 1102.137
154.8660, 1227.280
156.0960, 1157.834
157.3260, 1030.437
158.5560, 881.0862
159.7850, 799.7791
161.0150, 750.5103
162.2440, 916.2729
163.4730, 1095.065
164.7020, 1297.886
165.9310, 1775.735
167.1590, 2325.609
168.3880, 3250.510
169.6160, 4004.435
170.8440, 4314.374
172.0720, 4411.337
173.3000, 4037.326
174.5280, 3175.344
175.7550, 2362.391
176.9820, 1585.466
178.2100, 1065.569
179.4370, 781.7000
180.6630, 580.8550
181.8900, 466.0334
183.1170, 427.2352
184.3430, 408.4596
185.5690, 479.7078
186.7950, 371.9803
188.0210, 378.2853
189.2470, 387.6193
190.4720, 307.9387
191.6970, 385.2843
192.9230, 291.6694
194.1480, 384.1108
195.3730, 348.6075
196.5970, 327.1371
197.8220, 274.6849
199.0460, 245.2688
200.2700, 206.8829
201.4940, 213.5217
202.7180, 27.17334
203.9420, 17.12903
205.1660, 63.39685
206.3890, 85.65601
207.6120, 71.89819
208.8350, 65.13159
210.0580, 32.35718
211.2810, 29.90356
212.5040, 5.780273
213.7260, 1.978638
214.9480, 12.83020
216.1700, 47.64526
217.3920, 53.46179
218.6140, 110.9301
219.8360, 155.0996
221.0570, 227.9208
222.2790, 293.7434
223.5000, 362.5619
224.7210, 494.3102
225.9410, 588.9716
227.1620, 745.5883
228.3820, 909.1949
229.6030, 1106.806
230.8230, 1385.425
232.0430, 1687.046
233.2630, 2030.675
234.4820, 2419.310
235.7020, 2810.949
236.9210, 3147.595
238.1400, 3277.247
239.3590, 3372.172
240.5780, 3322.568
241.7970, 3191.236
243.0150, 2953.930
244.2340, 2589.240
245.4520, 2237.938
246.6700, 1827.723
247.8880, 1554.573
249.1060, 1349.471
250.3230, 1150.408
251.5400, 1032.376
252.7580, 908.3701
253.9750, 787.3767
255.1920, 781.3964
256.4080, 643.4280
257.6250, 672.4702
258.8410, 668.5215
260.0580, 629.5798
261.2740, 667.6431
262.4900, 631.7083
263.7050, 607.6993
264.9210, 651.7000
266.1360, 666.7092
267.3520, 791.7271
268.5670, 855.7527
269.7820, 962.7850
270.9960, 1050.817
272.2110, 1141.845
273.4250, 1392.869
274.6400, 1516.182
275.8540, 1759.345
277.0680, 1985.362
278.2810, 2147.545
279.4950, 2340.036
280.7090, 2511.052
281.9220, 2704.123
283.1350, 2613.635
284.3480, 2632.886
285.5610, 2598.244
286.7730, 2393.611
287.9860, 2290.484
289.1980, 2099.577
290.4100, 1973.143
291.6220, 1733.943
292.8340, 1581.302
294.0460, 1520.912
295.2570, 1310.447
296.4690, 1154.856
297.6800, 1049.143
298.8910, 960.2122
300.1020, 937.0181
301.3120, 849.2676
302.5230, 848.4707
303.7330, 829.9260
304.9440, 892.6650
306.1540, 817.9756
307.3630, 853.0902
308.5730, 848.2601
309.7830, 800.9009
310.9920, 774.7267
312.2010, 755.2297
313.4100, 727.5676
314.6190, 690.6868
315.8280, 682.8187
317.0370, 616.4266
318.2450, 540.7144
319.4530, 548.7618
320.6610, 441.9028
321.8690, 461.9645
323.0770, 390.1218
324.2850, 404.2830
325.4920, 363.4559
326.6990, 356.5815
327.9060, 400.9689
329.1130, 370.0488
330.3200, 331.1057
331.5270, 292.1768
332.7330, 375.4409
333.9390, 368.5173
335.1450, 365.3547
336.3510, 324.2329
337.5570, 338.0731
338.7630, 369.9255
339.9680, 359.1154
341.1740, 399.3096
342.3790, 400.4684
343.5840, 447.3245
344.7890, 512.1816
345.9930, 507.0393
347.1980, 580.8950
348.4020, 578.7549
349.6060, 620.5105
350.8100, 676.3716
352.0140, 781.8478
353.2180, 825.1958
354.4210, 806.9780
355.6250, 935.8313
356.8280, 990.8473
358.0310, 1126.314
359.2340, 1234.965
360.4360, 1272.847
361.6390, 1350.736
362.8410, 1519.623
364.0430, 1563.507
365.2450, 1752.397
366.4470, 1748.284
367.6490, 1793.173
368.8510, 1797.062
370.0520, 1832.957
371.2530, 1856.856
372.4540, 1805.757
373.6550, 1769.678
374.8560, 1588.567
376.0560, 1611.470
377.2570, 1450.379
378.4570, 1348.286
379.6570, 1329.202
380.8570, 1286.127
382.0570, 1173.048
383.2560, 1067.972
384.4560, 983.8972
385.6550, 938.8247
386.8540, 896.7664
388.0530, 849.7205
389.2520, 794.6852
390.4510, 696.6581
391.6490, 583.6399
392.8470, 553.6184
394.0450, 504.6016
395.2430, 459.5847
396.4410, 426.5618
397.6390, 366.5471
398.8360, 322.5358
400.0340, 307.5225
401.2310, 293.5037
402.4280, 253.4803
403.6250, 227.4497
404.8210, 171.4178
406.0180, 173.3792
407.2140, 162.3306
408.4100, 175.2764
409.6060, 196.2273
410.8020, 182.3276
411.9980, 133.1302
413.1930, 158.0686
414.3890, 125.9963
415.5840, 86.91394
416.7790, 111.8229
417.9740, 10.72266
419.1680, 40.61133
420.3630, 84.48804
421.5570, 31.35376
422.7510, 19.79041
423.9450, 81.04346
425.1390, 47.87366
426.3330, 43.69177
427.5270, 24.50842
428.7200, 11.35510
429.9130, 11.09888
431.1060, 8.127075
432.2990, 11.37024
433.4920, 18.63000
434.6840, 22.11121
435.8770, 14.81335
437.0690, 18.56494
438.2610, 1.072998
439.4530, 10.69629
440.6450, 13.30542
441.8360, 28.90149
443.0280, 24.51160
444.2190, 6.047363
445.4100, 14.41077
446.6010, 1.895020
447.7920, 6.399048
448.9820, 5.074585
450.1730, 25.53003
451.3630, 19.96924
452.5530, 19.60852
453.7430, 38.21667
454.9330, 5.865234
456.1230, 44.46228
457.3120, 30.77368
458.5010, 30.06787
459.6910, 1.655396
460.8800, 14.59888
462.0680, 45.83411
463.2570, 32.05237
464.4460, 44.25269
465.6340, 31.43530
466.8220, 31.59985
468.0100, 30.82104
469.1980, 37.12512
470.3860, 11.30298
471.5730, 44.67896
472.7600, 51.09558
473.9480, 48.28516
475.1350, 24.21570
476.3210, 49.57776
477.5080, 124.8130
478.6950, 98.13892
479.8810, 145.8264
481.0670, 108.3085
482.2530, 112.6036
483.4390, 187.2728
484.6250, 147.2283
485.8100, 183.0851
486.9960, 243.8070
488.1810, 235.3312
489.3660, 295.4336
490.5510, 297.8967
491.7360, 332.5635
492.9200, 382.2340
494.1050, 425.5562
495.2890, 528.1145
496.4730, 631.9745
497.6570, 767.0270
498.8400, 854.7181
500.0240, 929.7712
501.2070, 1105.099
502.3910, 1338.379
503.5740, 1453.601
504.7570, 1536.848
505.9400, 1643.893
507.1220, 1489.735
508.3050, 1502.859
509.4870, 1310.097
510.6690, 1200.652
511.8510, 1060.573
513.0330, 984.2349
514.2140, 878.1504
515.3960, 729.4746
516.5770, 684.8098
517.7580, 601.1296
518.9390, 617.7502
520.1200, 559.3467
521.3010, 523.0966
522.4810, 492.1277
523.6610, 471.7675
524.8420, 416.8685
526.0220, 446.6825
527.2010, 391.7129
528.3810, 458.5969
529.5610, 452.0112
530.7400, 399.5181
531.9190, 432.8728
533.0980, 423.5793
534.2770, 454.4370
535.4560, 490.2205
536.6340, 467.9169
537.8120, 445.3075
538.9910, 491.1024
540.1690, 482.6267
541.3460, 515.0704
542.5240, 524.5764
543.7020, 513.3691
544.8790, 545.5135
546.0560, 576.1664
547.2330, 600.3822
548.4100, 622.6144
549.5870, 635.1267
550.7630, 655.6577
551.9400, 659.2883
553.1160, 655.7843
554.2920, 667.4375
555.4680, 667.7319
556.6440, 705.5684
557.8190, 674.3875
558.9950, 699.1055
560.1700, 695.6747
561.3450, 669.9833
562.5200, 689.4045
563.6950, 639.1124
564.8690, 665.5513
566.0440, 690.5938
567.2180, 688.7700
568.3920, 577.8966
569.5660, 555.9225
570.7400, 575.8000
571.9130, 564.8995
573.0870, 563.9028
574.2600, 534.2367
575.4330, 539.8151
576.6060, 459.2552
577.7790, 467.9764
578.9520, 466.4067
580.1240, 473.5155
581.2960, 495.5786
582.4690, 474.7770
583.6410, 472.6111
584.8120, 436.0134
585.9840, 500.3765
587.1560, 516.7627
588.3270, 458.8734
589.4980, 427.6768
590.6690, 433.8845
591.8400, 435.2642
593.0110, 464.5654
594.1810, 416.3793
595.3510, 403.9742
596.5220, 354.5590
597.6920, 329.8999
598.8610, 314.1265
600.0310, 351.3152
601.2010, 311.0026
602.3700, 291.6675
603.5390, 299.1814
604.7080, 228.2590
605.8770, 174.3900
607.0460, 164.3995
608.2140, 139.2499
609.3830, 113.7068
610.5510, 138.2810
611.7190, 94.95337
612.8870, 86.90540
614.0550, 117.8522
615.2220, 47.75708
616.3900, 83.43787
617.5570, 95.27808
618.7240, 81.32886
619.8910, 53.30994
621.0580, 21.29834
622.2240, 76.24011
623.3910, 49.15906
624.5570, 35.04504
625.7230, 8.895752
626.8890, 41.70288
628.0550, 49.47668
629.2200, 78.21863
630.3860, 13.93213
631.5510, 8.605469
632.7160, 36.23657
633.8810, 14.83435
635.0460, 39.39307
636.2100, 26.91919
637.3750, 0.5896000
638.5390, 30.85620
639.7030, 17.73181
640.8670, 43.62659
642.0310, 43.95459
643.1950, 6.747559
644.3580, 41.50330
645.5210, 50.72412
646.6850, 3.082886
647.8480, 41.06592
649.0100, 5.186035
650.1730, 20.26709
651.3350, 7.684570
652.4980, 4.411865
653.6600, 7.280029
654.8220, 0.7952880
655.9840, 19.08936
657.1450, 17.94287
658.3070, 8.234619
659.4680, 26.54529
660.6300, 29.70276
661.7910, 26.00378
662.9510, 34.64465
664.1120, 4.732300
665.2730, 1.147461
666.4330, 5.598633
667.5930, 52.08777
668.7530, 45.63879
669.9130, 32.24768
671.0730, 30.90686
672.2320, 37.61523
673.3920, 7.624146
674.5510, 25.16418
675.7100, 8.997070
676.8690, 15.13464
678.0280, 44.75757
679.1860, 25.70264
680.3450, 9.690063
681.5030, 4.289063
682.6610, 1.757202
683.8190, 9.608398
684.9770, 17.92786
686.1340, 3.940552
687.2920, 23.78577
688.4490, 2.386841
689.6060, 45.58484
690.7630, 39.82983
691.9200, 7.118530
693.0760, 41.56702
694.2330, 30.23596
695.3890, 6.888672
696.5450, 1.475464
697.7010, 0.7427980
698.8570, 4.513794
700.0130, 3.315063
701.1680, 3.877563
702.3230, 8.575439
703.4780, 10.04785
704.6330, 30.53394
705.7880, 14.94934
706.9430, 13.41956
708.0970, 0.8764650
709.2520, 15.32043
710.4060, 7.247192
711.5600, 16.82983
712.7140, 28.42798
713.8670, 4.5898002E-02
715.0210, 5.817383
716.1740, 25.29907
717.3270, 11.05603
718.4800, 18.59314
719.6330, 16.25757
720.7860, 19.93652
721.9380, 31.63110
723.0910, 18.93445
724.2430, 16.93140
725.3950, 6.201538
726.5470, 14.46899
727.6980, 38.73022
728.8500, 39.98730
730.0010, 95.23804
731.1530, 2.481689
732.3040, 0.7187500
733.4550, 80.95605
734.6050, 27.19873
735.7560, 33.43921
736.9060, 38.67334
738.0560, 100.9021
739.2060, 44.12598
740.3560, 80.34717
741.5060, 94.56494
742.6560, 90.77783
743.8050, 88.98682
744.9540, 125.1917
746.1030, 116.3933
747.2520, 158.5166
748.4010, 160.5352
749.5500, 147.6594
750.6980, 108.5630
751.8460, 191.4055
752.9950, 216.4543
754.1420, 170.7424
755.2900, 150.5779
756.4380, 112.5203
757.5850, 97.35303
758.7330, 108.5408
759.8800, 115.4033
761.0270, 148.2534
762.1730, 191.6704
763.3200, 213.7871
764.4670, 291.9871
765.6130, 225.3083
766.7590, 338.8123
767.9050, 223.7222
769.0510, 303.2544
770.1960, 326.5669
771.3420, 366.8640
772.4870, 367.5112
773.6320, 402.9377
774.7770, 407.0662
775.9220, 429.0078
777.0670, 431.3171
778.2110, 523.2639
779.3560, 545.2500
780.5000, 619.6157
781.6440, 648.3550
782.7880, 662.0601
783.9320, 715.9614
785.0750, 788.0574
786.2180, 913.8667
787.3620, 1000.554
788.5050, 1045.912
789.6480, 1255.889
790.7900, 1340.113
791.9330, 1490.069
793.0750, 1712.609
794.2170, 1869.125
795.3590, 2120.645
796.5010, 2484.854
797.6430, 2791.704
798.7850, 3152.662
799.9260, 3672.900
801.0670, 4499.052
802.2080, 5216.731
803.3490, 6336.687
804.4900, 7644.414
805.6310, 9100.274
806.7710, 10894.60
807.9110, 12924.81
809.0510, 15054.18
810.1910, 17575.18
811.3310, 19569.02
812.4710, 21427.92
813.6100, 22748.91
814.7490, 22900.19
815.8880, 22993.06
817.0270, 22279.19
818.1660, 21226.39
819.3050, 20231.52
820.4430, 18974.37
821.5820, 18060.84
822.7200, 16989.80
823.8580, 16358.20
824.9950, 15771.03
826.1330, 15523.18
827.2710, 15236.70
828.4080, 15016.65
829.5450, 15138.73
830.6820, 14958.68
831.8190, 15226.64
832.9560, 15394.63
834.0920, 15390.37
835.2280, 15599.20
836.3650, 15626.88
837.5010, 15545.96
838.6360, 15484.08
839.7720, 15232.71
840.9080, 14973.32
842.0430, 14621.81
843.1780, 13840.02
844.3130, 13237.26
845.4480, 12473.51
846.5830, 11799.80
847.7170, 11038.86
848.8520, 10166.51
849.9860, 9386.608
851.1200, 8694.990
852.2540, 8017.272
853.3870, 7356.715
854.5210, 6748.198
855.6540, 6336.077
856.7880, 5723.114
857.9210, 5402.031
859.0540, 4861.438
860.1860, 4606.500
861.3190, 4334.156
862.4510, 3961.841
863.5840, 3618.556
864.7160, 3398.300
865.8480, 3366.074
866.9790, 3113.879
868.1110, 2961.713
869.2420, 2841.568
870.3740, 2620.465
871.5050, 2593.392
872.6360, 2546.350
873.7660, 2426.340
874.8970, 2294.360
876.0280, 2293.412
877.1580, 2246.496
878.2880, 2183.612
879.4180, 2238.760
880.5480, 2195.939
881.6770, 2244.151
882.8070, 2245.395
883.9360, 2322.672
885.0650, 2419.983
886.1940, 2429.327
887.3230, 2607.705
888.4520, 2722.684
889.5800, 2870.564
890.7090, 3070.049
891.8370, 3279.568
892.9650, 3509.122
894.0930, 3849.710
895.2200, 4424.336
896.3480, 4794.004
897.4750, 5435.889
898.6020, 5878.375
899.7290, 6327.654
900.8560, 6805.273
901.9830, 6884.593
903.1090, 6779.775
904.2360, 6368.710
905.3620, 5897.787
906.4880, 5206.806
907.6140, 4637.006
908.7400, 4175.982
909.8650, 3684.121
910.9900, 3361.122
912.1160, 3119.346
913.2410, 2930.974
914.3660, 2821.286
915.4900, 2701.636
916.6150, 2520.965
917.7390, 2619.321
918.8640, 2453.811
919.9880, 2478.724
921.1120, 2423.632
922.2350, 2509.586
923.3590, 2469.221
924.4820, 2300.630
925.6060, 2310.431
926.7290, 2299.620
927.8520, 2269.481
928.9740, 2196.283
930.0970, 2148.393
931.2190, 2072.512
932.3420, 1982.600
933.4640, 1973.702
934.5860, 1911.787
935.7080, 1797.433
936.8290, 1721.613
937.9510, 1670.861
939.0720, 1576.165
940.1930, 1521.025
941.3140, 1425.939
942.4350, 1395.415
943.5560, 1344.165
944.6760, 1285.748
945.7960, 1160.394
946.9170, 1205.885
948.0370, 1060.634
949.1560, 1035.425
950.2760, 1076.260
951.3960, 968.1511
952.5150, 906.0969
953.6340, 955.0938
954.7530, 899.1328
955.8720, 985.2278
956.9910, 817.4670
958.1090, 814.5020
959.2280, 803.8247
960.3460, 785.8965
961.4640, 738.7729
962.5820, 729.4631
963.6990, 705.1050
964.8170, 680.1584
965.9340, 676.3386
967.0510, 633.7461
968.1690, 629.6504
969.2850, 610.2686
970.4020, 598.8474
971.5190, 589.3308
972.6350, 559.3518
973.7510, 561.1748
974.8670, 495.0225
975.9830, 457.9087
977.0990, 489.8398
978.2150, 468.8047
979.3300, 488.8171
980.4450, 446.8684
981.5600, 398.9529
982.6750, 409.0740
983.7900, 372.2317
984.9050, 399.4336
986.0190, 333.6724
987.1340, 370.9453
988.2480, 378.2556
989.3620, 303.6006
990.4750, 312.9812
991.5890, 319.4058
992.7020, 349.8660
993.8160, 221.3635
994.9290, 264.8962
996.0420, 200.4609
997.1550, 252.0583
998.2670, 203.6875
999.3800, 158.3501
1000.492, 190.0437
1001.604, 233.7681
1002.716, 196.5283
1003.828, 171.3193
1004.940, 84.14233
1006.051, 124.9954
1007.163, 93.87939
1008.274, 112.7935
1009.385, 116.7373
1010.496, 53.71069
1011.606, 106.7166
1012.717, 84.75171
1013.827, 83.81665
1014.937, 103.6941
1016.047, 65.03271
1017.157, 93.18701
1018.267, 90.36963
1019.377, 27.58154
1020.486, 49.82202
1021.595, 5.092041
1022.704, 40.39014
1023.813, 21.71582
1024.922, 44.06934
1026.030, 35.93066
1027.139, 27.50073
1028.247, 15.29248
1029.355, 3.755371
1030.463, 9.755127
1031.571, 30.24170
1032.678, 21.70947
1033.786, 31.15625
1034.893, 19.77954
1036.000, 13.17041
1037.107, 12.62036
1038.214, 4.740723
1039.321, 14.92163
1040.427, 6.391113
1041.533, 58.68164
1042.639, 41.03516
1043.745, 29.22461
1044.851, 84.46802
1045.957, 43.71484
1047.062, 50.04907
1048.168, 18.83643
1049.273, 31.35376
1050.378, 30.52979
1051.482, 58.69312
1052.587, 42.85205
1053.692, 66.00195
1054.796, 41.15186
1055.900, 7.707764
1057.004, 51.86816
1058.108, 0.8942870
1059.212, 1.543945
1060.315, 29.39819
1061.418, 38.91284
1062.522, 15.06250
1063.625, 13.96582
1064.728, 25.77148
1065.830, 20.54102
1066.933, 5.482422
1068.035, 41.09644
1069.137, 14.92578
1070.239, 67.78931
1071.341, 73.62622
1072.443, 57.55371
1073.545, 16.62695
1074.646, 40.65674
1075.747, 1.646729
1076.848, 48.56909
1077.949, 18.11450
1079.050, 16.36377
1080.150, 39.25610
1081.251, 46.48413
1082.351, 37.99780
1083.451, 21.04346
1084.551, 73.33496
1085.651, 71.35474
1086.750, 42.59839
1087.850, 132.5854
1088.949, 92.55005
1090.048, 32.61768
1091.147, 93.68286
1092.246, 27.78345
1093.345, 70.61255
1094.443, 100.7449
1095.541, 100.8665
1096.639, 50.78271
1097.737, 121.6863
1098.835, 76.06396
1099.933, 107.9441
1101.030, 119.6836
1102.128, 90.10449
1103.225, 113.1370
1104.322, 65.84717
1105.419, 19.44434
1106.515, 110.2397
1107.612, 36.08984
1108.708, 118.2349
1109.804, 101.7012
1110.900, 129.4358
1111.996, 92.02319
1113.092, 64.50488
1114.187, 152.4004
1115.283, 85.89111
1116.378, 108.4509
1117.473, 145.8164
1118.568, 170.3323
1119.662, 161.8379
1120.757, 157.8413
1121.851, 154.3630
1122.946, 165.8643
1124.040, 171.3811
1125.134, 166.9004
1126.227, 178.4336
1127.321, 231.0085
1128.414, 228.8557
1129.508, 284.3809
1130.601, 240.3735
1131.693, 193.9004
1132.786, 231.4280
1133.879, 226.0471
1134.971, 255.5750
1136.064, 281.3354
1137.156, 211.9116
1138.248, 227.4900
1139.339, 237.0166
1140.431, 235.5432
1141.522, 271.0679
1142.614, 194.1814
1143.705, 189.7031
1144.796, 222.2231
1145.887, 194.7412
1146.977, 256.2573
1148.068, 227.3921
1149.158, 192.9031
1150.248, 205.5835
1151.338, 168.0889
1152.428, 215.9924
1153.518, 177.4915
1154.607, 174.9871
1155.696, 228.4792
1156.785, 193.9673
1157.874, 147.4514
1158.963, 132.9312
1160.052, 140.7036
1161.141, 152.2092
1162.229, 125.4934
1163.317, 108.2087
1164.405, 141.1653
1165.493, 108.6538
1166.581, 118.7400
1167.668, 83.96265
1168.756, 109.3972
1169.843, 99.72656
1170.930, 74.14941
1172.017, 106.4255
1173.103, 92.95972
1174.190, 68.36426
1175.276, 52.93945
1176.363, 69.33203
1177.449, 117.3521
1178.535, 110.7305
1179.620, 93.10229
1180.706, 159.2344
1181.791, 114.8879
1182.877, 107.9827
1183.962, 76.23706
1185.047, 54.22021
1186.131, 41.18701
1187.216, 24.50879
1188.300, 22.81763
1189.385, 20.12744
1190.469, 29.25635
1191.553, 22.56152
1192.637, 37.82837
1193.720, 34.59497
1194.804, 12.38184
1195.887, 11.38525
1196.970, 43.11621
1198.053, 51.31396
1199.136, 11.00854
1200.219, 72.84546
1201.301, 23.74097
1202.383, 7.669922
1203.465, 9.623779
1204.547, 10.39551
1205.629, 2.173828
1206.711, 44.16113
1207.792, 15.87061
1208.874, 14.93335
1209.955, 0.1779790
1211.036, 51.06226
1212.117, 2.936768
1213.198, 14.78955
1214.278, 9.375244
1215.359, 4.568359
1216.439, 11.21240
1217.519, 35.02612
1218.599, 18.30688
1219.678, 3.621826
1220.758, 19.03638
1221.837, 19.32227
1222.917, 29.28369
1223.996, 19.12573
1225.075, 34.57007
1226.153, 15.05811
1227.232, 14.57983
1228.310, 12.86523
1229.389, 31.28979
1230.467, 38.69897
1231.545, 71.09375
1232.622, 26.47729
1233.700, 42.84399
1234.777, 51.19678
1235.855, 5.518311
1236.932, 36.83423
1238.009, 24.13477
1239.086, 87.41699
1240.162, 25.31177
1241.239, 11.91895
1242.315, 73.12769
1243.391, 37.32495
1244.467, 86.50684
1245.543, 13.67676
1246.619, 19.82495
1247.694, 70.95361
1248.769, 79.07007
1249.844, 34.17432
1250.919, 73.26221
1251.994, 4.662109
1253.069, 93.38379
1254.144, 88.41772
1255.218, 74.43945
1256.292, 68.44922
1257.366, 44.44604
1258.440, 93.42773
1259.514, 37.39771
1260.587, 110.3506
1261.661, 92.29199
1262.734, 14.22095
1263.807, 98.12817
1264.880, 52.02319
1265.952, 70.90381
1267.025, 70.77173
1268.097, 89.62695
1269.170, 81.47021
1270.242, 94.30127
1271.314, 33.12012
1272.385, 134.9214
1273.457, 118.7107
1274.528, 84.48804
