##NAMES=Fayalite
##RRUFFID=R070374
##IDEAL CHEMISTRY=Fe^2+^_2_SiO_4_
##LOCALITY=Little Lake, Lake County, California, USA
##OWNER=RRUFF
##SOURCE=Michael Scott
##DESCRIPTION=Large dark brown crystal fragment
##STATUS=The identification of this mineral has been confirmed by X-ray diffraction and chemical analysis
##URL=rruff.info/R070374
##MEASURED CHEMISTRY=(Fe^2+^_1.89_Mn^2+^_0.11_)_Î£=2_Si_1.00_O_4_ ; trace amounts of Mg
##PIN_ID=M01107
##ORIENTATION=Laser parallel to b* (0 1 0). Fiducial mark perpendicular to laser is parallel to c [0 0 1]
94.39300, 0.0000000E+00
95.63100, 119.8809
96.86900, 0.8483890
98.10600, 79.44800
99.34400, 89.97852
100.5810, 42.99316
101.8190, 65.26489
103.0560, 74.47144
104.2930, 84.40674
105.5290, 159.0356
106.7660, 196.8904
108.0020, 212.6125
109.2390, 245.9141
110.4750, 248.2551
111.7110, 202.7070
112.9460, 215.8264
114.1820, 373.8979
115.4170, 431.9766
116.6530, 322.1897
117.8880, 260.3486
119.1230, 180.3591
120.3580, 222.7292
121.5920, 141.4834
122.8270, 241.3245
124.0610, 180.9976
125.2950, 73.84399
126.5290, 72.68945
127.7630, 10.77954
128.9970, 88.54834
130.2300, 38.57300
131.4640, 77.19019
132.6970, 17.74805
133.9300, 29.15063
135.1630, 42.41577
136.3950, 49.59595
137.6280, 130.7771
138.8600, 155.2134
140.0920, 265.3525
141.3240, 79.43042
142.5560, 58.50537
143.7880, 4.556641
145.0190, 53.29395
146.2510, 16.92041
147.4820, 39.78516
148.7130, 1.467773
149.9440, 106.6216
151.1750, 10.90112
152.4050, 111.1279
153.6360, 141.5088
154.8660, 4.373535
156.0960, 106.2322
157.3260, 113.7930
158.5560, 32.49194
159.7850, 80.62256
161.0150, 31.37476
162.2440, 98.83179
163.4730, 142.1006
164.7020, 265.0303
165.9310, 341.2607
167.1590, 450.4050
168.3880, 696.4878
169.6160, 1048.583
170.8440, 1426.678
172.0720, 1693.770
173.3000, 1480.856
174.5280, 1083.932
175.7550, 839.3240
176.9820, 561.2236
178.2100, 415.4482
179.4370, 304.7634
180.6630, 252.8062
181.8900, 152.2937
183.1170, 272.9365
184.3430, 205.4983
185.5690, 271.1873
186.7950, 188.0581
188.0210, 205.7251
189.2470, 176.7131
190.4720, 166.9211
191.6970, 261.6802
192.9230, 198.8115
194.1480, 296.1367
195.3730, 378.0256
196.5970, 348.0413
197.8220, 317.2112
199.0460, 390.2476
200.2700, 445.4006
201.4940, 351.7832
202.7180, 233.6636
203.9420, 116.4929
205.1660, 102.6929
206.3890, 33.53516
207.6120, 38.00073
208.8350, 9.393066
210.0580, 15.79761
211.2810, 52.83057
212.5040, 12.39038
213.7260, 48.85864
214.9480, 108.8538
216.1700, 17.24121
217.3920, 3.300537
218.6140, 47.56494
219.8360, 69.50488
221.0570, 95.92114
222.2790, 80.73315
223.5000, 98.99243
224.7210, 122.0691
225.9410, 104.9319
227.1620, 142.4670
228.3820, 139.6531
229.6030, 307.7576
230.8230, 202.9954
232.0430, 366.9365
233.2630, 440.0347
234.4820, 451.7959
235.7020, 707.3340
236.9210, 752.8413
238.1400, 788.6729
239.3590, 882.3496
240.5780, 830.6384
241.7970, 787.7549
243.0150, 740.4221
244.2340, 649.1040
245.4520, 483.5508
246.6700, 519.7200
247.8880, 431.6982
249.1060, 258.7026
250.3230, 288.6719
251.5400, 184.5754
252.7580, 198.4077
253.9750, 222.1726
255.1920, 176.8672
256.4080, 142.4949
257.6250, 135.0386
258.8410, 112.6165
260.0580, 90.98779
261.2740, 106.2715
262.4900, 132.4836
263.7050, 50.64990
264.9210, 68.77808
266.1360, 17.08862
267.3520, 114.9221
268.5670, 33.78491
269.7820, 57.63013
270.9960, 45.46191
272.2110, 43.92920
273.4250, 59.52734
274.6400, 92.53491
275.8540, 114.9160
277.0680, 86.24829
278.2810, 83.67163
279.4950, 66.84668
280.7090, 15.96826
281.9220, 34.96216
283.1350, 110.1987
284.3480, 34.68506
285.5610, 115.1897
286.7730, 83.48218
287.9860, 164.6467
289.1980, 105.6394
290.4100, 123.7053
291.6220, 113.8430
292.8340, 70.21436
294.0460, 110.9414
295.2570, 130.0864
296.4690, 52.94751
297.6800, 19.24805
298.8910, 164.1128
300.1020, 27.11523
301.3120, 111.4622
302.5230, 66.14722
303.7330, 66.77661
304.9440, 78.88257
306.1540, 7.746338
307.3630, 14.14282
308.5730, 110.5383
309.7830, 52.23560
310.9920, 21.95068
312.2010, 17.45532
313.4100, 11.72900
314.6190, 16.54346
315.8280, 6.205811
317.0370, 12.62256
318.2450, 10.89966
319.4530, 29.57129
320.6610, 22.37305
321.8690, 21.33813
323.0770, 3.093262
324.2850, 18.41943
325.4920, 15.20801
326.6990, 2.986572
327.9060, 54.15356
329.1130, 49.21655
330.3200, 19.52881
331.5270, 53.45215
332.7330, 5.371094
333.9390, 19.39893
335.1450, 1.406250
336.3510, 17.41626
337.5570, 9.322754
338.7630, 2.728271
339.9680, 3.102295
341.1740, 21.92798
342.3790, 42.29858
343.5840, 29.93555
344.7890, 9.729248
345.9930, 38.26514
347.1980, 78.80493
348.4020, 58.28003
349.6060, 28.62866
350.8100, 48.17432
352.0140, 14.96118
353.2180, 24.61450
354.4210, 48.79785
355.6250, 29.60181
356.8280, 42.24609
358.0310, 87.40186
359.2340, 130.0366
360.4360, 45.87207
361.6390, 115.0090
362.8410, 62.28442
364.0430, 86.68677
365.2450, 45.21069
366.4470, 100.8228
367.6490, 84.35352
368.8510, 52.94141
370.0520, 84.60425
371.2530, 77.17676
372.4540, 124.8894
373.6550, 106.5754
374.8560, 160.4338
376.0560, 138.2754
377.2570, 105.1013
378.4570, 81.91040
379.6570, 72.88940
380.8570, 118.4812
382.0570, 62.24463
383.2560, 156.0283
384.4560, 161.7610
385.6550, 148.4805
386.8540, 62.17065
388.0530, 121.8325
389.2520, 76.47070
390.4510, 128.0818
391.6490, 186.6672
392.8470, 156.2278
394.0450, 193.7637
395.2430, 147.2749
396.4410, 186.7620
397.6390, 137.2244
398.8360, 156.6631
400.0340, 210.0588
401.2310, 205.2869
402.4280, 91.46045
403.6250, 160.5159
404.8210, 136.4583
406.0180, 142.4421
407.2140, 140.5134
408.4100, 115.1936
409.6060, 93.95532
410.8020, 95.93115
411.9980, 139.5339
413.1930, 104.9912
414.3890, 97.62305
415.5840, 114.1392
416.7790, 64.62524
417.9740, 87.20630
419.1680, 104.9097
420.3630, 49.68848
421.5570, 64.32861
422.7510, 25.93896
423.9450, 52.46094
425.1390, 99.55884
426.3330, 43.83521
427.5270, 56.48682
428.7200, 48.72583
429.9130, 91.36011
431.1060, 54.84375
432.2990, 66.64941
433.4920, 80.19116
434.6840, 9.798828
435.8770, 43.34619
437.0690, 69.70654
438.2610, 109.2219
439.4530, 94.49194
440.6450, 75.05151
441.8360, 57.01636
443.0280, 41.69824
444.2190, 40.14014
445.4100, 35.83325
446.6010, 46.37695
447.7920, 49.59888
448.9820, 56.85986
450.1730, 79.78174
451.3630, 50.60449
452.5530, 14.96143
453.7430, 28.05908
454.9330, 49.92285
456.1230, 8.202393
457.3120, 85.83521
458.5010, 26.16479
459.6910, 55.81543
460.8800, 106.5508
462.0680, 4.735352
463.2570, 10.85718
464.4460, 57.94922
465.6340, 12.96167
466.8220, 29.48267
468.0100, 10.22290
469.1980, 31.60205
470.3860, 23.74390
471.5730, 51.68726
472.7600, 4.401367
473.9480, 69.29810
475.1350, 1.206543
476.3210, 40.18579
477.5080, 24.28247
478.6950, 52.50537
479.8810, 29.14771
481.0670, 11.71826
482.2530, 31.86108
483.4390, 2.652344
484.6250, 79.28979
485.8100, 17.94629
486.9960, 2.767822
488.1810, 73.30469
489.3660, 47.05737
490.5510, 60.97144
491.7360, 19.79297
492.9200, 38.52856
494.1050, 20.22437
495.2890, 85.77539
496.4730, 119.4058
497.6570, 42.17114
498.8400, 101.8662
500.0240, 87.62085
501.2070, 35.56323
502.3910, 99.71655
503.5740, 61.51245
504.7570, 131.6038
505.9400, 105.4805
507.1220, 120.4561
508.3050, 82.25391
509.4870, 93.28076
510.6690, 84.23486
511.8510, 73.05322
513.0330, 76.14771
514.2140, 88.91016
515.3960, 66.01562
516.5770, 77.03955
517.7580, 63.18164
518.9390, 63.31567
520.1200, 98.31665
521.3010, 103.2151
522.4810, 94.07056
523.6610, 135.1113
524.8420, 35.06665
526.0220, 67.15259
527.2010, 100.2305
528.3810, 68.30078
529.5610, 96.07983
530.7400, 86.10327
531.9190, 65.93237
533.0980, 83.97241
534.2770, 105.0051
535.4560, 143.0312
536.6340, 126.0498
537.8120, 74.06152
538.9910, 124.0662
540.1690, 86.06396
541.3460, 77.05518
542.5240, 123.0398
543.7020, 108.0186
544.8790, 75.86426
546.0560, 122.8320
547.2330, 142.7952
548.4100, 125.7529
549.5870, 126.7056
550.7630, 123.6406
551.9400, 149.4854
553.1160, 133.3533
554.2920, 187.2981
555.4680, 191.2021
556.6440, 137.0747
557.8190, 174.0100
558.9950, 134.7439
560.1700, 168.5718
561.3450, 183.4727
562.5200, 209.1406
563.6950, 220.8691
564.8690, 224.5620
566.0440, 221.4766
567.2180, 216.9900
568.3920, 194.6528
569.5660, 174.3689
570.7400, 156.0549
571.9130, 184.8970
573.0870, 226.5859
574.2600, 162.3223
575.4330, 131.1147
576.6060, 121.6116
577.7790, 163.2483
578.9520, 104.9951
580.1240, 151.8679
581.2960, 173.7170
582.4690, 158.4849
583.6410, 65.24756
584.8120, 91.87671
585.9840, 103.6392
587.1560, 118.2454
588.3270, 103.8960
589.4980, 133.6616
590.6690, 118.5139
591.8400, 157.3777
593.0110, 94.24536
594.1810, 119.9316
595.3510, 130.6252
596.5220, 100.4851
597.6920, 83.53931
598.8610, 77.46021
600.0310, 121.8696
601.2010, 136.4165
602.3700, 86.49829
603.5390, 131.3896
604.7080, 87.90894
605.8770, 142.0200
607.0460, 66.61572
608.2140, 68.35596
609.3830, 72.99731
610.5510, 105.6897
611.7190, 82.63647
612.8870, 55.73340
614.0550, 61.94873
615.2220, 71.96362
616.3900, 85.51831
617.5570, 97.41113
618.7240, 99.22900
619.8910, 129.5186
621.0580, 122.0681
622.2240, 53.84106
623.3910, 84.18188
624.5570, 100.8994
625.7230, 17.33691
626.8890, 70.75146
628.0550, 111.5725
629.2200, 133.1538
630.3860, 90.12964
631.5510, 53.36694
632.7160, 70.19116
633.8810, 90.91602
635.0460, 49.25830
636.2100, 102.3181
637.3750, 92.22510
638.5390, 99.17480
639.7030, 151.4653
640.8670, 115.4614
642.0310, 115.3958
643.1950, 85.32739
644.3580, 83.92212
645.5210, 97.84033
646.6850, 111.7002
647.8480, 150.5571
649.0100, 196.5769
650.1730, 192.5356
651.3350, 98.33740
652.4980, 168.1824
653.6600, 135.0244
654.8220, 61.86377
655.9840, 129.6990
657.1450, 112.5308
658.3070, 81.35840
659.4680, 136.1821
660.6300, 86.00269
661.7910, 75.81982
662.9510, 88.63428
664.1120, 10.44507
665.2730, 140.2158
666.4330, 61.01880
667.5930, 89.81787
668.7530, 110.6130
669.9130, 75.40552
671.0730, 85.19434
672.2320, 109.9800
673.3920, 82.76221
674.5510, 111.5605
675.7100, 105.3149
676.8690, 144.0859
678.0280, 127.8528
679.1860, 146.6162
680.3450, 110.3757
681.5030, 68.13159
682.6610, 87.88354
683.8190, 170.6323
684.9770, 95.37769
686.1340, 96.11914
687.2920, 109.8574
688.4490, 66.59180
689.6060, 108.3224
690.7630, 111.0494
691.9200, 74.77332
693.0760, 61.49377
694.2330, 52.21069
695.3890, 48.09485
696.5450, 92.63379
697.7010, 61.34009
698.8570, 82.04370
700.0130, 91.74377
701.1680, 58.44043
702.3230, 120.1343
703.4780, 76.82544
704.6330, 107.5151
705.7880, 70.20203
706.9430, 43.88538
708.0970, 43.56616
709.2520, 43.24390
710.4060, 52.91956
711.5600, 95.59216
712.7140, 67.26196
713.8670, 74.92859
715.0210, 111.5920
716.1740, 49.25354
717.3270, 78.91235
718.4800, 56.56787
719.6330, 66.22302
720.7860, 74.87476
721.9380, 32.52295
723.0910, 76.16785
724.2430, 15.81006
725.3950, 51.44836
726.5470, 71.08398
727.6980, 24.71667
728.8500, 11.34595
730.0010, 33.97070
731.1530, 4.591431
732.3040, 12.20764
733.4550, 23.82007
734.6050, 6.429199
735.7560, 2.966187
736.9060, 11.36914
738.0560, 22.78540
739.2060, 22.85120
740.3560, 29.48669
741.5060, 17.15051
742.6560, 13.64197
743.8050, 0.8541260
744.9540, 56.34338
746.1030, 31.82983
747.2520, 36.61670
748.4010, 50.79236
749.5500, 0.7310790
750.6980, 15.73792
751.8460, 4.797729
752.9950, 11.65759
754.1420, 8.892090
755.2900, 13.54675
756.4380, 18.98083
757.5850, 0.5877690
758.7330, 22.16492
759.8800, 19.23865
761.0270, 34.36182
762.1730, 14.01196
763.3200, 17.61841
764.4670, 8.640015
765.6130, 9.989258
766.7590, 19.66565
767.9050, 17.66040
769.0510, 1.981567
770.1960, 26.29504
771.3420, 13.39563
772.4870, 34.09558
773.6320, 7.178467
774.7770, 40.44739
775.9220, 18.71191
777.0670, 31.02856
778.2110, 17.21521
779.3560, 10.54590
780.5000, 30.67896
781.6440, 20.09570
782.7880, 32.11060
783.9320, 86.31311
785.0750, 55.51160
786.2180, 7.706177
787.3620, 29.89539
788.5050, 91.07996
789.6480, 67.26062
790.7900, 113.4410
791.9330, 129.6177
793.0750, 103.7904
794.2170, 132.9592
795.3590, 142.1243
796.5010, 156.2854
797.6430, 201.4427
798.7850, 158.5963
799.9260, 250.7462
801.0670, 224.8922
802.2080, 311.8794
803.3490, 329.0183
804.4900, 431.1533
805.6310, 496.2849
806.7710, 592.4126
807.9110, 750.5369
809.0510, 828.6573
810.1910, 914.7742
811.3310, 1115.887
812.4710, 1316.997
813.6100, 1475.103
814.7490, 1548.206
815.8880, 1525.305
817.0270, 1530.400
818.1660, 1511.492
819.3050, 1489.581
820.4430, 1435.053
821.5820, 1362.749
822.7200, 1328.827
823.8580, 1281.903
824.9950, 1294.975
826.1330, 1305.043
827.2710, 1341.108
828.4080, 1331.171
829.5450, 1452.229
830.6820, 1428.285
831.8190, 1566.337
832.9560, 1657.386
834.0920, 1699.432
835.2280, 1771.475
836.3650, 1933.514
837.5010, 1945.551
838.6360, 1998.584
839.7720, 2113.614
840.9080, 2131.795
842.0430, 2070.819
843.1780, 2161.843
844.3130, 2032.846
845.4480, 2020.846
846.5830, 1948.058
847.7170, 1892.071
848.8520, 1731.081
849.9860, 1676.088
851.1200, 1518.093
852.2540, 1522.094
853.3870, 1326.093
854.5210, 1279.089
855.6540, 1206.786
856.7880, 1093.776
857.9210, 1057.763
859.0540, 1002.680
860.1860, 884.6614
861.3190, 865.5021
862.4510, 759.4779
863.5840, 751.4512
864.7160, 643.3207
865.8480, 649.1322
866.9790, 603.0435
868.1110, 597.8290
869.2420, 562.6438
870.3740, 560.5042
871.5050, 574.2893
872.6360, 507.7183
873.7660, 539.6138
874.8970, 450.7839
876.0280, 438.9415
877.1580, 486.6747
878.2880, 423.1749
879.4180, 459.8887
880.5480, 440.4913
881.6770, 442.4353
882.8070, 384.3058
883.9360, 399.1948
885.0650, 405.1335
886.1940, 428.6150
887.3230, 408.4121
888.4520, 426.6406
889.5800, 401.4180
890.7090, 408.3765
891.8370, 354.1593
892.9650, 381.2505
894.0930, 357.7050
895.2200, 453.8025
896.3480, 410.6046
897.4750, 424.9275
898.6020, 323.7063
899.7290, 430.0730
900.8560, 411.8286
901.9830, 416.5896
903.1090, 449.8192
904.2360, 461.6121
905.3620, 404.1802
906.4880, 405.0088
907.6140, 406.6222
908.7400, 435.9343
909.8650, 428.7302
910.9900, 419.6184
912.1160, 472.4158
913.2410, 423.0265
914.3660, 403.8185
915.4900, 396.6025
916.6150, 422.6042
917.7390, 415.7880
918.8640, 421.6971
919.9880, 438.8361
921.1120, 421.6073
922.2350, 453.3560
923.3590, 444.2064
924.4820, 421.1252
925.6060, 463.8549
926.7290, 386.7738
927.8520, 384.6926
928.9740, 391.6116
930.0970, 387.5305
931.2190, 325.4493
932.3420, 327.3729
933.4640, 292.2968
934.5860, 259.2206
935.7080, 293.1449
936.8290, 235.0695
937.9510, 246.9946
939.0720, 235.9203
940.1930, 212.8461
941.3140, 219.7720
942.4350, 204.6982
943.5560, 159.6246
944.6760, 113.5514
945.7960, 123.4784
946.9170, 141.4059
948.0370, 117.3336
949.1560, 72.26160
950.2760, 110.1924
951.3960, 79.12842
952.5150, 95.07068
953.6340, 72.01343
954.7530, 53.95654
955.8720, 36.90015
956.9910, 100.8441
958.1090, 130.7887
959.2280, 54.73389
960.3460, 66.67932
961.4640, 29.62561
962.5820, 90.57214
963.6990, 113.5195
964.8170, 45.46741
965.9340, 50.41589
967.0510, 102.3650
968.1690, 91.31470
969.2850, 62.26514
970.4020, 3.217529
971.5190, 76.17053
972.6350, 46.12402
973.7510, 30.07849
974.8670, 5.964722
975.9830, 59.99500
977.0990, 82.47510
978.2150, 94.82898
979.3300, 50.79089
980.4450, 7.243774
981.5600, 42.71985
982.6750, 40.68433
983.7900, 70.64954
984.9050, 71.61768
986.0190, 43.59119
987.1340, 62.56567
988.2480, 4.540771
989.3620, 16.48328
990.4750, 26.48816
991.5890, 39.46045
992.7020, 98.43372
993.8160, 47.40808
994.9290, 49.38342
996.0420, 34.36133
997.1550, 19.34021
998.2670, 42.32239
999.3800, 31.47021
1000.492, 63.27734
1001.604, 89.26355
1002.716, 33.25134
1003.828, 16.24060
1004.940, 40.23120
1006.051, 16.22351
1007.163, 80.22058
1008.274, 95.22339
1009.385, 11.23486
1010.496, 47.25500
1011.606, 70.28577
1012.717, 41.32385
1013.827, 30.37573
1014.937, 44.43054
1016.047, 31.48621
1017.157, 22.54321
1018.267, 27.60132
1019.377, 42.66052
1020.486, 9.722900
1021.595, 0.2132570
1022.704, 36.85486
1023.813, 7.5562000E-02
1024.922, 22.99927
1026.030, 7.924316
1027.139, 13.15076
1028.247, 1.229004
1029.355, 23.31641
1030.463, 69.40515
1031.571, 31.50623
1032.678, 36.62134
1033.786, 80.73181
1034.893, 23.86450
1036.000, 46.08789
1037.107, 2.157104
1038.214, 35.28064
1039.321, 46.40723
1040.427, 40.53491
1041.533, 12.66943
1042.639, 2.183838
1043.745, 48.96387
1044.851, 11.11267
1045.957, 37.73694
1047.062, 34.40637
1048.168, 37.55139
1049.273, 22.29761
1050.378, 29.84424
1051.482, 4.005249
1052.587, 47.14490
1053.692, 16.37207
1054.796, 0.5261230
1055.900, 53.68176
1057.004, 19.39270
1058.108, 15.44971
1059.212, 38.70142
1060.315, 1.853271
1061.418, 18.00623
1062.522, 66.15979
1063.625, 23.31433
1064.728, 23.50488
1065.830, 27.66089
1066.933, 53.81763
1068.035, 25.05151
1069.137, 45.20984
1070.239, 38.36890
1071.341, 45.52856
1072.443, 68.68896
1073.545, 1.850098
1074.646, 39.01184
1075.747, 23.17444
1076.848, 44.33765
1077.949, 27.50146
1079.050, 64.66602
1080.150, 37.83118
1081.251, 51.99707
1082.351, 88.67896
1083.451, 81.92175
1084.551, 104.4749
1085.651, 47.64319
1086.750, 31.81165
1087.850, 22.98059
1088.949, 5.150146
1090.048, 10.31995
1091.147, 30.49023
1092.246, 47.66113
1093.345, 68.83228
1094.443, 38.02930
1095.541, 47.68494
1096.639, 20.37341
1097.737, 21.54626
1098.835, 22.03735
1099.933, 43.89270
1101.030, 24.06665
1102.128, 54.50452
1103.225, 52.67908
1104.322, 60.85388
1105.419, 49.32483
1106.515, 38.58203
1107.612, 19.48047
1108.708, 6.343628
1109.804, 4.136230
1110.900, 45.99561
1111.996, 38.68542
1113.092, 45.63660
1114.187, 81.80493
1115.283, 49.97351
1116.378, 46.59302
1117.473, 53.83862
1118.568, 97.00732
1119.662, 66.17627
1120.757, 93.34509
1121.851, 86.00598
1122.946, 73.15588
1124.040, 42.38757
1125.134, 58.55664
1126.227, 59.72559
1127.321, 70.14441
1128.414, 20.31335
1129.508, 79.98145
1130.601, 1.152588
1131.693, 25.68030
1132.786, 93.47083
1133.879, 68.62183
1134.971, 71.77295
1136.064, 70.92383
1137.156, 35.07458
1138.248, 74.51453
1139.339, 117.6689
1140.431, 11.82300
1141.522, 77.97693
1142.614, 31.13062
1143.705, 71.28394
1144.796, 81.16418
1145.887, 21.31665
1146.977, 36.46851
1148.068, 84.65381
1149.158, 48.80457
1150.248, 31.95483
1151.338, 54.10449
1152.428, 20.25354
1153.518, 60.39319
1154.607, 21.54126
1155.696, 69.68127
1156.785, 88.82800
1157.874, 28.68713
1158.963, 73.83264
1160.052, 15.97754
1161.141, 27.12170
1162.229, 44.26538
1163.317, 10.40808
1164.405, 16.54993
1165.493, 8.691284
1166.581, 6.255981
1167.668, 19.97144
1168.756, 27.10999
1169.843, 42.24780
1170.930, 42.86853
1172.017, 32.52051
1173.103, 45.65564
1174.190, 24.73071
1175.276, 27.86475
1176.363, 19.99792
1177.449, 25.01917
1178.535, 27.56165
1179.620, 24.28088
1180.706, 26.25793
1181.791, 45.38635
1182.877, 21.37561
1183.962, 3.925415
1185.047, 56.05042
1186.131, 56.17236
1187.216, 20.70435
1188.300, 34.40649
1189.385, 13.70569
1190.469, 33.81470
1191.553, 37.92261
1192.637, 34.02966
1193.720, 41.65881
1194.804, 12.75867
1195.887, 38.33667
1196.970, 13.43103
1198.053, 3.524414
1199.136, 44.62671
1200.219, 50.71741
1201.301, 23.80713
1202.383, 13.89600
1203.465, 22.98376
1204.547, 30.07056
1205.629, 25.30347
1206.711, 15.24146
1207.792, 23.32544
1208.874, 26.40833
1209.955, 25.49036
1211.036, 42.57141
1212.117, 4.348633
1213.198, 13.27429
1214.278, 18.21033
1215.359, 33.84058
1216.439, 49.89087
1217.519, 38.94031
1218.599, 31.98865
1219.678, 37.72485
1220.758, 27.08398
1221.837, 26.13013
1222.917, 39.17542
1223.996, 8.219604
1225.075, 25.26257
1226.153, 36.30469
1227.232, 36.34558
1228.310, 66.38562
1229.389, 42.42468
1230.467, 82.46252
1231.545, 0.5004880
1232.622, 60.53296
1233.700, 24.56543
1234.777, 84.59680
1235.855, 2.372681
1236.932, 10.34692
1238.009, 24.67102
1239.086, 30.16833
1240.162, 32.79138
1241.239, 5.193604
1242.315, 18.81567
1243.391, 44.82520
1244.467, 59.83374
1245.543, 4.158569
1246.619, 14.15601
1247.694, 16.83618
1248.769, 34.82739
1249.844, 43.81763
1250.919, 0.1928710
1251.994, 20.79700
1253.069, 3.785889
1254.144, 40.77332
1255.218, 62.75989
1256.292, 1.254395
1257.366, 36.72803
1258.440, 5.290527
1259.514, 13.68555
1260.587, 60.49622
1261.661, 62.64844
1262.734, 119.6218
1263.807, 54.59485
1264.880, 60.56702
1265.952, 51.53894
1267.025, 2.592896
1268.097, 14.37463
1269.170, 116.3414
1270.242, 41.30750
1271.314, 26.27283
1272.385, 59.23743
1273.457, 25.79871
