##NAMES=Fayalite
##RRUFFID=R070374
##IDEAL CHEMISTRY=Fe^2+^_2_SiO_4_
##LOCALITY=Little Lake, Lake County, California, USA
##OWNER=RRUFF
##SOURCE=Michael Scott
##DESCRIPTION=Large dark brown crystal fragment
##STATUS=The identification of this mineral has been confirmed by X-ray diffraction and chemical analysis
##URL=rruff.info/R070374
##MEASURED CHEMISTRY=(Fe^2+^_1.89_Mn^2+^_0.11_)_Î£=2_Si_1.00_O_4_ ; trace amounts of Mg
##PIN_ID=M01077
##ORIENTATION=Laser parallel to a* (1 0 0). Fiducial mark perpendicular to laser is parallel to b [0 1 0]
95.63100, 0.0000000E+00
96.86900, 0.1652830
98.10600, 16.44189
99.34400, 87.12195
100.5810, 21.41711
101.8190, 2.039551
103.0560, 8.306763
104.2930, 131.2589
105.5290, 142.6989
106.7660, 272.2859
108.0020, 149.0430
109.2390, 131.9712
110.4750, 138.1532
111.7110, 117.6263
112.9460, 108.8856
114.1820, 174.5088
115.4170, 241.1000
116.6530, 122.8762
117.8880, 153.8091
119.1230, 132.8766
120.3580, 97.06165
121.5920, 165.3513
122.8270, 157.7360
124.0610, 81.68896
125.2950, 25.33533
126.5290, 9.039307
127.7630, 19.28113
128.9970, 43.35889
130.2300, 30.96985
131.4640, 51.56042
132.6970, 6.861816
133.9300, 21.70740
135.1630, 71.27087
136.3950, 143.8320
137.6280, 187.3936
138.8600, 333.9586
140.0920, 459.5293
141.3240, 632.1078
142.5560, 916.6956
143.7880, 1331.295
145.0190, 1692.907
146.2510, 2165.534
147.4820, 2346.178
148.7130, 2786.579
149.9440, 2844.532
151.1750, 3472.725
152.4050, 3881.500
153.6360, 4128.065
154.8660, 4087.974
156.0960, 3676.699
157.3260, 2999.182
158.5560, 2075.526
159.7850, 1391.916
161.0150, 1019.350
162.2440, 812.8235
163.4730, 744.3357
164.7020, 684.8845
165.9310, 652.4705
167.1590, 698.0928
168.3880, 775.7509
169.6160, 908.4396
170.8440, 992.1389
172.0720, 892.8540
173.3000, 845.5862
174.5280, 714.3379
175.7550, 486.1106
176.9820, 339.9045
178.2100, 284.7200
179.4370, 242.5569
180.6630, 159.4158
181.8900, 170.2970
183.1170, 247.2009
184.3430, 284.1276
185.5690, 410.0713
186.7950, 435.0320
188.0210, 523.0134
189.2470, 596.0151
190.4720, 609.0398
191.6970, 729.0867
192.9230, 804.1586
194.1480, 926.2531
195.3730, 892.3701
196.5970, 770.5309
197.8220, 617.7271
199.0460, 586.9473
200.2700, 436.2136
201.4940, 309.5259
202.7180, 141.8792
203.9420, 13.25659
205.1660, 22.34790
206.3890, 24.91895
207.6120, 44.46814
208.8350, 66.98840
210.0580, 30.48340
211.2810, 51.95874
212.5040, 19.41467
213.7260, 13.85303
214.9480, 3.723511
216.1700, 6.685791
217.3920, 16.08105
218.6140, 55.53833
219.8360, 104.1720
221.0570, 79.82019
222.2790, 179.4833
223.5000, 214.1611
224.7210, 275.8408
225.9410, 345.4990
227.1620, 434.1372
228.3820, 560.7728
229.6030, 707.4219
230.8230, 798.0820
232.0430, 910.7599
233.2630, 1026.456
234.4820, 1200.169
235.7020, 1282.901
236.9210, 1404.651
238.1400, 1448.420
239.3590, 1484.208
240.5780, 1419.014
241.7970, 1291.838
243.0150, 1095.217
244.2340, 998.3087
245.4520, 894.6375
246.6700, 764.0106
247.8880, 675.4304
249.1060, 547.8438
250.3230, 492.3420
251.5400, 439.8701
252.7580, 425.4258
253.9750, 386.0083
255.1920, 319.6166
256.4080, 359.2504
257.6250, 306.9080
258.8410, 333.5571
260.0580, 342.2300
261.2740, 298.9149
262.4900, 351.6219
263.7050, 378.3503
264.9210, 322.0989
266.1360, 341.8676
267.3520, 398.6553
268.5670, 428.4619
269.7820, 496.2867
270.9960, 470.1274
272.2110, 534.9802
273.4250, 582.8455
274.6400, 642.9349
275.8540, 742.8247
277.0680, 826.7272
278.2810, 966.6423
279.4950, 1010.296
280.7090, 1108.236
281.9220, 1157.189
283.1350, 1227.154
284.3480, 1372.132
285.5610, 1402.122
286.7730, 1490.124
287.9860, 1529.294
289.1980, 1605.321
290.4100, 1530.360
291.6220, 1489.460
292.8340, 1543.523
294.0460, 1477.597
295.2570, 1526.255
296.4690, 1426.458
297.6800, 1448.545
298.8910, 1506.620
300.1020, 1461.714
301.3120, 1553.345
302.5230, 1608.491
303.7330, 1710.255
304.9440, 1789.416
306.1540, 1899.198
307.3630, 1875.780
308.5730, 2020.947
309.7830, 1986.544
310.9920, 1975.812
312.2010, 1979.955
313.4100, 1965.289
314.6190, 1792.729
315.8280, 1677.968
317.0370, 1554.264
318.2450, 1350.108
319.4530, 1350.420
320.6610, 1161.938
321.8690, 1250.289
323.0770, 1104.660
324.2850, 1081.178
325.4920, 1050.562
326.6990, 998.0271
327.9060, 985.6140
329.1130, 947.9623
330.3200, 956.3444
331.5270, 922.6184
332.7330, 932.9061
333.9390, 939.2053
335.1450, 962.1726
336.3510, 1083.847
337.5570, 1050.187
338.7630, 1178.538
339.9680, 1256.900
341.1740, 1279.271
342.3790, 1262.653
343.5840, 1453.047
344.7890, 1510.458
345.9930, 1577.885
347.1980, 1679.327
348.4020, 1872.779
349.6060, 1988.245
350.8100, 2102.918
352.0140, 2397.504
353.2180, 2493.224
354.4210, 2762.805
355.6250, 2934.219
356.8280, 3110.631
358.0310, 3428.538
359.2340, 3733.670
360.4360, 4039.235
361.6390, 4298.831
362.8410, 4553.165
364.0430, 4793.374
365.2450, 4976.007
366.4470, 5208.656
367.6490, 5334.328
368.8510, 5312.020
370.0520, 5409.739
371.2530, 5256.462
372.4540, 5197.205
373.6550, 5102.955
374.8560, 4933.725
376.0560, 4737.516
377.2570, 4627.315
378.4570, 4393.134
379.6570, 4217.966
380.8570, 4194.820
382.0570, 3899.684
383.2560, 3584.564
384.4560, 3500.460
385.6550, 3193.367
386.8540, 3079.304
388.0530, 2801.264
389.2520, 2559.246
390.4510, 2381.253
391.6490, 2132.269
392.8470, 2008.307
394.0450, 1752.359
395.2430, 1548.422
396.4410, 1413.494
397.6390, 1279.565
398.8360, 1111.645
400.0340, 1028.753
401.2310, 930.8757
402.4280, 807.0093
403.6250, 735.1548
404.8210, 629.3142
406.0180, 575.4763
407.2140, 513.8018
408.4100, 436.7948
409.6060, 431.9502
410.8020, 384.1045
411.9980, 374.2582
413.1930, 288.4153
414.3890, 269.5752
415.5840, 256.7378
416.7790, 211.9019
417.9740, 208.0659
419.1680, 188.2283
420.3630, 109.3845
421.5570, 126.5341
422.7510, 105.6779
423.9450, 101.8158
425.1390, 106.9465
426.3330, 95.89685
427.5270, 51.21533
428.7200, 76.33777
429.9130, 38.45239
431.1060, 3.441528
432.2990, 44.65405
433.4920, 49.74084
434.6840, 13.81836
435.8770, 51.88586
437.0690, 63.94385
438.2610, 32.00806
439.4530, 6.015137
440.6450, 21.97302
441.8360, 27.01831
443.0280, 17.99878
444.2190, 14.03198
445.4100, 10.91992
446.6010, 63.14014
447.7920, 14.75574
448.9820, 14.36084
450.1730, 26.49683
451.3630, 25.34106
452.5530, 8.833862
453.7430, 8.973389
454.9330, 42.76636
456.1230, 5.546143
457.3120, 20.68884
458.5010, 31.05005
459.6910, 20.77466
460.8800, 9.515747
462.0680, 24.17261
463.2570, 19.15454
464.4460, 21.49109
465.6340, 20.12048
466.8220, 3.733398
468.0100, 23.48315
469.1980, 14.28674
470.3860, 9.059570
471.5730, 28.19727
472.7600, 38.40930
473.9480, 115.9208
475.1350, 107.7963
476.3210, 72.26880
477.5080, 149.5400
478.6950, 134.4335
479.8810, 149.9832
481.0670, 201.6106
482.2530, 264.9257
483.4390, 255.1506
484.6250, 282.5739
485.8100, 363.0549
486.9960, 440.3640
488.1810, 518.9124
489.3660, 606.7754
490.5510, 656.9507
491.7360, 807.3857
492.9200, 916.2255
494.1050, 1074.346
495.2890, 1238.649
496.4730, 1530.693
497.6570, 1825.949
498.8400, 2117.822
500.0240, 2385.081
501.2070, 2665.815
502.3910, 2880.095
503.5740, 3093.218
504.7570, 3159.282
505.9400, 3142.245
507.1220, 3125.968
508.3050, 2985.647
509.4870, 2643.634
510.6690, 2354.922
511.8510, 2118.714
513.0330, 1843.143
514.2140, 1672.738
515.3960, 1366.389
516.5770, 1265.244
517.7580, 1122.735
518.9390, 1021.158
520.1200, 947.0475
521.3010, 878.8243
522.4810, 892.2520
523.6610, 774.0658
524.8420, 747.5986
526.0220, 662.5312
527.2010, 650.1172
528.3810, 651.4377
529.5610, 631.2250
530.7400, 645.9209
531.9190, 648.1011
533.0980, 654.6135
534.2770, 714.5074
535.4560, 689.8137
536.6340, 729.5437
537.8120, 665.6993
538.9910, 747.9441
540.1690, 763.5251
541.3460, 774.1821
542.5240, 741.1389
543.7020, 767.9673
544.8790, 852.1760
546.0560, 790.8921
547.2330, 826.7920
548.4100, 913.7086
549.5870, 931.0012
550.7630, 985.7991
551.9400, 1011.992
553.1160, 1057.325
554.2920, 1061.616
555.4680, 1147.799
556.6440, 1144.988
557.8190, 1174.915
558.9950, 1239.434
560.1700, 1280.972
561.3450, 1287.422
562.5200, 1280.833
563.6950, 1271.238
564.8690, 1191.569
566.0440, 1140.861
567.2180, 1141.302
568.3920, 1129.513
569.5660, 1043.685
570.7400, 993.8231
571.9130, 1002.914
573.0870, 959.8103
574.2600, 883.8208
575.4330, 933.7906
576.6060, 905.6714
577.7790, 846.5605
578.9520, 817.4089
580.1240, 808.4749
581.2960, 866.3077
582.4690, 811.0353
583.6410, 818.6926
584.8120, 829.2656
585.9840, 812.2627
587.1560, 727.7136
588.3270, 711.5123
589.4980, 642.8872
590.6690, 688.6121
591.8400, 655.5082
593.0110, 631.7900
594.1810, 582.6143
595.3510, 571.9536
596.5220, 518.9548
597.6920, 483.1331
598.8610, 462.8149
600.0310, 393.8481
601.2010, 354.7936
602.3700, 301.1599
603.5390, 337.0294
604.7080, 262.6606
605.8770, 232.4293
607.0460, 236.1476
608.2140, 177.6870
609.3830, 159.3291
610.5510, 160.8573
611.7190, 116.2917
612.8870, 107.8108
614.0550, 86.32117
615.2220, 66.88354
616.3900, 84.43433
617.5570, 48.91711
618.7240, 61.34485
619.8910, 74.72058
621.0580, 69.04736
622.2240, 82.54126
623.3910, 85.55396
624.5570, 72.73730
625.7230, 67.87207
626.8890, 11.95813
628.0550, 27.97900
629.2200, 19.42969
630.3860, 72.84302
631.5510, 26.69763
632.7160, 42.49438
633.8810, 32.23853
635.0460, 25.92761
636.2100, 8.559814
637.3750, 57.12842
638.5390, 33.64954
639.7030, 53.11731
640.8670, 34.53735
642.0310, 47.90515
643.1950, 30.77490
644.3580, 20.46350
645.5210, 30.35303
646.6850, 25.75037
647.8480, 3.801270
649.0100, 34.20874
650.1730, 24.29907
651.3350, 49.46423
652.4980, 61.28320
653.6600, 17.01050
654.8220, 14.62683
655.9840, 23.78845
657.1450, 35.27478
658.3070, 14.16223
659.4680, 28.45154
660.6300, 12.13684
661.7910, 39.88477
662.9510, 0.2910160
664.1120, 28.58765
665.2730, 20.53491
666.4330, 16.54626
667.5930, 77.61865
668.7530, 54.78308
669.9130, 39.02710
671.0730, 64.34167
672.2320, 9.261108
673.3920, 63.17981
674.5510, 23.70117
675.7100, 16.28162
676.8690, 8.916016
678.0280, 37.40015
679.1860, 19.31506
680.3450, 86.08350
681.5030, 44.93896
682.6610, 28.85901
683.8190, 36.83423
684.9770, 46.86743
686.1340, 3.963867
687.2920, 13.90137
688.4490, 1.736572
689.6060, 14.53760
690.7630, 0.6887210
691.9200, 4.948242
693.0760, 22.24219
694.2330, 22.57861
695.3890, 24.74097
696.5450, 22.64990
697.7010, 17.83325
698.8570, 0.6728520
700.0130, 13.15259
701.1680, 43.60815
702.3230, 4.0527001E-02
703.4780, 44.44775
704.6330, 17.83252
705.7880, 63.80542
706.9430, 13.50464
708.0970, 24.79297
709.2520, 2.059814
710.4060, 37.30518
711.5600, 11.53003
712.7140, 46.73535
713.8670, 42.92090
715.0210, 60.08667
716.1740, 51.60278
717.3270, 66.36206
718.4800, 38.47217
719.6330, 17.57129
720.7860, 43.65356
721.9380, 70.72314
723.0910, 47.77637
724.2430, 74.81348
725.3950, 75.83765
726.5470, 89.84692
727.6980, 89.85693
728.8500, 31.85278
730.0010, 83.83789
731.1530, 91.81592
732.3040, 131.7805
733.4550, 82.73486
734.6050, 167.6770
735.7560, 122.6064
736.9060, 119.5251
738.0560, 192.4380
739.2060, 204.3401
740.3560, 175.2319
741.5060, 265.1167
742.6560, 239.9922
743.8050, 270.8645
744.9540, 271.7280
746.1030, 260.5837
747.2520, 318.2773
748.4010, 349.8931
749.5500, 317.5151
750.6980, 272.7478
751.8460, 331.8831
752.9950, 332.6953
754.1420, 374.1211
755.2900, 439.9277
756.4380, 460.9133
757.5850, 437.2549
758.7330, 407.9187
759.8800, 507.4834
761.0270, 534.3389
762.1730, 540.2637
763.3200, 603.9692
764.4670, 616.5964
765.6130, 634.3755
766.7590, 648.8950
767.9050, 692.0979
769.0510, 667.9346
770.1960, 698.5132
771.3420, 808.6687
772.4870, 732.5278
773.6320, 882.1904
774.7770, 1008.100
775.9220, 918.7954
777.0670, 1104.866
778.2110, 1208.548
779.3560, 1289.748
780.5000, 1323.390
781.6440, 1413.172
782.7880, 1571.000
783.9320, 1697.914
785.0750, 1873.052
786.2180, 2079.218
787.3620, 2354.061
788.5050, 2547.587
789.6480, 2789.596
790.7900, 3148.952
791.9330, 3494.130
793.0750, 4082.241
794.2170, 4532.136
795.3590, 5271.379
796.5010, 6033.680
797.6430, 6978.507
798.7850, 8262.436
799.9260, 9744.708
801.0670, 11598.58
802.2080, 14042.73
803.3490, 16650.47
804.4900, 19963.55
805.6310, 24007.88
806.7710, 28146.74
807.9110, 32543.67
809.0510, 36784.12
810.1910, 40931.22
811.3310, 44405.93
812.4710, 46572.21
813.6100, 47830.08
814.7490, 47939.50
815.8880, 46730.82
817.0270, 44656.80
818.1660, 42211.69
819.3050, 39390.28
820.4430, 37038.99
821.5820, 34757.31
822.7200, 32537.12
823.8580, 30876.74
824.9950, 29490.34
826.1330, 28138.55
827.2710, 27509.27
828.4080, 26588.57
829.5450, 26020.75
830.6820, 25467.97
831.8190, 24918.30
832.9560, 24556.61
834.0920, 23843.19
835.2280, 23528.17
836.3650, 22958.13
837.5010, 21897.18
838.6360, 21179.25
839.7720, 20125.34
840.9080, 19098.50
842.0430, 18216.70
843.1780, 16576.75
844.3130, 15274.02
845.4480, 13949.34
846.5830, 12620.70
847.7170, 11392.09
848.8520, 10226.53
849.9860, 9122.010
851.1200, 8182.528
852.2540, 7126.091
853.3870, 6366.693
854.5210, 5519.340
855.6540, 5015.027
856.7880, 4361.758
857.9210, 3830.531
859.0540, 3300.349
860.1860, 2911.769
861.3190, 2604.114
862.4510, 2293.063
863.5840, 2050.057
864.7160, 1834.095
865.8480, 1596.178
866.9790, 1393.307
868.1110, 1340.481
869.2420, 1022.702
870.3740, 1039.968
871.5050, 918.2805
872.6360, 808.6401
873.7660, 774.0469
874.8970, 713.5005
876.0280, 613.0020
877.1580, 620.5508
878.2880, 504.1477
879.4180, 474.7927
880.5480, 510.4861
881.6770, 530.2285
882.8070, 451.0195
883.9360, 480.8604
885.0650, 548.7520
886.1940, 544.6938
887.3230, 482.6885
888.4520, 461.7361
889.5800, 571.8381
890.7090, 637.9976
891.8370, 710.8635
892.9650, 858.4846
894.0930, 899.8154
895.2200, 968.2029
896.3480, 1055.646
897.4750, 1190.147
898.6020, 1318.703
899.7290, 1332.315
900.8560, 1385.005
901.9830, 1369.741
903.1090, 1289.540
904.2360, 1200.723
905.3620, 1093.438
906.4880, 990.4219
907.6140, 909.4670
908.7400, 826.7871
909.8650, 731.7444
910.9900, 712.3313
912.1160, 675.8506
913.2410, 677.5461
914.3660, 710.4187
915.4900, 737.9082
916.6150, 835.5557
917.7390, 928.2734
918.8640, 888.9775
919.9880, 1051.757
921.1120, 1098.600
922.2350, 1233.723
923.3590, 1327.851
924.4820, 1432.104
925.6060, 1386.276
926.7290, 1641.647
927.8520, 1670.868
928.9740, 1644.456
930.0970, 1772.910
931.2190, 1760.212
932.3420, 1747.493
933.4640, 1735.869
934.5860, 1733.559
935.7080, 1709.620
936.8290, 1748.724
937.9510, 1688.387
939.0720, 1651.589
940.1930, 1663.741
941.3140, 1614.991
942.4350, 1596.336
943.5560, 1523.834
944.6760, 1552.538
945.7960, 1507.137
946.9170, 1460.088
948.0370, 1517.951
949.1560, 1381.793
950.2760, 1367.709
951.3960, 1359.693
952.5150, 1371.751
953.6340, 1327.992
954.7530, 1231.142
955.8720, 1263.577
956.9910, 1220.974
958.1090, 1216.454
959.2280, 1222.057
960.3460, 1174.613
961.4640, 1203.741
962.5820, 1128.226
963.6990, 1066.518
964.8170, 1083.173
965.9340, 987.1589
967.0510, 1004.748
968.1690, 998.8706
969.2850, 999.0615
970.4020, 924.3350
971.5190, 954.6462
972.6350, 892.0120
973.7510, 872.7622
974.8670, 840.2837
975.9830, 835.2075
977.0990, 765.9189
978.2150, 767.5684
979.3300, 759.2722
980.4450, 739.0288
981.5600, 765.8391
982.6750, 695.7024
983.7900, 681.6194
984.9050, 638.5872
986.0190, 559.6069
987.1340, 567.6833
988.2480, 555.8110
989.3620, 584.9929
990.4750, 567.2302
991.5890, 543.5176
992.7020, 440.8594
993.8160, 571.2542
994.9290, 532.7021
996.0420, 403.2012
997.1550, 376.7505
998.2670, 452.3489
999.3800, 396.9968
1000.492, 398.6951
1001.604, 392.4426
1002.716, 320.2419
1003.828, 296.0894
1004.940, 281.9863
1006.051, 261.2708
1007.163, 304.9224
1008.274, 257.9609
1009.385, 323.0461
1010.496, 322.1782
1011.606, 213.3564
1012.717, 217.5811
1013.827, 213.8508
1014.937, 196.1670
1016.047, 191.5283
1017.157, 169.2390
1018.267, 165.8425
1019.377, 144.6223
1020.486, 156.4287
1021.595, 95.01514
1022.704, 88.64551
1023.813, 44.31860
1024.922, 38.30664
1026.030, 96.79541
1027.139, 56.59741
1028.247, 48.44189
1029.355, 103.3284
1030.463, 49.25635
1031.571, 86.22559
1032.678, 47.23608
1033.786, 0.7128910
1034.893, 79.38013
1036.000, 40.51318
1037.107, 23.31421
1038.214, 44.10547
1039.321, 19.31079
1040.427, 71.59033
1041.533, 18.90894
1042.639, 41.26514
1043.745, 23.34082
1044.851, 57.91309
1045.957, 61.45947
1047.062, 64.99048
1048.168, 48.50708
1049.273, 7.279785
1050.378, 6.718262
1051.482, 46.82642
1052.587, 49.45630
1053.692, 30.12036
1054.796, 12.75195
1055.900, 7.970703
1057.004, 10.65405
1058.108, 6.782715
1059.212, 8.859131
1060.315, 40.90601
1061.418, 12.72388
1062.522, 1.333984
1063.625, 35.16089
1064.728, 31.85938
1065.830, 32.16138
1066.933, 40.09790
1068.035, 49.35645
1069.137, 10.61865
1070.239, 60.52734
1071.341, 6.407471
1072.443, 27.89209
1073.545, 75.02490
1074.646, 36.05884
1075.747, 2.121826
1076.848, 6.350098
1077.949, 19.06738
1079.050, 9.442139
1080.150, 1.668213
1081.251, 59.98804
1082.351, 25.40967
1083.451, 34.44824
1084.551, 24.61182
1085.651, 12.26050
1086.750, 6.462646
1087.850, 1.104492
1088.949, 22.46338
1090.048, 21.24902
1091.147, 38.13062
1092.246, 35.82300
1093.345, 39.65698
1094.443, 18.95947
1095.541, 10.02441
1096.639, 68.66797
1097.737, 22.53174
1098.835, 9.947998
1099.933, 48.68213
1101.030, 52.96582
1102.128, 9.250732
1103.225, 56.59229
1104.322, 78.60596
1105.419, 54.45630
1106.515, 35.19849
1107.612, 13.77734
1108.708, 5.599121
1109.804, 71.59570
1110.900, 34.80225
1111.996, 81.50610
1113.092, 97.52539
1114.187, 54.50415
1115.283, 112.6101
1116.378, 105.2361
1117.473, 132.0288
1118.568, 126.9324
1119.662, 145.6865
1120.757, 181.1873
1121.851, 187.9766
1122.946, 197.3242
1124.040, 219.2578
1125.134, 208.6909
1126.227, 239.1284
1127.321, 264.1946
1128.414, 252.1013
1129.508, 226.8867
1130.601, 276.7126
1131.693, 284.7161
1132.786, 280.6885
1133.879, 315.1567
1134.971, 371.9470
1136.064, 331.9253
1137.156, 360.6409
1138.248, 305.3550
1139.339, 370.0352
1140.431, 207.7356
1141.522, 313.4131
1142.614, 268.1433
1143.705, 297.8372
1144.796, 249.5083
1145.887, 248.2949
1146.977, 270.9604
1148.068, 225.7095
1149.158, 216.6436
1150.248, 303.4209
1151.338, 213.1143
1152.428, 293.7656
1153.518, 197.4062
1154.607, 276.0417
1155.696, 234.6716
1156.785, 154.3394
1157.874, 227.9578
1158.963, 110.5696
1160.052, 164.1750
1161.141, 97.77344
1162.229, 41.38281
1163.317, 132.9666
1164.405, 119.5422
1165.493, 115.5027
1166.581, 126.0623
1167.668, 51.61304
1168.756, 102.8354
1169.843, 32.57373
1170.930, 86.33301
1172.017, 122.8450
1173.103, 87.34644
1174.190, 92.87744
1175.276, 67.00854
1176.363, 64.25586
1177.449, 21.37744
1178.535, 27.63257
1179.620, 96.81763
1180.706, 57.11719
1181.791, 6.588623
1182.877, 83.76245
1183.962, 60.10107
1185.047, 46.57275
1186.131, 13.50781
1187.216, 27.64258
1188.300, 25.71143
1189.385, 29.92505
1190.469, 47.98022
1191.553, 38.95801
1192.637, 46.18848
1193.720, 31.32520
1194.804, 39.67261
1195.887, 31.08862
1196.970, 47.46460
1198.053, 4.581543
1199.136, 12.61987
1200.219, 34.82568
1201.301, 1.550537
1202.383, 20.76855
1203.465, 16.89648
1204.547, 31.06714
1205.629, 34.71216
1206.711, 56.60522
1207.792, 1.088623
1208.874, 19.56714
1209.955, 22.07178
1211.036, 17.41382
1212.117, 1.964355
1213.198, 7.521729
1214.278, 8.950684
1215.359, 1.371582
1216.439, 5.516602
1217.519, 6.145508
1218.599, 11.65405
1219.678, 1.621094
1220.758, 21.85645
1221.837, 4.948730
1222.917, 7.773438
1223.996, 11.09766
1225.075, 30.75659
1226.153, 37.20483
1227.232, 20.36792
1228.310, 7.907227
1229.389, 30.24097
1230.467, 14.07861
1231.545, 44.88159
1232.622, 43.63818
1233.700, 59.38892
1234.777, 70.11597
1235.855, 79.29590
1236.932, 62.50439
1238.009, 77.39282
1239.086, 108.9021
1240.162, 55.52124
1241.239, 89.11523
1242.315, 67.68848
1243.391, 71.23804
1244.467, 64.76440
1245.543, 114.2666
1246.619, 88.74927
1247.694, 36.21021
1248.769, 95.63940
1249.844, 52.04761
1250.919, 42.42822
1251.994, 121.7781
1253.069, 45.10767
1254.144, 63.40723
1255.218, 58.68042
1256.292, 76.92627
1257.366, 90.14795
1258.440, 103.3469
1259.514, 99.52466
1260.587, 84.68042
1261.661, 87.81274
1262.734, 61.92163
1263.807, 107.0027
1264.880, 89.06201
1265.952, 119.0981
1267.025, 120.1135
1268.097, 133.6006
1269.170, 124.3704
1270.242, 166.0337
1271.314, 117.9658
1272.385, 126.8767
1273.457, 178.7666
1274.528, 111.6357
1275.600, 141.4834
