##NAMES=Fayalite
##RRUFFID=R070293
##IDEAL CHEMISTRY=Fe^2+^_2_SiO_4_
##LOCALITY=Pike's Peak, Teller County, Colorado, USA
##OWNER=RRUFF
##SOURCE=Michael Scott
##DESCRIPTION=Black single crystal fragment with internal hints of red and green
##STATUS=The identification of this mineral has been confirmed by X-ray diffraction and chemical analysis
##URL=rruff.info/R070293
##MEASURED CHEMISTRY=(Fe^2+^_1.87_Mn^2+^_0.13_)_Î£=2_Si_1.00_O_4_ ; trace amounts of Mg
##PIN_ID=L00446
##ORIENTATION=Laser parallel to b* (0 1 0). Fiducial mark perpendicular to laser is parallel to c [0 0 1]
59.13700, 0.0000000E+00
60.37200, 340.2085
61.60700, 294.5864
62.84200, 200.5205
64.07700, 96.83594
65.31200, 135.4717
66.54600, 3.386719
67.78100, 55.79834
69.01500, 246.5552
70.24900, 230.2852
71.48300, 176.9912
72.71700, 471.1992
73.95100, 263.4912
75.18500, 301.4666
76.41800, 406.9827
77.65100, 223.7559
78.88500, 6.255859
80.11800, 102.9502
81.35100, 178.4504
82.58300, 232.5730
83.81600, 384.2852
85.04900, 263.5825
86.28100, 12.52881
87.51300, 24.04785
88.74500, 34.05786
89.97700, 89.06714
91.20900, 250.0029
92.44100, 282.6899
93.67200, 142.2502
94.90400, 208.9734
96.13500, 98.81885
97.36600, 136.9099
98.59700, 201.2673
99.82800, 232.5955
101.0590, 173.1990
102.2900, 184.6619
103.5200, 335.8455
104.7500, 313.6411
105.9810, 527.0503
107.2110, 589.1143
108.4410, 655.8477
109.6700, 587.2588
110.9000, 508.3550
112.1300, 556.2642
113.3590, 513.7871
114.5880, 646.0498
115.8170, 656.0649
117.0460, 782.8442
118.2750, 801.4324
119.5040, 875.4895
120.7320, 754.9341
121.9610, 717.5815
123.1890, 694.5981
124.4170, 607.7412
125.6450, 298.1665
126.8730, 156.0789
128.1010, 39.85425
129.3280, 92.49780
130.5560, 205.9521
131.7830, 84.07031
133.0100, 58.46021
134.2380, 68.92725
135.4640, 12.76050
136.6910, 157.1025
137.9180, 56.51953
139.1440, 170.9890
140.3710, 301.9663
141.5970, 246.3843
142.8230, 285.4233
144.0490, 302.3591
145.2750, 403.7410
146.5000, 539.8818
147.7260, 664.0444
148.9510, 758.6821
150.1770, 1111.720
151.4020, 1498.446
152.6270, 1869.160
153.8520, 2049.811
155.0760, 2043.472
156.3010, 1852.245
157.5250, 1651.762
158.7500, 1285.956
159.9740, 789.9502
161.1980, 451.8323
162.4220, 475.7051
163.6450, 355.5676
164.8690, 404.4180
166.0920, 391.2544
167.3160, 414.0623
168.5390, 468.8350
169.7620, 448.5703
170.9850, 612.2446
172.2080, 638.8616
173.4300, 519.4368
174.6530, 418.9822
175.8750, 371.5012
177.0970, 254.9988
178.3190, 212.4763
179.5410, 136.9343
180.7630, 63.37451
181.9850, 119.7957
183.2060, 145.1990
184.4270, 152.5835
185.6490, 156.9500
186.8700, 169.3003
188.0910, 157.6353
189.3110, 226.9534
190.5320, 305.2527
191.7530, 389.5322
192.9730, 419.7820
194.1930, 517.9912
195.4130, 583.1680
196.6330, 481.3113
197.8530, 506.4312
199.0730, 353.5376
200.2920, 395.6436
201.5120, 226.7456
202.7310, 97.83252
203.9500, 39.10034
205.1690, 113.0850
206.3880, 3.832764
207.6070, 23.83105
208.8250, 59.11792
210.0440, 11.76709
211.2620, 29.61328
212.4800, 8.625977
213.6980, 66.70215
214.9160, 17.28979
216.1340, 46.88452
217.3510, 36.36475
218.5690, 65.51294
219.7860, 0.4555660
221.0030, 20.13965
222.2200, 31.25952
223.4370, 14.25635
224.6540, 21.68848
225.8700, 6.450195
227.0870, 5.582764
228.3030, 12.51270
229.5190, 18.63232
230.7350, 36.68921
231.9510, 41.68628
233.1670, 62.08838
234.3820, 90.71167
235.5980, 142.5061
236.8130, 247.7468
238.0280, 316.4802
239.2430, 321.1665
240.4580, 350.4380
241.6730, 254.9163
242.8880, 292.8296
244.1020, 304.7427
245.3160, 239.8074
246.5300, 247.9260
247.7450, 301.7217
248.9580, 218.5015
250.1720, 248.5234
251.3860, 295.5002
252.5990, 300.4346
253.8130, 273.3269
255.0260, 282.1787
256.2390, 277.9912
257.4520, 372.7661
258.6640, 307.5044
259.8770, 430.2073
261.0890, 490.8762
262.3020, 444.5125
263.5140, 525.1165
264.7260, 472.6853
265.9380, 562.2080
267.1500, 691.6748
268.3610, 762.0972
269.5730, 748.4773
270.7840, 962.8196
271.9950, 882.1348
273.2060, 1043.882
274.4170, 1255.716
275.6280, 1362.040
276.8390, 1657.914
278.0490, 1847.003
279.2590, 2158.536
280.4690, 2482.943
281.6800, 2895.895
282.8890, 3201.881
284.0990, 3651.490
285.3090, 4164.566
286.5180, 4537.922
287.7280, 5016.074
288.9370, 5387.367
290.1460, 5536.767
291.3550, 5511.215
292.5630, 5273.920
293.7720, 5006.445
294.9800, 4479.047
296.1890, 4033.647
297.3970, 3412.290
298.6050, 2953.915
299.8130, 2723.606
301.0200, 2351.200
302.2280, 2268.714
303.4360, 2079.364
304.6430, 2010.906
305.8500, 1930.596
307.0570, 1907.980
308.2640, 1859.598
309.4710, 1734.095
310.6770, 1697.584
311.8840, 1615.182
313.0900, 1477.888
314.2960, 1324.473
315.5020, 1262.042
316.7080, 1120.523
317.9140, 956.9585
319.1190, 948.3645
320.3250, 768.7910
321.5300, 742.1470
322.7350, 709.1306
323.9400, 633.8647
325.1450, 508.3604
326.3500, 555.9580
327.5540, 463.4646
328.7580, 415.9924
329.9630, 482.2366
331.1670, 475.6421
332.3710, 464.0955
333.5750, 385.6736
334.7780, 386.3774
335.9820, 437.5779
337.1850, 432.9775
338.3880, 472.5754
339.5920, 406.1245
340.7950, 475.3669
341.9970, 436.8909
343.2000, 559.9756
344.4030, 630.2512
345.6050, 634.2922
346.8070, 684.7629
348.0090, 695.8096
349.2110, 774.4692
350.4130, 833.0583
351.6150, 888.3503
352.8160, 1014.956
354.0170, 1098.522
355.2190, 1211.915
356.4200, 1342.957
357.6210, 1433.498
358.8210, 1671.143
360.0220, 1810.969
361.2220, 2095.970
362.4230, 2159.980
363.6230, 2484.129
364.8230, 2666.967
366.0230, 2806.455
367.2230, 2981.334
368.4220, 3092.710
369.6220, 3095.219
370.8210, 3117.651
372.0200, 3104.254
373.2190, 3238.613
374.4180, 3094.133
375.6170, 3014.807
376.8150, 2813.652
378.0140, 2722.730
379.2120, 2696.147
380.4100, 2575.738
381.6080, 2350.800
382.8060, 2255.050
384.0040, 2118.286
385.2010, 1951.552
386.3980, 1938.488
387.5960, 1747.571
388.7930, 1669.718
389.9900, 1553.547
391.1870, 1458.396
392.3830, 1341.461
393.5800, 1262.166
394.7760, 1123.982
395.9720, 1043.977
397.1680, 916.9763
398.3640, 962.8445
399.5600, 875.7322
400.7560, 856.5857
401.9510, 760.6196
403.1460, 704.5625
404.3420, 643.5591
405.5370, 613.5366
406.7320, 611.4961
407.9260, 546.4368
409.1210, 525.3579
410.3150, 489.2605
411.5100, 462.1440
412.7040, 406.0090
413.8980, 369.8555
415.0920, 344.8848
416.2850, 318.4919
417.4790, 296.2847
418.6720, 265.0647
419.8650, 235.8301
421.0590, 233.5784
422.2510, 188.3127
423.4440, 166.0354
424.6370, 169.7468
425.8290, 134.4531
427.0220, 155.1450
428.2140, 88.82874
429.4060, 139.4968
430.5980, 110.1487
431.7900, 99.78467
432.9810, 75.40405
434.1730, 128.0059
435.3640, 57.59058
436.5550, 94.15625
437.7460, 70.70337
438.9370, 67.23193
440.1280, 52.74133
441.3190, 52.23132
442.5090, 31.70142
443.6990, 50.15149
444.8890, 64.58191
446.0790, 27.99329
447.2690, 49.38403
448.4590, 9.755493
449.6480, 79.10535
450.8380, 19.43689
452.0270, 34.74756
453.2160, 42.03821
454.4050, 12.30872
455.5940, 4.441772
456.7820, 7.399658
457.9710, 7.136475
459.1590, 24.17603
460.3470, 31.34009
461.5350, 34.48340
462.7230, 25.60681
463.9110, 38.70923
465.0990, 23.79163
466.2860, 37.85498
467.4730, 5.035767
468.6600, 56.10608
469.8470, 7.817505
471.0340, 8.352295
472.2210, 82.11633
473.4070, 45.46729
474.5940, 43.80408
475.7800, 0.9088130
476.9660, 26.58289
478.1520, 0.7753910
479.3380, 3.177734
480.5230, 11.94812
481.7090, 49.05798
482.8940, 19.52344
484.0790, 9.316528
485.2650, 59.38049
486.4490, 14.83545
487.6340, 68.33215
488.8190, 93.13208
490.0030, 31.69751
491.1870, 102.4762
492.3720, 130.8611
493.5550, 87.97131
494.7390, 105.5557
495.9230, 57.10266
497.1060, 84.94080
498.2900, 133.9355
499.4730, 83.88599
500.6560, 163.2367
501.8390, 129.4326
503.0220, 122.0404
504.2040, 98.14282
505.3870, 145.2758
506.5690, 164.9941
507.7510, 166.6283
508.9330, 160.8547
510.1150, 174.0728
511.2970, 190.3145
512.4780, 177.3381
513.6600, 147.9111
514.8410, 165.8016
516.0220, 151.2676
517.2030, 175.5059
518.3840, 145.0657
519.5650, 143.2521
520.7450, 125.9147
521.9250, 160.1399
523.1060, 147.8740
524.2860, 174.4414
525.4660, 185.1691
526.6450, 179.0464
527.8250, 199.8567
529.0040, 189.6509
530.1840, 171.2760
531.3630, 189.8297
532.5420, 216.1604
533.7200, 273.8370
534.8990, 258.9624
536.0780, 276.0813
537.2560, 331.4426
538.4340, 302.8164
539.6120, 380.0145
540.7900, 415.1550
541.9680, 432.3462
543.1460, 433.5294
544.3230, 545.6958
545.5000, 609.9153
546.6770, 590.9941
547.8540, 702.1876
549.0310, 762.2335
550.2080, 809.2043
551.3840, 944.1538
552.5610, 945.0823
553.7370, 1042.990
554.9130, 1039.875
556.0890, 1123.740
557.2650, 1167.584
558.4400, 1140.406
559.6160, 1297.207
560.7910, 1215.988
561.9660, 1270.747
563.1410, 1270.486
564.3160, 1243.203
565.4910, 1242.899
566.6650, 1226.575
567.8400, 1160.109
569.0140, 1069.712
570.1880, 1016.019
571.3620, 955.5197
572.5360, 908.8792
573.7090, 888.1771
574.8830, 790.3550
576.0560, 732.7349
577.2290, 774.8019
578.4020, 740.0039
579.5750, 650.0898
580.7480, 591.1433
581.9200, 581.1184
583.0930, 577.0735
584.2650, 572.9248
585.4370, 554.8359
586.6090, 574.7897
587.7810, 551.0237
588.9520, 520.6799
590.1240, 505.1000
591.2950, 436.0448
592.4660, 374.7227
593.6370, 321.4475
594.8080, 331.1855
595.9790, 290.8523
597.1500, 288.2357
598.3200, 279.7782
599.4900, 266.3030
600.6600, 291.8823
601.8300, 263.4749
603.0000, 234.0642
604.1700, 208.6000
605.3390, 148.1742
606.5080, 192.6699
607.6770, 102.2083
608.8460, 123.5920
610.0150, 118.1731
611.1840, 90.35400
612.3520, 12.70154
613.5210, 37.33313
614.6890, 35.79248
615.8570, 86.22595
617.0250, 16.45740
618.1930, 7.822876
619.3600, 6.012451
620.5280, 30.07935
621.6950, 12.05981
622.8620, 9.190552
624.0290, 3.053467
625.1960, 44.23523
626.3630, 25.02502
627.5290, 5.951416
628.6960, 0.1282960
629.8620, 3.381470
631.0280, 0.6468510
632.1940, 42.40625
633.3600, 6.106201
634.5250, 30.01685
635.6910, 2.096802
636.8560, 59.98340
638.0210, 19.97131
639.1860, 29.47009
640.3510, 59.90063
641.5150, 25.74548
642.6800, 32.71948
643.8440, 72.77417
645.0080, 42.00928
646.1720, 20.10364
647.3360, 51.17188
648.5000, 45.29041
649.6640, 77.47900
650.8270, 30.70801
651.9900, 11.97583
653.1530, 37.27209
654.3160, 7.277100
655.4790, 6.885010
656.6420, 10.41614
657.8040, 7.974243
658.9660, 2.509277
660.1290, 27.07251
661.2910, 4.747314
662.4520, 6.699707
663.6140, 59.91858
664.7760, 28.51147
665.9370, 21.06128
667.0980, 18.66272
668.2590, 19.29102
669.4200, 1.053955
670.5810, 3.353394
671.7420, 14.33350
672.9020, 21.04309
674.0620, 12.41064
675.2220, 13.16663
676.3820, 16.68665
677.5420, 6.895508
678.7020, 42.09094
679.8610, 57.27441
681.0210, 30.44653
682.1800, 25.60657
683.3390, 22.75476
684.4980, 3.350098
685.6560, 30.01514
686.8150, 0.1279300
687.9730, 24.22827
689.1320, 75.31775
690.2900, 49.39722
691.4480, 56.46631
692.6050, 62.52576
693.7630, 61.57532
694.9200, 72.61560
696.0780, 70.13037
697.2350, 67.24084
698.3920, 63.68054
699.5490, 69.68420
700.7050, 55.67920
701.8620, 85.66577
703.0180, 42.64368
704.1740, 114.6133
705.3300, 111.5751
706.4860, 107.5287
707.6420, 132.6603
708.7970, 90.41418
709.9530, 128.3470
711.1080, 126.2731
712.2630, 100.1927
713.4180, 47.10657
714.5730, 98.01514
715.7280, 102.9175
716.8820, 168.8153
718.0360, 94.70789
719.1900, 152.5958
720.3440, 144.4795
721.4980, 80.35901
722.6520, 137.2347
723.8050, 151.1072
724.9590, 165.9761
726.1120, 152.8416
727.2650, 206.7040
728.4180, 151.5636
729.5700, 112.4211
730.7230, 182.2753
731.8750, 196.1274
733.0280, 218.9773
734.1800, 201.8252
735.3320, 242.6715
736.4830, 222.5173
737.6350, 247.3619
738.7860, 220.2057
739.9380, 286.0485
741.0890, 304.8901
742.2400, 362.7308
743.3910, 367.5708
744.5410, 341.4103
745.6920, 292.2493
746.8420, 380.9525
747.9920, 375.7494
749.1420, 404.5267
750.2920, 389.1952
751.4420, 340.2584
752.5910, 397.7189
753.7410, 381.1835
754.8900, 394.8667
756.0390, 437.1318
757.1880, 464.0801
758.3370, 484.2222
759.4850, 533.7151
760.6340, 539.5330
761.7820, 486.6472
762.9300, 587.1636
764.0780, 614.1307
765.2260, 541.3309
766.3730, 615.4713
767.5210, 594.3026
768.6680, 653.3593
769.8150, 699.1992
770.9620, 688.4590
772.1090, 849.0212
773.2560, 776.1223
774.4020, 988.2701
775.5490, 937.1426
776.6950, 1051.861
777.8410, 1105.635
778.9870, 1145.007
780.1330, 1307.555
781.2780, 1353.693
782.4230, 1481.349
783.5690, 1584.972
784.7140, 1753.001
785.8590, 1859.116
787.0030, 2074.637
788.1480, 2122.185
789.2920, 2462.709
790.4370, 2709.448
791.5810, 3065.646
792.7250, 3467.534
793.8690, 3664.441
795.0120, 4228.382
796.1560, 4655.591
797.2990, 5394.168
798.4420, 6065.262
799.5850, 7008.784
800.7280, 8093.790
801.8710, 9403.950
803.0130, 11157.08
804.1550, 13192.77
805.2980, 15515.66
806.4400, 18744.56
807.5810, 21704.08
808.7230, 24896.73
809.8650, 28330.06
811.0060, 31296.04
812.1470, 33891.55
813.2880, 35119.06
814.4290, 35616.34
815.5700, 34501.57
816.7110, 33216.98
817.8510, 31001.43
818.9910, 28710.83
820.1310, 26712.23
821.2710, 24506.63
822.4110, 22892.97
823.5510, 21421.44
824.6900, 20347.79
825.8290, 19342.28
826.9680, 18556.83
828.1070, 17999.40
829.2460, 17895.98
830.3850, 17614.58
831.5230, 17451.18
832.6620, 17380.80
833.8000, 17200.43
834.9380, 17291.08
836.0760, 17064.74
837.2130, 17081.41
838.3510, 16969.10
839.4880, 16630.80
840.6250, 16180.54
841.7620, 15261.25
842.8990, 14801.99
844.0360, 14006.75
845.1720, 13004.52
846.3090, 12121.30
847.4450, 11238.10
848.5810, 10244.92
849.7170, 9428.740
850.8530, 8561.586
851.9880, 7765.443
853.1240, 7072.313
854.2590, 6368.200
855.3940, 5816.253
856.5290, 5319.016
857.6640, 4875.946
858.7980, 4419.892
859.9330, 4097.851
861.0670, 3739.827
862.2010, 3379.816
863.3350, 3245.821
864.4690, 2891.841
865.6030, 2609.876
866.7360, 2424.925
867.8690, 2080.990
869.0020, 1960.071
870.1350, 1864.166
871.2680, 1710.276
872.4010, 1474.402
873.5330, 1445.543
874.6660, 1340.699
875.7980, 1181.871
876.9300, 1151.057
878.0620, 1125.259
879.1930, 971.4763
880.3250, 929.7092
881.4560, 877.9573
882.5870, 922.2207
883.7180, 766.5002
884.8490, 808.7954
885.9800, 716.3228
887.1100, 744.9097
888.2410, 619.2559
889.3710, 619.9407
890.5010, 599.9011
891.6310, 568.7146
892.7610, 624.9099
893.8900, 525.1003
895.0200, 575.0889
896.1490, 615.9617
897.2780, 500.3145
898.4070, 564.8345
899.5360, 489.1436
900.6640, 513.6973
901.7920, 541.3694
902.9210, 511.6228
904.0490, 504.5076
905.1770, 475.4517
906.3040, 429.7207
907.4320, 436.9636
908.5600, 392.5000
909.6870, 396.8521
910.8140, 321.6475
911.9410, 314.1680
913.0680, 324.5261
914.1940, 297.3423
915.3210, 280.4736
916.4470, 284.3425
917.5730, 284.8931
918.6990, 320.9539
919.8250, 347.9646
920.9500, 312.4966
922.0760, 244.3152
923.2010, 395.1196
924.3260, 327.2546
925.4510, 412.3535
926.5760, 356.4934
927.7010, 391.4875
928.8250, 406.4011
929.9500, 467.5776
931.0740, 511.7715
932.1980, 403.9819
933.3220, 329.2107
934.4450, 394.4604
935.5690, 419.7249
936.6920, 420.0017
937.8150, 400.3081
938.9380, 446.9812
940.0610, 351.3203
941.1840, 354.6890
942.3060, 342.0769
943.4290, 440.4775
944.5510, 423.8984
945.6730, 370.3352
946.7950, 453.7891
947.9160, 420.2686
949.0380, 352.7642
950.1590, 371.2712
951.2800, 361.7910
952.4010, 316.3213
953.5220, 362.8616
954.6430, 331.4121
955.7630, 380.9722
956.8840, 379.5420
958.0040, 289.1240
959.1240, 301.7310
960.2440, 287.3591
961.3640, 305.0049
962.4830, 324.6658
963.6030, 287.3354
964.7220, 312.0229
965.8410, 255.7200
966.9600, 254.9106
968.0780, 279.1394
969.1970, 232.8616
970.3150, 241.5916
971.4340, 242.3315
972.5520, 228.0796
973.6700, 165.8357
974.7870, 201.6038
975.9050, 194.3806
977.0220, 236.1655
978.1390, 229.9587
979.2560, 148.7600
980.3730, 276.5684
981.4900, 191.3840
982.6070, 164.2070
983.7230, 189.0481
984.8390, 224.8962
985.9550, 235.7520
987.0710, 176.6150
988.1870, 172.4841
989.3030, 163.3599
990.4180, 165.2417
991.5330, 129.1294
992.6480, 118.0229
993.7630, 190.9224
994.8780, 134.8274
995.9930, 161.7380
997.1070, 105.6541
998.2210, 175.5752
999.3350, 71.50171
1000.449, 115.4336
1001.563, 86.37036
1002.677, 57.31152
1003.790, 87.25781
1004.903, 75.20850
1006.016, 37.16382
1007.129, 33.12280
1008.242, 66.08643
1009.355, 42.05420
1010.467, 15.02563
1011.579, 54.00098
1012.691, 38.97974
1013.803, 16.96265
1014.915, 52.94849
1016.027, 64.93823
1017.138, 75.93115
1018.249, 21.92676
1019.360, 8.074463
1020.471, 30.07593
1021.582, 19.91333
1022.693, 30.09497
1023.803, 15.11353
1024.913, 11.13623
1026.023, 18.16162
1027.133, 17.19287
1028.243, 12.22998
1029.353, 28.27124
1030.462, 68.32422
1031.571, 4.589844
1032.680, 33.49463
1033.789, 36.59473
1034.898, 0.2873540
1036.007, 45.83105
1037.115, 21.97290
1038.223, 39.12646
1039.331, 75.30029
1040.439, 7.514404
1041.547, 61.73438
1042.655, 25.98828
1043.762, 15.25757
1044.869, 9.537354
1045.976, 23.82520
1047.083, 6.871338
1048.190, 18.43359
1049.297, 17.24805
1050.403, 6.071533
1051.509, 14.39917
1052.615, 7.260986
1053.721, 3.010498
1054.827, 7.361572
1055.933, 38.72266
1057.038, 11.11060
1058.143, 41.48853
1059.248, 25.49438
1060.353, 22.13647
1061.458, 4.097168
1062.563, 61.47998
1063.667, 24.08203
1064.771, 55.69019
1065.875, 44.92603
1066.979, 43.49585
1068.083, 30.03931
1069.186, 60.56250
1070.290, 61.15112
1071.393, 9.660889
1072.496, 82.83765
1073.599, 47.22876
1074.702, 47.05420
1075.804, 113.5942
1076.907, 78.13330
1078.009, 92.67285
1079.111, 145.1851
1080.213, 96.19409
1081.315, 102.0237
1082.416, 60.69189
1083.517, 51.51367
1084.619, 66.15479
1085.720, 82.64307
1086.821, 68.12915
1087.921, 89.55737
1089.022, 122.9731
1090.122, 109.8782
1091.222, 117.8120
1092.322, 108.8208
1093.422, 102.1138
1094.522, 89.88037
1095.622, 110.2766
1096.721, 114.7488
1097.820, 100.2971
1098.919, 94.64819
1100.018, 135.0378
1101.117, 134.3733
1102.215, 119.7007
1103.314, 162.3442
1104.412, 73.68042
1105.510, 179.0962
1106.608, 91.30786
1107.705, 91.81763
1108.803, 151.2339
1109.900, 144.7346
1110.997, 131.0627
1112.094, 132.3857
1113.191, 177.7029
1114.288, 155.0037
1115.384, 183.8230
1116.481, 181.1140
1117.577, 234.5508
1118.673, 220.8909
1119.769, 180.0784
1120.864, 231.2649
1121.960, 245.4336
1123.055, 218.6033
1124.150, 186.7527
1125.245, 184.8926
1126.340, 161.0225
1127.434, 232.1428
1128.529, 250.2532
1129.623, 255.3535
1130.717, 275.4980
1131.811, 265.5898
1132.905, 228.6599
1133.999, 311.7202
1135.092, 251.7703
1136.185, 226.8101
1137.279, 277.8396
1138.371, 247.0286
1139.464, 237.8677
1140.557, 253.8662
1141.649, 287.8545
1142.742, 272.8320
1143.834, 289.7993
1144.926, 245.7556
1146.017, 263.7014
1147.109, 244.7068
1148.200, 274.6311
1149.292, 273.5449
1150.383, 284.4482
1151.474, 230.1235
1152.564, 248.7446
1153.655, 237.6155
1154.745, 252.1533
1155.835, 238.3301
1156.925, 203.8428
1158.015, 211.8892
1159.105, 186.9492
1160.195, 178.2236
1161.284, 195.6199
1162.373, 156.5493
1163.462, 162.3245
1164.551, 123.3213
1165.640, 133.0952
1166.728, 155.7668
1167.817, 131.8652
1168.905, 184.3420
1169.993, 149.7683
1171.081, 114.8787
1172.168, 87.03589
1173.256, 121.9102
1174.343, 110.9858
1175.430, 92.62646
1176.517, 82.54688
1177.604, 74.52319
1178.691, 69.42773
1179.777, 69.61401
1180.864, 60.23535
1181.950, 70.19189
1183.036, 52.66577
1184.121, 37.20801
1185.207, 79.24243
1186.293, 77.01074
1187.378, 82.81348
1188.463, 50.31250
1189.548, 14.86328
1190.633, 4.381104
1191.717, 10.05786
1192.802, 36.81763
1193.886, 1.680664
1194.970, 28.80322
1196.054, 4.278076
1197.138, 35.73853
1198.221, 41.19043
1199.305, 73.63428
1200.388, 29.06982
1201.471, 4.496826
1202.554, 67.55713
1203.637, 32.03809
1204.719, 12.33350
1205.801, 30.69409
1206.884, 18.95361
1207.966, 28.37256
1209.048, 33.69043
1210.129, 26.99976
1211.211, 10.27979
1212.292, 16.54810
1213.373, 9.806641
1214.454, 17.05396
1215.535, 30.60474
1216.616, 29.52124
1217.696, 41.74243
1218.777, 51.95605
1219.857, 8.161865
1220.937, 45.64331
1222.017, 29.48730
1223.096, 18.36157
1224.176, 10.26001
1225.255, 36.82178
1226.334, 22.10425
1227.413, 14.94409
1228.492, 65.98340
1229.570, 30.01538
1230.649, 44.04956
1231.727, 46.86182
1232.805, 7.066895
1233.883, 34.06665
1234.961, 18.05908
1236.038, 4.956787
1237.116, 10.01221
1238.193, 14.97217
1239.270, 8.923828
1240.347, 21.86646
1241.424, 20.80200
