##NAMES=Fayalite
##RRUFFID=R070293
##IDEAL CHEMISTRY=Fe^2+^_2_SiO_4_
##LOCALITY=Pike's Peak, Teller County, Colorado, USA
##OWNER=RRUFF
##SOURCE=Michael Scott
##DESCRIPTION=Black single crystal fragment with internal hints of red and green
##STATUS=The identification of this mineral has been confirmed by X-ray diffraction and chemical analysis
##URL=rruff.info/R070293
##MEASURED CHEMISTRY=(Fe^2+^_1.87_Mn^2+^_0.13_)_Î£=2_Si_1.00_O_4_ ; trace amounts of Mg
##PIN_ID=L01546
##ORIENTATION=Laser parallel to c* (0 0 1). Fiducial mark perpendicular to laser is parallel to a [1 0 0]
103.0560, 0.0000000E+00
104.2930, 49.57495
105.5290, 192.9604
106.7660, 251.5259
108.0020, 247.9309
109.2390, 267.6931
110.4750, 295.2476
111.7110, 256.1353
112.9460, 296.5588
114.1820, 481.6426
115.4170, 644.5125
116.6530, 676.2983
117.8880, 742.4856
119.1230, 794.5703
120.3580, 777.7954
121.5920, 681.4458
122.8270, 618.3792
124.0610, 544.4656
125.2950, 322.6223
126.5290, 126.7939
127.7630, 27.94312
128.9970, 58.32153
130.2300, 95.51245
131.4640, 35.91235
132.6970, 32.19287
133.9300, 44.79346
135.1630, 20.22974
136.3950, 8.416504
137.6280, 69.67432
138.8600, 51.32983
140.0920, 111.5813
141.3240, 53.52979
142.5560, 42.06177
143.7880, 101.2920
145.0190, 70.25195
146.2510, 132.9678
147.4820, 198.4634
148.7130, 235.7568
149.9440, 226.8655
151.1750, 310.8049
152.4050, 482.5896
153.6360, 475.2966
154.8660, 540.9517
156.0960, 501.6619
157.3260, 361.4395
158.5560, 274.4177
159.7850, 241.0964
161.0150, 114.6821
162.2440, 199.4624
163.4730, 150.9119
164.7020, 222.0435
165.9310, 261.4290
167.1590, 246.7441
168.3880, 239.7634
169.6160, 284.4424
170.8440, 306.1423
172.0720, 284.9543
173.3000, 289.7920
174.5280, 261.3884
175.7550, 216.1262
176.9820, 148.4717
178.2100, 203.8618
179.4370, 109.3027
180.6630, 113.7944
181.8900, 125.3345
183.1170, 180.9197
184.3430, 241.5469
185.5690, 158.2100
186.7950, 231.9062
188.0210, 249.6333
189.2470, 211.3892
190.4720, 298.1719
191.6970, 296.9700
192.9230, 253.7505
194.1480, 304.5486
195.3730, 254.3662
196.5970, 298.2017
197.8220, 233.0527
199.0460, 241.9182
200.2700, 208.7969
201.4940, 214.6875
202.7180, 151.5886
203.9420, 97.49756
205.1660, 1.414063
206.3890, 14.66431
207.6120, 13.74048
208.8350, 1.184814
210.0580, 1.976563
211.2810, 10.02539
212.5040, 7.938232
213.7260, 19.85889
214.9480, 15.78784
216.1700, 23.50928
217.3920, 18.36133
218.6140, 35.58325
219.8360, 35.47412
221.0570, 35.53491
222.2790, 5.405762
223.5000, 13.64526
224.7210, 31.30566
225.9410, 24.74683
227.1620, 15.80420
228.3820, 46.89429
229.6030, 66.03223
230.8230, 6.798340
232.0430, 44.39160
233.2630, 15.40381
234.4820, 5.831055
235.7020, 8.119141
236.9210, 1.555420
238.1400, 98.20508
239.3590, 60.80298
240.5780, 69.33154
241.7970, 76.82202
243.0150, 46.29297
244.2340, 80.75244
245.4520, 66.21851
246.6700, 81.69043
247.8880, 45.16846
249.1060, 132.6531
250.3230, 99.24463
251.5400, 132.0857
252.7580, 191.0481
253.9750, 131.0769
255.1920, 194.1382
256.4080, 192.2153
257.6250, 198.2949
258.8410, 298.3562
260.0580, 266.4011
261.2740, 341.4307
262.4900, 337.4453
263.7050, 476.4456
264.9210, 449.3740
266.1360, 497.2065
267.3520, 582.0198
268.5670, 555.8235
269.7820, 720.6155
270.9960, 706.3950
272.2110, 795.1621
273.4250, 1004.916
274.6400, 1124.657
275.8540, 1346.384
277.0680, 1505.093
278.2810, 1777.784
279.4950, 2070.167
280.7090, 2296.681
281.9220, 2657.301
283.1350, 3155.664
284.3480, 3334.229
285.5610, 3820.771
286.7730, 4232.289
287.9860, 4369.785
289.1980, 4652.260
290.4100, 4719.719
291.6220, 4612.159
292.8340, 4435.584
294.0460, 3961.992
295.2570, 3616.386
296.4690, 3073.765
297.6800, 2631.132
298.8910, 2310.486
300.1020, 1997.828
301.3120, 1681.108
302.5230, 1457.366
303.7330, 1282.551
304.9440, 1173.843
306.1540, 935.9792
307.3630, 929.2354
308.5730, 761.2512
309.7830, 772.2285
310.9920, 738.3599
312.2010, 743.3335
313.4100, 650.2668
314.6190, 612.5471
315.8280, 626.8616
317.0370, 488.5962
318.2450, 488.3228
319.4530, 451.0493
320.6610, 420.7771
321.8690, 414.7734
323.0770, 417.3826
324.2850, 387.1541
325.4920, 383.8828
326.6990, 356.5657
327.9060, 340.5750
329.1130, 349.5259
330.3200, 335.2629
331.5270, 359.9746
332.7330, 365.0413
333.9390, 375.8289
335.1450, 361.5681
336.3510, 441.4282
337.5570, 399.2937
338.7630, 392.1890
339.9680, 470.5193
341.1740, 436.7007
342.3790, 462.1265
343.5840, 481.0361
344.7890, 472.8596
345.9930, 635.6252
347.1980, 612.4124
348.4020, 661.1479
349.6060, 662.8745
350.8100, 786.1216
352.0140, 892.3777
353.2180, 936.7212
354.4210, 1030.030
355.6250, 1233.156
356.8280, 1269.939
358.0310, 1365.661
359.2340, 1641.785
360.4360, 1724.814
361.6390, 1898.034
362.8410, 2015.238
364.0430, 2278.646
365.2450, 2356.804
366.4470, 2611.981
367.6490, 2685.720
368.8510, 2610.324
370.0520, 2745.736
371.2530, 2708.706
372.4540, 2654.248
373.6550, 2609.829
374.8560, 2496.232
376.0560, 2435.155
377.2570, 2206.956
378.4570, 2059.192
379.6570, 1907.467
380.8570, 1845.633
382.0570, 1665.440
383.2560, 1619.335
384.4560, 1424.119
385.6550, 1351.956
386.8540, 1124.828
388.0530, 1024.576
389.2520, 923.4846
390.4510, 941.3362
391.6490, 872.2559
392.8470, 690.0400
394.0450, 710.9988
395.2430, 595.9673
396.4410, 606.9324
397.6390, 595.8916
398.8360, 521.8438
400.0340, 456.7888
401.2310, 402.7268
402.4280, 388.6582
403.6250, 392.5986
404.8210, 343.5320
406.0180, 397.4668
407.2140, 266.3943
408.4100, 202.3164
409.6060, 171.2322
410.8020, 208.1414
411.9980, 264.0454
413.1930, 194.9434
414.3890, 180.8398
415.5840, 141.7300
416.7790, 127.6133
417.9740, 101.4902
419.1680, 74.36084
420.3630, 124.2251
421.5570, 135.0825
422.7510, 147.9338
423.9450, 128.7842
425.1390, 122.6379
426.3330, 95.48511
427.5270, 64.32764
428.7200, 62.16406
429.9130, 59.30054
431.1060, 100.8188
432.2990, 82.63672
433.4920, 100.2849
434.6840, 119.2551
435.8770, 83.05542
437.0690, 112.8496
438.2610, 60.63818
439.4530, 90.42090
440.6450, 47.19727
441.8360, 46.96851
443.0280, 51.73315
444.2190, 88.49243
445.4100, 33.24585
446.6010, 66.99341
447.7920, 8.735840
448.9820, 169.4722
450.1730, 3.202637
451.3630, 96.92725
452.5530, 54.64673
453.7430, 0.6384280
454.9330, 17.07031
456.1230, 11.77393
457.3120, 26.47241
458.5010, 33.36841
459.6910, 39.06348
460.8800, 52.54224
462.0680, 49.22437
463.2570, 63.90234
464.4460, 55.57666
465.6340, 38.75317
466.8220, 30.89355
468.0100, 36.53613
469.1980, 2.664307
470.3860, 65.96729
471.5730, 2.210938
472.7600, 84.61157
473.9480, 35.77197
475.1350, 6.706055
476.3210, 29.07666
477.5080, 56.66138
478.6950, 11.33276
479.8810, 9.927734
481.0670, 2.667969
482.2530, 13.16211
483.4390, 9.756592
484.6250, 14.97827
485.8100, 0.5798340
486.9960, 19.28662
488.1810, 32.91260
489.3660, 27.60815
490.5510, 74.18970
491.7360, 35.86694
492.9200, 56.36011
494.1050, 81.32690
495.2890, 106.9426
496.4730, 115.7632
497.6570, 116.5806
498.8400, 113.5876
500.0240, 124.0427
501.2070, 99.64258
502.3910, 148.5708
503.5740, 129.3796
504.7570, 181.9692
505.9400, 133.5654
507.1220, 123.3655
508.3050, 145.0547
509.4870, 128.7224
510.6690, 105.4807
511.8510, 88.20825
513.0330, 44.81543
514.2140, 47.19336
515.3960, 113.6785
516.5770, 56.94092
517.7580, 59.23413
518.9390, 91.00317
520.1200, 73.50952
521.3010, 155.1748
522.4810, 112.4438
523.6610, 119.5698
524.8420, 136.2292
526.0220, 99.42676
527.2010, 204.5991
528.3810, 134.2488
529.5610, 155.7646
530.7400, 158.4280
531.9190, 121.0579
533.0980, 155.6707
534.2770, 173.5208
535.4560, 258.1423
536.6340, 170.7021
537.8120, 230.6077
538.9910, 241.0356
540.1690, 237.4534
541.3460, 316.8611
542.5240, 359.2776
543.7020, 409.7397
544.8790, 388.9321
546.0560, 502.2988
547.2330, 519.4541
548.4100, 632.7998
549.5870, 608.3918
550.7630, 764.8032
551.9400, 840.1592
553.1160, 789.6931
554.2920, 986.0479
555.4680, 1060.300
556.6440, 1096.620
557.8190, 1193.881
558.9950, 1331.131
560.1700, 1380.370
561.3450, 1469.607
562.5200, 1468.826
563.6950, 1474.033
564.8690, 1478.230
566.0440, 1445.684
567.2180, 1429.593
568.3920, 1344.784
569.5660, 1318.938
570.7400, 1206.082
571.9130, 1100.215
573.0870, 1115.338
574.2600, 994.4497
575.4330, 951.5510
576.6060, 861.6418
577.7790, 795.7217
578.9520, 715.7910
580.1240, 703.8501
581.2960, 616.8984
582.4690, 601.9365
583.6410, 508.9636
584.8120, 580.9805
585.9840, 531.9866
587.1560, 467.9490
588.3270, 469.9343
589.4980, 421.7732
590.6690, 470.7373
591.8400, 453.5327
593.0110, 395.4763
594.1810, 405.4089
595.3510, 371.8398
596.5220, 334.3613
597.6920, 291.7341
598.8610, 314.5654
600.0310, 187.4150
601.2010, 285.2788
602.3700, 200.1392
603.5390, 185.9897
604.7080, 210.8301
605.8770, 108.6599
607.0460, 167.3306
608.2140, 148.0994
609.3830, 44.88184
610.5510, 98.44580
611.7190, 36.22363
612.8870, 34.77515
614.0550, 116.5298
615.2220, 16.29980
616.3900, 32.70264
617.5570, 78.37378
618.7240, 56.08276
619.8910, 72.66016
621.0580, 36.22217
622.2240, 42.74341
623.3910, 19.81836
624.5570, 24.58374
625.7230, 67.98730
626.8890, 30.44971
628.0550, 47.98682
629.2200, 29.57153
630.3860, 55.12329
631.5510, 30.71606
632.7160, 89.28345
633.8810, 11.85669
635.0460, 32.58374
636.2100, 28.06030
637.3750, 25.42969
638.5390, 43.90845
639.7030, 30.62207
640.8670, 46.81250
642.0310, 11.23779
643.1950, 31.64966
644.3580, 17.05151
645.5210, 44.44214
646.6850, 13.82349
647.8480, 19.80713
649.0100, 35.46606
650.1730, 37.16089
651.3350, 17.10693
652.4980, 40.36450
653.6600, 3.425049
654.8220, 14.22607
655.9840, 14.27271
657.1450, 1.158447
658.3070, 22.67651
659.4680, 34.53979
660.6300, 37.43750
661.7910, 47.37134
662.9510, 61.34521
664.1120, 38.36743
665.2730, 47.42480
666.4330, 47.52246
667.5930, 21.33984
668.7530, 50.19336
669.9130, 40.96118
671.0730, 16.84888
672.2320, 17.64966
673.3920, 45.55811
674.5510, 9.197266
675.7100, 42.05615
676.8690, 0.3447270
678.0280, 53.35425
679.1860, 50.04639
680.3450, 49.73145
681.5030, 37.40967
682.6610, 23.08081
683.8190, 56.25537
684.9770, 39.36841
686.1340, 25.01465
687.2920, 47.57886
688.4490, 0.8334960
689.6060, 13.74390
690.7630, 23.31494
691.9200, 1.229492
693.0760, 16.43433
694.2330, 15.01709
695.3890, 17.51611
696.5450, 29.04297
697.7010, 27.56421
698.8570, 46.07983
700.0130, 22.59009
701.1680, 47.09497
702.3230, 95.59448
703.4780, 79.08911
704.6330, 104.5786
705.7880, 37.06323
706.9430, 11.54297
708.0970, 18.01782
709.2520, 31.48804
710.4060, 76.95337
711.5600, 91.41455
712.7140, 144.8713
713.8670, 81.32397
715.0210, 78.77246
716.1740, 80.21704
717.3270, 112.6577
718.4800, 77.09424
719.6330, 52.22314
720.7860, 120.0022
721.9380, 160.9131
723.0910, 176.4185
724.2430, 90.38501
725.3950, 135.4478
726.5470, 127.9690
727.6980, 118.3237
728.8500, 181.8298
730.0010, 110.5403
731.1530, 172.8813
732.3040, 181.8708
733.4550, 215.2698
734.6050, 195.7949
735.7560, 192.6555
736.9060, 242.3848
738.0560, 262.8337
739.2060, 237.2666
740.3560, 242.8145
741.5060, 268.7676
742.6560, 304.5808
743.8050, 315.9612
744.9540, 289.3398
746.1030, 293.7268
747.2520, 337.1123
748.4010, 338.3354
749.5500, 359.7197
750.6980, 430.9084
751.8460, 417.0906
752.9950, 336.4731
754.1420, 375.3914
755.2900, 386.5950
756.4380, 354.9912
757.5850, 469.2954
758.7330, 495.6760
759.8800, 460.9116
761.0270, 539.1836
762.1730, 581.2993
763.3200, 646.5186
764.4670, 609.9609
765.6130, 624.2520
766.7590, 557.6189
767.9050, 706.9114
769.0510, 682.3127
770.1960, 716.6218
771.3420, 816.1096
772.4870, 824.1270
773.6320, 860.5007
774.7770, 837.1702
775.9220, 1024.470
777.0670, 1093.867
778.2110, 1086.430
779.3560, 1137.852
780.5000, 1218.945
781.6440, 1318.313
782.7880, 1513.586
783.9320, 1581.016
785.0750, 1893.244
786.2180, 1856.601
787.3620, 2070.001
788.5050, 2357.325
789.6480, 2458.704
790.7900, 2838.206
791.9330, 3080.726
793.0750, 3412.586
794.2170, 3868.464
795.3590, 4256.337
796.5010, 4787.738
797.6430, 5435.415
798.7850, 6373.949
799.9260, 7391.516
801.0670, 8422.976
802.2080, 9968.534
803.3490, 11542.55
804.4900, 13193.60
805.6310, 15847.16
806.7710, 18343.86
807.9110, 20798.41
809.0510, 23895.99
810.1910, 26569.58
811.3310, 28989.93
812.4710, 30504.51
813.6100, 31160.90
814.7490, 31646.44
815.8880, 30458.21
817.0270, 29079.98
818.1660, 27036.76
819.3050, 25105.53
820.4430, 23113.26
821.5820, 21345.24
822.7200, 19980.06
823.8580, 18555.08
824.9950, 17686.92
826.1330, 16970.50
827.2710, 16478.26
828.4080, 15806.07
829.5450, 15728.71
830.6820, 15478.52
831.8190, 15266.43
832.9560, 15342.29
834.0920, 15111.19
835.2280, 15091.11
836.3650, 14984.04
837.5010, 14713.97
838.6360, 14648.92
839.7720, 14488.88
840.9080, 13883.85
842.0430, 13524.83
843.1780, 12638.82
844.3130, 12009.79
845.4480, 11100.81
846.5830, 10377.82
847.7170, 9476.852
848.8520, 8839.887
849.9860, 7946.936
851.1200, 7286.992
852.2540, 6426.060
853.3870, 5933.137
854.5210, 5416.224
855.6540, 4871.320
856.7880, 4434.430
857.9210, 3925.546
859.0540, 3553.324
860.1860, 3222.812
861.3190, 2896.961
862.4510, 2624.120
863.5840, 2416.288
864.7160, 2240.467
865.8480, 1925.656
866.9790, 1793.856
868.1110, 1625.066
869.2420, 1363.286
870.3740, 1400.517
871.5050, 1217.758
872.6360, 1179.460
873.7660, 1076.226
874.8970, 1083.543
876.0280, 898.8259
877.1580, 759.1191
878.2880, 772.4226
879.4180, 654.7363
880.5480, 582.0608
881.6770, 638.3955
882.8070, 606.7407
883.9360, 483.0964
885.0650, 493.4631
886.1940, 366.8406
887.3230, 349.2290
888.4520, 453.6289
889.5800, 281.0396
890.7090, 330.2292
891.8370, 161.6636
892.9650, 304.1084
894.0930, 226.7817
895.2200, 232.2886
896.3480, 262.2859
897.4750, 220.6184
898.6020, 188.4045
899.7290, 73.32324
900.8560, 160.4326
901.9830, 122.9609
903.1090, 134.4990
904.2360, 147.0474
905.3620, 121.1003
906.4880, 157.6682
907.6140, 112.2449
908.7400, 89.83325
909.8650, 89.44629
910.9900, 35.08813
912.1160, 56.05884
913.2410, 37.77856
914.3660, 77.34790
915.4900, 55.03247
916.6150, 63.72803
917.7390, 72.43262
918.8640, 96.84131
919.9880, 135.5916
921.1120, 175.7278
922.2350, 218.5574
923.3590, 267.8008
924.4820, 278.3279
925.6060, 279.4287
926.7290, 351.2422
927.8520, 319.0686
928.9740, 396.9519
930.0970, 404.3430
931.2190, 408.7551
932.3420, 395.6978
933.4640, 434.8982
934.5860, 458.0020
935.7080, 389.3923
936.8290, 399.9817
937.9510, 422.9954
939.0720, 451.3564
940.1930, 448.0042
941.3140, 441.0757
942.4350, 436.1538
943.5560, 450.3074
944.6760, 439.6367
945.7960, 386.5532
946.9170, 427.7061
948.0370, 422.8665
949.1560, 407.0500
950.2760, 439.3240
951.3960, 423.5256
952.5150, 351.7349
953.6340, 381.2476
954.7530, 288.4688
955.8720, 331.6963
956.9910, 392.9468
958.1090, 357.2080
959.2280, 369.5474
960.3460, 398.8325
961.4640, 323.1477
962.5820, 267.4683
963.6990, 389.8027
964.8170, 388.1460
965.9340, 384.4949
967.0510, 338.7778
968.1690, 238.1406
969.2850, 283.5227
970.4020, 319.3101
971.5190, 320.7129
972.6350, 210.1201
973.7510, 271.5317
974.8670, 297.9751
975.9830, 96.39453
977.0990, 242.8247
978.2150, 242.2588
979.3300, 231.6963
980.4450, 224.1377
981.5600, 192.5825
982.6750, 207.1045
983.7900, 254.4814
984.9050, 239.9360
986.0190, 168.3940
987.1340, 207.8545
988.2480, 165.3252
989.3620, 210.7988
990.4750, 160.2749
991.5890, 155.7534
992.7020, 141.2349
993.8160, 185.7188
994.9290, 119.2046
996.0420, 92.69287
997.1550, 252.1836
998.2670, 99.67627
999.3800, 161.1709
1000.492, 184.6680
1001.604, 81.16699
1002.716, 230.6670
1003.828, 69.16895
1004.940, 125.6724
1006.051, 81.17725
1007.163, 126.6836
1008.274, 115.1948
1009.385, 125.6987
1010.496, 91.20801
1011.606, 83.71826
1012.717, 53.22900
1013.827, 66.74023
1014.937, 64.25244
1016.047, 74.76514
1017.157, 10.27783
1018.267, 61.79102
1019.377, 15.30469
1020.486, 86.81836
1021.595, 15.33154
1022.704, 62.84424
1023.813, 36.64258
1024.922, 81.85352
1026.030, 49.34912
1027.139, 26.15576
1028.247, 22.67334
1029.355, 30.20117
1030.463, 66.74463
1031.571, 73.32275
1032.678, 42.93945
1033.786, 12.57861
1034.893, 6.773926
1036.000, 30.12549
1037.107, 30.62256
1038.214, 26.17578
1039.321, 31.15723
1040.427, 20.48779
1041.533, 38.81787
1042.639, 95.61084
1043.745, 2.936035
1044.851, 52.74121
1045.957, 1.549316
1047.062, 13.16357
1048.168, 29.11133
1049.273, 41.38379
1050.378, 47.65381
1051.482, 35.61523
1052.587, 9.774414
1053.692, 17.46729
1054.796, 29.22998
1055.900, 51.01514
1057.004, 54.82227
1058.108, 15.67676
1059.212, 39.45312
1060.315, 24.57861
1061.418, 9.701172
1062.522, 18.10303
1063.625, 2.003418
1064.728, 9.711914
1065.830, 45.03906
1066.933, 10.98828
1068.035, 1.047363
1069.137, 1.221680
1070.239, 68.90674
1071.341, 4.952148
1072.443, 1.150391
1073.545, 148.1846
1074.646, 62.19775
1075.747, 24.42188
1076.848, 91.67725
1077.949, 74.02881
1079.050, 73.47754
1080.150, 73.66748
1081.251, 80.27637
1082.351, 22.54248
1083.451, 75.87646
1084.551, 62.24316
1085.651, 13.24512
1086.750, 53.23389
1087.850, 96.20020
1088.949, 124.1973
1090.048, 110.3086
1091.147, 33.29346
1092.246, 173.1104
1093.345, 87.45459
1094.443, 124.3115
1095.541, 133.0986
1096.639, 119.4541
1097.737, 171.2866
1098.835, 8.110352
1099.933, 124.9175
1101.030, 146.1206
1102.128, 1.910645
1103.225, 111.3765
1104.322, 104.2822
1105.419, 93.03320
1106.515, 63.77441
1107.612, 78.50684
1108.708, 103.7334
1109.804, 154.4507
1110.900, 189.1802
1111.996, 186.1055
1113.092, 178.5615
1114.187, 147.2378
1115.283, 177.9048
1116.378, 107.5630
1117.473, 108.2969
1118.568, 163.9355
1119.662, 123.0903
1120.757, 120.7090
1121.851, 148.3188
1122.946, 212.9180
1124.040, 204.5078
1125.134, 123.0869
1126.227, 199.6567
1127.321, 149.2554
1128.414, 220.8052
1129.508, 288.3447
1130.601, 206.9551
1131.693, 289.4746
1132.786, 239.0381
1133.879, 234.5557
1134.971, 322.0439
1136.064, 218.5234
1137.156, 225.9912
1138.248, 287.4492
1139.339, 270.8965
1140.431, 224.3340
1141.522, 237.7603
1142.614, 201.2402
1143.705, 164.5820
1144.796, 201.9775
1145.887, 187.3628
1146.977, 193.8721
1148.068, 229.1011
1149.158, 219.4546
1150.248, 229.7979
1151.338, 263.1309
1152.428, 295.4526
1153.518, 243.7637
1154.607, 248.0645
1155.696, 163.5884
1156.785, 161.8682
1157.874, 186.1372
1158.963, 178.1777
1160.052, 177.5073
1161.141, 172.1011
1162.229, 155.4829
1163.317, 143.4121
1164.405, 120.2095
1165.493, 237.8169
1166.581, 152.0039
1167.668, 135.1826
1168.756, 81.35156
1169.843, 188.0146
1170.930, 166.1641
1172.017, 105.3037
1173.103, 24.43359
1174.190, 183.5498
1175.276, 95.64844
1176.363, 107.4194
1177.449, 154.4404
1178.535, 88.62451
1179.620, 132.6934
1180.706, 105.7529
1181.791, 65.80225
1182.877, 92.35156
1183.962, 62.06641
1185.047, 89.77246
1186.131, 91.70703
1187.216, 66.24072
1188.300, 99.50488
1189.385, 79.87500
1190.469, 112.1719
1191.553, 81.14014
1192.637, 46.05859
1193.720, 65.47656
1194.804, 5.875488
1195.887, 26.75000
1196.970, 65.37842
1198.053, 60.11621
1199.136, 1.582520
1200.219, 21.13477
1201.301, 49.72656
1202.383, 6.743652
1203.465, 46.50732
1204.547, 50.33496
1205.629, 23.84668
1206.711, 11.89941
1207.792, 10.31934
1208.874, 4.441895
1209.955, 14.19092
1211.036, 0.9296880
1212.117, 9.235352
1213.198, 6.289551
1214.278, 4.992676
1215.359, 36.68457
1216.439, 37.07129
1217.519, 40.74707
1218.599, 31.41406
1219.678, 8.926270
1220.758, 30.71484
1221.837, 4.716797
1222.917, 77.09961
1223.996, 58.46387
1225.075, 20.97998
1226.153, 1.551758
1227.232, 93.07227
1228.310, 83.58496
1229.389, 88.16602
1230.467, 45.33447
1231.545, 107.1289
1232.622, 34.80762
1233.700, 16.62695
1234.777, 130.0542
1235.855, 128.4746
1236.932, 93.86133
1238.009, 16.73145
1239.086, 48.65625
1240.162, 43.03809
1241.239, 108.4131
1242.315, 95.78271
1243.391, 73.14600
1244.467, 69.50293
1245.543, 194.8545
1246.619, 26.19922
1247.694, 91.53857
1248.769, 19.12891
1249.844, 61.18457
1250.919, 97.49268
1251.994, 60.79541
1253.069, 86.09180
1254.144, 76.38330
1255.218, 77.66943
1256.292, 33.94971
1257.366, 97.22559
1258.440, 52.49561
1259.514, 22.76074
1260.587, 57.02002
1261.661, 28.27734
1262.734, 36.53027
1263.807, 154.7778
1264.880, 40.02002
1265.952, 108.2578
1267.025, 54.49023
1268.097, 69.71924
1269.170, 71.94336
1270.242, 38.17334
1271.314, 80.39844
1272.385, 82.61963
1273.457, 143.8364
1274.528, 61.04883
1275.600, 144.2573
1276.671, 102.4619
1277.742, 89.66211
1278.812, 182.8589
1279.883, 91.05127
