##NAMES=Ferberite
##RRUFFID=R050632
##IDEAL CHEMISTRY=Fe^2+^W^6+^O_4_
##LOCALITY=Chance mine, Boulder, Colorado, USA
##OWNER=RRUFF
##SOURCE=University of Arizona Mineral Museum
##DESCRIPTION=Dark brown rectangular prismatic crystals
##STATUS=The identification of this mineral has been confirmed by X-ray diffraction and chemical analysis
##URL=rruff.info/R050632
##MEASURED CHEMISTRY=Fe^2+^_1.00_WO_4_
##PIN_ID=L00968
##ORIENTATION=Laser parallel to c* (0 0 1). Fiducial mark perpendicular to laser is parallel to a [1 0 0]
156.2290, 0.0000000E+00
157.4550, 0.5463870
158.6810, 76.30762
159.9080, 8.927734
161.1340, 51.74707
162.3590, 142.9351
163.5850, 323.5454
164.8110, 542.4194
166.0360, 592.2192
167.2610, 724.8779
168.4860, 769.7021
169.7110, 869.6885
170.9360, 1036.004
172.1610, 1118.355
173.3850, 1196.558
174.6100, 1220.407
175.8340, 1349.572
177.0580, 1361.237
178.2820, 1506.786
179.5050, 1354.499
180.7290, 1170.638
181.9520, 1034.089
183.1760, 1098.460
184.3990, 979.9062
185.6220, 1034.550
186.8450, 1068.494
188.0670, 1140.821
189.2900, 1062.969
190.5120, 1247.997
191.7340, 1334.469
192.9560, 1596.675
194.1780, 1694.602
195.4000, 1935.064
196.6220, 2058.908
197.8430, 2225.537
199.0640, 2411.991
200.2860, 2798.926
201.5070, 3407.700
202.7270, 3493.104
203.9480, 3333.303
205.1690, 3589.264
206.3890, 2657.734
207.6090, 1957.301
208.8290, 1755.953
210.0490, 1651.687
211.2690, 1409.494
212.4890, 1301.362
213.7080, 1197.276
214.9280, 951.2261
216.1470, 709.2090
217.3660, 543.2217
218.5850, 389.9580
219.8030, 390.3306
221.0220, 198.4229
222.2400, 227.6138
223.4590, 215.6812
224.6770, 113.8628
225.8950, 88.77686
227.1120, 22.09570
228.3300, 19.00928
229.5480, 78.36670
230.7650, 50.30566
231.9820, 74.54297
233.1990, 70.35840
234.4160, 92.37256
235.6330, 33.72949
236.8490, 243.4536
238.0660, 10.16699
239.2820, 134.5620
240.4980, 195.5103
241.7140, 78.39648
242.9300, 80.20020
244.1460, 65.56738
245.3610, 43.83594
246.5770, 263.4199
247.7920, 38.40674
249.0070, 254.1729
250.2220, 293.9937
251.4370, 414.3315
252.6510, 360.2617
253.8660, 360.0635
255.0800, 534.2559
256.2940, 611.8506
257.5080, 537.6562
258.7220, 663.0142
259.9360, 431.8022
261.1490, 513.4355
262.3630, 730.1997
263.5760, 664.6836
264.7890, 793.1270
266.0020, 733.7925
267.2150, 817.1006
268.4270, 850.2822
269.6400, 953.7314
270.8520, 976.9351
272.0640, 1036.079
273.2760, 1061.898
274.4880, 921.7070
275.7000, 997.5073
276.9120, 1029.308
278.1230, 853.9448
279.3340, 766.6396
280.5450, 594.7075
281.7560, 419.5049
282.9670, 381.3008
284.1780, 307.0942
285.3880, 307.8848
286.5980, 263.6729
287.8090, 274.4575
289.0190, 281.2383
290.2290, 298.2876
291.4380, 323.5947
292.6480, 335.3013
293.8570, 372.0366
295.0670, 390.1064
296.2760, 397.1606
297.4850, 470.6040
298.6930, 564.9961
299.9020, 531.7368
301.1110, 450.2227
302.3190, 348.0020
303.5270, 255.6699
304.7350, 206.6357
305.9430, 166.6880
307.1510, 143.1108
308.3580, 164.7085
309.5660, 176.3945
310.7730, 199.3735
311.9800, 190.9634
313.1870, 290.4570
314.3940, 325.8540
315.6010, 409.6221
316.8070, 442.2607
318.0130, 466.8135
319.2200, 523.7070
320.4260, 600.0942
321.6310, 672.1577
322.8370, 609.7676
324.0430, 647.5664
325.2480, 773.1924
326.4540, 901.6289
327.6590, 867.2285
328.8640, 893.6094
330.0680, 791.2764
331.2730, 849.5552
332.4780, 748.6548
333.6820, 725.9443
334.8860, 620.9932
336.0900, 669.0073
337.2940, 498.2222
338.4980, 638.0137
339.7010, 559.0835
340.9050, 565.5908
342.1080, 541.5103
343.3110, 617.6865
344.5140, 457.2310
345.7170, 642.5396
346.9200, 738.6558
348.1220, 750.8442
349.3240, 428.1426
350.5270, 537.8726
351.7290, 474.3110
352.9310, 403.6421
354.1320, 574.2603
355.3340, 300.2661
356.5350, 498.0386
357.7370, 492.0771
358.9380, 382.1133
360.1390, 365.1465
361.3400, 313.1768
362.5400, 386.2041
363.7410, 353.2275
364.9410, 260.2480
366.1410, 314.1807
367.3410, 168.1929
368.5410, 333.2007
369.7410, 298.7891
370.9400, 238.2212
372.1400, 308.8882
373.3390, 296.5088
374.5380, 249.4307
375.7370, 267.5488
376.9360, 311.8804
378.1350, 300.3882
379.3330, 379.5376
380.5310, 182.4604
381.7300, 273.1689
382.9280, 173.5361
384.1260, 278.1816
385.3230, 396.0752
386.5210, 473.2046
387.7180, 582.5645
388.9160, 689.8433
390.1130, 776.8350
391.3100, 933.6846
392.5060, 1023.646
393.7030, 1200.473
394.9000, 1335.289
396.0960, 1455.094
397.2920, 1667.888
398.4880, 1741.671
399.6840, 1708.442
400.8800, 1418.203
402.0750, 1383.952
403.2710, 1197.690
404.4660, 1060.417
405.6610, 795.1318
406.8560, 703.8354
408.0510, 480.5283
409.2450, 505.2095
410.4400, 348.8799
411.6340, 302.5396
412.8280, 290.1890
414.0220, 215.8291
415.2160, 146.4600
416.4100, 225.0815
417.6030, 187.6943
418.7970, 139.2988
419.9900, 211.8940
421.1830, 82.48047
422.3760, 97.05713
423.5690, 149.6240
424.7610, 11.18213
425.9540, 93.72754
427.1460, 138.2637
428.3380, 81.79053
429.5300, 43.30713
430.7220, 86.81250
431.9140, 67.30859
433.1050, 37.20508
434.2970, 26.74512
435.4880, 1.310059
436.6790, 54.89111
437.8700, 141.4966
439.0610, 9.873535
440.2510, 27.68457
441.4420, 69.01758
442.6320, 85.24268
443.8220, 12.84375
445.0120, 73.87891
446.2020, 86.06445
447.3910, 103.0142
448.5810, 99.82959
449.7700, 26.38184
450.9600, 7.467285
452.1490, 94.43945
453.3370, 45.07861
454.5260, 31.44482
455.7150, 10.90527
456.9030, 9.122559
458.0910, 76.99316
459.2800, 116.8428
460.4670, 4.243164
461.6550, 69.27686
462.8430, 35.54053
464.0300, 52.44922
465.2180, 89.03760
466.4050, 64.44775
467.5920, 75.82764
468.7790, 91.82080
469.9650, 74.09570
471.1520, 23.78516
472.3380, 66.24902
473.5250, 10.54395
474.7110, 179.0391
475.8970, 94.18359
477.0820, 177.6401
478.2680, 195.0791
479.4540, 32.93896
480.6390, 163.3306
481.8240, 77.81689
483.0090, 363.0596
484.1940, 52.39844
485.3780, 135.7163
486.5630, 195.0200
487.7470, 50.30957
488.9320, 96.57959
490.1160, 199.8340
491.3000, 154.0747
492.4830, 182.3027
493.6670, 127.5156
494.8500, 197.7153
496.0340, 267.9019
497.2170, 291.0742
498.4000, 341.2329
499.5820, 232.3784
500.7650, 288.5098
501.9480, 223.6279
503.1300, 344.7329
504.3120, 265.8242
505.4940, 365.9019
506.6760, 337.9658
507.8580, 385.0171
509.0390, 398.0547
510.2210, 393.9941
511.4020, 392.0059
512.5830, 312.0049
513.7640, 311.7998
514.9450, 428.9756
516.1250, 287.9502
517.3060, 357.9424
518.4860, 423.9248
519.6660, 401.8984
520.8460, 463.8862
522.0260, 554.8950
523.2060, 367.8955
524.3850, 538.9565
525.5650, 482.3931
526.7440, 516.2207
527.9230, 487.1025
529.1020, 587.1562
530.2810, 609.2002
531.4590, 573.2339
532.6380, 558.2598
533.8160, 623.2744
534.9940, 567.2798
536.1720, 642.2739
537.3500, 526.2563
538.5270, 536.2271
539.7050, 540.1860
540.8820, 510.1333
542.0590, 513.0703
543.2360, 420.9951
544.4130, 467.9092
545.5900, 501.8125
546.7660, 468.7046
547.9430, 390.5854
549.1190, 507.4561
550.2950, 344.3159
551.4710, 412.1655
552.6470, 430.0044
553.8220, 333.8340
554.9980, 379.6528
556.1730, 314.4619
557.3480, 290.1641
558.5230, 372.0508
559.6980, 275.8306
560.8730, 205.6011
562.0470, 279.3628
563.2220, 276.9580
564.3960, 300.6074
565.5700, 299.3418
566.7440, 369.2988
567.9170, 262.9170
569.0910, 277.6255
570.2640, 331.1831
571.4380, 217.5107
572.6110, 151.0786
573.7840, 169.5601
574.9570, 56.84814
576.1290, 88.78418
577.3020, 122.3091
578.4740, 163.4644
579.6460, 59.10352
580.8180, 58.01807
581.9900, 75.03613
583.1620, 138.1128
584.3330, 10.42041
585.5040, 67.64111
586.6760, 78.69434
587.8470, 0.9213870
589.0180, 92.52148
590.1880, 7.382324
591.3590, 127.7363
592.5290, 60.40381
593.7000, 72.15723
594.8700, 68.40088
596.0400, 89.90283
597.2090, 13.52734
598.3790, 46.01465
599.5490, 56.94434
600.7180, 40.91406
601.8870, 17.72656
603.0560, 3.914063
604.2250, 35.61230
605.3940, 12.16895
606.5620, 28.15918
607.7300, 28.49121
608.8990, 2.717773
610.0670, 63.81250
611.2350, 62.12109
612.4020, 27.29590
613.5700, 13.79102
614.7370, 106.0615
615.9050, 50.93848
617.0720, 77.82812
618.2390, 96.80566
619.4060, 9.215820
620.5720, 42.50293
621.7390, 82.47949
622.9050, 81.13867
624.0710, 60.12012
625.2370, 92.13867
626.4030, 46.39258
627.5690, 137.3828
628.7340, 6.673828
629.9000, 45.56543
631.0650, 127.5654
632.2300, 57.56836
633.3950, 72.57422
634.5600, 71.58496
635.7240, 22.60059
636.8890, 177.6191
638.0530, 113.6445
639.2170, 175.6729
640.3810, 168.7061
641.5450, 142.7441
642.7080, 176.7881
643.8720, 253.8379
645.0350, 327.8926
646.1980, 246.9531
647.3610, 364.0205
648.5240, 362.0938
649.6870, 591.1729
650.8490, 382.2578
652.0120, 552.3516
653.1740, 538.4512
654.3360, 592.5576
655.4980, 643.6709
656.6600, 752.7930
657.8210, 724.9209
658.9830, 775.0576
660.1440, 885.2012
661.3050, 1047.353
662.4660, 1163.512
663.6270, 1176.680
664.7870, 1315.854
665.9480, 1377.038
667.1080, 1458.229
668.2680, 1556.430
669.4280, 1841.638
670.5880, 1862.855
671.7480, 2143.081
672.9070, 2164.314
674.0670, 2320.559
675.2260, 2618.812
676.3850, 2955.074
677.5440, 2950.346
678.7030, 3349.627
679.8610, 3558.918
681.0200, 3831.221
682.1780, 4176.533
683.3360, 4321.855
684.4940, 4518.188
685.6520, 4415.533
686.8090, 4469.889
687.9670, 4558.254
689.1240, 4459.637
690.2810, 4429.055
691.4380, 4144.502
692.5950, 3891.964
693.7520, 3784.438
694.9080, 3613.926
696.0650, 3294.436
697.2210, 3066.957
698.3770, 2742.491
699.5330, 2578.050
700.6880, 2348.070
701.8440, 2064.228
702.9990, 1999.860
704.1550, 1903.525
705.3100, 1810.206
706.4650, 1602.905
707.6190, 1420.618
708.7740, 1454.346
709.9290, 1197.095
711.0830, 1193.859
712.2370, 1120.662
713.3910, 967.4844
714.5450, 1007.339
715.6980, 859.2207
716.8520, 886.1299
718.0050, 770.0742
719.1580, 816.0410
720.3110, 599.5537
721.4640, 662.5596
722.6170, 316.5068
723.7700, 504.8730
724.9220, 601.2295
726.0740, 618.6045
727.2260, 300.3281
728.3780, 415.2910
729.5300, 356.8115
730.6810, 283.1934
731.8330, 455.1602
732.9840, 332.9561
734.1350, 248.8438
735.2860, 229.4434
736.4370, 162.6543
737.5880, 241.0156
738.7380, 155.4023
739.8880, 227.2383
741.0390, 179.4482
742.1890, 73.44043
743.3380, 8.784180
744.4880, 16.45020
745.6380, 17.44141
746.7870, 212.1719
747.9360, 104.4365
749.0850, 192.4238
750.2340, 206.5684
751.3830, 92.79004
752.5310, 77.75488
753.6800, 193.5146
754.8280, 203.6279
755.9760, 307.4355
757.1240, 317.2656
758.2720, 277.6816
759.4190, 212.5674
760.5670, 271.4766
761.7140, 272.4121
762.8610, 295.3711
764.0080, 284.3584
765.1550, 328.8672
766.3020, 342.6504
767.4480, 359.4717
768.5950, 415.5625
769.7410, 317.6787
770.8870, 387.8193
772.0330, 469.9854
773.1780, 315.1777
774.3240, 358.3945
775.4690, 281.6377
776.6140, 264.9062
777.7590, 277.2002
778.9040, 235.5215
780.0490, 345.8682
781.1940, 238.2412
782.3380, 360.6396
783.4820, 266.0664
784.6260, 257.5176
785.7700, 212.9961
786.9140, 280.5000
788.0580, 139.0322
789.2010, 114.5898
790.3450, 222.1738
791.4880, 226.7861
792.6310, 197.4248
793.7730, 235.0898
794.9160, 214.7832
796.0590, 265.5020
797.2010, 130.2490
798.3430, 103.0215
799.4850, 164.8223
800.6270, 158.6504
801.7690, 224.5059
802.9100, 253.3877
804.0520, 210.2979
805.1930, 259.4189
806.3340, 234.7373
807.4750, 293.1924
808.6160, 215.2139
809.7560, 242.2617
810.8970, 246.3379
812.0370, 226.4414
813.1770, 293.5723
814.3170, 234.7324
815.4570, 292.9199
816.5960, 252.1357
817.7360, 312.3799
818.8750, 290.6514
820.0140, 395.9512
821.1530, 356.2783
822.2920, 424.6357
823.4310, 371.0205
824.5690, 465.4336
825.7070, 424.5615
826.8460, 552.5557
827.9840, 471.5518
829.1220, 601.0762
830.2590, 774.8076
831.3970, 830.3887
832.5340, 843.3066
833.6710, 939.9434
834.8080, 997.4473
835.9450, 1086.435
837.0820, 1158.153
838.2190, 1229.314
839.3550, 1305.389
840.4910, 1435.392
841.6270, 1530.467
842.7630, 1726.321
843.8990, 2049.202
845.0350, 2782.111
846.1700, 2630.647
847.3060, 2896.289
848.4410, 2686.496
849.5760, 2887.516
850.7100, 3120.557
851.8450, 3466.623
852.9800, 3809.135
854.1140, 4133.254
855.2480, 4504.014
856.3820, 5117.183
857.5160, 5689.400
858.6500, 6224.640
859.7830, 6957.906
860.9170, 7620.206
862.0500, 8606.552
863.1830, 9502.924
864.3160, 10581.33
865.4480, 12033.75
866.5810, 13487.21
867.7130, 14776.72
868.8460, 16342.28
869.9780, 17675.88
871.1100, 18971.53
872.2410, 20296.22
873.3730, 20805.95
874.5050, 21119.25
875.6360, 20670.03
876.7670, 19813.33
877.8980, 18610.49
879.0290, 16866.37
880.1590, 15105.27
881.2900, 13529.21
882.4200, 12022.20
883.5500, 10396.22
884.6800, 9189.268
885.8100, 8049.354
886.9400, 7060.664
888.0690, 6204.493
889.1990, 5495.022
890.3280, 4866.244
891.4570, 4309.500
892.5860, 3799.062
893.7140, 3355.026
894.8430, 2961.415
895.9710, 2634.768
897.1000, 2324.562
898.2280, 2093.053
899.3560, 1889.967
900.4830, 1733.414
901.6110, 1516.896
902.7380, 1253.401
903.8660, 1358.934
904.9930, 1212.491
906.1200, 896.1016
907.2460, 1004.732
908.3730, 817.4004
909.5000, 866.0889
910.6260, 822.7988
911.7520, 676.5410
912.8780, 590.3037
914.0040, 668.0879
915.1290, 426.8936
916.2550, 630.7236
917.3800, 465.5840
918.5050, 432.4658
919.6300, 324.3701
920.7550, 189.3027
921.8800, 393.9307
923.0040, 509.9932
924.1290, 542.2529
925.2530, 239.6396
926.3770, 369.4883
927.5010, 326.0557
928.6250, 275.5381
929.7480, 466.3115
930.8720, 212.5088
931.9950, 399.4951
933.1180, 410.5547
934.2410, 502.1592
935.3640, 419.4102
936.4860, 390.5400
937.6090, 536.1191
938.7310, 284.8838
939.8530, 293.1592
940.9750, 426.4541
942.0970, 319.7861
943.2180, 203.1367
944.3400, 410.5049
945.4610, 305.8916
946.5820, 273.2949
947.7030, 272.7158
948.8240, 345.1611
949.9450, 251.6230
951.0650, 274.1016
952.1860, 109.6006
953.3060, 120.1289
954.4260, 187.6748
955.5460, 142.2383
956.6650, 148.8193
957.7850, 37.41797
958.9040, 162.0332
960.0230, 19.33398
961.1420, 118.6934
962.2610, 99.08594
963.3800, 21.49707
964.4990, 3.903320
965.6170, 31.70703
966.7350, 53.66699
967.8530, 19.95312
968.9710, 98.58789
970.0890, 48.76270
971.2070, 47.88086
972.3240, 111.4590
973.4410, 50.83301
974.5580, 88.21094
975.6750, 3.612305
976.7920, 5.996094
977.9090, 39.61914
979.0250, 90.25586
980.1410, 27.09473
981.2580, 12.55566
982.3740, 103.7803
983.4890, 20.14941
984.6050, 133.4834
985.7200, 18.12891
986.8360, 28.21289
987.9510, 63.44531
989.0660, 31.88672
990.1810, 182.7793
991.2950, 154.4570
992.4100, 135.1465
993.5240, 157.8467
994.6390, 175.5576
995.7530, 90.28125
996.8660, 127.0254
997.9800, 46.78125
999.0940, 136.5459
1000.207, 151.3223
1001.320, 127.1084
1002.433, 135.9053
1003.546, 470.1650
1004.659, 266.5820
1005.772, 274.4199
1006.884, 155.2100
1007.996, 3.927734
1009.108, 120.9385
1010.220, 62.18750
1011.332, 39.33203
1012.444, 79.50879
1013.555, 70.87500
1014.666, 198.4688
1015.777, 136.5732
1016.888, 54.44824
1017.999, 88.34277
1019.110, 83.68262
1020.220, 13.40527
1021.331, 65.50977
1022.441, 102.5029
1023.551, 95.42969
1024.661, 288.3623
1025.770, 84.39062
1026.880, 198.3350
1027.989, 35.28418
1029.098, 200.2383
1030.207, 167.1982
1031.316, 220.7285
1032.425, 157.7275
1033.533, 153.9561
1034.642, 215.5498
1035.750, 171.0117
1036.858, 76.70703
1037.966, 250.6553
1039.073, 244.6455
1040.181, 189.6455
1041.288, 325.6602
1042.396, 257.6611
1043.503, 287.6641
1044.610, 132.9570
1045.716, 104.9648
1046.823, 208.9736
1047.929, 278.9980
1049.036, 251.7686
1050.142, 322.1328
1051.248, 243.1631
1052.353, 284.3750
1053.459, 294.4072
1054.564, 389.4404
1055.670, 174.1162
1056.775, 297.2715
1057.880, 237.1846
1058.985, 357.2188
1060.089, 336.7988
1061.194, 318.8320
1062.298, 251.8652
1063.402, 399.0713
1064.506, 283.1025
1065.610, 400.1338
1066.713, 309.1621
1067.817, 429.4521
1068.920, 324.2373
1070.023, 338.2754
1071.126, 423.8145
1072.229, 321.2988
1073.332, 409.6406
1074.435, 331.0742
1075.537, 474.0898
1076.639, 357.1035
1077.741, 342.1133
1078.843, 366.1211
1079.945, 344.1260
1081.046, 304.5146
1082.148, 307.5146
1083.249, 298.5088
1084.350, 325.8008
1085.451, 281.4121
1086.551, 398.3955
1087.652, 355.3760
1088.752, 315.9287
1089.853, 299.9043
1090.953, 262.3750
1092.053, 376.3418
1093.152, 151.6152
1094.252, 366.0479
1095.351, 301.1914
1096.451, 380.4512
1097.550, 372.2168
1098.649, 209.1553
1099.748, 328.7803
1100.846, 275.7109
1101.945, 221.6357
1103.043, 262.4199
1104.141, 192.7139
1105.239, 228.2080
1106.337, 172.4082
1107.434, 225.1055
1108.532, 173.2158
1109.629, 370.1455
1110.726, 478.2178
1111.823, 502.4619
1112.920, 190.5254
1114.017, 312.3115
1115.113, 255.6123
1116.210, 195.9707
1117.306, 378.6113
1118.402, 116.6484
1119.498, 294.0332
1120.593, 296.8906
1121.689, 378.6484
1122.784, 287.6465
1123.879, 250.4990
1124.974, 387.7773
1126.069, 428.4785
1127.164, 317.3848
1128.259, 408.1631
1129.353, 140.0664
1130.447, 184.8525
1131.541, 364.6953
1132.635, 262.3428
1133.729, 354.0850
1134.822, 373.0820
1135.916, 55.06055
1137.009, 321.0693
1138.102, 334.4297
1139.195, 221.5811
1140.288, 132.7676
1141.380, 136.4941
1142.473, 40.14258
1143.565, 91.54297
1144.657, 11.41602
1145.749, 6.107422
1146.841, 34.94434
1147.932, 89.03320
1149.024, 99.72754
1150.115, 16.38379
1151.206, 91.84961
1152.297, 57.11133
1153.388, 30.29004
1154.479, 174.2725
1155.569, 89.82812
1156.659, 35.37500
1157.750, 138.9473
1158.839, 52.51562
1159.929, 51.03809
1161.019, 143.6494
1162.108, 14.15332
1163.198, 43.73242
1164.287, 27.21387
1165.376, 21.31738
1166.465, 18.12109
1167.553, 11.54590
1168.642, 5.954102
1169.730, 90.65527
1170.818, 50.66699
1171.906, 27.02148
1172.994, 70.25586
1174.082, 54.52344
1175.170, 15.21680
1176.257, 176.0117
1177.344, 168.2314
1178.431, 126.5791
1179.518, 14.27539
1180.605, 14.53809
1181.691, 94.65234
1182.778, 38.79980
1183.864, 65.93457
1184.950, 125.2783
1186.036, 18.39551
1187.122, 156.4951
1188.207, 144.5859
1189.292, 72.66602
1190.378, 22.73730
1191.463, 65.79297
1192.548, 151.8389
1193.632, 42.87695
1194.717, 148.9014
1195.801, 87.63770
1196.886, 73.68262
1197.970, 38.91699
1199.054, 15.89941
1200.137, 62.86621
1201.221, 1.177734
1202.305, 28.75586
1203.388, 36.67480
1204.471, 47.41992
1205.554, 102.4385
1206.637, 75.28711
1207.719, 132.1279
1208.802, 80.96582
1209.884, 154.7920
1210.966, 0.6298830
1212.048, 116.4453
1213.130, 154.2510
1214.212, 40.04688
1215.293, 35.17188
1216.374, 94.57617
1217.456, 109.3145
1218.536, 25.04297
1219.617, 96.47852
1220.698, 29.18066
1221.778, 99.86816
1222.859, 82.54492
1223.939, 178.2148
1225.019, 216.8984
1226.099, 129.5918
1227.178, 138.2734
1228.258, 176.9473
1229.337, 164.6182
1230.417, 172.2891
1231.496, 123.9492
1232.574, 82.59961
1233.653, 38.24902
1234.732, 198.8867
1235.810, 25.53809
1236.888, 100.1836
1237.966, 188.8379
1239.044, 48.48242
1240.122, 220.1143
1241.199, 149.8242
1242.277, 140.4434
1243.354, 185.0586
1244.431, 75.66211
1245.508, 148.2793
1246.585, 149.8896
1247.661, 182.4902
1248.738, 149.0811
1249.814, 157.4971
1250.890, 102.2441
1251.966, 136.8193
1253.042, 113.3818
1254.117, 94.93457
1255.193, 87.47656
1256.268, 199.0088
1257.343, 15.46875
1258.418, 150.0225
1259.493, 171.5039
1260.567, 76.97461
1261.642, 133.4355
1262.716, 71.93359
1263.790, 1.371094
1264.864, 225.7920
1265.938, 72.47559
1267.011, 365.5938
1268.085, 30.02148
1269.158, 105.4150
1270.231, 97.75293
1271.304, 42.08105
1272.377, 108.4092
1273.450, 67.73828
1274.522, 101.5381
1275.594, 55.10938
1276.666, 46.16406
1277.738, 29.55371
1278.810, 88.69043
1279.882, 12.48633
1280.953, 10.29688
1282.025, 122.8994
1283.096, 98.01855
1284.167, 94.34961
1285.238, 144.5264
1286.308, 86.60352
1287.379, 85.75977
1288.449, 147.9062
1289.519, 72.04199
1290.589, 123.1680
1291.659, 74.71582
1292.729, 190.7959
1293.798, 217.6396
1294.868, 138.1143
1295.937, 127.7129
1297.006, 126.0742
1298.075, 96.17578
1299.143, 150.2285
1300.212, 123.2686
1301.280, 105.2861
1302.348, 185.4492
1303.416, 120.4658
1304.484, 97.18750
1305.552, 113.1855
1306.620, 39.82422
1307.687, 17.38086
1308.754, 256.8223
1309.821, 72.41895
1310.888, 216.3428
1311.955, 177.0742
1313.021, 40.98047
1314.088, 107.9688
1315.154, 108.2129
1316.220, 138.0908
1317.286, 142.0527
1318.352, 134.4756
1319.417, 120.2930
1320.483, 128.1367
1321.548, 103.3623
1322.613, 139.0146
1323.678, 190.8330
1324.743, 110.6455
1325.807, 164.1172
1326.872, 212.3760
1327.936, 160.0361
1329.000, 206.1123
