##NAMES=Ferberite
##RRUFFID=R050632
##IDEAL CHEMISTRY=Fe^2+^W^6+^O_4_
##LOCALITY=Chance mine, Boulder, Colorado, USA
##OWNER=RRUFF
##SOURCE=University of Arizona Mineral Museum
##DESCRIPTION=Dark brown rectangular prismatic crystals
##STATUS=The identification of this mineral has been confirmed by X-ray diffraction and chemical analysis
##URL=rruff.info/R050632
##MEASURED CHEMISTRY=Fe^2+^_1.00_WO_4_
##PIN_ID=M00317
##ORIENTATION=Laser parallel to (1 0 1). Fiducial mark perpendicular to laser is parallel to b [0 1 0]
238.0660, 0.0000000E+00
239.2820, 134.6367
240.4980, 64.07812
241.7140, 214.7383
242.9300, 224.9473
244.1460, 14.91211
245.3610, 271.9707
246.5770, 169.7422
247.7920, 18.97461
249.0070, 116.4121
250.2220, 311.1250
251.4370, 335.2520
252.6510, 383.9824
253.8660, 340.2539
255.0800, 599.6328
256.2940, 752.2090
257.5080, 803.7520
258.7220, 450.2871
259.9360, 620.8047
261.1490, 589.2715
262.3630, 551.2734
263.5760, 800.7852
264.7890, 507.6680
266.0020, 1004.289
267.2150, 654.9473
268.4270, 1007.982
269.6400, 1095.381
270.8520, 918.1270
272.0640, 938.2090
273.2760, 836.6133
274.4880, 868.3281
275.7000, 860.3398
276.9120, 833.6191
278.1230, 592.1484
279.3340, 489.9102
280.5450, 327.8945
281.7560, 130.0898
282.9670, 117.4883
284.1780, 60.91992
285.3880, 160.8594
286.5980, 77.17969
287.8090, 158.9551
289.0190, 52.74414
290.2290, 6.726563
291.4380, 8.642578
292.6480, 199.1523
293.8570, 106.1074
295.0670, 56.21680
296.2760, 35.48633
297.4850, 307.9121
298.6930, 275.4902
299.9020, 338.2246
301.1110, 389.1211
302.3190, 304.1680
303.5270, 223.3711
304.7350, 486.7246
305.9430, 601.2305
307.1510, 808.8789
308.3580, 920.8535
309.5660, 923.6094
310.7730, 1117.672
311.9800, 1258.801
313.1870, 1368.955
314.3940, 1514.080
315.6010, 1880.240
316.8070, 2143.436
318.0130, 2084.686
319.2200, 2531.988
320.4260, 3168.350
321.6310, 3147.773
322.8370, 3733.262
324.0430, 3628.811
325.2480, 3991.428
326.4540, 4068.107
327.6590, 4153.855
328.8640, 4011.676
330.0680, 3946.564
331.2730, 3687.523
332.4780, 3647.557
333.6820, 3337.654
334.8860, 2940.805
336.0900, 2936.014
337.2940, 2521.289
338.4980, 2573.643
339.7010, 2269.518
340.9050, 2172.570
342.1080, 1715.152
343.3110, 1835.812
344.5140, 1490.590
345.7170, 1605.480
346.9200, 1288.479
348.1220, 1181.559
349.3240, 1240.721
350.5270, 1024.963
351.7290, 889.2891
352.9310, 1110.721
354.1320, 529.3848
355.3340, 727.8223
356.5350, 819.1309
357.7370, 809.0039
358.9380, 393.5391
360.1390, 501.7656
361.3400, 400.4160
362.5400, 290.5566
363.7410, 472.8594
364.9410, 117.0059
366.1410, 378.3047
367.3410, 345.9336
368.5410, 301.6387
369.7410, 358.4180
370.9400, 256.2676
372.1400, 394.1836
373.3390, 197.1680
374.5380, 423.2168
375.7370, 308.3340
376.9360, 297.5215
378.1350, 199.7734
379.3330, 343.0859
380.5310, 261.4629
381.7300, 177.9043
382.9280, 488.4219
384.1260, 344.1289
385.3230, 398.9863
386.5210, 658.4297
387.7180, 607.0156
388.9160, 810.9609
390.1130, 1060.852
391.3100, 1366.863
392.5060, 1367.131
393.7030, 1638.342
394.9000, 1995.684
396.0960, 2487.121
397.2920, 2775.650
398.4880, 3210.268
399.6840, 3320.979
400.8800, 3619.773
402.0750, 3405.650
403.2710, 3046.613
404.4660, 3230.656
405.6610, 2399.744
406.8560, 2062.867
408.0510, 1666.047
409.2450, 1475.305
410.4400, 1194.635
411.6340, 1174.043
412.8280, 881.5234
414.0220, 801.0742
415.2160, 818.6973
416.4100, 537.3867
417.6030, 538.1465
418.7970, 571.9688
419.9900, 380.8574
421.1830, 391.8105
422.3760, 361.8223
423.5690, 203.9004
424.7610, 305.0352
425.9540, 188.2305
427.1460, 293.4844
428.3380, 324.5898
429.5300, 200.9590
430.7220, 328.7598
431.9140, 122.2402
433.1050, 163.6465
434.2970, 212.4785
435.4880, 186.0527
436.6790, 155.7500
437.8700, 250.5137
439.0610, 182.3262
440.2510, 186.2148
441.4420, 121.1660
442.6320, 149.1133
443.8220, 172.3223
445.0120, 283.5664
446.2020, 205.8691
447.3910, 425.2461
448.5810, 276.7188
449.7700, 271.0312
450.9600, 436.6289
452.1490, 168.2832
453.3370, 221.0098
454.5260, 508.7793
455.7150, 558.6250
456.9030, 385.5312
458.0910, 427.5156
459.2800, 459.5684
460.4670, 521.6934
461.6550, 512.9180
462.8430, 439.2422
464.0300, 335.6367
465.2180, 366.0762
466.4050, 504.0234
467.5920, 598.5742
468.7790, 274.5371
469.9650, 472.1738
471.1520, 441.8516
472.3380, 776.5938
473.5250, 656.3770
474.7110, 790.1992
475.8970, 757.2461
477.0820, 729.1445
478.2680, 688.0840
479.4540, 582.4395
480.6390, 1191.768
481.8240, 1178.146
483.0090, 1087.232
484.1940, 1036.355
485.3780, 1033.363
486.5630, 1012.840
487.7470, 1019.668
488.9320, 1117.527
490.1160, 1084.826
491.3000, 1292.156
492.4830, 1037.518
493.6670, 1084.941
494.8500, 1192.371
496.0340, 1376.832
497.2170, 1484.332
498.4000, 1539.852
499.5820, 1478.402
500.7650, 1736.984
501.9480, 1690.594
503.1300, 2017.234
504.3120, 1779.902
505.4940, 1823.598
506.6760, 1693.322
507.8580, 1750.070
509.0390, 1865.844
510.2210, 1785.645
511.4020, 1699.477
512.5830, 1868.330
513.7640, 2040.207
514.9450, 2137.107
516.1250, 2104.035
517.3060, 1989.984
518.4860, 2276.959
519.6660, 2357.955
520.8460, 2327.977
522.0260, 2162.018
523.2060, 2283.082
524.3850, 2159.168
525.5650, 2007.283
526.7440, 2391.430
527.9230, 2356.609
529.1020, 2047.832
530.2810, 2108.094
531.4590, 2253.404
532.6380, 2096.758
533.8160, 2277.145
534.9940, 2190.566
536.1720, 2348.018
537.3500, 2433.506
538.5270, 2283.023
539.7050, 2351.570
540.8820, 2315.150
542.0590, 2715.758
543.2360, 2539.395
544.4130, 2568.062
545.5900, 2835.760
546.7660, 2611.484
547.9430, 2778.234
549.1190, 2656.014
550.2950, 2777.822
551.4710, 3006.660
552.6470, 2843.520
553.8220, 3142.408
554.9980, 2970.320
556.1730, 3133.264
557.3480, 2909.229
558.5230, 3056.219
559.6980, 2899.234
560.8730, 3111.273
562.0470, 3056.336
563.2220, 2858.426
564.3960, 2865.535
565.5700, 2683.668
566.7440, 2778.945
567.9170, 2946.006
569.0910, 2971.207
570.2640, 3010.434
571.4380, 3063.686
572.6110, 2783.965
573.7840, 2796.266
574.9570, 2586.590
576.1290, 2471.938
577.3020, 2316.301
578.4740, 1908.236
579.6460, 1598.643
580.8180, 1467.045
581.9900, 1269.244
583.1620, 1010.389
584.3330, 678.2617
585.5040, 522.5176
586.6760, 648.0684
587.8470, 110.1094
589.0180, 321.4395
590.1880, 150.7090
591.3590, 319.9570
592.5290, 69.08008
593.7000, 68.96289
594.8700, 190.5703
596.0400, 235.0684
597.2090, 175.3672
598.3790, 195.2734
599.5490, 159.8418
600.7180, 159.9570
601.8870, 92.69141
603.0560, 143.5801
604.2250, 116.1289
605.3940, 12.63281
606.5620, 81.38281
607.7300, 42.32227
608.8990, 3.136719
610.0670, 41.93750
611.2350, 88.53125
612.4020, 196.4961
613.5700, 251.0996
614.7370, 79.70703
615.9050, 7.316406
617.0720, 165.9453
618.2390, 205.5586
619.4060, 12.82617
620.5720, 150.2227
621.7390, 166.6992
622.9050, 180.7383
624.0710, 60.17773
625.2370, 199.6191
626.4030, 88.06250
627.5690, 4.509766
628.7340, 7.943359
629.9000, 55.37695
631.0650, 228.8066
632.2300, 128.2422
633.3950, 32.67773
634.5600, 246.1113
635.7240, 193.5449
636.8890, 4.980469
638.0530, 398.4062
639.2170, 179.8301
640.3810, 112.2578
641.5450, 382.6836
642.7080, 321.1113
643.8720, 222.5371
645.0350, 530.9609
646.1980, 332.5371
647.3610, 214.8125
648.5240, 85.23633
649.6870, 79.60938
650.8490, 13.83398
652.0120, 152.8848
653.1740, 194.9043
654.3360, 256.3145
655.4980, 465.7227
656.6600, 566.1289
657.8210, 680.5352
658.9830, 625.9414
660.1440, 660.0762
661.3050, 658.9297
662.4660, 635.1523
663.6270, 626.5527
664.7870, 707.9512
665.9480, 707.3496
667.1080, 801.7461
668.2680, 869.6113
669.4280, 877.0762
670.5880, 951.4648
671.7480, 1145.363
672.9070, 959.7500
674.0670, 1536.131
675.2260, 2070.510
676.3850, 1515.885
677.5440, 1632.258
678.7030, 1353.627
679.8610, 1538.994
681.0200, 1605.357
682.1780, 1710.717
683.3360, 1938.072
684.4940, 2038.426
685.6520, 1892.773
686.8090, 2030.119
687.9670, 1954.459
689.1240, 1718.797
690.2810, 1958.131
691.4380, 1838.461
692.5950, 1871.785
693.7520, 1817.105
694.9080, 1600.422
696.0650, 1338.736
697.2210, 1276.045
698.3770, 1268.352
699.5330, 970.6504
700.6880, 1099.945
701.8440, 682.2383
702.9990, 800.5254
704.1550, 596.8066
705.3100, 605.0840
706.4650, 494.3594
707.6190, 225.6270
708.7740, 415.8906
709.9290, 348.1523
711.0830, 106.4062
712.2370, 171.6562
713.3910, 188.9023
714.5450, 176.1426
715.6980, 267.3809
716.8520, 9.611328
718.0050, 212.8145
719.1580, 31.98633
720.3110, 6.160156
721.4640, 9.720703
722.6170, 226.6426
723.7700, 181.7109
724.9220, 20.09961
726.0740, 41.11523
727.2260, 148.3828
728.3780, 76.24023
729.5300, 72.93359
730.6810, 4.615234
731.8330, 60.86523
732.9840, 115.5957
734.1350, 71.95117
735.2860, 34.55859
736.4370, 79.21680
737.5880, 57.94141
738.7380, 60.72461
739.8880, 183.5664
741.0390, 182.5273
742.1890, 57.60352
743.3380, 37.26367
744.4880, 31.87305
745.6380, 3.503906
746.7870, 137.3027
747.9360, 46.73047
749.0850, 147.5195
750.2340, 54.69336
751.3830, 261.0508
752.5310, 172.7949
753.6800, 536.5371
754.8280, 64.09180
755.9760, 282.8320
757.1240, 105.5742
758.2720, 237.9336
759.4190, 214.3594
760.5670, 451.7695
761.7140, 204.5156
762.8610, 143.2656
764.0080, 251.0156
765.1550, 478.7676
766.3020, 272.7930
767.4480, 329.9512
768.5950, 582.7109
769.7410, 569.4727
770.8870, 443.2383
772.0330, 342.9766
773.1780, 380.2363
774.3240, 587.5195
775.4690, 450.2910
776.6140, 483.0723
777.7590, 542.8574
778.9040, 308.6504
780.0490, 503.4434
781.1940, 427.2461
782.3380, 426.0508
783.4820, 427.4805
784.6260, 524.6777
785.7700, 320.5020
786.9140, 419.3320
788.0580, 369.1680
789.2010, 155.0039
790.3450, 200.8535
791.4880, 304.7109
792.6310, 63.57617
793.7730, 210.4473
794.9160, 70.32812
796.0590, 267.2148
797.2010, 93.11133
798.3430, 99.01562
799.4850, 202.9297
800.6270, 25.85156
801.7690, 9.783203
802.9100, 86.72461
804.0520, 153.6738
805.1930, 31.36719
806.3340, 0.5878910
807.4750, 135.5488
808.6160, 34.47852
809.7560, 202.4902
810.8970, 186.4668
812.0370, 597.4551
813.1770, 608.4570
814.3170, 108.4668
815.4570, 301.4883
816.5960, 97.52344
817.7360, 104.5723
818.8750, 202.6309
820.0140, 226.7051
821.1530, 239.8184
822.2920, 290.8887
823.4310, 234.0020
824.5690, 113.1289
825.7070, 64.26562
826.8460, 672.4199
827.9840, 406.5879
829.1220, 583.4492
830.2590, 1197.969
831.3970, 668.1816
832.5340, 662.4102
833.6710, 807.6543
834.8080, 667.9141
835.9450, 707.1914
837.0820, 867.4824
838.2190, 845.7910
839.3550, 1293.117
840.4910, 1314.459
841.6270, 1483.818
842.7630, 1642.066
843.8990, 1730.592
845.0350, 1879.006
846.1700, 1897.438
847.3060, 2138.887
848.4410, 2323.355
849.5760, 2562.184
850.7100, 2847.750
851.8450, 3218.875
852.9800, 3458.422
854.1140, 3936.441
855.2480, 4282.027
856.3820, 4557.656
857.5160, 5120.529
858.6500, 5808.496
859.7830, 6411.775
860.9170, 7177.709
862.0500, 8136.389
863.1830, 9142.621
864.3160, 10228.69
865.4480, 11396.09
866.5810, 12833.80
867.7130, 14438.08
868.8460, 16251.57
869.9780, 17964.51
871.1100, 20628.53
872.2410, 22905.79
873.3730, 25123.48
874.5050, 27089.47
875.6360, 29210.36
876.7670, 30386.30
877.8980, 31403.97
879.0290, 31975.22
880.1590, 31457.79
881.2900, 31013.69
882.4200, 29356.88
883.5500, 27712.24
884.6800, 25857.20
885.8100, 23528.62
886.9400, 21272.41
888.0690, 19495.93
889.1990, 17478.49
890.3280, 15815.09
891.4570, 14077.95
892.5860, 12426.63
893.7140, 11448.34
894.8430, 9982.102
895.9710, 9031.967
897.1000, 7968.141
898.2280, 7405.131
899.3560, 6760.160
900.4830, 6069.223
901.6110, 5510.328
902.7380, 5011.480
903.8660, 4621.000
904.9930, 4326.918
906.1200, 4026.199
907.2460, 3761.521
908.3730, 3490.883
909.5000, 3226.053
910.6260, 3046.738
911.7520, 2787.240
912.8780, 2584.816
914.0040, 2522.436
915.1290, 2538.125
916.2550, 2165.883
917.3800, 2017.688
918.5050, 2509.559
919.6300, 2099.473
920.7550, 1895.428
921.8800, 1969.430
923.0040, 1576.482
924.1290, 1417.580
925.2530, 1600.725
926.3770, 1435.914
927.5010, 1353.148
928.6250, 1312.451
929.7480, 1528.797
930.8720, 1353.188
931.9950, 1438.621
933.1180, 1266.098
934.2410, 1172.619
935.3640, 1211.186
936.4860, 1207.797
937.6090, 1050.453
938.7310, 1266.152
939.8530, 1193.896
940.9750, 1035.215
942.0970, 956.9746
943.2180, 1022.855
944.3400, 961.2695
945.4610, 1073.240
946.5820, 971.2578
947.7030, 965.3203
948.8240, 989.4297
949.9450, 746.5957
951.0650, 683.8086
952.1860, 951.0664
953.3060, 541.3711
954.4260, 792.7227
955.5460, 1276.121
956.6650, 947.5664
957.7850, 716.0547
958.9040, 478.5918
960.0230, 585.2031
961.1420, 527.8613
962.2610, 739.5762
963.3800, 673.9668
964.4990, 467.1445
965.6170, 585.0000
966.7350, 478.9043
967.8530, 329.8535
968.9710, 413.8535
970.0890, 287.8984
971.2070, 475.9902
972.3240, 175.1309
973.4410, 444.3164
974.5580, 268.5508
975.6750, 444.8359
976.7920, 460.1660
977.9090, 231.5449
979.0250, 319.9727
980.1410, 187.4473
981.2580, 209.9688
982.3740, 449.5391
983.4890, 65.45703
984.6050, 303.7031
985.7200, 434.7559
986.8360, 464.3652
987.9510, 88.57422
989.0660, 236.4004
990.1810, 174.4551
991.2950, 103.9805
992.4100, 325.6660
993.5240, 9.158203
994.6390, 226.3984
995.7530, 230.7227
996.8660, 332.6074
997.9800, 223.4570
999.0940, 179.6035
1000.207, 347.0293
1001.320, 397.6934
1002.433, 264.8320
1003.546, 373.4863
1004.659, 50.52539
1005.772, 106.4473
1006.884, 325.8789
1007.996, 203.8379
1009.108, 316.7207
1010.220, 340.2305
1011.332, 202.3828
1012.444, 212.0000
1013.555, 128.3086
1014.666, 193.4121
1015.777, 285.1973
1016.888, 23.04102
1017.999, 168.9316
1019.110, 33.87109
1020.220, 103.7070
1021.331, 261.3320
1022.441, 226.4160
1023.551, 171.5469
1024.661, 28.28125
1025.770, 49.97266
1026.880, 91.23633
1027.989, 152.5469
1029.098, 158.8691
1030.207, 82.73242
1031.316, 202.6992
1032.425, 90.17578
1033.533, 303.7070
1034.642, 283.3223
1035.750, 101.9863
1036.858, 253.6953
1037.966, 32.38477
1039.073, 289.1816
1040.181, 51.01953
1041.288, 240.8965
1042.396, 332.2344
1043.503, 476.9473
1044.610, 448.7773
1045.716, 481.2637
1046.823, 327.6484
1047.929, 509.5176
1049.036, 443.0488
1050.142, 653.2598
1051.248, 301.0859
1052.353, 572.3945
1053.459, 344.7461
1054.564, 671.1348
1055.670, 489.4238
1056.775, 228.8848
1057.880, 373.3828
1058.985, 528.9277
1060.089, 781.7871
1061.194, 706.1035
1062.298, 533.7598
1063.402, 498.4492
1064.506, 710.1738
1065.610, 536.9336
1066.713, 679.7285
1067.817, 546.9707
1068.920, 718.8340
1070.023, 523.7324
1071.126, 710.6641
1072.229, 484.6289
1073.332, 498.6309
1074.435, 493.6797
1075.537, 641.9883
1076.639, 466.1035
1077.741, 804.2578
1078.843, 559.4492
1079.945, 655.6699
1081.046, 521.9277
1082.148, 425.0996
1083.249, 449.4453
1084.350, 416.5195
1085.451, 422.2910
1086.551, 470.6680
1087.652, 478.1445
1088.752, 478.6523
1089.853, 523.1895
1090.953, 679.7559
1092.053, 655.1621
1093.152, 518.2363
1094.252, 701.9316
1095.351, 649.6152
1096.451, 694.5938
1097.550, 451.1328
1098.649, 608.8945
1099.748, 407.8340
1100.846, 267.6504
1101.945, 341.6289
1103.043, 408.4980
1104.141, 460.3945
1105.239, 530.3164
1106.337, 365.2656
1107.434, 422.2363
1108.532, 469.2363
1109.629, 603.6426
1110.726, 355.6895
1111.823, 413.7617
1112.920, 662.8750
1114.017, 620.9961
1115.113, 331.1406
1116.210, 393.3086
1117.306, 430.5352
1118.402, 579.7539
1119.498, 601.3203
1120.593, 718.2500
1121.689, 655.5332
1122.784, 743.8359
1123.879, 664.1641
1124.974, 519.5137
1126.069, 430.9023
1127.164, 247.3047
1128.259, 332.7266
1129.353, 441.6309
1130.447, 483.0898
1131.541, 168.0625
1132.635, 100.0859
1133.729, 4.494141
1134.822, 156.0703
1135.916, 113.0508
1137.009, 375.1543
1138.102, 250.7207
1139.195, 239.0898
1140.288, 369.8906
1141.380, 338.4961
1142.473, 87.11328
1143.565, 189.7598
1144.657, 170.3809
1145.749, 190.8047
1146.841, 177.4648
1147.932, 254.1367
1149.024, 95.82031
1150.115, 216.5137
1151.206, 116.7500
1152.297, 59.25195
1153.388, 63.92969
1154.479, 302.6152
1155.569, 191.3066
1156.659, 5.527344
1157.750, 37.23633
1158.839, 101.9492
1159.929, 137.3223
1161.019, 109.3496
1162.108, 62.77148
1163.198, 47.74023
1164.287, 74.61719
1165.376, 80.50195
1166.465, 164.0527
1167.553, 98.72070
1168.642, 35.57031
1169.730, 23.12305
1170.818, 147.8203
1171.906, 153.5195
1172.994, 0.2265630
1174.082, 112.9258
1175.170, 21.34375
1176.257, 127.6504
1177.344, 3.988281
1178.431, 112.3770
1179.518, 104.9316
1180.605, 23.72461
1181.691, 106.7500
1182.778, 77.53125
1183.864, 177.4961
1184.950, 168.9609
1186.036, 38.57617
1187.122, 616.8594
1188.207, 209.1758
1189.292, 313.7168
1190.378, 14.15039
1191.463, 82.37109
1192.548, 175.0059
1193.632, 79.38086
1194.717, 154.7539
1195.801, 247.1191
1196.886, 152.4863
1197.970, 15.84570
1199.054, 121.1953
1200.137, 146.5410
1201.221, 182.8828
1202.305, 89.21875
1203.388, 192.7246
1204.471, 119.3340
1205.554, 27.66211
1206.637, 115.9863
1207.719, 104.3047
1208.802, 179.7051
1209.884, 55.43945
1210.966, 101.9473
1212.048, 16.73242
1213.130, 147.5254
1214.212, 97.77148
1215.293, 208.0586
1216.374, 205.5195
1217.456, 136.1406
1218.536, 204.6230
1219.617, 117.8281
1220.698, 141.0234
1221.778, 67.79102
1222.859, 77.33008
1223.939, 5.439453
1225.019, 135.5215
1226.099, 62.58984
1227.178, 149.6465
1228.258, 335.6953
1229.337, 62.73047
1230.417, 188.7578
1231.496, 66.77344
1232.574, 206.7969
1233.653, 121.8066
1234.732, 248.8066
1235.810, 251.7949
1236.888, 206.7734
1237.966, 235.7910
1239.044, 63.79492
1240.122, 106.7832
1241.199, 268.7559
1242.277, 97.71289
1243.354, 283.6562
1244.431, 218.5879
1245.508, 180.5039
1246.585, 101.9551
1247.661, 198.8398
1248.738, 158.7129
1249.814, 279.5703
1250.890, 159.4102
1251.966, 251.5703
1253.042, 204.7812
1254.117, 166.6250
1255.193, 126.4141
1256.268, 255.1758
1257.343, 221.9199
1258.418, 84.65039
1259.493, 166.3555
1260.567, 121.9551
1261.642, 233.3828
1262.716, 68.01758
1263.790, 132.3242
1264.864, 0.3222660
1265.938, 67.97656
1267.011, 208.2500
1268.085, 157.5078
1269.158, 208.8770
1270.231, 331.9648
1271.304, 229.1641
1272.377, 157.3457
1273.450, 233.5293
1274.522, 156.6738
1275.594, 344.8086
1276.666, 350.5566
1277.738, 317.6855
1278.810, 228.7930
1279.882, 156.8789
1280.953, 285.9922
1282.025, 230.0449
1283.096, 186.5879
1284.167, 393.0898
1285.238, 92.08008
1286.308, 296.0117
1287.379, 357.9531
1288.449, 315.1172
1289.519, 209.5195
1290.589, 82.39844
1291.659, 121.2520
1292.729, 43.69922
1293.798, 77.13281
1294.868, 54.55469
1295.937, 87.42188
1297.006, 202.8184
1298.075, 295.4805
1299.143, 288.8652
1300.212, 261.9980
1301.280, 273.5254
1302.348, 206.6133
1303.416, 173.0898
1304.484, 251.1582
1305.552, 46.80859
1306.620, 200.1973
1307.687, 172.8340
1308.754, 170.8574
1309.821, 229.1816
1310.888, 19.09180
1311.955, 98.52539
1313.021, 555.3555
1314.088, 188.5410
1315.154, 221.8340
1316.220, 321.4316
1317.286, 34.71484
1318.352, 229.7930
1319.417, 150.1055
1320.483, 196.0059
1321.548, 241.7148
1322.613, 330.4336
1323.678, 348.4043
1324.743, 303.3574
1325.807, 330.9023
1326.872, 285.8027
1327.936, 316.7324
1329.000, 353.6113
1330.064, 399.9570
1331.128, 135.7969
1332.191, 61.26562
1333.255, 179.0352
1334.318, 278.9902
1335.381, 412.7148
1336.444, 151.7168
1337.507, 116.4062
1338.569, 139.0762
1339.632, 38.16797
1340.694, 309.5762
1341.756, 455.1660
1342.818, 158.7344
1343.880, 188.2852
1344.941, 48.81836
1346.003, 134.3242
1347.064, 271.2461
1348.125, 260.7129
1349.186, 246.1836
1350.247, 343.3516
1351.308, 331.7539
1352.368, 241.0938
1353.428, 292.5352
1354.489, 350.7891
1355.549, 364.0938
1356.608, 393.9883
1357.668, 243.8496
1358.727, 406.0996
1359.787, 277.0352
1360.846, 242.2500
1361.905, 341.2695
1362.964, 479.4492
1364.022, 349.7695
1365.081, 408.6777
1366.139, 509.7891
1367.197, 494.1992
1368.255, 424.5723
1369.313, 532.6172
1370.371, 429.6250
1371.428, 277.6289
1372.486, 323.9473
1373.543, 124.9141
1374.600, 402.8262
1375.657, 232.7520
1376.713, 204.6562
1377.770, 275.5371
1378.826, 148.6641
1379.882, 226.2129
1380.938, 135.0176
1381.994, 14.80859
1383.050, 210.5566
1384.106, 409.2930
1385.161, 287.0020
1386.216, 224.2305
1387.271, 363.9062
1388.326, 347.0684
1389.381, 202.1816
1390.435, 148.8945
1391.490, 178.6758
1392.544, 299.0059
1393.598, 246.5605
1394.652, 306.6895
1395.705, 344.2070
1396.759, 407.7070
1397.812, 392.1914
1398.866, 403.0684
1399.919, 168.1113
