##NAMES=Ferberite
##RRUFFID=R040044
##IDEAL CHEMISTRY=Fe^2+^W^6+^O_4_
##LOCALITY=Chocote, Bolivia
##OWNER=RRUFF
##SOURCE=University of Arizona Mineral Museum
##DESCRIPTION=Black tabular single crystal
##STATUS=The identification of this mineral has been confirmed by X-ray diffraction and chemical analysis
##URL=rruff.info/R040044
##MEASURED CHEMISTRY=(Fe_0.82_Mn_0.08_Mg_0.07_Pb_0.03_)_Î£=1_W_1.00_O_4_
##PIN_ID=M00266
##ORIENTATION=Laser parallel to a [1 0 0]. Fiducial mark perpendicular to laser is parallel to b* (0 1 0)
144.787, 0.000
146.172, 464.781
147.557, 307.859
148.942, 81.037
150.327, 77.414
151.711, 7.982
153.096, 210.492
154.480, 32.922
155.863, 205.152
157.247, 256.404
158.630, 152.602
160.013, 504.855
161.396, 235.039
162.779, 327.182
164.161, 448.713
165.544, 169.754
166.926, 181.734
168.308, 76.221
169.689, 329.230
171.070, 387.973
172.452, 417.486
173.833, 133.576
175.213, 165.715
176.594, 114.125
177.974, 202.303
179.354, 25.252
180.734, 38.217
182.114, 120.014
183.493, 324.340
184.872, 339.180
186.251, 436.479
187.630, 427.479
189.008, 584.777
190.387, 657.473
191.765, 904.756
193.143, 1065.449
194.520, 1343.441
195.898, 1728.963
197.275, 2036.891
198.652, 2377.779
200.029, 2596.084
201.405, 3041.260
202.782, 3488.387
204.158, 3803.934
205.534, 4032.158
206.909, 4083.529
208.285, 4071.895
209.660, 4143.113
211.035, 3565.777
212.410, 3107.232
213.784, 2593.191
215.159, 2394.326
216.533, 2153.014
217.907, 1830.662
219.281, 1544.789
220.654, 1256.670
222.027, 1165.859
223.400, 841.953
224.773, 822.520
226.146, 562.988
227.518, 687.426
228.891, 196.197
230.263, 195.291
231.634, 398.617
233.006, 315.105
234.377, 445.699
235.748, 141.363
237.119, 110.043
238.490, 55.695
239.860, 94.279
241.231, 163.836
242.601, 122.311
243.970, 105.553
245.340, 194.654
246.709, 67.635
248.079, 188.525
249.448, 46.328
250.816, 132.049
252.185, 183.678
253.553, 186.205
254.921, 243.623
256.289, 235.930
257.657, 434.117
259.024, 448.312
260.391, 504.938
261.758, 569.617
263.125, 446.904
264.492, 615.383
265.858, 543.910
267.224, 543.646
268.590, 641.762
269.956, 633.717
271.321, 686.973
272.687, 632.494
274.052, 558.580
275.416, 436.926
276.781, 305.143
278.146, 176.623
279.510, 107.188
280.874, 17.570
282.237, 7.689
283.601, 117.035
284.964, 113.738
286.327, 99.461
287.690, 25.650
289.053, 186.303
290.416, 83.215
291.778, 26.896
293.140, 230.289
294.502, 234.082
295.863, 250.789
297.225, 367.146
298.586, 336.934
299.947, 464.139
301.308, 555.484
302.668, 694.088
304.029, 857.488
305.389, 1037.348
306.749, 1255.086
308.108, 1465.080
309.468, 1761.062
310.827, 2026.871
312.186, 2390.287
313.545, 2744.730
314.903, 3252.742
316.262, 3688.355
317.620, 4318.113
318.978, 4920.193
320.336, 5466.195
321.693, 6094.396
323.051, 6951.963
324.408, 7851.305
325.765, 8214.330
327.121, 8232.279
328.478, 8331.473
329.834, 8395.836
331.190, 8463.020
332.546, 7873.766
333.902, 7633.344
335.257, 6987.148
336.612, 6320.469
337.967, 6010.799
339.322, 5298.145
340.677, 4858.066
342.031, 4389.238
343.385, 3902.598
344.739, 3427.607
346.093, 3184.273
347.446, 2883.129
348.799, 2765.811
350.153, 2542.641
351.505, 2203.070
352.858, 1931.885
354.210, 1924.703
355.563, 1747.225
356.915, 1659.467
358.267, 1535.443
359.618, 1357.166
360.969, 1246.635
362.321, 1210.885
363.672, 1090.943
365.022, 1031.846
366.373, 1048.588
367.723, 927.207
369.073, 805.699
370.423, 817.070
371.773, 736.330
373.122, 710.471
374.471, 682.479
375.821, 578.311
377.169, 689.912
378.518, 497.137
379.866, 451.088
381.215, 498.729
382.563, 457.211
383.910, 423.564
385.258, 475.809
386.605, 328.693
387.952, 303.426
389.299, 395.002
390.646, 291.035
391.992, 352.936
393.339, 293.768
394.685, 367.375
396.031, 528.439
397.376, 293.094
398.722, 492.951
400.067, 431.402
401.412, 344.365
402.757, 312.506
404.101, 367.580
405.446, 315.816
406.790, 299.395
408.134, 276.428
409.478, 213.977
410.821, 226.906
412.165, 156.186
413.508, 207.229
414.851, 209.992
416.193, 29.766
417.536, 132.707
418.878, 146.195
420.220, 39.998
421.562, 64.266
422.904, 73.332
424.245, 157.084
425.586, 99.537
426.927, 119.545
428.268, 53.199
429.609, 78.602
430.949, 65.371
432.289, 139.553
433.629, 213.352
434.969, 165.426
436.309, 59.475
437.648, 117.727
438.987, 81.213
440.326, 122.471
441.665, 226.705
443.003, 134.727
444.342, 147.170
445.680, 7.996
447.018, 119.850
448.355, 75.314
449.693, 9.037
451.030, 88.346
452.367, 103.928
453.704, 184.900
455.041, 232.260
456.377, 110.041
457.713, 41.344
459.049, 186.137
460.385, 229.506
461.721, 332.266
463.056, 25.471
464.391, 146.295
465.726, 58.479
467.061, 276.580
468.395, 146.617
469.730, 245.598
471.064, 348.449
472.398, 237.178
473.731, 79.783
475.065, 13.729
476.398, 228.613
477.731, 175.844
479.064, 221.963
480.397, 239.986
481.729, 299.916
483.062, 222.746
484.394, 302.477
485.725, 206.111
487.057, 388.656
488.389, 354.113
489.720, 394.396
491.051, 389.672
492.382, 431.020
493.712, 346.180
495.043, 283.258
496.373, 362.250
497.703, 395.170
499.032, 542.016
500.362, 417.793
501.691, 499.545
503.020, 420.229
504.349, 441.904
505.678, 610.418
507.007, 502.920
508.335, 504.354
509.663, 564.719
510.991, 517.020
512.319, 527.252
513.646, 538.418
514.973, 564.514
516.300, 595.705
517.627, 575.508
518.954, 634.408
520.280, 661.244
521.607, 593.020
522.933, 664.730
524.259, 559.383
525.584, 402.975
526.910, 629.508
528.235, 472.980
529.560, 507.395
530.885, 515.752
532.209, 496.965
533.534, 532.021
534.858, 576.912
536.182, 501.322
537.506, 540.152
538.829, 436.135
540.152, 382.881
541.476, 507.791
542.799, 348.484
544.121, 315.004
545.444, 386.703
546.766, 334.750
548.088, 277.660
549.410, 377.924
550.732, 264.719
552.053, 384.760
553.375, 262.537
554.696, 179.600
556.017, 313.311
557.337, 267.014
558.658, 172.547
559.978, 302.812
561.298, 133.725
562.618, 170.498
563.938, 352.494
565.257, 202.271
566.576, 150.975
567.895, 229.570
569.214, 193.906
570.533, 213.291
571.851, 258.168
573.170, 150.959
574.488, 137.789
575.805, 14.154
577.123, 49.537
578.440, 40.299
579.758, 0.422
581.075, 68.330
582.391, 46.229
583.708, 39.018
585.024, 52.109
586.341, 40.561
587.657, 74.480
588.972, 58.438
590.288, 0.172
591.603, 47.738
592.918, 60.230
594.233, 378.469
595.548, 862.994
596.863, 591.338
598.177, 402.221
599.491, 395.559
600.805, 266.975
602.119, 2.527
603.432, 47.193
604.746, 66.955
606.059, 76.373
607.372, 46.445
608.685, 65.828
609.997, 47.873
611.309, 45.223
612.621, 10.945
613.933, 0.693
615.245, 9.822
616.557, 27.521
617.868, 2.451
619.179, 1.201
620.490, 70.408
621.801, 119.453
623.111, 30.270
624.421, 253.447
625.731, 22.992
627.041, 309.787
628.351, 77.986
629.660, 136.611
630.970, 121.762
632.279, 239.936
633.588, 236.818
634.896, 96.922
636.205, 154.799
637.513, 189.012
638.821, 277.660
640.129, 292.051
641.437, 247.119
642.744, 240.520
644.051, 152.801
645.358, 215.562
646.665, 150.182
647.972, 191.832
649.278, 215.605
650.584, 279.463
651.890, 337.059
653.196, 389.395
654.502, 536.064
655.807, 491.875
657.113, 409.676
658.418, 462.467
659.722, 824.246
661.027, 570.016
662.331, 762.777
663.636, 760.527
664.940, 677.270
666.244, 845.008
667.547, 861.732
668.851, 1078.455
670.154, 1038.166
671.457, 974.873
672.760, 1206.572
674.062, 1277.107
675.365, 1565.953
676.667, 1657.639
677.969, 1844.316
679.271, 2039.992
680.572, 2089.664
681.874, 2284.588
683.175, 2582.992
684.476, 2586.652
685.777, 2690.312
687.077, 2868.969
688.378, 2918.627
689.678, 3020.281
690.978, 3027.934
692.278, 2945.590
693.577, 2786.250
694.877, 2671.914
696.176, 2654.586
697.475, 2503.264
698.774, 2669.947
700.072, 2263.637
701.371, 1874.332
702.669, 1895.037
703.967, 1593.752
705.265, 1499.977
706.562, 1540.211
707.860, 1258.957
709.157, 1223.715
710.454, 980.482
711.751, 1008.064
713.047, 1050.854
714.344, 726.654
715.640, 685.285
716.936, 436.105
718.232, 543.631
719.527, 379.342
720.823, 311.197
722.118, 410.068
723.413, 261.785
724.708, 205.684
726.002, 385.600
727.297, 130.531
728.591, 145.482
729.885, 110.361
731.179, 74.221
732.472, 7.459
733.766, 120.031
735.059, 79.604
736.352, 38.717
737.645, 27.500
738.937, 155.230
740.230, 17.031
741.522, 133.791
742.814, 5.395
744.106, 69.600
745.397, 49.570
746.689, 71.033
747.980, 197.043
749.271, 22.295
750.562, 198.609
751.853, 49.051
753.143, 113.295
754.433, 170.666
755.723, 141.938
757.013, 97.424
758.303, 156.145
759.592, 0.033
760.881, 52.344
762.170, 53.537
763.459, 25.676
764.748, 23.801
766.036, 73.000
767.325, 106.611
768.613, 164.520
769.901, 26.580
771.188, 50.488
772.476, 10.023
773.763, 1.283
775.050, 141.514
776.337, 133.166
777.624, 178.863
778.910, 166.012
780.196, 8.668
781.482, 89.102
782.768, 22.898
784.054, 6.719
785.339, 74.562
786.625, 56.570
787.910, 108.309
789.195, 126.229
790.479, 12.174
791.764, 66.854
793.048, 75.875
794.332, 140.104
795.616, 142.111
796.900, 78.143
798.183, 13.801
799.467, 215.279
800.750, 168.387
802.033, 86.486
803.316, 129.641
804.598, 149.791
805.880, 169.967
807.163, 143.168
808.445, 87.395
809.726, 111.646
811.008, 117.924
812.289, 176.227
813.570, 112.555
814.851, 119.904
816.132, 145.283
817.413, 154.686
818.693, 208.088
819.973, 150.570
821.253, 317.053
822.533, 385.561
823.813, 430.094
825.092, 617.656
826.371, 553.244
827.650, 342.857
828.929, 463.500
830.208, 534.170
831.486, 653.867
832.764, 602.590
834.042, 682.355
835.320, 742.150
836.598, 855.971
837.875, 903.818
839.152, 999.695
840.429, 1103.814
841.706, 1275.541
842.983, 1317.508
844.259, 1482.500
845.536, 1593.527
846.812, 1714.582
848.088, 1921.838
849.363, 2126.959
850.639, 2372.930
851.914, 2660.455
853.189, 2971.666
854.464, 3438.938
855.739, 3842.238
857.013, 4120.574
858.288, 4623.965
859.562, 5494.393
860.836, 6253.852
862.110, 6733.340
863.383, 7815.863
864.656, 8934.416
865.930, 9972.191
867.203, 11264.311
868.475, 12660.258
869.748, 14021.936
871.020, 15793.645
872.292, 17566.383
873.564, 18908.164
874.836, 20646.010
876.108, 21397.891
877.379, 22552.795
878.650, 22495.760
879.922, 22403.795
881.192, 22271.857
882.463, 21097.957
883.733, 19327.094
885.004, 17632.268
886.274, 16136.441
887.544, 14693.516
888.813, 13204.967
890.083, 12003.285
891.352, 10734.113
892.621, 9527.016
893.890, 8485.586
895.159, 7564.039
896.427, 6573.129
897.695, 5897.301
898.964, 5512.223
900.232, 4742.838
901.499, 4390.492
902.767, 4065.199
904.034, 3467.945
905.301, 3213.668
906.568, 2967.480
907.835, 2608.322
909.102, 2508.777
910.368, 2269.686
911.634, 2179.561
912.900, 1904.432
914.166, 1743.500
915.432, 1556.547
916.697, 1421.680
917.962, 1354.863
919.227, 1328.096
920.492, 1132.168
921.757, 1094.484
923.021, 1162.838
924.285, 1070.566
925.550, 1111.990
926.813, 1052.395
928.077, 931.891
929.341, 882.420
930.604, 917.982
931.867, 968.576
933.130, 936.998
934.393, 879.656
935.655, 847.344
936.918, 647.064
938.180, 541.814
939.442, 584.824
940.703, 489.031
941.965, 475.543
943.226, 517.359
944.488, 453.123
945.749, 552.553
947.009, 607.521
948.270, 540.520
949.530, 419.549
950.791, 429.326
952.051, 489.418
953.311, 346.541
954.570, 561.832
955.830, 556.014
957.089, 429.227
958.348, 401.467
959.607, 510.740
960.866, 358.045
962.124, 473.375
963.383, 322.738
964.641, 312.133
965.899, 345.564
967.156, 316.025
968.414, 253.514
969.671, 286.033
970.928, 163.582
972.185, 327.158
973.442, 256.764
974.699, 194.398
975.955, 141.066
977.211, 204.762
978.468, 151.484
979.723, 110.236
980.979, 211.016
982.234, 312.826
983.490, 162.666
984.745, 132.660
986.000, 170.553
987.254, 84.475
988.509, 139.420
989.763, 261.395
991.017, 38.395
992.271, 250.766
993.525, 110.822
994.779, 237.908
996.032, 215.314
997.285, 71.457
998.538, 65.369
999.791, 173.820
1001.044, 16.967
1002.296, 236.680
1003.548, 78.945
1004.800, 128.938
1006.052, 235.252
1007.304, 195.889
1008.555, 325.904
1009.807, 197.576
1011.058, 307.998
1012.309, 168.449
1013.559, 329.486
1014.810, 290.004
1016.060, 350.568
1017.310, 224.189
1018.560, 341.877
1019.810, 337.625
1021.060, 268.439
1022.309, 333.287
1023.558, 390.246
1024.807, 315.447
1026.056, 345.592
1027.305, 368.541
1028.553, 445.971
1029.801, 454.266
1031.049, 478.691
1032.297, 439.406
1033.545, 445.654
1034.793, 486.793
1036.040, 366.961
1037.287, 389.148
1038.534, 315.576
1039.781, 381.805
1041.027, 390.051
1042.274, 524.391
1043.520, 583.736
1044.766, 231.545
1046.012, 346.865
1047.257, 492.023
1048.503, 339.449
1049.748, 516.229
1050.993, 424.893
1052.238, 422.928
1053.483, 291.156
1054.727, 435.756
1055.971, 369.229
1057.216, 454.910
1058.459, 429.617
1059.703, 441.842
1060.947, 359.547
1062.190, 469.494
1063.433, 368.111
1064.676, 366.742
1065.919, 450.383
1067.162, 536.037
1068.404, 517.189
1069.646, 531.371
1070.888, 522.070
1072.130, 484.775
1073.372, 506.490
1074.613, 523.217
1075.855, 380.949
1077.096, 475.688
1078.337, 552.432
1079.578, 475.410
1080.818, 358.160
1082.059, 444.914
1083.299, 429.674
1084.539, 453.438
1085.779, 391.201
1087.018, 497.967
1088.258, 375.732
1089.497, 281.508
1090.736, 421.385
1091.975, 330.158
1093.213, 287.932
1094.452, 428.711
1095.690, 388.502
1096.928, 360.287
1098.166, 315.234
1099.404, 308.896
1100.642, 265.158
1101.879, 317.928
1103.116, 308.695
1104.353, 356.467
1105.590, 322.232
1106.827, 392.113
1108.063, 363.307
1109.299, 326.836
1110.536, 306.742
1111.771, 283.775
1113.007, 206.195
1114.243, 359.197
1115.478, 96.053
1116.713, 278.025
1117.948, 588.816
1119.183, 236.795
1120.418, 186.541
1121.652, 267.598
1122.886, 301.367
1124.120, 352.902
1125.354, 319.680
1126.588, 308.762
1127.821, 289.934
1129.055, 204.562
1130.288, 173.691
1131.521, 88.498
1132.753, 66.688
1133.986, 68.119
1135.218, 179.900
1136.450, 73.658
1137.682, 302.410
1138.914, 110.504
1140.146, 7.336
1141.377, 28.627
1142.609, 79.652
1143.840, 5.076
1145.071, 78.424
1146.301, 38.770
1147.532, 38.066
1148.762, 101.697
1149.992, 6.482
1151.222, 60.291
1152.452, 114.807
1153.682, 117.793
1154.911, 22.459
1156.140, 79.178
1157.369, 39.281
1158.598, 7.344
1159.827, 124.822
1161.055, 5.283
1162.284, 94.553
1163.512, 169.189
1164.740, 93.867
1165.967, 88.584
1167.195, 147.170
1168.422, 181.391
1169.650, 55.549
1170.877, 4.129
1172.103, 110.111
1173.330, 28.904
1174.557, 215.352
1175.783, 45.965
1177.009, 120.152
1178.235, 126.490
1179.461, 76.273
1180.686, 13.598
1181.912, 115.023
1183.137, 255.793
1184.362, 197.121
1185.587, 51.201
1186.811, 296.682
1188.036, 191.867
1189.260, 82.238
1190.484, 88.391
1191.708, 45.648
1192.932, 204.967
1194.155, 11.875
1195.378, 100.051
1196.602, 12.875
1197.825, 10.756
1199.047, 252.182
1200.270, 20.201
1201.492, 94.195
1202.715, 205.273
1203.937, 90.227
1205.159, 90.154
1206.380, 261.064
1207.602, 12.621
1208.823, 80.244
1210.044, 180.229
1211.265, 174.020
1212.486, 236.850
1213.707, 237.582
1214.927, 238.510
1216.147, 230.547
1217.367, 255.270
1218.587, 241.926
1219.807, 285.188
1221.027, 250.912
1222.246, 219.449
1223.465, 261.895
1224.684, 232.432
1225.903, 126.746
1227.121, 274.994
1228.340, 457.166
1229.558, 324.268
1230.776, 298.334
1231.994, 225.248
1233.212, 291.076
1234.429, 358.814
1235.646, 212.449
1236.864, 171.979
1238.081, 207.404
1239.297, 256.742
1240.514, 315.994
1241.730, 300.158
1242.947, 216.246
1244.163, 164.248
1245.378, 262.164
1246.594, 124.996
1247.810, 253.744
1249.025, 470.410
1250.240, 246.006
1251.455, 292.523
1252.670, 181.977
1253.885, 231.361
1255.099, 158.688
1256.313, 172.965
1257.527, 141.582
1258.741, 102.412
1259.955, 70.627
1261.168, 180.895
1262.382, 158.760
1263.595, 208.621
1264.808, 170.477
1266.021, 345.322
1267.233, 164.158
1268.446, 426.986
1269.658, 119.805
1270.870, 431.264
1272.082, 206.037
1273.294, 414.803
1274.505, 172.184
1275.716, 179.596
1276.928, 276.066
1278.139, 348.756
1279.349, 397.973
1280.560, 278.902
1281.770, 379.553
1282.981, 307.361
1284.191, 180.123
1285.401, 171.465
1286.610, 220.629
1287.820, 209.572
1289.029, 166.064
1290.239, 130.182
1291.448, 238.176
1292.656, 79.768
1293.865, 280.545
1295.073, 176.693
1296.282, 227.506
1297.490, 198.561
1298.698, 306.395
1299.906, 231.693
1301.113, 70.027
1302.320, 174.312
1303.528, 98.674
1304.735, 111.100
1305.942, 41.119
1307.148, 40.062
1308.355, 32.010
1309.561, 64.148
1310.767, 96.266
1311.973, 77.938
1313.179, 103.633
1314.384, 33.656
1315.590, 53.930
1316.795, 196.820
1318.000, 155.072
1319.205, 115.322
1320.410, 50.576
1321.614, 32.336
1322.819, 50.939
1324.023, 92.238
1325.227, 124.266
1326.431, 27.951
1327.634, 48.336
1328.838, 275.771
1330.041, 147.029
1331.244, 238.811
1332.447, 328.434
1333.650, 259.178
1334.852, 358.055
1336.055, 239.984
1337.257, 352.680
1338.459, 166.287
1339.661, 299.049
1340.862, 356.602
1342.064, 196.537
1343.265, 118.443
1344.466, 358.486
1345.667, 359.678
1346.868, 305.400
1348.068, 361.037
1349.269, 378.354
1350.469, 350.557
1351.669, 235.475
1352.869, 390.020
1354.069, 300.225
1355.268, 363.844
1356.468, 354.961
1357.667, 417.945
1358.866, 313.441
1360.065, 297.654
1361.263, 252.715
1362.462, 337.600
1363.660, 222.283
1364.858, 152.396
1366.056, 268.861
1367.254, 310.924
1368.451, 105.609
1369.649, 368.223
1370.846, 147.660
1372.043, 223.082
1373.240, 443.600
1374.436, 93.203
1375.633, 137.537
1376.829, 155.184
1378.025, 242.051
1379.221, 247.709
1380.417, 259.682
1381.613, 278.082
1382.808, 279.986
1384.003, 266.207
1385.199, 264.920
1386.393, 268.043
1387.588, 267.070
1388.783, 200.111
1389.977, 260.322
1391.171, 73.355
1392.365, 50.742
1393.559, 103.256
1394.753, 14.527
1395.946, 154.377
1397.140, 69.043
1398.333, 119.039
1399.526, 179.771
1400.719, 286.686
1401.911, 1.934
1403.104, 162.457
1404.296, 0.000
##END=



