##NAMES=Ferberite
##RRUFFID=R040044
##IDEAL CHEMISTRY=Fe^2+^W^6+^O_4_
##LOCALITY=Chocote, Bolivia
##OWNER=RRUFF
##SOURCE=University of Arizona Mineral Museum
##DESCRIPTION=Black tabular single crystal
##STATUS=The identification of this mineral has been confirmed by X-ray diffraction and chemical analysis
##URL=rruff.info/R040044
##MEASURED CHEMISTRY=(Fe_0.82_Mn_0.08_Mg_0.07_Pb_0.03_)_Î£=1_W_1.00_O_4_
##PIN_ID=L01748
##ORIENTATION=Laser parallel to (1 0 1). Fiducial mark perpendicular to laser is parallel to b [0 1 0]
99.34400, 0.0000000E+00
100.5810, 233.4160
101.8190, 13.91602
103.0560, 245.7422
104.2930, 779.2129
105.5290, 1316.814
106.7660, 3003.875
108.0020, 2512.762
109.2390, 3353.750
110.4750, 2231.799
111.7110, 2168.879
112.9460, 2290.076
114.1820, 3202.631
115.4170, 3724.941
116.6530, 3389.691
117.8880, 3230.053
119.1230, 2332.121
120.3580, 1175.537
121.5920, 669.7441
122.8270, 677.3223
124.0610, 1272.963
125.2950, 750.4336
126.5290, 749.5547
127.7630, 945.1934
128.9970, 1411.244
130.2300, 2127.621
131.4640, 2809.262
132.6970, 3093.055
133.9300, 3353.594
135.1630, 3093.547
136.3950, 2622.232
137.6280, 2075.500
138.8600, 1626.820
140.0920, 1202.965
141.3240, 930.3691
142.5560, 440.4199
143.7880, 343.7637
145.0190, 65.47461
146.2510, 222.6133
147.4820, 472.2383
148.7130, 321.3984
149.9440, 643.1367
151.1750, 925.4902
152.4050, 704.4961
153.6360, 714.1836
154.8660, 979.5820
156.0960, 1044.709
157.3260, 891.5918
158.5560, 1018.244
159.7850, 1003.686
161.0150, 1337.930
162.2440, 1049.992
163.4730, 1273.887
164.7020, 1239.064
165.9310, 876.6484
167.1590, 1086.205
168.3880, 933.6797
169.6160, 872.9902
170.8440, 1151.277
172.0720, 1365.525
173.3000, 1110.754
174.5280, 1422.326
175.7550, 1989.119
176.9820, 2216.254
178.2100, 2699.129
179.4370, 2901.992
180.6630, 3059.998
181.8900, 2842.150
183.1170, 2691.443
184.3430, 2551.881
185.5690, 2025.457
186.7950, 2343.168
188.0210, 1818.014
189.2470, 1804.982
190.4720, 1834.074
191.6970, 1722.285
192.9230, 1953.605
194.1480, 1803.035
195.3730, 1669.562
196.5970, 1992.186
197.8220, 2020.900
199.0460, 2098.701
200.2700, 2653.586
201.4940, 2794.559
202.7180, 2762.619
203.9420, 2291.754
205.1660, 1514.963
206.3890, 1492.248
207.6120, 1164.598
208.8350, 1260.004
210.0580, 1576.457
211.2810, 1825.949
212.5040, 1720.475
213.7260, 1909.031
214.9480, 1506.625
216.1700, 1514.252
217.3920, 1232.914
218.6140, 1039.615
219.8360, 702.3496
221.0570, 544.1211
222.2790, 496.9316
223.5000, 395.7773
224.7210, 382.6602
225.9410, 131.5781
227.1620, 85.53711
228.3820, 87.46875
229.6030, 265.5664
230.8230, 116.6348
232.0430, 82.26172
233.2630, 51.87891
234.4820, 124.9453
235.7020, 63.73242
236.9210, 124.4844
238.1400, 232.2695
239.3590, 275.0508
240.5780, 36.12305
241.7970, 183.8047
243.0150, 8.957031
244.2340, 192.2051
245.4520, 189.5469
246.6700, 66.33203
247.8880, 187.1895
249.1060, 309.2168
250.3230, 60.04297
251.5400, 148.4824
252.7580, 58.63281
253.9750, 178.5254
255.1920, 168.2344
256.4080, 43.20898
257.6250, 690.8223
258.8410, 568.7676
260.0580, 539.4902
261.2740, 749.4844
262.4900, 87.59180
263.7050, 228.7832
264.9210, 158.0488
266.1360, 237.3770
267.3520, 323.4180
268.5670, 318.1816
269.7820, 426.6387
270.9960, 489.1270
272.2110, 370.6426
273.4250, 574.1777
274.6400, 608.7344
275.8540, 901.3125
277.0680, 613.9062
278.2810, 567.5117
279.4950, 632.1309
280.7090, 404.7500
281.9220, 189.3574
283.1350, 493.9414
284.3480, 227.4961
285.5610, 360.0117
286.7730, 541.4902
287.9860, 206.9375
289.1980, 329.3613
290.4100, 395.7578
291.6220, 386.1328
292.8340, 469.4883
294.0460, 594.8281
295.2570, 792.1523
296.4690, 749.4648
297.6800, 1061.764
298.8910, 1154.057
300.1020, 1282.340
301.3120, 1645.613
302.5230, 1623.055
303.7330, 1505.355
304.9440, 1420.652
306.1540, 1147.996
307.3630, 1015.422
308.5730, 1071.869
309.7830, 742.3809
310.9920, 682.8359
312.2010, 705.1875
313.4100, 404.4668
314.6190, 598.6562
315.8280, 552.5469
317.0370, 666.3340
318.2450, 349.9961
319.4530, 631.5176
320.6610, 579.8477
321.8690, 670.0938
323.0770, 783.2715
324.2850, 995.3828
325.4920, 814.5664
326.6990, 877.8281
327.9060, 1179.123
329.1130, 1147.451
330.3200, 1310.822
331.5270, 1425.244
332.7330, 1235.699
333.9390, 1339.203
335.1450, 1255.734
336.3510, 1275.316
337.5570, 1172.926
338.7630, 1150.570
339.9680, 1220.242
341.1740, 1352.938
342.3790, 964.6621
343.5840, 1421.410
344.7890, 1141.184
345.9930, 1296.980
347.1980, 1107.820
348.4020, 1254.686
349.6060, 1450.574
350.8100, 1288.484
352.0140, 1375.420
353.2180, 1343.379
354.4210, 1523.359
355.6250, 1520.361
356.8280, 1415.387
358.0310, 1438.436
359.2340, 1494.506
360.4360, 1324.598
361.6390, 1379.713
362.8410, 1266.852
364.0430, 1362.008
365.2450, 1059.191
366.4470, 1344.395
367.6490, 1098.617
368.8510, 1342.865
370.0520, 1155.135
371.2530, 1124.424
372.4540, 1052.734
373.6550, 882.7090
374.8560, 958.0625
376.0560, 576.4395
377.2570, 760.8652
378.4570, 743.1094
379.6570, 571.1289
380.8570, 691.7812
382.0570, 560.9219
383.2560, 598.7832
384.4560, 569.0195
385.6550, 584.1680
386.8540, 748.0391
388.0530, 611.2168
389.2520, 561.7266
390.4510, 690.4629
391.6490, 601.4629
392.8470, 482.4414
394.0450, 556.1289
395.2430, 659.6641
396.4410, 363.0410
397.6390, 823.7012
398.8360, 802.3477
400.0340, 606.6055
401.2310, 517.3340
402.4280, 751.2422
403.6250, 682.1738
404.8210, 747.1250
406.0180, 685.0957
407.2140, 706.0840
408.4100, 590.0938
409.6060, 566.4082
410.8020, 453.1641
411.9980, 457.2266
413.1930, 314.3086
414.3890, 242.4062
415.5840, 212.5234
416.7790, 248.6582
417.9740, 216.8086
419.1680, 264.9805
420.3630, 402.1680
421.5570, 311.3750
422.7510, 38.59961
423.9450, 101.8398
425.1390, 147.1016
426.3330, 51.37695
427.5270, 52.67383
428.7200, 140.9863
429.9130, 95.32031
431.1060, 59.43164
432.2990, 453.0430
433.4920, 32.43359
434.6840, 62.84570
435.8770, 309.2773
437.0690, 136.7285
438.2610, 324.1992
439.4530, 125.6914
440.6450, 127.2051
441.8360, 162.7363
443.0280, 44.28906
444.2190, 232.8672
445.4100, 49.53711
446.6010, 221.7969
447.7920, 406.4219
448.9820, 204.2285
450.1730, 76.18750
451.3630, 371.3906
452.5530, 453.2754
453.7430, 352.0000
454.9330, 193.7441
456.1230, 238.5098
457.3120, 171.3223
458.5010, 307.5566
459.6910, 132.3848
460.8800, 223.2324
462.0680, 177.3535
463.2570, 131.1406
464.4460, 306.6230
465.6340, 341.9355
466.8220, 470.9023
468.0100, 490.2383
469.1980, 514.1055
470.3860, 271.1465
471.5730, 393.2129
472.7600, 344.5039
473.9480, 275.5430
475.1350, 329.8008
476.3210, 262.3145
477.5080, 539.4980
478.6950, 588.7305
479.8810, 392.9609
481.0670, 642.0469
482.2530, 321.3223
483.4390, 477.6191
484.6250, 337.9375
485.8100, 379.2773
486.9960, 502.6387
488.1810, 621.0254
489.3660, 355.4355
490.5510, 622.8652
491.7360, 484.3184
492.9200, 469.7910
494.1050, 741.2891
495.2890, 588.8066
496.4730, 703.3477
497.6570, 689.9102
498.8400, 757.4980
500.0240, 896.1035
501.2070, 798.7344
502.3910, 854.3867
503.5740, 793.0625
504.7570, 948.7598
505.9400, 852.4805
507.1220, 893.2227
508.3050, 957.9883
509.4870, 1249.775
510.6690, 1211.586
511.8510, 1324.418
513.0330, 828.2754
514.2140, 1048.152
515.3960, 1071.053
516.5770, 1030.010
517.7580, 1107.992
518.9390, 1084.996
520.1200, 1012.055
521.3010, 962.1367
522.4810, 924.1152
523.6610, 880.4844
524.8420, 828.7480
526.0220, 819.1055
527.2010, 830.3828
528.3810, 1039.049
529.5610, 911.6113
530.7400, 974.2129
531.9190, 1053.895
533.0980, 1001.918
534.2770, 926.4668
535.4560, 967.3594
536.6340, 816.3574
537.8120, 698.4082
538.9910, 784.5293
540.1690, 1026.697
541.3460, 792.9414
542.5240, 1058.262
543.7020, 962.6055
544.8790, 961.9766
546.0560, 832.3691
547.2330, 963.7852
548.4100, 1014.229
549.5870, 936.6914
550.7630, 772.1797
551.9400, 941.6934
553.1160, 1029.229
554.2920, 1037.791
555.4680, 1145.377
556.6440, 948.9883
557.8190, 881.6230
558.9950, 923.2832
560.1700, 812.9688
561.3450, 910.6758
562.5200, 944.4082
563.6950, 809.1680
564.8690, 893.9512
566.0440, 925.7598
567.2180, 895.5938
568.3920, 826.4512
569.5660, 727.3379
570.7400, 682.8379
571.9130, 631.5059
573.0870, 519.1445
574.2600, 543.1328
575.4330, 398.6680
576.6060, 306.1895
577.7790, 300.2559
578.9520, 327.3496
580.1240, 236.4668
581.2960, 214.2227
582.4690, 69.78516
583.6410, 124.9844
584.8120, 113.2090
585.9840, 143.4609
587.1560, 118.4336
588.3270, 97.80469
589.4980, 176.9297
590.6690, 315.7383
591.8400, 59.68359
593.0110, 245.6445
594.1810, 226.2930
595.3510, 71.25781
596.5220, 54.24609
597.6920, 165.7305
598.8610, 54.22266
600.0310, 281.2070
601.2010, 39.73828
602.3700, 620.2578
603.5390, 246.6758
604.7080, 80.71094
605.8770, 165.7695
607.0460, 44.10938
608.2140, 148.9844
609.3830, 175.1289
610.5510, 185.7266
611.7190, 73.53906
612.8870, 39.61328
614.0550, 71.77344
615.2220, 21.05078
616.3900, 61.44141
617.5570, 135.3984
618.7240, 74.73438
619.8910, 133.1172
621.0580, 17.00000
622.2240, 223.8906
623.3910, 254.8125
624.5570, 181.7656
625.7230, 65.74609
626.8890, 154.7578
628.0550, 132.7969
629.2200, 60.13281
630.3860, 121.0039
631.5510, 140.0234
632.7160, 245.1523
633.8810, 314.3047
635.0460, 182.4922
636.2100, 249.7070
637.3750, 242.9531
638.5390, 205.2344
639.7030, 356.5391
640.8670, 368.8828
642.0310, 438.2500
643.1950, 281.6523
644.3580, 343.0859
645.5210, 313.5547
646.6850, 300.0469
647.8480, 531.5781
649.0100, 425.1367
650.1730, 564.7266
651.3350, 535.3516
652.4980, 476.0039
653.6600, 480.6953
654.8220, 469.4219
655.9840, 546.4570
657.1450, 940.9805
658.3070, 807.8086
659.4680, 943.6680
660.6300, 1201.555
661.7910, 1029.477
662.9510, 1386.434
664.1120, 1398.426
665.2730, 1389.473
666.4330, 1408.555
667.5930, 1417.664
668.7530, 1617.809
669.9130, 1829.984
671.0730, 1635.188
672.2320, 1836.430
673.3920, 2355.695
674.5510, 2160.996
675.7100, 2486.328
676.8690, 2662.699
678.0280, 2798.098
679.1860, 2870.523
680.3450, 3170.977
681.5030, 3487.465
682.6610, 3507.988
683.8190, 3678.535
684.9770, 3892.117
686.1340, 3917.730
687.2920, 4401.371
688.4490, 4552.043
689.6060, 4642.746
690.7630, 4612.477
691.9200, 4913.254
693.0760, 4990.066
694.2330, 4894.906
695.3890, 5042.777
696.5450, 4972.742
697.7010, 4472.730
698.8570, 4480.754
700.0130, 4070.820
701.1680, 4139.914
702.3230, 4000.039
703.4780, 3609.199
704.6330, 3650.395
705.7880, 3315.652
706.9430, 3266.949
708.0970, 2879.273
709.2520, 2771.629
710.4060, 2561.020
711.5600, 2510.441
712.7140, 2273.230
713.8670, 1999.398
715.0210, 1818.926
716.1740, 1899.512
717.3270, 1648.176
718.4800, 1583.879
719.6330, 1308.613
720.7860, 1330.383
721.9380, 1302.191
723.0910, 1065.047
724.2430, 1075.945
725.3950, 902.8867
726.5470, 1056.156
727.6980, 975.1836
728.8500, 642.0938
730.0010, 762.9062
731.1530, 588.5312
732.3040, 526.5547
733.4550, 447.7852
734.6050, 437.0586
735.7560, 520.3711
736.9060, 449.2578
738.0560, 408.6367
739.2060, 270.0547
740.3560, 189.5078
741.5060, 471.0039
742.6560, 228.8906
743.8050, 329.0039
744.9540, 134.6289
746.1030, 194.2734
747.2520, 385.6094
748.4010, 6.523438
749.5500, 260.2383
750.6980, 68.05078
751.8460, 265.7070
752.9950, 115.6797
754.1420, 49.50000
755.2900, 79.13672
756.4380, 63.95312
757.5850, 226.2109
758.7330, 215.3164
759.8800, 371.6445
761.0270, 328.8477
762.1730, 475.0898
763.3200, 361.3789
764.4670, 548.7031
765.6130, 357.0703
766.7590, 400.4805
767.9050, 636.9297
769.0510, 420.4258
770.1960, 520.9688
771.3420, 535.5586
772.4870, 565.1914
773.6320, 651.8633
774.7770, 658.6172
775.9220, 731.3359
777.0670, 761.1367
778.2110, 768.5469
779.3560, 786.8555
780.5000, 797.7773
781.6440, 785.7461
782.7880, 838.8711
783.9320, 780.7969
785.0750, 860.8867
786.2180, 775.0195
787.3620, 782.1914
788.5050, 753.4062
789.6480, 769.6602
790.7900, 540.9570
791.9330, 640.4922
793.0750, 446.8711
794.2170, 666.2891
795.3590, 766.7539
796.5010, 517.2578
797.6430, 489.8008
798.7850, 732.3828
799.9260, 211.0117
801.0670, 588.6797
802.2080, 554.7617
803.3490, 562.5117
804.4900, 725.3008
805.6310, 557.1328
806.7710, 553.0000
807.9110, 653.9141
809.0510, 436.8633
810.1910, 689.8555
811.3310, 466.8867
812.4710, 685.8828
813.6100, 389.9961
814.7490, 394.1484
815.8880, 291.3438
817.0270, 599.5742
818.1660, 660.8516
819.3050, 556.1719
820.4430, 366.7656
821.5820, 505.1602
822.7200, 625.5938
823.8580, 581.0625
824.9950, 653.5781
826.1330, 646.1328
827.2710, 681.7227
828.4080, 852.8945
829.5450, 683.5664
830.6820, 911.2773
831.8190, 683.0273
832.9560, 893.9453
834.0920, 975.7734
835.2280, 897.6445
836.3650, 825.7344
837.5010, 1247.676
838.6360, 1042.660
839.7720, 1348.680
840.9080, 1315.547
842.0430, 1471.918
843.1780, 1407.051
844.3130, 1355.398
845.4480, 1553.605
846.5830, 1678.848
847.7170, 1619.129
848.8520, 2103.457
849.9860, 2289.812
851.1200, 2191.207
852.2540, 2670.496
853.3870, 2871.254
854.5210, 3330.281
855.6540, 3261.812
856.7880, 3738.781
857.9210, 3898.387
859.0540, 4252.875
860.1860, 5161.762
861.3190, 5333.758
862.4510, 6020.625
863.5840, 6718.441
864.7160, 7493.641
865.8480, 8196.574
866.9790, 9468.625
868.1110, 10542.45
869.2420, 11793.66
870.3740, 13275.21
871.5050, 14680.52
872.6360, 16371.82
873.7660, 18010.21
874.8970, 19419.63
876.0280, 20777.08
877.1580, 22245.56
878.2880, 22965.09
879.4180, 23330.70
880.5480, 23174.38
881.6770, 22740.13
882.8070, 21514.91
883.9360, 20519.77
885.0650, 19003.02
886.1940, 17432.60
887.3230, 16021.61
888.4520, 14659.25
889.5800, 13044.36
890.7090, 11708.20
891.8370, 10388.42
892.9650, 9393.668
894.0930, 8176.973
895.2200, 7328.758
896.3480, 6134.129
897.4750, 5716.531
898.6020, 5037.965
899.7290, 4393.434
900.8560, 3580.926
901.9830, 3421.449
903.1090, 2857.004
904.2360, 2499.602
905.3620, 2437.773
906.4880, 2143.438
907.6140, 1825.484
908.7400, 1657.203
909.8650, 1503.949
910.9900, 1298.727
912.1160, 1248.531
913.2410, 1038.359
914.3660, 991.2227
915.4900, 1063.105
916.6150, 966.0234
917.7390, 733.9609
918.8640, 882.9336
919.9880, 472.9297
921.1120, 453.9570
922.2350, 529.0039
923.3590, 736.0859
924.4820, 454.1875
925.6060, 546.3203
926.7290, 61.76953
927.8520, 506.4258
928.9740, 822.0898
930.0970, 898.7930
931.2190, 20.75391
932.3420, 375.6289
933.4640, 236.4453
934.5860, 77.02344
935.7080, 605.4961
936.8290, 133.5430
937.9510, 384.0117
939.0720, 399.9805
940.1930, 645.5430
941.3140, 394.0078
942.4350, 296.0391
943.5560, 695.3867
944.6760, 819.4023
945.7960, 163.4727
946.9170, 25.98047
948.0370, 195.5781
949.1560, 232.1602
950.2760, 316.7656
951.3960, 105.3945
952.5150, 80.04688
953.6340, 3.718750
954.7530, 6.585938
955.8720, 98.12500
956.9910, 299.8633
958.1090, 535.6172
959.2280, 280.3984
960.3460, 113.1992
961.4640, 170.0195
962.5820, 67.13672
963.6990, 255.6992
964.8170, 269.5508
965.9340, 8.425781
967.0510, 229.6836
968.1690, 269.1172
969.2850, 180.9492
970.4020, 38.19922
971.5190, 227.6523
972.6350, 139.5195
973.7510, 185.4062
974.8670, 10.68750
975.9830, 141.7656
977.0990, 148.0977
978.2150, 2.984375
979.3300, 107.8867
980.4450, 175.8047
981.5600, 176.7422
982.6750, 29.29688
983.7900, 164.6562
984.9050, 289.6328
986.0190, 112.3789
987.1340, 170.4297
988.2480, 0.4492190
989.3620, 116.3398
990.4750, 14.75391
991.5890, 27.16016
992.7020, 57.91406
993.8160, 46.54297
994.9290, 11.15625
996.0420, 61.13672
997.1550, 93.81250
998.2670, 11.22266
999.3800, 64.75781
1000.492, 139.7539
1001.604, 86.23828
1002.716, 319.7383
1003.828, 10.77344
1004.940, 21.81641
1006.051, 145.8789
1007.163, 39.94922
1008.274, 251.0430
1009.385, 84.14844
1010.496, 130.2656
1011.606, 154.4023
1012.717, 78.56250
1013.827, 128.7305
1014.937, 328.9141
1016.047, 108.1133
1017.157, 207.3203
1018.267, 15.54688
1019.377, 26.22266
1020.486, 62.99609
1021.595, 25.19141
1022.704, 66.68359
1023.813, 3.328125
1024.922, 142.3477
1026.030, 192.5898
1027.139, 72.83594
1028.247, 17.78125
1029.355, 306.4688
1030.463, 205.7266
1031.571, 168.9922
1032.678, 161.2656
1033.786, 206.5547
1034.893, 113.8516
1036.000, 418.1602
1037.107, 332.4727
1038.214, 16.20703
1039.321, 565.1289
1040.427, 29.57422
1041.533, 458.9219
1042.639, 57.28125
1043.745, 440.6445
1044.851, 433.0195
1045.957, 538.4023
1047.062, 422.7930
1048.168, 345.1875
1049.273, 233.6133
1050.378, 326.0469
1051.482, 438.4922
1052.587, 286.0273
1053.692, 402.4844
1054.796, 356.9492
1055.900, 478.4141
1057.004, 462.5703
1058.108, 616.9414
1059.212, 475.4297
1060.315, 372.8008
1061.418, 415.3047
1062.522, 443.8125
1063.625, 544.3359
1064.728, 507.8594
1065.830, 530.3906
1066.933, 537.9258
1068.035, 421.4883
1069.137, 272.0391
1070.239, 443.2148
1071.341, 578.3281
1072.443, 493.8945
1073.545, 709.4688
1074.646, 699.0508
1075.747, 730.6328
1076.848, 804.2188
1077.949, 664.8164
1079.050, 533.4141
1080.150, 555.1016
1081.251, 595.7148
1082.351, 459.3281
1083.451, 357.9531
1084.551, 619.6602
1085.651, 665.2891
1086.750, 668.9180
1087.850, 567.3203
1088.949, 710.9609
1090.048, 701.6133
1091.147, 811.2891
1092.246, 633.9648
1093.345, 469.6484
1094.443, 588.3398
1095.541, 486.4961
1096.639, 611.1914
1097.737, 783.8984
1098.835, 685.6055
1099.933, 751.1875
1101.030, 530.4375
1102.128, 684.1602
1103.225, 379.6992
1104.322, 504.4297
1105.419, 397.1680
1106.515, 341.9062
1107.612, 483.8477
1108.708, 378.1133
1109.804, 627.0703
1110.900, 366.6523
1111.996, 323.4141
1113.092, 343.1797
1114.187, 754.9531
1115.283, 630.7266
1116.378, 488.5156
1117.473, 592.3086
1118.568, 356.2500
1119.662, 462.7578
1120.757, 574.0430
1121.851, 456.8594
1122.946, 540.8516
1124.040, 544.1211
1125.134, 497.1055
1126.227, 555.7266
1127.321, 489.6680
1128.414, 477.6797
1129.508, 459.2461
1130.601, 400.6719
1131.693, 444.5352
1132.786, 394.3945
1133.879, 447.5391
1134.971, 568.6055
1136.064, 307.1641
1137.156, 431.2539
1138.248, 336.1406
1139.339, 294.9844
1140.431, 105.8789
1141.522, 252.7734
1142.614, 61.67578
1143.705, 436.0469
1144.796, 264.9531
1145.887, 379.8672
1146.977, 272.7812
1148.068, 178.8125
1149.158, 423.9609
1150.248, 189.5547
1151.338, 74.90625
1152.428, 371.8516
1153.518, 144.1953
1154.607, 286.1445
1155.696, 92.26562
1156.785, 120.6484
1157.874, 277.5703
1158.963, 34.49219
1160.052, 156.9688
1161.141, 266.9023
1162.229, 163.8359
1163.317, 324.7734
1164.405, 254.7148
1165.493, 157.6602
1166.581, 153.6094
1167.668, 151.5625
1168.756, 294.5234
1169.843, 436.0078
1170.930, 38.96875
1172.017, 86.57812
1173.103, 254.5469
1174.190, 162.5156
1175.276, 351.4883
1176.363, 380.4688
1177.449, 122.4531
1178.535, 293.4336
1179.620, 253.9609
1180.706, 118.9492
1181.791, 65.94141
1182.877, 44.93750
1183.962, 175.9375
1185.047, 239.9375
1186.131, 292.9414
1187.216, 303.9492
1188.300, 12.96094
1189.385, 184.9648
1190.469, 16.02734
1191.553, 169.9727
1192.637, 165.9805
1193.720, 355.9922
1194.804, 133.0078
1195.887, 127.0234
1196.970, 196.0430
1198.053, 56.06250
1199.136, 293.0898
1200.219, 294.1133
1201.301, 7.828125
1202.383, 365.2148
1203.465, 777.2656
1204.547, 965.3164
1205.629, 369.3711
1206.711, 283.4297
1207.792, 415.4883
1208.874, 346.5547
1209.955, 348.5703
1211.036, 360.6875
1212.117, 270.7656
1213.198, 188.8438
1214.278, 46.92578
1215.359, 271.0039
1216.439, 421.0938
1217.519, 419.1797
1218.599, 349.2734
1219.678, 236.3711
1220.758, 277.1719
1221.837, 85.26953
1222.917, 237.3711
1223.996, 561.6797
1225.075, 424.7852
1226.153, 539.9102
1227.232, 287.0352
1228.310, 205.1602
1229.389, 190.2891
1230.467, 7.527344
1231.545, 141.6484
1232.622, 152.8242
1233.700, 278.0117
1234.777, 176.2070
1235.855, 429.3945
1236.932, 237.5859
1238.009, 248.7930
1239.086, 194.0312
1240.162, 388.2695
1241.239, 405.5156
1242.315, 440.4922
1243.391, 197.0078
1244.467, 435.2812
1245.543, 252.5430
1246.619, 76.80469
1247.694, 294.0703
1248.769, 243.3633
1249.844, 282.7070
1250.919, 138.0586
1251.994, 69.40625
1253.069, 245.7695
1254.144, 153.1328
1255.218, 205.1562
1256.292, 251.0859
1257.366, 164.1797
1258.440, 173.4688
1259.514, 14.23828
1260.587, 230.0391
1261.661, 83.32422
1262.734, 250.6289
1263.807, 152.0664
1264.880, 226.1602
1265.952, 32.38281
1267.025, 279.6133
1268.097, 1.855469
1269.170, 79.08984
1270.242, 122.3398
1271.314, 272.5938
1272.385, 24.15625
1273.457, 250.0742
1274.528, 92.30859
1275.600, 97.54297
1276.671, 49.42578
1277.742, 35.08594
1278.812, 64.39844
1279.883, 69.14453
