##NAMES=Ferberite
##RRUFFID=R040044
##IDEAL CHEMISTRY=Fe^2+^W^6+^O_4_
##LOCALITY=Chocote, Bolivia
##OWNER=RRUFF
##SOURCE=University of Arizona Mineral Museum
##DESCRIPTION=Black tabular single crystal
##STATUS=The identification of this mineral has been confirmed by X-ray diffraction and chemical analysis
##URL=rruff.info/R040044
##MEASURED CHEMISTRY=(Fe_0.82_Mn_0.08_Mg_0.07_Pb_0.03_)_Î£=1_W_1.00_O_4_
##PIN_ID=M00266
##ORIENTATION=Laser parallel to a [1 0 0]. Fiducial mark perpendicular to laser is parallel to b* (0 1 0)
147.557, 0.000
148.942, 105.395
150.327, 1.779
151.711, 24.322
153.096, 217.463
154.480, 203.838
155.863, 197.367
157.247, 104.848
158.630, 35.072
160.013, 47.232
161.396, 17.123
162.779, 155.572
164.161, 173.309
165.544, 117.043
166.926, 38.309
168.308, 19.748
169.689, 68.893
171.070, 301.766
172.452, 215.994
173.833, 353.053
175.213, 388.293
176.594, 382.859
177.974, 381.682
179.354, 338.955
180.734, 397.248
182.114, 174.887
183.493, 566.051
184.872, 460.861
186.251, 356.334
187.630, 259.717
189.008, 505.953
190.387, 479.562
191.765, 606.371
193.143, 671.639
194.520, 820.465
195.898, 1004.549
197.275, 1150.336
198.652, 1452.189
200.029, 1715.666
201.405, 2035.256
202.782, 2226.205
204.158, 2444.699
205.534, 2580.105
206.909, 2691.230
208.285, 2605.611
209.660, 2639.926
211.035, 2213.352
212.410, 1921.947
213.784, 1521.207
215.159, 1311.801
216.533, 1234.352
217.907, 1027.387
219.281, 831.352
220.654, 767.830
222.027, 495.545
223.400, 530.742
224.773, 436.256
226.146, 331.783
227.518, 305.062
228.891, 152.049
230.263, 155.139
231.634, 100.996
233.006, 142.850
234.377, 29.539
235.748, 53.354
237.119, 14.744
238.490, 43.234
239.860, 0.734
241.231, 55.312
242.601, 86.389
243.970, 36.519
245.340, 28.583
246.709, 56.677
248.079, 35.739
249.448, 29.777
250.816, 65.781
252.185, 48.690
253.553, 148.297
254.921, 256.144
256.289, 341.096
257.657, 236.607
259.024, 439.714
260.391, 447.138
261.758, 327.272
263.125, 423.527
264.492, 545.098
265.858, 648.910
267.224, 569.967
268.590, 461.854
269.956, 576.645
271.321, 606.257
272.687, 516.224
274.052, 504.065
275.416, 408.815
276.781, 342.795
278.146, 201.796
279.510, 210.676
280.874, 170.523
282.237, 37.783
283.601, 49.288
284.964, 37.250
286.327, 32.566
287.690, 102.081
289.053, 108.916
290.416, 103.605
291.778, 52.628
293.140, 182.124
294.502, 43.512
295.863, 245.809
297.225, 58.783
298.586, 129.485
299.947, 230.544
301.308, 287.818
302.668, 179.604
304.029, 327.447
305.389, 349.929
306.749, 373.918
308.108, 461.553
309.468, 362.814
310.827, 407.880
312.186, 428.127
313.545, 534.001
314.903, 570.128
316.262, 688.508
317.620, 772.305
318.978, 881.373
320.336, 1154.906
321.693, 1284.843
323.051, 1499.397
324.408, 1605.419
325.765, 1655.457
327.121, 1727.148
328.478, 1774.617
329.834, 1721.533
331.190, 1731.757
332.546, 1592.353
333.902, 1612.110
335.257, 1589.596
336.612, 1445.402
337.967, 1305.400
339.322, 1101.155
340.677, 1230.674
342.031, 1127.968
343.385, 1010.820
344.739, 965.665
346.093, 917.213
347.446, 915.795
348.799, 896.030
350.153, 886.623
351.505, 902.498
352.858, 863.104
354.210, 733.972
355.563, 786.774
356.915, 673.597
358.267, 594.368
359.618, 602.186
360.969, 606.739
362.321, 647.033
363.672, 499.095
365.022, 650.980
366.373, 418.716
367.723, 473.320
369.073, 447.794
370.423, 421.156
371.773, 412.405
373.122, 426.547
374.471, 418.578
375.821, 411.488
377.169, 376.258
378.518, 353.864
379.866, 340.827
381.215, 309.354
382.563, 300.177
383.910, 365.752
385.258, 327.974
386.605, 439.196
387.952, 410.930
389.299, 350.060
390.646, 288.895
391.992, 414.210
393.339, 375.504
394.685, 399.994
396.031, 656.036
397.376, 597.914
398.722, 573.393
400.067, 573.013
401.412, 543.162
402.757, 545.599
404.101, 458.956
405.446, 435.862
406.790, 496.948
408.134, 394.492
409.478, 488.696
410.821, 368.359
412.165, 261.808
413.508, 225.059
414.851, 122.441
416.193, 202.275
417.536, 61.711
418.878, 8.408
420.220, 131.060
421.562, 41.240
422.904, 97.373
424.245, 192.884
425.586, 186.840
426.927, 202.302
428.268, 266.020
429.609, 40.562
430.949, 146.380
432.289, 120.498
433.629, 128.890
434.969, 168.093
436.309, 219.004
437.648, 204.101
438.987, 223.956
440.326, 161.334
441.665, 237.111
443.003, 98.157
444.342, 194.820
445.680, 115.730
447.018, 131.405
448.355, 73.079
449.693, 36.082
451.030, 132.561
452.367, 235.918
453.704, 272.030
455.041, 49.156
456.377, 160.097
457.713, 173.142
459.049, 182.543
460.385, 197.067
461.721, 226.166
463.056, 231.995
464.391, 240.885
465.726, 256.472
467.061, 264.806
468.395, 282.732
469.730, 262.771
471.064, 301.799
472.398, 269.024
473.731, 220.744
475.065, 267.156
476.398, 186.268
477.731, 310.771
479.064, 360.204
480.397, 423.549
481.729, 373.808
483.062, 271.984
484.394, 406.077
485.725, 444.092
487.057, 390.028
488.389, 536.890
489.720, 458.674
491.051, 543.383
492.382, 586.021
493.712, 665.602
495.043, 612.111
496.373, 770.553
497.703, 749.928
499.032, 749.230
500.362, 806.466
501.691, 908.630
503.020, 963.728
504.349, 1039.758
505.678, 1093.722
507.007, 1146.625
508.335, 1148.464
509.663, 1289.238
510.991, 1281.953
512.319, 1071.607
513.646, 1433.204
514.973, 1582.740
516.300, 1016.219
517.627, 1030.563
518.954, 957.528
520.280, 1079.476
521.607, 969.398
522.933, 1118.443
524.259, 1011.827
525.584, 1171.803
526.910, 1079.766
528.235, 1054.916
529.560, 1104.920
530.885, 1092.771
532.209, 1095.548
533.534, 979.344
534.858, 1084.069
536.182, 921.729
537.506, 1038.203
538.829, 897.549
540.152, 909.807
541.476, 884.897
542.799, 735.921
544.121, 808.190
545.444, 748.279
546.766, 782.809
548.088, 780.199
549.410, 747.316
550.732, 652.160
552.053, 641.524
553.375, 580.500
554.696, 549.017
556.017, 460.267
557.337, 490.397
558.658, 375.434
559.978, 439.495
561.298, 386.442
562.618, 304.421
563.938, 413.044
565.257, 360.573
566.576, 216.400
567.895, 272.811
569.214, 283.621
570.533, 282.940
571.851, 271.828
573.170, 312.569
574.488, 153.628
575.805, 125.282
577.123, 167.604
578.440, 32.558
579.758, 124.686
581.075, 119.619
582.391, 191.561
583.708, 96.113
585.024, 75.629
586.341, 97.195
587.657, 40.016
588.972, 82.941
590.288, 124.156
591.603, 50.150
592.918, 15.211
594.233, 28.559
595.548, 2.150
596.863, 119.582
598.177, 9.131
599.491, 70.588
600.805, 82.047
602.119, 17.582
603.432, 80.893
604.746, 35.777
606.059, 38.137
607.372, 42.572
608.685, 76.418
609.997, 137.283
611.309, 57.711
612.621, 29.023
613.933, 23.748
615.245, 20.445
616.557, 11.105
617.868, 85.721
619.179, 41.670
620.490, 1.812
621.801, 12.725
623.111, 70.307
624.421, 67.959
625.731, 10.352
627.041, 30.404
628.351, 58.920
629.660, 3.123
630.970, 96.533
632.279, 22.008
633.588, 88.629
634.896, 50.930
636.205, 160.754
637.513, 56.785
638.821, 199.994
640.129, 91.088
641.437, 128.760
642.744, 52.936
644.051, 104.105
645.358, 42.264
646.665, 29.414
647.972, 108.559
649.278, 67.693
650.584, 243.506
651.890, 205.627
653.196, 157.646
654.502, 278.494
655.807, 361.596
657.113, 294.693
658.418, 328.789
659.722, 299.877
661.027, 365.510
662.331, 787.041
663.636, 528.117
664.940, 680.191
666.244, 773.264
667.547, 575.332
668.851, 533.398
670.154, 661.465
671.457, 677.531
672.760, 704.594
674.062, 805.658
675.365, 956.721
676.667, 864.787
677.969, 945.855
679.271, 1103.926
680.572, 1162.998
681.874, 1296.078
683.175, 1423.174
684.476, 1441.277
685.777, 1558.385
687.077, 1492.516
688.378, 1595.654
689.678, 1642.801
690.978, 1690.955
692.278, 1645.180
693.577, 1717.293
694.877, 1507.484
696.176, 1445.688
697.475, 1407.902
698.774, 1246.258
700.072, 1165.367
701.371, 1077.615
702.669, 968.877
703.967, 1021.150
705.265, 1013.434
706.562, 774.730
707.860, 595.043
709.157, 584.365
710.454, 562.699
711.751, 497.051
713.047, 531.406
714.344, 373.773
715.640, 318.148
716.936, 307.535
718.232, 451.932
719.527, 371.811
720.823, 261.760
722.118, 346.191
723.413, 225.635
724.708, 220.092
726.002, 194.561
727.297, 59.043
728.591, 82.543
729.885, 186.059
731.179, 34.596
732.472, 3.047
733.766, 112.621
735.059, 170.787
736.352, 26.373
737.645, 4.018
738.937, 288.658
740.230, 17.238
741.522, 124.766
742.814, 92.416
744.106, 58.859
745.397, 99.527
746.689, 196.324
747.980, 222.930
749.271, 191.234
750.562, 220.891
751.853, 102.861
753.143, 167.766
754.433, 181.117
755.723, 140.119
757.013, 260.488
758.303, 94.209
759.592, 258.225
760.881, 281.135
762.170, 312.307
763.459, 282.289
764.748, 251.455
766.036, 363.943
767.325, 243.320
768.613, 156.475
769.901, 299.840
771.188, 311.441
772.476, 270.346
773.763, 253.625
775.050, 181.953
776.337, 282.713
777.624, 224.061
778.910, 271.459
780.196, 240.879
781.482, 187.416
782.768, 101.883
784.054, 163.941
785.339, 166.979
786.625, 234.520
787.910, 140.729
789.195, 162.316
790.479, 6.934
791.764, 26.650
793.048, 8.234
794.332, 62.920
795.616, 38.629
796.900, 167.361
798.183, 82.119
799.467, 19.898
800.750, 130.703
802.033, 28.531
803.316, 94.381
804.598, 98.744
805.880, 101.131
807.163, 46.969
808.445, 41.055
809.726, 39.877
811.008, 93.834
812.289, 153.816
813.570, 60.820
814.851, 61.852
816.132, 92.908
817.413, 94.990
818.693, 266.096
819.973, 183.229
821.253, 491.389
822.533, 252.572
823.813, 328.781
825.092, 208.016
826.371, 260.279
827.650, 236.607
828.929, 487.922
830.208, 527.262
831.486, 559.627
832.764, 538.023
834.042, 607.484
835.320, 695.932
836.598, 774.998
837.875, 870.500
839.152, 936.730
840.429, 1155.564
841.706, 1090.248
842.983, 1182.861
844.259, 1292.586
845.536, 1270.273
846.812, 1412.986
848.088, 1611.785
849.363, 1848.553
850.639, 2503.348
851.914, 2848.168
853.189, 3100.016
854.464, 3580.891
855.739, 3302.791
857.013, 3511.721
858.288, 3852.680
859.562, 4403.684
860.836, 4981.742
862.110, 5673.828
863.383, 6360.941
864.656, 7205.512
865.930, 7950.258
867.203, 9048.465
868.475, 10066.695
869.748, 11089.953
871.020, 12671.254
872.292, 13891.582
873.564, 15034.938
874.836, 16234.324
876.108, 16620.736
877.379, 17497.180
878.650, 17623.648
879.922, 17813.168
881.192, 16869.723
882.463, 16107.309
883.733, 14880.918
885.004, 13818.562
886.274, 12443.230
887.544, 11604.930
888.813, 10108.660
890.083, 9241.414
891.352, 8247.078
892.621, 7249.891
893.890, 6458.135
895.159, 5701.818
896.427, 4972.508
897.695, 4434.438
898.964, 4000.406
900.232, 3458.439
901.499, 3058.518
902.767, 2801.641
904.034, 2430.795
905.301, 2182.410
906.568, 2009.195
907.835, 1756.443
909.102, 1559.738
910.368, 1474.088
911.634, 1369.463
912.900, 1269.867
914.166, 1115.303
915.432, 956.775
916.697, 875.289
917.962, 777.941
919.227, 707.191
920.492, 679.152
921.757, 621.854
923.021, 628.590
924.285, 620.369
925.550, 463.182
926.813, 547.043
928.077, 522.934
929.341, 444.852
930.604, 477.797
931.867, 400.771
933.130, 364.770
934.393, 354.801
935.655, 358.854
936.918, 335.898
938.180, 317.145
939.442, 304.225
940.703, 266.408
941.965, 226.447
943.226, 206.850
944.488, 183.107
945.749, 170.391
947.009, 116.699
948.270, 209.033
949.530, 226.391
950.791, 201.775
952.051, 247.184
953.311, 118.617
954.570, 232.074
955.830, 274.559
957.089, 163.383
958.348, 128.918
959.607, 186.570
960.866, 152.414
962.124, 193.020
963.383, 151.650
964.641, 186.303
965.899, 117.982
967.156, 20.684
968.414, 7.410
969.671, 79.158
970.928, 39.102
972.185, 76.908
973.442, 50.742
974.699, 28.818
975.955, 61.480
977.211, 5.387
978.468, 3.688
979.723, 52.262
980.979, 36.234
982.234, 69.146
983.490, 153.242
984.745, 3.721
986.000, 172.336
987.254, 114.586
988.509, 80.723
989.763, 18.188
991.017, 92.596
992.271, 8.217
993.525, 32.973
994.779, 5.213
996.032, 92.955
997.285, 67.143
998.538, 73.648
999.791, 37.562
1001.044, 27.797
1002.296, 114.051
1003.548, 29.326
1004.800, 194.621
1006.052, 86.932
1007.304, 45.320
1008.555, 106.666
1009.807, 151.713
1011.058, 107.420
1012.309, 233.830
1013.559, 84.266
1014.810, 114.730
1016.060, 133.264
1017.310, 118.770
1018.560, 24.293
1019.810, 256.885
1021.060, 197.170
1022.309, 249.812
1023.558, 386.529
1024.807, 459.514
1026.056, 166.273
1027.305, 100.168
1028.553, 173.971
1029.801, 187.234
1031.049, 229.826
1032.297, 138.041
1033.545, 306.973
1034.793, 221.898
1036.040, 243.842
1037.287, 277.803
1038.534, 104.795
1039.781, 344.781
1041.027, 143.781
1042.274, 283.879
1043.520, 283.904
1044.766, 211.941
1046.012, 310.988
1047.257, 219.262
1048.503, 270.965
1049.748, 382.959
1050.993, 294.002
1052.238, 406.596
1053.483, 378.734
1054.727, 287.961
1055.971, 341.203
1057.216, 275.393
1058.459, 294.566
1059.703, 388.729
1060.947, 359.898
1062.190, 475.641
1063.433, 498.654
1064.676, 611.607
1065.919, 475.830
1067.162, 396.053
1068.404, 145.281
1069.646, 285.738
1070.888, 313.980
1072.130, 348.232
1073.372, 365.463
1074.613, 410.725
1075.855, 404.189
1077.096, 411.039
1078.337, 461.730
1079.578, 379.084
1080.818, 345.475
1082.059, 289.758
1083.299, 316.084
1084.539, 305.367
1085.779, 513.652
1087.018, 355.939
1088.258, 353.225
1089.497, 191.510
1090.736, 313.795
1091.975, 267.078
1093.213, 204.359
1094.452, 269.637
1095.690, 109.910
1096.928, 162.182
1098.166, 257.525
1099.404, 240.789
1100.642, 120.049
1101.879, 257.338
1103.116, 205.906
1104.353, 108.275
1105.590, 254.082
1106.827, 326.328
1108.063, 288.570
1109.299, 139.809
1110.536, 302.211
1111.771, 224.439
1113.007, 226.885
1114.243, 316.301
1115.478, 130.820
1116.713, 252.018
1117.948, 176.475
1119.183, 8.229
1120.418, 171.457
1121.652, 312.146
1122.886, 228.291
1124.120, 344.275
1125.354, 323.561
1126.588, 120.668
1127.821, 127.994
1129.055, 183.078
1130.288, 173.146
1131.521, 100.600
1132.753, 107.645
1133.986, 55.973
1135.218, 150.990
1136.450, 9.641
1137.682, 100.928
1138.914, 4.293
1140.146, 7.711
1141.377, 15.912
1142.609, 68.832
1143.840, 68.959
1145.071, 148.797
1146.301, 139.617
1147.532, 280.816
1148.762, 101.193
1149.992, 304.314
1151.222, 424.369
1152.452, 61.402
1153.682, 90.229
1154.911, 21.021
1156.140, 177.943
1157.369, 61.383
1158.598, 86.479
1159.827, 99.787
1161.055, 32.207
1162.284, 107.109
1163.512, 15.066
1164.740, 36.779
1165.967, 78.371
1167.195, 131.867
1168.422, 16.648
1169.650, 79.875
1170.877, 93.516
1172.103, 45.684
1173.330, 160.723
1174.557, 59.502
1175.783, 122.664
1177.009, 47.521
1178.235, 37.475
1179.461, 56.436
1180.686, 105.141
1181.912, 139.918
1183.137, 206.863
1184.362, 195.281
1185.587, 117.582
1186.811, 156.076
1188.036, 166.270
1189.260, 109.400
1190.484, 155.871
1191.708, 217.656
1192.932, 219.857
1194.155, 89.766
1195.378, 28.873
1196.602, 92.045
1197.825, 12.289
1199.047, 4.355
1200.270, 148.297
1201.492, 131.266
1202.715, 131.193
1203.937, 149.115
1205.159, 156.076
1206.380, 167.471
1207.602, 178.471
1208.823, 147.783
1210.044, 198.920
1211.265, 164.469
1212.486, 173.967
1213.707, 232.549
1214.927, 223.307
1216.147, 129.109
1217.367, 185.512
1218.587, 208.627
1219.807, 37.314
1221.027, 242.107
1222.246, 146.672
1223.465, 242.209
1224.684, 276.711
1225.903, 182.191
1227.121, 175.721
1228.340, 204.562
1229.558, 196.875
1230.776, 247.885
1231.994, 261.170
1233.212, 228.303
1234.429, 244.365
1235.646, 338.248
1236.864, 255.074
1238.081, 300.779
1239.297, 332.395
1240.514, 278.963
1241.730, 276.492
1242.947, 301.936
1244.163, 209.354
1245.378, 234.811
1246.594, 247.135
1247.810, 223.420
1249.025, 156.639
1250.240, 204.170
1251.455, 123.938
1252.670, 264.012
1253.885, 357.016
1255.099, 397.943
1256.313, 199.797
1257.527, 290.596
1258.741, 188.305
1259.955, 193.951
1261.168, 168.713
1262.382, 247.322
1263.595, 180.777
1264.808, 40.195
1266.021, 232.348
1267.233, 75.598
1268.446, 344.783
1269.658, 111.914
1270.870, 210.984
1272.082, 369.994
1273.294, 186.947
1274.505, 268.092
1275.716, 341.674
1276.928, 159.670
1278.139, 294.385
1279.349, 173.043
1280.560, 312.633
1281.770, 197.166
1282.981, 183.424
1284.191, 130.865
1285.401, 213.770
1286.610, 167.838
1287.820, 174.283
1289.029, 102.842
1290.239, 281.064
1291.448, 103.191
1292.656, 179.270
1293.865, 123.281
1295.073, 98.229
1296.282, 140.334
1297.490, 182.943
1298.698, 234.871
1299.906, 244.191
1301.113, 193.850
1302.320, 284.061
1303.528, 44.600
1304.735, 130.217
1305.942, 28.852
1307.148, 44.172
1308.355, 90.113
1309.561, 89.137
1310.767, 98.508
1311.973, 139.084
1313.179, 25.756
1314.384, 54.527
1315.590, 156.719
1316.795, 69.893
1318.000, 76.561
1319.205, 89.020
1320.410, 57.299
1321.614, 55.545
1322.819, 124.482
1324.023, 10.361
1325.227, 158.830
1326.431, 70.850
1327.634, 62.854
1328.838, 158.867
1330.041, 119.545
1331.244, 195.869
1332.447, 269.432
1333.650, 108.215
1334.852, 194.693
1336.055, 140.322
1337.257, 253.971
1338.459, 124.578
1339.661, 402.146
1340.862, 326.686
1342.064, 59.193
1343.265, 253.562
1344.466, 186.012
1345.667, 270.908
1346.868, 321.252
1348.068, 275.607
1349.269, 262.678
1350.469, 163.639
1351.669, 129.098
1352.869, 130.922
1354.069, 89.523
1355.268, 132.445
1356.468, 135.869
1357.667, 125.523
1358.866, 269.639
1360.065, 254.059
1361.263, 140.557
1362.462, 83.676
1363.660, 268.230
1364.858, 236.012
1366.056, 368.309
1367.254, 419.963
1368.451, 302.553
1369.649, 406.986
1370.846, 268.732
1372.043, 474.396
1373.240, 453.334
1374.436, 478.229
1375.633, 320.373
1376.829, 497.641
1378.025, 307.188
1379.221, 305.016
1380.417, 325.912
1381.613, 270.400
1382.808, 218.490
1384.003, 328.467
1385.199, 194.523
1386.393, 298.920
1387.588, 306.357
1388.783, 148.494
1389.977, 256.330
1391.171, 245.621
1392.365, 292.625
1393.559, 195.816
1394.753, 170.859
1395.946, 190.730
1397.140, 335.779
1398.333, 245.643
1399.526, 276.531
1400.719, 302.779
1401.911, 233.016
1403.104, 167.594
1404.296, 73.643
1405.488, 90.592
1406.680, 177.730
1407.872, 92.178
1409.063, 180.777
1410.255, 128.350
1411.446, 177.723
1412.637, 232.650
1413.828, 133.482
1415.018, 110.584
1416.209, 144.840
1417.399, 147.947
1418.589, 158.695
1419.779, 10.578
1420.969, 99.707
1422.159, 175.250
1423.348, 47.709
1424.537, 110.166
1425.726, 120.143
1426.915, 156.201
1428.104, 100.295
1429.293, 112.705
1430.481, 4.109
1431.669, 95.252
1432.857, 15.100
1434.045, 40.168
1435.233, 95.465
1436.420, 22.061
1437.608, 80.795
1438.795, 0.268
1439.982, 0.000
##END=



