##NAMES=Ferberite
##RRUFFID=R050632
##IDEAL CHEMISTRY=Fe^2+^W^6+^O_4_
##LOCALITY=Chance mine, Boulder, Colorado, USA
##OWNER=RRUFF
##SOURCE=University of Arizona Mineral Museum
##DESCRIPTION=Dark brown rectangular prismatic crystals
##STATUS=The identification of this mineral has been confirmed by X-ray diffraction and chemical analysis
##URL=rruff.info/R050632
##MEASURED CHEMISTRY=Fe^2+^_1.00_WO_4_
##PIN_ID=M00360
##ORIENTATION=Laser parallel to -a* (-1 0 0). Fiducial mark perpendicular to laser is parallel to b [0 1 0]
157.4550, 0.0000000E+00
158.6810, 154.3779
159.9080, 7.277344
161.1340, 22.25977
162.3590, 227.0273
163.5850, 302.3428
164.8110, 412.4805
166.0360, 575.4072
167.2610, 480.1445
168.4860, 566.4941
169.7110, 977.2100
170.9360, 1242.582
172.1610, 1776.469
173.3850, 2054.689
174.6100, 2069.612
175.8340, 2625.945
177.0580, 2349.163
178.2820, 2401.660
179.5050, 2060.520
180.7290, 1645.099
181.9520, 1201.084
183.1760, 1263.256
184.3990, 1248.015
185.6220, 1568.688
186.8450, 1455.545
188.0670, 1518.813
189.2900, 1572.723
190.5120, 1681.824
191.7340, 1862.513
192.9560, 2148.014
194.1780, 2434.976
195.4000, 2845.603
196.6220, 3234.509
197.8430, 3711.956
199.0640, 4243.686
200.2860, 5197.134
201.5070, 6169.526
202.7270, 7060.492
203.9480, 7500.764
205.1690, 7316.073
206.3890, 7115.363
207.6090, 6756.783
208.8290, 6324.328
210.0490, 5518.990
211.2690, 4876.764
212.4890, 3924.638
213.7080, 3187.605
214.9280, 2683.643
216.1470, 2237.736
217.3660, 1742.382
218.5850, 1321.048
219.8030, 1025.263
221.0220, 843.6797
222.2400, 660.7656
223.4590, 528.3223
224.6770, 391.6768
225.8950, 284.0723
227.1120, 168.7939
228.3300, 105.2373
229.5480, 16.58008
230.7650, 11.21387
231.9820, 56.98047
233.1990, 35.88867
234.4160, 133.0625
235.6330, 24.87305
236.8490, 5.550781
238.0660, 175.1055
239.2820, 58.54297
240.4980, 18.87109
241.7140, 132.0996
242.9300, 178.2354
244.1460, 4.710938
245.3610, 75.48047
246.5770, 23.05273
247.7920, 34.03125
249.0070, 9.176758
250.2220, 23.43066
251.4370, 44.71484
252.6510, 264.0127
253.8660, 374.3203
255.0800, 460.6328
256.2940, 634.9502
257.5080, 1168.274
258.7220, 1334.958
259.9360, 1430.640
261.1490, 1917.302
262.3630, 1564.662
263.5760, 1641.032
264.7890, 1895.412
266.0020, 1970.781
267.2150, 2104.094
268.4270, 1846.364
269.6400, 1919.470
270.8520, 1546.438
272.0640, 1354.246
273.2760, 1224.851
274.4880, 1904.335
275.7000, 1986.731
276.9120, 1401.099
278.1230, 1509.473
279.3340, 1073.884
280.5450, 1491.329
281.7560, 279.8105
282.9670, 80.32715
284.1780, 114.8770
285.3880, 119.5527
286.5980, 126.1680
287.8090, 56.81543
289.0190, 171.2773
290.2290, 191.3701
291.4380, 357.0850
292.6480, 276.8311
293.8570, 336.6016
295.0670, 598.5664
296.2760, 765.3838
297.4850, 885.2295
298.6930, 906.7158
299.9020, 919.1367
301.1110, 788.8955
302.3190, 785.8916
303.5270, 688.8604
304.7350, 566.9443
305.9430, 732.1768
307.1510, 565.1318
308.3580, 654.7314
309.5660, 717.4023
310.7730, 955.1035
311.9800, 865.8135
313.1870, 1210.519
314.3940, 1232.732
315.6010, 1399.823
316.8070, 1435.400
318.0130, 2015.920
319.2200, 2216.389
320.4260, 2623.820
321.6310, 3067.224
322.8370, 3294.591
324.0430, 3600.873
325.2480, 3747.359
326.4540, 3712.113
327.6590, 3816.084
328.8640, 3735.959
330.0680, 3502.753
331.2730, 3305.472
332.4780, 2950.131
333.6820, 2526.734
334.8860, 2444.283
336.0900, 2195.783
337.2940, 2068.231
338.4980, 2054.597
339.7010, 1952.809
340.9050, 1755.918
342.1080, 1766.729
343.3110, 1777.240
344.5140, 1782.568
345.7170, 1836.522
346.9200, 1604.335
348.1220, 1569.027
349.3240, 1601.677
350.5270, 1608.326
351.7290, 1356.997
352.9310, 1285.688
354.1320, 1072.399
355.3340, 1229.133
356.5350, 1062.883
357.7370, 891.6514
358.9380, 1061.440
360.1390, 655.2461
361.3400, 945.0693
362.5400, 726.9102
363.7410, 754.7695
364.9410, 768.6455
366.1410, 884.5283
367.3410, 742.4229
368.5410, 673.3262
369.7410, 374.2461
370.9400, 454.8740
372.1400, 553.8994
373.3390, 446.3662
374.5380, 502.0723
375.7370, 346.6328
376.9360, 439.5947
378.1350, 333.2031
379.3330, 440.0762
380.5310, 255.8398
381.7300, 191.9131
382.9280, 191.4375
384.1260, 231.3682
385.3230, 260.8789
386.5210, 422.3672
387.7180, 442.7646
388.9160, 669.2812
390.1130, 606.5674
391.3100, 595.2217
392.5060, 692.2617
393.7030, 821.0244
394.9000, 864.2139
396.0960, 1056.825
397.2920, 1219.983
398.4880, 1042.217
399.6840, 1165.462
400.8800, 1113.717
402.0750, 777.9844
403.2710, 704.2607
404.4660, 662.5488
405.6610, 559.8486
406.8560, 491.1592
408.0510, 161.4805
409.2450, 133.8125
410.4400, 34.15527
411.6340, 7.489258
412.8280, 264.8750
414.0220, 92.25195
415.2160, 103.3721
416.4100, 178.0449
417.6030, 41.46094
418.7970, 87.10742
419.9900, 96.32617
421.1830, 3.224609
422.3760, 101.2402
423.5690, 273.7188
424.7610, 148.2129
425.9540, 37.72266
427.1460, 32.65430
428.3380, 10.83398
429.5300, 154.0625
430.7220, 13.65430
431.9140, 15.22656
433.1050, 153.7227
434.2970, 77.31641
435.4880, 90.92383
436.6790, 72.45508
437.8700, 101.1699
439.0610, 24.25781
440.2510, 69.64062
441.4420, 29.12500
442.6320, 132.7930
443.8220, 160.7500
445.0120, 116.4453
446.2020, 180.5430
447.3910, 186.3086
448.5810, 41.51953
449.7700, 30.77148
450.9600, 6.478516
452.1490, 90.10156
453.3370, 34.29688
454.5260, 169.8984
455.7150, 146.6953
456.9030, 188.3867
458.0910, 110.0664
459.2800, 63.74414
460.4670, 103.9141
461.6550, 232.6035
462.8430, 209.2832
464.0300, 192.5684
465.2180, 345.0000
466.4050, 322.8457
467.5920, 289.6113
468.7790, 379.5176
469.9650, 388.1641
471.1520, 381.8086
472.3380, 264.4512
473.5250, 429.3398
474.7110, 408.4629
475.8970, 297.8301
477.0820, 321.4688
478.2680, 1267.107
479.4540, 1435.744
480.6390, 1528.383
481.8240, 1522.020
483.0090, 1582.660
484.1940, 1114.936
485.3780, 1580.580
486.5630, 2073.352
487.7470, 1757.004
488.9320, 2157.664
490.1160, 1648.330
491.3000, 1776.004
492.4830, 1709.688
493.6670, 1666.377
494.8500, 1826.076
496.0340, 1307.783
497.2170, 1362.496
498.4000, 1427.219
499.5820, 1353.947
500.7650, 1507.684
501.9480, 1556.432
503.1300, 1655.182
504.3120, 1848.941
505.4940, 1944.711
506.6760, 1925.484
507.8580, 1964.238
509.0390, 1916.057
510.2210, 1856.854
511.4020, 1746.660
512.5830, 1644.471
513.7640, 1651.291
514.9450, 1600.123
516.1250, 1556.967
517.3060, 1689.834
518.4860, 1473.723
519.6660, 1715.627
520.8460, 1953.576
522.0260, 1806.312
523.2060, 1682.670
524.3850, 1713.771
525.5650, 1686.943
526.7440, 1638.154
527.9230, 1635.393
529.1020, 1587.686
530.2810, 1525.051
531.4590, 1771.434
532.6380, 1752.857
533.8160, 1729.332
534.9940, 1335.840
536.1720, 1439.387
537.3500, 1357.949
538.5270, 1330.539
539.7050, 1371.139
540.8820, 1338.742
542.0590, 1420.354
543.2360, 1023.973
544.4130, 1051.598
545.5900, 948.2266
546.7660, 905.8633
547.9430, 996.5059
549.1190, 956.1562
550.2950, 1027.812
551.4710, 1032.475
552.6470, 966.1445
553.8220, 866.7363
554.9980, 767.4180
556.1730, 788.1055
557.3480, 814.7988
558.5230, 670.5000
559.6980, 610.2051
560.8730, 723.0645
562.0470, 573.7812
563.2220, 697.4609
564.3960, 726.1934
565.5700, 727.9297
566.7440, 758.6719
567.9170, 612.4219
569.0910, 478.1797
570.2640, 606.9453
571.4380, 679.7168
572.6110, 647.3340
573.7840, 633.1230
574.9570, 384.9180
576.1290, 444.7207
577.3020, 316.5254
578.4740, 167.4082
579.6460, 340.2266
580.8180, 295.0488
581.9900, 195.8789
583.1620, 170.7148
584.3330, 74.44336
585.5040, 114.3574
586.6760, 92.83594
587.8470, 24.92188
589.0180, 111.3184
590.1880, 70.38281
591.3590, 209.4961
592.5290, 49.89844
593.7000, 8.333984
594.8700, 2.222656
596.0400, 1.220703
597.2090, 32.86719
598.3790, 41.62109
599.5490, 42.44141
600.7180, 60.00781
601.8870, 7.419922
603.0560, 49.85547
604.2250, 111.3223
605.3940, 130.8477
606.5620, 35.44141
607.7300, 26.94141
608.8990, 87.66992
610.0670, 104.6680
611.2350, 57.01367
612.4020, 104.3672
613.5700, 21.72656
614.7370, 5.908203
615.9050, 8.445313
617.0720, 164.8008
618.2390, 122.7012
619.4060, 167.5312
620.5720, 117.9062
621.7390, 89.74023
622.9050, 153.6836
624.0710, 11.08203
625.2370, 43.48242
626.4030, 27.88672
627.5690, 138.2988
628.7340, 117.7188
629.9000, 76.14648
631.0650, 167.5820
632.2300, 168.0234
633.3950, 124.4746
634.5600, 182.9316
635.7240, 194.4004
636.8890, 216.7344
638.0530, 231.3574
639.2170, 306.8457
640.3810, 302.3438
641.5450, 389.8496
642.7080, 307.3633
643.8720, 268.8828
645.0350, 295.4141
646.1980, 359.9512
647.3610, 284.4961
648.5240, 323.0508
649.6870, 585.6133
650.8490, 442.1836
652.0120, 546.7617
653.1740, 609.3516
654.3360, 473.9473
655.4980, 853.5508
656.6600, 836.1621
657.8210, 790.7812
658.9830, 1027.410
660.1440, 960.2129
661.3050, 1083.193
662.4660, 1370.395
663.6270, 1250.262
664.7870, 1266.146
665.9480, 1415.867
667.1080, 1596.549
668.2680, 1694.236
669.4280, 1731.930
670.5880, 2009.629
671.7480, 2138.336
672.9070, 2111.115
674.0670, 2588.105
675.2260, 2780.322
676.3850, 2800.053
677.5440, 3019.289
678.7030, 3326.045
679.8610, 3521.801
681.0200, 3644.564
682.1780, 4027.350
683.3360, 4115.141
684.4940, 4341.936
685.6520, 4346.734
686.8090, 4321.549
687.9670, 4422.367
689.1240, 4157.191
690.2810, 4020.031
691.4380, 4016.875
692.5950, 3698.738
693.7520, 3440.605
694.9080, 3152.480
696.0650, 2929.363
697.2210, 2677.254
698.3770, 2483.148
699.5330, 2299.049
700.6880, 2238.971
701.8440, 1950.111
702.9990, 1898.916
704.1550, 1465.779
705.3100, 1570.727
706.4650, 1404.688
707.6190, 931.6504
708.7740, 1097.625
709.9290, 1113.613
711.0830, 872.6074
712.2370, 699.6133
713.3910, 734.6230
714.5450, 621.6406
715.6980, 602.6641
716.8520, 497.6953
718.0050, 499.7422
719.1580, 430.0293
720.3110, 421.8613
721.4640, 346.9395
722.6170, 292.0254
723.7700, 299.8457
724.9220, 315.9473
726.0740, 346.6699
727.2260, 313.0645
728.3780, 279.3457
729.5300, 263.4805
730.6810, 140.0781
731.8330, 151.3086
732.9840, 279.9766
734.1350, 104.2402
735.2860, 147.3164
736.4370, 311.5098
737.5880, 296.7148
738.7380, 154.9316
739.8880, 352.1621
741.0390, 351.8809
742.1890, 157.1152
743.3380, 162.7559
744.4880, 60.25195
745.6380, 211.3457
746.7870, 281.5293
747.9360, 131.5820
749.0850, 78.90625
750.2340, 337.2422
751.3830, 140.5898
752.5310, 373.7051
753.6800, 265.5977
754.8280, 329.2559
755.9760, 404.6582
757.1240, 306.0742
758.2720, 1141.506
759.4190, 604.9473
760.5670, 546.4043
761.7140, 1090.875
762.8610, 585.7246
764.0080, 196.2227
765.1550, 347.6113
766.3020, 562.1387
767.4480, 503.6797
768.5950, 577.2344
769.7410, 561.8047
770.8870, 550.4180
772.0330, 727.9883
773.1780, 472.6035
774.3240, 377.2344
775.4690, 211.8789
776.6140, 276.5352
777.7590, 334.2109
778.9040, 309.9004
780.0490, 211.6055
781.1940, 163.3223
782.3380, 18.05664
783.4820, 122.8066
784.6260, 167.5742
785.7700, 44.35547
786.9140, 71.15039
788.0580, 157.9629
789.2010, 156.7891
790.3450, 158.6328
791.4880, 162.4902
792.6310, 39.36523
793.7730, 253.2559
794.9160, 107.1621
796.0590, 29.08594
797.2010, 113.9766
798.3430, 62.07422
799.4850, 66.18555
800.6270, 20.31445
801.7690, 1.482422
802.9100, 6.033203
804.0520, 46.35742
805.1930, 40.42969
806.3340, 49.53516
807.4750, 110.1719
808.6160, 19.14258
809.7560, 95.80078
810.8970, 22.83789
812.0370, 85.67383
813.1770, 155.0723
814.3170, 67.96680
815.4570, 141.8652
816.5960, 182.8301
817.7360, 176.8125
818.8750, 174.1172
820.0140, 136.1348
821.1530, 219.1699
822.2920, 459.2207
823.4310, 372.7559
824.5690, 564.8457
825.7070, 410.9512
826.8460, 476.7480
827.9840, 539.8887
829.1220, 424.6797
830.2590, 616.8594
831.3970, 806.0547
832.5340, 737.0098
833.6710, 783.2422
834.8080, 957.4922
835.9450, 1122.762
837.0820, 1211.049
838.2190, 1215.355
839.3550, 1606.676
840.4910, 1619.020
841.6270, 1663.383
842.7630, 1874.945
843.8990, 2186.344
845.0350, 2185.760
846.1700, 2522.338
847.3060, 2805.793
848.4410, 3053.266
849.5760, 3465.758
850.7100, 3847.271
851.8450, 3939.801
852.9800, 4590.352
854.1140, 5069.920
855.2480, 5762.508
856.3820, 6362.115
857.5160, 7220.738
858.6500, 8039.574
859.7830, 9166.242
860.9170, 10258.31
862.0500, 11498.68
863.1830, 13143.46
864.3160, 15075.25
865.4480, 17369.10
866.5810, 19663.97
867.7130, 22542.92
868.8460, 25596.91
869.9780, 28773.92
871.1100, 31851.96
872.2410, 34444.04
873.3730, 36496.11
874.5050, 37371.21
875.6360, 36970.34
876.7670, 35797.49
877.8980, 33744.66
879.0290, 30243.88
880.1590, 27458.15
881.2900, 23676.47
882.4200, 20889.84
883.5500, 18074.22
884.6800, 15743.66
885.8100, 13704.11
886.9400, 11726.59
888.0690, 10056.08
889.1990, 9031.600
890.3280, 7560.145
891.4570, 6713.715
892.5860, 5928.311
893.7140, 5064.924
894.8430, 4726.557
895.9710, 4068.211
897.1000, 3695.887
898.2280, 3304.586
899.3560, 2983.309
900.4830, 2719.059
901.6110, 2407.828
902.7380, 2182.504
903.8660, 1986.744
904.9930, 1760.285
906.1200, 1651.178
907.2460, 1482.090
908.3730, 1302.023
909.5000, 1259.980
910.6260, 984.9570
911.7520, 914.9551
912.8780, 1070.977
914.0040, 841.0195
915.1290, 791.0801
916.2550, 680.1641
917.3800, 698.2715
918.5050, 729.4004
919.6300, 481.5488
920.7550, 620.7207
921.8800, 474.9141
923.0040, 297.1289
924.1290, 458.3809
925.2530, 210.6543
926.3770, 325.9473
927.5010, 323.2617
928.6250, 137.6016
929.7480, 299.9609
930.8720, 239.3418
931.9950, 216.7461
933.1180, 214.0039
934.2410, 294.1172
935.3640, 273.0625
936.4860, 249.3711
937.6090, 57.69141
938.7310, 63.20508
939.8530, 30.26758
940.9750, 95.39453
942.0970, 15.02344
943.2180, 52.68555
944.3400, 0.6328130
945.4610, 38.02148
946.5820, 19.49609
947.7030, 8.771484
948.8240, 148.5645
949.9450, 75.12305
951.0650, 87.68945
952.1860, 11.52539
953.3060, 83.61523
954.4260, 85.24414
955.5460, 76.12695
956.6650, 36.03320
957.7850, 44.03906
958.9040, 133.9023
960.0230, 99.86523
961.1420, 49.14844
962.2610, 187.8750
963.3800, 70.07812
964.4990, 131.9668
965.6170, 226.0371
966.7350, 26.30078
967.8530, 222.2383
968.9710, 14.36914
970.0890, 35.52344
971.2070, 65.03125
972.3240, 119.9023
973.4410, 59.12500
974.5580, 127.3711
975.6750, 151.6406
976.7920, 38.06836
977.9090, 98.24023
979.0250, 157.5664
980.1410, 60.08008
981.2580, 157.2754
982.3740, 97.65234
983.4890, 81.05273
984.6050, 224.4746
985.7200, 250.9180
986.8360, 341.3867
987.9510, 296.8984
989.0660, 16.42969
990.1810, 131.9844
991.2950, 61.42188
992.4100, 179.1699
993.5240, 197.7891
994.6390, 314.4277
995.7530, 322.0898
996.8660, 385.7773
997.9800, 299.4844
999.0940, 210.2168
1000.207, 381.9668
1001.320, 345.7402
1002.433, 129.5371
1003.546, 381.3535
1004.659, 235.1895
1005.772, 373.0508
1006.884, 103.9492
1007.996, 426.8691
1009.108, 352.8125
1010.220, 81.27734
1011.332, 247.2598
1012.444, 424.2656
1013.555, 251.2930
1014.666, 317.3418
1015.777, 355.4082
1016.888, 253.4980
1017.999, 364.6074
1019.110, 508.7441
1020.220, 458.9004
1021.331, 372.0762
1022.441, 417.2715
1023.551, 350.4844
1024.661, 248.7168
1025.770, 545.9707
1026.880, 351.2422
1027.989, 402.5332
1029.098, 307.8418
1030.207, 359.1699
1031.316, 410.5176
1032.425, 441.8848
1033.533, 311.3867
1034.642, 346.7891
1035.750, 214.2227
1036.858, 419.2129
1037.966, 139.6836
1039.073, 338.6387
1040.181, 536.1504
1041.288, 319.6797
1042.396, 577.2285
1043.503, 364.7949
1044.610, 440.3809
1045.716, 341.0117
1046.823, 363.6562
1047.929, 466.3184
1049.036, 445.8906
1050.142, 477.8965
1051.248, 578.4121
1052.353, 444.1445
1053.459, 588.8906
1054.564, 493.6543
1055.670, 503.3848
1056.775, 611.3535
1057.880, 461.1914
1058.985, 523.0449
1060.089, 423.9141
1061.194, 382.7988
1062.298, 431.6992
1063.402, 724.6152
1064.506, 629.6543
1065.610, 533.5996
1066.713, 710.5918
1067.817, 508.0488
1068.920, 506.0996
1070.023, 601.1738
1071.126, 491.2637
1072.229, 565.9727
1073.332, 743.5176
1074.435, 607.8828
1075.537, 598.3242
1076.639, 582.5039
1077.741, 614.0488
1078.843, 624.2773
1079.945, 615.0371
1081.046, 603.8086
1082.148, 584.1035
1083.249, 559.4258
1084.350, 586.8848
1085.451, 527.2363
1086.551, 487.6855
1087.652, 517.0645
1088.752, 369.4551
1089.853, 652.8574
1090.953, 545.8105
1092.053, 557.2402
1093.152, 322.6816
1094.252, 451.3711
1095.351, 536.8340
1096.451, 457.6816
1097.550, 579.1719
1098.649, 242.6719
1099.748, 387.4434
1100.846, 552.9688
1101.945, 267.5059
1103.043, 331.0547
1104.141, 399.6133
1105.239, 406.1836
1106.337, 462.7656
1107.434, 349.3574
1108.532, 286.6511
1109.629, 388.0081
1110.726, 442.3080
1111.823, 452.0783
1112.920, 283.9503
1114.017, 345.5417
1115.113, 315.0770
1116.210, 280.8325
1117.306, 374.7606
1118.402, 232.5136
1119.498, 324.4091
1120.593, 322.8451
1121.689, 364.0526
1122.784, 312.6353
1123.879, 289.8291
1124.974, 359.6819
1126.069, 378.2287
1127.164, 316.1490
1128.259, 360.0804
1129.353, 214.6086
1130.447, 235.3460
1131.541, 327.7953
1132.635, 270.3785
1133.729, 316.0096
1134.822, 322.3997
1135.916, 150.4264
1137.009, 288.6411
1138.102, 292.7119
1139.195, 80.83008
1140.288, 195.9805
1141.380, 11.83789
1142.473, 129.1191
1143.565, 116.3027
1144.657, 70.22656
1145.749, 212.2363
1146.841, 155.1738
1147.932, 43.47070
1149.024, 113.4180
1150.115, 212.8906
1151.206, 186.8496
1152.297, 70.81445
1153.388, 129.7832
1154.479, 93.79688
1155.569, 203.7363
1156.659, 94.72070
1157.750, 53.70898
1158.839, 13.70312
1159.929, 31.70117
1161.019, 38.29297
1162.108, 98.71094
1163.198, 145.7207
1164.287, 19.26367
1165.376, 100.7441
1166.465, 41.25000
1167.553, 25.73438
1168.642, 99.26953
1169.730, 109.7227
1170.818, 30.45508
1171.906, 92.41406
1172.994, 198.3730
1174.082, 221.2871
1175.170, 223.1230
1176.257, 215.4766
1177.344, 172.4492
1178.431, 102.4258
1179.518, 66.40430
1180.605, 72.85547
1181.691, 248.3691
1182.778, 93.35156
1183.864, 128.3359
1184.950, 99.32422
1186.036, 4.310547
1187.122, 40.39844
1188.207, 83.57617
1189.292, 80.57031
1190.378, 107.5332
1191.463, 65.49414
1192.548, 171.4570
1193.632, 104.4258
1194.717, 13.39258
1195.801, 245.3613
1196.886, 30.58984
1197.970, 81.44141
1199.054, 292.4805
1200.137, 92.69922
1201.221, 51.61914
1202.305, 68.08203
1203.388, 97.01562
1204.471, 14.24219
1205.554, 7.845703
1206.637, 43.70117
1207.719, 61.05273
1208.802, 168.8027
1209.884, 55.66016
1210.966, 141.5117
1212.048, 193.3613
1213.130, 100.2109
1214.212, 163.5039
1215.293, 138.0195
1216.374, 7.787109
1217.456, 175.0664
1218.536, 69.91797
1219.617, 191.7676
1220.698, 150.6094
1221.778, 73.46094
1222.859, 218.3086
1223.939, 96.85156
1225.019, 101.9375
1226.099, 90.72461
1227.178, 122.5176
1228.258, 116.3066
1229.337, 92.97070
1230.417, 111.6660
1231.496, 63.89648
1232.574, 111.6738
1233.653, 169.4434
1234.732, 161.2109
1235.810, 293.9746
1236.888, 148.7480
1237.966, 226.5137
1239.044, 15.27930
1240.122, 111.0391
1241.199, 79.79297
1242.277, 90.54492
1243.354, 218.2988
1244.431, 82.05078
1245.508, 109.9570
1246.585, 225.6992
1247.661, 166.4316
1248.738, 51.83789
1249.814, 122.8438
1250.890, 137.5234
1251.966, 34.80469
1253.042, 280.5605
1254.117, 79.64844
1255.193, 128.5605
1256.268, 134.1875
1257.343, 34.49805
1258.418, 227.7129
1259.493, 39.32031
1260.567, 97.91797
1261.642, 72.50781
1262.716, 211.1211
1263.790, 105.7070
1264.864, 94.28711
1265.938, 126.8594
1267.011, 40.57422
1268.085, 150.9492
1269.158, 43.73828
1270.231, 42.24414
1271.304, 66.24023
1272.377, 42.73047
1273.450, 167.2090
1274.522, 62.67969
1275.594, 169.1426
1276.666, 37.84180
1277.738, 119.2852
1278.810, 2.724609
1279.882, 119.1387
1280.953, 151.5469
1282.025, 244.9492
1283.096, 111.3398
1284.167, 125.7246
1285.238, 108.1016
1286.308, 118.4688
1287.379, 160.8848
1288.449, 131.2363
1289.519, 136.2500
1290.589, 165.1953
1291.659, 103.2520
1292.729, 209.5781
1293.798, 198.7812
1294.868, 11.25000
1295.937, 239.9824
1297.006, 376.7266
1298.075, 408.1328
1299.143, 6.099609
1300.212, 161.8613
1301.280, 96.67578
1302.348, 22.42383
1303.416, 255.8848
1304.484, 77.61133
1305.552, 150.9766
1306.620, 155.5605
1307.687, 262.2715
1308.754, 146.6777
1309.821, 99.73242
1310.888, 275.1602
1311.955, 327.4414
1313.021, 186.2266
1314.088, 299.4180
1315.154, 42.18555
1316.220, 12.38477
1317.286, 78.25000
1318.352, 234.2441
1319.417, 212.2285
1320.483, 111.2012
1321.548, 186.3477
1322.613, 177.2988
1323.678, 121.7012
1324.743, 55.63477
1325.807, 120.5586
1326.872, 148.2891
1327.936, 48.78320
1329.000, 120.9473
1330.064, 33.05664
