##NAMES=Ferberite
##RRUFFID=R050090
##IDEAL CHEMISTRY=Fe^2+^W^6+^O_4_
##LOCALITY=Yaogangxian mine, Cheng Zhu City, South Hunan, China
##OWNER=RRUFF
##SOURCE=Rock Currier
##DESCRIPTION=Dark gray tabular crystal
##STATUS=The identification of this mineral has been confirmed by X-ray diffraction and chemical analysis
##URL=rruff.info/R050090
##MEASURED CHEMISTRY=(Fe^2+^_0.56_Mn_0.44_)W_1.00_O_4_
##PIN_ID=L01590
##ORIENTATION=Laser parallel to (1 0 1). Fiducial mark perpendicular to laser is parallel to b [0 1 0]
98.41600, 0.0000000E+00
99.64900, 3.299072
100.8830, 99.30029
102.1160, 185.1697
103.3490, 284.3906
104.5820, 342.3630
105.8150, 360.1348
107.0470, 205.2251
108.2800, 279.3882
109.5120, 264.5745
110.7440, 247.4849
111.9760, 358.0059
113.2080, 236.2747
114.4400, 346.7842
115.6710, 366.1904
116.9030, 428.5889
118.1340, 400.1995
119.3650, 400.4648
120.5960, 492.4111
121.8270, 533.8479
123.0580, 495.8887
124.2880, 651.4414
125.5190, 657.9619
126.7490, 1239.305
127.9790, 1577.880
129.2090, 2567.215
130.4390, 4107.933
131.6680, 5309.384
132.8980, 5000.165
134.1270, 3565.427
135.3560, 2135.810
136.5850, 1390.960
137.8140, 980.7051
139.0430, 742.9473
140.2710, 673.6724
141.5000, 862.9248
142.7280, 597.7500
143.9560, 388.1851
145.1840, 194.2837
146.4120, 145.0889
147.6390, 40.62646
148.8670, 29.37524
150.0940, 193.9734
151.3210, 120.7834
152.5490, 312.3621
153.7750, 476.7236
155.0020, 259.1353
156.2290, 187.1494
157.4550, 159.0291
158.6810, 74.79883
159.9080, 16.40796
161.1340, 11.28711
162.3590, 39.19067
163.5850, 44.33667
164.8110, 298.6895
166.0360, 605.3550
167.2610, 757.2385
168.4860, 729.5266
169.7110, 866.1384
170.9360, 882.2383
172.1610, 927.5452
173.3850, 857.2578
174.6100, 727.7715
175.8340, 600.9922
177.0580, 621.7332
178.2820, 633.2725
179.5050, 660.9268
180.7290, 644.2905
181.9520, 686.7058
183.1760, 642.1692
184.3990, 611.6775
185.6220, 668.2466
186.8450, 740.8340
188.0670, 814.4556
189.2900, 979.1079
190.5120, 969.1877
191.7340, 978.5417
192.9560, 1376.913
194.1780, 1709.327
195.4000, 1427.784
196.6220, 1394.320
197.8430, 1456.171
199.0640, 1534.466
200.2860, 1547.312
201.5070, 2637.592
202.7270, 3454.410
203.9480, 2292.169
205.1690, 2013.881
206.3890, 1168.587
207.6090, 584.2837
208.8290, 236.9685
210.0490, 135.6404
211.2690, 109.2993
212.4890, 82.94531
213.7080, 78.57861
214.9280, 24.12280
216.1470, 13.03564
217.3660, 35.59424
218.5850, 101.0085
219.8030, 46.43433
221.0220, 44.87134
222.2400, 4.319336
223.4590, 20.77881
224.6770, 21.14893
225.8950, 29.72998
227.1120, 43.22144
228.3300, 64.72656
229.5480, 65.24902
230.7650, 8.196533
231.9820, 26.45239
233.1990, 4.791992
234.4160, 32.02051
235.6330, 25.89307
236.8490, 44.84863
238.0660, 52.28320
239.2820, 0.9611820
240.4980, 43.08643
241.7140, 47.28052
242.9300, 5.522949
244.1460, 29.82373
245.3610, 13.16064
246.5770, 9.828369
247.7920, 0.9660640
249.0070, 7.883545
250.2220, 6.888428
251.4370, 58.54199
252.6510, 0.9326170
253.8660, 154.2070
255.0800, 11.87915
256.2940, 119.6616
257.5080, 204.7678
258.7220, 245.9326
259.9360, 111.5383
261.1490, 203.8042
262.3630, 205.2271
263.5760, 202.8843
264.7890, 326.9980
266.0020, 218.0242
267.2150, 340.0811
268.4270, 315.6672
269.6400, 266.6562
270.8520, 270.6160
272.0640, 156.5488
273.2760, 212.4543
274.4880, 165.3318
275.7000, 170.1653
276.9120, 195.9436
278.1230, 236.6724
279.3340, 241.3589
280.5450, 143.0002
281.7560, 117.5964
282.9670, 122.1470
284.1780, 98.65454
285.3880, 118.1199
286.5980, 100.5459
287.8090, 106.9343
289.0190, 104.9021
290.2290, 103.6079
291.4380, 100.8950
292.6480, 93.15088
293.8570, 97.36816
295.0670, 75.50146
296.2760, 61.69189
297.4850, 137.8726
298.6930, 88.03271
299.9020, 161.1782
301.1110, 140.2993
302.3190, 130.3975
303.5270, 96.44824
304.7350, 152.2839
305.9430, 150.6926
307.1510, 153.9387
308.3580, 155.2312
309.5660, 223.3550
310.7730, 243.8435
311.9800, 300.2837
313.1870, 246.6599
314.3940, 302.9524
315.6010, 285.1934
316.8070, 351.3804
318.0130, 403.5210
319.2200, 507.6345
320.4260, 563.7327
321.6310, 600.8225
322.8370, 717.8960
324.0430, 851.9680
325.2480, 973.0371
326.4540, 993.1045
327.6590, 1065.170
328.8640, 1122.233
330.0680, 1070.294
331.2730, 999.3523
332.4780, 931.4075
333.6820, 860.4600
334.8860, 786.5762
336.0900, 724.9934
337.2940, 647.5918
338.4980, 596.6238
339.7010, 551.6494
340.9050, 481.6687
342.1080, 499.6807
343.3110, 379.6846
344.5140, 493.6826
345.7170, 433.6765
346.9200, 430.6643
348.1220, 395.6484
349.3240, 370.6287
350.5270, 423.6055
351.7290, 379.5813
352.9310, 339.5537
354.1320, 336.5229
355.3340, 398.2981
356.5350, 360.9629
357.7370, 392.5168
358.9380, 394.0527
360.1390, 389.1279
361.3400, 391.6416
362.5400, 389.6960
363.7410, 342.7725
364.9410, 374.2310
366.1410, 397.8018
367.3410, 372.9314
368.5410, 425.0415
369.7410, 324.1428
370.9400, 402.7192
372.1400, 378.4631
373.3390, 389.8711
374.5380, 325.2605
375.7370, 369.1726
376.9360, 360.0278
378.1350, 312.8425
379.3330, 279.3882
380.5310, 371.3403
381.7300, 368.1260
382.9280, 405.4709
384.1260, 365.0630
385.3230, 406.0383
386.5210, 391.7788
387.7180, 486.1699
388.9160, 561.0671
390.1130, 671.0103
391.3100, 837.1877
392.5060, 1022.045
393.7030, 1272.101
394.9000, 1556.137
396.0960, 2048.622
397.2920, 2583.330
398.4880, 2922.198
399.6840, 3131.191
400.8800, 3066.897
402.0750, 2692.747
403.2710, 2184.589
404.4660, 1877.234
405.6610, 1551.409
406.8560, 1273.494
408.0510, 1040.687
409.2450, 891.4885
410.4400, 722.2822
411.6340, 634.0681
412.8280, 509.8462
414.0220, 483.6169
415.2160, 436.3799
416.4100, 387.1238
417.6030, 337.8721
418.7970, 299.3320
419.9900, 233.3472
421.1830, 213.0747
422.3760, 215.7954
423.5690, 153.5100
424.7610, 86.14453
425.9540, 146.6670
427.1460, 145.2026
428.3380, 82.63379
429.5300, 80.14111
430.7220, 59.56958
431.9140, 23.10962
433.1050, 40.54688
434.2970, 69.97388
435.4880, 25.38501
436.6790, 79.98633
437.8700, 67.03247
439.0610, 32.36475
440.2510, 54.84106
441.4420, 27.37427
442.6320, 54.20776
443.8220, 78.58569
445.0120, 63.00122
446.2020, 101.0654
447.3910, 148.7126
448.5810, 138.6465
449.7700, 133.1265
450.9600, 121.8386
452.1490, 113.5039
453.3370, 42.19531
454.5260, 113.9026
455.7150, 101.9348
456.9030, 154.8069
458.0910, 116.5903
459.2800, 105.3328
460.4670, 110.0815
461.6550, 136.8577
462.8430, 94.62671
464.0300, 84.96167
465.2180, 137.9048
466.4050, 104.8533
467.5920, 133.6448
468.7790, 164.4358
469.9650, 95.22632
471.1520, 136.0161
472.3380, 166.8096
473.5250, 158.6023
474.7110, 166.3945
475.8970, 157.1882
477.0820, 153.9812
478.2680, 149.2126
479.4540, 119.5652
480.6390, 65.95239
481.8240, 169.4719
483.0090, 226.5535
484.1940, 239.6917
485.3780, 77.27612
486.5630, 141.5513
487.7470, 114.9792
488.9320, 84.67896
490.1160, 180.8601
491.3000, 43.97559
492.4830, 138.1497
493.6670, 140.6628
494.8500, 184.8142
496.0340, 137.5564
497.2170, 118.5317
498.4000, 190.9451
499.5820, 212.7314
500.7650, 120.2893
501.9480, 134.0747
503.1300, 149.8633
504.3120, 170.9685
505.4940, 100.4761
506.6760, 153.3240
507.8580, 171.1904
509.0390, 108.0752
510.2210, 130.9675
511.4020, 113.8716
512.5830, 117.7876
513.7640, 107.7175
514.9450, 109.6646
516.1250, 103.7068
517.3060, 106.6279
518.4860, 97.62549
519.6660, 102.6350
520.8460, 111.6494
522.0260, 142.6775
523.2060, 80.71777
524.3850, 159.7754
525.5650, 79.85181
526.7440, 109.9338
527.9230, 96.03174
529.1020, 99.14697
530.2810, 149.2683
531.4590, 148.4021
532.6380, 152.5435
533.8160, 154.6924
534.9940, 115.8450
536.1720, 72.00000
537.3500, 203.1577
538.5270, 144.3162
539.7050, 178.4792
540.8820, 160.6414
542.0590, 133.8108
543.2360, 238.9805
544.4130, 179.1484
545.5900, 189.3159
546.7660, 104.4832
547.9430, 148.6489
549.1190, 72.81421
550.2950, 106.9785
551.4710, 105.1418
552.6470, 90.30420
553.8220, 76.46631
554.9980, 101.6267
556.1730, 73.80176
557.3480, 58.94580
558.5230, 42.10425
559.6980, 67.26147
560.8730, 50.41821
562.0470, 51.57397
563.2220, 87.72876
564.3960, 61.88330
565.5700, 18.03662
566.7440, 25.18994
567.9170, 35.34302
569.0910, 79.49585
570.2640, 49.64966
571.4380, 15.80322
572.6110, 3.042969
573.7840, 54.10986
574.9570, 4.262695
576.1290, 15.41602
577.3020, 54.43042
578.4740, 13.30469
579.6460, 19.18530
580.8180, 70.07495
581.9900, 18.00049
583.1620, 41.93604
584.3330, 13.89307
585.5040, 31.46899
586.6760, 42.34619
587.8470, 4.529053
589.0180, 2.245850
590.1880, 4.019775
591.3590, 27.57104
592.5290, 15.17651
593.7000, 11.08130
594.8700, 12.95898
596.0400, 5.200684
597.2090, 12.72729
598.3790, 18.82495
599.5490, 34.27759
600.7180, 28.72510
601.8870, 31.55957
603.0560, 62.60156
604.2250, 6.443604
605.3940, 25.70386
606.5620, 27.18604
607.7300, 94.63159
608.8990, 61.55518
610.0670, 135.4753
611.2350, 55.39258
612.4020, 70.18262
613.5700, 94.09277
614.7370, 101.9995
615.9050, 109.2896
617.0720, 125.7297
618.2390, 83.08643
619.4060, 131.9797
620.5720, 119.8696
621.7390, 83.75635
622.9050, 136.6396
624.0710, 98.51978
625.2370, 61.39648
626.4030, 113.2698
627.5690, 255.1399
628.7340, 172.1243
629.9000, 169.8696
631.0650, 63.72974
632.2300, 135.5862
633.3950, 17.43970
634.5600, 118.2839
635.7240, 87.12500
636.8890, 47.96289
638.0530, 43.79761
639.2170, 52.52271
640.3810, 54.10962
641.5450, 96.28149
642.7080, 81.10303
643.8720, 85.92114
645.0350, 75.73633
646.1980, 56.54810
647.3610, 131.3562
648.5240, 84.16089
649.6870, 90.96191
650.8490, 131.7590
652.0120, 94.55273
653.1740, 139.3428
654.3360, 129.1289
655.4980, 154.9111
656.6600, 128.6895
657.8210, 190.4641
658.9830, 169.2344
660.1440, 185.0005
661.3050, 185.7629
662.4660, 275.5210
663.6270, 248.2751
664.7870, 277.0249
665.9480, 210.7703
667.1080, 247.5115
668.2680, 289.2485
669.4280, 326.9812
670.5880, 320.7092
671.7480, 311.4333
672.9070, 336.1526
674.0670, 369.6726
675.2260, 441.5779
676.3850, 497.2842
677.5440, 511.9858
678.7030, 629.6826
679.8610, 615.3762
681.0200, 650.0652
682.1780, 700.7498
683.3360, 677.4302
684.4940, 818.1060
685.6520, 843.7778
686.8090, 957.4453
687.9670, 944.1084
689.1240, 927.7671
690.2810, 1021.422
691.4380, 943.0725
692.5950, 1024.719
693.7520, 1033.361
694.9080, 970.0029
696.0650, 1001.641
697.2210, 1028.275
698.3770, 960.9045
699.5330, 950.5305
700.6880, 807.1526
701.8440, 819.7705
702.9990, 727.3857
704.1550, 609.0012
705.3100, 640.6133
706.4650, 551.2214
707.6190, 506.8259
708.7740, 450.4277
709.9290, 376.6755
711.0830, 346.6201
712.2370, 250.1218
713.3910, 207.7090
714.5450, 162.2932
715.6980, 179.8738
716.8520, 154.4126
718.0050, 126.2661
719.1580, 148.6731
720.3110, 77.99634
721.4640, 47.57446
722.6170, 46.63745
723.7700, 12.44824
724.9220, 21.13257
726.0740, 32.87939
727.2260, 40.63525
728.3780, 13.38159
729.5300, 39.92114
730.6810, 46.47607
731.8330, 2.935791
732.9840, 39.67065
734.1350, 57.31079
735.2860, 46.29736
736.4370, 23.14307
737.5880, 45.76587
738.7380, 5.342041
739.8880, 68.41479
741.0390, 6.222168
742.1890, 5.029785
743.3380, 26.40942
744.4880, 15.40820
745.6380, 2.705322
746.7870, 21.71802
747.9360, 31.85693
749.0850, 37.99585
750.2340, 4.866211
751.3830, 60.26294
752.5310, 39.39185
753.6800, 3.523193
754.8280, 167.6501
755.9760, 124.7769
757.1240, 104.9036
758.2720, 133.0303
759.4190, 133.1577
760.5670, 140.2852
761.7140, 189.4133
762.8610, 229.5415
764.0080, 221.6702
765.1550, 363.7996
766.3020, 410.9294
767.4480, 472.0603
768.5950, 451.1919
769.7410, 498.9272
770.8870, 497.7759
772.0330, 535.0186
773.1780, 502.1541
774.3240, 507.2913
775.4690, 523.4299
776.6140, 486.5696
777.7590, 430.7112
778.9040, 509.8545
780.0490, 433.9998
781.1940, 486.1467
782.3380, 412.2954
783.4820, 294.4463
784.6260, 371.5996
785.7700, 418.7554
786.9140, 370.3711
788.0580, 466.0737
789.2010, 331.2366
790.3450, 310.4023
791.4880, 250.5710
792.6310, 231.7424
793.7730, 290.9167
794.9160, 296.0942
796.0590, 265.2747
797.2010, 300.4585
798.3430, 248.6455
799.4850, 281.8362
800.6270, 257.0300
801.7690, 231.2275
802.9100, 307.4287
804.0520, 263.6335
805.1930, 199.8425
806.3340, 206.0552
807.4750, 242.2722
808.6160, 183.4934
809.7560, 161.7188
810.8970, 244.9487
812.0370, 211.1824
813.1770, 276.4211
814.3170, 285.6643
815.4570, 259.9121
816.5960, 293.2544
817.7360, 217.5122
818.8750, 218.7744
820.0140, 247.0422
821.1530, 281.3149
822.2920, 262.5928
823.4310, 281.8760
824.5690, 310.1650
825.7070, 335.4592
826.8460, 308.7593
827.9840, 348.0647
829.1220, 382.3757
830.2590, 346.6929
831.3970, 452.7844
832.5340, 414.1133
833.6710, 425.4485
834.8080, 480.7898
835.9450, 535.1372
837.0820, 573.4910
838.2190, 610.8513
839.3550, 609.2944
840.4910, 657.6658
841.6270, 722.0459
842.7630, 788.4324
843.8990, 832.8262
845.0350, 853.3894
846.1700, 887.7966
847.3060, 989.0884
848.4410, 1157.633
849.5760, 1188.062
850.7100, 1385.499
851.8450, 1452.943
852.9800, 1732.395
854.1140, 1854.868
855.2480, 2110.353
856.3820, 2297.849
857.5160, 2576.597
858.6500, 2880.115
859.7830, 3125.464
860.9170, 3655.641
862.0500, 3836.119
863.1830, 4459.899
864.3160, 4960.221
865.4480, 5508.220
866.5810, 6157.633
867.7130, 7089.653
868.8460, 7884.565
869.9780, 8840.058
871.1100, 10115.48
872.2410, 11483.61
873.3730, 13061.17
874.5050, 15071.39
875.6360, 17159.62
876.7670, 19789.48
877.8980, 22193.13
879.0290, 25041.88
880.1590, 27441.44
881.2900, 29415.68
882.4200, 31210.96
883.5500, 31760.77
884.6800, 31145.60
885.8100, 29441.44
886.9400, 27109.41
888.0690, 24067.28
889.1990, 21094.72
890.3280, 18123.22
891.4570, 15334.13
892.5860, 12912.06
893.7140, 10845.99
894.8430, 9175.987
895.9710, 7717.946
897.1000, 6573.917
898.2280, 5661.901
899.3560, 4869.902
900.4830, 4102.917
901.6110, 3592.944
902.7380, 3081.990
903.8660, 2715.118
904.9930, 2518.120
906.1200, 2215.210
907.2460, 1931.313
908.3730, 1737.434
909.5000, 1567.569
910.6260, 1474.727
911.7520, 1276.900
912.8780, 1147.089
914.0040, 1087.298
915.1290, 958.5325
916.2550, 884.7810
917.3800, 830.0464
918.5050, 774.3352
919.6300, 665.6372
920.7550, 590.9536
921.8800, 597.2920
923.0040, 534.6533
924.1290, 539.0327
925.2530, 395.4272
926.3770, 437.8359
927.5010, 361.2588
928.6250, 323.6956
929.7480, 318.1489
930.8720, 334.6160
931.9950, 299.0974
933.1180, 251.5930
934.2410, 247.1030
935.3640, 204.6274
936.4860, 211.1719
937.6090, 184.7314
938.7310, 95.31714
939.8530, 160.9177
940.9750, 218.5322
942.0970, 112.1611
943.2180, 72.80469
944.3400, 108.4626
945.4610, 170.1348
946.5820, 113.8218
947.7030, 130.5232
948.8240, 85.23901
949.9450, 141.9697
951.0650, 8.285400
952.1860, 83.47949
953.3060, 96.25952
954.4260, 50.05518
955.5460, 88.86523
956.6650, 77.69043
957.7850, 64.52979
958.9040, 77.38379
960.0230, 45.25244
961.1420, 84.13574
962.2610, 23.03394
963.3800, 67.94678
964.4990, 25.87769
965.6170, 37.17603
966.7350, 30.77808
967.8530, 78.74683
968.9710, 57.73022
970.0890, 18.72827
971.2070, 79.74072
972.3240, 42.76880
973.4410, 7.184326
974.5580, 44.12402
975.6750, 45.94214
976.7920, 62.02295
977.9090, 15.11841
979.0250, 12.77148
980.1410, 22.35132
981.2580, 5.488770
982.3740, 53.64136
983.4890, 40.80811
984.6050, 26.98950
985.7200, 87.18555
986.8360, 37.39844
987.9510, 13.62573
989.0660, 94.86743
990.1810, 80.12402
991.2950, 36.39478
992.4100, 66.67969
993.5240, 68.97876
994.6390, 11.29248
995.7530, 67.62207
996.8660, 51.96655
997.9800, 56.33984
999.0940, 87.74170
1000.207, 65.16479
1001.320, 53.61646
1002.433, 40.90234
1003.546, 38.58765
1004.659, 0.8942870
1005.772, 15.65576
1006.884, 46.23584
1007.996, 39.83911
1009.108, 31.47168
1010.220, 22.12207
1011.332, 36.81079
1012.444, 57.51880
1013.555, 49.33081
1014.666, 53.08057
1015.777, 34.27710
1016.888, 80.06323
1017.999, 51.86377
1019.110, 51.67725
1020.220, 26.50391
1021.331, 36.78101
1022.441, 28.36182
1023.551, 32.50269
1024.661, 57.69312
1025.770, 53.58569
1026.880, 5.490967
1027.989, 4.589844
1029.098, 6.113281
1030.207, 42.28662
1031.316, 65.24390
1032.425, 94.92822
1033.533, 176.9119
1034.642, 134.3882
1035.750, 21.02490
1036.858, 89.04907
1037.966, 69.08545
1039.073, 78.16162
1040.181, 60.22144
1041.288, 80.72461
1042.396, 105.8079
1043.503, 88.22705
1044.610, 103.3333
1045.716, 46.37866
1046.823, 161.5876
1047.929, 117.6885
1049.036, 166.8384
1050.142, 160.6660
1051.248, 135.9985
1052.353, 175.1799
1053.459, 102.3716
1054.564, 171.4341
1055.670, 92.77783
1056.775, 117.8225
1057.880, 183.3198
1058.985, 137.5610
1060.089, 181.8118
1061.194, 169.0747
1062.298, 122.8020
1063.402, 194.0837
1064.506, 240.3743
1065.610, 160.6746
1066.713, 156.0090
1067.817, 222.3271
1068.920, 228.9624
1070.023, 149.8826
1071.126, 256.3909
1072.229, 313.6711
1073.332, 327.0178
1074.435, 164.8245
1075.537, 229.3347
1076.639, 203.0046
1077.741, 172.9629
1078.843, 269.4138
1079.945, 132.8103
1081.046, 227.2756
1082.148, 229.5120
1083.249, 273.9734
1084.350, 228.3977
1085.451, 209.7498
1086.551, 282.6873
1087.652, 304.8096
1088.752, 247.3796
1089.853, 294.5671
1090.953, 154.8511
1092.053, 179.1704
1093.152, 274.2654
1094.252, 221.4731
1095.351, 270.3801
1096.451, 281.2998
1097.550, 115.6216
1098.649, 255.1467
1099.748, 263.0642
1100.846, 135.0715
1101.945, 264.8892
1103.043, 155.6462
1104.141, 131.8271
1105.239, 173.0591
1106.337, 146.3625
1107.434, 224.3027
1108.532, 201.5591
1109.629, 169.7388
1110.726, 177.5718
1111.823, 72.89990
1112.920, 176.8208
1114.017, 138.3757
1115.113, 170.7075
1116.210, 219.0830
1117.306, 144.6404
1118.402, 200.7219
1119.498, 54.67114
1120.593, 77.35571
1121.689, 81.87280
1122.784, 194.2446
1123.879, 49.19824
1124.974, 67.21216
1126.069, 154.6575
1127.164, 144.9614
1128.259, 175.8855
1129.353, 87.08008
1130.447, 110.7319
1131.541, 103.2505
1132.635, 203.3652
1133.729, 218.5449
1134.822, 130.3896
1135.916, 43.57935
1137.009, 151.4531
1138.102, 74.93457
1139.195, 97.85254
1140.288, 17.96143
1141.380, 27.11157
1142.473, 8.851563
1143.565, 104.6035
1144.657, 19.64307
1145.749, 34.10132
1146.841, 6.133057
1147.932, 8.609375
1149.024, 30.53955
1150.115, 47.28369
1151.206, 56.40112
1152.297, 5.222900
1153.388, 58.52075
1154.479, 11.69287
1155.569, 21.56250
1156.659, 28.17065
1157.750, 61.96558
1158.839, 8.952881
1159.929, 61.87671
1161.019, 92.64917
1162.108, 54.38330
1163.198, 8.883301
1164.287, 20.29297
1165.376, 1.179443
1166.465, 11.30444
1167.553, 18.41016
1168.642, 85.12402
1169.730, 13.16211
1170.818, 72.54150
1171.906, 1.729736
1172.994, 19.00513
1174.082, 34.29883
1175.170, 44.37988
1176.257, 9.947266
1177.344, 12.28491
1178.431, 43.63330
1179.518, 26.99023
1180.605, 4.386475
1181.691, 29.77222
1182.778, 54.82178
1183.864, 69.41455
1184.950, 23.97119
1186.036, 28.39819
1187.122, 5.846436
1188.207, 4.695557
1189.292, 48.27051
1190.378, 25.60620
1191.463, 36.82520
1192.548, 1.469482
1193.632, 17.99146
1194.717, 35.51245
1195.801, 18.12427
1196.886, 14.65845
1197.970, 76.17041
1199.054, 11.98193
1200.137, 11.05200
1201.221, 35.45898
1202.305, 30.20459
1203.388, 22.66235
1204.471, 42.43457
1205.554, 35.88745
1206.637, 36.33643
1207.719, 82.09033
1208.802, 72.04663
1209.884, 158.4951
1210.966, 83.99316
1212.048, 76.62744
1213.130, 84.30225
1214.212, 10.27612
1215.293, 20.11719
1216.374, 14.75903
1217.456, 34.92285
1218.536, 31.31177
1219.617, 67.69653
1220.698, 35.07642
1221.778, 31.35986
1222.859, 107.7600
1223.939, 70.12622
1225.019, 72.48804
1226.099, 4.103516
1227.178, 20.61987
1228.258, 29.22144
1229.337, 42.70923
1230.417, 50.45410
1231.496, 50.51245
1232.574, 53.83228
1233.653, 25.14697
1234.732, 2.455322
1235.810, 43.75903
1236.888, 85.07764
1237.966, 49.84106
1239.044, 151.8667
1240.122, 207.4487
1241.199, 219.0908
1242.277, 55.16846
1243.354, 117.9368
1244.431, 89.85278
1245.508, 58.03784
1246.585, 152.6953
1247.661, 14.28784
1248.738, 106.9272
1249.814, 107.3933
1250.890, 150.0737
1251.966, 101.3232
1253.042, 80.76294
1254.117, 151.6196
1255.193, 171.8345
1256.268, 112.4836
1257.343, 157.7400
1258.418, 16.07642
1259.493, 140.1179
1260.567, 44.40674
1261.642, 77.82324
1262.716, 47.13696
1263.790, 130.5195
1264.864, 86.58154
1265.938, 112.5339
1267.011, 37.07153
1268.085, 105.1785
1269.158, 84.70508
1270.231, 29.79761
1271.304, 7.880371
1272.377, 84.94727
1273.450, 53.00659
1274.522, 90.97266
1275.594, 48.01709
1276.666, 73.62769
1277.738, 34.65698
1278.810, 100.7068
1279.882, 74.02173
