##NAMES=Ferberite
##RRUFFID=R040044
##IDEAL CHEMISTRY=Fe^2+^W^6+^O_4_
##LOCALITY=Chocote, Bolivia
##OWNER=RRUFF
##SOURCE=University of Arizona Mineral Museum
##DESCRIPTION=Black tabular single crystal
##STATUS=The identification of this mineral has been confirmed by X-ray diffraction and chemical analysis
##URL=rruff.info/R040044
##MEASURED CHEMISTRY=(Fe_0.82_Mn_0.08_Mg_0.07_Pb_0.03_)_Î£=1_W_1.00_O_4_
##PIN_ID=M00158
##ORIENTATION=Laser parallel to b* (0 1 0). Fiducial mark perpendicular to laser is parallel to c [0 0 1]
153.096, 0.000
154.480, 0.564
155.863, 174.746
157.247, 118.061
158.630, 49.127
160.013, 89.539
161.396, 2.953
162.779, 177.912
164.161, 292.436
165.544, 373.996
166.926, 430.699
168.308, 407.586
169.689, 343.156
171.070, 293.967
172.452, 118.434
173.833, 129.078
175.213, 71.754
176.594, 20.760
177.974, 51.807
179.354, 104.014
180.734, 14.049
182.114, 62.770
183.493, 144.094
184.872, 165.465
186.251, 353.543
187.630, 481.996
189.008, 451.332
190.387, 450.008
191.765, 567.211
193.143, 734.664
194.520, 926.283
195.898, 1135.742
197.275, 1368.336
198.652, 1612.125
200.029, 1825.691
201.405, 2091.223
202.782, 2308.848
204.158, 2464.992
205.534, 2881.229
206.909, 2983.455
208.285, 3312.211
209.660, 3094.229
211.035, 2696.658
212.410, 2354.814
213.784, 2046.223
215.159, 1745.574
216.533, 1614.061
217.907, 1450.311
219.281, 1171.676
220.654, 1014.814
222.027, 852.947
223.400, 742.791
224.773, 546.080
226.146, 518.535
227.518, 306.807
228.891, 353.822
230.263, 431.793
231.634, 419.812
233.006, 281.322
234.377, 307.811
235.748, 194.902
237.119, 258.225
238.490, 174.084
239.860, 291.238
241.231, 219.586
242.601, 135.904
243.970, 280.100
245.340, 39.740
246.709, 13.822
248.079, 118.502
249.448, 80.123
250.816, 73.822
252.185, 9.520
253.553, 11.918
254.921, 46.424
256.289, 20.154
257.657, 94.078
259.024, 34.746
260.391, 7.889
261.758, 49.600
263.125, 14.775
264.492, 506.141
265.858, 578.602
267.224, 735.541
268.590, 938.965
269.956, 945.488
271.321, 707.605
272.687, 594.053
274.052, 684.652
275.416, 611.879
276.781, 777.164
278.146, 560.010
279.510, 741.658
280.874, 405.102
282.237, 365.516
283.601, 330.088
284.964, 226.746
286.327, 219.078
287.690, 146.809
289.053, 157.697
290.416, 131.496
291.778, 83.877
293.140, 81.326
294.502, 45.279
295.863, 23.572
297.225, 2.426
298.586, 6.066
299.947, 83.812
301.308, 14.438
302.668, 43.617
304.029, 133.980
305.389, 39.383
306.749, 33.971
308.108, 27.102
309.468, 82.096
310.827, 116.369
312.186, 10.410
313.545, 57.273
314.903, 34.359
316.262, 116.645
317.620, 54.879
318.978, 249.008
320.336, 245.373
321.693, 231.752
323.051, 309.307
324.408, 310.666
325.765, 398.871
327.121, 392.992
328.478, 550.934
329.834, 635.918
331.190, 577.445
332.546, 600.330
333.902, 636.010
335.257, 756.188
336.612, 561.012
337.967, 630.746
339.322, 483.699
340.677, 539.939
342.031, 469.820
343.385, 441.064
344.739, 416.729
346.093, 387.553
347.446, 386.707
348.799, 426.023
350.153, 417.484
351.505, 371.180
352.858, 289.451
354.210, 255.412
355.563, 251.566
356.915, 316.176
358.267, 252.365
359.618, 280.994
360.969, 235.820
362.321, 287.051
363.672, 271.938
365.022, 430.516
366.373, 485.748
367.723, 426.656
369.073, 209.273
370.423, 430.533
371.773, 449.453
373.122, 230.209
374.471, 476.832
375.821, 247.324
377.169, 521.672
378.518, 273.891
379.866, 405.971
381.215, 376.900
382.563, 322.098
383.910, 353.260
385.258, 282.670
386.605, 352.766
387.952, 303.795
389.299, 395.434
390.646, 323.924
391.992, 555.283
393.339, 434.711
394.685, 444.859
396.031, 629.721
397.376, 560.629
398.722, 785.414
400.067, 851.674
401.412, 805.027
402.757, 750.391
404.101, 934.078
405.446, 776.744
406.790, 1040.805
408.134, 599.588
409.478, 729.482
410.821, 367.668
412.165, 578.135
413.508, 514.416
414.851, 531.771
416.193, 525.680
417.536, 449.881
418.878, 334.732
420.220, 405.133
421.562, 157.553
422.904, 432.520
424.245, 333.900
425.586, 348.156
426.927, 277.184
428.268, 229.430
429.609, 299.250
430.949, 349.385
432.289, 269.893
433.629, 232.949
434.969, 370.854
436.309, 221.068
437.648, 376.912
438.987, 262.445
440.326, 150.953
441.665, 777.160
443.003, 235.521
444.342, 335.568
445.680, 459.006
447.018, 155.240
448.355, 158.383
449.693, 388.459
451.030, 296.459
452.367, 276.283
453.704, 323.941
455.041, 745.004
456.377, 326.818
457.713, 432.221
459.049, 424.688
460.385, 210.596
461.721, 452.037
463.056, 292.078
464.391, 257.633
465.726, 327.359
467.061, 354.742
468.395, 311.408
469.730, 151.559
471.064, 188.371
472.398, 193.988
473.731, 21.354
475.065, 298.852
476.398, 242.773
477.731, 203.070
479.064, 165.271
480.397, 224.543
481.729, 279.658
483.062, 200.533
484.394, 237.811
485.725, 249.977
487.057, 300.400
488.389, 222.693
489.720, 293.533
491.051, 280.625
492.382, 327.369
493.712, 290.115
495.043, 314.912
496.373, 392.100
497.703, 332.400
499.032, 332.904
500.362, 445.713
501.691, 402.691
503.020, 291.297
504.349, 329.709
505.678, 409.943
507.007, 467.986
508.335, 262.953
509.663, 398.008
510.991, 349.953
512.319, 472.627
513.646, 318.889
514.973, 224.867
516.300, 430.740
517.627, 423.900
518.954, 388.650
520.280, 436.529
521.607, 522.020
522.933, 696.797
524.259, 628.451
525.584, 611.713
526.910, 436.148
528.235, 463.283
529.560, 507.232
530.885, 567.279
532.209, 630.357
533.534, 571.354
534.858, 641.453
536.182, 567.510
537.506, 603.707
538.829, 429.824
540.152, 443.447
541.476, 543.908
542.799, 404.098
544.121, 454.377
545.444, 578.318
546.766, 529.518
548.088, 541.477
549.410, 549.789
550.732, 508.223
552.053, 481.080
553.375, 460.100
554.696, 411.518
556.017, 406.689
557.337, 449.559
558.658, 408.338
559.978, 426.146
561.298, 374.402
562.618, 346.631
563.938, 314.832
565.257, 300.016
566.576, 244.170
567.895, 238.145
569.214, 249.277
570.533, 312.301
571.851, 288.209
573.170, 214.859
574.488, 90.611
575.805, 184.355
577.123, 69.795
578.440, 11.770
579.758, 173.029
581.075, 181.186
582.391, 94.627
583.708, 61.709
585.024, 95.871
586.341, 474.723
587.657, 217.805
588.972, 1202.285
590.288, 23.398
591.603, 18.158
592.918, 129.744
594.233, 646.895
595.548, 76.410
596.863, 4.566
598.177, 79.219
599.491, 272.393
600.805, 25.906
602.119, 156.422
603.432, 23.346
604.746, 115.373
606.059, 100.486
607.372, 78.670
608.685, 5.920
609.997, 210.568
611.309, 39.459
612.621, 197.174
613.933, 121.855
615.245, 43.965
616.557, 247.639
617.868, 172.242
619.179, 80.010
620.490, 66.301
621.801, 114.715
623.111, 89.611
624.421, 107.900
625.731, 1.332
627.041, 182.623
628.351, 98.711
629.660, 37.064
630.970, 117.957
632.279, 38.074
633.588, 141.463
634.896, 113.408
636.205, 153.438
637.513, 23.592
638.821, 255.760
640.129, 74.170
641.437, 139.264
642.744, 40.525
644.051, 207.857
645.358, 163.406
646.665, 165.646
647.972, 162.191
649.278, 219.693
650.584, 350.814
651.890, 308.379
653.196, 255.062
654.502, 484.033
655.807, 279.812
657.113, 448.619
658.418, 488.584
659.722, 500.551
661.027, 465.227
662.331, 644.084
663.636, 837.062
664.940, 1053.041
666.244, 941.684
667.547, 890.674
668.851, 934.672
670.154, 1023.676
671.457, 1195.664
672.760, 1345.289
674.062, 1462.340
675.365, 1776.402
676.667, 2063.480
677.969, 2292.568
679.271, 2501.701
680.572, 2758.098
681.874, 3020.012
683.175, 3227.193
684.476, 3514.385
685.777, 3759.590
687.077, 4043.809
688.378, 4195.088
689.678, 4609.281
690.978, 4592.539
692.278, 4593.812
693.577, 5033.102
694.877, 4749.406
696.176, 4767.727
697.475, 4627.062
698.774, 4658.416
700.072, 4395.787
701.371, 4203.172
702.669, 3896.578
703.967, 3667.691
705.265, 3501.234
706.562, 3227.904
707.860, 3076.383
709.157, 3003.877
710.454, 2565.391
711.751, 2745.920
713.047, 2652.465
714.344, 2189.025
715.640, 2436.600
716.936, 1853.191
718.232, 1849.797
719.527, 1672.418
720.823, 1544.059
722.118, 1473.713
723.413, 1263.385
724.708, 1151.074
726.002, 1350.781
727.297, 1078.508
728.591, 978.254
729.885, 924.021
731.179, 611.656
732.472, 681.463
733.766, 731.090
735.059, 798.770
736.352, 710.643
737.645, 812.541
738.937, 690.441
740.230, 495.242
741.522, 599.211
742.814, 597.203
744.106, 632.223
745.397, 534.266
746.689, 531.875
747.980, 496.369
749.271, 532.490
750.562, 472.637
751.853, 322.812
753.143, 313.951
754.433, 344.182
755.723, 325.438
757.013, 350.814
758.303, 326.070
759.592, 379.107
760.881, 316.084
762.170, 310.303
763.459, 355.262
764.748, 128.416
766.036, 305.400
767.325, 110.875
768.613, 202.895
769.901, 274.477
771.188, 140.939
772.476, 334.590
773.763, 115.268
775.050, 308.916
776.337, 120.457
777.624, 207.238
778.910, 174.057
780.196, 108.779
781.482, 79.211
782.768, 105.129
784.054, 94.330
785.339, 254.326
786.625, 111.357
787.910, 179.527
789.195, 79.693
790.479, 52.846
791.764, 167.037
793.048, 134.424
794.332, 207.525
795.616, 155.824
796.900, 137.158
798.183, 3.533
799.467, 108.941
800.750, 82.387
802.033, 51.969
803.316, 138.387
804.598, 34.059
805.880, 269.529
807.163, 141.152
808.445, 249.812
809.726, 108.506
811.008, 3.234
812.289, 153.000
813.570, 141.803
814.851, 288.641
816.132, 309.516
817.413, 144.426
818.693, 381.373
819.973, 338.354
821.253, 207.377
822.533, 333.766
823.813, 105.861
825.092, 346.814
826.371, 354.195
827.650, 250.402
828.929, 430.646
830.208, 391.977
831.486, 434.303
832.764, 480.088
834.042, 469.479
835.320, 522.430
836.598, 725.285
837.875, 602.783
839.152, 764.326
840.429, 668.904
841.706, 766.635
842.983, 829.574
844.259, 845.441
845.536, 968.785
846.812, 1008.578
848.088, 1080.283
849.363, 1268.164
850.639, 1316.080
851.914, 1531.078
853.189, 1730.115
854.464, 1835.207
855.739, 2142.336
857.013, 2336.500
858.288, 2597.705
859.562, 2950.947
860.836, 3266.227
862.110, 3592.543
863.383, 4200.902
864.656, 4588.291
865.930, 4999.738
867.203, 5520.221
868.475, 6352.766
869.748, 6926.348
871.020, 7903.973
872.292, 8856.633
873.564, 9191.340
874.836, 9813.090
876.108, 10140.914
877.379, 10841.779
878.650, 10892.691
879.922, 10740.648
881.192, 10297.639
882.463, 9945.674
883.733, 9298.748
885.004, 8643.861
886.274, 7959.012
887.544, 7265.100
888.813, 6625.971
890.083, 5905.729
891.352, 5348.049
892.621, 4822.406
893.890, 4226.809
895.159, 4191.250
896.427, 3153.746
897.695, 3890.285
898.964, 3250.863
900.232, 2121.482
901.499, 2150.148
902.767, 1886.852
904.034, 1473.598
905.301, 1416.385
906.568, 1427.225
907.835, 1066.102
909.102, 981.020
910.368, 895.988
911.634, 795.043
912.900, 592.139
914.166, 568.307
915.432, 616.545
916.697, 464.846
917.962, 511.189
919.227, 269.635
920.492, 416.133
921.757, 334.725
923.021, 409.355
924.285, 341.039
925.550, 396.762
926.813, 380.521
928.077, 350.344
929.341, 298.223
930.604, 319.139
931.867, 195.094
933.130, 289.086
934.393, 192.121
935.655, 174.191
936.918, 108.324
938.180, 30.494
939.442, 8.299
940.703, 4.068
941.965, 83.219
943.226, 32.531
944.488, 96.639
945.749, 89.266
947.009, 111.684
948.270, 142.141
949.530, 125.637
950.791, 142.170
952.051, 143.096
953.311, 145.326
954.570, 176.965
955.830, 187.637
957.089, 170.504
958.348, 164.680
959.607, 145.457
960.866, 86.268
962.124, 105.949
963.383, 77.615
964.641, 173.914
965.899, 109.867
967.156, 102.855
968.414, 224.877
969.671, 144.932
970.928, 50.020
972.185, 160.141
973.442, 21.705
974.699, 158.477
975.955, 104.311
977.211, 56.088
978.468, 57.150
979.723, 101.420
980.979, 50.281
982.234, 71.041
983.490, 211.602
984.745, 35.727
986.000, 64.914
987.254, 60.535
988.509, 57.861
989.763, 59.119
991.017, 88.574
992.271, 5.516
993.525, 88.000
994.779, 255.547
996.032, 326.123
997.285, 149.727
998.538, 39.031
999.791, 133.625
1001.044, 62.305
1002.296, 57.156
1003.548, 220.109
1004.800, 288.969
1006.052, 250.158
1007.304, 121.596
1008.555, 114.449
1009.807, 71.082
1011.058, 91.242
1012.309, 63.184
1013.559, 183.160
1014.810, 249.166
1016.060, 335.010
1017.310, 318.625
1018.560, 371.170
1019.810, 250.090
1021.060, 351.426
1022.309, 336.805
1023.558, 233.553
1024.807, 335.119
1026.056, 300.707
1027.305, 106.795
1028.553, 292.557
1029.801, 256.121
1031.049, 177.996
1032.297, 319.604
1033.545, 388.236
1034.793, 483.910
1036.040, 361.621
1037.287, 162.389
1038.534, 197.250
1039.781, 440.053
1041.027, 278.885
1042.274, 361.732
1043.520, 246.609
1044.766, 283.562
1046.012, 156.543
1047.257, 277.705
1048.503, 409.676
1049.748, 416.674
1050.993, 550.689
1052.238, 436.723
1053.483, 568.562
1054.727, 304.617
1055.971, 417.346
1057.216, 387.420
1058.459, 362.506
1059.703, 280.598
1060.947, 336.838
1062.190, 397.975
1063.433, 410.213
1064.676, 451.350
1065.919, 443.496
1067.162, 487.648
1068.404, 359.266
1069.646, 538.520
1070.888, 534.699
1072.130, 427.352
1073.372, 450.857
1074.613, 413.057
1075.855, 462.260
1077.096, 460.131
1078.337, 533.684
1079.578, 470.996
1080.818, 411.750
1082.059, 372.971
1083.299, 407.195
1084.539, 315.420
1085.779, 377.646
1087.018, 366.877
1088.258, 422.109
1089.497, 288.287
1090.736, 516.469
1091.975, 406.705
1093.213, 311.025
1094.452, 480.258
1095.690, 208.686
1096.928, 191.094
1098.166, 319.742
1099.404, 327.029
1100.642, 340.172
1101.879, 305.262
1103.116, 347.479
1104.353, 355.984
1105.590, 363.191
1106.827, 477.242
1108.063, 356.443
1109.299, 310.102
1110.536, 358.838
1111.771, 239.016
1113.007, 235.914
1114.243, 348.189
1115.478, 218.352
1116.713, 322.693
1117.948, 346.824
1119.183, 192.191
1120.418, 446.920
1121.652, 494.020
1122.886, 918.773
1124.120, 831.072
1125.354, 539.305
1126.588, 438.133
1127.821, 61.361
1129.055, 226.541
1130.288, 140.637
1131.521, 265.834
1132.753, 119.076
1133.986, 98.646
1135.218, 192.523
1136.450, 87.545
1137.682, 4.328
1138.914, 85.219
1140.146, 104.432
1141.377, 32.154
1142.609, 177.424
1143.840, 212.824
1145.071, 138.971
1146.301, 35.586
1147.532, 197.059
1148.762, 198.256
1149.992, 171.775
1151.222, 16.109
1152.452, 39.988
1153.682, 92.012
1154.911, 32.916
1156.140, 48.857
1157.369, 173.146
1158.598, 807.121
1159.827, 359.537
1161.055, 541.695
1162.284, 560.414
1163.512, 22.971
1164.740, 23.451
1165.967, 50.592
1167.195, 75.244
1168.422, 102.547
1169.650, 160.217
1170.877, 19.461
1172.103, 106.113
1173.330, 95.910
1174.557, 168.455
1175.783, 9.574
1177.009, 116.902
1178.235, 64.934
1179.461, 148.729
1180.686, 177.721
1181.912, 137.395
1183.137, 191.379
1184.362, 198.314
1185.587, 144.957
1186.811, 292.117
1188.036, 336.564
1189.260, 299.605
1190.484, 286.881
1191.708, 176.125
1192.932, 1.848
1194.155, 148.109
1195.378, 473.549
1196.602, 268.928
1197.825, 472.340
1199.047, 235.014
1200.270, 92.041
1201.492, 324.043
1202.715, 61.020
1203.937, 356.965
1205.159, 267.887
1206.380, 236.041
1207.602, 201.334
1208.823, 294.795
1210.044, 217.068
1211.265, 357.398
1212.486, 301.721
1213.707, 332.891
1214.927, 147.998
1216.147, 239.988
1217.367, 275.551
1218.587, 154.725
1219.807, 194.891
1221.027, 396.000
1222.246, 322.533
1223.465, 303.510
1224.684, 364.043
1225.903, 261.480
1227.121, 163.887
1228.340, 419.250
1229.558, 340.584
1230.776, 368.994
1231.994, 344.531
1233.212, 374.303
1234.429, 435.508
1235.646, 299.941
1236.864, 346.129
1238.081, 378.533
1239.297, 295.580
1240.514, 478.586
1241.730, 274.885
1242.947, 282.811
1244.163, 227.693
1245.378, 315.535
1246.594, 340.324
1247.810, 176.068
1249.025, 365.762
1250.240, 271.396
1251.455, 402.973
1252.670, 178.363
1253.885, 401.576
1255.099, 239.621
1256.313, 221.850
1257.527, 420.725
1258.741, 201.598
1259.955, 332.312
1261.168, 176.244
1262.382, 315.691
1263.595, 424.076
1264.808, 308.385
1266.021, 224.590
1267.233, 369.814
1268.446, 553.021
1269.658, 319.061
1270.870, 387.123
1272.082, 418.969
1273.294, 330.766
1274.505, 341.496
1275.716, 343.160
1276.928, 175.766
1278.139, 143.428
1279.349, 240.074
1280.560, 276.486
1281.770, 270.834
1282.981, 337.121
1284.191, 237.510
1285.401, 274.664
1286.610, 207.730
1287.820, 268.336
1289.029, 237.621
1290.239, 290.344
1291.448, 230.104
1292.656, 215.336
1293.865, 257.943
1295.073, 308.467
1296.282, 157.070
1297.490, 154.221
1298.698, 141.414
1299.906, 261.617
1301.113, 247.742
1302.320, 149.799
1303.528, 179.781
1304.735, 111.918
1305.942, 77.748
1307.148, 152.498
1308.355, 103.822
1309.561, 39.033
1310.767, 96.041
1311.973, 33.703
1313.179, 121.350
1314.384, 0.236
1315.590, 57.850
1316.795, 220.320
1318.000, 32.182
1319.205, 77.258
1320.410, 147.984
1321.614, 73.943
1322.819, 146.104
1324.023, 23.301
1325.227, 143.727
1326.431, 24.393
1327.634, 34.340
1328.838, 65.400
1330.041, 328.703
1331.244, 120.664
1332.447, 56.654
1333.650, 216.553
1334.852, 28.146
1336.055, 59.574
1337.257, 202.756
1338.459, 6.775
1339.661, 148.791
1340.862, 39.916
1342.064, 99.150
1343.265, 127.414
1344.466, 632.324
1345.667, 705.012
1346.868, 610.670
1348.068, 542.381
1349.269, 386.529
1350.469, 322.004
1351.669, 284.637
1352.869, 239.051
1354.069, 280.395
1355.268, 260.287
1356.468, 258.170
1357.667, 290.311
1358.866, 299.377
1360.065, 322.336
1361.263, 212.158
1362.462, 267.777
1363.660, 262.840
1364.858, 270.471
1366.056, 422.137
1367.254, 289.330
1368.451, 387.752
1369.649, 492.869
1370.846, 467.268
1372.043, 478.572
1373.240, 473.006
1374.436, 379.988
1375.633, 343.061
1376.829, 280.771
1378.025, 416.467
1379.221, 346.766
1380.417, 393.678
1381.613, 333.898
1382.808, 445.566
1384.003, 457.523
1385.199, 332.143
1386.393, 461.143
1387.588, 647.307
1388.783, 491.441
1389.977, 552.258
1391.171, 476.990
1392.365, 484.248
1393.559, 458.480
1394.753, 540.693
1395.946, 477.480
1397.140, 430.125
1398.333, 326.963
1399.526, 262.898
1400.719, 465.951
1401.911, 297.504
1403.104, 383.012
1404.296, 230.217
1405.488, 422.619
1406.680, 338.586
1407.872, 299.816
1409.063, 284.471
1410.255, 224.400
1411.446, 200.471
1412.637, 216.021
1413.828, 196.127
1415.018, 322.988
1416.209, 444.035
1417.399, 303.064
1418.589, 362.846
1419.779, 307.283
1420.969, 193.002
1422.159, 182.541
1423.348, 247.455
1424.537, 872.543
1425.726, 403.311
1426.915, 726.904
1428.104, 773.320
1429.293, 192.461
1430.481, 577.072
1431.669, 792.963
1432.857, 125.506
1434.045, 194.615
1435.233, 136.256
1436.420, 167.482
1437.608, 186.291
1438.795, 84.209
1439.982, 242.406
1441.169, 214.051
1442.355, 144.393
1443.542, 186.344
1444.728, 173.732
1445.914, 239.025
1447.100, 73.875
1448.286, 135.967
1449.472, 142.572
1450.657, 346.076
1451.842, 167.096
1453.027, 107.496
1454.212, 215.781
1455.397, 77.879
1456.581, 159.211
1457.766, 83.139
1458.950, 175.656
1460.134, 236.396
1461.318, 145.312
1462.501, 85.441
1463.685, 150.699
1464.868, 48.068
1466.051, 133.424
1467.234, 93.809
1468.417, 25.262
1469.600, 143.371
1470.782, 15.217
1471.965, 91.355
1473.147, 133.730
1474.329, 145.148
1475.510, 173.943
1476.692, 81.410
1477.873, 95.238
1479.055, 19.338
1480.236, 0.000
##END=



