##NAMES=Ferberite
##RRUFFID=R050090
##IDEAL CHEMISTRY=Fe^2+^W^6+^O_4_
##LOCALITY=Yaogangxian mine, Cheng Zhu City, South Hunan, China
##OWNER=RRUFF
##SOURCE=Rock Currier
##DESCRIPTION=Dark gray tabular crystal
##STATUS=The identification of this mineral has been confirmed by X-ray diffraction and chemical analysis
##URL=rruff.info/R050090
##MEASURED CHEMISTRY=(Fe^2+^_0.56_Mn_0.44_)W_1.00_O_4_
##PIN_ID=L01590
##ORIENTATION=Laser parallel to (1 0 1). Fiducial mark perpendicular to laser is parallel to b [0 1 0]
98.41600, 0.0000000E+00
99.64900, 1.359375
100.8830, 191.5737
102.1160, 410.6580
103.3490, 186.4468
104.5820, 23.73706
105.8150, 111.8052
107.0470, 203.4282
108.2800, 253.2839
109.5120, 129.4028
110.7440, 233.7317
111.9760, 248.4167
113.2080, 260.3220
114.4400, 399.5210
115.6710, 306.4880
116.9030, 1080.772
118.1340, 1035.719
119.3650, 809.3811
120.5960, 665.5325
121.8270, 625.0088
123.0580, 1058.697
124.2880, 1068.198
125.5190, 1725.391
126.7490, 1981.291
127.9790, 2696.178
129.2090, 4183.285
130.4390, 6345.523
131.6680, 7256.358
132.8980, 6168.559
134.1270, 4400.809
135.3560, 2721.037
136.5850, 1872.831
137.8140, 1385.506
139.0430, 1090.694
140.2710, 1128.352
141.5000, 1257.524
142.7280, 1079.256
143.9560, 893.5886
145.1840, 790.5608
146.4120, 759.2290
147.6390, 805.5959
148.8670, 856.6804
150.0940, 797.5063
151.3210, 755.1011
152.5490, 720.5811
153.7750, 696.7397
155.0020, 622.6128
156.2290, 610.4023
157.4550, 548.5093
158.6810, 453.2390
159.9080, 454.5388
161.1340, 457.8848
162.3590, 428.4314
163.5850, 530.3025
164.8110, 812.7632
166.0360, 1076.742
167.2610, 1435.399
168.4860, 1574.114
169.7110, 1969.703
170.9360, 2046.436
172.1610, 2360.303
173.3850, 2097.078
174.6100, 1634.287
175.8340, 1358.267
177.0580, 1181.242
178.2820, 1159.267
179.5050, 1160.782
180.7290, 1087.913
181.9520, 1019.098
183.1760, 1015.334
184.3990, 887.6191
185.6220, 880.9497
186.8450, 965.3230
188.0670, 1120.737
189.2900, 1085.188
190.5120, 1178.674
191.7340, 1173.473
192.9560, 1356.984
194.1780, 1493.545
195.4000, 1465.386
196.6220, 1512.998
197.8430, 1630.637
199.0640, 1629.317
200.2860, 1734.025
201.5070, 1905.750
202.7270, 2263.810
203.9480, 2487.560
205.1690, 2303.325
206.3890, 1571.128
207.6090, 998.8860
208.8290, 779.6387
210.0490, 691.3828
211.2690, 541.1172
212.4890, 502.8418
213.7080, 464.5574
214.9280, 352.6387
216.1470, 330.9612
217.3660, 192.6497
218.5850, 65.32983
219.8030, 1.546631
221.0220, 82.66479
222.2400, 53.67993
223.4590, 34.03271
224.6770, 19.60693
225.8950, 16.76172
227.1120, 25.13794
228.3300, 27.47754
229.5480, 29.91431
230.7650, 10.68604
231.9820, 30.27222
233.1990, 6.178711
234.4160, 0.7106930
235.6330, 10.29492
236.8490, 51.93726
238.0660, 63.63135
239.2820, 64.34717
240.4980, 73.80151
241.7140, 48.97681
242.9300, 64.93384
244.1460, 46.98486
245.3610, 39.46924
246.5770, 36.37842
247.7920, 60.08057
249.0070, 60.40723
250.2220, 3.698486
251.4370, 9.201660
252.6510, 102.4546
253.8660, 20.51953
255.0800, 125.0491
256.2940, 224.2041
257.5080, 279.4395
258.7220, 159.1335
259.9360, 265.5298
261.1490, 281.0505
262.3630, 292.8789
263.5760, 431.1509
264.7890, 336.3513
266.0020, 453.2671
267.2150, 506.2407
268.4270, 553.1985
269.6400, 534.1387
270.8520, 501.0615
272.0640, 500.9656
273.2760, 462.8511
274.4880, 379.7175
275.7000, 277.5637
276.9120, 355.3848
278.1230, 375.1782
279.3340, 311.9414
280.5450, 288.6699
281.7560, 229.4958
282.9670, 203.1816
284.1780, 181.9202
285.3880, 77.06348
286.5980, 201.7690
287.8090, 279.7805
289.0190, 313.9714
290.2290, 172.4690
291.4380, 258.0552
292.6480, 252.2754
293.8570, 242.8604
295.0670, 341.3328
296.2760, 346.5586
297.4850, 432.1484
298.6930, 425.2146
299.9020, 390.6270
301.1110, 301.0796
302.3190, 271.4727
303.5270, 225.8149
304.7350, 221.2385
305.9430, 155.5576
307.1510, 213.7959
308.3580, 226.9978
309.5660, 206.9971
310.7730, 266.9036
311.9800, 199.7664
313.1870, 222.5798
314.3940, 290.2986
315.6010, 299.9185
316.8070, 346.4326
318.0130, 332.8762
319.2200, 452.2385
320.4260, 496.5500
321.6310, 523.8440
322.8370, 696.1216
324.0430, 746.3994
325.2480, 904.7537
326.4540, 919.0278
327.6590, 880.3003
328.8640, 932.5730
330.0680, 905.8435
331.2730, 897.1167
332.4780, 851.3909
333.6820, 753.6626
334.8860, 635.9314
336.0900, 659.1968
337.2940, 599.4580
338.4980, 555.7129
339.7010, 579.9644
340.9050, 545.2117
342.1080, 546.4551
343.3110, 512.6941
344.5140, 485.9292
345.7170, 515.1597
346.9200, 447.3857
348.1220, 530.6055
349.3240, 510.8210
350.5270, 491.0317
351.7290, 503.2373
352.9310, 515.4377
354.1320, 518.0366
355.3340, 517.8250
356.5350, 539.0115
357.7370, 579.1924
358.9380, 585.3689
360.1390, 559.5408
361.3400, 486.7078
362.5400, 427.6438
363.7410, 454.8826
364.9410, 417.8135
366.1410, 440.2034
367.3410, 445.8970
368.5410, 414.8411
369.7410, 419.4458
370.9400, 324.6528
372.1400, 372.2058
373.3390, 309.0842
374.5380, 248.3701
375.7370, 279.0059
376.9360, 317.9360
378.1350, 284.7595
379.3330, 306.9441
380.5310, 326.5454
381.7300, 292.5518
382.9280, 261.8447
384.1260, 257.1118
385.3230, 263.8062
386.5210, 263.0803
387.7180, 294.7639
388.9160, 416.8286
390.1130, 403.7437
391.3100, 494.8542
392.5060, 628.4800
393.7030, 667.0981
394.9000, 864.2854
396.0960, 1087.206
397.2920, 1334.752
398.4880, 1463.969
399.6840, 1461.595
400.8800, 1465.600
402.0750, 1185.596
403.2710, 1017.341
404.4660, 848.3184
405.6610, 779.2866
406.8560, 622.2451
408.0510, 556.1943
409.2450, 427.1340
410.4400, 445.0645
411.6340, 361.9856
412.8280, 307.8970
414.0220, 323.7993
415.2160, 207.6921
416.4100, 180.5759
417.6030, 190.4504
418.7970, 139.3159
419.9900, 158.1755
421.1830, 109.0229
422.3760, 125.8613
423.5690, 70.69067
424.7610, 34.51172
425.9540, 57.34521
427.1460, 34.10229
428.3380, 65.76147
429.5300, 1.968750
430.7220, 56.69482
431.9140, 15.46143
433.1050, 40.21826
434.2970, 14.20044
435.4880, 53.53564
436.6790, 21.26392
437.8700, 8.006836
439.0610, 26.22510
440.2510, 4.598389
441.4420, 41.86157
442.6320, 21.81470
443.8220, 8.711182
445.0120, 21.58838
446.2020, 35.90430
447.3910, 13.67505
448.5810, 39.08838
449.7700, 33.16797
450.9600, 26.81079
452.1490, 69.28027
453.3370, 88.57544
454.5260, 79.39478
455.7150, 124.8418
456.9030, 74.47485
458.0910, 72.46021
459.2800, 117.6155
460.4670, 95.45386
461.6550, 117.3093
462.8430, 110.8081
464.0300, 86.56274
465.2180, 154.6790
466.4050, 159.3955
467.5920, 62.99194
468.7790, 158.6013
469.9650, 124.1870
471.1520, 83.05884
472.3380, 159.6345
473.5250, 132.1953
474.7110, 145.4529
475.8970, 172.0134
477.0820, 81.56812
478.2680, 157.1177
479.4540, 89.66235
480.6390, 139.4519
481.8240, 153.0327
483.0090, 150.5615
484.1940, 204.0469
485.3780, 124.6033
486.5630, 268.1167
487.7470, 145.6248
488.9320, 127.1274
490.1160, 156.6250
491.3000, 144.1169
492.4830, 170.6045
493.6670, 148.0862
494.8500, 169.5630
496.0340, 168.0347
497.2170, 179.5012
498.4000, 214.9626
499.5820, 242.4185
500.7650, 158.8696
501.9480, 265.3154
503.1300, 179.7563
504.3120, 239.1919
505.4940, 297.6235
506.6760, 351.0542
507.8580, 389.4897
509.0390, 375.9233
510.2210, 383.3757
511.4020, 387.8418
512.5830, 346.3083
513.7640, 343.7839
514.9450, 372.2703
516.1250, 330.7571
517.3060, 285.2559
518.4860, 200.7563
519.6660, 204.3704
520.8460, 280.7622
522.0260, 199.2722
523.2060, 247.7886
524.3850, 264.3220
525.5650, 289.8757
526.7440, 248.4500
527.9230, 267.0469
529.1020, 277.6599
530.2810, 312.2930
531.4590, 390.9417
532.6380, 401.6038
533.8160, 383.4363
534.9940, 374.7908
536.1720, 318.6841
537.3500, 332.4001
538.5270, 341.1213
539.7050, 423.8401
540.8820, 358.5664
542.0590, 330.2900
543.2360, 419.0088
544.4130, 336.7227
545.5900, 288.4336
546.7660, 318.1394
547.9430, 314.8411
549.1190, 315.5381
550.2950, 317.2307
551.4710, 258.9189
552.6470, 238.6030
553.8220, 170.2827
554.9980, 135.9583
556.1730, 230.6296
557.3480, 151.2969
558.5230, 240.9600
559.6980, 91.61890
560.8730, 35.27417
562.0470, 100.9253
563.2220, 61.57251
564.3960, 132.2158
565.5700, 125.8552
566.7440, 28.35449
567.9170, 112.9485
569.0910, 65.44458
570.2640, 127.0698
571.4380, 103.4285
572.6110, 148.0205
573.7840, 82.43970
574.9570, 70.96240
576.1290, 78.04028
577.3020, 106.6189
578.4740, 23.06201
579.6460, 14.44922
580.8180, 5.889893
581.9900, 39.62549
583.1620, 23.87695
584.3330, 11.50977
585.5040, 27.21362
586.6760, 54.14746
587.8470, 36.81519
589.0180, 98.92993
590.1880, 17.70459
591.3590, 14.47534
592.5290, 68.37134
593.7000, 2.100830
594.8700, 7.557373
596.0400, 0.2451170
597.2090, 2.509521
598.3790, 8.255127
599.5490, 27.02734
600.7180, 19.86792
601.8870, 14.99683
603.0560, 30.33887
604.2250, 1.709473
605.3940, 23.56030
606.5620, 23.04590
607.7300, 80.16455
608.8990, 28.20093
610.0670, 103.3132
611.2350, 16.42261
612.4020, 36.52588
613.5700, 1.626465
614.7370, 6.714355
615.9050, 61.79272
617.0720, 73.86816
618.2390, 32.94141
619.4060, 47.01196
620.5720, 16.08032
621.7390, 25.14307
622.9050, 75.20264
624.0710, 82.26001
625.2370, 157.3152
626.4030, 103.3682
627.5690, 39.41919
628.7340, 56.46802
629.9000, 114.5149
631.0650, 138.5596
632.2300, 103.6028
633.3950, 91.64380
634.5600, 96.32324
635.7240, 116.7212
636.8890, 102.7571
638.0530, 98.79175
639.2170, 121.8250
640.3810, 176.8562
641.5450, 146.8865
642.7080, 132.9153
643.8720, 142.9429
645.0350, 99.96899
646.1980, 170.9941
647.3610, 172.0181
648.5240, 181.0408
649.6870, 141.0625
650.8490, 237.0833
652.0120, 168.1025
653.1740, 204.1211
654.3360, 105.1387
655.4980, 244.1550
656.6600, 164.1704
657.8210, 342.1846
658.9830, 241.1980
660.1440, 346.2102
661.3050, 326.2217
662.4660, 265.2319
663.6270, 408.2417
664.7870, 396.2502
665.9480, 417.2581
667.1080, 520.2646
668.2680, 439.2700
669.4280, 498.2744
670.5880, 599.2778
671.7480, 615.2805
672.9070, 659.2820
674.0670, 654.2825
675.2260, 781.2817
676.3850, 797.2798
677.5440, 819.2788
678.7030, 813.2771
679.8610, 897.2742
681.0200, 897.2703
682.1780, 834.2654
683.3360, 921.2595
684.4940, 958.2556
685.6520, 972.2576
686.8090, 1029.259
687.9670, 1052.266
689.1240, 1087.272
690.2810, 1089.290
691.4380, 1100.308
692.5950, 1088.325
693.7520, 1164.343
694.9080, 1108.360
696.0650, 1027.378
697.2210, 1051.395
698.3770, 964.4199
699.5330, 940.4460
700.6880, 822.4683
701.8440, 821.4944
702.9990, 715.5210
704.1550, 737.5481
705.3100, 612.5801
706.4650, 598.5947
707.6190, 518.6323
708.7740, 483.6724
709.9290, 381.7131
711.0830, 339.7559
712.2370, 308.8018
713.3910, 315.8491
714.5450, 263.8982
715.6980, 201.9546
716.8520, 200.0120
718.0050, 179.0479
719.1580, 202.0518
720.3110, 177.1870
721.4640, 55.20459
722.6170, 52.26855
723.7700, 18.10669
724.9220, 5.536377
726.0740, 31.08618
727.2260, 6.697021
728.3780, 14.59375
729.5300, 14.98560
730.6810, 11.03735
731.8330, 19.25757
732.9840, 25.35767
734.1350, 122.0503
735.2860, 7.493164
736.4370, 60.46729
737.5880, 84.13330
738.7380, 68.93823
739.8880, 4.983887
741.0390, 9.949951
742.1890, 31.26489
743.3380, 75.62744
744.4880, 51.89673
745.6380, 53.70435
746.7870, 85.71606
747.9360, 131.7153
749.0850, 168.7390
750.2340, 162.4780
751.3830, 269.5139
752.5310, 310.5659
753.6800, 267.9226
754.8280, 280.9778
755.9760, 463.0396
757.1240, 462.1079
758.2720, 565.1829
759.4190, 753.0151
760.5670, 823.0571
761.7140, 896.1533
762.8610, 974.2563
764.0080, 1094.367
765.1550, 1329.484
766.3020, 1447.608
767.4480, 1543.340
768.5950, 1621.880
769.7410, 1690.941
770.8870, 1854.182
772.0330, 1767.344
773.1780, 1836.514
774.3240, 1817.692
775.4690, 1689.878
776.6140, 1838.072
777.7590, 1742.273
778.9040, 1583.483
780.0490, 1493.702
781.1940, 1433.928
782.3380, 1367.163
783.4820, 1382.407
784.6260, 1225.659
785.7700, 1112.920
786.9140, 1121.190
788.0580, 1054.469
789.2010, 956.7568
790.3450, 882.0537
791.4880, 858.3601
792.6310, 849.6763
793.7730, 788.0012
794.9160, 759.3359
796.0590, 715.6870
797.2010, 674.0342
798.3430, 618.3979
799.4850, 593.7710
800.6270, 539.1543
801.7690, 556.5471
802.9100, 462.9507
804.0520, 431.3635
805.1930, 403.7869
806.3340, 324.2205
807.4750, 326.6641
808.6160, 312.2065
809.7560, 278.6711
810.8970, 305.1462
812.0370, 254.6318
813.1770, 342.1282
814.3170, 263.1765
815.4570, 286.6938
816.5960, 302.2227
817.7360, 242.7625
818.8750, 251.3127
820.0140, 315.8743
821.1530, 257.1306
822.2920, 293.1060
823.4310, 313.7009
824.5690, 253.7998
825.7070, 310.4170
826.8460, 301.6504
827.9840, 356.4077
829.1220, 320.0583
830.2590, 441.8657
831.3970, 419.5388
832.5340, 487.2229
833.6710, 518.9187
834.8080, 438.3462
835.9450, 514.2510
837.0820, 556.9812
838.2190, 620.7227
839.3550, 698.4756
840.4910, 753.6975
841.6270, 856.1304
842.7630, 891.4590
843.8990, 962.9954
845.0350, 1038.543
846.1700, 1072.367
847.3060, 1124.201
848.4410, 1245.486
849.5760, 1302.344
850.7100, 1417.215
851.8450, 1581.893
852.9800, 1728.787
854.1140, 1920.694
855.2480, 2211.690
856.3820, 2408.390
857.5160, 2805.491
858.6500, 2995.464
859.7830, 3181.460
860.9170, 3660.473
862.0500, 3948.765
863.1830, 4490.830
864.3160, 4983.238
865.4480, 5691.371
866.5810, 6290.524
867.7130, 6978.689
868.8460, 7814.888
869.9780, 8966.738
871.1100, 10301.06
872.2410, 11513.85
873.3730, 13096.11
874.5050, 14982.40
875.6360, 16837.10
876.7670, 19213.44
877.8980, 21774.32
879.0290, 24058.22
880.1590, 26222.62
881.2900, 27927.57
882.4200, 29090.42
883.5500, 29366.87
884.6800, 28865.34
885.8100, 27140.83
886.9400, 24656.33
888.0690, 22099.85
889.1990, 19443.38
890.3280, 16854.93
891.4570, 15393.49
892.5860, 12716.68
893.7140, 10861.67
894.8430, 8590.279
895.9710, 7209.905
897.1000, 6012.542
898.2280, 5110.196
899.3560, 4294.863
900.4830, 3761.543
901.6110, 3271.238
902.7380, 2847.947
903.8660, 2459.670
904.9930, 2238.407
906.1200, 1990.157
907.2460, 1678.922
908.3730, 1467.701
909.5000, 1440.494
910.6260, 1182.301
911.7520, 1170.123
912.8780, 980.9614
914.0040, 929.8174
915.1290, 760.6897
916.2550, 628.5762
917.3800, 671.5024
918.5050, 704.4434
919.6300, 527.4109
920.7550, 439.4043
921.8800, 411.4182
923.0040, 412.4565
924.1290, 337.5244
925.2530, 325.6082
926.3770, 286.7063
927.5010, 321.8184
928.6250, 209.9443
929.7480, 206.0842
930.8720, 152.2380
931.9950, 176.4053
933.1180, 94.58667
934.2410, 104.7817
935.3640, 47.99121
936.4860, 50.21436
937.6090, 68.45483
938.7310, 50.71558
939.8530, 55.23657
940.9750, 74.27930
942.0970, 51.58154
943.2180, 4.102295
944.3400, 4.225830
945.4610, 31.56787
946.5820, 2.924805
947.7030, 53.30005
948.8240, 18.30469
949.9450, 57.09863
951.0650, 68.51538
952.1860, 5.945801
953.3060, 15.38892
954.4260, 33.84644
955.5460, 21.68286
956.6650, 38.20532
957.7850, 20.27344
958.9040, 40.23486
960.0230, 9.256592
961.1420, 63.23926
962.2610, 4.745117
963.3800, 54.76123
964.4990, 5.719727
965.6170, 57.81055
966.7350, 16.35425
967.8530, 21.91089
968.9710, 44.52002
970.0890, 6.953369
971.2070, 8.624023
972.3240, 11.21387
973.4410, 40.81738
974.5580, 90.43311
975.6750, 30.93774
976.7920, 22.30688
977.9090, 55.32935
979.0250, 9.021973
980.1410, 5.635986
981.2580, 63.30615
982.3740, 14.01123
983.4890, 14.67920
984.6050, 6.381592
985.7200, 22.90405
986.8360, 79.81494
987.9510, 83.54590
989.0660, 116.2947
990.1810, 47.05518
991.2950, 104.8320
992.4100, 98.62085
993.5240, 46.42090
994.6390, 103.2327
995.7530, 103.0566
996.8660, 67.10498
997.9800, 125.7466
999.0940, 43.61206
1000.207, 70.48804
1001.320, 152.3774
1002.433, 49.27734
1003.546, 13.18799
1004.659, 70.11597
1005.772, 80.11963
1006.884, 46.10034
1007.996, 120.0913
1009.108, 21.09302
1010.220, 94.12036
1011.332, 49.15747
1012.444, 75.20728
1013.555, 56.66138
1014.666, 53.93799
1015.777, 34.26099
1016.888, 76.06738
1017.999, 139.9670
1019.110, 159.9338
1020.220, 4.351807
1021.331, 75.47510
1022.441, 56.02490
1023.551, 32.59009
1024.661, 135.6418
1025.770, 5.684326
1026.880, 106.7485
1027.989, 115.7527
1029.098, 166.8152
1030.207, 126.4810
1031.316, 114.3865
1032.425, 193.7402
1033.533, 222.4675
1034.642, 171.6433
1035.750, 225.4392
1036.858, 92.32983
1037.966, 123.2495
1039.073, 224.9419
1040.181, 178.7517
1041.288, 234.2576
1042.396, 251.0449
1043.503, 91.83008
1044.610, 238.7212
1045.716, 254.0750
1046.823, 133.2493
1047.929, 270.1956
1049.036, 167.5569
1050.142, 156.3005
1051.248, 164.3008
1052.353, 198.3547
1053.459, 155.5864
1054.564, 242.4043
1055.670, 195.2100
1056.775, 202.1152
1057.880, 232.0703
1058.985, 210.4771
1060.089, 222.8887
1061.194, 217.3057
1062.298, 230.7278
1063.402, 261.1548
1064.506, 233.5864
1065.610, 246.0266
1066.713, 234.4717
1067.817, 304.0491
1068.920, 261.5039
1070.023, 202.7581
1071.126, 287.7603
1072.229, 349.2283
1073.332, 269.7761
1074.435, 205.2522
1075.537, 234.7324
1076.639, 240.1282
1077.741, 212.6807
1078.843, 286.4287
1079.945, 280.0215
1081.046, 296.0513
1082.148, 252.0115
1083.249, 258.5161
1084.350, 273.0234
1085.451, 155.5339
1086.551, 324.2285
1087.652, 246.7681
1088.752, 175.6033
1089.853, 171.9224
1090.953, 173.4468
1092.053, 134.4805
1093.152, 219.0100
1094.252, 233.9373
1095.351, 127.4333
1096.451, 230.3267
1097.550, 286.6431
1098.649, 299.3428
1099.748, 136.3132
1100.846, 199.9910
1101.945, 171.0977
1103.043, 140.0586
1104.141, 235.6479
1105.239, 98.31128
1106.337, 191.9194
1107.434, 193.3689
1108.532, 235.8259
1109.629, 187.2397
1110.726, 167.6440
1111.823, 239.2275
1112.920, 260.4426
1114.017, 202.0955
1115.113, 247.9292
1116.210, 107.2859
1117.306, 130.6675
1118.402, 224.0220
1119.498, 170.2820
1120.593, 219.5530
1121.689, 228.7759
1122.784, 62.98242
1123.879, 202.2991
1124.974, 209.2402
1126.069, 80.26050
1127.164, 209.3252
1128.259, 99.08423
1129.353, 74.18164
1130.447, 113.5254
1131.541, 85.89600
1132.635, 164.3352
1133.729, 140.5720
1134.822, 107.7278
1135.916, 114.5266
1137.009, 8.982422
1138.102, 111.8625
1139.195, 72.36963
1140.288, 103.6462
1141.380, 150.9680
1142.473, 75.45801
1143.565, 129.9863
1144.657, 17.13745
1145.749, 4.453613
1146.841, 7.872559
1147.932, 117.7380
1149.024, 104.4453
1150.115, 83.05078
1151.206, 66.61328
1152.297, 88.17432
1153.388, 2.733887
1154.479, 93.28955
1155.569, 57.84326
1156.659, 11.39966
1157.750, 40.95288
1158.839, 6.503906
1159.929, 49.48340
1161.019, 120.4077
1162.108, 34.94995
1163.198, 28.51587
1164.287, 23.05396
1165.376, 88.58960
1166.465, 38.35718
1167.553, 35.88721
1168.642, 42.86035
1169.730, 41.38428
1170.818, 40.45532
1171.906, 29.42310
1172.994, 36.93848
1174.082, 23.64990
1175.170, 21.22559
1176.257, 3.977051
1177.344, 0.7687990
1178.431, 1.668457
1179.518, 53.21606
1180.605, 86.30371
1181.691, 9.121582
1182.778, 32.45923
1183.864, 35.05249
1184.950, 12.22144
1186.036, 27.73560
1187.122, 44.98853
1188.207, 2.302002
1189.292, 66.76196
1190.378, 69.10205
1191.463, 27.39355
1192.548, 34.68188
1193.632, 27.96509
1194.717, 58.24414
1195.801, 43.42358
1196.886, 60.62036
1197.970, 17.89111
1199.054, 32.31250
1200.137, 0.3312990
1201.221, 12.08374
1202.305, 45.14551
1203.388, 22.38574
1204.471, 53.60522
1205.554, 33.81934
1206.637, 70.02905
1207.719, 24.23462
1208.802, 14.43457
1209.884, 4.373047
1210.966, 11.19556
1212.048, 89.96509
1213.130, 80.12280
1214.212, 65.27515
1215.293, 77.64819
1216.374, 19.56372
1217.456, 30.69800
1218.536, 39.82617
1219.617, 19.95215
1220.698, 87.07690
1221.778, 67.19629
1222.859, 67.31616
1223.939, 114.4307
1225.019, 27.63208
1226.099, 50.74658
1227.178, 80.85547
1228.258, 22.97632
1229.337, 103.0740
1230.417, 79.00586
1231.496, 60.09180
1232.574, 35.17920
1233.653, 45.02222
1234.732, 28.41699
1235.810, 38.46997
1236.888, 32.75342
1237.966, 62.82471
1239.044, 63.91943
1240.122, 76.97754
1241.199, 100.0217
1242.277, 99.06055
1243.354, 132.0933
1244.431, 144.1194
1245.508, 131.8098
1246.585, 127.4255
1247.661, 53.44946
1248.738, 132.4570
1249.814, 4.541504
1250.890, 101.5137
1251.966, 0.8271480
1253.042, 108.3491
1254.117, 169.5193
1255.193, 186.6477
1256.268, 28.21436
1257.343, 96.46338
1258.418, 73.85889
1259.493, 47.52124
1260.567, 147.6553
1261.642, 14.89331
1262.716, 113.0027
1263.790, 118.8696
1264.864, 166.9434
1265.938, 123.6018
1267.011, 108.4487
1268.085, 184.7620
1269.158, 210.4573
1270.231, 156.6448
1271.304, 207.4985
1272.377, 71.45044
1273.450, 99.34351
1274.522, 196.5183
1275.594, 147.0876
1276.666, 199.4583
1277.738, 213.0740
1278.810, 50.67334
1279.882, 194.4631
