##NAMES=Ferberite
##RRUFFID=R050090
##IDEAL CHEMISTRY=Fe^2+^W^6+^O_4_
##LOCALITY=Yaogangxian mine, Cheng Zhu City, South Hunan, China
##OWNER=RRUFF
##SOURCE=Rock Currier
##DESCRIPTION=Dark gray tabular crystal
##STATUS=The identification of this mineral has been confirmed by X-ray diffraction and chemical analysis
##URL=rruff.info/R050090
##MEASURED CHEMISTRY=(Fe^2+^_0.56_Mn_0.44_)W_1.00_O_4_
##PIN_ID=L01369
##ORIENTATION=Laser parallel to c* (0 0 1). Fiducial mark perpendicular to laser is parallel to -a [-1 0 0]
98.41600, 0.0000000E+00
99.64900, 33.90723
100.8830, 185.5278
102.1160, 99.01709
103.3490, 23.46143
104.5820, 0.3862300
105.8150, 283.9277
107.0470, 579.6670
108.2800, 1386.697
109.5120, 1285.299
110.7440, 1122.386
111.9760, 1389.339
113.2080, 515.3696
114.4400, 541.3936
115.6710, 917.3047
116.9030, 1400.292
118.1340, 1570.529
119.3650, 1676.684
120.5960, 1925.214
121.8270, 2543.716
123.0580, 3623.906
124.2880, 5454.571
125.5190, 7457.548
126.7490, 11103.72
127.9790, 16028.00
129.2090, 20943.31
130.4390, 21834.03
131.6680, 18143.15
132.8980, 13298.36
134.1270, 9572.305
135.3560, 7372.980
136.5850, 6527.763
137.8140, 6695.467
139.0430, 7262.399
140.2710, 8153.172
141.5000, 9255.896
142.7280, 10224.67
143.9560, 10856.57
145.1840, 10886.70
146.4120, 10347.17
147.6390, 9182.014
148.8670, 7857.250
150.0940, 6355.926
151.3210, 5115.082
152.5490, 4225.758
153.7750, 3437.985
155.0020, 2697.795
156.2290, 2172.211
157.4550, 1599.256
158.6810, 1144.952
159.9080, 1033.319
161.1340, 700.6641
162.3590, 655.4014
163.5850, 617.9077
164.8110, 713.6719
166.0360, 706.3892
167.2610, 962.0728
168.4860, 786.1851
169.7110, 985.2549
170.9360, 1078.427
172.1610, 1018.255
173.3850, 893.1685
174.6100, 865.2803
175.8340, 833.6499
177.0580, 818.2598
178.2820, 769.8748
179.5050, 716.3135
180.7290, 771.5176
181.9520, 651.8408
183.1760, 639.2783
184.3990, 671.8247
185.6220, 772.4741
186.8450, 949.2205
188.0670, 969.0586
189.2900, 1071.983
190.5120, 1097.986
191.7340, 1250.630
192.9560, 1300.001
194.1780, 1643.562
195.4000, 1784.622
196.6220, 2054.925
197.8430, 2261.289
199.0640, 2566.756
200.2860, 2960.021
201.5070, 3243.618
202.7270, 3766.132
203.9480, 4158.675
205.1690, 4433.241
206.3890, 4082.824
207.6090, 3659.414
208.8290, 3411.002
210.0490, 2840.579
211.2690, 2332.137
212.4890, 1838.674
213.7080, 1458.105
214.9280, 1285.684
216.1470, 834.1594
217.3660, 699.6150
218.5850, 517.0525
219.8030, 328.4707
221.0220, 305.8708
222.2400, 195.2527
223.4590, 133.6162
224.6770, 37.96240
225.8950, 16.29150
227.1120, 16.09863
228.3300, 31.89697
229.5480, 6.825684
230.7650, 38.56494
231.9820, 19.67969
233.1990, 139.0928
234.4160, 23.89014
235.6330, 94.75146
236.8490, 22.71045
238.0660, 34.77344
239.2820, 89.96924
240.4980, 117.3306
241.7140, 139.8247
242.9300, 170.4893
244.1460, 164.5154
245.3610, 112.2861
246.5770, 153.1641
247.7920, 122.1230
249.0070, 138.8154
250.2220, 77.45703
251.4370, 163.7905
252.6510, 15.00439
253.8660, 64.10645
255.0800, 49.86523
256.2940, 68.91309
257.5080, 87.01904
258.7220, 243.1694
259.9360, 364.2534
261.1490, 381.6504
262.3630, 459.9014
263.5760, 480.0488
264.7890, 466.2871
266.0020, 581.5132
267.2150, 508.7197
268.4270, 639.9023
269.6400, 565.0562
270.8520, 670.1802
272.0640, 579.2705
273.2760, 552.3281
274.4880, 615.3501
275.7000, 587.3369
276.9120, 554.2852
278.1230, 558.1895
279.3340, 446.0405
280.5450, 511.8279
281.7560, 345.5410
282.9670, 305.1704
284.1780, 241.7112
285.3880, 236.2397
286.5980, 210.8916
287.8090, 200.8625
289.0190, 231.9080
290.2290, 216.0591
291.4380, 300.2395
292.6480, 340.4097
293.8570, 365.8108
295.0670, 364.7256
296.2760, 422.6047
297.4850, 514.5515
298.6930, 409.3496
299.9020, 382.3445
301.1110, 446.5051
302.3190, 476.8252
303.5270, 555.5845
304.7350, 635.4080
305.9430, 717.0645
307.1510, 816.6948
308.3580, 921.2456
309.5660, 987.6982
310.7730, 1172.010
311.9800, 1280.149
313.1870, 1398.122
314.3940, 1651.974
315.6010, 1969.620
316.8070, 2275.010
318.0130, 2595.167
319.2200, 3033.104
320.4260, 3466.947
321.6310, 3888.538
322.8370, 4335.044
324.0430, 4624.525
325.2480, 4873.005
326.4540, 4862.482
327.6590, 4835.957
328.8640, 4485.429
330.0680, 4001.898
331.2730, 3730.364
332.4780, 3443.826
333.6820, 3086.283
334.8860, 2676.735
336.0900, 2452.182
337.2940, 2256.621
338.4980, 2024.049
339.7010, 1856.464
340.9050, 1711.869
342.1080, 1476.268
343.3110, 1486.659
344.5140, 1427.042
345.7170, 1248.417
346.9200, 1301.785
348.1220, 1166.145
349.3240, 1076.497
350.5270, 1085.840
351.7290, 925.1758
352.9310, 877.5020
354.1320, 948.8203
355.3340, 896.1304
356.5350, 886.4316
357.7370, 868.7246
358.9380, 836.8721
360.1390, 833.2871
361.3400, 805.5552
362.5400, 808.8159
363.7410, 828.0688
364.9410, 841.3140
366.1410, 832.0967
367.3410, 829.3330
368.5410, 816.5835
369.7410, 826.1108
370.9400, 828.8350
372.1400, 757.6357
373.3390, 841.0103
374.5380, 944.4316
375.7370, 887.8804
376.9360, 831.8462
378.1350, 892.0249
379.3330, 985.4531
380.5310, 917.4531
381.7300, 1014.997
382.9280, 1147.807
384.1260, 1161.177
385.3230, 1351.861
386.5210, 1466.166
387.7180, 1700.583
388.9160, 1904.417
390.1130, 2278.527
391.3100, 2666.072
392.5060, 3155.575
393.7030, 3796.030
394.9000, 4502.380
396.0960, 5036.297
397.2920, 5415.536
398.4880, 5228.670
399.6840, 4902.678
400.8800, 4280.024
402.0750, 3406.641
403.2710, 3028.429
404.4660, 2309.398
405.6610, 1883.352
406.8560, 1588.291
408.0510, 1280.214
409.2450, 1066.121
410.4400, 884.0122
411.6340, 720.8877
412.8280, 698.7485
414.0220, 595.5938
415.2160, 584.4233
416.4100, 483.2383
417.6030, 428.0376
418.7970, 328.8228
419.9900, 274.5918
421.1830, 153.3472
422.3760, 163.0879
423.5690, 89.81396
424.7610, 111.5269
425.9540, 57.22559
427.1460, 102.8647
428.3380, 23.22119
429.5300, 21.46289
430.7220, 14.72217
431.9140, 32.16797
433.1050, 41.05957
434.2970, 11.20752
435.4880, 1.692383
436.6790, 58.73828
437.8700, 41.64062
439.0610, 43.40088
440.2510, 11.50195
441.4420, 53.08545
442.6320, 1.345703
443.8220, 91.67725
445.0120, 35.14844
446.2020, 30.51025
447.3910, 18.47656
448.5810, 122.4712
449.7700, 90.51709
450.9600, 93.47363
452.1490, 96.65527
453.3370, 101.4941
454.5260, 103.1816
455.7150, 352.5815
456.9030, 227.7373
458.0910, 238.1011
459.2800, 175.0112
460.4670, 66.40723
461.6550, 151.7988
462.8430, 41.20605
464.0300, 111.6099
465.2180, 143.0151
466.4050, 97.41846
467.5920, 133.8213
468.7790, 234.2222
469.9650, 107.6299
471.1520, 177.0356
472.3380, 228.4399
473.5250, 166.8433
474.7110, 154.2446
475.8970, 144.6455
477.0820, 193.0439
478.2680, 193.5186
479.4540, 135.8379
480.6390, 244.2324
481.8240, 305.6255
483.0090, 339.0186
484.1940, 253.4102
485.3780, 230.8008
486.5630, 307.1904
487.7470, 403.5796
488.9320, 355.9668
490.1160, 466.3545
491.3000, 531.7402
492.4830, 503.1265
493.6670, 446.5117
494.8500, 554.8965
496.0340, 581.2812
497.2170, 670.6650
498.4000, 711.0493
499.5820, 725.4326
500.7650, 901.8154
501.9480, 859.1987
503.1300, 974.5815
504.3120, 1043.965
505.4940, 1075.347
506.6760, 1167.730
507.8580, 1304.114
509.0390, 1316.498
510.2210, 1364.092
511.4020, 1296.275
512.5830, 1344.679
513.7640, 1394.099
514.9450, 1324.545
516.1250, 1387.005
517.3060, 1510.486
518.4860, 1456.000
519.6660, 1517.528
520.8460, 1561.114
522.0260, 1602.347
523.2060, 1778.386
524.3850, 1788.070
525.5650, 1929.785
526.7440, 2123.544
527.9230, 2214.354
529.1020, 2288.221
530.2810, 2368.152
531.4590, 2518.147
532.6380, 2572.191
533.8160, 2694.296
534.9940, 2755.452
536.1720, 2790.724
537.3500, 2754.918
538.5270, 2841.234
539.7050, 2741.574
540.8820, 2759.952
542.0590, 2454.340
543.2360, 2556.737
544.4130, 2329.145
545.5900, 2301.554
546.7660, 2034.965
547.9430, 2013.380
549.1190, 1715.796
550.2950, 1492.215
551.4710, 1516.637
552.6470, 1341.062
553.8220, 1300.490
554.9980, 1078.921
556.1730, 857.3555
557.3480, 758.7930
558.5230, 802.2344
559.6980, 644.6792
560.8730, 531.1274
562.0470, 512.5801
563.2220, 432.0356
564.3960, 384.4961
565.5700, 334.9600
566.7440, 321.4287
567.9170, 169.9019
569.0910, 126.3794
570.2640, 150.7886
571.4380, 95.61816
572.6110, 161.0161
573.7840, 78.49805
574.9570, 96.00732
576.1290, 34.42871
577.3020, 43.80273
578.4740, 28.10840
579.6460, 66.59375
580.8180, 56.11182
581.9900, 13.76172
583.1620, 154.3135
584.3330, 9.146973
585.5040, 41.21924
586.6760, 108.4375
587.8470, 118.1895
589.0180, 55.07520
590.1880, 103.8447
591.3590, 86.66650
592.5290, 74.53174
593.7000, 19.43359
594.8700, 33.07764
596.0400, 26.96973
597.2090, 49.66260
598.3790, 3.626953
599.5490, 34.11279
600.7180, 37.15234
601.8870, 81.19873
603.0560, 78.38477
604.2250, 98.68115
605.3940, 57.43359
606.5620, 133.5093
607.7300, 98.59082
608.8990, 132.6753
610.0670, 138.4961
611.2350, 99.59326
612.4020, 105.6963
613.5700, 214.8071
614.7370, 182.9238
615.9050, 285.0464
617.0720, 305.1763
618.2390, 304.3125
619.4060, 395.3311
620.5720, 406.9585
621.7390, 485.7627
622.9050, 505.9263
624.0710, 463.0967
625.2370, 545.2739
626.4030, 537.4580
627.5690, 673.6499
628.7340, 743.8481
629.9000, 748.0547
631.0650, 811.2676
632.2300, 838.4883
633.3950, 913.7158
634.5600, 860.9512
635.7240, 895.1934
636.8890, 939.4434
638.0530, 831.7012
639.2170, 820.9663
640.3810, 787.2393
641.5450, 666.5195
642.7080, 661.8076
643.8720, 591.1035
645.0350, 659.4072
646.1980, 511.7188
647.3610, 547.0381
648.5240, 469.3662
649.6870, 450.7017
650.8490, 426.0449
652.0120, 458.3965
653.1740, 344.7563
654.3360, 386.1245
655.4980, 395.5000
656.6600, 335.8833
657.8210, 342.2749
658.9830, 371.6748
660.1440, 434.0815
661.3050, 352.4966
662.4660, 405.9189
663.6270, 408.3486
664.7870, 373.7852
665.9480, 474.2295
667.1080, 474.6807
668.2680, 535.1387
669.4280, 593.6035
670.5880, 594.0742
671.7480, 651.5518
672.9070, 704.0342
674.0670, 755.5239
675.2260, 801.4082
676.3850, 842.5195
677.5440, 891.0371
678.7030, 934.5674
679.8610, 987.1094
681.0200, 1075.656
682.1780, 1062.208
683.3360, 1274.765
684.4940, 1347.328
685.6520, 1362.896
686.8090, 1467.483
687.9670, 1403.081
689.1240, 1495.692
690.2810, 1504.990
691.4380, 1580.936
692.5950, 1527.568
693.7520, 1564.228
694.9080, 1537.897
696.0650, 1542.578
697.2210, 1451.280
698.3770, 1333.997
699.5330, 1416.723
700.6880, 1275.458
701.8440, 1242.197
702.9990, 1016.945
704.1550, 1030.701
705.3100, 880.4629
706.4650, 865.2300
707.6190, 908.0024
708.7740, 793.7798
709.9290, 755.5640
711.0830, 798.3579
712.2370, 749.1572
713.3910, 667.9678
714.5450, 604.7866
715.6980, 459.6118
716.8520, 507.4438
718.0050, 408.4541
719.1580, 293.0776
720.3110, 335.3569
721.4640, 314.1484
722.6170, 195.2612
723.7700, 179.2983
724.9220, 126.1929
726.0740, 105.1938
727.2260, 123.5864
728.3780, 71.94824
729.5300, 20.25684
730.6810, 61.65283
731.8330, 37.82373
732.9840, 51.66406
734.1350, 48.01025
735.2860, 53.07812
736.4370, 104.3955
737.5880, 82.45752
738.7380, 100.4536
739.8880, 50.37988
741.0390, 94.68359
742.1890, 47.22461
743.3380, 23.85596
744.4880, 3.064453
745.6380, 2.976074
746.7870, 61.94629
747.9360, 45.09766
749.0850, 27.85156
750.2340, 19.81104
751.3830, 3.780273
752.5310, 15.75977
753.6800, 137.7490
754.8280, 197.7480
755.9760, 188.7573
757.1240, 218.7773
758.2720, 264.8071
759.4190, 228.8467
760.5670, 373.8965
761.7140, 302.9565
762.8610, 398.0264
764.0080, 407.1069
765.1550, 572.1978
766.3020, 556.2983
767.4480, 641.4097
768.5950, 729.5308
769.7410, 661.6621
770.8870, 782.8037
772.0330, 647.9556
773.1780, 788.1177
774.3240, 659.2900
775.4690, 658.4727
776.6140, 714.6655
777.7590, 698.8691
778.9040, 621.0830
780.0490, 582.3071
781.1940, 681.5420
782.3380, 506.7876
783.4820, 695.0435
784.6260, 611.3101
785.7700, 628.5864
786.9140, 697.8740
788.0580, 665.1724
789.2010, 594.4810
790.3450, 471.7998
791.4880, 540.1294
792.6310, 464.4697
793.7730, 476.8203
794.9160, 504.1816
796.0590, 495.5532
797.2010, 510.4595
798.3430, 557.3281
799.4850, 522.7314
800.6270, 581.1455
801.7690, 596.5693
802.9100, 585.2783
804.0520, 597.5835
805.1930, 573.9053
806.3340, 569.3711
807.4750, 560.8477
808.6160, 539.3354
809.7560, 633.8330
810.8970, 680.3408
812.0370, 660.5825
813.1770, 726.3896
814.3170, 656.5884
815.4570, 634.8159
816.5960, 674.7744
817.7360, 702.3452
818.8750, 695.9258
820.0140, 711.5171
821.1530, 779.2017
822.2920, 891.8135
823.4310, 915.8525
824.5690, 943.6289
825.7070, 1002.546
826.8460, 1034.667
827.9840, 1108.501
829.1220, 1122.243
830.2590, 1187.878
831.3970, 1300.812
832.5340, 1291.514
833.6710, 1386.719
834.8080, 1441.785
835.9450, 1534.411
837.0820, 1665.630
838.2190, 1669.374
839.3550, 1785.543
840.4910, 1966.850
841.6270, 2046.620
842.7630, 2217.398
843.8990, 2281.186
845.0350, 2469.040
846.1700, 2587.785
847.3060, 2859.599
848.4410, 3080.420
849.5760, 3341.250
850.7100, 3631.701
851.8450, 3860.548
852.9800, 4271.404
854.1140, 4649.099
855.2480, 5022.981
856.3820, 5572.889
857.5160, 6169.822
858.6500, 6699.770
859.7830, 7283.932
860.9170, 8143.942
862.0500, 9162.963
863.1830, 10043.02
864.3160, 11167.12
865.4480, 12396.25
866.5810, 14074.46
867.7130, 15702.85
868.8460, 17915.08
869.9780, 20122.07
871.1100, 22778.29
872.2410, 25805.32
873.3730, 29105.62
874.5050, 33229.50
875.6360, 36679.00
876.7670, 40953.33
877.8980, 44014.46
879.0290, 46622.79
880.1590, 47865.35
881.2900, 48305.03
882.4200, 46943.40
883.5500, 44197.78
884.6800, 40641.43
885.8100, 35965.84
886.9400, 31779.23
888.0690, 27397.65
889.1990, 23157.06
890.3280, 19626.49
891.4570, 16503.89
892.5860, 14049.38
893.7140, 11624.84
894.8430, 9773.311
895.9710, 8395.785
897.1000, 7001.269
898.2280, 6004.764
899.3560, 5201.269
900.4830, 4385.779
901.6110, 4125.298
902.7380, 3398.825
903.8660, 2954.358
904.9930, 2734.900
906.1200, 2366.450
907.2460, 2161.015
908.3730, 1897.587
909.5000, 1661.181
910.6260, 1456.782
911.7520, 1290.981
912.8780, 1180.044
914.0040, 1055.686
915.1290, 998.3345
916.2550, 966.0068
917.3800, 942.6855
918.5050, 868.3916
919.6300, 660.1035
920.7550, 583.8223
921.8800, 592.5483
923.0040, 482.2832
924.1290, 446.1719
925.2530, 404.7725
926.3770, 356.5283
927.5010, 327.2935
928.6250, 339.0659
929.7480, 253.8521
930.8720, 318.6455
931.9950, 199.4443
933.1180, 190.2490
934.2410, 188.0610
935.3640, 79.88135
936.4860, 65.70703
937.6090, 112.5396
938.7310, 97.37695
939.8530, 34.22070
940.9750, 62.07031
942.0970, 125.9258
943.2180, 33.79590
944.3400, 30.67139
945.4610, 103.5527
946.5820, 74.43896
947.7030, 14.33105
948.8240, 46.77197
949.9450, 29.36035
951.0650, 24.02490
952.1860, 14.83594
953.3060, 5.701660
954.4260, 49.57178
955.5460, 1.447266
956.6650, 76.32520
957.7850, 57.79199
958.9040, 17.93408
960.0230, 32.08203
961.1420, 16.76025
962.2610, 14.39355
963.3800, 3.448730
964.4990, 80.70654
965.6170, 20.89941
966.7350, 14.10156
967.8530, 57.30762
968.9710, 37.54053
970.0890, 11.79102
971.2070, 4.045898
972.3240, 55.69824
973.4410, 2.553223
974.5580, 4.806641
975.6750, 55.93848
976.7920, 42.68799
977.9090, 48.78125
979.0250, 13.19678
980.1410, 28.95703
981.2580, 60.72266
982.3740, 42.49170
983.4890, 85.26465
984.6050, 4.958984
985.7200, 51.81445
986.8360, 78.59082
987.9510, 8.628906
989.0660, 145.1460
990.1810, 57.92383
991.2950, 103.7080
992.4100, 76.49512
993.5240, 5.285156
994.6390, 59.07520
995.7530, 82.86865
996.8660, 58.66406
997.9800, 32.46289
999.0940, 15.26367
1000.207, 12.30078
1001.320, 5.211426
1002.433, 32.67236
1003.546, 15.47656
1004.659, 56.29248
1005.772, 76.12402
1006.884, 59.96680
1007.996, 3.811035
1009.108, 12.33008
1010.220, 49.51855
1011.332, 9.367676
1012.444, 83.23584
1013.555, 66.52979
1014.666, 14.02148
1015.777, 70.84131
1016.888, 61.70508
1017.999, 96.56885
1019.110, 79.44336
1020.220, 76.52881
1021.331, 55.19434
1022.441, 49.07080
1023.551, 46.94678
1024.661, 45.79248
1025.770, 68.95557
1026.880, 70.82227
1027.989, 90.89990
1029.098, 129.1016
1030.207, 71.65479
1031.316, 60.42432
1032.425, 134.3003
1033.533, 38.17676
1034.642, 75.05273
1035.750, 84.92871
1036.858, 100.8037
1037.966, 98.67822
1039.073, 66.59717
1040.181, 184.3877
1041.288, 46.26025
1042.396, 181.0444
1043.503, 32.33984
1044.610, 57.43164
1045.716, 158.3003
1046.823, 130.1709
1047.929, 193.0405
1049.036, 190.7222
1050.142, 183.5879
1051.248, 160.0200
1052.353, 125.8853
1053.459, 251.7549
1054.564, 239.6240
1055.670, 121.9097
1056.775, 248.7778
1057.880, 195.6445
1058.985, 224.8535
1060.089, 246.1260
1061.194, 243.2451
1062.298, 296.8301
1063.402, 201.6831
1064.506, 240.5332
1065.610, 268.3799
1066.713, 210.2334
1067.817, 226.6401
1068.920, 222.4878
1070.023, 192.3325
1071.126, 240.1733
1072.229, 333.0112
1073.332, 334.8457
1074.435, 276.6958
1075.537, 202.1230
1076.639, 306.0073
1077.741, 363.4482
1078.843, 376.9600
1079.945, 214.9009
1081.046, 279.5312
1082.148, 250.6499
1083.249, 219.0229
1084.350, 314.1489
1085.451, 177.6069
1086.551, 272.1221
1087.652, 274.3955
1088.752, 318.7979
1089.853, 271.8882
1090.953, 249.7725
1092.053, 321.3657
1093.152, 342.3003
1094.252, 284.8398
1095.351, 331.0088
1096.451, 191.1724
1097.550, 210.5869
1098.649, 182.3877
1099.748, 159.1406
1100.846, 154.3940
1101.945, 139.7920
1103.043, 195.6377
1104.141, 173.3340
1105.239, 171.9214
1106.337, 162.9507
1107.434, 78.52441
1108.532, 183.6875
1109.629, 242.4121
1110.726, 257.1904
1111.823, 96.41211
1112.920, 162.7715
1114.017, 137.8320
1115.113, 109.1631
1116.210, 206.9736
1117.306, 71.10498
1118.402, 166.9043
1119.498, 170.4663
1120.593, 215.4077
1121.689, 169.7827
1122.784, 152.9448
1123.879, 227.0166
1124.974, 250.4570
1126.069, 194.1304
1127.164, 242.5762
1128.259, 104.1060
1129.353, 129.8784
1130.447, 226.1885
1131.541, 174.5947
1132.635, 224.6543
1133.729, 235.8213
1134.822, 71.18164
1135.916, 212.6284
1137.009, 222.7705
1138.102, 36.14795
1139.195, 77.89062
1140.288, 33.27246
1141.380, 85.76855
1142.473, 123.4482
1143.565, 168.9678
1144.657, 34.62305
1145.749, 66.28906
1146.841, 61.62354
1147.932, 44.26807
1149.024, 69.85059
1150.115, 51.87744
1151.206, 109.5107
1152.297, 25.20020
1153.388, 67.89697
1154.479, 92.52930
1155.569, 22.15918
1156.659, 3.215332
1157.750, 12.39648
1158.839, 13.00244
1159.929, 76.60156
1161.019, 46.20020
1162.108, 1.205566
1163.198, 43.37549
1164.287, 91.95605
1165.376, 65.53271
1166.465, 55.10498
1167.553, 71.67334
1168.642, 49.23779
1169.730, 17.79785
1170.818, 17.64697
1171.906, 55.89160
1172.994, 33.57373
1174.082, 6.932129
1175.170, 54.52979
1176.257, 20.92676
1177.344, 113.2725
1178.431, 28.72070
1179.518, 47.83496
1180.605, 44.57227
1181.691, 60.02393
1182.778, 80.10889
1183.864, 27.87695
1184.950, 56.57861
1186.036, 8.848633
1187.122, 47.23633
1188.207, 39.60840
1189.292, 9.939453
1190.378, 8.278320
1191.463, 11.59424
1192.548, 14.09766
1193.632, 102.1909
1194.717, 64.47607
1195.801, 51.75732
1196.886, 56.33691
1197.970, 5.610352
1199.054, 48.87451
1200.137, 28.13379
1201.221, 55.38965
1202.305, 56.64160
1203.388, 110.8892
1204.471, 23.13330
1205.554, 19.62695
1206.637, 108.5913
1207.719, 29.80518
1208.802, 24.05322
1209.884, 42.72949
1210.966, 80.93213
1212.048, 104.1309
1213.130, 64.33789
1214.212, 126.5488
1215.293, 64.76221
1216.374, 33.97168
1217.456, 54.17871
1218.536, 150.3813
1219.617, 23.58105
1220.698, 114.7778
1221.778, 114.9854
1222.859, 1.804688
1223.939, 86.13184
1225.019, 98.33643
1226.099, 54.54248
1227.178, 154.7466
1228.258, 105.9673
1229.337, 28.19141
1230.417, 176.4165
1231.496, 93.65381
1232.574, 163.8975
1233.653, 98.14258
1234.732, 120.3872
1235.810, 36.62793
1236.888, 101.8672
1237.966, 63.10693
1239.044, 79.34326
1240.122, 35.57812
1241.199, 88.81006
1242.277, 1.038574
1243.354, 137.2588
1244.431, 130.4756
1245.508, 94.54053
1246.585, 120.7515
1247.661, 92.71289
1248.738, 73.16943
1249.814, 60.37305
1250.890, 26.68311
1251.966, 1.523438
1253.042, 23.22412
1254.117, 22.69385
1255.193, 103.6006
1256.268, 52.78467
1257.343, 32.96582
1258.418, 6.144531
1259.493, 96.57812
1260.567, 186.7485
1261.642, 91.91602
1262.716, 132.1572
1263.790, 80.98438
1264.864, 75.00439
1265.938, 9.162109
1267.011, 95.98486
1268.085, 17.77393
1269.158, 101.9155
1270.231, 92.17236
1271.304, 32.45068
1272.377, 135.5913
1273.450, 88.80811
1274.522, 33.04932
1275.594, 100.1836
1276.666, 75.50830
1277.738, 108.6440
1278.810, 3.777344
