##NAMES=Ferberite
##RRUFFID=R050632
##IDEAL CHEMISTRY=Fe^2+^W^6+^O_4_
##LOCALITY=Chance mine, Boulder, Colorado, USA
##OWNER=RRUFF
##SOURCE=University of Arizona Mineral Museum
##DESCRIPTION=Dark brown rectangular prismatic crystals
##STATUS=The identification of this mineral has been confirmed by X-ray diffraction and chemical analysis
##URL=rruff.info/R050632
##MEASURED CHEMISTRY=Fe^2+^_1.00_WO_4_
##PIN_ID=M00461
##ORIENTATION=Laser parallel to b* (0 1 0). Fiducial mark perpendicular to laser is parallel to c [0 0 1]
157.4550, 0.0000000E+00
158.6810, 1.054688
159.9080, 214.3047
161.1340, 1.800781
162.3590, 321.5586
163.5850, 644.0000
164.8110, 1057.633
166.0360, 816.1758
167.2610, 357.2305
168.4860, 510.1094
169.7110, 571.6328
170.9360, 815.3477
172.1610, 640.3516
173.3850, 709.8711
174.6100, 373.6758
175.8340, 639.5352
177.0580, 497.3320
178.2820, 502.1172
179.5050, 562.4961
180.7290, 433.9062
181.9520, 541.8633
183.1760, 441.9570
184.3990, 593.5703
185.6220, 914.4180
186.8450, 801.9922
188.0670, 1158.883
189.2900, 1418.148
190.5120, 1135.520
191.7340, 1531.129
192.9560, 1914.195
194.1780, 2162.906
195.4000, 2574.754
196.6220, 2213.152
197.8430, 2179.363
199.0640, 2297.605
200.2860, 2744.523
201.5070, 3001.453
202.7270, 2790.926
203.9480, 2164.680
205.1690, 1320.977
206.3890, 344.6641
207.6090, 399.4492
208.8290, 237.5820
210.0490, 364.0781
211.2690, 614.6289
212.4890, 538.2578
213.7080, 708.5000
214.9280, 269.2461
216.1470, 252.0586
217.3660, 28.96484
218.5850, 201.9414
219.8030, 213.8867
221.0220, 147.8867
222.2400, 3.933594
223.4590, 295.0352
224.6770, 657.1875
225.8950, 15.59766
227.1120, 114.6719
228.3300, 304.0117
229.5480, 5.414063
230.7650, 28.92578
231.9820, 91.63672
233.1990, 75.47266
234.4160, 53.59766
235.6330, 0.8320310
236.8490, 37.22656
238.0660, 51.52734
239.2820, 168.4648
240.4980, 84.24609
241.7140, 50.86328
242.9300, 45.11719
244.1460, 9.191406
245.3610, 174.9570
246.5770, 61.37109
247.7920, 5.187500
249.0070, 27.26172
250.2220, 128.5273
251.4370, 54.55078
252.6510, 72.63281
253.8660, 94.43750
255.0800, 11.91406
256.2940, 117.9062
257.5080, 13.58203
258.7220, 2.707031
259.9360, 50.96484
261.1490, 11.86719
262.3630, 1.425781
263.5760, 83.56250
264.7890, 114.3906
266.0020, 64.57422
267.2150, 120.7344
268.4270, 12.57422
269.6400, 20.30859
270.8520, 124.8633
272.0640, 79.60938
273.2760, 137.3750
274.4880, 155.8633
275.7000, 4.085938
276.9120, 146.1328
278.1230, 162.1211
279.3340, 40.35156
280.5450, 179.8086
281.7560, 77.06250
282.9670, 60.87891
284.1780, 109.8281
285.3880, 90.98047
286.5980, 179.1719
287.8090, 164.4297
289.0190, 140.5156
290.2290, 156.8633
291.4380, 59.40625
292.6480, 173.2656
293.8570, 142.8906
295.0670, 184.3516
296.2760, 242.1055
297.4850, 175.4805
298.6930, 240.6680
299.9020, 101.6211
301.1110, 133.6445
302.3190, 147.3008
303.5270, 275.2031
304.7350, 140.8086
305.9430, 172.2227
307.1510, 273.6406
308.3580, 276.8867
309.5660, 321.2656
310.7730, 243.7188
311.9800, 185.6055
313.1870, 4.800781
314.3940, 29.91406
315.6010, 219.9453
316.8070, 110.8750
318.0130, 15.72266
319.2200, 66.46484
320.4260, 1.890625
321.6310, 351.6445
322.8370, 123.0781
324.0430, 436.4141
325.2480, 403.6523
326.4540, 262.7930
327.6590, 358.8281
328.8640, 348.7266
330.0680, 586.5469
331.2730, 348.3008
332.4780, 327.9727
333.6820, 634.3945
334.8860, 240.7344
336.0900, 591.9336
337.2940, 302.0039
338.4980, 462.0469
339.7010, 522.9570
340.9050, 241.7070
342.1080, 291.3828
343.3110, 156.0352
344.5140, 393.7070
345.7170, 369.3047
346.9200, 51.71875
348.1220, 711.0742
349.3240, 284.3398
350.5270, 311.5156
351.7290, 323.0469
352.9310, 477.7539
354.1320, 312.2227
355.3340, 294.9922
356.5350, 443.2305
357.7370, 182.5234
358.9380, 400.8672
360.1390, 17.49219
361.3400, 183.1133
362.5400, 499.2188
363.7410, 278.6562
364.9410, 247.4062
366.1410, 199.4727
367.3410, 349.8867
368.5410, 348.5508
369.7410, 330.4102
370.9400, 484.5352
372.1400, 408.3555
373.3390, 296.0977
374.5380, 348.4414
375.7370, 334.3086
376.9360, 279.2461
378.1350, 303.4219
379.3330, 320.9805
380.5310, 530.5234
381.7300, 524.0703
382.9280, 521.0195
384.1260, 383.7617
385.3230, 353.8047
386.5210, 450.4883
387.7180, 214.3242
388.9160, 454.2695
390.1130, 781.9688
391.3100, 476.0664
392.5060, 858.5898
393.7030, 853.0156
394.9000, 954.6875
396.0960, 802.2617
397.2920, 1478.961
398.4880, 1088.555
399.6840, 1631.562
400.8800, 1448.203
402.0750, 1246.648
403.2710, 1613.840
404.4660, 1439.352
405.6610, 1155.922
406.8560, 851.5469
408.0510, 713.2383
409.2450, 816.9883
410.4400, 401.8047
411.6340, 657.6758
412.8280, 465.4023
414.0220, 519.4023
415.2160, 625.4688
416.4100, 619.5938
417.6030, 615.7773
418.7970, 495.0352
419.9900, 487.3047
421.1830, 292.6836
422.3760, 508.1289
423.5690, 240.6406
424.7610, 571.2227
425.9540, 306.8633
427.1460, 809.5742
428.3380, 529.3516
429.5300, 162.1953
430.7220, 407.1016
431.9140, 547.0781
433.1050, 328.1172
434.2970, 525.2266
435.4880, 504.3945
436.6790, 435.6562
437.8700, 390.9766
439.0610, 601.3672
440.2510, 229.8242
441.4420, 764.3477
442.6320, 426.9492
443.8220, 378.6172
445.0120, 550.3672
446.2020, 418.1836
447.3910, 358.0508
448.5810, 467.9727
449.7700, 298.9492
450.9600, 432.9727
452.1490, 479.0469
453.3370, 381.1797
454.5260, 597.3750
455.7150, 488.6250
456.9030, 806.9609
458.0910, 392.3555
459.2800, 212.8008
460.4670, 583.3008
461.6550, 718.8516
462.8430, 585.4570
464.0300, 524.0938
465.2180, 504.8086
466.4050, 538.1875
467.5920, 621.5625
468.7790, 710.5312
469.9650, 638.5586
471.1520, 716.6445
472.3380, 605.7852
473.5250, 424.9883
474.7110, 594.2500
475.8970, 627.5742
477.0820, 664.9648
478.2680, 1327.605
479.4540, 1040.168
480.6390, 1226.402
481.8240, 889.1602
483.0090, 1094.867
484.1940, 1131.699
485.3780, 862.6055
486.5630, 760.5742
487.7470, 844.6328
488.9320, 840.7695
490.1160, 739.9688
491.3000, 1129.254
492.4830, 1099.613
493.6670, 695.0391
494.8500, 756.5547
496.0340, 1159.145
497.2170, 887.8164
498.4000, 1094.562
499.5820, 997.3789
500.7650, 1101.266
501.9480, 909.2266
503.1300, 1202.258
504.3120, 1075.371
505.4940, 1222.609
506.6760, 926.7695
507.8580, 1129.172
509.0390, 1076.641
510.2210, 1259.227
511.4020, 1001.883
512.5830, 1115.613
513.7640, 1285.523
514.9450, 1066.434
516.1250, 1066.473
517.3060, 1182.777
518.4860, 1231.125
519.6660, 1357.555
520.8460, 1373.145
522.0260, 1285.824
523.2060, 1256.605
524.3850, 1259.469
525.5650, 1289.406
526.7440, 1668.414
527.9230, 1301.504
529.1020, 1422.691
530.2810, 1456.949
531.4590, 1142.285
532.6380, 1410.750
533.8160, 1335.359
534.9940, 1251.039
536.1720, 1165.809
537.3500, 1258.688
538.5270, 1457.695
539.7050, 1309.824
540.8820, 1679.051
542.0590, 1532.348
543.2360, 1999.773
544.4130, 1275.270
545.5900, 1491.840
546.7660, 1272.477
547.9430, 1965.180
549.1190, 1549.957
550.2950, 1608.805
551.4710, 1361.719
552.6470, 1503.695
553.8220, 1379.742
554.9980, 1829.855
556.1730, 1331.031
557.3480, 1765.281
558.5230, 1386.605
559.6980, 1175.988
560.8730, 1400.445
562.0470, 1654.965
563.2220, 1622.547
564.3960, 1726.125
565.5700, 1188.906
566.7440, 1649.684
567.9170, 1423.527
569.0910, 1253.430
570.2640, 1456.398
571.4380, 1615.430
572.6110, 1222.523
573.7840, 1292.684
574.9570, 1135.902
576.1290, 1069.184
577.3020, 1112.664
578.4740, 593.0703
579.6460, 850.5352
580.8180, 512.0664
581.9900, 597.6562
583.1620, 386.9961
584.3330, 769.7109
585.5040, 573.8242
586.6760, 370.6562
587.8470, 567.5000
589.0180, 319.5312
590.1880, 305.5625
591.3590, 242.8516
592.5290, 325.9883
593.7000, 297.6602
594.8700, 297.2969
596.0400, 263.5977
597.2090, 383.1562
598.3790, 235.5703
599.5490, 37.04688
600.7180, 249.5742
601.8870, 173.1602
603.0560, 86.80469
604.2250, 583.5000
605.3940, 229.2578
606.5620, 7.511719
607.7300, 319.4570
608.8990, 42.37109
610.0670, 380.3398
611.2350, 133.3633
612.4020, 98.44531
613.5700, 20.57422
614.7370, 81.76172
615.9050, 448.0000
617.0720, 207.2891
618.2390, 418.6328
619.4060, 82.17188
620.5720, 109.6211
621.7390, 279.1172
622.9050, 57.66797
624.0710, 344.1836
625.2370, 291.8594
626.4030, 296.5039
627.5690, 422.1875
628.7340, 205.0703
629.9000, 509.9219
631.0650, 216.4570
632.2300, 187.4023
633.3950, 130.3984
634.5600, 215.3711
635.7240, 202.5820
636.8890, 130.9062
638.0530, 257.7812
639.2170, 39.00781
640.3810, 15.28516
641.5450, 118.6094
642.7080, 262.9766
643.8720, 227.3906
645.0350, 193.8555
646.1980, 59.31641
647.3610, 105.2227
648.5240, 309.8008
649.6870, 65.26953
650.8490, 144.7852
652.0120, 503.4805
653.1740, 8.777344
654.3360, 85.00000
655.4980, 137.4570
656.6600, 61.77344
657.8210, 82.86328
658.9830, 59.79297
660.1440, 59.97266
661.3050, 151.3320
662.4660, 388.8633
663.6270, 387.1289
664.7870, 447.2383
665.9480, 460.6836
667.1080, 419.6289
668.2680, 380.8398
669.4280, 409.0820
670.5880, 369.5156
671.7480, 397.8281
672.9070, 516.7461
674.0670, 529.1211
675.2260, 890.7500
676.3850, 854.3984
677.5440, 597.1836
678.7030, 904.8516
679.8610, 1122.379
681.0200, 993.1172
682.1780, 1358.977
683.3360, 1174.586
684.4940, 1460.219
685.6520, 1107.883
686.8090, 1086.566
687.9670, 1567.211
689.1240, 1538.949
690.2810, 1547.711
691.4380, 1677.500
692.5950, 1497.316
693.7520, 1248.152
694.9080, 1445.016
696.0650, 1022.902
697.2210, 1042.477
698.3770, 1133.406
699.5330, 1069.367
700.6880, 532.3438
701.8440, 722.3516
702.9990, 511.3789
704.1550, 544.4297
705.3100, 602.5000
706.4650, 546.5977
707.6190, 226.7109
708.7740, 270.8477
709.9290, 238.0078
711.0830, 173.1836
712.2370, 417.3828
713.3910, 333.6016
714.5450, 39.84766
715.6980, 89.89453
716.8520, 106.3398
718.0050, 48.59766
719.1580, 196.8711
720.3110, 39.16406
721.4640, 57.52344
722.6170, 220.7734
723.7700, 48.90625
724.9220, 46.39453
726.0740, 19.28516
727.2260, 0.9648440
728.3780, 29.35938
729.5300, 21.70312
730.6810, 32.94141
731.8330, 7.437500
732.9840, 53.18359
734.1350, 49.17578
735.2860, 164.4492
736.4370, 122.8594
737.5880, 69.18359
738.7380, 69.51953
739.8880, 262.8750
741.0390, 264.2422
742.1890, 387.6289
743.3380, 55.03125
744.4880, 265.5469
745.6380, 7.253906
746.7870, 208.0312
747.9360, 182.3281
749.0850, 270.5078
750.2340, 301.1914
751.3830, 198.3281
752.5310, 280.6875
753.6800, 234.0625
754.8280, 177.4531
755.9760, 141.8555
757.1240, 51.27344
758.2720, 533.7031
759.4190, 111.1484
760.5670, 363.6055
761.7140, 192.9258
762.8610, 65.44531
764.0080, 217.8320
765.1550, 66.77344
766.3020, 104.5859
767.4480, 388.9570
768.5950, 22.66016
769.7410, 177.6992
770.8870, 84.08203
772.0330, 26.53516
773.1780, 442.8281
774.3240, 279.2109
775.4690, 117.5977
776.6140, 183.0000
777.7590, 499.4141
778.9040, 233.8398
780.0490, 195.2812
781.1940, 328.7305
782.3380, 42.80469
783.4820, 60.62500
784.6260, 315.2188
785.7700, 109.6719
786.9140, 10.87109
788.0580, 57.57812
789.2010, 232.0273
790.3450, 345.4922
791.4880, 100.9844
792.6310, 193.6328
793.7730, 252.2539
794.9160, 210.1094
796.0590, 105.0234
797.2010, 203.8398
798.3430, 78.19531
799.4850, 37.76172
800.6270, 70.24609
801.7690, 93.26953
802.9100, 85.30078
804.0520, 12.34375
805.1930, 236.3828
806.3340, 115.4297
807.4750, 72.49219
808.6160, 99.56250
809.7560, 159.3594
810.8970, 258.6367
812.0370, 7.644531
813.1770, 99.64062
814.3170, 159.3516
815.4570, 47.42969
816.5960, 328.4531
817.7360, 67.35156
818.8750, 68.73828
820.0140, 273.1328
821.1530, 104.0117
822.2920, 198.9023
823.4310, 286.8125
824.5690, 9.730469
825.7070, 479.6406
826.8460, 123.5703
827.9840, 174.5117
829.1220, 242.4648
830.2590, 225.4375
831.3970, 460.4219
832.5340, 273.4219
833.6710, 7.574219
834.8080, 244.4297
835.9450, 239.4453
837.0820, 697.4688
838.2190, 287.5625
839.3550, 541.6211
840.4910, 416.6914
841.6270, 486.7773
842.7630, 747.8750
843.8990, 737.9922
845.0350, 757.1211
846.1700, 814.0273
847.3060, 897.4258
848.4410, 792.6016
849.5760, 943.7891
850.7100, 962.0000
851.8450, 863.2188
852.9800, 1002.324
854.1140, 1270.578
855.2480, 1910.852
856.3820, 1937.133
857.5160, 2233.598
858.6500, 2380.070
859.7830, 2533.410
860.9170, 2859.426
862.0500, 3161.387
863.1830, 3567.977
864.3160, 4001.566
865.4480, 4596.977
866.5810, 5184.203
867.7130, 5914.664
868.8460, 6839.305
869.9780, 7261.773
871.1100, 8137.293
872.2410, 9351.641
873.3730, 9810.203
874.5050, 10523.79
875.6360, 10867.39
876.7670, 10596.01
877.8980, 10201.66
879.0290, 9633.328
880.1590, 9171.016
881.2900, 8452.281
882.4200, 7429.938
883.5500, 6665.691
884.6800, 5702.473
885.8100, 4984.273
886.9400, 4378.098
888.0690, 3697.941
889.1990, 3319.812
890.3280, 2985.707
891.4570, 2844.625
892.5860, 2716.562
893.7140, 2423.547
894.8430, 1833.379
895.9710, 1888.395
897.1000, 1554.430
898.2280, 1160.578
899.3560, 1244.645
900.4830, 1257.758
901.6110, 882.9492
902.7380, 720.1211
903.8660, 1000.312
904.9930, 900.9023
906.1200, 666.1523
907.2460, 804.4297
908.3730, 708.8125
909.5000, 632.1445
910.6260, 554.5000
911.7520, 552.4805
912.8780, 520.3125
914.0040, 547.7695
915.1290, 593.2539
916.2550, 531.7656
917.3800, 548.4453
918.5050, 521.5039
919.6300, 487.1562
920.7550, 485.8125
921.8800, 427.4922
923.0040, 428.9258
924.1290, 307.2930
925.2530, 457.1133
926.3770, 254.9844
927.5010, 321.8867
928.6250, 401.6875
929.7480, 404.0781
930.8720, 492.5039
931.9950, 557.5430
933.1180, 378.4062
934.2410, 166.4258
935.3640, 169.8047
936.4860, 338.7930
937.6090, 593.0078
938.7310, 508.2461
939.8530, 458.4922
940.9750, 584.8320
942.0970, 721.2109
943.2180, 522.5898
944.3400, 183.9180
945.4610, 256.8320
946.5820, 95.35547
947.7030, 184.6914
948.8240, 324.3125
949.9450, 244.4375
951.0650, 305.9805
952.1860, 371.7773
953.3060, 325.4219
954.4260, 390.0625
955.5460, 381.4883
956.6650, 243.0312
957.7850, 364.0977
958.9040, 285.7344
960.0230, 221.6367
961.1420, 231.6094
962.2610, 173.8320
963.3800, 211.1055
964.4990, 206.4102
965.6170, 174.7578
966.7350, 234.1523
967.8530, 470.5820
968.9710, 320.3945
970.0890, 623.9062
971.2070, 484.4609
972.3240, 4.937500
973.4410, 415.6992
974.5580, 365.3789
975.6750, 328.1055
976.7920, 683.8672
977.9090, 746.6758
979.0250, 647.5273
980.1410, 583.4141
981.2580, 394.3477
982.3740, 599.3281
983.4890, 612.3438
984.6050, 558.4492
985.7200, 911.6289
986.8360, 360.8555
987.9510, 203.1719
989.0660, 462.5352
990.1810, 473.9414
991.2950, 343.3867
992.4100, 686.9023
993.5240, 530.4844
994.6390, 498.1094
995.7530, 601.7891
996.8660, 732.5156
997.9800, 981.2930
999.0940, 717.1172
1000.207, 769.9883
1001.320, 491.9062
1002.433, 675.8672
1003.546, 600.8789
1004.659, 731.9492
1005.772, 652.0625
1006.884, 423.2656
1007.996, 595.5117
1009.108, 541.8008
1010.220, 471.5273
1011.332, 617.5078
1012.444, 425.9219
1013.555, 767.3867
1014.666, 897.8945
1015.777, 474.5117
1016.888, 680.1875
1017.999, 789.9062
1019.110, 830.6680
1020.220, 826.0273
1021.331, 976.3398
1022.441, 731.2578
1023.551, 528.2500
1024.661, 595.2930
1025.770, 295.3945
1026.880, 580.5508
1027.989, 850.7539
1029.098, 1254.008
1030.207, 868.3047
1031.316, 533.6445
1032.425, 566.0859
1033.533, 424.4062
1034.642, 825.6562
1035.750, 536.2539
1036.858, 716.8945
1037.966, 870.5820
1039.073, 910.3320
1040.181, 968.1211
1041.288, 518.9531
1042.396, 1214.848
1043.503, 1036.785
1044.610, 1293.770
1045.716, 721.0938
1046.823, 977.6953
1047.929, 965.8047
1049.036, 1111.957
1050.142, 1000.160
1051.248, 983.4180
1052.353, 1172.664
1053.459, 891.0391
1054.564, 637.4570
1055.670, 1167.426
1056.775, 1126.938
1057.880, 1045.336
1058.985, 875.4648
1060.089, 937.1016
1061.194, 1021.785
1062.298, 1213.570
1063.402, 1121.465
1064.506, 1224.465
1065.610, 1088.504
1066.713, 1055.133
1067.817, 1160.820
1068.920, 1007.062
1070.023, 960.3477
1071.126, 1154.602
1072.229, 1082.965
1073.332, 1146.469
1074.435, 1419.914
1075.537, 1304.406
1076.639, 1427.934
1077.741, 1205.508
1078.843, 1216.168
1079.945, 1292.867
1081.046, 1285.695
1082.148, 1372.344
1083.249, 1208.531
1084.350, 1646.812
1085.451, 1084.789
1086.551, 1402.391
1087.652, 1006.461
1088.752, 852.5664
1089.853, 1129.512
1090.953, 1006.691
1092.053, 1227.906
1093.152, 1293.160
1094.252, 836.4531
1095.351, 1235.781
1096.451, 1219.145
1097.550, 891.5391
1098.649, 1119.969
1099.748, 1395.426
1100.846, 1417.922
1101.945, 1125.461
1103.043, 1362.262
1104.141, 1430.906
1105.239, 1452.469
1106.337, 1429.590
1107.434, 1228.871
1108.532, 1257.875
1109.629, 1194.891
1110.726, 1128.156
1111.823, 1189.609
1112.920, 1014.934
1114.017, 1074.430
1115.113, 1040.527
1116.210, 1059.188
1117.306, 983.7031
1118.402, 928.7188
1119.498, 937.6523
1120.593, 890.7266
1121.689, 752.8281
1122.784, 819.2812
1123.879, 931.9297
1124.974, 947.7812
1126.069, 624.9922
1127.164, 668.2305
1128.259, 461.4922
1129.353, 572.7812
1130.447, 595.0977
1131.541, 561.4414
1132.635, 799.8047
1133.729, 595.2383
1134.822, 735.6602
1135.916, 668.1016
1137.009, 492.5703
1138.102, 525.0625
1139.195, 452.9297
1140.288, 432.1523
1141.380, 276.6836
1142.473, 318.3008
1143.565, 164.8789
1144.657, 379.5156
1145.749, 432.1680
1146.841, 524.8477
1147.932, 542.5469
1149.024, 550.2734
1150.115, 431.0820
1151.206, 505.4922
1152.297, 283.8047
1153.388, 385.9023
1154.479, 310.8633
1155.569, 18.50391
1156.659, 123.7461
1157.750, 179.7891
1158.839, 189.5117
1159.929, 23.25391
1161.019, 84.83203
1162.108, 54.36328
1163.198, 20.15234
1164.287, 114.1172
1165.376, 28.08594
1166.465, 63.87109
1167.553, 63.03125
1168.642, 104.3359
1169.730, 53.03125
1170.818, 30.35938
1171.906, 100.3477
1172.994, 119.0625
1174.082, 57.16406
1175.170, 101.2930
1176.257, 43.73438
1177.344, 22.78125
1178.431, 70.09766
1179.518, 12.91406
1180.605, 58.78906
1181.691, 70.56641
1182.778, 101.1445
1183.864, 37.31250
1184.950, 42.21094
1186.036, 91.19531
1187.122, 36.64453
1188.207, 77.79297
1189.292, 105.7656
1190.378, 238.9414
1191.463, 266.1250
1192.548, 42.31641
1193.632, 339.5156
1194.717, 39.72656
1195.801, 270.9375
1196.886, 306.2656
1197.970, 73.39453
1199.054, 299.6328
1200.137, 310.8828
1201.221, 34.35156
1202.305, 198.6094
1203.388, 35.37500
1204.471, 304.8633
1205.554, 193.1016
1206.637, 213.3516
1207.719, 78.60156
1208.802, 48.42188
1209.884, 146.6758
1210.966, 72.05859
1212.048, 15.17578
1213.130, 70.56641
1214.212, 133.4375
1215.293, 74.74219
1216.374, 187.1250
1217.456, 133.9102
1218.536, 210.9531
1219.617, 69.00391
1220.698, 138.9961
1221.778, 288.9961
1222.859, 139.0078
1223.939, 412.0117
1225.019, 302.2031
1226.099, 149.0430
1227.178, 168.0547
1228.258, 216.0742
1229.337, 76.09766
1230.417, 206.1250
1231.496, 71.14844
1232.574, 299.1719
1233.653, 519.1992
1234.732, 140.2188
1235.810, 321.2734
1236.888, 195.3203
1237.966, 373.3945
1239.044, 278.4688
1240.122, 220.5391
1241.199, 310.6133
1242.277, 308.6836
1243.354, 153.7539
1244.431, 138.8242
1245.508, 138.1016
1246.585, 110.5508
1247.661, 62.78906
1248.738, 75.30469
1249.814, 124.5469
1250.890, 310.4883
1251.966, 41.33203
1253.042, 60.82812
1254.117, 27.95703
1255.193, 232.7305
1256.268, 216.5039
1257.343, 181.2773
1258.418, 216.0430
1259.493, 108.8047
1260.567, 114.5625
1261.642, 108.8203
1262.716, 85.07031
1263.790, 120.8164
1264.864, 157.5586
1265.938, 185.2930
1267.011, 167.1875
1268.085, 262.7539
1269.158, 182.4688
1270.231, 241.1875
1271.304, 408.8945
1272.377, 324.8086
1273.450, 298.2930
1274.522, 233.9883
1275.594, 282.2344
1276.666, 113.9141
1277.738, 154.5898
1278.810, 100.6953
1279.882, 48.91016
1280.953, 4.597656
1282.025, 32.21484
1283.096, 89.19531
1284.167, 49.32031
1285.238, 19.17188
1286.308, 20.29688
1287.379, 320.7383
1288.449, 19.17578
1289.519, 381.5820
1290.589, 314.9844
1291.659, 247.3789
1292.729, 446.7578
1293.798, 202.1328
1294.868, 347.9336
1295.937, 63.36719
1297.006, 278.0234
1298.075, 437.3555
1299.143, 197.6758
1300.212, 236.9883
1301.280, 165.3438
1302.348, 480.6719
1303.416, 398.9531
1304.484, 105.0586
1305.552, 325.0156
1306.620, 107.7266
1307.687, 314.1719
1308.754, 685.3945
1309.821, 32.39062
1310.888, 386.7617
1311.955, 174.9883
1313.021, 70.12500
1314.088, 224.2422
1315.154, 141.8789
1316.220, 435.9805
1317.286, 182.2344
1318.352, 256.4023
1319.417, 351.8164
1320.483, 175.9297
1321.548, 455.9805
1322.613, 375.0117
1323.678, 295.0352
1324.743, 244.0547
1325.807, 308.0547
1326.872, 519.0508
1327.936, 195.0391
1329.000, 146.0156
1330.064, 437.0508
