##NAMES=Ferberite
##RRUFFID=R040044
##IDEAL CHEMISTRY=Fe^2+^W^6+^O_4_
##LOCALITY=Chocote, Bolivia
##OWNER=RRUFF
##SOURCE=University of Arizona Mineral Museum
##DESCRIPTION=Black tabular single crystal
##STATUS=The identification of this mineral has been confirmed by X-ray diffraction and chemical analysis
##URL=rruff.info/R040044
##MEASURED CHEMISTRY=(Fe_0.82_Mn_0.08_Mg_0.07_Pb_0.03_)_Î£=1_W_1.00_O_4_
##PIN_ID=M00158
##ORIENTATION=Laser parallel to b* (0 1 0). Fiducial mark perpendicular to laser is parallel to c [0 0 1]
158.630, 0.000
160.013, 47.812
161.396, 0.512
162.779, 188.428
164.161, 245.598
165.544, 241.059
166.926, 40.639
168.308, 60.809
169.689, 189.072
171.070, 327.059
172.452, 375.898
173.833, 323.566
175.213, 454.717
176.594, 190.863
177.974, 8.840
179.354, 7.619
180.734, 5.857
182.114, 107.695
183.493, 97.611
184.872, 155.141
186.251, 273.996
187.630, 428.984
189.008, 358.139
190.387, 333.807
191.765, 426.883
193.143, 686.273
194.520, 882.316
195.898, 996.510
197.275, 911.410
198.652, 1259.324
200.029, 1420.928
201.405, 1880.793
202.782, 1835.314
204.158, 2159.328
205.534, 2371.053
206.909, 2600.531
208.285, 2591.094
209.660, 2577.086
211.035, 2256.051
212.410, 2065.842
213.784, 1770.594
215.159, 1641.254
216.533, 1508.176
217.907, 1358.732
219.281, 1041.980
220.654, 838.535
222.027, 611.451
223.400, 691.035
224.773, 578.635
226.146, 576.098
227.518, 529.412
228.891, 523.533
230.263, 445.932
231.634, 419.963
233.006, 332.707
234.377, 330.943
235.748, 353.529
237.119, 293.039
238.490, 256.482
239.860, 228.938
241.231, 227.424
242.601, 85.172
243.970, 199.146
245.340, 86.309
246.709, 25.598
248.079, 158.982
249.448, 28.451
250.816, 158.971
252.185, 176.477
253.553, 92.990
254.921, 133.512
256.289, 128.049
257.657, 232.580
259.024, 211.512
260.391, 182.570
261.758, 246.004
263.125, 142.383
264.492, 214.693
265.858, 252.918
267.224, 253.057
268.590, 202.105
269.956, 244.438
271.321, 246.053
272.687, 337.279
274.052, 342.713
275.416, 414.512
276.781, 221.973
278.146, 185.342
279.510, 158.830
280.874, 87.195
282.237, 14.770
283.601, 51.426
284.964, 3.918
286.327, 79.807
287.690, 165.459
289.053, 97.482
290.416, 24.885
291.778, 47.838
293.140, 30.980
294.502, 5.900
295.863, 70.350
297.225, 44.605
298.586, 173.453
299.947, 313.566
301.308, 255.066
302.668, 218.363
304.029, 387.760
305.389, 496.738
306.749, 550.316
308.108, 611.506
309.468, 677.607
310.827, 772.674
312.186, 908.715
313.545, 1091.330
314.903, 1231.002
316.262, 1534.486
317.620, 1723.799
318.978, 1959.252
320.336, 2447.941
321.693, 2609.838
323.051, 2957.086
324.408, 3369.029
325.765, 3961.217
327.121, 3979.031
328.478, 4591.877
329.834, 4671.057
331.190, 4948.172
332.546, 4803.363
333.902, 5034.438
335.257, 4858.953
336.612, 4778.555
337.967, 4489.779
339.322, 4236.873
340.677, 3964.354
342.031, 3745.422
343.385, 3495.574
344.739, 3198.719
346.093, 3042.854
347.446, 2730.820
348.799, 2458.842
350.153, 2259.818
351.505, 2152.277
352.858, 2022.014
354.210, 1768.443
355.563, 1753.771
356.915, 1510.764
358.267, 1537.500
359.618, 1260.916
360.969, 1349.111
362.321, 1209.932
363.672, 1122.504
365.022, 1057.344
366.373, 1096.338
367.723, 931.061
369.073, 969.566
370.423, 1067.844
371.773, 769.928
373.122, 740.830
374.471, 701.559
375.821, 741.127
377.169, 718.543
378.518, 712.809
379.866, 586.953
381.215, 504.967
382.563, 496.922
383.910, 349.770
385.258, 520.092
386.605, 566.391
387.952, 569.734
389.299, 491.951
390.646, 547.383
391.992, 485.645
393.339, 399.494
394.685, 425.146
396.031, 430.582
397.376, 412.496
398.722, 553.029
400.067, 511.395
401.412, 609.740
402.757, 510.814
404.101, 445.027
405.446, 611.363
406.790, 710.805
408.134, 858.258
409.478, 342.945
410.821, 307.031
412.165, 275.607
413.508, 249.996
414.851, 415.801
416.193, 165.805
417.536, 356.336
418.878, 268.031
420.220, 280.543
421.562, 223.287
422.904, 291.652
424.245, 307.590
425.586, 246.514
426.927, 285.363
428.268, 173.107
429.609, 178.982
430.949, 195.945
432.289, 151.238
433.629, 196.281
434.969, 172.842
436.309, 183.496
437.648, 326.389
438.987, 151.242
440.326, 48.207
441.665, 8.430
443.003, 128.141
444.342, 209.754
445.680, 144.918
447.018, 105.973
448.355, 150.014
449.693, 27.672
451.030, 167.889
452.367, 248.676
453.704, 238.311
455.041, 206.115
456.377, 203.672
457.713, 193.324
459.049, 176.879
460.385, 177.553
461.721, 158.832
463.056, 124.676
464.391, 110.156
465.726, 100.000
467.061, 86.053
468.395, 94.473
469.730, 81.627
471.064, 91.223
472.398, 105.510
473.731, 11.738
475.065, 7.900
476.398, 8.041
477.731, 4.957
479.064, 18.977
480.397, 63.848
481.729, 82.658
483.062, 240.432
484.394, 148.068
485.725, 160.602
487.057, 191.053
488.389, 85.406
489.720, 134.666
491.051, 216.840
492.382, 327.920
493.712, 305.914
495.043, 367.826
496.373, 279.654
497.703, 315.281
499.032, 291.064
500.362, 320.646
501.691, 284.150
503.020, 274.582
504.349, 220.943
505.678, 279.234
507.007, 223.451
508.335, 216.174
509.663, 279.662
510.991, 172.658
512.319, 294.576
513.646, 279.424
514.973, 282.332
516.300, 300.586
517.627, 300.541
518.954, 313.111
520.280, 303.617
521.607, 408.053
522.933, 534.428
524.259, 196.740
525.584, 386.988
526.910, 410.174
528.235, 599.303
529.560, 855.373
530.885, 773.385
532.209, 407.344
533.534, 311.244
534.858, 365.090
536.182, 495.883
537.506, 379.623
538.829, 332.307
540.152, 301.684
541.476, 265.838
542.799, 237.572
544.121, 267.814
545.444, 204.725
546.766, 228.789
548.088, 183.830
549.410, 292.506
550.732, 370.383
552.053, 276.971
553.375, 331.166
554.696, 251.441
556.017, 238.713
557.337, 325.881
558.658, 331.609
559.978, 330.141
561.298, 339.062
562.618, 192.549
563.938, 212.738
565.257, 243.600
566.576, 113.430
567.895, 123.232
569.214, 212.965
570.533, 154.531
571.851, 109.971
573.170, 47.285
574.488, 175.273
575.805, 192.064
577.123, 120.785
578.440, 184.121
579.758, 69.494
581.075, 77.605
582.391, 58.982
583.708, 31.617
585.024, 5.559
586.341, 68.850
587.657, 21.598
588.972, 120.381
590.288, 109.238
591.603, 153.768
592.918, 163.596
594.233, 134.199
595.548, 129.963
596.863, 86.705
598.177, 4.170
599.491, 53.467
600.805, 3.545
602.119, 43.793
603.432, 76.889
604.746, 51.609
606.059, 51.463
607.372, 76.266
608.685, 84.875
609.997, 72.180
611.309, 40.848
612.621, 55.311
613.933, 57.064
615.245, 59.826
616.557, 32.543
617.868, 19.807
619.179, 413.918
620.490, 150.441
621.801, 210.807
623.111, 7.949
624.421, 199.170
625.731, 1.168
627.041, 253.203
628.351, 55.119
629.660, 123.502
630.970, 195.596
632.279, 125.363
633.588, 169.088
634.896, 107.076
636.205, 126.125
637.513, 138.062
638.821, 75.738
640.129, 167.572
641.437, 162.156
642.744, 150.338
644.051, 213.637
645.358, 242.973
646.665, 258.059
647.972, 192.404
649.278, 241.586
650.584, 219.701
651.890, 286.445
653.196, 200.459
654.502, 230.096
655.807, 182.871
657.113, 279.537
658.418, 466.320
659.722, 226.943
661.027, 196.521
662.331, 374.865
663.636, 354.449
664.940, 336.793
666.244, 412.102
667.547, 425.654
668.851, 414.791
670.154, 534.418
671.457, 583.977
672.760, 645.543
674.062, 632.186
675.365, 764.824
676.667, 942.516
677.969, 1024.166
679.271, 926.934
680.572, 956.689
681.874, 1165.891
683.175, 1311.625
684.476, 1461.346
685.777, 1557.826
687.077, 1608.217
688.378, 1640.445
689.678, 1638.125
690.978, 1548.795
692.278, 1535.455
693.577, 1520.408
694.877, 1615.748
696.176, 1574.381
697.475, 1509.008
698.774, 1674.535
700.072, 1472.951
701.371, 1247.506
702.669, 1319.805
703.967, 1193.209
705.265, 1133.434
706.562, 1044.029
707.860, 869.621
709.157, 892.211
710.454, 814.799
711.751, 760.361
713.047, 922.879
714.344, 546.465
715.640, 388.049
716.936, 473.631
718.232, 392.211
719.527, 336.592
720.823, 397.070
722.118, 259.646
723.413, 274.729
724.708, 165.863
726.002, 127.389
727.297, 133.688
728.591, 112.812
729.885, 150.695
731.179, 242.127
732.472, 132.648
733.766, 175.889
735.059, 232.412
736.352, 170.471
737.645, 167.584
738.937, 142.635
740.230, 130.939
741.522, 121.375
742.814, 129.516
744.106, 120.488
745.397, 121.896
746.689, 162.277
747.980, 0.867
749.271, 50.486
750.562, 10.305
751.853, 2.459
753.143, 37.887
754.433, 63.760
755.723, 132.979
757.013, 35.709
758.303, 67.092
759.592, 45.227
760.881, 25.604
762.170, 80.967
763.459, 97.766
764.748, 109.992
766.036, 35.148
767.325, 33.369
768.613, 126.883
769.901, 51.166
771.188, 80.482
772.476, 20.713
773.763, 98.127
775.050, 52.535
776.337, 267.207
777.624, 191.895
778.910, 140.719
780.196, 120.438
781.482, 128.836
782.768, 30.584
784.054, 13.900
785.339, 29.879
786.625, 13.674
787.910, 18.740
789.195, 7.670
790.479, 40.193
791.764, 18.080
793.048, 40.992
794.332, 77.883
795.616, 164.832
796.900, 72.797
798.183, 105.225
799.467, 103.738
800.750, 41.283
802.033, 66.297
803.316, 99.686
804.598, 67.686
805.880, 38.699
807.163, 169.727
808.445, 46.771
809.726, 122.830
811.008, 88.908
812.289, 174.998
813.570, 128.006
814.851, 158.229
816.132, 100.371
817.413, 130.533
818.693, 238.709
819.973, 164.904
821.253, 304.119
822.533, 229.350
823.813, 106.602
825.092, 172.873
826.371, 339.158
827.650, 262.465
828.929, 412.789
830.208, 539.131
831.486, 477.488
832.764, 542.865
834.042, 589.262
835.320, 526.676
836.598, 619.109
837.875, 633.561
839.152, 580.031
840.429, 680.260
841.706, 710.328
842.983, 805.555
844.259, 892.100
845.536, 968.736
846.812, 1128.320
848.088, 1257.928
849.363, 1447.553
850.639, 1749.201
851.914, 1873.420
853.189, 2104.559
854.464, 2242.270
855.739, 2529.031
857.013, 2752.830
858.288, 3081.650
859.562, 3379.494
860.836, 3883.391
862.110, 4158.309
863.383, 5061.279
864.656, 5419.268
865.930, 6108.281
867.203, 7049.314
868.475, 7846.371
869.748, 8744.455
871.020, 9965.574
872.292, 11039.725
873.564, 11941.898
874.836, 12964.094
876.108, 13691.312
877.379, 14451.562
878.650, 14797.836
879.922, 14709.129
881.192, 14511.449
882.463, 13935.797
883.733, 13424.174
885.004, 12346.574
886.274, 11294.000
887.544, 10791.453
888.813, 9374.934
890.083, 8698.441
891.352, 7841.975
892.621, 7103.537
893.890, 6266.125
895.159, 5648.742
896.427, 5034.387
897.695, 4484.205
898.964, 4178.770
900.232, 3629.498
901.499, 3343.928
902.767, 3100.115
904.034, 2823.895
905.301, 2493.293
906.568, 2278.182
907.835, 2070.098
909.102, 1919.338
910.368, 1744.869
911.634, 1726.014
912.900, 1476.049
914.166, 1425.129
915.432, 1345.434
916.697, 1204.609
917.962, 1196.809
919.227, 1012.688
920.492, 1047.738
921.757, 1061.096
923.021, 960.484
924.285, 884.898
925.550, 785.344
926.813, 733.721
928.077, 678.381
929.341, 612.520
930.604, 640.338
931.867, 557.941
933.130, 618.572
934.393, 714.236
935.655, 633.930
936.918, 579.252
938.180, 402.002
939.442, 414.146
940.703, 386.189
941.965, 436.207
943.226, 376.062
944.488, 500.947
945.749, 397.857
947.009, 506.793
948.270, 438.758
949.530, 435.748
950.791, 479.691
952.051, 387.734
953.311, 287.543
954.570, 506.375
955.830, 392.498
957.089, 334.648
958.348, 257.822
959.607, 355.027
960.866, 290.258
962.124, 277.520
963.383, 259.809
964.641, 249.123
965.899, 231.465
967.156, 212.967
968.414, 116.436
969.671, 181.863
970.928, 258.314
972.185, 269.793
973.442, 166.295
974.699, 295.826
975.955, 238.379
977.211, 85.961
978.468, 156.566
979.723, 47.197
980.979, 97.854
982.234, 276.535
983.490, 39.246
984.745, 26.980
986.000, 196.740
987.254, 201.525
988.509, 133.338
989.763, 143.176
991.017, 170.041
992.271, 346.934
993.525, 423.850
994.779, 159.797
996.032, 9.232
997.285, 231.760
998.538, 87.121
999.791, 373.168
1001.044, 42.549
1002.296, 198.646
1003.548, 203.799
1004.800, 197.121
1006.052, 113.721
1007.304, 301.521
1008.555, 140.760
1009.807, 242.572
1011.058, 126.787
1012.309, 188.176
1013.559, 301.182
1014.810, 305.654
1016.060, 337.203
1017.310, 268.781
1018.560, 291.721
1019.810, 270.070
1021.060, 285.488
1022.309, 234.184
1023.558, 230.377
1024.807, 188.977
1026.056, 240.795
1027.305, 45.633
1028.553, 241.629
1029.801, 236.547
1031.049, 111.498
1032.297, 235.490
1033.545, 411.510
1034.793, 169.736
1036.040, 235.957
1037.287, 355.059
1038.534, 209.447
1039.781, 224.594
1041.027, 247.973
1042.274, 262.156
1043.520, 416.359
1044.766, 303.582
1046.012, 492.154
1047.257, 652.711
1048.503, 418.252
1049.748, 259.564
1050.993, 263.064
1052.238, 289.412
1053.483, 430.016
1054.727, 172.410
1055.971, 408.662
1057.216, 257.096
1058.459, 389.918
1059.703, 736.414
1060.947, 262.016
1062.190, 426.553
1063.433, 264.109
1064.676, 420.678
1065.919, 283.279
1067.162, 756.023
1068.404, 632.672
1069.646, 528.342
1070.888, 387.027
1072.130, 452.961
1073.372, 322.668
1074.613, 404.518
1075.855, 407.242
1077.096, 444.994
1078.337, 402.752
1079.578, 403.760
1080.818, 369.715
1082.059, 402.633
1083.299, 326.424
1084.539, 277.463
1085.779, 349.268
1087.018, 267.080
1088.258, 283.898
1089.497, 266.221
1090.736, 238.961
1091.975, 250.385
1093.213, 214.377
1094.452, 161.523
1095.690, 214.996
1096.928, 242.578
1098.166, 245.758
1099.404, 151.508
1100.642, 183.102
1101.879, 164.281
1103.116, 170.436
1104.353, 292.344
1105.590, 317.258
1106.827, 295.172
1108.063, 183.527
1109.299, 147.875
1110.536, 209.197
1111.771, 145.119
1113.007, 128.148
1114.243, 298.512
1115.478, 13.131
1116.713, 87.213
1117.948, 91.527
1119.183, 201.652
1120.418, 140.576
1121.652, 358.502
1122.886, 394.424
1124.120, 351.346
1125.354, 187.266
1126.588, 165.184
1127.821, 89.098
1129.055, 92.072
1130.288, 85.293
1131.521, 170.391
1132.753, 69.289
1133.986, 62.596
1135.218, 10.504
1136.450, 197.320
1137.682, 119.066
1138.914, 164.520
1140.146, 155.193
1141.377, 143.959
1142.609, 74.895
1143.840, 123.209
1145.071, 59.197
1146.301, 14.271
1147.532, 54.350
1148.762, 12.662
1149.992, 77.951
1151.222, 0.166
1152.452, 6.725
1153.682, 128.762
1154.911, 80.732
1156.140, 131.309
1157.369, 18.039
1158.598, 128.297
1159.827, 87.066
1161.055, 119.168
1162.284, 93.580
1163.512, 139.723
1164.740, 83.936
1165.967, 253.771
1167.195, 86.637
1168.422, 56.676
1169.650, 14.156
1170.877, 74.811
1172.103, 29.230
1173.330, 39.426
1174.557, 64.195
1175.783, 22.869
1177.009, 111.479
1178.235, 139.801
1179.461, 225.377
1180.686, 193.604
1181.912, 45.555
1183.137, 54.225
1184.362, 182.875
1185.587, 32.711
1186.811, 166.170
1188.036, 51.111
1189.260, 130.691
1190.484, 119.275
1191.708, 116.656
1192.932, 36.518
1194.155, 53.482
1195.378, 63.619
1196.602, 269.812
1197.825, 87.107
1199.047, 166.738
1200.270, 79.027
1201.492, 282.576
1202.715, 59.941
1203.937, 191.559
1205.159, 55.814
1206.380, 212.625
1207.602, 130.070
1208.823, 385.014
1210.044, 273.799
1211.265, 205.629
1212.486, 214.695
1213.707, 134.258
1214.927, 276.254
1216.147, 263.201
1217.367, 256.883
1218.587, 119.496
1219.807, 180.037
1221.027, 148.426
1222.246, 241.680
1223.465, 338.266
1224.684, 210.422
1225.903, 133.535
1227.121, 216.617
1228.340, 119.906
1229.558, 342.754
1230.776, 141.734
1231.994, 340.859
1233.212, 515.771
1234.429, 517.652
1235.646, 366.510
1236.864, 240.350
1238.081, 251.168
1239.297, 180.967
1240.514, 340.742
1241.730, 191.496
1242.947, 282.229
1244.163, 359.941
1245.378, 297.316
1246.594, 388.441
1247.810, 283.080
1249.025, 313.691
1250.240, 308.275
1251.455, 307.840
1252.670, 262.377
1253.885, 139.891
1255.099, 144.393
1256.313, 152.855
1257.527, 258.287
1258.741, 227.688
1259.955, 151.062
1261.168, 154.531
1262.382, 158.838
1263.595, 168.768
1264.808, 216.330
1266.021, 269.539
1267.233, 298.709
1268.446, 318.604
1269.658, 345.895
1270.870, 334.814
1272.082, 340.613
1273.294, 346.312
1274.505, 264.953
1275.716, 206.553
1276.928, 236.090
1278.139, 375.553
1279.349, 186.916
1280.560, 283.197
1281.770, 119.402
1282.981, 308.551
1284.191, 183.654
1285.401, 132.711
1286.610, 314.260
1287.820, 120.191
1289.029, 185.494
1290.239, 245.330
1291.448, 151.119
1292.656, 139.508
1293.865, 259.182
1295.073, 139.498
1296.282, 201.068
1297.490, 58.561
1298.698, 256.859
1299.906, 220.855
1301.113, 49.635
1302.320, 119.953
1303.528, 104.318
1304.735, 55.018
1305.942, 51.094
1307.148, 65.434
1308.355, 135.449
1309.561, 24.439
1310.767, 79.730
1311.973, 40.021
1313.179, 45.715
1314.384, 97.656
1315.590, 147.021
1316.795, 102.191
1318.000, 3.105
1319.205, 14.512
1320.410, 8.867
1321.614, 35.971
1322.819, 0.240
1324.023, 20.010
1325.227, 53.447
1326.431, 26.543
1327.634, 164.232
1328.838, 163.984
1330.041, 29.828
1331.244, 197.357
1332.447, 123.104
1333.650, 162.588
1334.852, 159.232
1336.055, 86.832
1337.257, 60.383
1338.459, 1.562
1339.661, 234.730
1340.862, 214.889
1342.064, 185.250
1343.265, 133.398
1344.466, 173.672
1345.667, 137.676
1346.868, 142.123
1348.068, 60.176
1349.269, 152.270
1350.469, 95.949
1351.669, 122.961
1352.869, 192.842
1354.069, 114.494
1355.268, 151.859
1356.468, 154.713
1357.667, 105.479
1358.866, 160.262
1360.065, 162.137
1361.263, 212.590
1362.462, 222.922
1363.660, 232.475
1364.858, 261.094
1366.056, 286.555
1367.254, 199.113
1368.451, 294.469
1369.649, 385.781
1370.846, 308.750
1372.043, 386.924
1373.240, 277.646
1374.436, 333.605
1375.633, 251.486
1376.829, 377.293
1378.025, 405.771
1379.221, 295.924
1380.417, 372.025
1381.613, 327.920
1382.808, 487.787
1384.003, 467.834
1385.199, 687.625
1386.393, 482.463
1387.588, 470.250
1388.783, 426.043
1389.977, 266.273
1391.171, 336.283
1392.365, 443.883
1393.559, 335.705
1394.753, 348.125
1395.946, 451.490
1397.140, 352.801
1398.333, 304.988
1399.526, 346.594
1400.719, 441.250
1401.911, 447.203
1403.104, 516.695
1404.296, 280.688
1405.488, 519.797
1406.680, 269.492
1407.872, 479.047
1409.063, 473.191
1410.255, 435.596
1411.446, 521.736
1412.637, 436.357
1413.828, 398.453
1415.018, 368.523
1416.209, 418.898
1417.399, 352.115
1418.589, 375.266
1419.779, 354.773
1420.969, 237.344
1422.159, 335.463
1423.348, 427.625
1424.537, 470.094
1425.726, 359.850
1426.915, 492.453
1428.104, 532.172
1429.293, 84.391
1430.481, 263.895
1431.669, 94.785
1432.857, 230.705
1434.045, 230.154
1435.233, 410.986
1436.420, 261.303
1437.608, 396.660
1438.795, 229.125
1439.982, 312.602
1441.169, 367.367
1442.355, 340.660
1443.542, 197.566
1444.728, 290.967
1445.914, 228.070
1447.100, 359.965
1448.286, 263.576
1449.472, 281.471
1450.657, 285.209
1451.842, 373.756
1453.027, 331.109
1454.212, 352.258
1455.397, 296.879
1456.581, 218.637
1457.766, 237.189
1458.950, 130.508
1460.134, 245.562
1461.318, 216.422
1462.501, 262.742
1463.685, 287.652
1464.868, 314.891
1466.051, 301.908
1467.234, 223.180
1468.417, 202.178
1469.600, 257.328
1470.782, 246.588
1471.965, 271.291
1473.147, 317.275
1474.329, 248.258
1475.510, 246.609
1476.692, 223.336
1477.873, 213.135
1479.055, 149.625
1480.236, 226.867
1481.416, 228.141
1482.597, 249.385
1483.778, 168.574
1484.958, 168.717
1486.138, 188.809
1487.318, 268.869
1488.498, 99.943
1489.678, 213.621
1490.857, 130.781
1492.037, 161.084
1493.216, 107.576
1494.395, 357.248
1495.574, 58.059
1496.752, 87.967
1497.931, 137.000
1499.109, 33.756
1500.287, 171.594
1501.465, 166.051
1502.643, 265.652
1503.820, 10.438
1504.998, 63.393
1506.175, 162.711
1507.352, 99.311
1508.529, 190.803
1509.706, 126.352
1510.882, 208.107
1512.059, 83.551
1513.235, 40.566
1514.411, 154.188
1515.587, 41.199
1516.762, 0.607
1517.938, 133.160
1519.113, 0.000
##END=



