##NAMES=Ferberite
##RRUFFID=R050632
##IDEAL CHEMISTRY=Fe^2+^W^6+^O_4_
##LOCALITY=Chance mine, Boulder, Colorado, USA
##OWNER=RRUFF
##SOURCE=University of Arizona Mineral Museum
##DESCRIPTION=Dark brown rectangular prismatic crystals
##STATUS=The identification of this mineral has been confirmed by X-ray diffraction and chemical analysis
##URL=rruff.info/R050632
##MEASURED CHEMISTRY=Fe^2+^_1.00_WO_4_
##PIN_ID=M00317
##ORIENTATION=Laser parallel to (1 0 1). Fiducial mark perpendicular to laser is parallel to b [0 1 0]
156.2290, 0.0000000E+00
157.4550, 151.2129
158.6810, 178.1641
159.9080, 25.69824
161.1340, 5.146484
162.3590, 17.37402
163.5850, 386.6680
164.8110, 540.6211
166.0360, 323.0264
167.2610, 335.0244
168.4860, 343.5859
169.7110, 658.2002
170.9360, 925.4512
172.1610, 846.6201
173.3850, 1005.864
174.6100, 1118.466
175.8340, 1187.706
177.0580, 1081.347
178.2820, 1205.582
179.5050, 1238.566
180.7290, 1267.563
181.9520, 1423.676
183.1760, 1343.867
184.3990, 1496.909
185.6220, 1556.391
186.8450, 1658.141
188.0670, 1595.436
189.2900, 1578.205
190.5120, 1543.730
191.7340, 1617.051
192.9560, 1931.977
194.1780, 1912.036
195.4000, 2167.976
196.6220, 2089.948
197.8430, 2252.989
199.0640, 2346.484
200.2860, 2409.371
201.5070, 2279.066
202.7270, 2375.435
203.9480, 2378.931
205.1690, 2376.892
206.3890, 2499.659
207.6090, 2387.101
208.8290, 2507.989
210.0490, 2535.763
211.2690, 2279.175
212.4890, 2365.606
213.7080, 2658.067
214.9280, 2775.544
216.1470, 2489.031
217.3660, 2832.523
218.5850, 2245.445
219.8030, 2050.363
221.0220, 1281.985
222.2400, 1262.489
223.4590, 1016.066
224.6770, 650.6934
225.8950, 399.4580
227.1120, 305.4023
228.3300, 189.6475
229.5480, 136.1338
230.7650, 55.40332
231.9820, 54.42676
233.1990, 51.90039
234.4160, 7.836914
235.6330, 5.150391
236.8490, 89.83789
238.0660, 52.98730
239.2820, 78.69434
240.4980, 15.25195
241.7140, 16.26855
242.9300, 81.25391
244.1460, 10.81641
245.3610, 18.41895
246.5770, 93.94629
247.7920, 2.269531
249.0070, 113.5498
250.2220, 38.77734
251.4370, 117.9512
252.6510, 173.0664
253.8660, 99.12207
255.0800, 266.1221
256.2940, 415.0654
257.5080, 918.9551
258.7220, 1055.441
259.9360, 990.0723
261.1490, 1460.302
262.3630, 805.9795
263.5760, 683.6074
264.7890, 864.1816
266.0020, 875.7021
267.2150, 872.1562
268.4270, 940.5107
269.6400, 949.8311
270.8520, 1017.320
272.0640, 1027.011
273.2760, 1144.951
274.4880, 1216.816
275.7000, 1256.619
276.9120, 1162.363
278.1230, 1225.057
279.3340, 1062.703
280.5450, 947.3086
281.7560, 1007.871
282.9670, 842.3916
284.1780, 831.8691
285.3880, 771.3047
286.5980, 772.5557
287.8090, 845.4102
289.0190, 812.6270
290.2290, 855.6152
291.4380, 862.0713
292.6480, 1005.837
293.8570, 991.0430
295.0670, 1163.747
296.2760, 1306.891
297.4850, 1430.883
298.6930, 1554.453
299.9020, 1515.563
301.1110, 1779.822
302.3190, 1849.570
303.5270, 1303.678
304.7350, 1039.650
305.9430, 1122.328
307.1510, 973.9717
308.3580, 958.3789
309.5660, 1037.914
310.7730, 1144.834
311.9800, 1081.633
313.1870, 1125.186
314.3940, 1259.089
315.6010, 1296.334
316.8070, 1372.565
318.0130, 1509.915
319.2200, 1612.149
320.4260, 2009.312
321.6310, 1970.957
322.8370, 2266.092
324.0430, 2629.979
325.2480, 2624.359
326.4540, 2759.582
327.6590, 2924.557
328.8640, 2954.615
330.0680, 2897.757
331.2730, 2759.695
332.4780, 2631.906
333.6820, 2526.702
334.8860, 2528.425
336.0900, 2426.161
337.2940, 2291.921
338.4980, 2252.172
339.7010, 2340.773
340.9050, 2246.269
342.1080, 2014.704
343.3110, 2390.977
344.5140, 2182.183
345.7170, 2241.476
346.9200, 2314.710
348.1220, 2199.271
349.3240, 2302.217
350.5270, 2176.131
351.7290, 2075.023
352.9310, 2257.895
354.1320, 2009.745
355.3340, 2022.572
356.5350, 2027.377
357.7370, 2088.158
358.9380, 1973.627
360.1390, 1757.653
361.3400, 1764.364
362.5400, 1670.052
363.7410, 1596.717
364.9410, 1744.616
366.1410, 1615.462
367.3410, 1564.965
368.5410, 1505.130
369.7410, 1376.672
370.9400, 1281.188
372.1400, 1231.677
373.3390, 1205.897
374.5380, 1131.075
375.7370, 973.4648
376.9360, 1033.030
378.1350, 925.8320
379.3330, 893.9893
380.5310, 956.9307
381.7300, 948.5176
382.9280, 845.0625
384.1260, 775.9346
385.3230, 840.4316
386.5210, 748.7656
387.7180, 785.3271
388.9160, 710.4482
390.1130, 834.6328
391.3100, 909.9443
392.5060, 947.6123
393.7030, 1016.933
394.9000, 1127.051
396.0960, 1436.100
397.2920, 1284.563
398.4880, 1538.684
399.6840, 1457.425
400.8800, 1363.133
402.0750, 1372.808
403.2710, 1320.451
404.4660, 948.0615
405.6610, 881.6406
406.8560, 633.1875
408.0510, 603.7031
409.2450, 469.1865
410.4400, 565.6387
411.6340, 433.0586
412.8280, 350.4492
414.0220, 213.8096
415.2160, 142.1387
416.4100, 98.25586
417.6030, 185.6982
418.7970, 53.93164
419.9900, 128.1260
421.1830, 131.2881
422.3760, 95.42188
423.5690, 111.5215
424.7610, 147.5889
425.9540, 131.2471
427.1460, 54.63574
428.3380, 117.6074
429.5300, 41.54980
430.7220, 19.55078
431.9140, 28.29199
433.1050, 37.08008
434.2970, 107.8242
435.4880, 10.46875
436.6790, 21.21875
437.8700, 88.77246
439.0610, 56.70410
440.2510, 10.74609
441.4420, 90.87988
442.6320, 80.47559
443.8220, 8.008789
445.0120, 31.20801
446.2020, 98.72168
447.3910, 30.68066
448.5810, 0.4277340
449.7700, 110.1602
450.9600, 8.997070
452.1490, 52.47754
453.3370, 20.56348
454.5260, 119.0234
455.7150, 214.6885
456.9030, 113.1377
458.0910, 298.9648
459.2800, 350.0879
460.4670, 131.0322
461.6550, 77.52246
462.8430, 8.318359
464.0300, 71.11621
465.2180, 230.9668
466.4050, 173.1914
467.5920, 123.7256
468.7790, 142.2861
469.9650, 286.4453
471.1520, 156.2881
472.3380, 124.0713
473.5250, 161.0010
474.7110, 111.9180
475.8970, 182.4346
477.0820, 86.56445
478.2680, 264.0137
479.4540, 148.4326
480.6390, 94.82227
481.8240, 195.1758
483.0090, 221.5000
484.1940, 430.7979
485.3780, 403.7178
486.5630, 209.3105
487.7470, 410.5361
488.9320, 272.8730
490.1160, 239.0391
491.3000, 317.6797
492.4830, 365.7959
493.6670, 391.3467
494.8500, 461.9531
496.0340, 441.9941
497.2170, 453.0117
498.4000, 390.0049
499.5820, 413.9746
500.7650, 500.9209
501.9480, 649.8438
503.1300, 601.7441
504.3120, 558.6221
505.4940, 705.4766
506.6760, 749.3076
507.8580, 770.1172
509.0390, 774.9053
510.2210, 759.6709
511.4020, 794.6162
512.5830, 601.1387
513.7640, 826.8408
514.9450, 769.5234
516.1250, 736.1846
517.3060, 897.8281
518.4860, 760.4551
519.6660, 934.0654
520.8460, 803.6729
522.0260, 850.2656
523.2060, 894.8457
524.3850, 889.4092
525.5650, 970.9717
526.7440, 877.5391
527.9230, 949.0947
529.1020, 960.6387
530.2810, 878.1904
531.4590, 824.7314
532.6380, 793.2646
533.8160, 815.7832
534.9940, 882.2930
536.1720, 774.7891
537.3500, 764.2744
538.5270, 744.7461
539.7050, 678.2051
540.8820, 580.6533
542.0590, 609.0859
543.2360, 650.5059
544.4130, 513.9121
545.5900, 493.3037
546.7660, 585.6836
547.9430, 448.0508
549.1190, 589.4062
550.2950, 398.7480
551.4710, 390.0801
552.6470, 424.4004
553.8220, 441.7070
554.9980, 443.0059
556.1730, 304.0742
557.3480, 374.7988
558.5230, 323.9580
559.6980, 318.9512
560.8730, 325.1445
562.0470, 278.7568
563.2220, 316.3975
564.3960, 270.5771
565.5700, 353.0127
566.7440, 206.7939
567.9170, 169.4521
569.0910, 221.6934
570.2640, 413.2324
571.4380, 278.0664
572.6110, 423.7139
573.7840, 259.0576
574.9570, 241.7559
576.1290, 399.1406
577.3020, 245.3330
578.4740, 239.9307
579.6460, 152.7373
580.8180, 75.12695
581.9900, 62.73047
583.1620, 16.99023
584.3330, 23.93359
585.5040, 53.53906
586.6760, 81.15332
587.8470, 41.41699
589.0180, 104.2256
590.1880, 59.80078
591.3590, 66.58105
592.5290, 38.88184
593.7000, 5.239258
594.8700, 17.95996
596.0400, 19.45605
597.2090, 76.87598
598.3790, 48.56836
599.5490, 6.615234
600.7180, 131.3447
601.8870, 80.82031
603.0560, 17.39258
604.2250, 50.90723
605.3940, 118.5771
606.5620, 26.54590
607.7300, 43.26367
608.8990, 75.60645
610.0670, 23.16699
611.2350, 31.83594
612.4020, 9.952148
613.5700, 19.17383
614.7370, 20.21484
615.9050, 79.44824
617.0720, 63.48730
618.2390, 11.62500
619.4060, 41.70996
620.5720, 148.7559
621.7390, 156.2881
622.9050, 138.4326
624.0710, 128.7559
625.2370, 12.78027
626.4030, 33.98633
627.5690, 3.214844
628.7340, 11.53711
629.9000, 86.73242
631.0650, 65.97559
632.2300, 165.3242
633.3950, 92.64746
634.5600, 114.9932
635.7240, 116.3643
636.8890, 35.75781
638.0530, 8.177734
639.2170, 136.6211
640.3810, 199.0908
641.5450, 298.5859
642.7080, 240.1064
643.8720, 100.6533
645.0350, 215.2275
646.1980, 216.8291
647.3610, 327.4561
648.5240, 353.0020
649.6870, 283.7949
650.8490, 373.5059
652.0120, 328.2461
653.1740, 242.0156
654.3360, 428.8145
655.4980, 473.6426
656.6600, 453.5010
657.8210, 585.3887
658.9830, 413.3076
660.1440, 458.2568
661.3050, 419.2363
662.4660, 624.2490
663.6270, 664.2939
664.7870, 572.3682
665.9480, 757.4775
667.1080, 671.6172
668.2680, 731.7900
669.4280, 783.9961
670.5880, 900.2344
671.7480, 879.5059
672.9070, 1053.812
674.0670, 1156.151
675.2260, 1196.526
676.3850, 1382.935
677.5440, 1673.379
678.7030, 1366.858
679.8610, 1464.373
681.0200, 2045.922
682.1780, 1523.508
683.3360, 1730.130
684.4940, 1670.789
685.6520, 1758.484
686.8090, 1930.217
687.9670, 1813.987
689.1240, 1761.795
690.2810, 1818.641
691.4380, 1791.523
692.5950, 1785.446
693.7520, 1507.407
694.9080, 1590.408
696.0650, 1357.448
697.2210, 1253.531
698.3770, 1214.658
699.5330, 1288.826
700.6880, 1076.057
701.8440, 1025.348
702.9990, 905.7070
704.1550, 824.1318
705.3100, 897.6045
706.4650, 815.1299
707.6190, 635.6992
708.7740, 678.3252
709.9290, 544.0020
711.0830, 609.7432
712.2370, 413.5605
713.3910, 479.4746
714.5450, 458.4453
715.6980, 311.4619
716.8520, 396.5537
718.0050, 445.7266
719.1580, 207.9473
720.3110, 335.2529
721.4640, 307.6309
722.6170, 540.0078
723.7700, 331.1689
724.9220, 219.0898
726.0740, 271.8447
727.2260, 171.5723
728.3780, 183.3711
729.5300, 207.4795
730.6810, 89.36133
731.8330, 213.6152
732.9840, 255.2725
734.1350, 302.5859
735.2860, 331.7627
736.4370, 240.0225
737.5880, 301.6396
738.7380, 116.8369
739.8880, 235.3359
741.0390, 227.0420
742.1890, 299.2539
743.3380, 298.3936
744.4880, 435.2422
745.6380, 418.1484
746.7870, 343.0645
747.9360, 387.8721
749.0850, 550.0303
750.2340, 390.5586
751.3830, 549.7275
752.5310, 546.7666
753.6800, 525.8389
754.8280, 496.3340
755.9760, 509.2451
757.1240, 556.6357
758.2720, 651.5176
759.4190, 698.2305
760.5670, 775.0029
761.7140, 847.8262
762.8610, 865.7109
764.0080, 902.7256
765.1550, 842.6318
766.3020, 933.6611
767.4480, 906.6025
768.5950, 938.7422
769.7410, 1024.433
770.8870, 1004.677
772.0330, 944.9746
773.1780, 968.3223
774.3240, 865.7217
775.4690, 983.1729
776.6140, 1076.674
777.7590, 952.2266
778.9040, 1047.830
780.0490, 1015.486
781.1940, 918.1924
782.3380, 924.9502
783.4820, 878.7588
784.6260, 1033.619
785.7700, 847.5293
786.9140, 907.4922
788.0580, 812.5049
789.2010, 776.5693
790.3450, 867.6855
791.4880, 824.8506
792.6310, 815.0684
793.7730, 883.5352
794.9160, 853.6553
796.0590, 905.0244
797.2010, 818.4443
798.3430, 831.3447
799.4850, 650.4365
800.6270, 757.0098
801.7690, 786.6328
802.9100, 662.3057
804.0520, 712.0303
805.1930, 556.8057
806.3340, 840.6299
807.4750, 693.1270
808.6160, 730.4326
809.7560, 545.4082
810.8970, 717.4346
812.0370, 570.5117
813.1770, 548.6377
814.3170, 573.8135
815.4570, 658.0391
816.5960, 510.3154
817.7360, 613.6396
818.8750, 519.0146
820.0140, 615.4375
821.1530, 543.9092
822.2920, 617.4307
823.4310, 560.0020
824.5690, 545.6221
825.7070, 684.2900
826.8460, 632.0068
827.9840, 601.7715
829.1220, 689.5850
830.2590, 761.4453
831.3970, 842.3545
832.5340, 884.3115
833.6710, 985.3164
834.8080, 1015.367
835.9450, 1001.467
837.0820, 1214.037
838.2190, 1325.318
839.3550, 1266.204
840.4910, 1429.433
841.6270, 1525.542
842.7630, 1831.669
843.8990, 1835.089
845.0350, 2078.308
846.1700, 2179.098
847.3060, 2380.433
848.4410, 2460.068
849.5760, 2795.793
850.7100, 3045.556
851.8450, 3172.279
852.9800, 3673.583
854.1140, 3788.653
855.2480, 4222.502
856.3820, 4710.055
857.5160, 5029.492
858.6500, 5730.309
859.7830, 6031.320
860.9170, 6518.760
862.0500, 7331.912
863.1830, 8083.194
864.3160, 9090.287
865.4480, 10114.03
866.5810, 11375.35
867.7130, 12622.74
868.8460, 13817.67
869.9780, 15461.76
871.1100, 16934.26
872.2410, 18270.79
873.3730, 19158.25
874.5050, 20003.88
875.6360, 19947.54
876.7670, 19696.48
877.8980, 18802.34
879.0290, 17528.12
880.1590, 15842.92
881.2900, 14116.47
882.4200, 12557.90
883.5500, 10888.81
884.6800, 9558.390
885.8100, 8336.939
886.9400, 7233.027
888.0690, 6260.071
889.1990, 5465.146
890.3280, 5037.936
891.4570, 4196.131
892.5860, 3416.301
893.7140, 3353.623
894.8430, 2795.101
895.9710, 2609.268
897.1000, 2296.560
898.2280, 1966.086
899.3560, 1844.436
900.4830, 1724.810
901.6110, 1622.208
902.7380, 1499.506
903.8660, 1361.591
904.9930, 1260.572
906.1200, 1113.694
907.2460, 977.5547
908.3730, 939.1143
909.5000, 911.7129
910.6260, 934.3350
911.7520, 820.9893
912.8780, 916.6699
914.0040, 817.3809
915.1290, 871.1143
916.2550, 827.8750
917.3800, 791.6572
918.5050, 959.4707
919.6300, 821.3066
920.7550, 919.1611
921.8800, 795.0342
923.0040, 801.9258
924.1290, 817.8359
925.2530, 807.5156
926.3770, 1027.719
927.5010, 944.6895
928.6250, 748.6758
929.7480, 943.6816
930.8720, 871.7021
931.9950, 895.7480
933.1180, 833.8320
934.2410, 819.9326
935.3640, 954.0684
936.4860, 981.2178
937.6090, 893.4004
938.7310, 837.6191
939.8530, 932.8652
940.9750, 982.1240
942.0970, 1015.396
943.2180, 1059.173
944.3400, 1044.984
945.4610, 1071.300
946.5820, 1020.628
947.7030, 952.9688
948.8240, 901.3203
949.9450, 951.6826
951.0650, 1008.056
952.1860, 756.4395
953.3060, 726.8340
954.4260, 606.2383
955.5460, 497.6523
956.6650, 477.4561
957.7850, 427.5068
958.9040, 376.9453
960.0230, 379.3916
961.1420, 259.8447
962.2610, 220.3047
963.3800, 172.7705
964.4990, 209.2422
965.6170, 91.71973
966.7350, 124.3135
967.8530, 64.68945
968.9710, 102.1816
970.0890, 26.67871
971.2070, 51.81934
972.3240, 81.33691
973.4410, 108.8877
974.5580, 76.48633
975.6750, 15.11719
976.7920, 33.75391
977.9090, 13.59473
979.0250, 12.05566
980.1410, 21.71191
981.2580, 43.38086
982.3740, 21.07324
983.4890, 173.7793
984.6050, 6.429688
985.7200, 87.63574
986.8360, 21.16016
987.9510, 86.97070
989.0660, 39.17090
990.1810, 20.68848
991.2950, 32.56641
992.4100, 64.53223
993.5240, 47.62793
994.6390, 30.27832
995.7530, 23.20996
996.8660, 87.83496
997.9800, 53.87793
999.0940, 8.916016
1000.207, 84.94434
1001.320, 3.2226998E-02
1002.433, 10.97656
1003.546, 96.02148
1004.659, 52.91211
1005.772, 156.8408
1006.884, 162.2373
1007.996, 55.58496
1009.108, 103.3984
1010.220, 66.79199
1011.332, 4.961914
1012.444, 105.6982
1013.555, 97.42578
1014.666, 2.854492
1015.777, 22.84082
1016.888, 160.5215
1017.999, 84.05176
1019.110, 65.44727
1020.220, 168.8252
1021.331, 104.6074
1022.441, 175.0312
1023.551, 25.53418
1024.661, 2.068359
1025.770, 94.81641
1026.880, 54.20020
1027.989, 47.52051
1029.098, 24.85059
1030.207, 74.21680
1031.316, 3.3202998E-02
1032.425, 236.4062
1033.533, 188.9355
1034.642, 126.2422
1035.750, 276.6729
1036.858, 136.6904
1037.966, 145.8584
1039.073, 44.04688
1040.181, 57.22363
1041.288, 106.0039
1042.396, 144.0996
1043.503, 134.6553
1044.610, 254.0244
1045.716, 156.8242
1046.823, 190.6914
1047.929, 260.5518
1049.036, 298.2207
1050.142, 345.2529
1051.248, 342.0352
1052.353, 386.0107
1053.459, 328.9863
1054.564, 338.9658
1055.670, 267.2969
1056.775, 305.2217
1057.880, 227.5645
1058.985, 197.0840
1060.089, 390.9551
1061.194, 418.1611
1062.298, 422.9961
1063.402, 302.8115
1064.506, 352.2119
1065.610, 438.9102
1066.713, 486.2021
1067.817, 448.4834
1068.920, 418.2314
1070.023, 494.5908
1071.126, 495.6230
1072.229, 433.3193
1073.332, 391.9551
1074.435, 433.5918
1075.537, 470.6582
1076.639, 570.9238
1077.741, 387.0732
1078.843, 439.1045
1079.945, 448.8330
1081.046, 379.3223
1082.148, 343.9951
1083.249, 349.4395
1084.350, 502.4629
1085.451, 506.2441
1086.551, 432.6191
1087.652, 479.0908
1088.752, 458.7627
1089.853, 283.0674
1090.953, 352.3486
1092.053, 310.6064
1093.152, 393.8408
1094.252, 415.0498
1095.351, 400.2363
1096.451, 354.3975
1097.550, 317.5352
1098.649, 313.9883
1099.748, 289.2969
1100.846, 307.7998
1101.945, 302.9102
1103.043, 309.0508
1104.141, 377.0449
1105.239, 345.2764
1106.337, 396.9590
1107.434, 258.7822
1108.532, 362.3809
1109.629, 417.9355
1110.726, 430.8301
1111.823, 265.6455
1112.920, 328.8584
1114.017, 299.0957
1115.113, 266.6943
1116.210, 353.3682
1117.306, 214.5293
1118.402, 309.2549
1119.498, 309.1641
1120.593, 347.9307
1121.689, 299.6104
1122.784, 278.1182
1123.879, 348.2627
1124.974, 369.6084
1126.069, 310.5605
1127.164, 354.7803
1128.259, 210.5225
1129.353, 233.9541
1130.447, 328.8340
1131.541, 273.8525
1132.635, 322.0244
1133.729, 330.3555
1134.822, 161.0850
1135.916, 294.8174
1137.009, 301.5234
1138.102, 170.8701
1139.195, 289.7129
1140.288, 178.0586
1141.380, 152.4707
1142.473, 186.5186
1143.565, 156.9951
1144.657, 235.1885
1145.749, 210.6494
1146.841, 175.3672
1147.932, 181.1152
1149.024, 73.90918
1150.115, 170.5615
1151.206, 124.5352
1152.297, 143.6270
1153.388, 190.7285
1154.479, 114.0703
1155.569, 167.7412
1156.659, 16.34473
1157.750, 37.38965
1158.839, 39.94336
1159.929, 151.4727
1161.019, 2.107422
1162.108, 18.31250
1163.198, 102.4014
1164.287, 90.56152
1165.376, 119.7168
1166.465, 27.40234
1167.553, 49.15723
1168.642, 39.42383
1169.730, 138.3535
1170.818, 150.8652
1171.906, 60.18262
1172.994, 29.76758
1174.082, 76.86816
1175.170, 2.890625
1176.257, 7.581055
1177.344, 5.159180
1178.431, 49.54297
1179.518, 9.834961
1180.605, 119.0938
1181.691, 18.65430
1182.778, 77.54980
1183.864, 285.7305
1184.950, 178.8906
1186.036, 81.03125
1187.122, 155.1514
1188.207, 78.25098
1189.292, 8.325195
1190.378, 185.3672
1191.463, 88.38965
1192.548, 155.3887
1193.632, 189.3691
1194.717, 10.66895
1195.801, 47.74902
1196.886, 70.10938
1197.970, 42.10547
1199.054, 143.7539
1200.137, 44.37207
1201.221, 55.64746
1202.305, 18.98730
1203.388, 220.6572
1204.471, 146.2520
1205.554, 73.82617
1206.637, 55.48730
1207.719, 62.72754
1208.802, 70.07910
1209.884, 103.0176
1210.966, 159.6270
1212.048, 105.0654
1213.130, 167.5791
1214.212, 60.97949
1215.293, 83.35645
1216.374, 201.7109
1217.456, 123.0459
1218.536, 87.36328
1219.617, 151.6592
1220.698, 207.9375
1221.778, 249.1963
1222.859, 290.4385
1223.939, 202.6621
1225.019, 237.3584
1226.099, 329.0566
1227.178, 182.2266
1228.258, 231.3809
1229.337, 150.5166
1230.417, 223.6338
1231.496, 132.7363
1232.574, 118.8203
1233.653, 311.8857
1234.732, 106.9463
1235.810, 198.1895
1236.888, 112.2637
1237.966, 113.3359
1239.044, 206.3965
1240.122, 237.4502
1241.199, 239.8760
1242.277, 149.5117
1243.354, 216.5908
1244.431, 179.6025
1245.508, 120.8848
1246.585, 149.0508
1247.661, 114.8506
1248.738, 134.9443
1249.814, 149.9395
1250.890, 141.9424
1251.966, 260.9287
1253.042, 143.9072
1254.117, 250.8818
1255.193, 213.8418
1256.268, 248.7842
1257.343, 295.7236
1258.418, 337.6836
1259.493, 216.6016
1260.567, 190.5742
1261.642, 219.4648
1262.716, 77.34082
1263.790, 209.2051
1264.864, 162.0518
1265.938, 131.0732
1267.011, 258.9238
1268.085, 364.8643
1269.158, 114.0342
1270.231, 180.8887
1271.304, 125.7266
1272.377, 226.5752
1273.450, 272.4141
1274.522, 288.2393
1275.594, 105.0488
1276.666, 255.8564
1277.738, 170.6543
1278.810, 344.6826
1279.882, 120.4805
1280.953, 82.25781
1282.025, 182.2314
1283.096, 72.98535
1284.167, 205.7119
1285.238, 256.9834
1286.308, 202.2637
1287.379, 204.0225
1288.449, 89.27441
1289.519, 202.3223
1290.589, 266.4072
1291.659, 286.6904
1292.729, 130.9385
1293.798, 204.0322
1294.868, 185.5791
1295.937, 162.2129
1297.006, 266.9727
1298.075, 138.9795
1299.143, 242.8447
1300.212, 253.7637
1301.280, 306.9629
1302.348, 263.6367
1303.416, 252.3340
1304.484, 331.5518
1305.552, 360.5771
1306.620, 107.6602
1307.687, 169.3379
1308.754, 393.2734
1309.821, 128.5586
1310.888, 202.8867
1311.955, 275.9736
1313.021, 243.4893
1314.088, 249.1680
1315.154, 202.7549
1316.220, 195.2373
1317.286, 201.4229
1318.352, 186.6084
1319.417, 233.5469
1320.483, 183.6816
1321.548, 223.4541
1322.613, 201.1875
1323.678, 131.1562
1324.743, 119.9326
1325.807, 144.8828
1326.872, 438.1338
1327.936, 91.54102
1329.000, 340.2803
