##NAMES=Ferberite
##RRUFFID=R050090
##IDEAL CHEMISTRY=Fe^2+^W^6+^O_4_
##LOCALITY=Yaogangxian mine, Cheng Zhu City, South Hunan, China
##OWNER=RRUFF
##SOURCE=Rock Currier
##DESCRIPTION=Dark gray tabular crystal
##STATUS=The identification of this mineral has been confirmed by X-ray diffraction and chemical analysis
##URL=rruff.info/R050090
##MEASURED CHEMISTRY=(Fe^2+^_0.56_Mn_0.44_)W_1.00_O_4_
##PIN_ID=L01753
##ORIENTATION=Laser parallel to a* (1 0 0). Fiducial mark perpendicular to laser is parallel to b [0 1 0]
98.41600, 0.0000000E+00
99.64900, 105.7422
100.8830, 238.1304
102.1160, 10.18994
103.3490, 169.0376
104.5820, 306.4854
105.8150, 402.9946
107.0470, 327.3301
108.2800, 481.0063
109.5120, 544.9180
110.7440, 605.5942
111.9760, 793.4390
113.2080, 748.0615
114.4400, 986.3276
115.6710, 1297.688
116.9030, 1918.063
118.1340, 2204.860
119.3650, 2258.315
120.5960, 2349.623
121.8270, 2570.950
123.0580, 2806.749
124.2880, 3010.284
125.5190, 2859.987
126.7490, 2408.141
127.9790, 2339.955
129.2090, 2241.740
130.4390, 2177.640
131.6680, 1786.930
132.8980, 1499.524
134.1270, 1148.047
135.3560, 772.8257
136.5850, 821.4990
137.8140, 649.0112
139.0430, 706.3604
140.2710, 751.5698
141.5000, 648.6621
142.7280, 354.7012
143.9560, 259.7075
145.1840, 281.6963
146.4120, 142.6240
147.6390, 300.4810
148.8670, 179.2705
150.0940, 54.99951
151.3210, 161.6660
152.5490, 136.4932
153.7750, 393.7979
155.0020, 220.2739
156.2290, 192.6968
157.4550, 98.06885
158.6810, 72.60498
159.9080, 31.32178
161.1340, 190.0757
162.3590, 27.49023
163.5850, 4.427734
164.8110, 240.1577
166.0360, 468.1274
167.2610, 374.1064
168.4860, 462.7173
169.7110, 483.9209
170.9360, 642.1440
172.1610, 519.7646
173.3850, 548.2109
174.6100, 548.7544
175.8340, 519.9741
177.0580, 496.8809
178.2820, 600.8589
179.5050, 589.1533
180.7290, 647.9946
181.9520, 664.1646
183.1760, 776.3706
184.3990, 814.9390
185.6220, 928.5225
186.8450, 1090.760
188.0670, 1230.812
189.2900, 1275.475
190.5120, 1478.921
191.7340, 1740.398
192.9560, 2035.155
194.1780, 2372.729
195.4000, 2677.309
196.6220, 3084.892
197.8430, 3529.473
199.0640, 3624.050
200.2860, 3738.630
201.5070, 4153.211
202.7270, 4485.686
203.9480, 4565.945
205.1690, 4041.175
206.3890, 4352.415
207.6090, 2689.662
208.8290, 2317.915
210.0490, 1855.173
211.2690, 1597.438
212.4890, 1300.180
213.7080, 1058.889
214.9280, 865.2666
216.1470, 749.5547
217.3660, 598.8472
218.5850, 579.1445
219.8030, 414.4473
221.0220, 384.7549
222.2400, 109.0664
223.4590, 143.3828
224.6770, 100.7036
225.8950, 49.02832
227.1120, 112.3574
228.3300, 132.6904
229.5480, 86.02686
230.7650, 78.63281
231.9820, 65.71094
233.1990, 98.94238
234.4160, 5.404785
235.6330, 10.74854
236.8490, 67.91113
238.0660, 12.60205
239.2820, 34.35938
240.4980, 49.16602
241.7140, 30.96338
242.9300, 23.03369
244.1460, 66.08008
245.3610, 57.47705
246.5770, 83.81055
247.7920, 52.89941
249.0070, 122.2212
250.2220, 99.45068
251.4370, 110.7388
252.6510, 191.0093
253.8660, 248.2769
255.0800, 314.5405
256.2940, 277.7690
257.5080, 389.1631
258.7220, 745.3369
259.9360, 698.1914
261.1490, 681.3408
262.3630, 788.5815
263.5760, 443.5366
264.7890, 335.4390
266.0020, 273.2920
267.2150, 227.1021
268.4270, 204.8726
269.6400, 115.7642
270.8520, 75.50195
272.0640, 77.10938
273.2760, 169.7642
274.4880, 63.56787
275.7000, 19.88818
276.9120, 189.8633
278.1230, 184.7192
279.3340, 134.0464
280.5450, 31.14893
281.7560, 75.58398
282.9670, 82.45557
284.1780, 89.26367
285.3880, 140.5063
286.5980, 177.4258
287.8090, 246.4102
289.0190, 299.2188
290.2290, 428.0278
291.4380, 412.8291
292.6480, 485.8047
293.8570, 487.1875
295.0670, 579.9053
296.2760, 743.6938
297.4850, 839.3472
298.6930, 860.8926
299.9020, 904.6646
301.1110, 1022.453
302.3190, 1148.417
303.5270, 1234.592
304.7350, 1512.349
305.9430, 1702.274
307.1510, 1938.217
308.3580, 2143.919
309.5660, 2618.014
310.7730, 2777.733
311.9800, 3288.381
313.1870, 3772.033
314.3940, 4160.608
315.6010, 4601.109
316.8070, 5020.611
318.0130, 5376.107
319.2200, 5783.598
320.4260, 6058.094
321.6310, 6308.599
322.8370, 6406.106
324.0430, 6378.397
325.2480, 6419.153
326.4540, 6050.679
327.6590, 5828.204
328.8640, 5500.730
330.0680, 5110.253
331.2730, 4734.783
332.4780, 4368.909
333.6820, 3968.577
334.8860, 3582.371
336.0900, 3242.887
337.2940, 2788.396
338.4980, 2557.904
339.7010, 2192.409
340.9050, 2001.086
342.1080, 2025.421
343.3110, 1689.932
344.5140, 1612.440
345.7170, 1489.947
346.9200, 1394.450
348.1220, 1278.953
349.3240, 1176.455
350.5270, 1033.956
351.7290, 1020.456
352.9310, 1051.956
354.1320, 820.4541
355.3340, 835.9526
356.5350, 820.4497
357.7370, 603.9458
358.9380, 604.4473
360.1390, 584.9473
361.3400, 516.5049
362.5400, 505.1821
363.7410, 484.4399
364.9410, 457.9351
366.1410, 424.4287
367.3410, 449.6309
368.5410, 360.9800
369.7410, 357.1533
370.9400, 163.9028
372.1400, 152.1304
373.3390, 152.4458
374.5380, 134.5488
375.7370, 160.3286
376.9360, 162.2734
378.1350, 116.8242
379.3330, 186.9028
380.5310, 211.1436
381.7300, 88.70801
382.9280, 155.2300
384.1260, 119.4849
385.3230, 155.2896
386.5210, 103.9360
387.7180, 92.48682
388.9160, 64.50488
390.1130, 53.95068
391.3100, 155.7358
392.5060, 210.8330
393.7030, 222.3887
394.9000, 58.28467
396.0960, 120.9121
397.2920, 92.88232
398.4880, 61.11865
399.6840, 155.8252
400.8800, 17.45850
402.0750, 110.1387
403.2710, 110.5747
404.4660, 153.2153
405.6610, 104.4390
406.8560, 83.88770
408.0510, 154.7656
409.2450, 175.0059
410.4400, 115.6714
411.6340, 160.9473
412.8280, 19.30029
414.0220, 41.47705
415.2160, 65.79150
416.4100, 35.14209
417.6030, 5.064453
418.7970, 52.75098
419.9900, 44.93262
421.1830, 49.88135
422.3760, 6.726563
423.5690, 3.287109
424.7610, 10.41699
425.9540, 45.30713
427.1460, 95.08984
428.3380, 133.0996
429.5300, 2.176758
430.7220, 10.15527
431.9140, 182.1890
433.1050, 186.7866
434.2970, 136.8120
435.4880, 110.8325
436.6790, 65.85010
437.8700, 124.8633
439.0610, 200.8726
440.2510, 107.8125
441.4420, 187.8188
442.6320, 156.8208
443.8220, 146.4214
445.0120, 191.3188
446.2020, 211.0698
447.3910, 140.1660
448.5810, 345.1147
449.7700, 124.8218
450.9600, 142.6694
452.1490, 8.912598
453.3370, 202.5493
454.5260, 138.6255
455.7150, 287.8335
456.9030, 154.9111
458.0910, 311.9844
459.2800, 252.2861
460.4670, 97.35059
461.6550, 238.4141
462.8430, 207.2998
464.0300, 177.5713
465.2180, 202.6475
466.4050, 238.3008
467.5920, 194.3774
468.7790, 226.4502
469.9650, 196.5176
471.1520, 218.5801
472.3380, 308.6377
473.5250, 257.2715
474.7110, 265.4185
475.8970, 209.4604
477.0820, 255.4980
478.2680, 181.5298
479.4540, 309.5615
480.6390, 262.5874
481.8240, 268.6079
483.0090, 223.6240
484.1940, 148.1655
485.3780, 213.7544
486.5630, 237.7549
487.7470, 193.7495
488.9320, 351.7393
490.1160, 264.7231
491.3000, 250.7026
492.4830, 242.6763
493.6670, 158.6445
494.8500, 161.6084
496.0340, 235.5664
497.2170, 409.5195
498.4000, 224.4673
499.5820, 195.4097
500.7650, 359.6719
501.9480, 184.6035
503.1300, 337.5308
504.3120, 367.4521
505.4940, 348.3682
506.6760, 258.2793
507.8580, 318.1851
509.0390, 276.0850
510.2210, 291.9814
511.4020, 226.8730
512.5830, 329.7612
513.7640, 360.6470
514.9450, 363.5288
516.1250, 405.4058
517.3060, 230.2793
518.4860, 281.1763
519.6660, 253.0708
520.8460, 273.9946
522.0260, 343.9194
523.2060, 288.8447
524.3850, 373.7905
525.5650, 300.7422
526.7440, 299.7056
527.9230, 356.6841
529.1020, 448.6616
530.2810, 428.6377
531.4590, 421.5967
532.6380, 363.5112
533.8160, 334.4780
534.9940, 364.4419
536.1720, 503.4019
537.3500, 407.3281
538.5270, 443.2798
539.7050, 449.2275
540.8820, 420.1572
542.0590, 322.0957
543.2360, 494.8379
544.4130, 393.9097
545.5900, 665.6904
546.7660, 291.6104
547.9430, 330.5254
549.1190, 168.4365
550.2950, 290.3433
551.4710, 175.2451
552.6470, 235.1436
553.8220, 210.0381
554.9980, 106.7642
556.1730, 155.5820
557.3480, 233.4878
558.5230, 129.3159
559.6980, 131.9570
560.8730, 94.82227
562.0470, 157.6597
563.2220, 64.56104
564.3960, 207.9839
565.5700, 198.6196
566.7440, 172.9106
567.9170, 154.7539
569.0910, 170.6226
570.2640, 95.30273
571.4380, 10.13770
572.6110, 30.54443
573.7840, 14.60596
574.9570, 41.22705
576.1290, 18.05664
577.3020, 44.88574
578.4740, 152.7129
579.6460, 39.53711
580.8180, 36.63965
581.9900, 145.1572
583.1620, 25.61328
584.3330, 70.25586
585.5040, 9.507813
586.6760, 6.774414
587.8470, 24.05176
589.0180, 37.34863
590.1880, 17.46387
591.3590, 3.015625
592.5290, 4.632813
593.7000, 3.363281
594.8700, 23.00000
596.0400, 105.3838
597.2090, 31.17188
598.3790, 44.72363
599.5490, 43.72363
600.7180, 129.7988
601.8870, 41.42285
603.0560, 3.833008
604.2250, 24.93457
605.3940, 21.15820
606.5620, 46.30566
607.7300, 48.44336
608.8990, 26.89648
610.0670, 45.34961
611.2350, 27.84570
612.4020, 48.29590
613.5700, 30.25488
614.7370, 22.82812
615.9050, 40.57617
617.0720, 28.98047
618.2390, 161.3838
619.4060, 32.60742
620.5720, 125.0098
621.7390, 140.4121
622.9050, 30.81348
624.0710, 14.78711
625.2370, 1.599609
626.4030, 139.9795
627.5690, 159.3584
628.7340, 114.7383
629.9000, 115.1182
631.0650, 124.4980
632.2300, 130.8770
633.3950, 64.25684
634.5600, 134.6377
635.7240, 72.01758
636.8890, 211.3984
638.0530, 77.78027
639.2170, 55.16211
640.3810, 14.45508
641.5450, 109.9160
642.7080, 237.2881
643.8720, 320.6602
645.0350, 301.2012
646.1980, 172.4072
647.3610, 221.7832
648.5240, 154.1592
649.6870, 171.5381
650.8490, 254.9160
652.0120, 294.2979
653.1740, 298.0312
654.3360, 304.0625
655.4980, 306.4482
656.6600, 370.8359
657.8210, 401.2236
658.9830, 382.6143
660.1440, 567.0078
661.3050, 465.4014
662.4660, 598.7969
663.6270, 572.1943
664.7870, 531.5938
665.9480, 587.9961
667.1080, 642.3984
668.2680, 834.8047
669.4280, 842.2119
670.5880, 982.6201
671.7480, 937.0312
672.9070, 1037.445
674.0670, 1194.860
675.2260, 1298.277
676.3850, 1317.698
677.5440, 1347.121
678.7030, 1414.546
679.8610, 1542.185
681.0200, 1795.405
682.1780, 1849.838
683.3360, 2057.275
684.4940, 2199.716
685.6520, 2110.158
686.8090, 2360.604
687.9670, 2378.055
689.1240, 2385.507
690.2810, 2344.963
691.4380, 2295.421
692.5950, 2277.156
693.7520, 2233.225
694.9080, 2217.857
696.0650, 2150.343
697.2210, 2139.852
698.3770, 2071.373
699.5330, 2032.899
700.6880, 1845.437
701.8440, 1700.978
702.9990, 1563.553
704.1550, 1456.152
705.3100, 1248.762
706.4650, 1222.378
707.6190, 1063.998
708.7740, 1068.623
709.9290, 933.2871
711.0830, 831.6641
712.2370, 912.3408
713.3910, 721.4541
714.5450, 644.1475
715.6980, 677.8486
716.8520, 570.5547
718.0050, 458.2959
719.1580, 534.0566
720.3110, 524.8916
721.4640, 310.6631
722.6170, 283.4414
723.7700, 200.1963
724.9220, 305.7764
726.0740, 218.5400
727.2260, 255.2344
728.3780, 244.1074
729.5300, 218.2637
730.6810, 184.3428
731.8330, 221.8789
732.9840, 103.3809
734.1350, 128.2832
735.2860, 142.0322
736.4370, 57.92969
737.5880, 140.8369
738.7380, 91.51855
739.8880, 26.55859
741.0390, 46.63477
742.1890, 63.07324
743.3380, 47.83008
744.4880, 2.931641
745.6380, 63.60645
746.7870, 54.29004
747.9360, 24.19434
749.0850, 2.892578
750.2340, 41.03125
751.3830, 122.9629
752.5310, 87.32422
753.6800, 64.17676
754.8280, 144.1396
755.9760, 31.11133
757.1240, 32.90625
758.2720, 52.07812
759.4190, 50.07324
760.5670, 170.0781
761.7140, 202.1045
762.8610, 215.3242
764.0080, 265.6875
765.1550, 209.1328
766.3020, 263.2021
767.4480, 211.2822
768.5950, 123.3730
769.7410, 227.4746
770.8870, 150.5879
772.0330, 125.7109
773.1780, 161.8457
774.3240, 149.9912
775.4690, 219.1484
776.6140, 162.3164
777.7590, 100.4971
778.9040, 189.3633
780.0490, 224.5654
781.1940, 211.7803
782.3380, 127.0059
783.4820, 98.24414
784.6260, 65.49316
785.7700, 71.75391
786.9140, 93.02734
788.0580, 104.0049
789.2010, 153.5352
790.3450, 138.9189
791.4880, 254.2393
792.6310, 224.5723
793.7730, 250.9189
794.9160, 224.2764
796.0590, 207.6465
797.2010, 186.2842
798.3430, 186.4688
799.4850, 114.8311
800.6270, 184.2500
801.7690, 152.6826
802.9100, 127.1279
804.0520, 337.5850
805.1930, 224.0557
806.3340, 232.5381
807.4750, 396.0342
808.6160, 228.5420
809.7560, 380.0625
810.8970, 290.5977
812.0370, 271.1445
813.1770, 322.7051
814.3170, 388.2773
815.4570, 314.8633
816.5960, 354.4629
817.7360, 312.0771
818.8750, 358.7021
820.0140, 278.5020
821.1530, 417.1807
822.2920, 509.4355
823.4310, 557.7627
824.5690, 430.5146
825.7070, 529.9736
826.8460, 538.6309
827.9840, 543.5459
829.1220, 556.9268
830.2590, 491.3066
831.3970, 631.0820
832.5340, 675.8721
833.6710, 689.6738
834.8080, 782.4902
835.9450, 744.2246
837.0820, 934.5205
838.2190, 1076.981
839.3550, 1179.210
840.4910, 1105.994
841.6270, 1256.389
842.7630, 1315.179
843.8990, 1370.252
845.0350, 1551.817
846.1700, 1500.267
847.3060, 1679.858
848.4410, 1772.139
849.5760, 2049.134
850.7100, 2213.655
851.8450, 2337.070
852.9800, 2703.109
854.1140, 3008.115
855.2480, 3337.327
856.3820, 3604.404
857.5160, 4032.507
858.6500, 4452.614
859.7830, 5071.752
860.9170, 5492.914
862.0500, 6002.094
863.1830, 6699.461
864.3160, 7567.682
865.4480, 8490.681
866.5810, 9698.949
867.7130, 10726.96
868.8460, 12138.26
869.9780, 13285.57
871.1100, 15129.90
872.2410, 16794.06
873.3730, 18198.44
874.5050, 19730.84
875.6360, 20959.27
876.7670, 21815.98
877.8980, 22662.83
879.0290, 22699.90
880.1590, 22408.79
881.2900, 21556.26
882.4200, 20513.51
883.5500, 18709.07
884.6800, 17233.64
885.8100, 15437.72
886.9400, 14175.09
888.0690, 12867.35
889.1990, 11514.39
890.3280, 9987.079
891.4570, 8686.556
892.5860, 7295.133
893.7140, 5900.441
894.8430, 5125.633
895.9710, 4609.346
897.1000, 3881.660
898.2280, 3470.399
899.3560, 3019.155
900.4830, 2800.927
901.6110, 2426.708
902.7380, 2301.504
903.8660, 1945.319
904.9930, 1767.145
906.1200, 1711.982
907.2460, 1407.839
908.3730, 1493.707
909.5000, 1267.586
910.6260, 1193.476
911.7520, 1133.732
912.8780, 1099.321
914.0040, 968.2627
915.1290, 904.2207
916.2550, 839.1904
917.3800, 716.1719
918.5050, 702.1641
919.6300, 572.2051
920.7550, 597.1934
921.8800, 506.2285
923.0040, 432.2744
924.1290, 459.4355
925.2530, 388.2334
926.3770, 479.4922
927.5010, 346.5947
928.6250, 345.7070
929.7480, 356.8320
930.8720, 312.9668
931.9950, 380.1113
933.1180, 308.2676
934.2410, 260.4336
935.3640, 291.6094
936.4860, 272.7969
937.6090, 301.9971
938.7310, 251.2139
939.8530, 156.4414
940.9750, 194.6777
942.0970, 113.9248
943.2180, 210.1826
944.3400, 224.4502
945.4610, 259.7285
946.5820, 251.0166
947.7030, 105.3291
948.8240, 152.6924
949.9450, 181.0645
951.0650, 122.4463
952.1860, 183.6768
953.3060, 145.2510
954.4260, 264.6689
955.5460, 97.09473
956.6650, 179.5303
957.7850, 88.97559
958.9040, 102.4307
960.0230, 209.9082
961.1420, 161.3955
962.2610, 113.8906
963.3800, 55.60449
964.4990, 121.8867
965.6170, 48.06836
966.7350, 69.90332
967.8530, 83.42578
968.9710, 93.95703
970.0890, 74.49902
971.2070, 30.95215
972.3240, 83.59082
973.4410, 74.85645
974.5580, 76.33008
975.6750, 16.82910
976.7920, 68.67090
977.9090, 62.17969
979.0250, 97.69531
980.1410, 61.21875
981.2580, 107.7500
982.3740, 149.2891
983.4890, 156.8350
984.6050, 30.61133
985.7200, 7.064453
986.8360, 64.48535
987.9510, 125.9590
989.0660, 60.45508
990.1810, 109.0498
991.2950, 141.5615
992.4100, 53.08008
993.5240, 15.60742
994.6390, 99.13965
995.7530, 29.67871
996.8660, 0.7763670
997.9800, 69.77344
999.0940, 86.66895
1000.207, 123.8535
1001.320, 32.61816
1002.433, 155.9004
1003.546, 52.42383
1004.659, 64.95215
1005.772, 13.51367
1006.884, 114.1836
1007.996, 81.72070
1009.108, 71.26465
1010.220, 142.8125
1011.332, 130.3691
1012.444, 34.93848
1013.555, 71.52246
1014.666, 51.95703
1015.777, 38.55762
1016.888, 122.5068
1017.999, 102.1289
1019.110, 58.75586
1020.220, 53.38965
1021.331, 5.037109
1022.441, 146.6875
1023.551, 26.33105
1024.661, 101.9785
1025.770, 93.62891
1026.880, 82.28320
1027.989, 166.9434
1029.098, 106.6084
1030.207, 42.72363
1031.316, 129.9248
1032.425, 70.57520
1033.533, 152.2295
1034.642, 110.8857
1035.750, 31.54492
1036.858, 105.1143
1037.966, 128.7998
1039.073, 111.4678
1040.181, 203.3652
1041.288, 223.0371
1042.396, 112.7100
1043.503, 15.38574
1044.610, 128.8643
1045.716, 146.5430
1046.823, 144.2246
1047.929, 43.90625
1049.036, 104.5898
1050.142, 83.27441
1051.248, 205.1289
1052.353, 166.8164
1053.459, 240.6885
1054.564, 194.3789
1055.670, 205.9863
1056.775, 239.7969
1057.880, 214.4902
1058.985, 185.0684
1060.089, 217.7598
1061.194, 123.4531
1062.298, 141.1455
1063.402, 312.8389
1064.506, 237.5332
1065.610, 167.2256
1066.713, 243.9189
1067.817, 178.6123
1068.920, 167.3057
1070.023, 175.8027
1071.126, 196.6689
1072.229, 328.3623
1073.332, 208.0527
1074.435, 337.8213
1075.537, 150.7236
1076.639, 111.4121
1077.741, 230.4316
1078.843, 207.1182
1079.945, 140.9531
1081.046, 267.3125
1082.148, 199.9961
1083.249, 310.6768
1084.350, 175.6895
1085.451, 305.3662
1086.551, 274.3086
1087.652, 335.0137
1088.752, 210.7676
1089.853, 235.4707
1090.953, 199.1367
1092.053, 283.2285
1093.152, 304.8896
1094.252, 107.6211
1095.351, 242.2764
1096.451, 207.3311
1097.550, 181.1182
1098.649, 302.8271
1099.748, 239.5771
1100.846, 120.8438
1101.945, 83.48047
1103.043, 160.1143
1104.141, 136.3359
1105.239, 143.9658
1106.337, 163.8232
1107.434, 165.5840
1108.532, 203.4375
1109.629, 212.2227
1110.726, 191.6680
1111.823, 231.2783
1112.920, 216.0928
1114.017, 214.1182
1115.113, 231.2080
1116.210, 207.8066
1117.306, 252.8955
1118.402, 272.0996
1119.498, 334.6895
1120.593, 297.3223
1121.689, 334.0898
1122.784, 325.6689
1123.879, 280.4033
1124.974, 307.1309
1126.069, 420.7012
1127.164, 359.2676
1128.259, 369.8301
1129.353, 218.2197
1130.447, 222.2412
1131.541, 114.2490
1132.635, 190.7988
1133.729, 76.61035
1134.822, 69.15137
1135.916, 235.6904
1137.009, 107.2256
1138.102, 13.20215
1139.195, 175.7285
1140.288, 74.25293
1141.380, 100.7715
1142.473, 25.28516
1143.565, 91.79590
1144.657, 80.30273
1145.749, 48.19336
1146.841, 125.3213
1147.932, 10.03516
1149.024, 52.69531
1150.115, 121.4248
1151.206, 109.3018
1152.297, 29.93848
1153.388, 30.31641
1154.479, 64.75000
1155.569, 123.1807
1156.659, 105.0781
1157.750, 105.0283
1158.839, 104.4453
1159.929, 112.9512
1161.019, 111.5156
1162.108, 111.2793
1163.198, 120.6787
1164.287, 56.07227
1165.376, 75.46094
1166.465, 68.84570
1167.553, 16.77539
1168.642, 36.58203
1169.730, 126.9336
1170.818, 5.718750
1171.906, 147.6123
1172.994, 99.93945
1174.082, 111.2607
1175.170, 46.42285
1176.257, 134.8564
1177.344, 121.1309
1178.431, 59.39844
1179.518, 127.6611
1180.605, 232.9189
1181.691, 24.17188
1182.778, 68.57715
1183.864, 20.18262
1184.950, 152.0312
1186.036, 56.24121
1187.122, 44.44629
1188.207, 74.64551
1189.292, 31.15918
1190.378, 72.00684
1191.463, 67.16504
1192.548, 141.3184
1193.632, 195.4648
1194.717, 172.7549
1195.801, 180.2744
1196.886, 134.8848
1197.970, 101.0166
1199.054, 68.14648
1200.137, 2.270508
1201.221, 3.618164
1202.305, 102.4766
1203.388, 75.56348
1204.471, 44.64551
1205.554, 27.82129
1206.637, 187.8906
1207.719, 19.95508
1208.802, 168.0117
1209.884, 34.93750
1210.966, 138.9199
1212.048, 110.0186
1213.130, 72.95117
1214.212, 6.123047
1215.293, 80.79785
1216.374, 25.72949
1217.456, 61.49805
1218.536, 49.96387
1219.617, 61.48242
1220.698, 97.38672
1221.778, 39.71387
1222.859, 160.1494
1223.939, 54.00586
1225.019, 90.85742
1226.099, 157.7021
1227.178, 3.434570
1228.258, 58.41309
1229.337, 48.25391
1230.417, 7.086914
1231.496, 98.91602
1232.574, 159.7461
1233.653, 97.00098
1234.732, 197.8262
1235.810, 190.6445
1236.888, 172.6855
1237.966, 169.3135
1239.044, 141.1523
1240.122, 132.9834
1241.199, 128.8076
1242.277, 74.63770
1243.354, 105.4688
1244.431, 56.29395
1245.508, 142.1104
1246.585, 132.1104
1247.661, 140.9209
1248.738, 118.7305
1249.814, 171.5352
1250.890, 70.63770
1251.966, 169.1543
1253.042, 45.94238
1254.117, 46.72266
1255.193, 160.4971
1256.268, 96.26660
1257.343, 165.0303
1258.418, 130.7871
1259.493, 17.53906
1260.567, 41.28125
1261.642, 94.03418
1262.716, 211.7793
1263.790, 106.5264
1264.864, 158.2666
1265.938, 172.0059
1267.011, 40.73828
1268.085, 119.3027
1269.158, 89.02344
1270.231, 104.7363
1271.304, 108.1924
1272.377, 109.8418
1273.450, 92.91699
1274.522, 100.5996
1275.594, 76.86133
1276.666, 37.23340
1277.738, 42.69922
1278.810, 34.09180
1279.882, 20.21875
