##NAMES=Ferberite
##RRUFFID=R050090
##IDEAL CHEMISTRY=Fe^2+^W^6+^O_4_
##LOCALITY=Yaogangxian mine, Cheng Zhu City, South Hunan, China
##OWNER=RRUFF
##SOURCE=Rock Currier
##DESCRIPTION=Dark gray tabular crystal
##STATUS=The identification of this mineral has been confirmed by X-ray diffraction and chemical analysis
##URL=rruff.info/R050090
##MEASURED CHEMISTRY=(Fe^2+^_0.56_Mn_0.44_)W_1.00_O_4_
##PIN_ID=L01304
##ORIENTATION=Laser parallel to -b* (0 -1 0). Fiducial mark perpendicular to laser is parallel to c [0 0 1]
98.41600, 0.0000000E+00
99.64900, 4.322266
100.8830, 254.3516
102.1160, 55.63672
103.3490, 15.42773
104.5820, 503.4707
105.8150, 920.0059
107.0470, 1219.943
108.2800, 1576.525
109.5120, 1891.785
110.7440, 2068.152
111.9760, 2203.789
113.2080, 2302.777
114.4400, 2811.414
115.6710, 3464.705
116.9030, 3768.986
118.1340, 3764.521
119.3650, 3919.611
120.5960, 3732.508
121.8270, 3434.652
123.0580, 3900.371
124.2880, 4519.344
125.5190, 5573.697
126.7490, 5291.482
127.9790, 4786.023
129.2090, 4027.754
130.4390, 3610.986
131.6680, 2665.445
132.8980, 2110.146
134.1270, 1303.404
135.3560, 997.1328
136.5850, 1013.074
137.8140, 1034.846
139.0430, 887.4902
140.2710, 839.9375
141.5000, 717.8750
142.7280, 444.7598
143.9560, 171.6562
145.1840, 142.3008
146.4120, 80.68750
147.6390, 227.6641
148.8670, 78.88086
150.0940, 146.6816
151.3210, 90.89453
152.5490, 163.4902
153.7750, 144.5273
155.0020, 109.2422
156.2290, 22.34961
157.4550, 12.77148
158.6810, 113.3730
159.9080, 68.85938
161.1340, 69.60156
162.3590, 195.1738
163.5850, 167.7949
164.8110, 735.4766
166.0360, 287.8945
167.2610, 177.5996
168.4860, 200.8887
169.7110, 571.4980
170.9360, 664.3926
172.1610, 676.7480
173.3850, 544.0117
174.6100, 417.6348
175.8340, 596.7559
177.0580, 569.1738
178.2820, 463.7227
179.5050, 505.3828
180.7290, 537.6855
181.9520, 650.9980
183.1760, 714.2324
184.3990, 812.6523
185.6220, 947.3066
186.8450, 773.5215
188.0670, 948.1797
189.2900, 1188.850
190.5120, 1211.584
191.7340, 1590.109
192.9560, 1837.828
194.1780, 1937.777
195.4000, 2265.182
196.6220, 2810.594
197.8430, 3525.980
199.0640, 3869.240
200.2860, 4114.477
201.5070, 5150.625
202.7270, 5550.578
203.9480, 5368.395
205.1690, 5141.201
206.3890, 4229.992
207.6090, 3682.764
208.8290, 3120.529
210.0490, 2596.281
211.2690, 2194.021
212.4890, 1785.510
213.7080, 1466.467
214.9280, 1198.172
216.1470, 1002.867
217.3660, 902.5488
218.5850, 671.2188
219.8030, 550.6523
221.0220, 232.5156
222.2400, 281.1426
223.4590, 130.7578
224.6770, 17.36133
225.8950, 174.9512
227.1120, 88.52930
228.3300, 43.90430
229.5480, 72.34766
230.7650, 69.80469
231.9820, 51.26953
233.1990, 24.75000
234.4160, 1.255859
235.6330, 9.179688
236.8490, 56.55273
238.0660, 48.77148
239.2820, 71.11523
240.4980, 116.8809
241.7140, 85.83203
242.9300, 38.30078
244.1460, 259.4785
245.3610, 87.85352
246.5770, 39.71875
247.7920, 132.3906
249.0070, 33.55469
250.2220, 381.7070
251.4370, 306.8320
252.6510, 201.8926
253.8660, 377.8613
255.0800, 711.7285
256.2940, 617.4863
257.5080, 498.8887
258.7220, 596.6602
259.9360, 647.8516
261.1490, 654.9277
262.3630, 486.2871
263.5760, 544.1895
264.7890, 451.8594
266.0020, 464.4707
267.2150, 326.9590
268.4270, 194.2871
269.6400, 200.4570
270.8520, 290.4609
272.0640, 116.2109
273.2760, 8.244141
274.4880, 115.9609
275.7000, 68.83398
276.9120, 188.4043
278.1230, 108.9160
279.3340, 54.33398
280.5450, 140.6758
281.7560, 69.96289
282.9670, 20.17773
284.1780, 159.4004
285.3880, 79.49219
286.5980, 41.53125
287.8090, 179.5156
289.0190, 278.4531
290.2290, 190.5625
291.4380, 358.3633
292.6480, 393.5117
293.8570, 516.6973
295.0670, 520.7168
296.2760, 604.3496
297.4850, 694.4434
298.6930, 663.1328
299.9020, 799.6270
301.1110, 823.8027
302.3190, 972.1270
303.5270, 1053.557
304.7350, 1265.170
305.9430, 1661.559
307.1510, 1838.896
308.3580, 2189.531
309.5660, 2494.812
310.7730, 2906.930
311.9800, 3374.293
313.1870, 3922.859
314.3940, 4602.596
315.6010, 5344.367
316.8070, 6209.061
318.0130, 7307.523
319.2200, 8117.930
320.4260, 8781.918
321.6310, 9522.289
322.8370, 9910.654
324.0430, 9932.855
325.2480, 9908.207
326.4540, 9683.559
327.6590, 8882.918
328.8640, 8317.271
330.0680, 7803.605
331.2730, 7120.943
332.4780, 6464.168
333.6820, 5729.367
334.8860, 5097.543
336.0900, 4620.695
337.2940, 4111.822
338.4980, 3594.922
339.7010, 3156.008
340.9050, 2873.088
342.1080, 2369.162
343.3110, 2465.232
344.5140, 1964.301
345.7170, 2024.365
346.9200, 1705.426
348.1220, 1788.484
349.3240, 1397.539
350.5270, 1301.596
351.7290, 1402.650
352.9310, 1249.703
354.1320, 1199.756
355.3340, 1026.812
356.5350, 720.8633
357.7370, 877.9141
358.9380, 854.9648
360.1390, 604.0156
361.3400, 617.0625
362.5400, 650.1094
363.7410, 609.1562
364.9410, 704.2012
366.1410, 374.4355
367.3410, 349.8848
368.5410, 395.3945
369.7410, 434.8281
370.9400, 391.7461
372.1400, 312.8477
373.3390, 463.7441
374.5380, 273.9219
375.7370, 243.3184
376.9360, 107.9395
378.1350, 145.2832
379.3330, 245.1621
380.5310, 112.7266
381.7300, 146.6172
382.9280, 113.4160
384.1260, 158.1582
385.3230, 179.8594
386.5210, 212.2793
387.7180, 179.2832
388.9160, 252.8730
390.1130, 404.4297
391.3100, 302.4238
392.5060, 616.2871
393.7030, 452.9805
394.9000, 460.9492
396.0960, 433.6367
397.2920, 553.8613
398.4880, 439.7715
399.6840, 365.6582
400.8800, 455.5273
402.0750, 231.3789
403.2710, 418.2090
404.4660, 224.0234
405.6610, 398.8203
406.8560, 316.6016
408.0510, 276.3652
409.2450, 102.1152
410.4400, 46.15039
411.6340, 50.38867
412.8280, 78.36133
414.0220, 163.3496
415.2160, 6.294922
416.4100, 31.11328
417.6030, 105.8008
418.7970, 13.73633
419.9900, 102.6699
421.1830, 50.58398
422.3760, 50.94336
423.5690, 107.7285
424.7610, 48.36914
425.9540, 90.37305
427.1460, 7.369141
428.3380, 126.4414
429.5300, 116.6016
430.7220, 104.2910
431.9140, 4.199219
433.1050, 160.5273
434.2970, 248.4961
435.4880, 111.1016
436.6790, 174.7168
437.8700, 339.3281
439.0610, 257.9492
440.2510, 302.5742
441.4420, 353.2402
442.6320, 184.9082
443.8220, 349.3848
445.0120, 391.0449
446.2020, 353.9473
447.3910, 330.4141
448.5810, 299.1777
449.7700, 288.1875
450.9600, 339.0234
452.1490, 326.8047
453.3370, 317.5781
454.5260, 216.4609
455.7150, 258.3105
456.9030, 255.3613
458.0910, 205.2344
459.2800, 230.1094
460.4670, 417.5469
461.6550, 415.1152
462.8430, 408.0098
464.0300, 301.9062
465.2180, 326.0176
466.4050, 275.8535
467.5920, 296.7930
468.7790, 182.7363
469.9650, 144.2441
471.1520, 332.2109
472.3380, 263.1797
473.5250, 332.5742
474.7110, 237.5605
475.8970, 356.5527
477.0820, 356.5605
478.2680, 309.5938
479.4540, 294.2402
480.6390, 274.2832
481.8240, 318.3301
483.0090, 338.3867
484.1940, 349.4473
485.3780, 291.5117
486.5630, 407.5840
487.7470, 369.6797
488.9320, 415.7812
490.1160, 267.8887
491.3000, 291.0039
492.4830, 333.1230
493.6670, 334.2500
494.8500, 351.3828
496.0340, 338.6133
497.2170, 340.6387
498.4000, 309.7891
499.5820, 395.9473
500.7650, 429.1133
501.9480, 377.2832
503.1300, 346.4590
504.3120, 565.6387
505.4940, 436.8301
506.6760, 496.0234
507.8580, 611.2246
509.0390, 586.4375
510.2210, 456.6582
511.4020, 467.8926
512.5830, 511.1523
513.7640, 479.3301
514.9450, 534.2754
516.1250, 522.0312
517.3060, 627.4082
518.4860, 654.8320
519.6660, 731.3867
520.8460, 773.8828
522.0260, 761.4043
523.2060, 876.9492
524.3850, 740.5098
525.5650, 983.0879
526.7440, 1116.715
527.9230, 959.3535
529.1020, 887.0098
530.2810, 910.6953
531.4590, 982.4766
532.6380, 983.7305
533.8160, 1146.160
534.9940, 1085.033
536.1720, 1189.922
537.3500, 1255.818
538.5270, 1085.725
539.7050, 1341.641
540.8820, 1335.562
542.0590, 1231.496
543.2360, 1241.279
544.4130, 1158.469
545.5900, 1006.348
546.7660, 1033.312
547.9430, 903.2871
549.1190, 870.2715
550.2950, 716.2656
551.4710, 680.2676
552.6470, 802.2832
553.8220, 742.3027
554.9980, 816.3359
556.1730, 685.3828
557.3480, 699.1094
558.5230, 683.4395
559.6980, 623.5391
560.8730, 618.6934
562.0470, 527.8672
563.2220, 595.0527
564.3960, 558.2520
565.5700, 618.4727
566.7440, 661.7031
567.9170, 556.9531
569.0910, 583.1738
570.2640, 541.4355
571.4380, 454.7363
572.6110, 469.0547
573.7840, 289.3828
574.9570, 299.7266
576.1290, 461.0840
577.3020, 299.4512
578.4740, 421.8281
579.6460, 144.2188
580.8180, 170.6172
581.9900, 255.0273
583.1620, 67.44727
584.3330, 54.12305
585.5040, 109.7070
586.6760, 42.33203
587.8470, 87.97070
589.0180, 85.36133
590.1880, 112.2949
591.3590, 171.0039
592.5290, 16.68945
593.7000, 107.3809
594.8700, 54.88672
596.0400, 140.1621
597.2090, 127.5508
598.3790, 96.34766
599.5490, 81.59375
600.7180, 98.15234
601.8870, 8.935547
603.0560, 113.0215
604.2250, 43.25000
605.3940, 4.488281
606.5620, 61.97656
607.7300, 62.61133
608.8990, 73.86914
610.0670, 74.35352
611.2350, 68.89258
612.4020, 17.14844
613.5700, 70.34375
614.7370, 396.8926
615.9050, 181.5996
617.0720, 225.1953
618.2390, 170.2520
619.4060, 3.527344
620.5720, 106.8027
621.7390, 88.09180
622.9050, 177.3906
624.0710, 134.6973
625.2370, 87.01562
626.4030, 96.33984
627.5690, 157.6973
628.7340, 62.04688
629.9000, 170.4004
631.0650, 86.76758
632.2300, 157.1426
633.3950, 144.5254
634.5600, 50.91992
635.7240, 0.3222660
636.8890, 53.72656
638.0530, 78.14062
639.2170, 78.38477
640.3810, 185.9980
641.5450, 134.4414
642.7080, 106.8945
643.8720, 176.3574
645.0350, 94.83008
646.1980, 191.3125
647.3610, 144.8066
648.5240, 33.30859
649.6870, 205.8203
650.8490, 364.3418
652.0120, 206.8730
653.1740, 85.41602
654.3360, 211.9688
655.4980, 263.1172
656.6600, 455.9590
657.8210, 182.3965
658.9830, 27.98828
660.1440, 302.5859
661.3050, 348.1953
662.4660, 486.8125
663.6270, 527.4375
664.7870, 501.0762
665.9480, 547.7520
667.1080, 639.4043
668.2680, 562.0664
669.4280, 710.7383
670.5880, 794.4180
671.7480, 925.1074
672.9070, 733.8027
674.0670, 804.5059
675.2260, 968.2207
676.3850, 1090.943
677.5440, 1230.674
678.7030, 1469.412
679.8610, 1597.158
681.0200, 1972.912
682.1780, 2144.674
683.3360, 2228.445
684.4940, 2258.225
685.6520, 2435.014
686.8090, 2677.811
687.9670, 2769.615
689.1240, 3101.428
690.2810, 3321.252
691.4380, 3354.082
692.5950, 3613.928
693.7520, 3371.781
694.9080, 3528.643
696.0650, 3551.512
697.2210, 3242.393
698.3770, 3431.279
699.5330, 3172.178
700.6880, 2945.082
701.8440, 2773.996
702.9990, 2552.920
704.1550, 2476.850
705.3100, 2258.789
706.4650, 1961.738
707.6190, 1934.711
708.7740, 1623.691
709.9290, 1478.680
711.0830, 1385.676
712.2370, 1584.684
713.3910, 942.7148
714.5450, 852.7617
715.6980, 993.8203
716.8520, 719.8887
718.0050, 789.9668
719.1580, 606.0527
720.3110, 529.1562
721.4640, 449.2812
722.6170, 535.4141
723.7700, 419.7539
724.9220, 302.9199
726.0740, 359.8789
727.2260, 240.2988
728.3780, 320.4766
729.5300, 231.4551
730.6810, 77.67188
731.8330, 150.9551
732.9840, 230.2266
734.1350, 128.4785
735.2860, 255.7461
736.4370, 21.16797
737.5880, 267.1094
738.7380, 57.39648
739.8880, 61.13672
741.0390, 25.23828
742.1890, 105.0684
743.3380, 51.38477
744.4880, 15.41211
745.6380, 74.08398
746.7870, 43.21680
747.9360, 39.46289
749.0850, 94.29297
750.2340, 90.61133
751.3830, 37.05859
752.5310, 120.8516
753.6800, 85.18359
754.8280, 30.47070
755.9760, 86.12695
757.1240, 103.1855
758.2720, 43.90039
759.4190, 127.2383
760.5670, 47.58984
761.7140, 23.95117
762.8610, 199.3262
764.0080, 208.7129
765.1550, 72.88672
766.3020, 117.4922
767.4480, 87.88281
768.5950, 211.2852
769.7410, 188.6992
770.8870, 86.12891
772.0330, 208.5723
773.1780, 57.02734
774.3240, 59.52148
775.4690, 140.0020
776.6140, 96.49609
777.7590, 56.00391
778.9040, 145.5254
780.0490, 162.3594
781.1940, 120.6055
782.3380, 289.1641
783.4820, 115.7383
784.6260, 116.3262
785.7700, 178.2891
786.9140, 127.5410
788.0580, 121.1699
789.2010, 92.56055
790.3450, 64.46680
791.4880, 10.13672
792.6310, 9.179688
793.7730, 23.49219
794.9160, 15.25195
796.0590, 138.8945
797.2010, 76.48047
798.3430, 93.20703
799.4850, 226.9453
800.6270, 109.6973
801.7690, 340.4648
802.9100, 19.75391
804.0520, 248.0293
805.1930, 284.8281
806.3340, 17.64062
807.4750, 215.4668
808.6160, 145.3086
809.7560, 231.1641
810.8970, 235.0352
812.0370, 326.9180
813.1770, 319.8164
814.3170, 238.7324
815.4570, 334.6602
816.5960, 409.6035
817.7360, 183.5625
818.8750, 354.5352
820.0140, 354.5234
821.1530, 33.52539
822.2920, 479.5430
823.4310, 461.5742
824.5690, 751.6211
825.7070, 704.2129
826.8460, 720.7617
827.9840, 599.8555
829.1220, 455.9629
830.2590, 569.0859
831.3970, 562.2246
832.5340, 407.3789
833.6710, 539.5469
834.8080, 693.7305
835.9450, 669.9277
837.0820, 820.1426
838.2190, 1015.373
839.3550, 812.6406
840.4910, 962.9004
841.6270, 1191.178
842.7630, 1092.471
843.8990, 1277.154
845.0350, 1397.475
846.1700, 1445.812
847.3060, 1712.168
848.4410, 1729.537
849.5760, 2033.184
850.7100, 2218.328
851.8450, 2320.312
852.9800, 2885.746
854.1140, 3056.193
855.2480, 3461.656
856.3820, 3563.787
857.5160, 4134.191
858.6500, 4677.701
859.7830, 5408.223
860.9170, 5814.777
862.0500, 6672.367
863.1830, 7151.988
864.3160, 8034.645
865.4480, 9302.316
866.5810, 10550.58
867.7130, 11688.86
868.8460, 13626.89
869.9780, 15363.69
871.1100, 17467.07
872.2410, 20043.12
873.3730, 22921.32
874.5050, 26176.20
875.6360, 29900.11
876.7670, 33400.04
877.8980, 36994.27
879.0290, 40052.24
880.1590, 41589.22
881.2900, 42285.04
882.4200, 41738.68
883.5500, 39370.50
884.6800, 36016.06
885.8100, 31836.15
886.9400, 27747.25
888.0690, 24090.13
889.1990, 20293.29
890.3280, 17159.46
891.4570, 14723.85
892.5860, 12072.26
893.7140, 10417.49
894.8430, 8921.742
895.9710, 7635.012
897.1000, 6378.293
898.2280, 5744.596
899.3560, 4907.912
900.4830, 4197.244
901.6110, 3807.582
902.7380, 3448.957
903.8660, 3028.348
904.9930, 2743.906
906.1200, 2565.182
907.2460, 2192.623
908.3730, 1975.080
909.5000, 1762.576
910.6260, 1494.092
911.7520, 1646.627
912.8780, 1445.180
914.0040, 1260.746
915.1290, 1047.338
916.2550, 1086.945
917.3800, 755.5723
918.5050, 904.2129
919.6300, 798.8711
920.7550, 963.5449
921.8800, 789.2383
923.0040, 852.9512
924.1290, 765.6816
925.2530, 530.4258
926.3770, 734.1953
927.5010, 464.9824
928.6250, 355.2012
929.7480, 435.7539
930.8720, 463.7344
931.9950, 360.5898
933.1180, 259.4629
934.2410, 290.3594
935.3640, 426.2676
936.4860, 429.1953
937.6090, 433.3418
938.7310, 436.0117
939.8530, 343.0527
940.9750, 344.0625
942.0970, 225.0898
943.2180, 147.1523
944.3400, 322.2305
945.4610, 282.3262
946.5820, 141.4355
947.7030, 81.58203
948.8240, 46.74023
949.9450, 163.9180
951.0650, 190.1113
952.1860, 169.8633
953.3060, 249.5508
954.4260, 163.7949
955.5460, 178.0547
956.6650, 253.3320
957.7850, 184.3965
958.9040, 4.939453
960.0230, 172.2676
961.1420, 13.61328
962.2610, 70.97461
963.3800, 167.3516
964.4990, 90.74609
965.6170, 64.15234
966.7350, 181.5781
967.8530, 92.02148
968.9710, 124.4785
970.0890, 184.9707
971.2070, 5.478516
972.3240, 87.00586
973.4410, 0.5449220
974.5580, 146.1016
975.6750, 97.67188
976.7920, 149.2617
977.9090, 73.13867
979.0250, 24.45117
980.1410, 101.0547
981.2580, 46.67578
982.3740, 208.3125
983.4890, 89.03711
984.6050, 20.40625
985.7200, 37.76953
986.8360, 79.87109
987.9510, 25.52344
989.0660, 327.2109
990.1810, 59.08398
991.2950, 44.38867
992.4100, 191.3066
993.5240, 39.01562
994.6390, 64.73828
995.7530, 90.47852
996.8660, 94.23242
997.9800, 124.0000
999.0940, 223.7852
1000.207, 93.41797
1001.320, 15.64648
1002.433, 8.863281
1003.546, 166.9297
1004.659, 16.26367
1005.772, 30.44727
1006.884, 212.3691
1007.996, 169.2129
1009.108, 32.06836
1010.220, 88.93750
1011.332, 100.8203
1012.444, 187.7227
1013.555, 106.6406
1014.666, 1.425781
1015.777, 137.5234
1016.888, 20.49609
1017.999, 117.5098
1019.110, 136.5430
1020.220, 147.5898
1021.331, 49.64844
1022.441, 183.7285
1023.551, 129.8262
1024.661, 304.9336
1025.770, 22.06055
1026.880, 218.3613
1027.989, 111.5371
1029.098, 126.7246
1030.207, 38.92383
1031.316, 239.1328
1032.425, 114.3555
1033.533, 173.5918
1034.642, 80.46680
1035.750, 321.7422
1036.858, 11.03320
1037.966, 238.3320
1039.073, 206.6660
1040.181, 272.0137
1041.288, 281.3730
1042.396, 375.3457
1043.503, 250.7246
1044.610, 335.1191
1045.716, 173.5234
1046.823, 322.9355
1047.929, 373.8672
1049.036, 327.3027
1050.142, 476.7500
1051.248, 365.2051
1052.353, 201.6738
1053.459, 261.1543
1054.564, 469.6445
1055.670, 300.8340
1056.775, 173.3555
1057.880, 378.8887
1058.985, 289.1758
1060.089, 357.7266
1061.194, 195.2891
1062.298, 426.8652
1063.402, 277.4570
1064.506, 304.0625
1065.610, 353.0938
1066.713, 260.2598
1067.817, 355.9023
1068.920, 460.5527
1070.023, 481.2129
1071.126, 333.4062
1072.229, 336.0898
1073.332, 439.4453
1074.435, 536.2090
1075.537, 343.9766
1076.639, 353.6973
1077.741, 464.4219
1078.843, 341.1562
1079.945, 499.4766
1081.046, 362.2266
1082.148, 152.9844
1083.249, 507.9102
1084.350, 309.6855
1085.451, 455.4668
1086.551, 464.2539
1087.652, 400.0508
1088.752, 576.8516
1089.853, 419.1191
1090.953, 376.9375
1092.053, 336.7598
1093.152, 356.6016
1094.252, 377.4473
1095.351, 406.3047
1096.451, 476.1660
1097.550, 287.0762
1098.649, 498.9512
1099.748, 398.8301
1100.846, 496.7188
1101.945, 364.8613
1103.043, 325.7617
1104.141, 280.6680
1105.239, 265.3691
1106.337, 315.4766
1107.434, 280.4043
1108.532, 352.3340
1109.629, 320.2715
1110.726, 281.8398
1111.823, 296.9863
1112.920, 509.7402
1114.017, 304.6992
1115.113, 383.6602
1116.210, 470.3711
1117.306, 364.5996
1118.402, 631.0078
1119.498, 358.9922
1120.593, 584.4766
1121.689, 644.6172
1122.784, 645.9648
1123.879, 470.0586
1124.974, 676.0762
1126.069, 565.0996
1127.164, 511.1270
1128.259, 516.1582
1129.353, 384.2949
1130.447, 343.3457
1131.541, 288.3223
1132.635, 127.8262
1133.729, 301.3242
1134.822, 98.09766
1135.916, 274.4531
1137.009, 275.9395
1138.102, 297.7852
1139.195, 158.1992
1140.288, 41.27930
1141.380, 168.3613
1142.473, 183.4473
1143.565, 143.5371
1144.657, 268.6309
1145.749, 266.7285
1146.841, 347.8145
1147.932, 302.9180
1149.024, 281.0664
1150.115, 111.9570
1151.206, 180.2402
1152.297, 133.3594
1153.388, 116.4785
1154.479, 84.60352
1155.569, 137.7285
1156.659, 351.8555
1157.750, 31.01367
1158.839, 382.1016
1159.929, 141.2168
1161.019, 160.3320
1162.108, 241.4512
1163.198, 154.5723
1164.287, 69.69727
1165.376, 21.17773
1166.465, 114.9336
1167.553, 90.04883
1168.642, 358.1621
1169.730, 52.79102
1170.818, 92.52930
1171.906, 230.0352
1172.994, 68.84180
1174.082, 56.24609
1175.170, 102.3379
1176.257, 230.4277
1177.344, 87.52734
1178.431, 15.36914
1179.518, 171.7188
1180.605, 36.82031
1181.691, 197.9258
1182.778, 50.35352
1183.864, 42.45703
1184.950, 33.62500
1186.036, 0.6015630
1187.122, 35.31641
1188.207, 82.41406
1189.292, 17.49023
1190.378, 148.5918
1191.463, 222.6992
1192.548, 93.78125
1193.632, 78.85938
1194.717, 94.94141
1195.801, 7.021484
1196.886, 4.451172
1197.970, 123.9160
1199.054, 148.2148
1200.137, 84.29102
1201.221, 5.357422
1202.305, 76.43359
1203.388, 31.50781
1204.471, 28.90625
1205.554, 54.44141
1206.637, 96.55273
1207.719, 159.5469
1208.802, 156.5371
1209.884, 46.16797
1210.966, 97.78711
1212.048, 69.74219
1213.130, 23.69531
1214.212, 236.6465
1215.293, 238.5977
1216.374, 150.5430
1217.456, 187.4355
1218.536, 173.7422
1219.617, 9.371094
1220.698, 236.3066
1221.778, 57.23633
1222.859, 157.7285
1223.939, 80.71680
1225.019, 95.64258
1226.099, 250.5664
1227.178, 40.48633
1228.258, 289.6328
1229.337, 189.5469
1230.417, 297.4590
1231.496, 53.63281
1232.574, 150.6172
1233.653, 60.48438
1234.732, 116.3516
1235.810, 61.21094
1236.888, 66.50195
1237.966, 127.3555
1239.044, 75.20898
1240.122, 118.0605
1241.199, 262.0254
1242.277, 130.8867
1243.354, 239.7441
1244.431, 245.5977
1245.508, 208.4473
1246.585, 220.3145
1247.661, 281.1797
1248.738, 62.04883
1249.814, 56.08398
1250.890, 33.96484
1251.966, 188.7852
1253.042, 181.6133
1254.117, 237.2363
1255.193, 156.5645
1256.268, 206.3887
1257.343, 146.2109
1258.418, 50.02930
1259.493, 102.8438
1260.567, 143.6543
1261.642, 306.4590
1262.716, 160.2812
1263.790, 183.1035
1264.864, 25.92578
1265.938, 64.74219
1267.011, 64.77734
1268.085, 23.37305
1269.158, 132.1836
1270.231, 114.9863
1271.304, 149.7871
1272.377, 144.5840
1273.450, 77.37500
1274.522, 179.1641
1275.594, 54.94531
1276.666, 67.75977
1277.738, 54.46289
1278.810, 123.2734
