##NAMES=Ferberite
##RRUFFID=R050090
##IDEAL CHEMISTRY=Fe^2+^W^6+^O_4_
##LOCALITY=Yaogangxian mine, Cheng Zhu City, South Hunan, China
##OWNER=RRUFF
##SOURCE=Rock Currier
##DESCRIPTION=Dark gray tabular crystal
##STATUS=The identification of this mineral has been confirmed by X-ray diffraction and chemical analysis
##URL=rruff.info/R050090
##MEASURED CHEMISTRY=(Fe^2+^_0.56_Mn_0.44_)W_1.00_O_4_
##PIN_ID=L01590
##ORIENTATION=Laser parallel to (1 0 1). Fiducial mark perpendicular to laser is parallel to b [0 1 0]
98.41600, 0.0000000E+00
99.64900, 0.5705570
100.8830, 203.4370
102.1160, 265.0671
103.3490, 8.722656
104.5820, 164.5359
105.8150, 295.5659
107.0470, 385.8835
108.2800, 303.3516
109.5120, 449.6047
110.7440, 506.7888
111.9760, 561.6792
113.2080, 744.1990
114.4400, 694.9624
115.6710, 877.7427
116.9030, 968.9890
118.1340, 1103.216
119.3650, 1146.833
120.5960, 1219.275
121.8270, 1383.587
123.0580, 1497.588
124.2880, 1998.871
125.5190, 2913.008
126.7490, 3715.266
127.9790, 5487.608
129.2090, 8899.003
130.4390, 12950.19
131.6680, 14309.46
132.8980, 11839.93
134.1270, 7872.945
135.3560, 4830.205
136.5850, 2904.142
137.8140, 1952.990
139.0430, 1339.639
140.2710, 1202.869
141.5000, 1064.721
142.7280, 669.2329
143.9560, 403.4355
145.1840, 234.3604
146.4120, 167.0659
147.6390, 198.5652
148.8670, 235.8523
150.0940, 90.94116
151.3210, 166.8464
152.5490, 135.4924
153.7750, 413.1609
155.0020, 150.5925
156.2290, 136.8862
157.4550, 158.0510
158.6810, 5.094238
159.9080, 22.02295
161.1340, 34.15601
162.3590, 36.13403
163.5850, 113.6311
164.8110, 310.1323
166.0360, 446.7271
167.2610, 539.9543
168.4860, 566.3140
169.7110, 655.1333
170.9360, 738.8562
172.1610, 717.0674
173.3850, 770.8982
174.6100, 651.7573
175.8340, 671.5325
177.0580, 603.2314
178.2820, 594.4368
179.5050, 638.9297
180.7290, 709.4749
181.9520, 670.0710
183.1760, 676.7166
184.3990, 726.4097
185.6220, 710.1477
186.8450, 844.9287
188.0670, 931.7502
189.2900, 995.6094
190.5120, 987.5249
191.7340, 1194.477
192.9560, 1224.697
194.1780, 1381.571
195.4000, 1555.605
196.6220, 1649.798
197.8430, 1737.930
199.0640, 1860.026
200.2860, 2041.144
201.5070, 2332.283
202.7270, 2817.443
203.9480, 2807.967
205.1690, 3282.760
206.3890, 2851.936
207.6090, 2617.123
208.8290, 2447.315
210.0490, 2271.508
211.2690, 2010.699
212.4890, 1746.885
213.7080, 1486.067
214.9280, 1197.246
216.1470, 920.4219
217.3660, 662.5952
218.5850, 492.7192
219.8030, 324.7271
221.0220, 270.1016
222.2400, 111.2656
223.4590, 144.4275
224.6770, 97.58765
225.8950, 58.74561
227.1120, 143.9014
228.3300, 69.05615
229.5480, 25.20898
230.7650, 1.639404
231.9820, 176.5107
233.1990, 58.67871
234.4160, 82.68188
235.6330, 4.7607001E-02
236.8490, 6.904541
238.0660, 46.21924
239.2820, 25.66797
240.4980, 39.56616
241.7140, 22.49707
242.9300, 39.47949
244.1460, 91.52881
245.3610, 110.8645
246.5770, 36.73804
247.7920, 134.0884
249.0070, 125.3091
250.2220, 55.57007
251.4370, 72.61426
252.6510, 30.01929
253.8660, 81.53369
255.0800, 24.55957
256.2940, 39.69507
257.5080, 65.86597
258.7220, 241.0662
259.9360, 406.6106
261.1490, 357.7927
262.3630, 349.4414
263.5760, 315.0515
264.7890, 268.5649
266.0020, 176.5920
267.2150, 186.8616
268.4270, 196.1282
269.6400, 188.3894
270.8520, 221.6445
272.0640, 252.8926
273.2760, 210.1328
274.4880, 210.2944
275.7000, 197.8096
276.9120, 138.7588
278.1230, 162.9216
279.3340, 115.0752
280.5450, 95.21655
281.7560, 135.3403
282.9670, 98.43896
284.1780, 97.50879
285.3880, 86.55029
286.5980, 76.33179
287.8090, 22.87256
289.0190, 71.83325
290.2290, 123.0625
291.4380, 127.9790
292.6480, 84.87500
293.8570, 159.7524
295.0670, 98.60986
296.2760, 230.4678
297.4850, 125.2903
298.6930, 245.0977
299.9020, 204.8994
301.1110, 329.0059
302.3190, 233.8542
303.5270, 255.6313
304.7350, 262.6724
305.9430, 339.4224
307.1510, 364.5776
308.3580, 418.8645
309.5660, 473.6538
310.7730, 541.3254
311.9800, 621.9854
313.1870, 702.6216
314.3940, 812.2234
315.6010, 938.4473
316.8070, 1082.218
318.0130, 1242.503
319.2200, 1443.695
320.4260, 1640.768
321.6310, 1896.759
322.8370, 2183.691
324.0430, 2410.622
325.2480, 2685.566
326.4540, 2912.525
327.6590, 2888.495
328.8640, 2929.486
330.0680, 2675.481
331.2730, 2491.476
332.4780, 2199.471
333.6820, 2118.475
334.8860, 1781.481
336.0900, 1630.488
337.2940, 1473.495
338.4980, 1373.500
339.7010, 1207.495
340.9050, 1141.490
342.1080, 1097.486
343.3110, 884.4812
344.5140, 945.4756
345.7170, 834.4717
346.9200, 763.4668
348.1220, 719.4658
349.3240, 605.4631
350.5270, 654.4592
351.7290, 623.4644
352.9310, 590.4678
354.1320, 508.4709
355.3340, 525.4724
356.5350, 536.4758
357.7370, 554.4775
358.9380, 540.4958
360.1390, 509.5132
361.3400, 415.5295
362.5400, 438.5444
363.7410, 439.5574
364.9410, 469.5688
366.1410, 456.2734
367.3410, 491.5862
368.5410, 444.5923
369.7410, 346.5967
370.9400, 358.4663
372.1400, 431.4670
373.3390, 446.4001
374.5380, 351.6899
375.7370, 428.6667
376.9360, 359.6602
378.1350, 418.5298
379.3330, 301.5156
380.5310, 434.6272
381.7300, 447.3171
382.9280, 400.0713
384.1260, 488.6011
385.3230, 513.2676
386.5210, 607.0146
387.7180, 586.7070
388.9160, 739.1455
390.1130, 796.3684
391.3100, 922.2512
392.5060, 1204.021
393.7030, 1495.337
394.9000, 1835.028
396.0960, 2195.639
397.2920, 2701.910
398.4880, 3080.934
399.6840, 3121.219
400.8800, 2874.833
402.0750, 2531.694
403.2710, 1983.632
404.4660, 1605.565
405.6610, 1285.492
406.8560, 1051.414
408.0510, 844.3315
409.2450, 732.2432
410.4400, 641.1499
411.6340, 458.0510
412.8280, 344.9470
414.0220, 335.8374
415.2160, 375.7229
416.4100, 267.6025
417.6030, 234.4773
418.7970, 239.3467
419.9900, 224.2107
421.1830, 184.4556
422.3760, 129.9236
423.5690, 90.77271
424.7610, 102.6038
425.9540, 31.44287
427.1460, 31.27246
428.3380, 70.09131
429.5300, 74.85742
430.7220, 9.432617
431.9140, 32.29883
433.1050, 58.05103
434.2970, 74.72388
435.4880, 11.49487
436.6790, 7.169922
437.8700, 52.93286
439.0610, 2.654053
440.2510, 52.40894
441.4420, 25.31152
442.6320, 11.26147
443.8220, 9.994629
445.0120, 1.661621
446.2020, 88.69116
447.3910, 7.581055
448.5810, 35.13989
449.7700, 73.86548
450.9600, 26.59204
452.1490, 164.3198
453.3370, 58.04443
454.5260, 82.76538
455.7150, 130.6008
456.9030, 143.3152
458.0910, 85.02612
459.2800, 92.75244
460.4670, 81.55859
461.6550, 149.6743
462.8430, 69.74023
464.0300, 133.4622
465.2180, 126.6694
466.4050, 102.3901
467.5920, 111.9346
468.7790, 137.4888
469.9650, 112.3003
471.1520, 155.0728
472.3380, 113.0142
473.5250, 123.4409
474.7110, 118.4851
475.8970, 126.8755
477.0820, 137.2749
478.2680, 147.0085
479.4540, 186.8154
480.6390, 175.0500
481.8240, 255.2754
483.0090, 177.0034
484.1940, 234.3567
485.3780, 259.0815
486.5630, 235.8049
487.7470, 257.3176
488.9320, 257.0376
490.1160, 223.8223
491.3000, 229.5396
492.4830, 213.2549
493.6670, 253.3364
494.8500, 266.0754
496.0340, 263.0054
497.2170, 325.7136
498.4000, 330.1267
499.5820, 321.8313
500.7650, 328.7573
501.9480, 342.5674
503.1300, 412.4077
504.3120, 368.1038
505.4940, 477.7981
506.6760, 393.4902
507.8580, 509.1804
509.0390, 512.8684
510.2210, 569.5542
511.4020, 606.2383
512.5830, 556.9197
513.7640, 533.5999
514.9450, 609.2781
516.1250, 681.9543
517.3060, 623.6326
518.4860, 765.3176
519.6660, 692.0010
520.8460, 817.6826
522.0260, 870.3628
523.2060, 934.0496
524.3850, 957.7451
525.5650, 1086.439
526.7440, 1036.147
527.9230, 1278.872
529.1020, 1180.609
530.2810, 1312.364
531.4590, 1375.149
532.6380, 1475.969
533.8160, 1520.806
534.9940, 1621.684
536.1720, 1667.602
537.3500, 1799.541
538.5270, 1814.303
539.7050, 1964.484
540.8820, 1793.492
542.0590, 1784.500
543.2360, 1622.509
544.4130, 1757.516
545.5900, 1612.521
546.7660, 1583.524
547.9430, 1475.526
549.1190, 1337.526
550.2950, 1231.525
551.4710, 1104.521
552.6470, 1011.348
553.8220, 929.1189
554.9980, 853.5032
556.1730, 779.4944
557.3480, 743.4836
558.5230, 655.4722
559.6980, 590.4590
560.8730, 492.4443
562.0470, 469.4285
563.2220, 417.9194
564.3960, 366.3936
565.5700, 380.3740
566.7440, 298.3535
567.9170, 318.3320
569.0910, 303.3093
570.2640, 260.2856
571.4380, 322.2612
572.6110, 298.9175
573.7840, 168.8967
574.9570, 179.5840
576.1290, 134.5623
577.3020, 65.53955
578.4740, 62.51587
579.6460, 19.14258
580.8180, 29.45020
581.9900, 1.425781
583.1620, 31.60181
584.3330, 22.35034
585.5040, 59.01831
586.6760, 1.160645
587.8470, 41.75195
589.0180, 28.38647
590.1880, 57.26099
591.3590, 26.17212
592.5290, 21.08252
593.7000, 14.42139
594.8700, 13.78589
596.0400, 13.18921
597.2090, 29.70850
598.3790, 18.37866
599.5490, 28.53198
600.7180, 12.01953
601.8870, 13.13501
603.0560, 14.26367
604.2250, 19.59521
605.3940, 0.5468750
606.5620, 19.30518
607.7300, 37.84326
608.8990, 38.01709
610.0670, 26.21680
611.2350, 73.42676
612.4020, 7.135498
613.5700, 84.64160
614.7370, 85.37476
615.9050, 16.89258
617.0720, 1.175781
618.2390, 64.19189
619.4060, 14.90039
620.5720, 57.60718
621.7390, 62.31348
622.9050, 36.01929
624.0710, 0.2756350
625.2370, 76.42261
626.4030, 38.12012
627.5690, 3.182617
628.7340, 92.50635
629.9000, 7.805176
631.0650, 79.87256
632.2300, 39.54980
633.3950, 28.77295
634.5600, 15.88281
635.7240, 7.537598
636.8890, 100.1895
638.0530, 2.158203
639.2170, 30.48633
640.3810, 58.86914
641.5450, 10.73926
642.7080, 9.345215
643.8720, 29.94971
645.0350, 21.55420
646.1980, 48.15820
647.3610, 59.76318
648.5240, 74.91797
649.6870, 79.97314
650.8490, 88.36133
652.0120, 92.46094
653.1740, 98.78955
654.3360, 98.39551
655.4980, 104.1592
656.6600, 112.2520
657.8210, 122.2163
658.9830, 132.8232
660.1440, 154.4321
661.3050, 146.0405
662.4660, 233.6499
663.6270, 193.2593
664.7870, 176.8696
665.9480, 260.4810
667.1080, 204.0928
668.2680, 275.7051
669.4280, 335.3174
670.5880, 368.9302
671.7480, 333.5444
672.9070, 367.1577
674.0670, 429.7715
675.2260, 421.3857
676.3850, 536.9990
677.5440, 541.6201
678.7030, 555.2412
679.8610, 532.8662
681.0200, 586.4912
682.1780, 648.1162
683.3360, 651.7407
684.4940, 786.3652
685.6520, 781.9912
686.8090, 872.6172
687.9670, 912.2720
689.1240, 933.9277
690.2810, 980.5825
691.4380, 1044.243
692.5950, 999.9033
693.7520, 913.5645
694.9080, 918.2261
696.0650, 973.8921
697.2210, 1033.562
698.3770, 994.2314
699.5330, 861.9028
700.6880, 896.5806
701.8440, 842.2617
702.9990, 822.9424
704.1550, 756.6240
705.3100, 649.3062
706.4650, 601.9888
707.6190, 522.6724
708.7740, 496.3564
709.9290, 435.0410
711.0830, 379.7266
712.2370, 360.4146
713.3910, 324.2344
714.5450, 280.5332
715.6980, 278.5137
716.8520, 205.2197
718.0050, 158.7095
719.1580, 135.0396
720.3110, 108.3447
721.4640, 108.9048
722.6170, 84.18018
723.7700, 137.1274
724.9220, 67.92383
726.0740, 81.34473
727.2260, 106.0654
728.3780, 32.21094
729.5300, 106.4971
730.6810, 62.20703
731.8330, 70.91895
732.9840, 8.632813
734.1350, 89.34814
735.2860, 36.94824
736.4370, 35.66797
737.5880, 68.60986
738.7380, 7.920898
739.8880, 32.56494
741.0390, 47.98145
742.1890, 55.76318
743.3380, 69.47803
744.4880, 67.84619
745.6380, 66.93213
746.7870, 49.80908
747.9360, 30.67969
749.0850, 1.294434
750.2340, 56.04883
751.3830, 37.57129
752.5310, 2.105957
753.6800, 6.787598
754.8280, 81.81543
755.9760, 17.16260
757.1240, 102.5244
758.2720, 69.14111
759.4190, 45.83643
760.5670, 180.5361
761.7140, 239.2412
762.8610, 253.3232
764.0080, 284.0371
765.1550, 321.7554
766.3020, 301.6875
767.4480, 347.4160
768.5950, 378.0825
769.7410, 464.8203
770.8870, 443.5635
772.0330, 444.9438
773.1780, 519.6709
774.3240, 469.2095
775.4690, 466.9741
776.6140, 554.0371
777.7590, 404.8125
778.9040, 493.3706
780.0490, 437.0483
781.1940, 416.6992
782.3380, 380.4990
783.4820, 356.7808
784.6260, 353.1162
785.7700, 333.9346
786.9140, 319.1938
788.0580, 320.7031
789.2010, 308.4272
790.3450, 319.2705
791.4880, 358.1211
792.6310, 354.9780
793.7730, 338.1636
794.9160, 376.7124
796.0590, 287.5894
797.2010, 325.4731
798.3430, 326.3638
799.4850, 272.2612
800.6270, 294.1655
801.7690, 374.0776
802.9100, 288.0381
804.0520, 387.9634
805.1930, 295.8960
806.3340, 314.8364
807.4750, 376.7832
808.6160, 234.7378
809.7560, 352.6992
810.8970, 398.6685
812.0370, 313.6445
813.1770, 396.6289
814.3170, 430.2559
815.4570, 355.2544
816.5960, 320.1299
817.7360, 457.2549
818.8750, 415.2759
820.0140, 407.3047
821.1530, 507.4307
822.2920, 545.6719
823.4310, 390.7231
824.5690, 497.7031
825.7070, 511.7700
826.8460, 592.8438
827.9840, 513.9956
829.1220, 563.1226
830.2590, 626.3228
831.3970, 600.4263
832.5340, 667.5083
833.6710, 655.3623
834.8080, 703.4883
835.9450, 752.7920
837.0820, 858.4351
838.2190, 877.9805
839.3550, 952.1367
840.4910, 1050.300
841.6270, 1036.471
842.7630, 1194.532
843.8990, 1260.438
845.0350, 1466.039
846.1700, 1459.244
847.3060, 1598.458
848.4410, 1688.679
849.5760, 1780.908
850.7100, 2005.145
851.8450, 2042.390
852.9800, 2144.642
854.1140, 2338.906
855.2480, 2527.649
856.3820, 2833.457
857.5160, 3099.744
858.6500, 3403.042
859.7830, 3824.356
860.9170, 4197.679
862.0500, 4643.028
863.1830, 5295.387
864.3160, 5819.754
865.4480, 6512.167
866.5810, 7173.551
867.7130, 8202.943
868.8460, 9039.342
869.9780, 10282.75
871.1100, 11524.17
872.2410, 13061.60
873.3730, 14873.05
874.5050, 16878.46
875.6360, 19080.37
876.7670, 21656.84
877.8980, 24212.33
879.0290, 26599.84
880.1590, 28775.35
881.2900, 30335.88
882.4200, 31090.41
883.5500, 30663.96
884.6800, 29944.54
885.8100, 27706.12
886.9400, 24862.92
888.0690, 21912.79
889.1990, 18900.45
890.3280, 16160.12
891.4570, 13674.80
892.5860, 11417.84
893.7140, 9462.550
894.8430, 8014.269
895.9710, 6855.003
897.1000, 5641.746
898.2280, 4831.511
899.3560, 4129.291
900.4830, 3428.078
901.6110, 2957.875
902.7380, 2662.686
903.8660, 2238.507
904.9930, 2084.343
906.1200, 1792.188
907.2460, 1589.043
908.3730, 1397.918
909.5000, 1177.811
910.6260, 1119.715
911.7520, 1033.629
912.8780, 864.5562
914.0040, 772.4927
915.1290, 704.4575
916.2550, 670.4497
917.3800, 546.4531
918.5050, 662.4658
919.6300, 493.5000
920.7550, 420.5435
921.8800, 295.5967
923.0040, 361.6597
924.1290, 327.7324
925.2530, 234.8149
926.3770, 196.9072
927.5010, 211.0103
928.6250, 205.1226
929.7480, 171.2441
930.8720, 113.3755
931.9950, 93.51611
933.1180, 119.6665
934.2410, 183.8379
935.3640, 134.0190
936.4860, 89.20947
937.6090, 1.587402
938.7310, 4.080078
939.8530, 37.84375
940.9750, 12.07422
942.0970, 9.314453
943.2180, 44.56396
944.3400, 95.82275
945.4610, 30.09033
946.5820, 68.36719
947.7030, 11.65332
948.8240, 41.05078
949.9450, 53.23877
951.0650, 24.46240
952.1860, 4.162109
953.3060, 80.14502
954.4260, 108.4619
955.5460, 3.211426
956.6650, 6.875488
957.7850, 5.472656
958.9040, 135.1704
960.0230, 65.13721
961.1420, 78.45312
962.2610, 28.21875
963.3800, 0.8920900
964.4990, 3.556641
965.6170, 29.78564
966.7350, 25.86328
967.8530, 20.51123
968.9710, 41.84229
970.0890, 31.20410
971.2070, 40.42432
972.3240, 12.05957
973.4410, 15.31006
974.5580, 8.688477
975.6750, 23.86670
976.7920, 31.90039
977.9090, 20.59863
979.0250, 46.01123
980.1410, 34.43262
981.2580, 39.86230
982.3740, 4.300293
983.4890, 49.74658
984.6050, 11.20166
985.7200, 75.66504
986.8360, 66.13623
987.9510, 106.2441
989.0660, 101.7397
990.1810, 18.24414
991.2950, 39.76221
992.4100, 107.2964
993.5240, 47.83887
994.6390, 79.39746
995.7530, 128.9634
996.8660, 120.5376
997.9800, 26.11914
999.0940, 74.70898
1000.207, 31.31592
1001.320, 44.93066
1002.433, 112.5542
1003.546, 45.18457
1004.659, 94.82324
1005.772, 68.47021
1006.884, 84.12354
1007.996, 40.78467
1009.108, 57.47021
1010.220, 35.16650
1011.332, 58.87012
1012.444, 64.58105
1013.555, 113.2988
1014.666, 99.02441
1015.777, 75.75684
1016.888, 62.49658
1017.999, 117.2437
1019.110, 45.99805
1020.220, 53.75977
1021.331, 87.65381
1022.441, 10.44873
1023.551, 137.2500
1024.661, 107.0586
1025.770, 125.1196
1026.880, 61.94971
1027.989, 63.78564
1029.098, 86.26611
1030.207, 12.11426
1031.316, 53.04932
1032.425, 20.90918
1033.533, 84.77344
1034.642, 66.64355
1035.750, 35.51953
1036.858, 132.4009
1037.966, 151.2881
1039.073, 62.18018
1040.181, 122.0771
1041.288, 168.9795
1042.396, 70.51123
1043.503, 61.62354
1044.610, 162.5405
1045.716, 111.4629
1046.823, 19.39062
1047.929, 168.3223
1049.036, 151.3247
1050.142, 222.2656
1051.248, 218.2109
1052.353, 173.9312
1053.459, 147.8848
1054.564, 257.8423
1055.670, 175.8032
1056.775, 249.8022
1057.880, 192.7715
1058.985, 206.7451
1060.089, 201.4722
1061.194, 303.9551
1062.298, 223.9390
1063.402, 188.9263
1064.506, 316.9170
1065.610, 229.9116
1066.713, 264.7109
1067.817, 216.7114
1068.920, 273.7153
1070.023, 207.2319
1071.126, 213.2007
1072.229, 211.2139
1073.332, 251.4150
1074.435, 256.4341
1075.537, 242.9292
1076.639, 191.4795
1077.741, 230.5063
1078.843, 193.5356
1079.945, 241.5684
1081.046, 285.6030
1082.148, 223.0044
1083.249, 275.0439
1084.350, 229.2168
1085.451, 223.1494
1086.551, 279.1968
1087.652, 246.4268
1088.752, 249.7456
1089.853, 184.8115
1090.953, 220.8682
1092.053, 171.0366
1093.152, 209.0981
1094.252, 113.6812
1095.351, 224.7847
1096.451, 144.8159
1097.550, 169.7847
1098.649, 205.8594
1099.748, 107.0337
1100.846, 147.3794
1101.945, 99.46338
1103.043, 123.5498
1104.141, 157.0278
1105.239, 99.72217
1106.337, 137.5000
1107.434, 121.9121
1108.532, 174.0098
1109.629, 12.11621
1110.726, 94.12451
1111.823, 153.9302
1112.920, 169.7964
1114.017, 10.10889
1115.113, 77.11621
1116.210, 53.27637
1117.306, 25.71338
1118.402, 124.6313
1119.498, 9.512695
1120.593, 89.10645
1121.689, 93.81445
1122.784, 142.1343
1123.879, 99.31592
1124.974, 83.17676
1126.069, 159.9990
1127.164, 184.5640
1128.259, 129.5298
1129.353, 179.1104
1130.447, 41.78076
1131.541, 68.46826
1132.635, 166.1665
1133.729, 115.7480
1134.822, 167.0044
1135.916, 179.5342
1137.009, 8.818848
1138.102, 123.9395
1139.195, 101.0601
1140.288, 127.1812
1141.380, 74.30225
1142.473, 74.44775
1143.565, 46.66504
1144.657, 88.78613
1145.749, 83.90723
1146.841, 41.02783
1147.932, 100.1479
1149.024, 60.26807
1150.115, 20.64648
1151.206, 92.76514
1152.297, 29.14941
1153.388, 75.14600
1154.479, 133.0015
1155.569, 146.9165
1156.659, 14.70605
1157.750, 51.62305
1158.839, 25.81543
1159.929, 3.721191
1161.019, 93.21436
1162.108, 42.91357
1163.198, 51.98779
1164.287, 54.65479
1165.376, 99.53320
1166.465, 53.00098
1167.553, 34.70459
1168.642, 107.8442
1169.730, 130.3550
1170.818, 73.29980
1171.906, 120.8574
1172.994, 18.50049
1174.082, 6.145020
1175.170, 101.5537
1176.257, 49.07080
1177.344, 98.31152
1178.431, 108.7861
1179.518, 56.74805
1180.605, 83.77441
1181.691, 91.92139
1182.778, 35.85645
1183.864, 25.39893
1184.950, 81.34766
1186.036, 71.29443
1187.122, 15.23877
1188.207, 104.1826
1189.292, 51.12402
1190.378, 6.063477
1191.463, 37.99805
1192.548, 61.93115
1193.632, 44.86133
1194.717, 76.78906
1195.801, 71.71436
1196.886, 35.36279
1197.970, 40.54004
1199.054, 72.43994
1200.137, 1.337891
1201.221, 43.22754
1202.305, 23.11523
1203.388, 10.00049
1204.471, 49.88135
1205.554, 32.05420
1206.637, 62.63867
1207.719, 46.51270
1208.802, 35.38525
1209.884, 57.25684
1210.966, 51.12598
1212.048, 33.99219
1213.130, 57.86328
1214.212, 43.03223
1215.293, 55.60107
1216.374, 36.51270
1217.456, 12.39502
1218.536, 6.326660
1219.617, 8.801758
1220.698, 76.06641
1221.778, 21.93164
1222.859, 105.8232
1223.939, 2.715820
1225.019, 17.76270
1226.099, 53.73340
1227.178, 133.6265
1228.258, 81.51660
1229.337, 21.40332
1230.417, 120.8970
1231.496, 116.7842
1232.574, 70.70703
1233.653, 23.58740
1234.732, 86.60791
1235.810, 92.49121
1236.888, 192.3696
1237.966, 130.2466
1239.044, 129.1187
1240.122, 98.26514
1241.199, 110.1304
1242.277, 72.03857
1243.354, 58.89746
1244.431, 92.75244
1245.508, 90.60303
1246.585, 133.4829
1247.661, 140.3262
1248.738, 62.16650
1249.814, 15.20801
1250.890, 31.67432
1251.966, 10.59814
1253.042, 14.80225
1254.117, 22.06934
1255.193, 14.15723
1256.268, 32.59717
1257.343, 48.36377
1258.418, 71.11035
1259.493, 44.59082
1260.567, 188.5918
1261.642, 17.32666
1262.716, 38.26025
1263.790, 141.3335
1264.864, 81.13086
1265.938, 156.8472
1267.011, 87.55811
1268.085, 95.92725
1269.158, 73.70264
1270.231, 79.74219
1271.304, 39.56836
1272.377, 30.26123
1273.450, 95.94775
1274.522, 75.62939
1275.594, 91.30664
1276.666, 103.9790
1277.738, 134.6475
1278.810, 19.31055
