##NAMES=Ferberite
##RRUFFID=R050632
##IDEAL CHEMISTRY=Fe^2+^W^6+^O_4_
##LOCALITY=Chance mine, Boulder, Colorado, USA
##OWNER=RRUFF
##SOURCE=University of Arizona Mineral Museum
##DESCRIPTION=Dark brown rectangular prismatic crystals
##STATUS=The identification of this mineral has been confirmed by X-ray diffraction and chemical analysis
##URL=rruff.info/R050632
##MEASURED CHEMISTRY=Fe^2+^_1.00_WO_4_
##PIN_ID=M00461
##ORIENTATION=Laser parallel to b* (0 1 0). Fiducial mark perpendicular to laser is parallel to c [0 0 1]
157.4550, 0.0000000E+00
158.6810, 4.164063
159.9080, 47.67969
161.1340, 161.0117
162.3590, 420.5586
163.5850, 677.3516
164.8110, 722.8711
166.0360, 710.8203
167.2610, 562.2461
168.4860, 369.6680
169.7110, 696.2539
170.9360, 957.7383
172.1610, 429.3633
173.3850, 591.5742
174.6100, 173.0273
175.8340, 542.1328
177.0580, 554.4297
178.2820, 479.2031
179.5050, 453.1719
180.7290, 546.0508
181.9520, 552.7344
183.1760, 648.5391
184.3990, 816.7852
185.6220, 1076.492
186.8450, 1209.680
188.0670, 1320.156
189.2900, 1471.988
190.5120, 1913.945
191.7340, 1822.652
192.9560, 2269.910
194.1780, 2146.016
195.4000, 2554.066
196.6220, 2823.957
197.8430, 2538.215
199.0640, 2895.375
200.2860, 3305.309
201.5070, 3963.223
202.7270, 4177.648
203.9480, 3080.715
205.1690, 2304.914
206.3890, 1855.047
207.6090, 1910.648
208.8290, 1931.559
210.0490, 1932.930
211.2690, 2198.516
212.4890, 2179.176
213.7080, 1880.785
214.9280, 1723.688
216.1470, 1213.246
217.3660, 967.3086
218.5850, 558.0156
219.8030, 476.3750
221.0220, 506.3477
222.2400, 634.9766
223.4590, 545.9062
224.6770, 417.9727
225.8950, 441.0859
227.1120, 407.2266
228.3300, 136.9102
229.5480, 328.0938
230.7650, 147.3594
231.9820, 165.9297
233.1990, 369.4531
234.4160, 214.1445
235.6330, 106.0078
236.8490, 382.0195
238.0660, 84.17969
239.2820, 64.47266
240.4980, 59.89844
241.7140, 365.4453
242.9300, 101.4492
244.1460, 4.253906
245.3610, 62.97656
246.5770, 77.28125
247.7920, 86.26562
249.0070, 20.00391
250.2220, 45.74609
251.4370, 75.21094
252.6510, 23.52734
253.8660, 113.8438
255.0800, 17.07031
256.2940, 13.71094
257.5080, 32.42578
258.7220, 14.03125
259.9360, 31.85156
261.1490, 42.97656
262.3630, 66.54297
263.5760, 9.484375
264.7890, 58.44922
266.0020, 81.97656
267.2150, 56.19922
268.4270, 41.26953
269.6400, 11.09375
270.8520, 39.57422
272.0640, 50.96094
273.2760, 116.0352
274.4880, 27.05078
275.7000, 35.96484
276.9120, 92.97266
278.1230, 39.24219
279.3340, 70.91406
280.5450, 94.60547
281.7560, 53.23047
282.9670, 79.66797
284.1780, 0.8945310
285.3880, 21.63672
286.5980, 53.33594
287.8090, 44.78516
289.0190, 150.1133
290.2290, 29.87500
291.4380, 276.1211
292.6480, 310.3477
293.8570, 429.6016
295.0670, 369.9062
296.2760, 275.2266
297.4850, 303.5938
298.6930, 49.96484
299.9020, 298.5586
301.1110, 37.15625
302.3190, 157.8320
303.5270, 223.6367
304.7350, 79.77344
305.9430, 150.7461
307.1510, 261.3867
308.3580, 373.0938
309.5660, 396.8477
310.7730, 457.0195
311.9800, 521.3984
313.1870, 454.1602
314.3940, 369.9102
315.6010, 261.6250
316.8070, 303.8086
318.0130, 299.9414
319.2200, 408.5273
320.4260, 484.0664
321.6310, 576.5664
322.8370, 585.0195
324.0430, 487.4219
325.2480, 626.7578
326.4540, 726.0273
327.6590, 583.2148
328.8640, 928.3164
330.0680, 764.3516
331.2730, 703.3164
332.4780, 770.2148
333.6820, 597.0625
334.8860, 540.8477
336.0900, 496.5820
337.2940, 731.2695
338.4980, 730.8789
339.7010, 639.4180
340.9050, 610.9180
342.1080, 425.3516
343.3110, 565.7344
344.5140, 436.0234
345.7170, 604.1367
346.9200, 363.1562
348.1220, 411.0273
349.3240, 362.7461
350.5270, 544.3398
351.7290, 466.7656
352.9310, 487.1562
354.1320, 535.4766
355.3340, 89.82422
356.5350, 38.18750
357.7370, 512.4688
358.9380, 202.7695
360.1390, 497.1133
361.3400, 386.4141
362.5400, 756.7070
363.7410, 579.9961
364.9410, 463.2578
366.1410, 648.5195
367.3410, 277.8047
368.5410, 369.0508
369.7410, 433.3516
370.9400, 480.7109
372.1400, 454.1250
373.3390, 407.3672
374.5380, 623.8789
375.7370, 447.8047
376.9360, 299.2031
378.1350, 526.8633
379.3330, 542.2539
380.5310, 518.0039
381.7300, 535.8281
382.9280, 552.4141
384.1260, 381.5742
385.3230, 481.8164
386.5210, 604.8594
387.7180, 717.3242
388.9160, 604.6875
390.1130, 676.0156
391.3100, 290.0039
392.5060, 510.4766
393.7030, 546.3711
394.9000, 966.9062
396.0960, 857.5586
397.2920, 666.0664
398.4880, 892.0938
399.6840, 775.4453
400.8800, 1057.270
402.0750, 977.3672
403.2710, 1052.160
404.4660, 884.6016
405.6610, 685.1055
406.8560, 634.0117
408.0510, 500.7266
409.2450, 631.7812
410.4400, 1003.340
411.6340, 828.7734
412.8280, 656.0234
414.0220, 315.6250
415.2160, 472.0352
416.4100, 586.5039
417.6030, 736.4531
418.7970, 435.0508
419.9900, 944.7109
421.1830, 644.8008
422.3760, 787.5859
423.5690, 743.4219
424.7610, 722.0938
425.9540, 445.4180
427.1460, 656.4180
428.3380, 636.5000
429.5300, 532.9922
430.7220, 871.1992
431.9140, 698.0000
433.1050, 766.0117
434.2970, 759.4727
435.4880, 709.0000
436.6790, 795.6016
437.8700, 754.2656
439.0610, 700.0078
440.2510, 729.8164
441.4420, 503.6992
442.6320, 728.4258
443.8220, 416.4492
445.0120, 624.5352
446.2020, 966.6992
447.3910, 849.9102
448.5810, 706.0508
449.7700, 1040.375
450.9600, 928.7500
452.1490, 890.1797
453.3370, 905.6641
454.5260, 775.1992
455.7150, 487.7969
456.9030, 1092.449
458.0910, 1070.164
459.2800, 786.9375
460.4670, 789.7695
461.6550, 872.6484
462.8430, 717.5898
464.0300, 845.3789
465.2180, 819.1484
466.4050, 924.2617
467.5920, 932.4766
468.7790, 843.7852
469.9650, 793.1484
471.1520, 1031.586
472.3380, 682.0781
473.5250, 731.6328
474.7110, 1051.250
475.8970, 743.5078
477.0820, 983.2539
478.2680, 948.0625
479.4540, 1295.934
480.6390, 1041.871
481.8240, 960.8867
483.0090, 1044.965
484.1940, 1217.129
485.3780, 1281.363
486.5630, 1077.672
487.7470, 1165.047
488.9320, 1137.484
490.1160, 1134.996
491.3000, 1158.582
492.4830, 1053.238
493.6670, 1165.965
494.8500, 1465.770
496.0340, 1344.645
497.2170, 1334.594
498.4000, 1355.617
499.5820, 1180.621
500.7650, 1288.664
501.9480, 1080.609
503.1300, 1381.988
504.3120, 1332.441
505.4940, 1331.977
506.6760, 1381.617
507.8580, 1106.340
509.0390, 1571.238
510.2210, 1216.242
511.4020, 1507.324
512.5830, 1226.520
513.7640, 1138.797
514.9450, 1546.203
516.1250, 1399.719
517.3060, 1276.344
518.4860, 1647.055
519.6660, 1556.934
520.8460, 1479.809
522.0260, 1599.801
523.2060, 1633.887
524.3850, 1658.047
525.5650, 1750.301
526.7440, 1868.637
527.9230, 1586.078
529.1020, 1850.605
530.2810, 1810.285
531.4590, 1444.090
532.6380, 1648.012
533.8160, 1507.051
534.9940, 1576.219
536.1720, 1623.492
537.3500, 1791.867
538.5270, 1836.355
539.7050, 1572.953
540.8820, 1700.680
542.0590, 1771.500
543.2360, 2144.422
544.4130, 2195.461
545.5900, 1508.594
546.7660, 1810.922
547.9430, 1732.371
549.1190, 1696.891
550.2950, 1834.500
551.4710, 2091.188
552.6470, 1779.977
553.8220, 2248.863
554.9980, 1828.824
556.1730, 1984.891
557.3480, 1918.031
558.5230, 2024.273
559.6980, 2057.617
560.8730, 1761.043
562.0470, 2040.543
563.2220, 1950.137
564.3960, 2088.816
565.5700, 1822.578
566.7440, 1843.441
567.9170, 1762.395
569.0910, 1768.438
570.2640, 1739.703
571.4380, 1626.531
572.6110, 1704.023
573.7840, 1438.379
574.9570, 1425.840
576.1290, 1417.375
577.3020, 1194.977
578.4740, 1072.652
579.6460, 1026.402
580.8180, 946.8594
581.9900, 787.1055
583.1620, 878.0664
584.3330, 556.1016
585.5040, 402.2070
586.6760, 520.3867
587.8470, 570.6367
589.0180, 519.9531
590.1880, 266.3516
591.3590, 410.8164
592.5290, 40.34766
593.7000, 372.9531
594.8700, 299.6289
596.0400, 92.37109
597.2090, 321.1797
598.3790, 375.7148
599.5490, 499.6602
600.7180, 171.6758
601.8870, 158.7578
603.0560, 246.9141
604.2250, 196.8672
605.3940, 344.3867
606.5620, 121.7070
607.7300, 492.9219
608.8990, 248.1094
610.0670, 182.6289
611.2350, 233.7695
612.4020, 87.42578
613.5700, 280.1367
614.7370, 67.91797
615.9050, 58.23828
617.0720, 71.66406
618.2390, 83.62891
619.4060, 174.6562
620.5720, 172.7500
621.7390, 106.8867
622.9050, 241.0703
624.0710, 167.6016
625.2370, 189.0078
626.4030, 133.3242
627.5690, 142.7891
628.7340, 163.3203
629.9000, 138.9102
631.0650, 23.55469
632.2300, 86.07422
633.3950, 77.04297
634.5600, 236.8711
635.7240, 111.7617
636.8890, 390.7109
638.0530, 60.71875
639.2170, 117.2148
640.3810, 51.10547
641.5450, 80.05469
642.7080, 206.3203
643.8720, 224.0469
645.0350, 153.9297
646.1980, 291.2461
647.3610, 208.6875
648.5240, 298.7891
649.6870, 61.61719
650.8490, 181.2188
652.0120, 17.19141
653.1740, 272.3125
654.3360, 244.5156
655.4980, 55.31250
656.6600, 325.8164
657.8210, 309.5898
658.9830, 6.328125
660.1440, 339.9961
661.3050, 162.8711
662.4660, 451.6367
663.6270, 303.7852
664.7870, 317.0742
665.9480, 503.3203
667.1080, 305.6484
668.2680, 268.3203
669.4280, 129.2031
670.5880, 373.9688
671.7480, 701.0078
672.9070, 759.2188
674.0670, 782.1602
675.2260, 628.7539
676.3850, 1075.383
677.5440, 1154.047
678.7030, 1452.598
679.8610, 1519.352
681.0200, 1524.016
682.1780, 2114.840
683.3360, 2010.543
684.4940, 2045.445
685.6520, 2053.719
686.8090, 2602.473
687.9670, 2075.477
689.1240, 2377.516
690.2810, 2429.586
691.4380, 2026.688
692.5950, 2027.824
693.7520, 2002.992
694.9080, 2227.832
696.0650, 1875.062
697.2210, 1791.371
698.3770, 1798.848
699.5330, 1651.164
700.6880, 1531.223
701.8440, 1237.895
702.9990, 1198.500
704.1550, 939.9375
705.3100, 743.3984
706.4650, 727.8906
707.6190, 964.4102
708.7740, 516.9609
709.9290, 588.5352
711.0830, 253.1289
712.2370, 449.7539
713.3910, 444.4023
714.5450, 328.0781
715.6980, 297.7812
716.8520, 195.5078
718.0050, 282.2539
719.1580, 485.0273
720.3110, 330.8242
721.4640, 221.6445
722.6170, 505.4922
723.7700, 289.3555
724.9220, 110.2461
726.0740, 192.1602
727.2260, 161.0938
728.3780, 427.0508
729.5300, 195.0273
730.6810, 32.02734
731.8330, 379.0469
732.9840, 296.0898
734.1350, 71.15234
735.2860, 161.2344
736.4370, 34.66406
737.5880, 184.4297
738.7380, 153.5430
739.8880, 136.2852
741.0390, 206.8359
742.1890, 126.0156
743.3380, 81.70312
744.4880, 56.91406
745.6380, 179.8594
746.7870, 85.16406
747.9360, 189.4180
749.0850, 4.449219
750.2340, 211.6836
751.3830, 282.8398
752.5310, 467.0117
753.6800, 318.2031
754.8280, 233.8281
755.9760, 58.04688
757.1240, 73.28516
758.2720, 53.39453
759.4190, 4.726563
760.5670, 156.0742
761.7140, 41.64844
762.8610, 38.60938
764.0080, 20.87500
765.1550, 147.1484
766.3020, 390.4375
767.4480, 175.7383
768.5950, 252.0508
769.7410, 590.3789
770.8870, 353.7227
772.0330, 286.0820
773.1780, 293.4531
774.3240, 164.5469
775.4690, 628.2344
776.6140, 90.64453
777.7590, 233.1641
778.9040, 279.0430
780.0490, 173.5078
781.1940, 132.8477
782.3380, 343.2148
783.4820, 99.41016
784.6260, 117.9141
785.7700, 349.7539
786.9140, 85.60156
788.0580, 195.5000
789.2010, 85.39062
790.3450, 26.66406
791.4880, 156.2773
792.6310, 41.30859
793.7730, 71.37891
794.9160, 43.50391
796.0590, 75.38672
797.2010, 64.19922
798.3430, 91.90234
799.4850, 23.93750
800.6270, 296.7695
801.7690, 80.60938
802.9100, 137.4844
804.0520, 41.34766
805.1930, 8.230469
806.3340, 29.55859
807.4750, 63.14062
808.6160, 67.37891
809.7560, 87.66406
810.8970, 9.992188
812.0370, 186.6367
813.1770, 111.2852
814.3170, 125.9492
815.4570, 35.37891
816.5960, 181.2578
817.7360, 47.91016
818.8750, 349.5586
820.0140, 106.7812
821.1530, 306.8086
822.2920, 354.5859
823.4310, 123.1758
824.5690, 307.1602
825.7070, 801.5117
826.8460, 127.8672
827.9840, 102.2383
829.1220, 249.6172
830.2590, 277.0000
831.3970, 34.59766
832.5340, 113.7695
833.6710, 42.84766
834.8080, 72.49219
835.9450, 320.8438
837.0820, 330.2070
838.2190, 239.5781
839.3550, 68.96484
840.4910, 196.3555
841.6270, 197.7578
842.7630, 220.1719
843.8990, 259.5977
845.0350, 299.0312
846.1700, 459.4766
847.3060, 347.9414
848.4410, 668.4102
849.5760, 619.8945
850.7100, 485.3906
851.8450, 638.8984
852.9800, 929.4180
854.1140, 709.9531
855.2480, 1070.496
856.3820, 795.0547
857.5160, 1610.625
858.6500, 1073.207
859.7830, 1018.797
860.9170, 2194.406
862.0500, 1937.027
863.1830, 1805.660
864.3160, 2265.305
865.4480, 2232.965
866.5810, 2910.641
867.7130, 3162.324
868.8460, 3536.027
869.9780, 3718.738
871.1100, 4123.465
872.2410, 5251.207
873.3730, 4894.312
874.5050, 5301.082
875.6360, 5531.867
876.7670, 5391.664
877.8980, 5744.480
879.0290, 4961.309
880.1590, 4902.164
881.2900, 4126.039
882.4200, 3945.109
883.5500, 3246.277
884.6800, 2667.203
885.8100, 2552.586
886.9400, 2050.539
888.0690, 1524.512
889.1990, 1458.508
890.3280, 1531.520
891.4570, 1403.547
892.5860, 915.5977
893.7140, 724.6641
894.8430, 698.7500
895.9710, 903.9102
897.1000, 710.0312
898.2280, 694.1211
899.3560, 710.0156
900.4830, 531.2891
901.6110, 641.4883
902.7380, 801.7109
903.8660, 503.9492
904.9930, 550.2148
906.1200, 527.4922
907.2460, 472.7930
908.3730, 331.1133
909.5000, 635.4609
910.6260, 234.8203
911.7520, 300.2109
912.8780, 465.6133
914.0040, 127.0508
915.1290, 373.5117
916.2550, 400.9492
917.3800, 386.4492
918.5050, 542.9766
919.6300, 38.59766
920.7550, 298.1758
921.8800, 215.1719
923.0040, 170.5234
924.1290, 361.1719
925.2530, 152.5352
926.3770, 30.82812
927.5010, 120.2930
928.6250, 213.8828
929.7480, 248.0273
930.8720, 127.9727
931.9950, 317.6914
933.1180, 345.2461
934.2410, 33.32812
935.3640, 60.58594
936.4860, 272.5391
937.6090, 1.429688
938.7310, 307.4492
939.8530, 132.4531
940.9750, 307.1914
942.0970, 629.8047
943.2180, 273.6172
944.3400, 131.2539
945.4610, 169.7891
946.5820, 331.6719
947.7030, 247.0430
948.8240, 435.4492
949.9450, 541.8945
951.0650, 377.5273
952.1860, 409.0352
953.3060, 378.6953
954.4260, 305.2773
955.5460, 497.0469
956.6650, 486.7188
957.7850, 442.1172
958.9040, 224.0391
960.0230, 387.8164
961.1420, 305.6328
962.2610, 338.5039
963.3800, 364.4141
964.4990, 351.3867
965.6170, 327.4258
966.7350, 387.8438
967.8530, 266.9766
968.9710, 126.0938
970.0890, 172.0352
971.2070, 170.7539
972.3240, 260.6641
973.4410, 357.9922
974.5580, 240.1602
975.6750, 383.5703
976.7920, 376.4844
977.9090, 385.9961
979.0250, 511.0469
980.1410, 349.6172
981.2580, 552.2539
982.3740, 368.9375
983.4890, 638.6992
984.6050, 624.5156
985.7200, 458.3789
986.8360, 670.3203
987.9510, 596.3047
989.0660, 556.3320
990.1810, 514.4023
991.2950, 572.5117
992.4100, 553.6602
993.5240, 606.8594
994.6390, 782.0898
995.7530, 619.3711
996.8660, 901.6953
997.9800, 1096.055
999.0940, 564.4688
1000.207, 758.9141
1001.320, 650.4062
1002.433, 743.9453
1003.546, 895.5273
1004.659, 629.1523
1005.772, 672.8164
1006.884, 523.5312
1007.996, 933.2930
1009.108, 702.1055
1010.220, 895.9609
1011.332, 776.8594
1012.444, 676.8008
1013.555, 747.7812
1014.666, 575.8242
1015.777, 755.9141
1016.888, 723.9258
1017.999, 796.4883
1019.110, 737.8984
1020.220, 770.3945
1021.331, 656.9453
1022.441, 650.1367
1023.551, 652.6367
1024.661, 587.8828
1025.770, 700.6172
1026.880, 700.3945
1027.989, 792.2148
1029.098, 574.0781
1030.207, 639.0000
1031.316, 702.9648
1032.425, 788.9883
1033.533, 884.0781
1034.642, 725.2188
1035.750, 837.3984
1036.858, 667.6289
1037.966, 675.8984
1039.073, 904.2227
1040.181, 635.5898
1041.288, 646.0039
1042.396, 874.4648
1043.503, 969.9609
1044.610, 1098.512
1045.716, 1155.406
1046.823, 1371.730
1047.929, 1073.406
1049.036, 925.1289
1050.142, 608.9453
1051.248, 769.9414
1052.353, 772.0664
1053.459, 1151.703
1054.564, 1007.730
1055.670, 1182.902
1056.775, 1108.148
1057.880, 1109.074
1058.985, 833.8008
1060.089, 1042.219
1061.194, 1060.730
1062.298, 917.3047
1063.402, 1286.957
1064.506, 1243.652
1065.610, 1261.398
1066.713, 1575.191
1067.817, 1420.059
1068.920, 1156.980
1070.023, 1445.945
1071.126, 1344.930
1072.229, 1063.980
1073.332, 1081.078
1074.435, 956.7031
1075.537, 945.9258
1076.639, 1341.113
1077.741, 1199.473
1078.843, 1276.910
1079.945, 961.4180
1081.046, 1066.953
1082.148, 1276.527
1083.249, 1148.145
1084.350, 1449.828
1085.451, 1226.551
1086.551, 1209.312
1087.652, 994.1211
1088.752, 957.4453
1089.853, 907.3672
1090.953, 1129.434
1092.053, 759.5859
1093.152, 1073.770
1094.252, 1032.559
1095.351, 1081.824
1096.451, 965.4453
1097.550, 1014.785
1098.649, 1005.988
1099.748, 1234.434
1100.846, 872.9062
1101.945, 1143.445
1103.043, 1097.180
1104.141, 960.7852
1105.239, 1170.438
1106.337, 1030.121
1107.434, 1157.852
1108.532, 768.6406
1109.629, 868.4688
1110.726, 890.3320
1111.823, 971.2305
1112.920, 968.8281
1114.017, 954.7969
1115.113, 871.7695
1116.210, 1036.062
1117.306, 642.5234
1118.402, 1431.297
1119.498, 1189.492
1120.593, 1371.605
1121.689, 1107.805
1122.784, 1166.039
1123.879, 838.3047
1124.974, 880.6016
1126.069, 1122.930
1127.164, 879.6289
1128.259, 1041.023
1129.353, 917.6445
1130.447, 816.9023
1131.541, 687.3906
1132.635, 577.5781
1133.729, 485.1250
1134.822, 654.7031
1135.916, 582.3125
1137.009, 501.9492
1138.102, 536.6172
1139.195, 355.3125
1140.288, 209.0391
1141.380, 584.7930
1142.473, 509.8984
1143.565, 601.7070
1144.657, 771.5469
1145.749, 493.6680
1146.841, 399.7578
1147.932, 422.6562
1149.024, 201.9297
1150.115, 230.2773
1151.206, 352.1758
1152.297, 172.2031
1153.388, 235.0234
1154.479, 193.0938
1155.569, 352.1914
1156.659, 460.3086
1157.750, 216.4492
1158.839, 327.6094
1159.929, 196.7930
1161.019, 287.0195
1162.108, 173.2461
1163.198, 377.5039
1164.287, 314.9102
1165.376, 44.94141
1166.465, 292.2578
1167.553, 318.5938
1168.642, 307.9531
1169.730, 462.0039
1170.818, 236.4375
1171.906, 293.8555
1172.994, 264.3867
1174.082, 77.85156
1175.170, 74.33203
1176.257, 302.8359
1177.344, 131.3555
1178.431, 132.8906
1179.518, 58.44531
1180.605, 26.87109
1181.691, 49.60938
1182.778, 86.21484
1183.864, 226.8359
1184.950, 162.0352
1186.036, 245.1406
1187.122, 103.8086
1188.207, 50.49609
1189.292, 42.91016
1190.378, 151.9102
1191.463, 175.6445
1192.548, 172.3867
1193.632, 287.1445
1194.717, 43.91016
1195.801, 31.07422
1196.886, 109.8672
1197.970, 118.6758
1199.054, 159.4883
1200.137, 101.3281
1201.221, 228.1719
1202.305, 130.0469
1203.388, 124.8906
1204.471, 58.23438
1205.554, 204.6250
1206.637, 114.5039
1207.719, 256.3398
1208.802, 224.1914
1209.884, 266.9492
1210.966, 240.7891
1212.048, 252.5312
1213.130, 307.8242
1214.212, 223.5859
1215.293, 352.4883
1216.374, 165.0156
1217.456, 267.0469
1218.536, 78.16797
1219.617, 20.58594
1220.698, 120.3398
1221.778, 165.1016
1222.859, 77.87500
1223.939, 58.35547
1225.019, 50.39062
1226.099, 86.36328
1227.178, 125.8398
1228.258, 161.4492
1229.337, 64.17188
1230.417, 157.8008
1231.496, 428.4336
1232.574, 10.06250
1233.653, 210.6914
1234.732, 128.3320
1235.810, 166.9648
1236.888, 503.9141
1237.966, 121.3320
1239.044, 547.9766
1240.122, 238.6289
1241.199, 402.2812
1242.277, 77.06641
1243.354, 170.5352
1244.431, 148.8594
1245.508, 16.33594
1246.585, 0.8007810
1247.661, 124.2812
1248.738, 282.1680
1249.814, 118.6133
1250.890, 303.0742
1251.966, 275.5352
1253.042, 133.9922
1254.117, 78.44922
1255.193, 127.9023
1256.268, 39.35547
1257.343, 125.8008
1258.418, 198.2422
1259.493, 322.6836
1260.567, 221.1211
1261.642, 28.55859
1262.716, 252.9805
1263.790, 215.3984
1264.864, 395.8125
1265.938, 389.2305
1267.011, 311.8984
1268.085, 446.0469
1269.158, 208.4492
1270.231, 296.3828
1271.304, 62.25391
1272.377, 239.6562
1273.450, 205.0547
1274.522, 13.55859
1275.594, 81.79688
1276.666, 237.8555
1277.738, 70.33984
1278.810, 118.4688
1279.882, 119.3711
1280.953, 304.6406
1282.025, 1.359375
1283.096, 399.6133
1284.167, 765.5742
1285.238, 268.5312
1286.308, 459.4766
1287.379, 202.4180
1288.449, 377.3555
1289.519, 131.2812
1290.589, 149.1992
1291.659, 607.0156
1292.729, 15.08594
1293.798, 400.7695
1294.868, 254.6172
1295.937, 254.4531
1297.006, 268.2852
1298.075, 29.09766
1299.143, 138.8906
1300.212, 348.6758
1301.280, 129.0156
1302.348, 607.1367
1303.416, 382.0312
1304.484, 413.6211
1305.552, 363.3477
1306.620, 290.6016
1307.687, 477.7656
1308.754, 240.4531
1309.821, 279.1328
1310.888, 284.2930
1311.955, 565.9492
1313.021, 380.0820
1314.088, 555.7148
1315.154, 218.3320
1316.220, 296.9375
1317.286, 253.5312
1318.352, 362.1172
1319.417, 397.7188
1320.483, 311.2383
1321.548, 423.7812
1322.613, 316.3086
1323.678, 108.8242
1324.743, 229.3281
1325.807, 280.9688
1326.872, 439.4531
1327.936, 425.4023
1329.000, 466.3789
1330.064, 429.8281
