##NAMES=Ferberite
##RRUFFID=R050090
##IDEAL CHEMISTRY=Fe^2+^W^6+^O_4_
##LOCALITY=Yaogangxian mine, Cheng Zhu City, South Hunan, China
##OWNER=RRUFF
##SOURCE=Rock Currier
##DESCRIPTION=Dark gray tabular crystal
##STATUS=The identification of this mineral has been confirmed by X-ray diffraction and chemical analysis
##URL=rruff.info/R050090
##MEASURED CHEMISTRY=(Fe^2+^_0.56_Mn_0.44_)W_1.00_O_4_
##PIN_ID=L01753
##ORIENTATION=Laser parallel to a* (1 0 0). Fiducial mark perpendicular to laser is parallel to b [0 1 0]
98.41600, 0.0000000E+00
99.64900, 6.143555
100.8830, 64.77539
102.1160, 211.1069
103.3490, 325.6953
104.5820, 406.4395
105.8150, 318.5952
107.0470, 463.5449
108.2800, 522.2930
109.5120, 580.4756
110.7440, 767.4756
111.9760, 723.0894
113.2080, 910.9683
114.4400, 1013.520
115.6710, 1332.825
116.9030, 2304.904
118.1340, 2714.171
119.3650, 3194.655
120.5960, 4035.185
121.8270, 5048.632
123.0580, 5992.903
124.2880, 6778.936
125.5190, 6670.696
126.7490, 6141.156
127.9790, 5555.416
129.2090, 5300.418
130.4390, 4834.263
131.6680, 4549.073
132.8980, 3106.785
134.1270, 2367.548
135.3560, 1715.997
136.5850, 1278.717
137.8140, 1046.209
139.0430, 905.3398
140.2710, 843.8335
141.5000, 656.6191
142.7280, 575.2700
143.9560, 399.9746
145.1840, 386.5815
146.4120, 142.7480
147.6390, 77.29346
148.8670, 162.9800
150.0940, 81.26611
151.3210, 160.1772
152.5490, 235.7319
153.7750, 341.9551
155.0020, 215.8691
156.2290, 187.4912
157.4550, 92.83936
158.6810, 139.0713
159.9080, 91.58008
161.1340, 108.7544
162.3590, 24.67041
163.5850, 206.9814
164.8110, 339.9971
166.0360, 484.1069
167.2610, 537.7983
168.4860, 650.3521
169.7110, 730.5327
170.9360, 776.3784
172.1610, 786.1777
173.3850, 790.4854
174.6100, 718.4414
175.8340, 710.1475
177.0580, 711.6416
178.2820, 694.3438
179.5050, 752.3359
180.7290, 722.5068
181.9520, 685.1382
183.1760, 764.8608
184.3990, 717.2251
185.6220, 816.1924
186.8450, 954.7446
188.0670, 970.1445
189.2900, 1108.738
190.5120, 1198.063
191.7340, 1244.138
192.9560, 1293.255
194.1780, 1531.406
195.4000, 1658.586
196.6220, 1772.802
197.8430, 2037.046
199.0640, 2121.312
200.2860, 2406.599
201.5070, 2959.898
202.7270, 2947.079
203.9480, 3000.162
205.1690, 2836.257
206.3890, 1936.363
207.6090, 1513.475
208.8290, 1142.586
210.0490, 1022.688
211.2690, 907.7773
212.4890, 734.8511
213.7080, 707.9097
214.9280, 622.9531
216.1470, 643.9814
217.3660, 511.6006
218.5850, 447.1440
219.8030, 281.9805
221.0220, 257.9517
222.2400, 166.9102
223.4590, 81.85498
224.6770, 122.7861
225.8950, 107.7051
227.1120, 63.61084
228.3300, 18.50391
229.5480, 98.38525
230.7650, 22.74561
231.9820, 18.11084
233.1990, 35.95410
234.4160, 75.22705
235.6330, 1.562012
236.8490, 146.6914
238.0660, 4.999512
239.2820, 115.3770
240.4980, 107.8618
241.7140, 87.49561
242.9300, 44.28662
244.1460, 26.22754
245.3610, 82.43555
246.5770, 64.46582
247.7920, 89.03906
249.0070, 89.41064
250.2220, 43.65332
251.4370, 151.8760
252.6510, 18.91260
253.8660, 67.66748
255.0800, 110.3091
256.2940, 22.59229
257.5080, 71.17773
258.7220, 74.08789
259.9360, 73.25586
261.1490, 198.8306
262.3630, 91.31494
263.5760, 214.7822
264.7890, 245.9673
266.0020, 319.3135
267.2150, 301.1997
268.4270, 222.4253
269.6400, 317.9126
270.8520, 188.3501
272.0640, 131.7363
273.2760, 198.0713
274.4880, 175.3574
275.7000, 240.3159
276.9120, 344.1035
278.1230, 222.1338
279.3340, 304.8496
280.5450, 299.5195
281.7560, 274.1523
282.9670, 347.7954
284.1780, 323.4233
285.3880, 386.8550
286.5980, 327.7100
287.8090, 440.0273
289.0190, 341.2910
290.2290, 538.5029
291.4380, 492.8677
292.6480, 456.1138
293.8570, 424.1792
295.0670, 506.2090
296.2760, 520.2144
297.4850, 540.1797
298.6930, 524.5503
299.9020, 531.6172
301.1110, 569.3506
302.3190, 526.2148
303.5270, 588.0273
304.7350, 596.6440
305.9430, 589.1616
307.1510, 692.5332
308.3580, 690.9092
309.5660, 803.5933
310.7730, 921.2344
311.9800, 1363.811
313.1870, 1312.378
314.3940, 1809.589
315.6010, 1425.721
316.8070, 1678.708
318.0130, 1785.568
319.2200, 1907.281
320.4260, 2121.868
321.6310, 2272.306
322.8370, 2222.723
324.0430, 2362.087
325.2480, 2247.428
326.4540, 2073.754
327.6590, 2079.085
328.8640, 1978.413
330.0680, 1885.732
331.2730, 1579.037
332.4780, 1680.328
333.6820, 1437.617
334.8860, 1280.911
336.0900, 1244.196
337.2940, 1121.474
338.4980, 1104.748
339.7010, 1057.015
340.9050, 908.2812
342.1080, 811.5396
343.3110, 765.7900
344.5140, 769.0322
345.7170, 733.2656
346.9200, 789.5117
348.1220, 770.7495
349.3240, 657.9800
350.5270, 667.9058
351.7290, 591.4194
352.9310, 594.6270
354.1320, 521.8384
355.3340, 524.0425
356.5350, 406.2393
357.7370, 527.4307
358.9380, 503.6143
360.1390, 470.7900
361.3400, 412.9580
362.5400, 431.1182
363.7410, 408.2700
364.9410, 370.3262
366.1410, 345.2783
367.3410, 358.8452
368.5410, 320.7075
369.7410, 316.9741
370.9400, 422.1157
372.1400, 347.7373
373.3390, 429.1450
374.5380, 381.2090
375.7370, 451.2129
376.9360, 383.6611
378.1350, 460.7593
379.3330, 536.5317
380.5310, 417.1440
381.7300, 535.4722
382.9280, 574.3418
384.1260, 767.6792
385.3230, 720.5122
386.5210, 888.6523
387.7180, 1074.536
388.9160, 1106.588
390.1130, 1358.100
391.3100, 1624.756
392.5060, 1790.853
393.7030, 1985.900
394.9000, 1857.790
396.0960, 1926.852
397.2920, 1712.224
398.4880, 1631.842
399.6840, 1563.079
400.8800, 1404.809
402.0750, 1277.449
403.2710, 1191.033
404.4660, 1042.935
405.6610, 792.9434
406.8560, 771.6401
408.0510, 648.0288
409.2450, 471.5264
410.4400, 436.2236
411.6340, 423.9053
412.8280, 363.2388
414.0220, 294.8857
415.2160, 335.0352
416.4100, 284.8765
417.6030, 214.0269
418.7970, 217.0615
419.9900, 142.3506
421.1830, 41.90381
422.3760, 207.0820
423.5690, 153.5918
424.7610, 101.0630
425.9540, 83.41357
427.1460, 70.89551
428.3380, 120.4307
429.5300, 2.999023
430.7220, 104.4390
431.9140, 127.8657
433.1050, 116.2798
434.2970, 49.68262
435.4880, 66.07227
436.6790, 26.55078
437.8700, 114.0283
439.0610, 97.11719
440.2510, 165.6138
441.4420, 1.840332
442.6320, 86.52637
443.8220, 124.5269
445.0120, 199.0015
446.2020, 162.2515
447.3910, 109.9858
448.5810, 107.3682
449.7700, 123.8721
450.9600, 147.7422
452.1490, 180.7910
453.3370, 195.0918
454.5260, 273.2456
455.7150, 253.9883
456.9030, 267.5366
458.0910, 298.5049
459.2800, 269.9004
460.4670, 331.2305
461.6550, 303.4600
462.8430, 217.2266
464.0300, 221.4785
465.2180, 309.6880
466.4050, 149.0586
467.5920, 311.2607
468.7790, 278.9331
469.9650, 222.2939
471.1520, 393.6221
472.3380, 348.8716
473.5250, 206.2090
474.7110, 268.3813
475.8970, 374.7861
477.0820, 378.9385
478.2680, 389.0913
479.4540, 414.2378
480.6390, 383.9922
481.8240, 465.1260
483.0090, 466.9307
484.1940, 501.0864
485.3780, 438.1997
486.5630, 516.3076
487.7470, 430.4087
488.9320, 475.1836
490.1160, 359.4629
491.3000, 449.5435
492.4830, 537.8027
493.6670, 494.8711
494.8500, 553.9326
496.0340, 567.5806
497.2170, 635.6777
498.4000, 640.4580
499.5820, 673.4717
500.7650, 665.5000
501.9480, 635.5215
503.1300, 658.5361
504.3120, 781.5439
505.4940, 716.5459
506.6760, 878.5415
507.8580, 649.5303
509.0390, 696.5137
510.2210, 835.4932
511.4020, 778.4727
512.5830, 976.4482
513.7640, 958.4219
514.9450, 842.3955
516.1250, 942.3755
517.3060, 945.3540
518.4860, 1063.349
519.6660, 1021.349
520.8460, 1153.353
522.0260, 1202.385
523.2060, 1250.428
524.3850, 1145.519
525.5650, 1345.619
526.7440, 1277.759
527.9230, 1488.937
529.1020, 1362.147
530.2810, 1421.379
531.4590, 1466.627
532.6380, 1556.905
533.8160, 1369.210
534.9940, 1435.548
536.1720, 1385.919
537.3500, 1419.311
538.5270, 1407.752
539.7050, 1326.208
540.8820, 1301.893
542.0590, 1200.119
543.2360, 1152.590
544.4130, 1034.062
545.5900, 921.5322
546.7660, 956.0039
547.9430, 908.4722
549.1190, 887.9404
550.2950, 809.4053
551.4710, 660.8672
552.6470, 605.3237
553.8220, 503.7759
554.9980, 469.2256
556.1730, 520.6704
557.3480, 356.1143
558.5230, 499.5562
559.6980, 325.9971
560.8730, 383.4360
562.0470, 373.8721
563.2220, 295.0293
564.3960, 226.4604
565.5700, 235.8867
566.7440, 144.2710
567.9170, 276.6279
569.0910, 66.91064
570.2640, 55.32471
571.4380, 122.2534
572.6110, 191.6606
573.7840, 156.1968
574.9570, 170.6504
576.1290, 96.66357
577.3020, 91.93018
578.4740, 27.32910
579.6460, 51.28223
580.8180, 41.06934
581.9900, 26.41797
583.1620, 65.32031
584.3330, 66.37158
585.5040, 74.07324
586.6760, 5.822754
587.8470, 62.58447
589.0180, 55.61279
590.1880, 90.19287
591.3590, 32.05469
592.5290, 66.94189
593.7000, 150.8726
594.8700, 3.891602
596.0400, 46.92090
597.2090, 75.98340
598.3790, 51.09424
599.5490, 37.76074
600.7180, 50.61279
601.8870, 75.46240
603.0560, 16.68896
604.2250, 62.37402
605.3940, 92.20508
606.5620, 32.34131
607.7300, 102.1675
608.8990, 4.087402
610.0670, 41.62939
611.2350, 37.15967
612.4020, 53.94629
613.5700, 30.73096
614.7370, 100.5132
615.9050, 10.70557
617.0720, 39.93750
618.2390, 74.80273
619.4060, 141.5420
620.5720, 0.2802730
621.7390, 91.01074
622.9050, 19.25879
624.0710, 54.58643
625.2370, 145.1675
626.4030, 94.87988
627.5690, 146.5918
628.7340, 68.69727
629.9000, 13.97266
631.0650, 86.64014
632.2300, 14.30811
633.3950, 91.97363
634.5600, 103.6392
635.7240, 36.69531
636.8890, 43.94629
638.0530, 25.58740
639.2170, 1.772949
640.3810, 117.8608
641.5450, 57.49414
642.7080, 138.1279
643.8720, 142.7617
645.0350, 113.3960
646.1980, 115.0303
647.3610, 50.66553
648.5240, 68.77002
649.6870, 51.93604
650.8490, 100.5723
652.0120, 163.2085
653.1740, 225.8457
654.3360, 248.4829
655.4980, 295.9800
656.6600, 249.7598
657.8210, 322.3994
658.9830, 314.0386
660.1440, 248.6787
661.3050, 220.3193
662.4660, 246.8848
663.6270, 227.0371
664.7870, 335.2427
665.9480, 286.8838
667.1080, 372.5249
668.2680, 477.1660
669.4280, 523.8066
670.5880, 622.4468
671.7480, 441.0864
672.9070, 482.7271
674.0670, 468.3667
675.2260, 607.0063
676.3850, 693.6440
677.5440, 836.2812
678.7030, 848.9189
679.8610, 671.5557
681.0200, 783.1909
682.1780, 817.8247
683.3360, 909.4565
684.4940, 894.5674
685.6520, 961.7378
686.8090, 847.3857
687.9670, 954.0522
689.1240, 950.7178
690.2810, 996.3916
691.4380, 1004.066
692.5950, 947.7407
693.7520, 877.4307
694.9080, 799.1201
696.0650, 775.8096
697.2210, 832.5010
698.3770, 656.2065
699.5330, 652.9116
700.6880, 525.6260
701.8440, 574.3428
702.9990, 495.0620
704.1550, 474.8027
705.3100, 364.5542
706.4650, 337.3052
707.6190, 311.1333
708.7740, 425.7412
709.9290, 307.3809
711.0830, 254.1528
712.2370, 304.9263
713.3910, 230.6992
714.5450, 332.4736
715.6980, 179.2490
716.8520, 88.02686
718.0050, 241.5864
719.1580, 101.6494
720.3110, 96.29395
721.4640, 121.8848
722.6170, 88.64160
723.7700, 172.7568
724.9220, 13.39648
726.0740, 145.2754
727.2260, 14.68066
728.3780, 69.46387
729.5300, 103.1416
730.6810, 55.47168
731.8330, 14.61523
732.9840, 28.89307
734.1350, 25.55762
735.2860, 49.00879
736.4370, 57.64844
737.5880, 84.39648
738.7380, 28.64307
739.8880, 49.48340
741.0390, 5.419922
742.1890, 16.17969
743.3380, 64.72852
744.4880, 48.32227
745.6380, 127.4570
746.7870, 43.59961
747.9360, 26.13184
749.0850, 122.6475
750.2340, 206.4590
751.3830, 180.3477
752.5310, 224.1494
753.6800, 145.1143
754.8280, 195.8457
755.9760, 222.8281
757.1240, 249.8096
758.2720, 296.7949
759.4190, 282.1855
760.5670, 329.1943
761.7140, 352.5293
762.8610, 373.5117
764.0080, 336.5332
765.1550, 376.5596
766.3020, 389.5898
767.4480, 422.9434
768.5950, 480.7920
769.7410, 521.8350
770.8870, 568.3379
772.0330, 555.7461
773.1780, 615.7988
774.3240, 577.2607
775.4690, 500.2695
776.6140, 525.2070
777.7590, 472.6777
778.9040, 377.7480
780.0490, 528.8213
781.1940, 457.8994
782.3380, 449.9814
783.4820, 547.0674
784.6260, 438.1543
785.7700, 412.2451
786.9140, 432.3369
788.0580, 531.4326
789.2010, 551.5283
790.3450, 457.6270
791.4880, 385.7275
792.6310, 450.8320
793.7730, 509.9365
794.9160, 479.0459
796.0590, 389.1562
797.2010, 465.2686
798.3430, 452.2725
799.4850, 377.5039
800.6270, 550.6230
801.7690, 532.7461
802.9100, 622.8711
804.0520, 613.9980
805.1930, 631.1250
806.3340, 562.2539
807.4750, 561.3838
808.6160, 578.5156
809.7560, 594.2129
810.8970, 640.1455
812.0370, 683.4492
813.1770, 729.5859
814.3170, 764.7246
815.4570, 709.1475
816.5960, 859.4463
817.7360, 823.5869
818.8750, 788.7285
820.0140, 877.8701
821.1530, 816.2754
822.2920, 908.5244
823.4310, 910.7822
824.5690, 811.5713
825.7070, 1008.917
826.8460, 1024.008
827.9840, 1164.611
829.1220, 962.1328
830.2590, 1084.059
831.3970, 1117.379
832.5340, 1105.724
833.6710, 1396.622
834.8080, 1111.273
835.9450, 1421.420
837.0820, 1548.007
838.2190, 1589.910
839.3550, 1672.525
840.4910, 1695.922
841.6270, 1772.741
842.7630, 1972.007
843.8990, 2010.365
845.0350, 2069.840
846.1700, 2318.709
847.3060, 2462.720
848.4410, 2524.130
849.5760, 2762.711
850.7100, 3084.227
851.8450, 3371.812
852.9800, 3498.473
854.1140, 3757.740
855.2480, 4193.803
856.3820, 4468.321
857.5160, 4946.977
858.6500, 5480.365
859.7830, 5969.007
860.9170, 6709.568
862.0500, 7308.624
863.1830, 8062.704
864.3160, 9076.230
865.4480, 10097.12
866.5810, 11094.60
867.7130, 12513.80
868.8460, 14122.11
869.9780, 15655.06
871.1100, 17075.64
872.2410, 18776.83
873.3730, 20503.36
874.5050, 21771.10
875.6360, 22824.73
876.7670, 23535.39
877.8980, 23665.04
879.0290, 23284.19
880.1590, 22503.02
881.2900, 20857.29
882.4200, 19682.00
883.5500, 17926.61
884.6800, 15874.08
885.8100, 14406.08
886.9400, 12353.95
888.0690, 10840.38
889.1990, 9327.996
890.3280, 7971.945
891.4570, 7052.031
892.5860, 6002.894
893.7140, 5298.361
894.8430, 4470.621
895.9710, 3937.161
897.1000, 3459.933
898.2280, 3062.391
899.3560, 2706.227
900.4830, 2411.780
901.6110, 2131.056
902.7380, 1903.227
903.8660, 1707.709
904.9930, 1570.182
906.1200, 1464.564
907.2460, 1420.771
908.3730, 1204.094
909.5000, 987.2891
910.6260, 1059.474
911.7520, 1009.867
912.8780, 775.1328
914.0040, 828.7783
915.1290, 561.3438
916.2550, 541.9111
917.3800, 600.4941
918.5050, 525.6855
919.6300, 442.7822
920.7550, 574.8672
921.8800, 406.9404
923.0040, 492.0020
924.1290, 500.0488
925.2530, 497.0830
926.3770, 459.6875
927.5010, 416.2549
928.6250, 296.2471
929.7480, 281.5156
930.8720, 166.4814
931.9950, 154.5947
933.1180, 230.0176
934.2410, 163.9531
935.3640, 203.8730
936.4860, 213.1865
937.6090, 229.0771
938.7310, 241.9561
939.8530, 223.8193
940.9750, 256.6670
942.0970, 224.5000
943.2180, 247.3164
944.3400, 17.25195
945.4610, 130.0332
946.5820, 65.79980
947.7030, 229.7354
948.8240, 157.4697
949.9450, 41.18652
951.0650, 72.03027
952.1860, 140.7090
953.3060, 211.3721
954.4260, 147.1699
955.5460, 51.79883
956.6650, 53.59277
957.7850, 88.96191
958.9040, 61.50195
960.0230, 70.43262
961.1420, 17.83496
962.2610, 10.76855
963.3800, 31.48926
964.4990, 46.13281
965.6170, 81.51660
966.7350, 75.82227
967.8530, 3.109375
968.9710, 40.63086
970.0890, 132.0498
971.2070, 22.75977
972.3240, 4.471680
973.4410, 17.00586
974.5580, 66.76465
975.6750, 25.50488
976.7920, 102.0811
977.9090, 80.21582
979.0250, 52.16406
980.1410, 7.090820
981.2580, 43.45312
982.3740, 68.68555
983.4890, 27.91504
984.6050, 44.25195
985.7200, 27.16504
986.8360, 16.51270
987.9510, 105.5635
989.0660, 74.41406
990.1810, 49.35840
991.2950, 3.691406
992.4100, 81.30664
993.5240, 19.98242
994.6390, 17.45312
995.7530, 72.68555
996.8660, 56.99023
997.9800, 63.86816
999.0940, 13.81543
1000.207, 79.30859
1001.320, 163.0059
1002.433, 26.51953
1003.546, 36.12988
1004.659, 81.96875
1005.772, 12.40039
1006.884, 100.7744
1007.996, 60.83105
1009.108, 86.15820
1010.220, 80.07324
1011.332, 10.56543
1012.444, 160.6455
1013.555, 59.46387
1014.666, 117.0889
1015.777, 85.42871
1016.888, 85.27051
1017.999, 8.341797
1019.110, 32.58008
1020.220, 44.52832
1021.331, 19.16797
1022.441, 103.0000
1023.551, 33.65820
1024.661, 28.63867
1025.770, 42.47754
1026.880, 137.2266
1027.989, 29.05664
1029.098, 116.6543
1030.207, 59.10449
1031.316, 133.5469
1032.425, 40.94043
1033.533, 106.4873
1034.642, 77.09863
1035.750, 116.5693
1036.858, 51.84766
1037.966, 121.1523
1039.073, 140.5605
1040.181, 209.2012
1041.288, 150.5332
1042.396, 178.4365
1043.503, 277.2949
1044.610, 128.3828
1045.716, 156.4434
1046.823, 63.62305
1047.929, 79.62695
1049.036, 76.69434
1050.142, 69.64062
1051.248, 161.0215
1052.353, 208.7891
1053.459, 185.0986
1054.564, 184.5010
1055.670, 222.3770
1056.775, 268.5020
1057.880, 302.4619
1058.985, 240.1924
1060.089, 150.0693
1061.194, 256.3135
1062.298, 115.4141
1063.402, 375.6006
1064.506, 146.7217
1065.610, 69.51465
1066.713, 513.7002
1067.817, 438.5049
1068.920, 89.99414
1070.023, 253.4824
1071.126, 229.0498
1072.229, 301.4590
1073.332, 243.9951
1074.435, 231.3525
1075.537, 210.8223
1076.639, 156.3115
1077.741, 207.4092
1078.843, 251.6641
1079.945, 144.2266
1081.046, 221.4648
1082.148, 197.8262
1083.249, 153.6934
1084.350, 333.6602
1085.451, 271.9727
1086.551, 152.0498
1087.652, 244.1006
1088.752, 209.0039
1089.853, 220.9004
1090.953, 193.7637
1092.053, 72.07227
1093.152, 115.7998
1094.252, 136.7549
1095.351, 103.1729
1096.451, 197.6484
1097.550, 99.69531
1098.649, 241.3232
1099.748, 216.1670
1100.846, 189.1689
1101.945, 0.3935550
1103.043, 178.0928
1104.141, 152.3271
1105.239, 73.22070
1106.337, 140.3779
1107.434, 113.1973
1108.532, 22.68652
1109.629, 125.7471
1110.726, 182.2529
1111.823, 194.6758
1112.920, 31.12793
1114.017, 91.10254
1115.113, 63.80078
1116.210, 32.58105
1117.306, 127.8760
1118.402, 9.989258
1119.498, 83.09766
1120.593, 84.31055
1121.689, 121.9238
1122.784, 73.67383
1123.879, 52.47949
1124.974, 123.9648
1126.069, 144.8320
1127.164, 83.92676
1128.259, 124.1348
1129.353, 21.61816
1130.447, 1.185547
1131.541, 94.42969
1132.635, 40.12891
1133.729, 87.78613
1134.822, 93.59863
1135.916, 77.21777
1137.009, 61.38672
1138.102, 66.98145
1139.195, 62.67188
1140.288, 65.24609
1141.380, 45.82910
1142.473, 71.64355
1143.565, 34.26270
1144.657, 62.59277
1145.749, 5.452148
1146.841, 21.94434
1147.932, 135.1855
1149.024, 73.40820
1150.115, 71.37402
1151.206, 130.2617
1152.297, 59.25586
1153.388, 96.66602
1154.479, 142.8662
1155.569, 46.70312
1156.659, 72.38672
1157.750, 19.72070
1158.839, 87.53711
1159.929, 70.97559
1161.019, 133.1084
1162.108, 120.9873
1163.198, 138.1592
1164.287, 81.92871
1165.376, 165.9541
1166.465, 19.84082
1167.553, 170.8730
1168.642, 111.6191
1169.730, 79.63867
1170.818, 17.72363
1171.906, 84.95508
1172.994, 3.048828
1174.082, 140.2412
1175.170, 181.4277
1176.257, 260.3799
1177.344, 88.43457
1178.431, 133.0869
1179.518, 100.7900
1180.605, 122.4688
1181.691, 11.10645
1182.778, 40.89258
1183.864, 15.16699
1184.950, 2.786133
1186.036, 106.2432
1187.122, 40.26172
1188.207, 73.26562
1189.292, 124.2549
1190.378, 80.23438
1191.463, 107.0566
1192.548, 71.01074
1193.632, 46.66016
1194.717, 0.3945310
1195.801, 67.39844
1196.886, 58.14258
1197.970, 50.76758
1199.054, 136.7002
1200.137, 113.2500
1201.221, 25.79785
1202.305, 145.1396
1203.388, 83.07031
1204.471, 164.9932
1205.554, 86.90625
1206.637, 75.80762
1207.719, 76.56738
1208.802, 133.4561
1209.884, 1.374023
1210.966, 111.1260
1212.048, 76.08008
1213.130, 145.0273
1214.212, 193.8574
1215.293, 69.82812
1216.374, 139.7998
1217.456, 217.6094
1218.536, 87.57520
1219.617, 216.5381
1220.698, 143.5215
1221.778, 159.5049
1222.859, 179.0625
1223.939, 205.8174
1225.019, 130.6826
1226.099, 176.4033
1227.178, 175.4453
1228.258, 188.1904
1229.337, 60.25391
1230.417, 323.3066
1231.496, 177.3545
1232.574, 196.9385
1233.653, 305.9863
1234.732, 144.9561
1235.810, 266.5928
1236.888, 92.50684
1237.966, 212.3389
1239.044, 313.8096
1240.122, 193.7041
1241.199, 207.7559
1242.277, 350.8008
1243.354, 194.2842
1244.431, 370.0420
1245.508, 286.6787
1246.585, 331.1777
1247.661, 301.0703
1248.738, 195.5059
1249.814, 243.2090
1250.890, 306.9102
1251.966, 127.8086
1253.042, 215.5020
1254.117, 215.1123
1255.193, 64.01367
1256.268, 180.9941
1257.343, 142.7324
1258.418, 221.6768
1259.493, 233.0264
1260.567, 121.4473
1261.642, 281.2871
1262.716, 395.8906
1263.790, 204.6846
1264.864, 281.5186
1265.938, 372.5986
1267.011, 438.3164
1268.085, 477.0537
1269.158, 361.0762
1270.231, 617.7891
1271.304, 714.8789
1272.377, 389.3555
1273.450, 265.2012
1274.522, 328.2744
1275.594, 390.5010
1276.666, 527.9814
1277.738, 369.9219
1278.810, 411.5977
