##NAMES=Ferberite
##RRUFFID=R050632
##IDEAL CHEMISTRY=Fe^2+^W^6+^O_4_
##LOCALITY=Chance mine, Boulder, Colorado, USA
##OWNER=RRUFF
##SOURCE=University of Arizona Mineral Museum
##DESCRIPTION=Dark brown rectangular prismatic crystals
##STATUS=The identification of this mineral has been confirmed by X-ray diffraction and chemical analysis
##URL=rruff.info/R050632
##MEASURED CHEMISTRY=Fe^2+^_1.00_WO_4_
##PIN_ID=L00968
##ORIENTATION=Laser parallel to c* (0 0 1). Fiducial mark perpendicular to laser is parallel to a [1 0 0]
156.2290, 0.0000000E+00
157.4550, 24.04688
158.6810, 231.9746
159.9080, 0.5292970
161.1340, 9.731445
162.3590, 153.1182
163.5850, 434.4961
164.8110, 800.5508
166.0360, 833.5244
167.2610, 833.1992
168.4860, 735.0557
169.7110, 866.5586
170.9360, 1148.034
172.1610, 1142.077
173.3850, 1299.435
174.6100, 916.9502
175.8340, 1072.533
177.0580, 1139.919
178.2820, 1263.559
179.5050, 1626.633
180.7290, 1529.287
181.9520, 1757.930
183.1760, 1426.654
184.3990, 1565.593
185.6220, 1628.857
186.8450, 1805.536
188.0670, 2310.701
189.2900, 2172.596
190.5120, 1787.731
191.7340, 2206.701
192.9560, 2296.388
194.1780, 2474.835
195.4000, 2673.967
196.6220, 2799.023
197.8430, 2884.271
199.0640, 2946.086
200.2860, 2833.002
201.5070, 2939.435
202.7270, 2941.921
203.9480, 2942.876
205.1690, 3051.316
206.3890, 2924.146
207.6090, 3029.658
208.8290, 3042.100
210.0490, 2754.852
211.2690, 2243.830
212.4890, 2249.879
213.7080, 2120.993
214.9280, 1880.163
216.1470, 1686.717
217.3660, 1689.626
218.5850, 1158.907
219.8030, 905.2188
221.0220, 747.5625
222.2400, 833.9346
223.4590, 598.3359
224.6770, 530.7637
225.8950, 475.2725
227.1120, 498.9600
228.3300, 361.9326
229.5480, 206.0068
230.7650, 206.2490
231.9820, 201.5381
233.1990, 225.8672
234.4160, 253.2920
235.6330, 104.7686
236.8490, 0.3398440
238.0660, 7.000000
239.2820, 22.31250
240.4980, 69.99805
241.7140, 53.29102
242.9300, 90.00586
244.1460, 55.20117
245.3610, 56.83496
246.5770, 52.02832
247.7920, 33.72363
249.0070, 20.88086
250.2220, 8.811523
251.4370, 62.43262
252.6510, 79.06836
253.8660, 173.6797
255.0800, 223.8799
256.2940, 96.74316
257.5080, 198.5771
258.7220, 208.6338
259.9360, 214.9229
261.1490, 348.9287
262.3630, 247.5586
263.5760, 379.5244
264.7890, 418.3281
266.0020, 499.7686
267.2150, 488.8760
268.4270, 506.4697
269.6400, 616.4297
270.8520, 525.3906
272.0640, 537.9980
273.2760, 493.4775
274.4880, 647.8594
275.7000, 744.1699
276.9120, 712.4258
278.1230, 710.6582
279.3340, 658.8955
280.5450, 632.4092
281.7560, 478.3906
282.9670, 560.6494
284.1780, 505.9121
285.3880, 478.1826
286.5980, 587.4590
287.8090, 444.7412
289.0190, 529.0273
290.2290, 427.3213
291.4380, 394.6201
292.6480, 539.9482
293.8570, 508.8936
295.0670, 589.8203
296.2760, 500.7988
297.4850, 870.5674
298.6930, 822.8652
299.9020, 687.2168
301.1110, 895.3135
302.3190, 758.0645
303.5270, 881.8789
304.7350, 825.8809
305.9430, 953.4473
307.1510, 910.1133
308.3580, 920.3838
309.5660, 931.9629
310.7730, 934.6221
311.9800, 1007.113
313.1870, 1053.792
314.3940, 1254.484
315.6010, 1440.022
316.8070, 1493.814
318.0130, 1673.353
319.2200, 1705.033
320.4260, 1860.569
321.6310, 2147.098
322.8370, 2374.825
324.0430, 2441.373
325.2480, 2857.833
326.4540, 2889.254
327.6590, 3105.640
328.8640, 3046.994
330.0680, 3181.321
331.2730, 3270.624
332.4780, 3007.904
333.6820, 2942.164
334.8860, 2786.412
336.0900, 2640.644
337.2940, 2550.860
338.4980, 2486.063
339.7010, 2435.252
340.9050, 2379.430
342.1080, 2389.574
343.3110, 2312.649
344.5140, 2251.872
345.7170, 2197.423
346.9200, 2084.931
348.1220, 2080.498
349.3240, 1988.982
350.5270, 1998.488
351.7290, 1868.008
352.9310, 1954.537
354.1320, 1839.072
355.3340, 1710.614
356.5350, 1711.167
357.7370, 1526.726
358.9380, 1628.302
360.1390, 1420.902
361.3400, 1376.991
362.5400, 1471.132
363.7410, 1267.757
364.9410, 1362.391
366.1410, 1437.027
367.3410, 1266.677
368.5410, 1167.337
369.7410, 1242.999
370.9400, 1129.676
372.1400, 1085.357
373.3390, 1111.038
374.5380, 946.7207
375.7370, 962.4072
376.9360, 982.0957
378.1350, 830.7822
379.3330, 949.4688
380.5310, 906.8408
381.7300, 840.2217
382.9280, 980.7891
384.1260, 734.7783
385.3230, 899.7822
386.5210, 704.8408
387.7180, 905.6016
388.9160, 935.5527
390.1130, 1040.407
391.3100, 884.5684
392.5060, 964.8838
393.7030, 1148.010
394.9000, 1169.897
396.0960, 1339.424
397.2920, 1587.725
398.4880, 1797.375
399.6840, 1815.024
400.8800, 1983.407
402.0750, 1849.053
403.2710, 1668.694
404.4660, 1357.336
405.6610, 1248.904
406.8560, 1169.612
408.0510, 1002.247
409.2450, 959.2109
410.4400, 764.5117
411.6340, 780.1426
412.8280, 635.7695
414.0220, 418.3965
415.2160, 281.0215
416.4100, 226.6455
417.6030, 72.26855
418.7970, 152.8916
419.9900, 149.5146
421.1830, 99.13867
422.3760, 86.76270
423.5690, 99.38770
424.7610, 68.01270
425.9540, 52.63965
427.1460, 51.66504
428.3380, 22.06055
429.5300, 38.51465
430.7220, 0.1386720
431.9140, 12.24316
433.1050, 19.36426
434.2970, 27.02930
435.4880, 60.41699
436.6790, 33.13184
437.8700, 152.3037
439.0610, 90.19629
440.2510, 111.6807
441.4420, 29.86035
442.6320, 84.53809
443.8220, 85.92188
445.0120, 61.69141
446.2020, 24.63672
447.3910, 106.0420
448.5810, 71.20801
449.7700, 58.46289
450.9600, 73.72070
452.1490, 30.02246
453.3370, 14.98730
454.5260, 77.40527
455.7150, 2.602539
456.9030, 33.79883
458.0910, 168.9736
459.2800, 112.8516
460.4670, 127.2568
461.6550, 34.48535
462.8430, 100.5850
464.0300, 116.6807
465.2180, 29.77148
466.4050, 30.14551
467.5920, 272.1377
468.7790, 191.1895
469.9650, 155.2383
471.1520, 213.2822
472.3380, 160.3252
473.5250, 199.3643
474.7110, 147.4004
475.8970, 237.4346
477.0820, 124.8828
478.2680, 82.91211
479.4540, 278.9375
480.6390, 221.9619
481.8240, 263.9824
483.0090, 342.0029
484.1940, 344.5371
485.3780, 274.5527
486.5630, 380.5674
487.7470, 323.5498
488.9320, 415.5635
490.1160, 538.8506
491.3000, 555.2080
492.4830, 454.3057
493.6670, 482.4160
494.8500, 389.6387
496.0340, 436.4473
497.2170, 704.6768
498.4000, 625.6406
499.5820, 650.6621
500.7650, 938.4834
501.9480, 843.9209
503.1300, 965.5508
504.3120, 943.2412
505.4940, 976.4062
506.6760, 987.9902
507.8580, 973.0166
509.0390, 1117.665
510.2210, 937.8877
511.4020, 1030.916
512.5830, 1229.781
513.7640, 1248.810
514.9450, 1202.839
516.1250, 1291.970
517.3060, 1285.082
518.4860, 1362.112
519.6660, 1386.143
520.8460, 1622.174
522.0260, 1483.207
523.2060, 1578.391
524.3850, 1452.283
525.5650, 1508.330
526.7440, 1598.392
527.9230, 1380.479
529.1020, 1480.587
530.2810, 1412.727
531.4590, 1632.891
532.6380, 1613.075
533.8160, 1504.282
534.9940, 1346.505
536.1720, 1467.741
537.3500, 1435.988
538.5270, 1455.260
539.7050, 1295.535
540.8820, 1319.812
542.0590, 1366.091
543.2360, 1293.375
544.4130, 1281.660
545.5900, 1164.948
546.7660, 1206.238
547.9430, 1087.531
549.1190, 979.8271
550.2950, 926.1250
551.4710, 935.4258
552.6470, 857.7314
553.8220, 899.0391
554.9980, 809.3496
556.1730, 841.6641
557.3480, 773.9814
558.5230, 795.3027
559.6980, 750.6260
560.8730, 716.9541
562.0470, 795.2871
563.2220, 652.6221
564.3960, 634.9609
565.5700, 667.3047
566.7440, 748.6533
567.9170, 618.9971
569.0910, 661.3408
570.2640, 659.1709
571.4380, 619.5762
572.6110, 682.4941
573.7840, 607.7520
574.9570, 632.6875
576.1290, 648.0332
577.3020, 616.2910
578.4740, 494.4600
579.6460, 475.9717
580.8180, 386.3916
581.9900, 249.8193
583.1620, 260.0527
584.3330, 233.4980
585.5040, 114.0391
586.6760, 216.3223
587.8470, 115.4062
589.0180, 268.9434
590.1880, 108.4346
591.3590, 165.9346
592.5290, 85.44434
593.7000, 51.23633
594.8700, 60.56543
596.0400, 35.10742
597.2090, 13.49707
598.3790, 184.8994
599.5490, 16.00195
600.7180, 116.6885
601.8870, 14.71582
603.0560, 50.73926
604.2250, 131.3477
605.3940, 203.9697
606.5620, 127.3945
607.7300, 2.525391
608.8990, 55.94043
610.0670, 73.84668
611.2350, 92.52734
612.4020, 44.22070
613.5700, 122.9258
614.7370, 59.76562
615.9050, 77.02832
617.0720, 23.87598
618.2390, 75.87109
619.4060, 39.63086
620.5720, 36.40332
621.7390, 46.19141
622.9050, 51.99219
624.0710, 27.19238
625.2370, 30.62402
626.4030, 26.45312
627.5690, 16.70215
628.7340, 49.14746
629.9000, 117.9893
631.0650, 25.16504
632.2300, 78.33887
633.3950, 40.67383
634.5600, 0.6416020
635.7240, 28.08105
636.8890, 72.91016
638.0530, 18.24707
639.2170, 7.603516
640.3810, 56.53125
641.5450, 87.35449
642.7080, 11.84180
643.8720, 34.99902
645.0350, 40.84473
646.1980, 14.85449
647.3610, 194.5732
648.5240, 35.54102
649.6870, 26.65332
650.8490, 164.2383
652.0120, 60.85254
653.1740, 73.04785
654.3360, 31.96582
655.4980, 1.098633
656.6600, 26.14746
657.8210, 7.429688
658.9830, 32.26465
660.1440, 80.77734
661.3050, 121.7881
662.4660, 110.8174
663.6270, 103.8652
664.7870, 219.9297
665.9480, 191.0137
667.1080, 128.1162
668.2680, 344.2373
669.4280, 124.3750
670.5880, 305.5342
671.7480, 241.7090
672.9070, 455.9053
674.0670, 255.1182
675.2260, 507.3506
676.3850, 337.6006
677.5440, 421.0312
678.7030, 741.1592
679.8610, 516.4668
681.0200, 680.7930
682.1780, 698.1387
683.3360, 804.5039
684.4940, 785.8877
685.6520, 793.0410
686.8090, 828.1650
687.9670, 783.1592
689.1240, 814.6230
690.2810, 887.1055
691.4380, 814.6094
692.5950, 777.1328
693.7520, 715.6768
694.9080, 653.2412
696.0650, 651.8262
697.2210, 556.4326
698.3770, 487.0693
699.5330, 435.7275
700.6880, 564.4053
701.8440, 441.1055
702.9990, 227.8525
704.1550, 373.6279
705.3100, 472.4346
706.4650, 254.2988
707.6190, 261.2412
708.7740, 231.2500
709.9290, 207.3125
711.0830, 178.1748
712.2370, 290.5664
713.3910, 4.791016
714.5450, 101.9336
715.6980, 161.7988
716.8520, 177.3213
718.0050, 15.57227
719.1580, 82.86328
720.3110, 58.40625
721.4640, 30.21289
722.6170, 129.8076
723.7700, 5.963867
724.9220, 91.64453
726.0740, 96.13965
727.2260, 143.2988
728.3780, 98.19727
729.5300, 81.62891
730.6810, 52.27344
731.8330, 20.96777
732.9840, 10.82422
734.1350, 55.64941
735.2860, 188.4990
736.4370, 88.36426
737.5880, 25.73242
738.7380, 72.81055
739.8880, 106.1514
741.0390, 105.0107
742.1890, 19.01953
743.3380, 237.0537
744.4880, 59.11035
745.6380, 26.80566
746.7870, 304.0820
747.9360, 189.0918
749.0850, 224.3857
750.2340, 265.5752
751.3830, 287.7891
752.5310, 202.0264
753.6800, 295.2891
754.8280, 239.5762
755.9760, 250.4697
757.1240, 372.8066
758.2720, 159.1680
759.4190, 570.5557
760.5670, 408.3369
761.7140, 339.4023
762.8610, 387.3486
764.0080, 279.8340
765.1550, 378.3457
766.3020, 393.9131
767.4480, 499.4756
768.5950, 304.7900
769.7410, 404.0625
770.8870, 521.6201
772.0330, 592.1943
773.1780, 382.6807
774.3240, 414.3984
775.4690, 393.1436
776.6140, 557.9717
777.7590, 291.7695
778.9040, 364.7959
780.0490, 286.2324
781.1940, 270.5049
782.3380, 429.7441
783.4820, 519.6758
784.6260, 364.9365
785.7700, 297.9229
786.9140, 368.3135
788.0580, 335.1592
789.2010, 307.2285
790.3450, 319.4863
791.4880, 233.6113
792.6310, 430.7637
793.7730, 783.8418
794.9160, 543.6260
796.0590, 584.5020
797.2010, 307.4658
798.3430, 269.7578
799.4850, 264.0781
800.6270, 156.4277
801.7690, 256.8047
802.9100, 384.2109
804.0520, 353.6455
805.1930, 304.1074
806.3340, 156.6006
807.4750, 292.1211
808.6160, 312.6689
809.7560, 306.2461
810.8970, 166.8535
812.0370, 267.4893
813.1770, 410.1533
814.3170, 140.8477
815.4570, 273.5713
816.5960, 293.3232
817.7360, 251.1045
818.8750, 274.9150
820.0140, 339.6348
821.1530, 467.6240
822.2920, 498.5225
823.4310, 530.3193
824.5690, 594.4072
825.7070, 527.3936
826.8460, 481.4072
827.9840, 554.4512
829.1220, 660.5244
830.2590, 799.6270
831.3970, 703.7578
832.5340, 680.9189
833.6710, 858.1084
834.8080, 825.3457
835.9450, 978.5938
837.0820, 1127.871
838.2190, 1174.177
839.3550, 1265.463
840.4910, 1266.452
841.6270, 1443.144
842.7630, 1530.988
843.8990, 1793.712
845.0350, 1963.629
846.1700, 2125.369
847.3060, 2310.892
848.4410, 2489.693
849.5760, 2606.020
850.7100, 2897.321
851.8450, 3083.517
852.9800, 3326.168
854.1140, 3705.416
855.2480, 3855.116
856.3820, 4383.838
857.5160, 4656.586
858.6500, 4814.358
859.7830, 5506.154
860.9170, 5863.885
862.0500, 6295.727
863.1830, 6893.593
864.3160, 7515.572
865.4480, 8394.394
866.5810, 9048.332
867.7130, 9931.289
868.8460, 10856.48
869.9780, 11742.68
871.1100, 13012.90
872.2410, 13661.96
873.3730, 14869.03
874.5050, 15765.60
875.6360, 16041.36
876.7670, 16129.50
877.8980, 16003.67
879.0290, 15050.86
880.1590, 13819.08
881.2900, 12602.31
882.4200, 11219.03
883.5500, 9704.314
884.6800, 8640.622
885.8100, 7446.950
886.9400, 6414.298
888.0690, 5625.359
889.1990, 4779.492
890.3280, 4289.479
891.4570, 3606.912
892.5860, 3171.378
893.7140, 2999.863
894.8430, 2577.371
895.9710, 2391.898
897.1000, 2103.448
898.2280, 1843.020
899.3560, 1570.619
900.4830, 1530.238
901.6110, 1399.882
902.7380, 1324.549
903.8660, 1134.235
904.9930, 1048.972
906.1200, 1047.734
907.2460, 1033.535
908.3730, 993.9473
909.5000, 968.2217
910.6260, 952.0947
911.7520, 877.9893
912.8780, 853.9072
914.0040, 938.8457
915.1290, 970.8164
916.2550, 890.8281
917.3800, 863.8623
918.5050, 901.2725
919.6300, 970.0020
920.7550, 999.1064
921.8800, 1046.648
923.0040, 1038.380
924.1290, 1096.554
925.2530, 1060.746
926.3770, 1011.973
927.5010, 1019.216
928.6250, 1093.479
929.7480, 1185.761
930.8720, 1257.092
931.9950, 991.4502
933.1180, 1284.845
934.2410, 1217.289
935.3640, 1069.965
936.4860, 1244.607
937.6090, 1372.435
938.7310, 1455.839
939.8530, 1361.940
940.9750, 1497.051
942.0970, 1540.420
943.2180, 1580.010
944.3400, 1398.607
945.4610, 1410.347
946.5820, 1469.134
947.7030, 1329.948
948.8240, 1358.787
949.9450, 1251.643
951.0650, 1126.530
952.1860, 972.4561
953.3060, 911.8984
954.4260, 717.3564
955.5460, 797.3291
956.6650, 570.3184
957.7850, 550.3213
958.9040, 464.3398
960.0230, 306.3740
961.1420, 170.4229
962.2610, 369.4863
963.3800, 282.5664
964.4990, 165.6650
965.6170, 286.7910
966.7350, 22.93164
967.8530, 144.0869
968.9710, 36.74414
970.0890, 144.4180
971.2070, 68.59473
972.3240, 49.78809
973.4410, 107.0059
974.5580, 11.83984
975.6750, 42.66699
976.7920, 140.5059
977.9090, 225.4014
979.0250, 175.4365
980.1410, 119.4678
981.2580, 104.5850
982.3740, 118.2578
983.4890, 101.1133
984.6050, 151.0195
985.7200, 3.216797
986.8360, 49.59180
987.9510, 59.58691
989.0660, 23.21191
990.1810, 52.02344
991.2950, 171.8457
992.4100, 61.68164
993.5240, 97.52734
994.6390, 123.3848
995.7530, 211.2529
996.8660, 115.1309
997.9800, 254.0195
999.0940, 184.9893
1000.207, 164.8291
1001.320, 205.7471
1002.433, 166.7969
1003.546, 198.6172
1004.659, 161.8887
1005.772, 118.5479
1006.884, 112.4980
1007.996, 214.4766
1009.108, 190.2871
1010.220, 163.4785
1011.332, 238.4980
1012.444, 84.52637
1013.555, 85.56348
1014.666, 97.60938
1015.777, 69.66406
1016.888, 98.72852
1017.999, 48.28223
1019.110, 158.3428
1020.220, 221.5127
1021.331, 240.3115
1022.441, 81.79590
1023.551, 152.2500
1024.661, 130.9590
1025.770, 105.9180
1026.880, 208.6230
1027.989, 75.93457
1029.098, 176.6318
1030.207, 184.1777
1031.316, 234.3613
1032.425, 192.2314
1033.533, 178.6289
1034.642, 257.3818
1035.750, 285.0000
1036.858, 232.2646
1037.966, 285.2051
1039.073, 149.3516
1040.181, 179.1836
1041.288, 280.4795
1042.396, 232.4219
1043.503, 287.0684
1044.610, 302.6113
1045.716, 310.9463
1046.823, 355.1875
1047.929, 290.4326
1049.036, 221.6826
1050.142, 224.9355
1051.248, 306.1943
1052.353, 361.4551
1053.459, 335.7197
1054.564, 350.9883
1055.670, 346.9795
1056.775, 301.5342
1057.880, 314.8135
1058.985, 316.0957
1060.089, 288.3789
1061.194, 294.6660
1062.298, 416.9551
1063.402, 291.8779
1064.506, 374.0654
1065.610, 507.7930
1066.713, 366.9795
1067.817, 452.0977
1068.920, 375.3105
1070.023, 320.9824
1071.126, 373.4092
1072.229, 306.7275
1073.332, 435.8252
1074.435, 434.4336
1075.537, 478.0098
1076.639, 493.1162
1077.741, 504.8574
1078.843, 476.1055
1079.945, 453.5186
1081.046, 465.5410
1082.148, 434.1279
1083.249, 458.8193
1084.350, 448.2305
1085.451, 581.5039
1086.551, 538.6025
1087.652, 344.0361
1088.752, 503.2959
1089.853, 433.5518
1090.953, 349.8027
1092.053, 345.0479
1093.152, 363.2891
1094.252, 495.5264
1095.351, 376.4541
1096.451, 255.3633
1097.550, 327.6172
1098.649, 207.8506
1099.748, 250.2529
1100.846, 332.4746
1101.945, 320.6709
1103.043, 203.8809
1104.141, 278.7656
1105.239, 151.9678
1106.337, 210.1123
1107.434, 316.7119
1108.532, 374.1279
1109.629, 381.6709
1110.726, 206.8594
1111.823, 263.9053
1112.920, 232.4434
1114.017, 198.6758
1115.113, 298.0469
1116.210, 162.0020
1117.306, 250.5586
1118.402, 254.4951
1119.498, 301.2988
1120.593, 252.2363
1121.689, 235.4160
1122.784, 310.7588
1123.879, 335.5000
1124.974, 279.3359
1126.069, 328.8389
1127.164, 189.5371
1128.259, 215.9014
1129.353, 313.7402
1130.447, 262.2051
1131.541, 313.3652
1132.635, 325.4111
1133.729, 159.6855
1134.822, 303.2305
1135.916, 312.9492
1137.009, 185.3887
1138.102, 318.2109
1139.195, 209.5576
1140.288, 187.0918
1141.380, 229.5537
1142.473, 204.3145
1143.565, 285.7012
1144.657, 264.3750
1145.749, 233.8721
1146.841, 243.4033
1147.932, 139.4697
1149.024, 246.1709
1150.115, 208.9326
1151.206, 243.1699
1152.297, 293.6006
1153.388, 220.1777
1154.479, 277.8740
1155.569, 131.8945
1156.659, 156.3271
1157.750, 162.4023
1158.839, 277.4014
1159.929, 132.3828
1161.019, 152.2246
1162.108, 242.1035
1163.198, 233.9961
1164.287, 266.7217
1165.376, 177.9473
1166.465, 203.2559
1167.553, 197.1172
1168.642, 299.6572
1169.730, 316.3896
1170.818, 229.6533
1171.906, 143.3770
1172.994, 253.7129
1174.082, 177.6787
1175.170, 202.1992
1176.257, 122.8613
1177.344, 133.1738
1178.431, 142.0605
1179.518, 196.8984
1180.605, 112.3574
1181.691, 208.5996
1182.778, 200.3320
1183.864, 222.8447
1184.950, 241.9277
1186.036, 120.7832
1187.122, 114.6377
1188.207, 272.8945
1189.292, 125.8623
1190.378, 131.7520
1191.463, 88.19141
1192.548, 80.95215
1193.632, 64.29688
1194.717, 4.605469
1195.801, 44.94141
1196.886, 83.97656
1197.970, 19.21875
1199.054, 84.25293
1200.137, 27.79395
1201.221, 64.71094
1202.305, 78.11816
1203.388, 50.38379
1204.471, 63.95996
1205.554, 28.70801
1206.637, 82.41211
1207.719, 6.816406
1208.802, 87.97363
1209.884, 7.833008
1210.966, 1.720703
1212.048, 53.36719
1213.130, 28.55859
1214.212, 56.02148
1215.293, 122.9551
1216.374, 243.9229
1217.456, 247.4287
1218.536, 223.5645
1219.617, 261.7598
1220.698, 228.8643
1221.778, 204.6396
1222.859, 150.5029
1223.939, 146.3975
1225.019, 31.39844
1226.099, 32.26465
1227.178, 21.88477
1228.258, 223.9287
1229.337, 73.73145
1230.417, 217.5225
1231.496, 139.3027
1232.574, 193.0820
1233.653, 31.96875
1234.732, 138.7217
1235.810, 236.4629
1236.888, 32.40527
1237.966, 203.1553
1239.044, 96.90723
1240.122, 123.6816
1241.199, 142.2285
1242.277, 129.7910
1243.354, 37.00391
1244.431, 145.1045
1245.508, 205.9766
1246.585, 222.4697
1247.661, 61.66895
1248.738, 129.8174
1249.814, 106.2207
1250.890, 78.85352
1251.966, 179.2148
1253.042, 44.65234
1254.117, 142.9668
1255.193, 148.4316
1256.268, 196.2158
1257.343, 151.6455
1258.418, 135.5742
1259.493, 212.0244
1260.567, 237.1592
1261.642, 182.3164
1262.716, 232.9443
1263.790, 94.55664
1264.864, 121.8135
1265.938, 220.8408
1267.011, 170.1865
1268.085, 183.8506
1269.158, 238.5869
1270.231, 111.2480
1271.304, 149.8945
1272.377, 239.2832
1273.450, 266.4980
1274.522, 157.1104
1275.594, 224.7109
1276.666, 224.2412
1277.738, 99.09961
1278.810, 258.7324
1279.882, 251.2842
1280.953, 194.8574
1282.025, 89.41992
1283.096, 165.9678
1284.167, 223.5039
1285.238, 147.0293
1286.308, 224.5420
1287.379, 171.0430
1288.449, 164.5332
1289.519, 99.01074
1290.589, 117.7441
1291.659, 89.92676
1292.729, 130.3643
1293.798, 200.9883
1294.868, 171.4268
1295.937, 260.7129
1297.006, 154.2285
1298.075, 301.7402
1299.143, 354.1172
1300.212, 297.5146
1301.280, 295.8672
1302.348, 212.2070
1303.416, 149.3740
1304.484, 289.2588
1305.552, 203.5615
1306.620, 292.3789
1307.687, 215.6553
1308.754, 311.0537
1309.821, 246.3027
1310.888, 197.5371
1311.955, 370.7578
1313.021, 241.9629
1314.088, 253.1562
1315.154, 141.3389
1316.220, 261.5059
1317.286, 300.9209
1318.352, 321.0596
1319.417, 341.1816
1320.483, 281.2891
1321.548, 278.3809
1322.613, 264.8682
1323.678, 249.0371
1324.743, 321.6582
1325.807, 210.8125
1326.872, 209.0264
1327.936, 247.1348
1329.000, 114.7764
