##NAMES=Ferberite
##RRUFFID=R050090
##IDEAL CHEMISTRY=Fe^2+^W^6+^O_4_
##LOCALITY=Yaogangxian mine, Cheng Zhu City, South Hunan, China
##OWNER=RRUFF
##SOURCE=Rock Currier
##DESCRIPTION=Dark gray tabular crystal
##STATUS=The identification of this mineral has been confirmed by X-ray diffraction and chemical analysis
##URL=rruff.info/R050090
##MEASURED CHEMISTRY=(Fe^2+^_0.56_Mn_0.44_)W_1.00_O_4_
##PIN_ID=L01304
##ORIENTATION=Laser parallel to -b* (0 -1 0). Fiducial mark perpendicular to laser is parallel to c [0 0 1]
98.41600, 0.0000000E+00
99.64900, 6.554688
100.8830, 23.94531
102.1160, 115.7578
103.3490, 234.5078
104.5820, 642.7637
105.8150, 1135.182
107.0470, 3205.303
108.2800, 3520.330
109.5120, 5496.836
110.7440, 5809.229
111.9760, 3881.488
113.2080, 3256.762
114.4400, 3410.654
115.6710, 3456.520
116.9030, 3818.547
118.1340, 4032.164
119.3650, 4023.336
120.5960, 3190.516
121.8270, 2907.123
123.0580, 2624.047
124.2880, 2254.344
125.5190, 1694.885
126.7490, 2216.938
127.9790, 3052.074
129.2090, 3646.932
130.4390, 3374.150
131.6680, 3729.975
132.8980, 2597.746
134.1270, 1558.108
135.3560, 1312.501
136.5850, 869.8975
137.8140, 781.1846
139.0430, 767.5234
140.2710, 840.3115
141.5000, 619.2168
142.7280, 374.3242
143.9560, 104.7031
145.1840, 12.44434
146.4120, 33.40430
147.6390, 102.6807
148.8670, 40.46777
150.0940, 21.70312
151.3210, 123.7012
152.5490, 305.6621
153.7750, 343.1914
155.0020, 248.4922
156.2290, 293.8281
157.4550, 203.3174
158.6810, 25.88379
159.9080, 50.67188
161.1340, 86.34961
162.3590, 18.74902
163.5850, 133.8857
164.8110, 259.7080
166.0360, 482.5039
167.2610, 669.7021
168.4860, 573.5840
169.7110, 591.4824
170.9360, 789.9111
172.1610, 449.3271
173.3850, 709.3887
174.6100, 522.8623
175.8340, 483.7266
177.0580, 297.6025
178.2820, 411.6494
179.5050, 589.8174
180.7290, 474.1064
181.9520, 609.5068
183.1760, 638.0068
184.3990, 688.5977
185.6220, 642.2627
186.8450, 726.9902
188.0670, 729.7783
189.2900, 911.6104
190.5120, 1003.027
191.7340, 934.8096
192.9560, 1110.043
194.1780, 1155.124
195.4000, 1338.867
196.6220, 1300.295
197.8430, 1299.913
199.0640, 1502.799
200.2860, 1393.417
201.5070, 1735.655
202.7270, 1909.438
203.9480, 1976.824
205.1690, 1699.352
206.3890, 1030.873
207.6090, 532.3877
208.8290, 377.8877
210.0490, 200.3691
211.2690, 103.8271
212.4890, 88.25684
213.7080, 138.6680
214.9280, 202.0596
216.1470, 184.4316
217.3660, 108.7871
218.5850, 60.87402
219.8030, 49.55371
221.0220, 10.74805
222.2400, 122.9619
223.4590, 35.69043
224.6770, 40.56445
225.8950, 89.80469
227.1120, 132.0312
228.3300, 59.22656
229.5480, 75.62109
230.7650, 44.49805
231.9820, 159.5566
233.1990, 150.5312
234.4160, 57.21289
235.6330, 35.88867
236.8490, 21.53906
238.0660, 78.93164
239.2820, 55.50000
240.4980, 64.14844
241.7140, 105.8633
242.9300, 126.7070
244.1460, 79.28711
245.3610, 118.2988
246.5770, 252.7969
247.7920, 33.36133
249.0070, 22.75000
250.2220, 121.0469
251.4370, 24.67578
252.6510, 120.4121
253.8660, 145.1367
255.0800, 246.8340
256.2940, 134.1699
257.5080, 326.2246
258.7220, 471.7637
259.9360, 573.2773
261.1490, 499.0664
262.3630, 651.5312
263.5760, 712.9883
264.7890, 648.8281
266.0020, 609.8008
267.2150, 531.6895
268.4270, 556.4648
269.6400, 619.9180
270.8520, 478.2383
272.0640, 505.4922
273.2760, 294.6875
274.4880, 366.8203
275.7000, 471.8066
276.9120, 273.5254
278.1230, 449.1660
279.3340, 392.7344
280.5450, 266.2363
281.7560, 152.6641
282.9670, 171.0488
284.1780, 158.2676
285.3880, 198.4492
286.5980, 209.5625
287.8090, 203.6094
289.0190, 271.5957
290.2290, 161.2832
291.4380, 154.3887
292.6480, 27.79688
293.8570, 164.7109
295.0670, 72.79883
296.2760, 98.53516
297.4850, 37.89258
298.6930, 47.45898
299.9020, 124.9785
301.1110, 43.43164
302.3190, 71.81055
303.5270, 100.2148
304.7350, 79.72266
305.9430, 125.3809
307.1510, 134.0430
308.3580, 79.91211
309.5660, 185.0430
310.7730, 211.4473
311.9800, 359.9219
313.1870, 173.3457
314.3940, 273.7051
315.6010, 280.9238
316.8070, 227.9570
318.0130, 239.9863
319.2200, 391.8145
320.4260, 371.5098
321.6310, 358.1855
322.8370, 273.2090
324.0430, 455.7227
325.2480, 530.3945
326.4540, 616.0664
327.6590, 503.7383
328.8640, 527.4082
330.0680, 366.0879
331.2730, 478.7695
332.4780, 507.4453
333.6820, 521.1211
334.8860, 425.7969
336.0900, 446.4707
337.2940, 556.1367
338.4980, 524.8047
339.7010, 338.4746
340.9050, 544.1387
342.1080, 409.8047
343.3110, 535.4609
344.5140, 411.1055
345.7170, 607.7402
346.9200, 687.3711
348.1220, 650.9922
349.3240, 375.6133
350.5270, 564.2344
351.7290, 393.8555
352.9310, 406.4766
354.1320, 614.1074
355.3340, 534.0020
356.5350, 648.9629
357.7370, 602.7090
358.9380, 620.1660
360.1390, 630.1953
361.3400, 502.1016
362.5400, 470.3066
363.7410, 693.4414
364.9410, 592.3574
366.1410, 702.0957
367.3410, 597.5449
368.5410, 704.5410
369.7410, 737.7305
370.9400, 508.9453
372.1400, 672.6641
373.3390, 765.4551
374.5380, 675.3008
375.7370, 521.1699
376.9360, 618.2324
378.1350, 566.5879
379.3330, 504.5781
380.5310, 585.1484
381.7300, 711.3086
382.9280, 814.4727
384.1260, 858.1875
385.3230, 963.4434
386.5210, 1032.164
387.7180, 1027.666
388.9160, 1239.363
390.1130, 1395.430
391.3100, 1556.166
392.5060, 2156.686
393.7030, 2615.873
394.9000, 3028.889
396.0960, 3486.641
397.2920, 3815.707
398.4880, 3854.959
399.6840, 3743.629
400.8800, 3484.785
402.0750, 2926.479
403.2710, 2447.158
404.4660, 1997.830
405.6610, 1724.494
406.8560, 1389.148
408.0510, 1276.795
409.2450, 1154.434
410.4400, 1088.064
411.6340, 784.6895
412.8280, 703.3105
414.0220, 552.9238
415.2160, 597.5312
416.4100, 716.1406
417.6030, 516.7441
418.7970, 428.3438
419.9900, 678.9414
421.1830, 261.5371
422.3760, 355.1328
423.5690, 324.7285
424.7610, 296.3262
425.9540, 270.5801
427.1460, 108.9219
428.3380, 357.2168
429.5300, 97.69141
430.7220, 325.2207
431.9140, 186.7383
433.1050, 235.3477
434.2970, 173.7109
435.4880, 68.05859
436.6790, 93.16016
437.8700, 237.6523
439.0610, 351.5918
440.2510, 288.7832
441.4420, 256.3281
442.6320, 245.0449
443.8220, 359.4570
445.0120, 134.1719
446.2020, 232.2441
447.3910, 140.5742
448.5810, 321.8281
449.7700, 296.5469
450.9600, 300.0527
452.1490, 281.3086
453.3370, 393.8848
454.5260, 242.2832
455.7150, 384.1504
456.9030, 314.5156
458.0910, 305.4160
459.2800, 396.8047
460.4670, 332.7109
461.6550, 335.6582
462.8430, 491.6348
464.0300, 222.6309
465.2180, 103.6445
466.4050, 253.6758
467.5920, 334.7207
468.7790, 194.7969
469.9650, 246.8887
471.1520, 344.9961
472.3380, 379.0469
473.5250, 547.2246
474.7110, 174.4219
475.8970, 358.6328
477.0820, 491.8672
478.2680, 353.2266
479.4540, 535.4941
480.6390, 395.8066
481.8240, 311.5977
483.0090, 394.9102
484.1940, 564.4414
485.3780, 365.7852
486.5630, 403.6797
487.7470, 505.0566
488.9320, 439.4492
490.1160, 499.8594
491.3000, 564.2949
492.4830, 494.7480
493.6670, 569.2168
494.8500, 465.7012
496.0340, 464.1016
497.2170, 361.6191
498.4000, 393.1543
499.5820, 421.5859
500.7650, 720.3047
501.9480, 516.4727
503.1300, 576.0996
504.3120, 554.7480
505.4940, 463.4219
506.6760, 348.1484
507.8580, 565.9238
509.0390, 480.7363
510.2210, 592.6191
511.4020, 640.5059
512.5830, 601.4629
513.7640, 567.4434
514.9450, 709.4492
516.1250, 496.4766
517.3060, 665.5605
518.4860, 531.6934
519.6660, 658.8457
520.8460, 818.0742
522.0260, 778.3281
523.2060, 778.6094
524.3850, 790.2480
525.5650, 736.2832
526.7440, 769.6973
527.9230, 784.1660
529.1020, 876.6934
530.2810, 859.2871
531.4590, 925.9062
532.6380, 851.5430
533.8160, 857.2812
534.9940, 755.0625
536.1720, 787.8828
537.3500, 800.7676
538.5270, 944.6797
539.7050, 999.6133
540.8820, 958.5703
542.0590, 793.5469
543.2360, 803.5430
544.4130, 779.8691
545.5900, 614.5938
546.7660, 815.6504
547.9430, 764.7285
549.1190, 777.8242
550.2950, 676.9395
551.4710, 675.0742
552.6470, 815.2305
553.8220, 777.4102
554.9980, 698.6055
556.1730, 585.8223
557.3480, 633.0605
558.5230, 639.3203
559.6980, 724.5996
560.8730, 686.4805
562.0470, 657.1035
563.2220, 642.5684
564.3960, 576.9316
565.5700, 578.3164
566.7440, 642.7246
567.9170, 607.1543
569.0910, 569.6074
570.2640, 534.0840
571.4380, 477.5820
572.6110, 416.1035
573.7840, 501.6484
574.9570, 354.2129
576.1290, 508.8027
577.3020, 412.4141
578.4740, 277.0566
579.6460, 222.7207
580.8180, 178.4102
581.9900, 251.1230
583.1620, 179.8672
584.3330, 198.6348
585.5040, 18.42578
586.6760, 125.2461
587.8470, 61.09180
589.0180, 1.041016
590.1880, 14.85352
591.3590, 77.22852
592.5290, 186.3145
593.7000, 128.4551
594.8700, 44.62109
596.0400, 62.28906
597.2090, 214.8457
598.3790, 8.966797
599.5490, 15.90430
600.7180, 91.06836
601.8870, 34.84375
603.0560, 134.4102
604.2250, 185.3418
605.3940, 191.1582
606.5620, 21.25195
607.7300, 78.06055
608.8990, 47.50586
610.0670, 9.789063
611.2350, 98.56250
612.4020, 41.17578
613.5700, 50.93359
614.7370, 45.54297
615.9050, 82.35352
617.0720, 29.86719
618.2390, 3.552734
619.4060, 68.70703
620.5720, 17.58398
621.7390, 5.416016
622.9050, 128.7676
624.0710, 61.02539
625.2370, 105.1738
626.4030, 5.603516
627.5690, 156.6328
628.7340, 156.8906
629.9000, 13.16992
631.0650, 254.4277
632.2300, 70.75391
633.3950, 214.0977
634.5600, 186.4648
635.7240, 11.14648
636.8890, 135.2559
638.0530, 135.6777
639.2170, 124.1211
640.3810, 190.5898
641.5450, 63.92383
642.7080, 48.55664
643.8720, 50.05469
645.0350, 244.5762
646.1980, 76.12109
647.3610, 51.68555
648.5240, 237.2695
649.6870, 63.87891
650.8490, 30.49414
652.0120, 138.1387
653.1740, 51.79102
654.3360, 282.4648
655.4980, 87.15820
656.6600, 226.8730
657.8210, 167.6074
658.9830, 332.3613
660.1440, 362.1406
661.3050, 450.9355
662.4660, 401.7539
663.6270, 564.5898
664.7870, 422.4473
665.9480, 456.3242
667.1080, 439.2227
668.2680, 543.1387
669.4280, 672.0762
670.5880, 777.0332
671.7480, 779.0078
672.9070, 900.0039
674.0670, 1022.018
675.2260, 1045.049
676.3850, 1442.104
677.5440, 1426.176
678.7030, 1616.268
679.8610, 1631.377
681.0200, 1886.506
682.1780, 1951.650
683.3360, 2159.822
684.4940, 2365.008
685.6520, 2402.213
686.8090, 2726.439
687.9670, 2782.682
689.1240, 2865.945
690.2810, 3024.223
691.4380, 2797.523
692.5950, 2714.842
693.7520, 2886.176
694.9080, 2796.531
696.0650, 2793.902
697.2210, 2622.295
698.3770, 2586.707
699.5330, 2277.154
700.6880, 2046.641
701.8440, 2056.141
702.9990, 1736.662
704.1550, 1824.201
705.3100, 1837.758
706.4650, 1578.334
707.6190, 1355.930
708.7740, 1404.543
709.9290, 1195.172
711.0830, 950.8223
712.2370, 927.4902
713.3910, 805.1777
714.5450, 797.8848
715.6980, 751.6113
716.8520, 653.3535
718.0050, 624.7637
719.1580, 549.7715
720.3110, 515.7793
721.4640, 384.6289
722.6170, 341.5059
723.7700, 179.4258
724.9220, 209.3672
726.0740, 179.3262
727.2260, 95.30078
728.3780, 117.7852
729.5300, 54.26758
730.6810, 111.2500
731.8330, 140.4609
732.9840, 175.8691
734.1350, 11.48047
735.2860, 116.6562
736.4370, 55.63867
737.5880, 21.45117
738.7380, 19.27344
739.8880, 86.51367
741.0390, 69.25586
742.1890, 25.03906
743.3380, 1.185547
744.4880, 80.42773
745.6380, 111.4180
746.7870, 66.03320
747.9360, 117.2500
749.0850, 98.55273
750.2340, 85.12695
751.3830, 100.7324
752.5310, 5.541016
753.6800, 80.83398
754.8280, 38.85547
755.9760, 229.4590
757.1240, 66.68164
758.2720, 64.03125
759.4190, 248.3711
760.5670, 117.2676
761.7140, 154.6758
762.8610, 95.90430
764.0080, 29.35352
765.1550, 157.2871
766.3020, 74.77344
767.4480, 77.67383
768.5950, 39.18945
769.7410, 48.33984
770.8870, 145.8848
772.0330, 190.4551
773.1780, 245.5918
774.3240, 63.74805
775.4690, 260.3750
776.6140, 173.0195
777.7590, 60.68359
778.9040, 108.3691
780.0490, 166.5156
781.1940, 148.2402
782.3380, 198.9844
783.4820, 231.7461
784.6260, 145.5293
785.7700, 352.3320
786.9140, 225.1543
788.0580, 229.9961
789.2010, 128.8984
790.3450, 202.7793
791.4880, 319.6797
792.6310, 165.5996
793.7730, 297.5410
794.9160, 225.5000
796.0590, 206.4785
797.2010, 183.4805
798.3430, 167.4961
799.4850, 142.5352
800.6270, 93.59180
801.7690, 137.8477
802.9100, 334.7656
804.0520, 186.8809
805.1930, 310.0156
806.3340, 270.1719
807.4750, 367.3457
808.6160, 256.5391
809.7560, 434.7539
810.8970, 223.9883
812.0370, 396.2402
813.1770, 545.8047
814.3170, 465.0977
815.4570, 415.4102
816.5960, 485.7402
817.7360, 420.0918
818.8750, 344.4629
820.0140, 396.4336
821.1530, 352.3262
822.2920, 442.2637
823.4310, 401.7129
824.5690, 444.1797
825.7070, 562.6680
826.8460, 710.1758
827.9840, 630.7031
829.1220, 692.2500
830.2590, 811.8145
831.3970, 694.4004
832.5340, 729.0020
833.6710, 735.6270
834.8080, 830.2695
835.9450, 1018.967
837.0820, 889.9492
838.2190, 1270.650
839.3550, 1206.371
840.4910, 1273.107
841.6270, 1476.867
842.7630, 1531.641
843.8990, 1678.436
845.0350, 1827.248
846.1700, 1938.082
847.3060, 2297.932
848.4410, 2419.801
849.5760, 2539.703
850.7100, 2813.967
851.8450, 2945.893
852.9800, 3325.834
854.1140, 3655.963
855.2480, 4017.939
856.3820, 4475.863
857.5160, 4870.879
858.6500, 5413.768
859.7830, 6079.662
860.9170, 6541.730
862.0500, 7583.816
863.1830, 8427.922
864.3160, 9465.041
865.4480, 10701.18
866.5810, 12124.50
867.7130, 13723.95
868.8460, 15530.28
869.9780, 17545.56
871.1100, 19635.80
872.2410, 22120.12
873.3730, 24800.48
874.5050, 27938.57
875.6360, 30477.00
876.7670, 32987.45
877.8980, 34873.31
879.0290, 35965.41
880.1590, 36508.72
881.2900, 36185.24
882.4200, 34405.78
883.5500, 31963.01
884.6800, 29419.58
885.8100, 26824.17
886.9400, 23449.26
888.0690, 20459.58
889.1990, 17990.27
890.3280, 15547.93
891.4570, 13120.54
892.5860, 11175.24
893.7140, 9751.955
894.8430, 8415.688
895.9710, 7396.441
897.1000, 6238.217
898.2280, 5719.008
899.3560, 4979.830
900.4830, 4464.668
901.6110, 3761.525
902.7380, 3211.400
903.8660, 3022.291
904.9930, 2601.242
906.1200, 2317.168
907.2460, 2151.109
908.3730, 1966.066
909.5000, 1780.043
910.6260, 1606.045
911.7520, 1400.064
912.8780, 1402.100
914.0040, 1107.152
915.1290, 1160.221
916.2550, 893.3203
917.3800, 1030.436
918.5050, 997.5664
919.6300, 791.7168
920.7550, 860.8809
921.8800, 769.0605
923.0040, 577.2559
924.1290, 717.4668
925.2530, 559.7051
926.3770, 713.9688
927.5010, 553.2500
928.6250, 543.5469
929.7480, 512.8594
930.8720, 374.1875
931.9950, 417.5293
933.1180, 323.8867
934.2410, 314.2578
935.3640, 207.6562
936.4860, 201.0703
937.6090, 273.5000
938.7310, 293.9492
939.8530, 295.1973
940.9750, 424.9219
942.0970, 321.4492
943.2180, 357.5430
944.3400, 432.5508
945.4610, 320.1250
946.5820, 125.7129
947.7030, 2.662109
948.8240, 143.9727
949.9450, 98.62500
951.0650, 36.29297
952.1860, 176.9746
953.3060, 52.68164
954.4260, 7.578125
955.5460, 63.16992
956.6650, 293.9316
957.7850, 140.7090
958.9040, 143.4980
960.0230, 158.3027
961.1420, 80.12305
962.2610, 26.95508
963.3800, 101.8027
964.4990, 190.6660
965.6170, 115.5410
966.7350, 60.42969
967.8530, 64.33203
968.9710, 145.2500
970.0890, 86.82031
971.2070, 55.91992
972.3240, 258.9648
973.4410, 211.8652
974.5580, 61.77930
975.6750, 216.7031
976.7920, 138.6426
977.9090, 160.5938
979.0250, 53.56055
980.1410, 73.56445
981.2580, 45.52734
982.3740, 80.53125
983.4890, 10.54492
984.6050, 0.4257810
985.7200, 241.6113
986.8360, 99.65625
987.9510, 103.2812
989.0660, 202.7402
990.1810, 10.22852
991.2950, 127.8066
992.4100, 27.14648
993.5240, 114.1035
994.6390, 146.8926
995.7530, 19.90039
996.8660, 14.92188
997.9800, 114.9512
999.0940, 145.9941
1000.207, 43.04688
1001.320, 76.88672
1002.433, 197.8496
1003.546, 144.0977
1004.659, 56.05469
1005.772, 105.0234
1006.884, 195.0039
1007.996, 99.00586
1009.108, 17.02539
1010.220, 238.0586
1011.332, 99.10742
1012.444, 144.1992
1013.555, 121.3086
1014.666, 141.4277
1015.777, 306.5586
1016.888, 49.30273
1017.999, 462.8359
1019.110, 70.98047
1020.220, 104.1387
1021.331, 116.3203
1022.441, 10.53711
1023.551, 26.76367
1024.661, 95.99609
1025.770, 166.2520
1026.880, 98.51367
1027.989, 111.7871
1029.098, 121.0703
1030.207, 63.36523
1031.316, 242.6699
1032.425, 107.9844
1033.533, 191.3027
1034.642, 153.6348
1035.750, 199.9746
1036.858, 223.3223
1037.966, 148.6758
1039.073, 327.0508
1040.181, 273.5723
1041.288, 184.8613
1042.396, 309.2578
1043.503, 271.4434
1044.610, 317.8535
1045.716, 444.2754
1046.823, 369.1328
1047.929, 312.1367
1049.036, 310.5820
1050.142, 350.0312
1051.248, 339.4902
1052.353, 321.9531
1053.459, 167.4512
1054.564, 425.9883
1055.670, 446.4785
1056.775, 289.9766
1057.880, 215.4805
1058.985, 471.7871
1060.089, 390.3047
1061.194, 426.8262
1062.298, 522.3574
1063.402, 466.8926
1064.506, 328.4355
1065.610, 436.9844
1066.713, 299.5391
1067.817, 376.3672
1068.920, 489.9336
1070.023, 416.1016
1071.126, 538.6797
1072.229, 515.2656
1073.332, 249.3164
1074.435, 264.9082
1075.537, 401.7402
1076.639, 485.5586
1077.741, 484.1660
1078.843, 441.7812
1079.945, 412.4707
1081.046, 280.8008
1082.148, 375.2637
1083.249, 476.8945
1084.350, 542.5293
1085.451, 193.4219
1086.551, 383.6035
1087.652, 373.6836
1088.752, 619.3418
1089.853, 455.2129
1090.953, 277.9062
1092.053, 421.6055
1093.152, 419.3066
1094.252, 442.4219
1095.351, 355.1270
1096.451, 439.8379
1097.550, 403.0000
1098.649, 422.5645
1099.748, 387.2812
1100.846, 426.1445
1101.945, 404.4082
1103.043, 500.5586
1104.141, 426.9883
1105.239, 437.5820
1106.337, 342.3164
1107.434, 498.0527
1108.532, 302.7891
1109.629, 547.5312
1110.726, 495.9824
1111.823, 503.0234
1112.920, 465.8438
1114.017, 471.5918
1115.113, 467.4355
1116.210, 486.9863
1117.306, 488.7812
1118.402, 453.5371
1119.498, 504.2969
1120.593, 276.3867
1121.689, 498.1484
1122.784, 433.9902
1123.879, 151.7539
1124.974, 468.0156
1126.069, 310.1309
1127.164, 243.9004
1128.259, 249.6738
1129.353, 452.4473
1130.447, 239.2266
1131.541, 347.0059
1132.635, 402.9688
1133.729, 385.2539
1134.822, 241.3223
1135.916, 215.1113
1137.009, 260.9004
1138.102, 266.6934
1139.195, 225.4902
1140.288, 212.2871
1141.380, 176.1699
1142.473, 175.8613
1143.565, 182.1152
1144.657, 184.0605
1145.749, 217.8672
1146.841, 255.6777
1147.932, 296.4883
1149.024, 252.1523
1150.115, 286.9668
1151.206, 181.7832
1152.297, 157.5977
1153.388, 211.4141
1154.479, 152.1035
1155.569, 170.1133
1156.659, 157.8145
1157.750, 176.6367
1158.839, 227.4590
1159.929, 259.2832
1161.019, 215.3223
1162.108, 143.1445
1163.198, 165.9688
1164.287, 64.79492
1165.376, 137.6211
1166.465, 175.6816
1167.553, 42.50781
1168.642, 143.3340
1169.730, 37.16016
1170.818, 50.98438
1171.906, 30.36914
1172.994, 99.10352
1174.082, 21.54102
1175.170, 213.2656
1176.257, 246.0742
1177.344, 100.8809
1178.431, 292.6875
1179.518, 165.4941
1180.605, 103.4297
1181.691, 215.2363
1182.778, 134.0391
1183.864, 37.03125
1184.950, 32.83398
1186.036, 106.6387
1187.122, 180.4434
1188.207, 315.2441
1189.292, 37.93750
1190.378, 90.85352
1191.463, 124.6426
1192.548, 277.4512
1193.632, 224.7578
1194.717, 314.0625
1195.801, 95.86523
1196.886, 88.66602
1197.970, 28.53320
1199.054, 141.2480
1200.137, 2.3437999E-02
1201.221, 124.7930
1202.305, 82.56055
1203.388, 127.6719
1204.471, 72.01953
1205.554, 17.71094
1206.637, 19.39648
1207.719, 87.08203
1208.802, 64.15820
1209.884, 73.16406
1210.966, 121.4707
1212.048, 3.898438
1213.130, 107.7266
1214.212, 289.3477
1215.293, 28.03320
1216.374, 64.43750
1217.456, 277.5293
1218.536, 327.4785
1219.617, 30.14062
1220.698, 120.8340
1221.778, 110.3770
1222.859, 222.9238
1223.939, 11.46289
1225.019, 60.01758
1226.099, 96.88477
1227.178, 19.41406
1228.258, 124.9336
1229.337, 200.4531
1230.417, 34.97266
1231.496, 113.4863
1232.574, 76.00000
1233.653, 299.5293
1234.732, 1.929688
1235.810, 170.6016
1236.888, 83.12891
1237.966, 183.6543
1239.044, 131.1758
1240.122, 43.70117
1241.199, 192.2227
1242.277, 255.7422
1243.354, 195.2578
1244.431, 18.76758
1245.508, 154.2773
1246.585, 84.78125
1247.661, 318.2852
1248.738, 201.7852
1249.814, 6.283203
1250.890, 181.7988
1251.966, 273.3633
1253.042, 79.87695
1254.117, 15.38867
1255.193, 30.90430
1256.268, 119.4434
1257.343, 134.0684
1258.418, 141.4785
1259.493, 174.1270
1260.567, 133.6523
1261.642, 32.17578
1262.716, 28.69141
1263.790, 45.22266
1264.864, 127.8008
1265.938, 165.3789
1267.011, 125.0332
1268.085, 142.6035
1269.158, 122.1719
1270.231, 46.73438
1271.304, 16.69141
1272.377, 39.13477
1273.450, 22.38477
1274.522, 157.9004
1275.594, 171.7637
1276.666, 169.2695
1277.738, 190.7734
1278.810, 147.2871
