##NAMES=Ferberite
##RRUFFID=R050090
##IDEAL CHEMISTRY=Fe^2+^W^6+^O_4_
##LOCALITY=Yaogangxian mine, Cheng Zhu City, South Hunan, China
##OWNER=RRUFF
##SOURCE=Rock Currier
##DESCRIPTION=Dark gray tabular crystal
##STATUS=The identification of this mineral has been confirmed by X-ray diffraction and chemical analysis
##URL=rruff.info/R050090
##MEASURED CHEMISTRY=(Fe^2+^_0.56_Mn_0.44_)W_1.00_O_4_
##PIN_ID=L01304
##ORIENTATION=Laser parallel to -b* (0 -1 0). Fiducial mark perpendicular to laser is parallel to c [0 0 1]
98.41600, 0.0000000E+00
99.64900, 335.8066
100.8830, 2.779297
102.1160, 7.763672
103.3490, 810.8809
104.5820, 1516.764
105.8150, 1991.119
107.0470, 2477.252
108.2800, 3052.338
109.5120, 3539.199
110.7440, 3650.645
111.9760, 4372.275
113.2080, 3886.533
114.4400, 3745.652
115.6710, 4130.893
116.9030, 6044.869
118.1340, 4586.902
119.3650, 4682.131
120.5960, 4236.742
121.8270, 3052.549
123.0580, 1677.031
124.2880, 1985.805
125.5190, 2285.566
126.7490, 2281.709
127.9790, 1906.492
129.2090, 2104.365
130.4390, 1724.527
131.6680, 1611.047
132.8980, 1455.971
134.1270, 769.9258
135.3560, 715.7988
136.5850, 816.4570
137.8140, 1665.799
139.0430, 1373.852
140.2710, 723.6836
141.5000, 1276.111
142.7280, 577.3965
143.9560, 347.6523
145.1840, 491.2188
146.4120, 5.480469
147.6390, 62.54883
148.8670, 6.076172
150.0940, 212.3457
151.3210, 323.5879
152.5490, 343.9316
153.7750, 620.7520
155.0020, 505.8086
156.2290, 323.0898
157.4550, 31.38477
158.6810, 96.51953
159.9080, 247.4727
161.1340, 285.4824
162.3590, 259.1387
163.5850, 111.7617
164.8110, 252.7344
166.0360, 128.3906
167.2610, 321.6875
168.4860, 132.5410
169.7110, 558.9219
170.9360, 432.0840
172.1610, 892.3848
173.3850, 1169.414
174.6100, 720.0488
175.8340, 1106.217
177.0580, 1055.887
178.2820, 1115.516
179.5050, 1026.328
180.7290, 928.2129
181.9520, 1228.162
183.1760, 1080.146
184.3990, 1302.152
185.6220, 1512.154
186.8450, 1611.141
188.0670, 1457.094
189.2900, 1765.816
190.5120, 1706.334
191.7340, 2100.354
192.9560, 2314.215
194.1780, 2974.318
195.4000, 2921.340
196.6220, 3217.262
197.8430, 3568.498
199.0640, 4332.105
200.2860, 5147.412
201.5070, 5748.797
202.7270, 6594.750
203.9480, 7043.402
205.1690, 7711.855
206.3890, 7094.617
207.6090, 5843.967
208.8290, 5587.676
210.0490, 4377.234
211.2690, 3705.316
212.4890, 2881.910
213.7080, 2676.406
214.9280, 2306.809
216.1470, 1896.121
217.3660, 1455.646
218.5850, 960.3184
219.8030, 804.4121
221.0220, 493.4570
222.2400, 561.7324
223.4590, 550.0977
224.6770, 389.1191
225.8950, 451.9395
227.1120, 249.6406
228.3300, 226.3125
229.5480, 273.7441
230.7650, 9.707031
231.9820, 122.4766
233.1990, 26.37695
234.4160, 146.9648
235.6330, 286.5547
236.8490, 232.3047
238.0660, 303.7168
239.2820, 104.4062
240.4980, 106.5391
241.7140, 160.9648
242.9300, 243.1484
244.1460, 314.9746
245.3610, 158.7832
246.5770, 103.6992
247.7920, 300.0977
249.0070, 279.3242
250.2220, 226.8535
251.4370, 124.3945
252.6510, 379.4609
253.8660, 266.3301
255.0800, 155.9844
256.2940, 712.4121
257.5080, 839.6055
258.7220, 972.5430
259.9360, 1913.717
261.1490, 2103.514
262.3630, 2246.658
263.5760, 2346.395
264.7890, 2269.465
266.0020, 2419.135
267.2150, 1653.865
268.4270, 1655.764
269.6400, 1359.117
270.8520, 1354.105
272.0640, 1253.037
273.2760, 1140.617
274.4880, 982.3750
275.7000, 936.1934
276.9120, 830.2480
278.1230, 795.7734
279.3340, 584.8320
280.5450, 433.7949
281.7560, 352.4688
282.9670, 253.8652
284.1780, 177.5527
285.3880, 141.6035
286.5980, 96.44336
287.8090, 59.19727
289.0190, 72.74414
290.2290, 82.14062
291.4380, 101.9570
292.6480, 101.6035
293.8570, 297.7656
295.0670, 129.2598
296.2760, 254.0410
297.4850, 380.2949
298.6930, 137.4746
299.9020, 127.3477
301.1110, 170.1426
302.3190, 83.71680
303.5270, 70.23047
304.7350, 148.4941
305.9430, 1.218750
307.1510, 103.0176
308.3580, 186.4980
309.5660, 136.1152
310.7730, 264.1113
311.9800, 93.66211
313.1870, 264.2090
314.3940, 303.8262
315.6010, 572.9375
316.8070, 591.4160
318.0130, 541.0078
319.2200, 538.1855
320.4260, 585.9531
321.6310, 460.5801
322.8370, 1033.094
324.0430, 890.5410
325.2480, 1049.938
326.4540, 969.2676
327.6590, 988.5742
328.8640, 949.8477
330.0680, 822.0586
331.2730, 861.2109
332.4780, 704.2949
333.6820, 431.3105
334.8860, 678.2441
336.0900, 393.0957
337.2940, 453.8320
338.4980, 546.4473
339.7010, 373.9258
340.9050, 277.2812
342.1080, 410.5254
343.3110, 220.6621
344.5140, 374.6973
345.7170, 61.55664
346.9200, 111.2910
348.1220, 189.9023
349.3240, 198.4453
350.5270, 369.8184
351.7290, 334.1348
352.9310, 385.3809
354.1320, 158.5586
355.3340, 221.6660
356.5350, 249.7090
357.7370, 356.6895
358.9380, 332.6133
360.1390, 230.4766
361.3400, 173.2812
362.5400, 473.0215
363.7410, 178.6953
364.9410, 397.9492
366.1410, 213.8496
367.3410, 454.9746
368.5410, 285.9785
369.7410, 148.2441
370.9400, 298.7266
372.1400, 450.7363
373.3390, 290.5156
374.5380, 398.6543
375.7370, 148.3340
376.9360, 304.6406
378.1350, 113.3066
379.3330, 65.96289
380.5310, 35.32812
381.7300, 182.8926
382.9280, 28.98047
384.1260, 206.8945
385.3230, 40.60352
386.5210, 63.23047
387.7180, 148.6699
388.9160, 269.3125
390.1130, 359.7969
391.3100, 352.4902
392.5060, 561.8438
393.7030, 711.4316
394.9000, 744.4492
396.0960, 742.8203
397.2920, 728.5684
398.4880, 746.4355
399.6840, 687.1484
400.8800, 657.0215
402.0750, 522.2969
403.2710, 599.4902
404.4660, 598.6016
405.6610, 341.6270
406.8560, 113.5762
408.0510, 371.4375
409.2450, 276.2168
410.4400, 364.9199
411.6340, 350.8477
412.8280, 390.0957
414.0220, 300.5723
415.2160, 253.8887
416.4100, 350.4395
417.6030, 162.5742
418.7970, 306.7637
419.9900, 174.8848
421.1830, 199.9375
422.3760, 253.3848
423.5690, 218.7109
424.7610, 241.9355
425.9540, 349.7656
427.1460, 144.8223
428.3380, 581.1895
429.5300, 277.0703
430.7220, 567.2812
431.9140, 390.7676
433.1050, 572.5039
434.2970, 594.3711
435.4880, 904.5410
436.6790, 612.7051
437.8700, 512.8477
439.0610, 791.4492
440.2510, 511.1992
441.4420, 653.6406
442.6320, 715.2656
443.8220, 635.6699
445.0120, 740.5840
446.2020, 479.4082
447.3910, 553.0664
448.5810, 594.5039
449.7700, 389.4043
450.9600, 351.6328
452.1490, 458.4902
453.3370, 554.0098
454.5260, 515.2559
455.7150, 538.4141
456.9030, 485.3320
458.0910, 452.2832
459.2800, 499.5781
460.4670, 470.0469
461.6550, 490.3672
462.8430, 506.3809
464.0300, 525.3887
465.2180, 516.1777
466.4050, 525.7910
467.5920, 499.0820
468.7790, 625.0840
469.9650, 696.4004
471.1520, 719.2461
472.3380, 792.3223
473.5250, 644.3203
474.7110, 855.4883
475.8970, 660.6152
477.0820, 644.6523
478.2680, 710.4844
479.4540, 754.3145
480.6390, 693.3789
481.8240, 652.8105
483.0090, 686.4473
484.1940, 758.7598
485.3780, 703.5645
486.5630, 887.5508
487.7470, 870.1660
488.9320, 845.7500
490.1160, 732.8535
491.3000, 728.6094
492.4830, 735.4238
493.6670, 952.9375
494.8500, 824.2910
496.0340, 724.8457
497.2170, 939.3125
498.4000, 792.3750
499.5820, 824.1016
500.7650, 791.4844
501.9480, 764.7559
503.1300, 874.5859
504.3120, 812.1582
505.4940, 822.9805
506.6760, 1008.564
507.8580, 1272.057
509.0390, 1152.775
510.2210, 872.4961
511.4020, 691.5098
512.5830, 961.8945
513.7640, 915.9590
514.9450, 1122.672
516.1250, 1128.721
517.3060, 944.2305
518.4860, 951.7480
519.6660, 1217.941
520.8460, 1334.299
522.0260, 1311.285
523.2060, 1427.301
524.3850, 1174.277
525.5650, 1178.629
526.7440, 1384.736
527.9230, 1341.016
529.1020, 1470.508
530.2810, 1520.504
531.4590, 1398.217
532.6380, 1228.324
533.8160, 1473.508
534.9940, 1408.117
536.1720, 1441.816
537.3500, 1414.598
538.5270, 1390.381
539.7050, 1222.160
540.8820, 1454.936
542.0590, 1562.715
543.2360, 1445.486
544.4130, 1696.244
545.5900, 1440.992
546.7660, 1781.729
547.9430, 1418.457
549.1190, 1245.307
550.2950, 1508.014
551.4710, 1204.557
552.6470, 1243.248
553.8220, 1329.930
554.9980, 1331.605
556.1730, 1335.164
557.3480, 1304.668
558.5230, 1355.424
559.6980, 1175.557
560.8730, 1312.199
562.0470, 1254.406
563.2220, 1301.727
564.3960, 1176.285
565.5700, 1287.717
566.7440, 1083.262
567.9170, 1175.904
569.0910, 1231.094
570.2640, 1182.400
571.4380, 1210.438
572.6110, 1189.137
573.7840, 1222.852
574.9570, 1161.590
576.1290, 1122.348
577.3020, 793.1250
578.4740, 904.9180
579.6460, 903.7266
580.8180, 387.5469
581.9900, 304.3809
583.1620, 56.22266
584.3330, 263.0820
585.5040, 231.0078
586.6760, 33.94922
587.8470, 41.91211
589.0180, 6.105469
590.1880, 38.11133
591.3590, 111.8887
592.5290, 91.08984
593.7000, 338.0957
594.8700, 226.2559
596.0400, 203.5137
597.2090, 46.85352
598.3790, 200.2012
599.5490, 204.6348
600.7180, 158.1602
601.8870, 22.75000
603.0560, 64.34375
604.2250, 37.96289
605.3940, 23.59180
606.5620, 13.22461
607.7300, 60.85938
608.8990, 198.5176
610.0670, 71.73828
611.2350, 144.9980
612.4020, 22.79297
613.5700, 45.58984
614.7370, 44.59766
615.9050, 72.79492
617.0720, 128.0039
618.2390, 34.77344
619.4060, 149.4395
620.5720, 218.6699
621.7390, 267.9160
622.9050, 83.17383
624.0710, 278.4512
625.2370, 223.7461
626.4030, 16.05859
627.5690, 209.3887
628.7340, 208.7383
629.9000, 348.1133
631.0650, 113.5156
632.2300, 318.9375
633.3950, 188.3828
634.5600, 275.8457
635.7240, 164.3301
636.8890, 331.8320
638.0530, 127.3613
639.2170, 265.9082
640.3810, 363.4805
641.5450, 420.0723
642.7080, 247.6855
643.8720, 368.3203
645.0350, 258.9805
646.1980, 170.6602
647.3610, 214.3633
648.5240, 476.0918
649.6870, 643.8398
650.8490, 480.6074
652.0120, 457.4004
653.1740, 597.2188
654.3360, 416.0625
655.4980, 490.9258
656.6600, 528.8125
657.8210, 840.7227
658.9830, 785.6602
660.1440, 1004.621
661.3050, 985.6074
662.4660, 1004.625
663.6270, 1053.678
664.7870, 1115.504
665.9480, 1244.520
667.1080, 1345.014
668.2680, 1613.184
669.4280, 1844.381
670.5880, 2165.607
671.7480, 2229.855
672.9070, 2490.125
674.0670, 2783.416
675.2260, 3152.727
676.3850, 3462.748
677.5440, 3784.410
678.7030, 4227.807
679.8610, 4664.223
681.0200, 5187.660
682.1780, 5598.113
683.3360, 6162.000
684.4940, 6645.086
685.6520, 7190.602
686.8090, 7708.068
687.9670, 8220.711
689.1240, 8715.305
690.2810, 9217.922
691.4380, 9658.578
692.5950, 9762.254
693.7520, 9891.980
694.9080, 9801.727
696.0650, 9918.553
697.2210, 9682.408
698.3770, 9531.738
699.5330, 9169.680
700.6880, 9012.186
701.8440, 8190.180
702.9990, 7823.195
704.1550, 7231.238
705.3100, 6920.299
706.4650, 6412.395
707.6190, 5718.543
708.7740, 5582.738
709.9290, 4849.004
711.0830, 4660.299
712.2370, 4176.615
713.3910, 3970.957
714.5450, 3494.332
715.6980, 3651.730
716.8520, 2979.156
718.0050, 2873.607
719.1580, 2334.084
720.3110, 2438.584
721.4640, 2422.111
722.6170, 1953.660
723.7700, 1783.234
724.9220, 1601.834
726.0740, 1957.457
727.2260, 1711.104
728.3780, 1711.150
729.5300, 1572.768
730.6810, 1093.490
731.8330, 1219.443
732.9840, 1241.430
734.1350, 805.4922
735.2860, 969.0254
736.4370, 1042.348
737.5880, 824.2109
738.7380, 860.8535
739.8880, 897.4004
741.0390, 529.0273
742.1890, 994.6680
743.3380, 490.6680
744.4880, 510.3652
745.6380, 291.5703
746.7870, 408.5508
747.9360, 204.0840
749.0850, 375.2969
750.2340, 282.9727
751.3830, 270.9551
752.5310, 466.9316
753.6800, 484.5762
754.8280, 516.2832
755.9760, 761.0645
757.1240, 374.7227
758.2720, 534.2012
759.4190, 119.7109
760.5670, 484.2520
761.7140, 135.8301
762.8610, 389.4395
764.0080, 563.0820
765.1550, 395.7598
766.3020, 315.4727
767.4480, 290.2168
768.5950, 286.3457
769.7410, 297.5684
770.8870, 393.6543
772.0330, 328.5352
773.1780, 365.4473
774.3240, 266.3965
775.4690, 387.3770
776.6140, 323.9922
777.7590, 537.4434
778.9040, 302.5293
780.0490, 438.6445
781.1940, 492.7949
782.3380, 300.9805
783.4820, 240.2012
784.6260, 361.4551
785.7700, 83.74219
786.9140, 265.0645
788.0580, 222.4199
789.2010, 222.8086
790.3450, 273.2324
791.4880, 137.6914
792.6310, 135.1855
793.7730, 364.7109
794.9160, 311.2715
796.0590, 418.8633
797.2010, 361.4922
798.3430, 421.1523
799.4850, 366.8477
800.6270, 310.9746
801.7690, 324.7363
802.9100, 324.7520
804.0520, 416.5840
805.1930, 446.4453
806.3340, 447.3438
807.4750, 233.2773
808.6160, 420.2441
809.7560, 620.2422
810.8970, 248.2734
812.0370, 183.3398
813.1770, 538.4961
814.3170, 502.0488
815.4570, 200.7285
816.5960, 503.9297
817.7360, 434.1602
818.8750, 410.4277
820.0140, 438.7266
821.1530, 331.0566
822.2920, 379.5508
823.4310, 474.8184
824.5690, 423.9922
825.7070, 416.4551
826.8460, 446.9512
827.9840, 443.4004
829.1220, 532.9609
830.2590, 672.0996
831.3970, 478.7266
832.5340, 478.8223
833.6710, 633.5156
834.8080, 704.2383
835.9450, 721.0996
837.0820, 735.9219
838.2190, 819.7363
839.3550, 938.5820
840.4910, 956.4551
841.6270, 1278.361
842.7630, 1201.404
843.8990, 1364.205
845.0350, 1722.631
846.1700, 1480.045
847.3060, 1604.896
848.4410, 1843.979
849.5760, 2212.092
850.7100, 2385.441
851.8450, 2165.609
852.9800, 2691.363
854.1140, 2979.590
855.2480, 3122.064
856.3820, 3646.350
857.5160, 3806.953
858.6500, 4385.293
859.7830, 4682.660
860.9170, 5198.061
862.0500, 5592.484
863.1830, 6346.938
864.3160, 6969.418
865.4480, 8077.930
866.5810, 8818.482
867.7130, 9601.059
868.8460, 11054.69
869.9780, 12449.03
871.1100, 14065.85
872.2410, 15680.75
873.3730, 18085.52
874.5050, 20084.54
875.6360, 22362.62
876.7670, 24149.79
877.8980, 26230.97
879.0290, 27636.21
880.1590, 28350.48
881.2900, 28410.69
882.4200, 28035.13
883.5500, 26508.51
884.6800, 24964.96
885.8100, 22391.44
886.9400, 19806.98
888.0690, 17128.55
889.1990, 15062.16
890.3280, 12870.80
891.4570, 10884.46
892.5860, 9014.145
893.7140, 7635.865
894.8430, 6760.613
895.9710, 5673.387
897.1000, 4866.203
898.2280, 4011.043
899.3560, 3395.914
900.4830, 2919.809
901.6110, 2769.727
902.7380, 2251.676
903.8660, 2361.672
904.9930, 1767.695
906.1200, 1402.742
907.2460, 1485.812
908.3730, 1270.910
909.5000, 1244.027
910.6260, 1226.172
911.7520, 989.3359
912.8780, 868.5273
914.0040, 767.7422
915.1290, 575.9766
916.2550, 520.7344
917.3800, 567.5273
918.5050, 400.8438
919.6300, 356.1992
920.7550, 369.5781
921.8800, 230.9805
923.0040, 171.4062
924.1290, 349.8516
925.2530, 176.3203
926.3770, 354.8125
927.5010, 207.3242
928.6250, 183.8555
929.7480, 123.4102
930.8720, 92.98438
931.9950, 133.5820
933.1180, 174.1992
934.2410, 214.8359
935.3640, 36.50391
936.4860, 40.16797
937.6090, 7.144531
938.7310, 50.55859
939.8530, 86.01172
940.9750, 100.0469
942.0970, 164.7930
943.2180, 139.5781
944.3400, 155.6719
945.4610, 107.2070
946.5820, 18.04688
947.7030, 0.9101560
948.8240, 8.742188
949.9450, 108.3164
951.0650, 16.54688
952.1860, 64.42969
953.3060, 76.32812
954.4260, 100.6953
955.5460, 42.18359
956.6650, 9.136719
957.7850, 105.1094
958.9040, 51.89062
960.0230, 60.10547
961.1420, 309.1211
962.2610, 71.84766
963.3800, 31.16797
964.4990, 118.8008
965.6170, 54.19141
966.7350, 220.8008
967.8530, 32.87891
968.9710, 158.0625
970.0890, 107.9766
971.2070, 51.05469
972.3240, 48.85547
973.4410, 46.78125
974.5580, 38.48828
975.6750, 101.6836
976.7920, 31.34375
977.9090, 99.37500
979.0250, 91.44531
980.1410, 178.5430
981.2580, 3.718750
982.3740, 93.11328
983.4890, 41.95703
984.6050, 30.18359
985.7200, 37.67188
986.8360, 2.738281
987.9510, 61.41406
989.0660, 11.30469
990.1810, 48.20312
991.2950, 10.11719
992.4100, 43.03906
993.5240, 34.77734
994.6390, 58.92578
995.7530, 97.89062
996.8660, 220.8633
997.9800, 411.8555
999.0940, 162.8594
1000.207, 176.8984
1001.320, 311.9492
1002.433, 171.0156
1003.546, 30.91016
1004.659, 284.1562
1005.772, 84.23438
1006.884, 70.67578
1007.996, 230.3828
1009.108, 95.45312
1010.220, 148.5352
1011.332, 263.6289
1012.444, 373.7344
1013.555, 392.2734
1014.666, 235.0430
1015.777, 413.2148
1016.888, 220.4102
1017.999, 149.6172
1019.110, 247.8281
1020.220, 229.0469
1021.331, 137.2773
1022.441, 148.5156
1023.551, 172.7578
1024.661, 304.0234
1025.770, 328.1055
1026.880, 302.5781
1027.989, 443.8633
1029.098, 403.1562
1030.207, 412.2148
1031.316, 331.5195
1032.425, 504.9648
1033.533, 536.2812
1034.642, 319.6484
1035.750, 596.0977
1036.858, 704.2461
1037.966, 528.5898
1039.073, 486.9375
1040.181, 477.2930
1041.288, 370.6484
1042.396, 606.0156
1043.503, 317.3828
1044.610, 577.7578
1045.716, 482.1406
1046.823, 660.5234
1047.929, 416.9492
1049.036, 591.4375
1050.142, 631.7695
1051.248, 1075.172
1052.353, 766.2539
1053.459, 814.6641
1054.564, 350.0742
1055.670, 762.4922
1056.775, 759.9062
1057.880, 632.8477
1058.985, 838.7539
1060.089, 510.1953
1061.194, 704.6367
1062.298, 644.0859
1063.402, 638.5391
1064.506, 779.9961
1065.610, 540.4570
1066.713, 535.9219
1067.817, 516.5781
1068.920, 531.8555
1070.023, 620.3672
1071.126, 708.6211
1072.229, 693.0898
1073.332, 703.5625
1074.435, 994.0352
1075.537, 667.5391
1076.639, 673.0625
1077.741, 525.5859
1078.843, 724.1523
1079.945, 403.6797
1081.046, 687.1484
1082.148, 605.2578
1083.249, 721.2734
1084.350, 567.8008
1085.451, 599.0664
1086.551, 457.8594
1087.652, 604.3906
1088.752, 643.9219
1089.853, 723.4531
1090.953, 602.7930
1092.053, 695.5781
1093.152, 456.7812
1094.252, 761.3125
1095.351, 773.9180
1096.451, 778.4492
1097.550, 601.5781
1098.649, 652.6641
1099.748, 500.7539
1100.846, 459.9844
1101.945, 492.9062
1103.043, 408.3359
1104.141, 500.8477
1105.239, 622.3945
1106.337, 598.9336
1107.434, 421.4727
1108.532, 577.0195
1109.629, 643.4531
1110.726, 427.1602
1111.823, 842.2734
1112.920, 712.4297
1114.017, 612.1797
1115.113, 467.7266
1116.210, 563.2734
1117.306, 675.6094
1118.402, 368.1602
1119.498, 484.1523
1120.593, 561.7031
1121.689, 513.0312
1122.784, 676.5859
1123.879, 515.8438
1124.974, 414.3945
1126.069, 528.9492
1127.164, 464.5117
1128.259, 580.0664
1129.353, 338.6211
1130.447, 293.1758
1131.541, 286.5352
1132.635, 224.7891
1133.729, 258.0156
1134.822, 285.1953
1135.916, 318.1523
1137.009, 420.7031
1138.102, 456.5156
1139.195, 367.8281
1140.288, 356.4492
1141.380, 69.99609
1142.473, 455.7656
1143.565, 318.3125
1144.657, 146.1328
1145.749, 309.9570
1146.841, 351.5195
1147.932, 325.5117
1149.024, 422.0547
1150.115, 374.5938
1151.206, 226.1758
1152.297, 499.9375
1153.388, 268.5781
1154.479, 397.1602
1155.569, 668.5000
1156.659, 539.0312
1157.750, 254.5508
1158.839, 318.0742
1159.929, 113.5938
1161.019, 43.89062
1162.108, 68.66797
1163.198, 1.066406
1164.287, 203.5312
1165.376, 48.99219
1166.465, 39.44922
1167.553, 94.09766
1168.642, 94.29297
1169.730, 343.6836
1170.818, 310.0703
1171.906, 225.4570
1172.994, 119.8359
1174.082, 112.2109
1175.170, 86.67578
1176.257, 156.8203
1177.344, 109.1875
1178.431, 52.55469
1179.518, 44.34375
1180.605, 12.73047
1181.691, 210.6055
1182.778, 59.05859
1183.864, 227.2305
1184.950, 181.5156
1186.036, 250.7930
1187.122, 328.0742
1188.207, 343.4609
1189.292, 354.9023
1190.378, 95.76172
1191.463, 318.8086
1192.548, 102.4336
1193.632, 388.2930
1194.717, 317.5391
1195.801, 66.51562
1196.886, 128.7578
1197.970, 40.65625
1199.054, 39.23047
1200.137, 55.46484
1201.221, 88.69141
1202.305, 180.9258
1203.388, 252.1523
1204.471, 240.7695
1205.554, 86.00000
1206.637, 220.9961
1207.719, 102.2070
1208.802, 65.41016
1209.884, 362.6055
1210.966, 153.8008
1212.048, 418.9922
1213.130, 170.1758
1214.212, 338.3789
1215.293, 286.5820
1216.374, 306.7773
1217.456, 402.9688
1218.536, 254.1875
1219.617, 304.4375
1220.698, 23.39453
1221.778, 215.7500
1222.859, 17.89844
1223.939, 98.03906
1225.019, 140.1719
1226.099, 200.3125
1227.178, 55.45312
1228.258, 23.71484
1229.337, 184.0156
1230.417, 74.96094
1231.496, 290.7305
1232.574, 275.8750
1233.653, 75.04297
1234.732, 320.2148
1235.810, 261.8164
1236.888, 357.9375
1237.966, 407.6289
1239.044, 413.3594
1240.122, 243.5430
1241.199, 300.4492
1242.277, 266.5078
1243.354, 228.8984
1244.431, 317.7656
1245.508, 173.6172
1246.585, 260.4688
1247.661, 255.1094
1248.738, 291.9531
1249.814, 237.3984
1250.890, 211.0664
1251.966, 276.1719
1253.042, 183.7305
1254.117, 443.9414
1255.193, 290.1484
1256.268, 82.35547
1257.343, 266.5469
1258.418, 84.73828
1259.493, 237.9219
1260.567, 68.90625
1261.642, 225.2148
1262.716, 202.3320
1263.790, 205.4414
1264.864, 277.5430
1265.938, 208.6484
1267.011, 48.75000
1268.085, 28.83984
1269.158, 71.94531
1270.231, 234.0391
1271.304, 5.128906
1272.377, 170.1992
1273.450, 107.5977
1274.522, 48.39062
1275.594, 86.37109
1276.666, 30.65625
1277.738, 90.27734
1278.810, 98.20703
