##NAMES=Ferberite
##RRUFFID=R050632
##IDEAL CHEMISTRY=Fe^2+^W^6+^O_4_
##LOCALITY=Chance mine, Boulder, Colorado, USA
##OWNER=RRUFF
##SOURCE=University of Arizona Mineral Museum
##DESCRIPTION=Dark brown rectangular prismatic crystals
##STATUS=The identification of this mineral has been confirmed by X-ray diffraction and chemical analysis
##URL=rruff.info/R050632
##MEASURED CHEMISTRY=Fe^2+^_1.00_WO_4_
##PIN_ID=M00360
##ORIENTATION=Laser parallel to -a* (-1 0 0). Fiducial mark perpendicular to laser is parallel to b [0 1 0]
157.4550, 0.0000000E+00
158.6810, 190.6943
159.9080, 294.8389
161.1340, 278.5176
162.3590, 13.82422
163.5850, 325.3887
164.8110, 464.3281
166.0360, 523.1455
167.2610, 362.6152
168.4860, 517.9453
169.7110, 729.6006
170.9360, 966.6230
172.1610, 932.5615
173.3850, 1014.554
174.6100, 1137.169
175.8340, 1589.924
177.0580, 1636.605
178.2820, 1688.570
179.5050, 1421.910
180.7290, 1222.829
181.9520, 1178.671
183.1760, 1114.282
184.3990, 995.8486
185.6220, 1228.784
186.8450, 1212.435
188.0670, 1436.078
189.2900, 1349.959
190.5120, 1657.276
191.7340, 1609.440
192.9560, 1865.289
194.1780, 2264.131
195.4000, 2176.152
196.6220, 2734.929
197.8430, 2962.318
199.0640, 3630.505
200.2860, 4021.516
201.5070, 4733.746
202.7270, 5185.150
203.9480, 5436.779
205.1690, 5048.359
206.3890, 4799.241
207.6090, 5001.567
208.8290, 4693.727
210.0490, 4867.031
211.2690, 3946.474
212.4890, 2843.046
213.7080, 2356.739
214.9280, 1846.538
216.1470, 1466.430
217.3660, 1262.393
218.5850, 900.4150
219.8030, 708.4902
221.0220, 584.9883
222.2400, 449.4395
223.4590, 442.0381
224.6770, 363.3330
225.8950, 341.6836
227.1120, 315.0928
228.3300, 117.5605
229.5480, 184.0859
230.7650, 270.6982
231.9820, 322.4785
233.1990, 188.4248
234.4160, 8.464844
235.6330, 165.1885
236.8490, 19.75781
238.0660, 46.82031
239.2820, 42.53711
240.4980, 86.76172
241.7140, 50.65234
242.9300, 2.424805
244.1460, 8.602539
245.3610, 165.1250
246.5770, 37.76758
247.7920, 219.3281
249.0070, 30.81641
250.2220, 127.2383
251.4370, 69.39355
252.6510, 97.93359
253.8660, 160.2344
255.0800, 163.4834
256.2940, 94.21191
257.5080, 618.9570
258.7220, 674.9072
259.9360, 594.2637
261.1490, 918.2891
262.3630, 378.1045
263.5760, 273.9385
264.7890, 273.7910
266.0020, 349.6514
267.2150, 435.5098
268.4270, 416.3828
269.6400, 531.1211
270.8520, 373.7139
272.0640, 431.2754
273.2760, 392.7520
274.4880, 436.1152
275.7000, 485.2734
276.9120, 505.2549
278.1230, 306.1533
279.3340, 245.9053
280.5450, 230.6963
281.7560, 223.5391
282.9670, 218.4307
284.1780, 272.3730
285.3880, 424.3652
286.5980, 276.4043
287.8090, 294.4932
289.0190, 670.6279
290.2290, 476.2100
291.4380, 626.0381
292.6480, 466.3125
293.8570, 660.6318
295.0670, 796.9951
296.2760, 850.4053
297.4850, 1000.856
298.6930, 950.3525
299.9020, 1043.973
301.1110, 874.4746
302.3190, 1097.098
303.5270, 1022.256
304.7350, 965.6143
305.9430, 1093.043
307.1510, 1156.602
308.3580, 1456.874
309.5660, 1486.568
310.7730, 1850.277
311.9800, 2007.985
313.1870, 2208.699
314.3940, 2630.393
315.6010, 2999.058
316.8070, 3323.666
318.0130, 3857.227
319.2200, 4522.734
320.4260, 5105.187
321.6310, 5647.586
322.8370, 6355.926
324.0430, 6888.194
325.2480, 7211.387
326.4540, 7309.499
327.6590, 7276.522
328.8640, 6949.654
330.0680, 6492.934
331.2730, 5920.082
332.4780, 5260.803
333.6820, 4687.453
334.8860, 4279.062
336.0900, 3838.613
337.2940, 3326.108
338.4980, 3037.539
339.7010, 2686.906
340.9050, 2625.230
342.1080, 2491.180
343.3110, 2271.971
344.5140, 1990.686
345.7170, 2153.209
346.9200, 1802.467
348.1220, 1817.395
349.3240, 1724.134
350.5270, 1505.744
351.7290, 1484.211
352.9310, 1334.693
354.1320, 1274.223
355.3340, 1333.779
356.5350, 1115.368
357.7370, 954.9844
358.9380, 1064.652
360.1390, 852.3486
361.3400, 755.0703
362.5400, 940.8193
363.7410, 627.5938
364.9410, 802.3916
366.1410, 861.2158
367.3410, 868.1162
368.5410, 644.0391
369.7410, 602.8740
370.9400, 626.6885
372.1400, 627.9775
373.3390, 800.4785
374.5380, 851.5020
375.7370, 818.3447
376.9360, 656.1670
378.1350, 720.4160
379.3330, 801.5908
380.5310, 741.0850
381.7300, 830.8574
382.9280, 750.1387
384.1260, 832.4014
385.3230, 1091.814
386.5210, 984.2168
387.7180, 1232.086
388.9160, 1590.454
390.1130, 1906.066
391.3100, 2257.438
392.5060, 2569.256
393.7030, 3086.668
394.9000, 3697.148
396.0960, 4331.911
397.2920, 4642.462
398.4880, 4678.359
399.6840, 4668.148
400.8800, 4295.487
402.0750, 3446.970
403.2710, 2966.468
404.4660, 2495.981
405.6610, 2046.513
406.8560, 1796.059
408.0510, 1401.620
409.2450, 1136.197
410.4400, 1022.790
411.6340, 692.3984
412.8280, 622.0244
414.0220, 497.6641
415.2160, 558.3203
416.4100, 507.9951
417.6030, 390.6865
418.7970, 385.3955
419.9900, 327.1230
421.1830, 251.8701
422.3760, 416.6377
423.5690, 303.4229
424.7610, 242.2305
425.9540, 325.0586
427.1460, 122.9053
428.3380, 274.7715
429.5300, 227.6582
430.7220, 72.56250
431.9140, 100.4863
433.1050, 276.4277
434.2970, 165.3887
435.4880, 86.36816
436.6790, 165.3643
437.8700, 73.37988
439.0610, 40.41211
440.2510, 83.46191
441.4420, 94.52832
442.6320, 167.6113
443.8220, 190.7119
445.0120, 175.7900
446.2020, 269.9639
447.3910, 148.1113
448.5810, 140.8652
449.7700, 166.0039
450.9600, 270.1426
452.1490, 106.1123
453.3370, 42.25293
454.5260, 210.5225
455.7150, 469.8789
456.9030, 302.3779
458.0910, 283.4121
459.2800, 347.8447
460.4670, 333.3838
461.6550, 321.2949
462.8430, 402.2910
464.0300, 275.9434
465.2180, 433.9062
466.4050, 496.0010
467.5920, 505.8848
468.7790, 405.3682
469.9650, 443.8672
471.1520, 585.1240
472.3380, 516.8662
473.5250, 653.2305
474.7110, 587.8506
475.8970, 530.9756
477.0820, 539.0664
478.2680, 592.1924
479.4540, 507.3193
480.6390, 749.5605
481.8240, 747.6885
483.0090, 652.6299
484.1940, 876.7607
485.3780, 854.9746
486.5630, 871.9268
487.7470, 867.0664
488.9320, 906.0127
490.1160, 973.3613
491.3000, 1023.777
492.4830, 1108.942
493.6670, 1201.413
494.8500, 1396.596
496.0340, 1179.320
497.2170, 1431.519
498.4000, 1633.102
499.5820, 1942.316
500.7650, 1818.254
501.9480, 1661.482
503.1300, 1838.720
504.3120, 1873.964
505.4940, 1826.214
506.6760, 1958.471
507.8580, 2124.735
509.0390, 2153.609
510.2210, 2176.888
511.4020, 2306.170
512.5830, 2305.450
513.7640, 2473.745
514.9450, 2759.046
516.1250, 2514.359
517.3060, 2643.685
518.4860, 2904.016
519.6660, 2996.353
520.8460, 3069.695
522.0260, 3153.072
523.2060, 3258.520
524.3850, 3172.000
525.5650, 3367.498
526.7440, 3430.014
527.9230, 3462.541
529.1020, 3245.107
530.2810, 3414.698
531.4590, 3305.311
532.6380, 3402.990
533.8160, 3059.703
534.9940, 3158.496
536.1720, 3063.320
537.3500, 2953.200
538.5270, 2840.092
539.7050, 2818.029
540.8820, 2763.029
542.0590, 2569.036
543.2360, 2351.051
544.4130, 2198.070
545.5900, 2192.092
546.7660, 2210.117
547.9430, 1907.147
549.1190, 1908.180
550.2950, 1704.218
551.4710, 1696.259
552.6470, 1501.303
553.8220, 1363.350
554.9980, 1419.402
556.1730, 945.5674
557.3480, 1161.229
558.5230, 1263.949
559.6980, 1259.798
560.8730, 828.7080
562.0470, 948.9629
563.2220, 848.2510
564.3960, 738.5215
565.5700, 936.3857
566.7440, 567.4346
567.9170, 760.4658
569.0910, 729.1514
570.2640, 800.5303
571.4380, 649.5732
572.6110, 567.3164
573.7840, 707.4463
574.9570, 724.4365
576.1290, 547.9619
577.3020, 625.8896
578.4740, 249.2705
579.6460, 271.5537
580.8180, 465.9395
581.9900, 300.6592
583.1620, 166.7012
584.3330, 181.8359
585.5040, 51.97266
586.6760, 50.11328
587.8470, 30.74609
589.0180, 23.62109
590.1880, 37.48828
591.3590, 21.59961
592.5290, 43.28320
593.7000, 17.80664
594.8700, 3.900391
596.0400, 82.00977
597.2090, 33.96289
598.3790, 59.93750
599.5490, 2.054688
600.7180, 50.95508
601.8870, 39.99414
603.0560, 7.056641
604.2250, 35.12891
605.3940, 40.22266
606.5620, 59.33789
607.7300, 72.49023
608.8990, 145.6836
610.0670, 129.9121
611.2350, 10.29492
612.4020, 149.6445
613.5700, 29.07617
614.7370, 67.52734
615.9050, 146.9844
617.0720, 75.50195
618.2390, 27.97070
619.4060, 91.44922
620.5720, 78.07227
621.7390, 34.61523
622.9050, 21.75391
624.0710, 64.23047
625.2370, 9.339844
626.4030, 21.91992
627.5690, 76.48633
628.7340, 155.8965
629.9000, 25.31055
631.0650, 129.2715
632.2300, 134.0742
633.3950, 30.57227
634.5600, 89.76172
635.7240, 51.90039
636.8890, 81.41016
638.0530, 2.722656
639.2170, 35.03516
640.3810, 89.64844
641.5450, 28.61914
642.7080, 110.8926
643.8720, 41.16992
645.0350, 389.6133
646.1980, 113.9590
647.3610, 239.4414
648.5240, 185.6738
649.6870, 129.5234
650.8490, 227.7285
652.0120, 79.06445
653.1740, 155.1055
654.3360, 186.2773
655.4980, 390.4570
656.6600, 188.6387
657.8210, 379.8262
658.9830, 313.0195
660.1440, 365.2168
661.3050, 422.4180
662.4660, 431.6270
663.6270, 493.3203
664.7870, 565.0586
665.9480, 604.2793
667.1080, 649.5078
668.2680, 744.7461
669.4280, 687.0078
670.5880, 830.2715
671.7480, 903.5527
672.9070, 1040.840
674.0670, 1060.133
675.2260, 1230.430
676.3850, 1401.730
677.5440, 1641.055
678.7030, 1721.381
679.8610, 1752.729
681.0200, 1851.082
682.1780, 1995.439
683.3360, 2193.801
684.4940, 2293.166
685.6520, 2512.562
686.8090, 2501.963
687.9670, 2478.383
689.1240, 2582.846
690.2810, 2488.311
691.4380, 2421.387
692.5950, 2154.312
693.7520, 2160.857
694.9080, 2013.426
696.0650, 1835.020
697.2210, 1924.615
698.3770, 1716.244
699.5330, 1423.875
700.6880, 1577.514
701.8440, 1349.154
702.9990, 1285.801
704.1550, 1161.465
705.3100, 985.1562
706.4650, 940.6426
707.6190, 750.5547
708.7740, 775.2793
709.9290, 769.0059
711.0830, 654.7402
712.2370, 761.4805
713.3910, 696.6543
714.5450, 541.9746
715.6980, 632.7324
716.8520, 547.4961
718.0050, 427.2637
719.1580, 385.0371
720.3110, 355.8164
721.4640, 343.6035
722.6170, 313.3965
723.7700, 226.1953
724.9220, 229.9980
726.0740, 208.6406
727.2260, 211.6172
728.3780, 221.8262
729.5300, 158.6582
730.6810, 190.4961
731.8330, 244.5117
732.9840, 350.3652
734.1350, 316.0938
735.2860, 320.7422
736.4370, 348.2559
737.5880, 253.2402
738.7380, 242.8340
739.8880, 302.3281
741.0390, 320.4570
742.1890, 256.5117
743.3380, 248.9160
744.4880, 223.0195
745.6380, 187.9961
746.7870, 294.4883
747.9360, 606.8105
749.0850, 396.4160
750.2340, 371.2754
751.3830, 154.6582
752.5310, 398.4336
753.6800, 460.9668
754.8280, 468.0078
755.9760, 556.0957
757.1240, 584.0312
758.2720, 627.1211
759.4190, 593.2168
760.5670, 616.9043
761.7140, 567.6328
762.8610, 600.7695
764.0080, 640.8359
765.1550, 606.0449
766.3020, 652.0742
767.4480, 702.5566
768.5950, 627.7656
769.7410, 786.7305
770.8870, 640.9707
772.0330, 775.9258
773.1780, 740.1953
774.3240, 709.9492
775.4690, 870.2500
776.6140, 800.1934
777.7590, 819.5293
778.9040, 659.1621
780.0490, 702.3320
781.1940, 735.9180
782.3380, 725.3184
783.4820, 723.7402
784.6260, 734.1777
785.7700, 717.6289
786.9140, 844.4961
788.0580, 711.9863
789.2010, 716.4941
790.3450, 851.0273
791.4880, 833.5703
792.6310, 765.1348
793.7730, 945.7168
794.9160, 902.3184
796.0590, 724.9395
797.2010, 749.5781
798.3430, 774.2363
799.4850, 529.9141
800.6270, 766.6113
801.7690, 793.3281
802.9100, 844.0645
804.0520, 775.8184
805.1930, 852.1758
806.3340, 841.1602
807.4750, 677.9746
808.6160, 711.2773
809.7560, 904.5449
810.8970, 1020.418
812.0370, 815.3105
813.1770, 794.2227
814.3170, 817.0977
815.4570, 727.0488
816.5960, 929.3965
817.7360, 1071.979
818.8750, 1139.988
820.0140, 1021.014
821.1530, 958.0605
822.2920, 1137.873
823.4310, 1144.961
824.5690, 1267.945
825.7070, 1372.412
826.8460, 1326.555
827.9840, 1656.166
829.1220, 1409.412
830.2590, 1726.375
831.3970, 1747.535
832.5340, 1745.500
833.6710, 1897.752
834.8080, 2245.633
835.9450, 2022.918
837.0820, 2408.221
838.2190, 2636.539
839.3550, 2731.982
840.4910, 2777.188
841.6270, 3051.035
842.7630, 3138.424
843.8990, 3588.828
845.0350, 3881.617
846.1700, 4093.057
847.3060, 4555.510
848.4410, 5044.982
849.5760, 5274.475
850.7100, 5809.979
851.8450, 6256.502
852.9800, 6898.043
854.1140, 7602.600
855.2480, 8351.176
856.3820, 9149.770
857.5160, 10062.38
858.6500, 11107.00
859.7830, 12552.65
860.9170, 14226.31
862.0500, 15911.98
863.1830, 17781.68
864.3160, 20101.40
865.4480, 22650.15
866.5810, 25474.92
867.7130, 29006.70
868.8460, 32506.52
869.9780, 36154.36
871.1100, 39639.20
872.2410, 42292.11
873.3730, 44102.02
874.5050, 44875.98
875.6360, 44220.95
876.7670, 42368.98
877.8980, 39297.01
879.0290, 35630.08
880.1590, 31294.18
881.2900, 27589.30
882.4200, 23894.47
883.5500, 20583.67
884.6800, 17637.93
885.8100, 15048.24
886.9400, 13135.58
888.0690, 12117.98
889.1990, 10461.65
890.3280, 9015.770
891.4570, 8427.363
892.5860, 6378.887
893.7140, 5492.430
894.8430, 4732.988
895.9710, 4237.588
897.1000, 3758.207
898.2280, 3274.865
899.3560, 2917.863
900.4830, 2530.246
901.6110, 2287.975
902.7380, 2039.721
903.8660, 1829.486
904.9930, 1612.830
906.1200, 1370.109
907.2460, 1270.965
908.3730, 952.8457
909.5000, 898.7461
910.6260, 1056.680
911.7520, 757.6309
912.8780, 732.6152
914.0040, 696.6191
915.1290, 632.6641
916.2550, 443.7246
917.3800, 548.8164
918.5050, 249.9219
919.6300, 292.0469
920.7550, 503.1855
921.8800, 199.3438
923.0040, 282.5918
924.1290, 244.8574
925.2530, 35.15039
926.3770, 292.4824
927.5010, 141.8457
928.6250, 156.2266
929.7480, 100.6582
930.8720, 151.7207
931.9950, 117.2109
933.1180, 234.0645
934.2410, 203.5645
935.3640, 48.09375
936.4860, 331.6406
937.6090, 235.2051
938.7310, 228.7852
939.8530, 33.62305
940.9750, 64.02148
942.0970, 78.56445
943.2180, 49.83203
944.3400, 7.240234
945.4610, 163.3633
946.5820, 12.98047
947.7030, 172.6152
948.8240, 74.73828
949.9450, 106.8887
951.0650, 63.44141
952.1860, 8.791016
953.3060, 64.86914
954.4260, 89.54492
955.5460, 84.85156
956.6650, 104.0645
957.7850, 14.60156
958.9040, 69.71875
960.0230, 147.0586
961.1420, 18.53906
962.2610, 96.84570
963.3800, 15.26562
964.4990, 135.6836
965.6170, 87.15430
966.7350, 64.65820
967.8530, 96.81836
968.9710, 97.69141
970.0890, 211.7637
971.2070, 134.2305
972.3240, 173.7109
973.4410, 7.205078
974.5580, 28.29102
975.6750, 93.79102
976.7920, 172.6738
977.9090, 106.1523
979.0250, 55.35742
980.1410, 230.1152
981.2580, 617.6094
982.3740, 99.11523
983.4890, 253.6367
984.6050, 194.1719
985.7200, 69.71875
986.8360, 137.2812
987.9510, 132.8535
989.0660, 273.4395
990.1810, 383.0391
991.2950, 140.6484
992.4100, 277.2734
993.5240, 456.9102
994.6390, 85.55859
995.7530, 353.2188
996.8660, 109.8926
997.9800, 348.5781
999.0940, 330.2773
1000.207, 365.9863
1001.320, 254.7109
1002.433, 373.4453
1003.546, 256.1895
1004.659, 411.9453
1005.772, 388.7148
1006.884, 374.4961
1007.996, 370.2871
1009.108, 338.0918
1010.220, 188.9043
1011.332, 317.7305
1012.444, 277.5664
1013.555, 319.4160
1014.666, 526.2773
1015.777, 449.1484
1016.888, 549.0293
1017.999, 434.9219
1019.110, 541.8262
1020.220, 441.7383
1021.331, 485.6582
1022.441, 518.5918
1023.551, 522.5332
1024.661, 553.4824
1025.770, 526.4434
1026.880, 485.2715
1027.989, 440.3906
1029.098, 351.3770
1030.207, 323.3750
1031.316, 245.0176
1032.425, 398.0293
1033.533, 316.0605
1034.642, 414.0977
1035.750, 170.1426
1036.858, 298.5430
1037.966, 410.8730
1039.073, 394.9434
1040.181, 494.0195
1041.288, 473.1016
1042.396, 332.1934
1043.503, 446.2930
1044.610, 395.3984
1045.716, 446.6914
1046.823, 468.8125
1047.929, 469.3867
1049.036, 632.0723
1050.142, 506.5820
1051.248, 477.7363
1052.353, 488.8887
1053.459, 627.0488
1054.564, 514.2148
1055.670, 758.9512
1056.775, 479.1270
1057.880, 571.1465
1058.985, 507.3320
1060.089, 596.5156
1061.194, 551.7148
1062.298, 487.3789
1063.402, 819.4062
1064.506, 710.6152
1065.610, 614.8320
1066.713, 592.0527
1067.817, 872.8066
1068.920, 610.0352
1070.023, 784.2656
1071.126, 610.5020
1072.229, 746.7402
1073.332, 552.8574
1074.435, 690.9121
1075.537, 664.1602
1076.639, 619.9453
1077.741, 521.7832
1078.843, 608.0410
1079.945, 589.3047
1081.046, 647.5723
1082.148, 759.8965
1083.249, 633.4316
1084.350, 657.3301
1085.451, 633.0176
1086.551, 395.3008
1087.652, 770.5879
1088.752, 676.8809
1089.853, 616.4277
1090.953, 496.7266
1092.053, 562.1465
1093.152, 501.1074
1094.252, 471.4180
1095.351, 459.2832
1096.451, 445.5352
1097.550, 451.2012
1098.649, 417.7168
1099.748, 475.0781
1100.846, 427.4160
1101.945, 410.1465
1103.043, 544.4961
1104.141, 547.8516
1105.239, 449.2129
1106.337, 362.4707
1107.434, 352.9961
1108.532, 409.8965
1109.629, 383.2793
1110.726, 379.6680
1111.823, 503.6992
1112.920, 245.4102
1114.017, 394.8164
1115.113, 500.9551
1116.210, 593.3750
1117.306, 822.8047
1118.402, 1199.236
1119.498, 1299.676
1120.593, 1268.121
1121.689, 1285.574
1122.784, 1319.031
1123.879, 1379.494
1124.974, 1386.965
1126.069, 1192.439
1127.164, 911.9238
1128.259, 785.4102
1129.353, 580.9062
1130.447, 471.4082
1131.541, 363.9141
1132.635, 365.4297
1133.729, 131.9473
1134.822, 141.4707
1135.916, 176.0020
1137.009, 332.5391
1138.102, 189.0801
1139.195, 220.6270
1140.288, 202.1816
1141.380, 204.7422
1142.473, 446.3086
1143.565, 63.88086
1144.657, 386.8926
1145.749, 169.4766
1146.841, 41.14062
1147.932, 88.73438
1149.024, 65.33398
1150.115, 234.9375
1151.206, 254.5469
1152.297, 109.1621
1153.388, 163.1738
1154.479, 111.6328
1155.569, 79.17383
1156.659, 64.81055
1157.750, 71.45117
1158.839, 40.09766
1159.929, 26.75000
1161.019, 28.66797
1162.108, 58.92969
1163.198, 22.70508
1164.287, 58.97266
1165.376, 45.61914
1166.465, 138.2695
1167.553, 6.076172
1168.642, 65.41602
1169.730, 11.23242
1170.818, 79.89258
1171.906, 71.55859
1172.994, 37.23047
1174.082, 55.90625
1175.170, 81.58398
1176.257, 50.73047
1177.344, 142.9316
1178.431, 156.5977
1179.518, 88.26758
1180.605, 37.05859
1181.691, 4.595703
1182.778, 185.2539
1183.864, 36.91602
1184.950, 31.58398
1186.036, 91.74609
1187.122, 100.8789
1188.207, 45.49023
1189.292, 91.11523
1190.378, 48.26562
1191.463, 7.326172
1192.548, 138.0781
1193.632, 11.55078
1194.717, 148.9688
1195.801, 242.4980
1196.886, 49.02734
1197.970, 58.43750
1199.054, 46.07031
1200.137, 73.58203
1201.221, 11.09766
1202.305, 19.63477
1203.388, 23.83789
1204.471, 59.68945
1205.554, 68.23633
1206.637, 63.78516
1207.719, 192.3496
1208.802, 125.9219
1209.884, 128.4941
1210.966, 100.0723
1212.048, 84.65430
1213.130, 104.7422
1214.212, 129.8125
1215.293, 173.3984
1216.374, 14.99414
1217.456, 304.5977
1218.536, 112.2070
1219.617, 218.8203
1220.698, 181.4629
1221.778, 66.10938
1222.859, 22.77539
1223.939, 94.48438
1225.019, 109.1953
1226.099, 80.49805
1227.178, 48.69141
1228.258, 62.49023
1229.337, 74.31055
1230.417, 133.1562
1231.496, 19.00781
1232.574, 52.35156
1233.653, 306.7793
1234.732, 81.67188
1235.810, 127.5684
1236.888, 288.4707
1237.966, 166.3867
1239.044, 150.3320
1240.122, 195.2793
1241.199, 118.2812
1242.277, 24.69336
1243.354, 50.32031
1244.431, 14.66211
1245.508, 127.3887
1246.585, 161.4473
1247.661, 184.5195
1248.738, 139.6211
1249.814, 182.5293
1250.890, 227.8867
1251.966, 196.0547
1253.042, 233.2246
1254.117, 199.4023
1255.193, 103.5840
1256.268, 122.1543
1257.343, 23.96680
1258.418, 98.16602
1259.493, 133.3672
1260.567, 166.4395
1261.642, 280.7969
1262.716, 192.0273
1263.790, 247.2598
1264.864, 250.4961
1265.938, 103.7363
1267.011, 110.9805
1268.085, 98.22852
1269.158, 74.58984
1270.231, 109.8418
1271.304, 311.0977
1272.377, 250.3574
1273.450, 8.380859
1274.522, 215.8789
1275.594, 3.142578
1276.666, 241.4062
1277.738, 168.6719
1278.810, 38.94141
1279.882, 200.2148
1280.953, 293.4883
1282.025, 187.7637
1283.096, 1.042969
1284.167, 292.3203
1285.238, 202.6016
1286.308, 114.0918
1287.379, 156.3691
1288.449, 340.6465
1289.519, 232.9473
1290.589, 350.2246
1291.659, 238.8633
1292.729, 26.65234
1293.798, 100.6035
1294.868, 152.8594
1295.937, 205.1133
1297.006, 395.7480
1298.075, 341.9941
1299.143, 223.2402
1300.212, 261.4863
1301.280, 75.79492
1302.348, 518.2598
1303.416, 416.4961
1304.484, 316.9805
1305.552, 272.0273
1306.620, 232.2520
1307.687, 137.4707
1308.754, 269.6836
1309.821, 179.5234
1310.888, 202.7207
1311.955, 153.0645
1313.021, 221.2598
1314.088, 315.5352
1315.154, 209.8691
1316.220, 199.8438
1317.286, 132.8613
1318.352, 53.72070
1319.417, 163.9297
1320.483, 170.0801
1321.548, 256.7598
1322.613, 167.0762
1323.678, 225.0918
1324.743, 117.2344
1325.807, 340.4453
1326.872, 326.0684
1327.936, 191.2246
1329.000, 266.3887
1330.064, 13.68750
