##NAMES=Ferberite
##RRUFFID=R040044
##IDEAL CHEMISTRY=Fe^2+^W^6+^O_4_
##LOCALITY=Chocote, Bolivia
##OWNER=RRUFF
##SOURCE=University of Arizona Mineral Museum
##DESCRIPTION=Black tabular single crystal
##STATUS=The identification of this mineral has been confirmed by X-ray diffraction and chemical analysis
##URL=rruff.info/R040044
##MEASURED CHEMISTRY=(Fe_0.82_Mn_0.08_Mg_0.07_Pb_0.03_)_Î£=1_W_1.00_O_4_
##PIN_ID=M00158
##ORIENTATION=Laser parallel to b* (0 1 0). Fiducial mark perpendicular to laser is parallel to c [0 0 1]
165.544, 0.000
166.926, 0.057
168.308, 14.344
169.689, 136.525
171.070, 224.529
172.452, 243.953
173.833, 195.895
175.213, 440.738
176.594, 7.859
177.974, 291.115
179.354, 52.508
180.734, 59.889
182.114, 86.711
183.493, 152.801
184.872, 217.342
186.251, 189.699
187.630, 200.543
189.008, 262.387
190.387, 201.137
191.765, 211.451
193.143, 270.729
194.520, 408.428
195.898, 551.371
197.275, 571.910
198.652, 614.281
200.029, 678.510
201.405, 818.518
202.782, 853.105
204.158, 753.270
205.534, 942.178
206.909, 987.230
208.285, 944.680
209.660, 780.785
211.035, 370.145
212.410, 470.086
213.784, 155.461
215.159, 98.699
216.533, 210.393
217.907, 212.203
219.281, 300.025
220.654, 136.039
222.027, 27.822
223.400, 134.709
224.773, 113.715
226.146, 115.416
227.518, 39.447
228.891, 10.479
230.263, 11.766
231.634, 94.166
233.006, 30.838
234.377, 115.535
235.748, 72.158
237.119, 94.080
238.490, 189.051
239.860, 217.709
241.231, 251.709
242.601, 248.664
243.970, 278.914
245.340, 214.668
246.709, 160.619
248.079, 182.672
249.448, 114.666
250.816, 154.453
252.185, 57.504
253.553, 110.539
254.921, 240.646
256.289, 140.410
257.657, 155.346
259.024, 180.625
260.391, 200.410
261.758, 207.781
263.125, 232.332
264.492, 265.277
265.858, 252.984
267.224, 282.938
268.590, 334.703
269.956, 427.621
271.321, 329.914
272.687, 451.453
274.052, 409.705
275.416, 380.555
276.781, 377.301
278.146, 293.951
279.510, 300.475
280.874, 302.848
282.237, 201.092
283.601, 149.207
284.964, 117.205
286.327, 17.104
287.690, 17.900
289.053, 132.586
290.416, 126.160
291.778, 71.607
293.140, 119.953
294.502, 40.822
295.863, 17.986
297.225, 44.582
298.586, 57.879
299.947, 81.090
301.308, 40.496
302.668, 56.408
304.029, 60.488
305.389, 62.975
306.749, 48.271
308.108, 11.629
309.468, 46.820
310.827, 20.801
312.186, 144.717
313.545, 97.332
314.903, 19.812
316.262, 59.027
317.620, 174.904
318.978, 100.037
320.336, 130.787
321.693, 309.646
323.051, 335.697
324.408, 362.879
325.765, 295.248
327.121, 353.348
328.478, 379.246
329.834, 364.820
331.190, 437.900
332.546, 463.168
333.902, 469.443
335.257, 542.180
336.612, 458.789
337.967, 484.834
339.322, 416.502
340.677, 416.426
342.031, 425.379
343.385, 407.611
344.739, 452.615
346.093, 433.479
347.446, 412.326
348.799, 458.156
350.153, 344.600
351.505, 523.820
352.858, 710.035
354.210, 414.662
355.563, 330.055
356.915, 346.428
358.267, 390.643
359.618, 395.623
360.969, 277.303
362.321, 445.699
363.672, 414.848
365.022, 533.754
366.373, 345.465
367.723, 355.002
369.073, 502.365
370.423, 388.555
371.773, 411.564
373.122, 418.383
374.471, 547.770
375.821, 440.301
377.169, 543.451
378.518, 385.996
379.866, 451.164
381.215, 431.234
382.563, 467.576
383.910, 510.266
385.258, 622.104
386.605, 626.326
387.952, 712.855
389.299, 842.025
390.646, 796.738
391.992, 1017.713
393.339, 1088.465
394.685, 1374.244
396.031, 1746.701
397.376, 1728.180
398.722, 2097.762
400.067, 2095.379
401.412, 2176.738
402.757, 2300.270
404.101, 2259.951
405.446, 2127.559
406.790, 1901.246
408.134, 1822.525
409.478, 1599.305
410.821, 1229.238
412.165, 999.477
413.508, 843.475
414.851, 798.797
416.193, 680.912
417.536, 572.320
418.878, 492.857
420.220, 414.369
421.562, 279.061
422.904, 446.887
424.245, 382.736
425.586, 398.740
426.927, 320.840
428.268, 287.820
429.609, 260.021
430.949, 240.297
432.289, 234.971
433.629, 255.150
434.969, 201.801
436.309, 237.770
437.648, 296.957
438.987, 217.578
440.326, 263.455
441.665, 126.301
443.003, 247.471
444.342, 212.592
445.680, 122.434
447.018, 225.951
448.355, 224.174
449.693, 100.305
451.030, 86.092
452.367, 104.209
453.704, 71.078
455.041, 127.639
456.377, 90.820
457.713, 160.955
459.049, 199.348
460.385, 215.928
461.721, 147.596
463.056, 101.941
464.391, 116.652
465.726, 99.705
467.061, 124.830
468.395, 119.576
469.730, 185.729
471.064, 173.258
472.398, 158.627
473.731, 50.213
475.065, 62.893
476.398, 155.146
477.731, 85.832
479.064, 160.141
480.397, 142.721
481.729, 211.613
483.062, 160.467
484.394, 183.398
485.725, 154.420
487.057, 218.137
488.389, 140.072
489.720, 217.096
491.051, 193.980
492.382, 314.098
493.712, 248.248
495.043, 271.357
496.373, 201.461
497.703, 248.391
499.032, 295.365
500.362, 381.994
501.691, 383.572
503.020, 370.479
504.349, 378.555
505.678, 311.115
507.007, 294.545
508.335, 327.830
509.663, 393.258
510.991, 347.156
512.319, 373.592
513.646, 349.979
514.973, 345.285
516.300, 304.674
517.627, 355.346
518.954, 354.158
520.280, 395.947
521.607, 419.201
522.933, 440.121
524.259, 425.871
525.584, 458.855
526.910, 439.244
528.235, 446.635
529.560, 468.504
530.885, 537.969
532.209, 415.498
533.534, 550.025
534.858, 408.748
536.182, 440.309
537.506, 461.969
538.829, 421.258
540.152, 474.795
541.476, 497.227
542.799, 398.775
544.121, 464.295
545.444, 318.797
546.766, 349.275
548.088, 400.729
549.410, 529.160
550.732, 427.574
552.053, 246.975
553.375, 321.367
554.696, 261.744
556.017, 354.105
557.337, 228.449
558.658, 304.779
559.978, 271.098
561.298, 334.398
562.618, 265.684
563.938, 228.949
565.257, 176.199
566.576, 121.430
567.895, 251.646
569.214, 288.850
570.533, 163.035
571.851, 43.213
573.170, 139.371
574.488, 179.525
575.805, 69.666
577.123, 73.791
578.440, 209.904
579.758, 133.885
581.075, 211.705
582.391, 219.670
583.708, 113.688
585.024, 329.732
586.341, 70.520
587.657, 53.012
588.972, 82.420
590.288, 59.736
591.603, 159.025
592.918, 9.605
594.233, 63.506
595.548, 21.762
596.863, 17.746
598.177, 47.379
599.491, 104.691
600.805, 18.621
602.119, 59.412
603.432, 53.592
604.746, 56.170
606.059, 56.766
607.372, 15.082
608.685, 19.203
609.997, 8.627
611.309, 26.703
612.621, 36.422
613.933, 53.078
615.245, 11.229
616.557, 7.443
617.868, 91.516
619.179, 115.541
620.490, 4.941
621.801, 11.342
623.111, 25.777
624.421, 40.068
625.731, 76.328
627.041, 28.223
628.351, 21.904
629.660, 53.943
630.970, 32.248
632.279, 135.344
633.588, 179.250
634.896, 54.947
636.205, 110.344
637.513, 26.834
638.821, 68.875
640.129, 68.883
641.437, 97.682
642.744, 66.582
644.051, 134.367
645.358, 95.463
646.665, 91.178
647.972, 59.484
649.278, 94.453
650.584, 101.803
651.890, 194.012
653.196, 225.320
654.502, 219.344
655.807, 225.570
657.113, 206.895
658.418, 277.217
659.722, 215.539
661.027, 203.855
662.331, 335.172
663.636, 441.486
664.940, 315.801
666.244, 461.113
667.547, 442.426
668.851, 620.740
670.154, 499.051
671.457, 721.365
672.760, 698.678
674.062, 794.994
675.365, 908.314
676.667, 1008.635
677.969, 1121.961
679.271, 1200.291
680.572, 1355.621
681.874, 1574.959
683.175, 1570.309
684.476, 1720.664
685.777, 1953.027
687.077, 1908.393
688.378, 2071.764
689.678, 2152.139
690.978, 2244.521
692.278, 2067.906
693.577, 2287.297
694.877, 2050.691
696.176, 2123.092
697.475, 2085.500
698.774, 1984.916
700.072, 1867.342
701.371, 1709.775
702.669, 1547.215
703.967, 1522.660
705.265, 1514.113
706.562, 1408.576
707.860, 1107.043
709.157, 1202.520
710.454, 964.002
711.751, 939.496
713.047, 709.994
714.344, 778.504
715.640, 614.020
716.936, 475.545
718.232, 643.082
719.527, 565.627
720.823, 418.182
722.118, 371.746
723.413, 208.301
724.708, 278.885
726.002, 262.480
727.297, 86.088
728.591, 259.355
729.885, 180.984
731.179, 78.623
732.472, 129.127
733.766, 169.670
735.059, 47.344
736.352, 104.799
737.645, 206.729
738.937, 102.441
740.230, 10.166
741.522, 13.904
742.814, 99.688
744.106, 185.354
745.397, 147.137
746.689, 110.889
747.980, 74.709
749.271, 43.543
750.562, 84.396
751.853, 10.832
753.143, 113.334
754.433, 136.219
755.723, 107.141
757.013, 124.740
758.303, 65.889
759.592, 1.127
760.881, 121.883
762.170, 14.623
763.459, 91.998
764.748, 52.133
766.036, 266.348
767.325, 80.381
768.613, 34.352
769.901, 108.508
771.188, 28.748
772.476, 21.072
773.763, 78.873
775.050, 683.234
776.337, 582.361
777.624, 581.287
778.910, 82.584
780.196, 61.926
781.482, 70.117
782.768, 134.512
784.054, 118.053
785.339, 145.154
786.625, 155.557
787.910, 137.051
789.195, 148.578
790.479, 86.523
791.764, 1.898
793.048, 32.730
794.332, 35.361
795.616, 120.014
796.900, 189.693
798.183, 41.402
799.467, 30.135
800.750, 144.895
802.033, 61.322
803.316, 207.477
804.598, 177.303
805.880, 128.152
807.163, 233.027
808.445, 149.928
809.726, 156.852
811.008, 160.805
812.289, 181.781
813.570, 137.785
814.851, 135.812
816.132, 221.869
817.413, 173.949
818.693, 372.059
819.973, 331.191
821.253, 352.352
822.533, 371.539
823.813, 333.752
825.092, 248.990
826.371, 464.258
827.650, 277.551
828.929, 585.879
830.208, 563.258
831.486, 596.631
832.764, 550.033
834.042, 657.463
835.320, 579.918
836.598, 747.062
837.875, 856.988
839.152, 771.527
840.429, 1143.096
841.706, 984.889
842.983, 1095.516
844.259, 1332.166
845.536, 1317.848
846.812, 1474.555
848.088, 1786.293
849.363, 1904.072
850.639, 2011.887
851.914, 2162.748
853.189, 2488.959
854.464, 2809.885
855.739, 3090.842
857.013, 3391.830
858.288, 3937.846
859.562, 4275.891
860.836, 5034.020
862.110, 5445.125
863.383, 6247.258
864.656, 6875.418
865.930, 7975.629
867.203, 8915.871
868.475, 9878.156
869.748, 11002.473
871.020, 12382.816
872.292, 13558.195
873.564, 14657.602
874.836, 15861.039
876.108, 16377.506
877.379, 17329.012
878.650, 17424.555
879.922, 17460.121
881.192, 16944.721
882.463, 16345.354
883.733, 15205.020
885.004, 13994.719
886.274, 13024.445
887.544, 12080.211
888.813, 10585.008
890.083, 9672.832
891.352, 8734.688
892.621, 7690.586
893.890, 6890.516
895.159, 6047.477
896.427, 5376.516
897.695, 4764.014
898.964, 4250.721
900.232, 3792.883
901.499, 3465.088
902.767, 3204.332
904.034, 2648.609
905.301, 2533.918
906.568, 2243.285
907.835, 2112.682
909.102, 1717.115
910.368, 1692.588
911.634, 1686.115
912.900, 1334.645
914.166, 1349.240
915.432, 1207.619
916.697, 1054.299
917.962, 1003.635
919.227, 948.406
920.492, 794.213
921.757, 832.062
923.021, 627.945
924.285, 708.273
925.550, 665.227
926.813, 617.240
928.077, 704.320
929.341, 489.436
930.604, 475.584
931.867, 386.768
933.130, 553.980
934.393, 496.246
935.655, 386.543
936.918, 554.879
938.180, 345.246
939.442, 374.654
940.703, 416.092
941.965, 271.562
943.226, 210.078
944.488, 155.604
945.749, 392.188
947.009, 256.803
948.270, 371.445
949.530, 205.119
950.791, 288.824
952.051, 274.555
953.311, 153.318
954.570, 239.848
955.830, 322.668
957.089, 305.521
958.348, 268.404
959.607, 298.316
960.866, 264.777
962.124, 199.227
963.383, 234.225
964.641, 192.252
965.899, 173.311
967.156, 210.398
968.414, 165.516
969.671, 152.494
970.928, 127.752
972.185, 96.045
973.442, 60.281
974.699, 43.674
975.955, 28.834
977.211, 9.150
978.468, 6.494
979.723, 1.066
980.979, 3.363
982.234, 5.693
983.490, 4.148
984.745, 11.629
986.000, 32.133
987.254, 104.336
988.509, 28.801
989.763, 114.754
991.017, 2.334
992.271, 17.059
993.525, 89.568
994.779, 24.229
996.032, 58.916
997.285, 141.629
998.538, 11.377
999.791, 58.947
1001.044, 61.781
1002.296, 91.020
1003.548, 60.506
1004.800, 90.461
1006.052, 69.998
1007.304, 5.914
1008.555, 83.855
1009.807, 68.822
1011.058, 5.189
1012.309, 192.842
1013.559, 136.924
1014.810, 211.008
1016.060, 129.145
1017.310, 123.291
1018.560, 97.115
1019.810, 225.330
1021.060, 251.598
1022.309, 238.902
1023.558, 323.256
1024.807, 162.633
1026.056, 180.047
1027.305, 122.213
1028.553, 292.654
1029.801, 137.154
1031.049, 261.703
1032.297, 115.301
1033.545, 210.576
1034.793, 27.223
1036.040, 243.885
1037.287, 226.666
1038.534, 161.375
1039.781, 289.146
1041.027, 126.910
1042.274, 196.350
1043.520, 264.152
1044.766, 178.977
1046.012, 126.631
1047.257, 180.996
1048.503, 225.896
1049.748, 305.691
1050.993, 207.418
1052.238, 296.363
1053.483, 298.434
1054.727, 379.406
1055.971, 358.127
1057.216, 350.125
1058.459, 335.727
1059.703, 260.764
1060.947, 245.875
1062.190, 352.934
1063.433, 245.949
1064.676, 273.039
1065.919, 207.143
1067.162, 349.420
1068.404, 139.594
1069.646, 241.951
1070.888, 384.113
1072.130, 261.436
1073.372, 437.615
1074.613, 341.818
1075.855, 443.158
1077.096, 316.365
1078.337, 456.576
1079.578, 305.797
1080.818, 359.639
1082.059, 291.861
1083.299, 441.094
1084.539, 337.328
1085.779, 283.568
1087.018, 246.812
1088.258, 213.773
1089.497, 250.314
1090.736, 249.678
1091.975, 180.078
1093.213, 301.338
1094.452, 161.600
1095.690, 234.865
1096.928, 228.129
1098.166, 150.396
1099.404, 179.883
1100.642, 139.152
1101.879, 242.422
1103.116, 155.693
1104.353, 228.336
1105.590, 115.611
1106.827, 240.668
1108.063, 79.064
1109.299, 157.355
1110.536, 241.629
1111.771, 185.936
1113.007, 333.590
1114.243, 296.764
1115.478, 230.211
1116.713, 237.738
1117.948, 212.359
1119.183, 80.223
1120.418, 235.666
1121.652, 538.262
1122.886, 483.574
1124.120, 460.117
1125.354, 299.480
1126.588, 274.920
1127.821, 174.139
1129.055, 71.725
1130.288, 109.082
1131.521, 142.527
1132.753, 19.717
1133.986, 115.898
1135.218, 207.070
1136.450, 40.805
1137.682, 71.545
1138.914, 40.770
1140.146, 82.928
1141.377, 79.199
1142.609, 97.594
1143.840, 61.289
1145.071, 104.693
1146.301, 30.340
1147.532, 54.494
1148.762, 38.980
1149.992, 64.414
1151.222, 8.623
1152.452, 19.576
1153.682, 9.340
1154.911, 53.521
1156.140, 120.721
1157.369, 363.482
1158.598, 386.848
1159.827, 233.691
1161.055, 9.045
1162.284, 83.680
1163.512, 66.496
1164.740, 86.857
1165.967, 58.512
1167.195, 118.334
1168.422, 71.936
1169.650, 23.211
1170.877, 125.498
1172.103, 77.570
1173.330, 19.750
1174.557, 16.086
1175.783, 108.027
1177.009, 258.617
1178.235, 269.406
1179.461, 47.043
1180.686, 12.854
1181.912, 98.744
1183.137, 72.943
1184.362, 47.352
1185.587, 84.668
1186.811, 68.002
1188.036, 136.906
1189.260, 3.414
1190.484, 122.082
1191.708, 150.814
1192.932, 44.703
1194.155, 22.713
1195.378, 225.305
1196.602, 10.264
1197.825, 8.301
1199.047, 189.623
1200.270, 90.871
1201.492, 204.072
1202.715, 4.758
1203.937, 248.979
1205.159, 46.400
1206.380, 153.684
1207.602, 120.418
1208.823, 155.766
1210.044, 38.553
1211.265, 172.561
1212.486, 269.566
1213.707, 11.793
1214.927, 144.396
1216.147, 109.197
1217.367, 208.744
1218.587, 126.301
1219.807, 239.900
1221.027, 163.619
1222.246, 135.250
1223.465, 219.797
1224.684, 226.186
1225.903, 175.375
1227.121, 73.543
1228.340, 197.688
1229.558, 300.811
1230.776, 190.096
1231.994, 199.354
1233.212, 354.846
1234.429, 224.879
1235.646, 244.893
1236.864, 170.879
1238.081, 166.049
1239.297, 259.982
1240.514, 425.893
1241.730, 304.773
1242.947, 344.625
1244.163, 248.449
1245.378, 160.246
1246.594, 251.016
1247.810, 228.760
1249.025, 269.477
1250.240, 133.164
1251.455, 251.826
1252.670, 94.457
1253.885, 198.062
1255.099, 225.922
1256.313, 345.455
1257.527, 224.949
1258.741, 143.396
1259.955, 149.943
1261.168, 109.936
1262.382, 178.195
1263.595, 157.482
1264.808, 124.717
1266.021, 201.891
1267.233, 165.994
1268.446, 233.990
1269.658, 179.904
1270.870, 222.777
1272.082, 204.898
1273.294, 289.217
1274.505, 167.971
1275.716, 216.502
1276.928, 202.090
1278.139, 306.500
1279.349, 354.855
1280.560, 327.479
1281.770, 211.367
1282.981, 292.551
1284.191, 249.693
1285.401, 263.795
1286.610, 302.828
1287.820, 98.816
1289.029, 111.740
1290.239, 199.604
1291.448, 43.396
1292.656, 252.135
1293.865, 164.361
1295.073, 44.969
1296.282, 412.152
1297.490, 167.082
1298.698, 192.490
1299.906, 111.305
1301.113, 193.715
1302.320, 118.074
1303.528, 158.387
1304.735, 2.648
1305.942, 77.848
1307.148, 63.963
1308.355, 56.049
1309.561, 33.055
1310.767, 58.016
1311.973, 18.730
1313.179, 46.904
1314.384, 10.168
1315.590, 42.504
1316.795, 76.080
1318.000, 145.604
1319.205, 145.061
1320.410, 145.730
1321.614, 97.906
1322.819, 53.629
1324.023, 14.570
1325.227, 177.693
1326.431, 40.893
1327.634, 120.125
1328.838, 48.096
1330.041, 106.914
1331.244, 48.777
1332.447, 4.551
1333.650, 206.299
1334.852, 74.344
1336.055, 68.998
1337.257, 188.598
1338.459, 16.338
1339.661, 21.662
1340.862, 156.771
1342.064, 132.283
1343.265, 154.838
1344.466, 165.143
1345.667, 169.301
1346.868, 169.527
1348.068, 278.977
1349.269, 15.129
1350.469, 54.646
1351.669, 234.711
1352.869, 115.838
1354.069, 206.830
1355.268, 20.850
1356.468, 143.775
1357.667, 46.676
1358.866, 76.385
1360.065, 21.225
1361.263, 209.203
1362.462, 198.980
1363.660, 180.512
1364.858, 145.924
1366.056, 160.395
1367.254, 176.971
1368.451, 209.855
1369.649, 352.324
1370.846, 802.744
1372.043, 528.328
1373.240, 531.318
1374.436, 212.408
1375.633, 215.609
1376.829, 154.760
1378.025, 272.615
1379.221, 303.654
1380.417, 326.229
1381.613, 211.131
1382.808, 300.975
1384.003, 324.293
1385.199, 263.768
1386.393, 326.705
1387.588, 445.369
1388.783, 373.414
1389.977, 297.377
1391.171, 264.549
1392.365, 400.232
1393.559, 402.244
1394.753, 298.514
1395.946, 461.443
1397.140, 287.480
1398.333, 196.027
1399.526, 308.334
1400.719, 367.768
1401.911, 400.816
1403.104, 231.154
1404.296, 173.266
1405.488, 223.395
1406.680, 274.686
1407.872, 433.516
1409.063, 368.342
1410.255, 286.441
1411.446, 443.580
1412.637, 389.420
1413.828, 403.455
1415.018, 253.812
1416.209, 302.992
1417.399, 144.441
1418.589, 354.947
1419.779, 151.045
1420.969, 291.535
1422.159, 360.277
1423.348, 241.488
1424.537, 395.807
1425.726, 318.510
1426.915, 214.656
1428.104, 280.453
1429.293, 288.004
1430.481, 199.740
1431.669, 307.912
1432.857, 283.699
1434.045, 182.730
1435.233, 189.729
1436.420, 56.943
1437.608, 189.055
1438.795, 247.023
1439.982, 125.176
1441.169, 210.730
1442.355, 226.244
1443.542, 288.676
1444.728, 271.537
1445.914, 338.658
1447.100, 241.592
1448.286, 129.322
1449.472, 111.828
1450.657, 343.104
1451.842, 262.121
1453.027, 145.121
1454.212, 342.682
1455.397, 157.727
1456.581, 238.391
1457.766, 210.422
1458.950, 129.486
1460.134, 191.963
1461.318, 163.578
1462.501, 87.203
1463.685, 258.102
1464.868, 66.477
1466.051, 153.025
1467.234, 124.607
1468.417, 137.168
1469.600, 200.805
1470.782, 123.617
1471.965, 148.117
1473.147, 292.871
1474.329, 216.531
1475.510, 209.160
1476.692, 118.748
1477.873, 193.301
1479.055, 66.850
1480.236, 261.457
1481.416, 112.180
1482.597, 167.127
1483.778, 206.250
1484.958, 134.529
1486.138, 68.945
1487.318, 62.453
1488.498, 99.066
1489.678, 51.820
1490.857, 48.746
1492.037, 121.854
1493.216, 55.197
1494.395, 4.176
1495.574, 66.758
1496.752, 113.021
1497.931, 129.670
1499.109, 52.791
1500.287, 38.496
1501.465, 13.701
1502.643, 1.699
1503.820, 117.223
1504.998, 5.525
1506.175, 0.000
##END=



