##NAMES=Ferberite
##RRUFFID=R050632
##IDEAL CHEMISTRY=Fe^2+^W^6+^O_4_
##LOCALITY=Chance mine, Boulder, Colorado, USA
##OWNER=RRUFF
##SOURCE=University of Arizona Mineral Museum
##DESCRIPTION=Dark brown rectangular prismatic crystals
##STATUS=The identification of this mineral has been confirmed by X-ray diffraction and chemical analysis
##URL=rruff.info/R050632
##MEASURED CHEMISTRY=Fe^2+^_1.00_WO_4_
##PIN_ID=M00461
##ORIENTATION=Laser parallel to b* (0 1 0). Fiducial mark perpendicular to laser is parallel to c [0 0 1]
157.4550, 0.0000000E+00
158.6810, 116.6016
159.9080, 3.246094
161.1340, 716.3984
162.3590, 7.062500
163.5850, 870.6328
164.8110, 1265.773
166.0360, 897.4258
167.2610, 442.3711
168.4860, 466.2188
169.7110, 726.4258
170.9360, 956.2461
172.1610, 620.0859
173.3850, 660.2695
174.6100, 525.0547
175.8340, 378.7852
177.0580, 555.9570
178.2820, 722.5625
179.5050, 662.3203
180.7290, 885.4766
181.9520, 614.1367
183.1760, 997.9688
184.3990, 801.2148
185.6220, 1061.324
186.8450, 1159.496
188.0670, 1326.109
189.2900, 1510.266
190.5120, 1646.219
191.7340, 1874.480
192.9560, 1997.910
194.1780, 2264.996
195.4000, 2447.098
196.6220, 2870.430
197.8430, 2802.543
199.0640, 3336.992
200.2860, 3598.227
201.5070, 4291.723
202.7270, 4655.234
203.9480, 4700.453
205.1690, 3614.391
206.3890, 2979.738
207.6090, 2931.762
208.8290, 3238.395
210.0490, 3103.742
211.2690, 3022.438
212.4890, 3068.273
213.7080, 2642.559
214.9280, 2146.406
216.1470, 1414.121
217.3660, 1211.426
218.5850, 1153.465
219.8030, 947.8359
221.0220, 569.3281
222.2400, 530.4961
223.4590, 459.6992
224.6770, 447.9531
225.8950, 350.2656
227.1120, 289.6133
228.3300, 178.9453
229.5480, 138.3672
230.7650, 45.86719
231.9820, 16.45703
233.1990, 30.34766
234.4160, 16.53906
235.6330, 23.47656
236.8490, 3.742188
238.0660, 188.1406
239.2820, 32.66016
240.4980, 47.71484
241.7140, 26.35938
242.9300, 76.26953
244.1460, 131.9180
245.3610, 143.1055
246.5770, 23.51172
247.7920, 39.63281
249.0070, 10.78125
250.2220, 21.78906
251.4370, 73.85547
252.6510, 66.66797
253.8660, 27.00000
255.0800, 27.21094
256.2940, 70.21875
257.5080, 20.63672
258.7220, 0.3281250
259.9360, 71.40234
261.1490, 91.82812
262.3630, 31.66797
263.5760, 77.51172
264.7890, 66.02344
266.0020, 43.32812
267.2150, 51.04688
268.4270, 4.582031
269.6400, 42.75391
270.8520, 50.77734
272.0640, 119.5977
273.2760, 20.14062
274.4880, 25.76562
275.7000, 106.3555
276.9120, 22.76172
278.1230, 90.41406
279.3340, 117.1172
280.5450, 78.71484
281.7560, 108.1133
282.9670, 30.49609
284.1780, 55.89062
285.3880, 173.2031
286.5980, 27.01562
287.8090, 72.20703
289.0190, 126.8672
290.2290, 3.632813
291.4380, 110.0586
292.6480, 124.4688
293.8570, 135.0820
295.0670, 273.8945
296.2760, 176.5508
297.4850, 313.4141
298.6930, 356.8438
299.9020, 443.1562
301.1110, 436.9297
302.3190, 459.3242
303.5270, 578.5781
304.7350, 500.0547
305.9430, 541.2695
307.1510, 947.8672
308.3580, 737.1250
309.5660, 899.7188
310.7730, 1204.301
311.9800, 958.8516
313.1870, 1468.367
314.3940, 1457.840
315.6010, 1681.266
316.8070, 2098.633
318.0130, 2350.949
319.2200, 2728.215
320.4260, 2989.430
321.6310, 3524.559
322.8370, 3971.781
324.0430, 4624.691
325.2480, 4963.621
326.4540, 5479.477
327.6590, 5813.258
328.8640, 5916.973
330.0680, 6077.625
331.2730, 5709.227
332.4780, 5316.777
333.6820, 4867.277
334.8860, 4383.734
336.0900, 3960.148
337.2940, 3601.523
338.4980, 3396.852
339.7010, 3079.059
340.9050, 2731.004
342.1080, 2644.770
343.3110, 2270.461
344.5140, 2111.996
345.7170, 1945.445
346.9200, 1713.809
348.1220, 1648.531
349.3240, 1422.598
350.5270, 1454.848
351.7290, 1439.098
352.9310, 1272.371
354.1320, 1198.656
355.3340, 880.9688
356.5350, 1052.258
357.7370, 915.5547
358.9380, 861.4766
360.1390, 958.6992
361.3400, 731.5000
362.5400, 1003.816
363.7410, 830.0703
364.9410, 695.2812
366.1410, 655.5156
367.3410, 688.7148
368.5410, 557.9688
369.7410, 792.2695
370.9400, 1152.625
372.1400, 539.9023
373.3390, 321.3789
374.5380, 527.4219
375.7370, 253.9727
376.9360, 466.3828
378.1350, 466.2070
379.3330, 501.1758
380.5310, 303.7734
381.7300, 547.5547
382.9280, 349.2148
384.1260, 466.0391
385.3230, 340.3906
386.5210, 404.3516
387.7180, 432.2422
388.9160, 499.0352
390.1130, 447.0352
391.3100, 527.1914
392.5060, 316.9531
393.7030, 364.7227
394.9000, 335.7461
396.0960, 332.7188
397.2920, 457.4141
398.4880, 560.8516
399.6840, 510.0938
400.8800, 566.9453
402.0750, 404.8164
403.2710, 388.5312
404.4660, 497.9258
405.6610, 560.3281
406.8560, 578.0625
408.0510, 418.1406
409.2450, 483.1523
410.4400, 457.7891
411.6340, 431.8867
412.8280, 533.7812
414.0220, 399.9844
415.2160, 500.3867
416.4100, 500.3398
417.6030, 550.1523
418.7970, 507.3945
419.9900, 487.6641
421.1830, 566.2930
422.3760, 589.4102
423.5690, 530.4688
424.7610, 580.1680
425.9540, 438.9062
427.1460, 468.0312
428.3380, 568.0703
429.5300, 511.4922
430.7220, 565.8477
431.9140, 581.5039
433.1050, 418.8398
434.2970, 566.4453
435.4880, 579.9375
436.6790, 455.7695
437.8700, 592.9180
439.0610, 487.8672
440.2510, 469.3359
441.4420, 515.9570
442.6320, 494.7812
443.8220, 580.6719
445.0120, 563.6211
446.2020, 537.4570
447.3910, 551.5000
448.5810, 451.7852
449.7700, 563.3086
450.9600, 530.6172
452.1490, 569.7031
453.3370, 625.0625
454.5260, 556.0430
455.7150, 618.8203
456.9030, 477.3008
458.0910, 506.8164
459.2800, 372.5195
460.4670, 734.1289
461.6550, 471.1289
462.8430, 368.8320
464.0300, 678.5859
465.2180, 486.3945
466.4050, 646.2656
467.5920, 461.2070
468.7790, 685.2266
469.9650, 488.2969
471.1520, 650.4297
472.3380, 571.6133
473.5250, 557.3164
474.7110, 625.1523
475.8970, 545.5000
477.0820, 504.8984
478.2680, 496.8555
479.4540, 617.8672
480.6390, 761.4336
481.8240, 879.0898
483.0090, 1119.770
484.1940, 874.5117
485.3780, 717.3047
486.5630, 1162.168
487.7470, 1093.086
488.9320, 749.0742
490.1160, 935.1211
491.3000, 868.2266
492.4830, 1047.152
493.6670, 903.3906
494.8500, 1016.688
496.0340, 946.0430
497.2170, 1218.469
498.4000, 862.9570
499.5820, 1284.742
500.7650, 1105.430
501.9480, 1462.348
503.1300, 1785.215
504.3120, 1138.148
505.4940, 1152.145
506.6760, 1284.199
507.8580, 1179.320
509.0390, 1098.539
510.2210, 1347.824
511.4020, 1181.172
512.5830, 1428.590
513.7640, 1358.066
514.9450, 1386.609
516.1250, 1323.242
517.3060, 1580.973
518.4860, 1576.809
519.6660, 1421.742
520.8460, 1321.789
522.0260, 1585.949
523.2060, 1577.203
524.3850, 1499.574
525.5650, 1409.023
526.7440, 1323.562
527.9230, 1437.250
529.1020, 1360.047
530.2810, 1456.941
531.4590, 1150.945
532.6380, 1445.023
533.8160, 1303.227
534.9940, 1253.492
536.1720, 1355.832
537.3500, 1351.250
538.5270, 1446.734
539.7050, 1183.320
540.8820, 1795.984
542.0590, 1510.715
543.2360, 1818.508
544.4130, 1545.395
545.5900, 1544.367
546.7660, 1661.398
547.9430, 1607.492
549.1190, 1691.645
550.2950, 1798.855
551.4710, 1642.145
552.6470, 1668.508
553.8220, 1688.930
554.9980, 1688.414
556.1730, 1684.957
557.3480, 1684.367
558.5230, 1696.250
559.6980, 1682.996
560.8730, 1965.797
562.0470, 2023.688
563.2220, 2082.625
564.3960, 2007.645
565.5700, 1634.742
566.7440, 1848.914
567.9170, 1672.160
569.0910, 1742.461
570.2640, 1872.828
571.4380, 1708.285
572.6110, 1689.801
573.7840, 1502.371
574.9570, 1343.070
576.1290, 1532.742
577.3020, 1151.664
578.4740, 1215.445
579.6460, 996.6289
580.8180, 985.5156
581.9900, 860.4570
583.1620, 863.4453
584.3330, 633.1719
585.5040, 384.4375
586.6760, 359.6406
587.8470, 283.6992
589.0180, 470.3945
590.1880, 265.6797
591.3590, 496.0156
592.5290, 379.0156
593.7000, 379.3906
594.8700, 181.2227
596.0400, 375.9258
597.2090, 226.4961
598.3790, 270.3359
599.5490, 100.0000
600.7180, 308.7070
601.8870, 41.54688
603.0560, 394.2422
604.2250, 81.08203
605.3940, 595.0078
606.5620, 724.4844
607.7300, 238.3633
608.8990, 364.2188
610.0670, 408.2695
611.2350, 85.96094
612.4020, 238.0977
613.5700, 285.2773
614.7370, 73.49609
615.9050, 302.7617
617.0720, 173.0625
618.2390, 39.40625
619.4060, 414.7891
620.5720, 31.21484
621.7390, 2.320313
622.9050, 115.6367
624.0710, 161.1797
625.2370, 296.7578
626.4030, 258.6562
627.5690, 194.4023
628.7340, 148.5742
629.9000, 175.3086
631.0650, 64.07422
632.2300, 63.16406
633.3950, 311.6719
634.5600, 354.5469
635.7240, 321.4531
636.8890, 277.0859
638.0530, 64.06641
639.2170, 22.93750
640.3810, 395.5078
641.5450, 16.55078
642.7080, 358.1797
643.8720, 123.4141
645.0350, 206.5898
646.1980, 79.79688
647.3610, 104.1406
648.5240, 97.98828
649.6870, 372.2852
650.8490, 118.6133
652.0120, 126.0469
653.1740, 446.4297
654.3360, 259.1719
655.4980, 326.4180
656.6600, 253.1172
657.8210, 150.0156
658.9830, 133.7812
660.1440, 73.08203
661.3050, 91.40625
662.4660, 102.6836
663.6270, 161.9609
664.7870, 212.4922
665.9480, 252.1914
667.1080, 324.6914
668.2680, 409.8086
669.4280, 438.1992
670.5880, 505.5039
671.7480, 533.8438
672.9070, 953.3555
674.0670, 881.2891
675.2260, 861.1133
676.3850, 948.0039
677.5440, 749.8594
678.7030, 1037.207
679.8610, 1400.102
681.0200, 1145.004
682.1780, 1357.023
683.3360, 1550.133
684.4940, 1419.664
685.6520, 1494.621
686.8090, 1295.777
687.9670, 1554.758
689.1240, 1633.750
690.2810, 1533.754
691.4380, 1460.770
692.5950, 1394.797
693.7520, 1312.535
694.9080, 1149.500
696.0650, 1137.555
697.2210, 975.6250
698.3770, 812.6992
699.5330, 837.7852
700.6880, 561.8789
701.8440, 520.9844
702.9990, 713.0977
704.1550, 315.2188
705.3100, 604.3438
706.4650, 537.4766
707.6190, 221.6211
708.7740, 290.7695
709.9290, 510.9258
711.0830, 213.0859
712.2370, 233.2500
713.3910, 9.421875
714.5450, 436.5977
715.6980, 34.22266
716.8520, 212.9375
718.0050, 34.89453
719.1580, 129.2539
720.3110, 188.4062
721.4640, 208.5625
722.6170, 178.2773
723.7700, 134.2031
724.9220, 131.2031
726.0740, 37.27344
727.2260, 65.35938
728.3780, 33.51172
729.5300, 106.3867
730.6810, 106.7383
731.8330, 143.0820
732.9840, 250.9023
734.1350, 0.2773440
735.2860, 126.5312
736.4370, 54.65625
737.5880, 170.1172
738.7380, 134.8945
739.8880, 112.1914
741.0390, 132.7422
742.1890, 59.88672
743.3380, 36.66406
744.4880, 37.55859
745.6380, 61.81250
746.7870, 59.94141
747.9360, 104.5469
749.0850, 35.79688
750.2340, 77.82812
751.3830, 94.44922
752.5310, 120.0742
753.6800, 270.7031
754.8280, 70.32031
755.9760, 182.9414
757.1240, 310.5664
758.2720, 100.1875
759.4190, 183.8086
760.5670, 33.38672
761.7140, 164.0000
762.8610, 239.6133
764.0080, 12.21875
765.1550, 101.8086
766.3020, 36.40625
767.4480, 185.9922
768.5950, 202.5742
769.7410, 24.15234
770.8870, 114.5352
772.0330, 308.5352
773.1780, 125.0977
774.3240, 32.66016
775.4690, 122.2188
776.6140, 135.2305
777.7590, 90.96094
778.9040, 81.57031
780.0490, 60.37891
781.1940, 59.90234
782.3380, 86.17578
783.4820, 137.4492
784.6260, 59.72266
785.7700, 93.01562
786.9140, 239.1875
788.0580, 100.3750
789.2010, 24.57031
790.3450, 183.7500
791.4880, 117.9258
792.6310, 33.90234
793.7730, 86.76562
794.9160, 55.69922
796.0590, 53.31641
797.2010, 27.67188
798.3430, 56.69922
799.4850, 5.777344
800.6270, 85.88281
801.7690, 13.05078
802.9100, 31.03906
804.0520, 158.4844
805.1930, 50.82031
806.3340, 79.20703
807.4750, 146.1367
808.6160, 27.39062
809.7560, 98.76562
810.8970, 53.59375
812.0370, 172.9414
813.1770, 57.29297
814.3170, 99.64453
815.4570, 7.988281
816.5960, 38.67969
817.7360, 71.61328
818.8750, 48.91016
820.0140, 111.7969
821.1530, 15.57812
822.2920, 112.6172
823.4310, 39.78906
824.5690, 296.0039
825.7070, 128.1914
826.8460, 118.3867
827.9840, 336.5742
829.1220, 267.7656
830.2590, 35.96094
831.3970, 20.15625
832.5340, 213.3438
833.6710, 417.5273
834.8080, 539.7188
835.9450, 596.9609
837.0820, 350.1094
838.2190, 626.3047
839.3550, 401.5000
840.4910, 407.6992
841.6270, 400.9023
842.7630, 638.1133
843.8990, 770.3203
845.0350, 869.0234
846.1700, 924.7500
847.3060, 1059.973
848.4410, 1095.199
849.5760, 1062.430
850.7100, 1443.590
851.8450, 1283.832
852.9800, 1879.887
854.1140, 1867.137
855.2480, 2116.051
856.3820, 2421.312
857.5160, 2627.586
858.6500, 2902.859
859.7830, 3293.461
860.9170, 3984.578
862.0500, 4082.820
863.1830, 4835.258
864.3160, 5414.129
865.4480, 5907.461
866.5810, 7074.797
867.7130, 8059.227
868.8460, 9150.590
869.9780, 10443.96
871.1100, 11758.15
872.2410, 13170.55
873.3730, 14342.73
874.5050, 15139.15
875.6360, 16058.58
876.7670, 15889.02
877.8980, 15649.49
879.0290, 15199.96
880.1590, 13897.41
881.2900, 12892.72
882.4200, 12753.95
883.5500, 10198.64
884.6800, 8716.188
885.8100, 7858.152
886.9400, 6652.730
888.0690, 6155.328
889.1990, 5514.941
890.3280, 4712.570
891.4570, 4212.219
892.5860, 3703.559
893.7140, 3580.570
894.8430, 2902.270
895.9710, 2801.992
897.1000, 2483.273
898.2280, 2165.035
899.3560, 2303.816
900.4830, 1752.250
901.6110, 1767.074
902.7380, 1693.445
903.8660, 1521.309
904.9930, 1439.191
906.1200, 1336.145
907.2460, 1267.074
908.3730, 1069.023
909.5000, 918.0000
910.6260, 1083.305
911.7520, 1129.324
912.8780, 820.3828
914.0040, 862.0547
915.1290, 1050.285
916.2550, 934.7812
917.3800, 813.8398
918.5050, 658.0078
919.6300, 731.1992
920.7550, 645.3125
921.8800, 533.9805
923.0040, 618.2539
924.1290, 428.5625
925.2530, 476.8164
926.3770, 376.1797
927.5010, 560.5703
928.6250, 536.8594
929.7480, 390.0820
930.8720, 433.2617
931.9950, 409.2422
933.1180, 408.2109
934.2410, 406.3398
935.3640, 589.4336
936.4860, 524.9375
937.6090, 540.5312
938.7310, 490.5352
939.8530, 415.9258
940.9750, 463.6797
942.0970, 311.8320
943.2180, 360.1523
944.3400, 620.5000
945.4610, 225.7305
946.5820, 601.5820
947.7030, 536.6289
948.8240, 292.6641
949.9450, 248.7891
951.0650, 450.4844
952.1860, 643.6797
953.3060, 340.9258
954.4260, 242.1250
955.5460, 593.2852
956.6650, 410.0859
957.7850, 338.5117
958.9040, 475.7930
960.0230, 346.3086
961.1420, 260.8594
962.2610, 600.4531
963.3800, 794.0938
964.4990, 331.7773
965.6170, 233.3789
966.7350, 317.6484
967.8530, 490.4609
968.9710, 575.3281
970.0890, 524.2617
971.2070, 451.2148
972.3240, 406.2617
973.4410, 374.3633
974.5580, 420.5078
975.6750, 350.6992
976.7920, 413.9336
977.9090, 665.2148
979.0250, 229.5664
980.1410, 638.0586
981.2580, 621.6055
982.3740, 549.2031
983.4890, 320.8398
984.6050, 486.5742
985.7200, 397.3477
986.8360, 176.1719
987.9510, 734.0508
989.0660, 722.9805
990.1810, 633.9688
991.2950, 635.0000
992.4100, 416.0820
993.5240, 335.2070
994.6390, 432.4297
995.7530, 611.7305
996.8660, 670.1250
997.9800, 714.6016
999.0940, 416.0898
1000.207, 744.6523
1001.320, 486.2656
1002.433, 500.0508
1003.546, 422.7031
1004.659, 268.4883
1005.772, 550.3359
1006.884, 531.2344
1007.996, 707.2031
1009.108, 450.2148
1010.220, 658.2734
1011.332, 596.3867
1012.444, 506.5469
1013.555, 558.7734
1014.666, 633.0508
1015.777, 731.3906
1016.888, 844.8164
1017.999, 429.3203
1019.110, 665.8789
1020.220, 544.5195
1021.331, 755.2188
1022.441, 570.9844
1023.551, 701.8008
1024.661, 603.6680
1025.770, 417.5859
1026.880, 465.5703
1027.989, 824.6055
1029.098, 529.6875
1030.207, 771.8398
1031.316, 522.2578
1032.425, 656.5586
1033.533, 596.9062
1034.642, 632.3125
1035.750, 720.7656
1036.858, 595.2734
1037.966, 749.8320
1039.073, 1041.449
1040.181, 765.1133
1041.288, 1493.828
1042.396, 1129.590
1043.503, 1122.406
1044.610, 670.2734
1045.716, 770.3203
1046.823, 681.3594
1047.929, 1190.484
1049.036, 910.6914
1050.142, 794.9727
1051.248, 886.3047
1052.353, 806.6875
1053.459, 1065.113
1054.564, 911.6016
1055.670, 992.7930
1056.775, 1122.410
1057.880, 994.1797
1058.985, 862.8281
1060.089, 922.6133
1061.194, 1143.453
1062.298, 1228.359
1063.402, 1280.348
1064.506, 1232.406
1065.610, 952.5195
1066.713, 887.7188
1067.817, 925.9961
1068.920, 1147.332
1070.023, 1061.742
1071.126, 947.2148
1072.229, 1173.758
1073.332, 1168.539
1074.435, 1138.254
1075.537, 1252.906
1076.639, 1100.785
1077.741, 1093.734
1078.843, 896.7695
1079.945, 1136.465
1081.046, 1169.605
1082.148, 1148.789
1083.249, 1216.188
1084.350, 1398.512
1085.451, 1068.902
1086.551, 1086.258
1087.652, 1067.738
1088.752, 1207.680
1089.853, 1063.301
1090.953, 844.9727
1092.053, 1022.684
1093.152, 1017.445
1094.252, 1347.250
1095.351, 872.1016
1096.451, 993.9961
1097.550, 894.9375
1098.649, 787.9180
1099.748, 816.9492
1100.846, 913.1836
1101.945, 969.3008
1103.043, 905.3906
1104.141, 922.0547
1105.239, 917.9922
1106.337, 929.7500
1107.434, 869.0820
1108.532, 972.4570
1109.629, 893.8750
1110.726, 945.8984
1111.823, 974.5547
1112.920, 729.8398
1114.017, 793.6328
1115.113, 763.2500
1116.210, 609.6328
1117.306, 869.3242
1118.402, 498.0547
1119.498, 704.8242
1120.593, 865.6289
1121.689, 782.4766
1122.784, 918.3594
1123.879, 883.2734
1124.974, 762.2305
1126.069, 807.2227
1127.164, 649.3086
1128.259, 724.3711
1129.353, 610.4688
1130.447, 559.5938
1131.541, 313.7617
1132.635, 619.9609
1133.729, 585.1953
1134.822, 306.4570
1135.916, 401.7578
1137.009, 277.0898
1138.102, 235.1367
1139.195, 410.3555
1140.288, 313.7852
1141.380, 223.2500
1142.473, 495.7422
1143.565, 339.2656
1144.657, 313.4648
1145.749, 635.0469
1146.841, 201.6641
1147.932, 156.2891
1149.024, 261.9648
1150.115, 97.78125
1151.206, 174.2266
1152.297, 211.5547
1153.388, 267.6094
1154.479, 227.5781
1155.569, 369.1953
1156.659, 330.0703
1157.750, 391.8906
1158.839, 147.3750
1159.929, 147.3281
1161.019, 275.8164
1162.108, 70.18359
1163.198, 87.86719
1164.287, 238.1172
1165.376, 486.1758
1166.465, 231.2578
1167.553, 290.3672
1168.642, 188.5000
1169.730, 3.652344
1170.818, 321.8281
1171.906, 197.0273
1172.994, 286.2461
1174.082, 271.4922
1175.170, 319.7500
1176.257, 11.96094
1177.344, 52.19531
1178.431, 48.51953
1179.518, 16.85938
1180.605, 34.22266
1181.691, 332.6016
1182.778, 224.0000
1183.864, 485.4219
1184.950, 254.8555
1186.036, 35.69141
1187.122, 195.7695
1188.207, 19.14062
1189.292, 604.1875
1190.378, 33.70312
1191.463, 249.2266
1192.548, 196.7695
1193.632, 117.3281
1194.717, 71.90234
1195.801, 167.4922
1196.886, 195.1602
1197.970, 239.7773
1199.054, 111.4023
1200.137, 318.0430
1201.221, 62.69922
1202.305, 78.35938
1203.388, 7.960938
1204.471, 21.72266
1205.554, 169.5820
1206.637, 109.0547
1207.719, 213.6992
1208.802, 69.35156
1209.884, 125.4141
1210.966, 27.20703
1212.048, 56.83203
1213.130, 6.527344
1214.212, 64.10938
1215.293, 246.7578
1216.374, 67.58594
1217.456, 163.0469
1218.536, 35.31250
1219.617, 43.32031
1220.698, 259.9570
1221.778, 153.5977
1222.859, 135.2461
1223.939, 305.8984
1225.019, 79.55859
1226.099, 248.2188
1227.178, 239.8867
1228.258, 153.5508
1229.337, 192.9961
1230.417, 57.09766
1231.496, 85.55859
1232.574, 50.76953
1233.653, 161.1289
1234.732, 253.8281
1235.810, 4.484375
1236.888, 155.1367
1237.966, 96.78906
1239.044, 21.44141
1240.122, 104.9062
1241.199, 361.3086
1242.277, 2.902344
1243.354, 10.50391
1244.431, 235.8828
1245.508, 153.7344
1246.585, 63.78125
1247.661, 166.9883
1248.738, 223.1367
1249.814, 234.7578
1250.890, 68.47656
1251.966, 131.9180
1253.042, 103.2930
1254.117, 70.89453
1255.193, 166.6602
1256.268, 26.25000
1257.343, 119.9805
1258.418, 120.2383
1259.493, 163.2656
1260.567, 113.6797
1261.642, 92.68359
1262.716, 164.3438
1263.790, 184.6953
1264.864, 124.4219
1265.938, 170.1562
1267.011, 26.48047
1268.085, 48.99609
1269.158, 143.2188
1270.231, 87.57812
1271.304, 134.9805
1272.377, 143.1250
1273.450, 27.08984
1274.522, 112.8398
1275.594, 118.6289
1276.666, 13.32812
1277.738, 115.9336
1278.810, 2.921875
1279.882, 23.64062
1280.953, 14.83203
1282.025, 14.56250
1283.096, 62.96484
1284.167, 37.46875
1285.238, 115.1367
1286.308, 5.871094
1287.379, 48.08594
1288.449, 168.0234
1289.519, 14.04688
1290.589, 310.8438
1291.659, 120.4961
1292.729, 71.28906
1293.798, 186.0625
1294.868, 107.8242
1295.937, 266.5742
1297.006, 267.3164
1298.075, 325.0586
1299.143, 294.7617
1300.212, 386.4688
1301.280, 345.1680
1302.348, 217.8555
1303.416, 498.5312
1304.484, 314.1953
1305.552, 60.28125
1306.620, 1009.297
1307.687, 621.8633
1308.754, 359.9648
1309.821, 176.5039
1310.888, 577.0273
1311.955, 292.5391
1313.021, 230.0352
1314.088, 204.5195
1315.154, 134.3555
1316.220, 7.187500
1317.286, 76.04297
1318.352, 449.6133
1319.417, 305.9883
1320.483, 265.3555
1321.548, 602.6641
1322.613, 194.0000
1323.678, 546.3203
1324.743, 5.386719
1325.807, 545.8828
1326.872, 321.1328
1327.936, 556.3789
1329.000, 364.6055
1330.064, 283.8281
