##NAMES=Ferberite
##RRUFFID=R040044
##IDEAL CHEMISTRY=Fe^2+^W^6+^O_4_
##LOCALITY=Chocote, Bolivia
##OWNER=RRUFF
##SOURCE=University of Arizona Mineral Museum
##DESCRIPTION=Black tabular single crystal
##STATUS=The identification of this mineral has been confirmed by X-ray diffraction and chemical analysis
##URL=rruff.info/R040044
##MEASURED CHEMISTRY=(Fe_0.82_Mn_0.08_Mg_0.07_Pb_0.03_)_Î£=1_W_1.00_O_4_
##PIN_ID=L01748
##ORIENTATION=Laser parallel to (1 0 1). Fiducial mark perpendicular to laser is parallel to b [0 1 0]
96.51900, 0.0000000E+00
97.76500, 3.728516
99.01100, 505.3145
100.2570, 371.9707
101.5030, 22.76172
102.7490, 401.6504
103.9940, 1213.898
105.2390, 3221.848
106.4840, 5355.773
107.7290, 5744.906
108.9740, 3646.066
110.2180, 2485.047
111.4620, 2923.752
112.7060, 3476.229
113.9500, 4171.371
115.1940, 3875.156
116.4370, 4013.346
117.6800, 3058.281
118.9230, 1903.789
120.1660, 1038.586
121.4090, 1031.844
122.6510, 1484.404
123.8940, 1119.281
125.1360, 303.4336
126.3770, 70.83594
127.6190, 171.4629
128.8600, 813.1328
130.1020, 827.0195
131.3430, 433.0703
132.5840, 400.7734
133.8240, 8.628906
135.0650, 13.41797
136.3050, 544.9707
137.5450, 628.7734
138.7850, 1088.338
140.0250, 1122.686
141.2640, 454.8398
142.5030, 104.1855
143.7430, 112.6309
144.9810, 0.2988280
146.2200, 9.832031
147.4590, 1689.244
148.6970, 1569.543
149.9350, 1606.855
151.1730, 117.0645
152.4110, 259.3027
153.6480, 343.5723
154.8860, 513.9355
156.1230, 397.2070
157.3600, 63.63672
158.5960, 80.02148
159.8330, 28.68750
161.0690, 349.5781
162.3050, 288.8398
163.5410, 550.1523
164.7770, 720.3613
166.0130, 812.8750
167.2480, 900.1953
168.4830, 846.6992
169.7180, 804.7480
170.9530, 967.1094
172.1880, 672.5605
173.4220, 571.1621
174.6560, 730.7734
175.8900, 869.6914
177.1240, 1015.318
178.3580, 817.2012
179.5910, 1017.115
180.8250, 774.0625
182.0580, 1226.033
183.2900, 846.0293
184.5230, 1266.055
185.7560, 1108.102
186.9880, 1397.172
188.2200, 1609.268
189.4520, 1567.381
190.6830, 1660.514
191.9150, 1923.664
193.1460, 1834.832
194.3770, 2132.965
195.6080, 2405.119
196.8390, 2460.289
198.0700, 2676.471
199.3000, 3104.670
200.5300, 3239.010
201.7600, 3448.863
202.9900, 3382.039
204.2190, 2354.223
205.4490, 1640.420
206.6780, 1625.314
207.9070, 1466.830
209.1360, 1904.943
210.3640, 1996.240
211.5930, 2217.836
212.8210, 2426.857
214.0490, 2585.887
215.2770, 2039.955
216.5040, 1771.322
217.7320, 1709.711
218.9590, 1546.600
220.1860, 1509.500
221.4130, 1058.637
222.6400, 1051.551
223.8660, 568.0723
225.0920, 660.9707
226.3190, 345.8711
227.5450, 666.1074
228.7700, 572.4883
229.9960, 313.3066
231.2210, 102.1309
232.4460, 193.9668
233.6710, 44.28906
234.8960, 119.6562
236.1210, 52.51367
237.3450, 64.62109
238.5690, 7.250000
239.7930, 16.12695
241.0170, 52.01562
242.2410, 27.80664
243.4640, 59.41016
244.6870, 77.02930
245.9100, 31.56250
247.1330, 117.8027
248.3560, 51.74219
249.5780, 23.56445
250.8000, 9.859375
252.0230, 86.35938
253.2440, 17.79102
254.4660, 228.4238
255.6880, 16.98828
256.9090, 131.2617
258.1300, 219.8027
259.3510, 69.68555
260.5720, 227.8184
261.7920, 262.3809
263.0130, 291.9570
264.2330, 493.4453
265.4530, 378.0723
266.6730, 576.8574
267.8920, 640.8672
269.1120, 1047.881
270.3310, 777.9062
271.5500, 1178.941
272.7690, 1230.982
273.9880, 1144.033
275.2060, 1538.090
276.4240, 1538.137
277.6430, 1701.188
278.8600, 1299.242
280.0780, 1255.299
281.2960, 988.2539
282.5130, 1027.131
283.7300, 761.1660
284.9470, 722.1914
286.1640, 826.2031
287.3810, 477.2012
288.5970, 625.1934
289.8130, 81.44531
291.0290, 145.4160
292.2450, 264.3691
293.4610, 118.3262
294.6760, 208.2773
295.8910, 346.2227
297.1060, 86.16211
298.3210, 199.0957
299.5360, 87.02344
300.7510, 220.9453
301.9650, 56.85938
303.1790, 78.76953
304.3930, 21.32227
305.6070, 48.56445
306.8200, 126.8145
308.0340, 162.6895
309.2470, 121.5566
310.4600, 150.8848
311.6730, 98.29102
312.8850, 141.1543
314.0980, 34.97070
315.3100, 62.76953
316.5220, 75.54883
317.7340, 87.77734
318.9460, 205.8672
320.1570, 110.4824
321.3690, 4.021484
322.5800, 68.43750
323.7910, 54.85938
325.0010, 65.69922
326.2120, 194.7207
327.4220, 73.15430
328.6330, 149.5918
329.8430, 114.0352
331.0520, 22.48828
332.2620, 156.9453
333.4720, 367.4043
334.6810, 84.13086
335.8900, 58.68945
337.0990, 158.7344
338.3070, 256.1602
339.5160, 260.1113
340.7240, 223.0684
341.9320, 219.5508
343.1400, 145.0449
344.3480, 46.58008
345.5560, 165.1172
346.7630, 199.6699
347.9700, 20.79688
349.1770, 58.73047
350.3840, 101.2617
351.5910, 233.7988
352.7970, 125.3359
354.0040, 156.8477
355.2100, 56.63477
356.4160, 22.92773
357.6220, 120.3379
358.8270, 8.169922
360.0320, 85.31641
361.2380, 175.8047
362.4430, 383.2617
363.6470, 126.6953
364.8520, 213.1445
366.0560, 142.6035
367.2610, 82.07031
368.4650, 289.5488
369.6690, 139.0176
370.8720, 229.4922
372.0760, 268.9766
373.2790, 128.4258
374.4820, 261.4414
375.6850, 88.32422
376.8880, 332.7852
378.0910, 292.2559
379.2930, 209.5469
380.4950, 217.0312
381.6970, 113.4219
382.8990, 82.71289
384.1010, 174.5137
385.3020, 59.30664
386.5040, 76.98047
387.7050, 197.1699
388.9060, 209.4512
390.1060, 129.6328
391.3070, 197.9355
392.5070, 112.5098
393.7080, 95.36328
394.9080, 236.9922
396.1070, 406.4863
397.3070, 463.1816
398.5070, 509.1602
399.7060, 544.9297
400.9050, 490.9746
402.1040, 602.6035
403.3030, 613.2383
404.5010, 735.8789
405.7000, 663.5254
406.8980, 727.1777
408.0960, 610.8359
409.2940, 777.5000
410.4910, 712.1719
411.6890, 714.8496
412.8860, 597.5332
414.0830, 336.2227
415.2800, 426.9199
416.4770, 216.6230
417.6730, 208.3340
418.8690, 255.0508
420.0660, 274.7754
421.2620, 279.7773
422.4570, 282.3242
423.6530, 330.9902
424.8480, 233.7441
426.0440, 325.5059
427.2390, 266.2734
428.4340, 87.05078
429.6280, 334.8379
430.8230, 309.6289
432.0170, 327.4297
433.2110, 185.2383
434.4050, 206.0723
435.5990, 162.9141
436.7930, 191.7695
437.9860, 430.6289
439.1800, 244.4961
440.3730, 235.3750
441.5660, 421.2617
442.7580, 79.16016
443.9510, 99.06641
445.1430, 274.9805
446.3350, 375.8203
447.5270, 155.1953
448.7190, 429.0234
449.9110, 323.7812
451.1020, 472.7539
452.2930, 175.7305
453.4850, 497.6172
454.6750, 381.5352
455.8660, 336.5625
457.0570, 356.2383
458.2470, 276.8086
459.4370, 538.0273
460.6270, 559.0859
461.8170, 620.2344
463.0070, 543.5977
464.1960, 588.8867
465.3850, 559.1641
466.5750, 606.9336
467.7630, 650.3633
468.9520, 673.2812
470.1410, 490.4336
471.3290, 601.6016
472.5170, 718.7891
473.7050, 536.1094
474.8930, 373.4844
476.0810, 577.7070
477.2680, 666.9492
478.4560, 683.4531
479.6430, 760.8359
480.8300, 779.6914
482.0160, 805.9883
483.2030, 762.2578
484.3890, 793.5820
485.5760, 766.9766
486.7620, 574.3359
487.9480, 771.5039
489.1330, 701.8008
490.3190, 776.1992
491.5040, 588.5469
492.6890, 711.9141
493.8740, 891.3516
495.0590, 637.8047
496.2440, 981.0195
497.4280, 658.5039
498.6120, 1010.859
499.7960, 986.8906
500.9800, 891.4180
502.1640, 881.6719
503.3470, 789.2344
504.5310, 942.8086
505.7140, 733.4062
506.8970, 888.0391
508.0800, 1036.379
509.2620, 1240.023
510.4450, 1071.605
511.6270, 932.2812
512.8090, 1037.973
513.9910, 1384.684
515.1730, 1103.410
516.3550, 1178.156
517.5360, 1140.918
518.7170, 1118.699
519.8980, 1325.500
521.0790, 1265.312
522.2600, 1213.152
523.4400, 1056.004
524.6210, 1215.875
525.8010, 1377.789
526.9810, 1279.727
528.1610, 1329.691
529.3400, 1173.695
530.5200, 1428.719
531.6990, 1484.785
532.8780, 1541.898
534.0570, 1151.035
535.2360, 1510.188
536.4140, 1302.379
537.5930, 1652.605
538.7710, 1324.859
539.9490, 1511.168
541.1270, 1639.500
542.3040, 1624.914
543.4820, 1672.367
544.6590, 1599.840
545.8360, 1698.332
547.0130, 1551.844
548.1900, 1680.375
549.3670, 1754.410
550.5430, 1773.504
551.7190, 1887.098
552.8960, 1833.715
554.0710, 1646.590
555.2470, 1711.008
556.4230, 1638.691
557.5980, 1592.391
558.7730, 1643.117
559.9480, 1711.863
561.1230, 1568.633
562.2980, 1620.422
563.4720, 1355.242
564.6470, 1332.074
565.8210, 1640.938
566.9950, 1627.816
568.1690, 1380.723
569.3420, 1443.652
570.5160, 1327.609
571.6890, 1374.586
572.8620, 1587.586
574.0350, 1063.613
575.2080, 1431.660
576.3800, 949.7383
577.5530, 731.8398
578.7250, 853.9648
579.8970, 524.1172
581.0690, 571.2930
582.2410, 461.4922
583.4120, 338.7227
584.5830, 442.9766
585.7550, 455.2578
586.9260, 110.5625
588.0960, 20.10547
589.2670, 171.2383
590.4380, 262.6211
591.6080, 36.03906
592.7780, 300.4766
593.9480, 10.05469
595.1180, 10.57422
596.2870, 10.92578
597.4570, 64.54297
598.6260, 13.01953
599.7950, 130.4805
600.9640, 127.0234
602.1330, 5.558594
603.3010, 150.8516
604.4700, 21.69141
605.6380, 54.73438
606.8060, 85.15234
607.9740, 62.58203
609.1420, 62.98047
610.3090, 25.39844
611.4760, 97.23828
612.6440, 15.89844
613.8110, 18.41406
614.9770, 228.2969
616.1440, 12.03906
617.3110, 18.81250
618.4770, 4.613281
619.6430, 239.4688
620.8090, 195.3789
621.9750, 213.7422
623.1400, 168.7070
624.3060, 124.2188
625.4710, 34.83203
626.6360, 156.8633
627.8010, 68.06250
628.9660, 37.98047
630.1300, 187.9844
631.2950, 82.98438
632.4590, 153.0273
633.6230, 132.1016
634.7870, 190.2109
635.9510, 36.65234
637.1140, 242.5000
638.2780, 261.6836
639.4410, 169.0781
640.6040, 114.1328
641.7670, 157.3750
642.9290, 267.6523
644.0920, 39.96875
645.2540, 117.3203
646.4160, 24.30469
647.5780, 17.64844
648.7400, 475.5234
649.9020, 23.01953
651.0630, 331.4648
652.2250, 266.9766
653.3860, 271.5234
654.5470, 445.1055
655.7080, 306.7148
656.8680, 391.3633
658.0290, 475.0703
659.1890, 594.7852
660.3490, 557.5391
661.5090, 569.3242
662.6690, 600.1445
663.8280, 596.0000
664.9880, 843.8828
666.1470, 514.8086
667.3060, 879.7656
668.4650, 1022.754
669.6240, 924.7773
670.7820, 1187.840
671.9410, 1431.930
673.0990, 1524.055
674.2570, 1570.242
675.4150, 1861.461
676.5720, 2008.711
677.7300, 2227.996
678.8870, 2568.328
680.0450, 2486.695
681.2020, 2736.098
682.3590, 3460.535
683.5150, 4463.004
684.6720, 3974.508
685.8280, 4562.047
686.9840, 4843.625
688.1400, 5071.234
689.2960, 5669.875
690.4520, 5934.555
691.6070, 6327.273
692.7630, 6561.023
693.9180, 6835.809
695.0730, 7037.625
696.2280, 7343.484
697.3820, 7128.375
698.5370, 6720.305
699.6910, 6302.277
700.8450, 6405.312
701.9990, 5965.375
703.1530, 5718.492
704.3070, 5391.641
705.4600, 5213.828
706.6130, 4919.078
707.7660, 4381.367
708.9190, 4087.750
710.0720, 4057.227
711.2250, 3601.742
712.3770, 3701.336
713.5300, 2986.996
714.6820, 2946.688
715.8340, 2487.422
716.9850, 2367.219
718.1370, 2177.051
719.2880, 2008.922
720.4400, 1831.828
721.5910, 1782.770
722.7420, 1747.754
723.8930, 1484.770
725.0430, 1358.832
726.1940, 1462.926
727.3440, 1417.621
728.4940, 1065.789
729.6440, 1114.992
730.7940, 886.2344
731.9430, 989.5156
733.0930, 805.9883
734.2420, 633.3789
735.3910, 616.7578
736.5400, 539.5391
737.6890, 674.9961
738.8370, 649.2891
739.9860, 586.8398
741.1340, 600.2969
742.2820, 582.6406
743.4300, 614.3086
744.5780, 478.9727
745.7250, 536.0508
746.8730, 513.4219
748.0200, 823.2461
749.1670, 587.0859
750.3140, 57.50391
751.4610, 297.4531
752.6070, 311.3203
753.7540, 277.3594
754.9000, 342.4297
756.0460, 256.5469
757.1920, 423.6484
758.3380, 283.8438
759.4830, 290.0781
760.6280, 91.35938
761.7740, 279.7148
762.9190, 579.0742
764.0640, 376.6641
765.2080, 573.8477
766.3530, 285.3281
767.4970, 619.9336
768.6420, 460.2305
769.7860, 211.1094
770.9300, 394.7539
772.0730, 365.4414
773.2170, 525.1719
774.3600, 365.2031
775.5040, 203.0156
776.6470, 256.8672
777.7900, 541.0781
778.9320, 365.0156
780.0750, 428.9922
781.2170, 311.0117
782.3600, 612.0742
783.5020, 510.3750
784.6440, 117.3008
785.7850, 545.7734
786.9270, 348.0078
788.0680, 451.1992
789.2100, 308.6758
790.3510, 302.0352
791.4920, 158.4336
792.6320, 28.88281
793.7730, 66.36719
794.9130, 1.207031
796.0540, 157.4688
797.1940, 46.96094
798.3340, 241.6172
799.4730, 353.3203
800.6130, 755.0586
801.7520, 148.8438
802.8920, 131.6641
804.0310, 371.5352
805.1700, 212.4414
806.3090, 254.3906
807.4470, 120.3789
808.5860, 113.4141
809.7240, 112.3789
810.8620, 193.3242
812.0000, 174.4844
813.1380, 172.6875
814.2750, 305.9297
815.4130, 243.4922
816.5500, 78.82031
817.6870, 294.1875
818.8240, 22.59766
819.9610, 139.0508
821.0980, 388.5430
822.2340, 355.0742
823.3700, 320.6523
824.5070, 312.2656
825.6430, 302.9258
826.7780, 304.6211
827.9140, 386.3594
829.0500, 255.1406
830.1850, 435.9609
831.3200, 481.8242
832.4550, 994.7305
833.5900, 366.6758
834.7250, 488.6641
835.8590, 586.1875
836.9930, 228.9922
838.1280, 867.0977
839.2620, 592.1836
840.3950, 930.4375
841.5290, 1018.664
842.6630, 692.2812
843.7960, 956.5195
844.9290, 881.4648
846.0620, 1039.891
847.1950, 1043.316
848.3280, 1092.875
849.4600, 1287.238
850.5930, 1507.781
851.7250, 1473.820
852.8570, 1991.812
853.9890, 2024.109
855.1210, 2153.156
856.2520, 2381.887
857.3840, 2512.652
858.5150, 2779.457
859.6460, 3156.293
860.7770, 3222.172
861.9080, 3701.078
863.0380, 4239.027
864.1690, 4702.020
865.2990, 5382.051
866.4290, 6024.996
867.5590, 6759.324
868.6890, 7539.352
869.8190, 8359.531
870.9480, 9279.750
872.0770, 10091.01
873.2070, 11453.32
874.3360, 12459.66
875.4640, 13817.09
876.5930, 14625.54
877.7220, 15723.03
878.8500, 16417.59
879.9780, 16730.19
881.1060, 16742.83
882.2340, 16529.53
883.3620, 15996.46
884.4890, 14768.24
885.6170, 14039.08
886.7440, 13070.94
887.8710, 11504.25
888.9980, 10582.19
890.1240, 9639.160
891.2510, 8833.172
892.3770, 7829.215
893.5040, 6951.297
894.6300, 6206.406
895.7560, 5570.559
896.8810, 4908.742
898.0070, 4313.992
899.1330, 4069.281
900.2580, 2983.617
901.3830, 2999.012
902.5080, 2555.449
903.6330, 2109.926
904.7570, 1940.438
905.8820, 1970.980
907.0060, 1639.555
908.1300, 1355.168
909.2540, 1406.809
910.3780, 952.4883
911.5020, 846.2070
912.6250, 807.0039
913.7490, 907.8750
914.8720, 560.7773
915.9950, 646.7109
917.1180, 631.6797
918.2400, 536.6797
919.3630, 688.7148
920.4850, 561.1641
921.6080, 342.8906
922.7300, 467.0352
923.8520, 310.2031
924.9730, 340.4141
926.0950, 282.6484
927.2160, 372.9219
928.3380, 95.21875
929.4590, 245.5508
930.5800, 206.8828
931.7010, 24.72266
932.8210, 230.6836
933.9420, 134.1289
935.0620, 142.6914
936.1820, 217.9609
937.3020, 78.63281
938.4220, 292.1914
939.5420, 99.78516
940.6610, 198.4023
941.7810, 85.05469
942.9000, 105.7344
944.0190, 8.437500
945.1380, 95.82031
946.2570, 206.9023
947.3750, 213.6602
948.4940, 111.4453
949.6120, 47.74609
950.7300, 191.0859
951.8480, 83.23828
952.9660, 223.5703
954.0830, 300.8008
955.2010, 318.3086
956.3180, 97.16016
957.4350, 184.2539
958.5520, 147.8555
959.6690, 106.4180
960.7860, 236.9805
961.9020, 50.67188
963.0190, 178.5586
964.1350, 181.0547
965.2510, 240.9844
966.3670, 117.7539
967.4830, 19.00000
968.5980, 389.2734
969.7140, 39.42578
970.8290, 90.09766
971.9440, 91.21484
973.0590, 32.39844
974.1740, 7.023438
975.2880, 208.4648
976.4030, 94.06641
977.5170, 30.62109
978.6310, 221.1719
979.7450, 245.2852
980.8590, 74.52344
981.9730, 177.1250
983.0860, 82.83203
984.2000, 136.4453
985.3130, 0.7421880
986.4260, 109.9336
987.5390, 121.3516
988.6520, 184.6641
989.7640, 15.99609
990.8770, 238.3516
991.9890, 93.73047
993.1010, 256.1328
994.2130, 243.5586
995.3250, 34.00391
996.4370, 102.4727
997.5480, 237.9648
998.6590, 98.48047
999.7710, 244.0195
1000.882, 277.5781
1001.993, 173.1602
1003.103, 307.7617
1004.214, 402.4062
1005.324, 28.06641
1006.434, 171.7500
1007.545, 142.4609
1008.655, 261.1875
1009.764, 264.4883
1010.874, 285.3477
1011.983, 212.5039
1013.093, 320.3125
1014.202, 172.1406
1015.311, 185.9961
1016.420, 7.136719
1017.528, 43.74609
1018.637, 176.6445
1019.745, 238.5703
1020.854, 10.48047
1021.962, 261.4766
1023.070, 83.45312
1024.177, 254.4531
1025.285, 139.4609
1026.392, 143.4961
1027.500, 47.55078
1028.607, 338.6289
1029.714, 71.73047
1030.821, 372.8516
1031.927, 249.9922
1033.034, 331.1523
1034.140, 194.3242
1035.246, 173.5156
1036.352, 279.8359
1037.458, 285.8281
1038.564, 468.1953
1039.670, 369.4531
1040.775, 389.7266
1041.880, 197.0195
1042.986, 398.3281
1044.090, 355.6562
1045.195, 223.9688
1046.300, 568.3281
1047.404, 453.8555
1048.509, 426.0938
1049.613, 488.4961
1050.717, 499.7539
1051.821, 434.1914
1052.925, 217.6406
1054.028, 705.1094
1055.132, 430.5898
1056.235, 696.0820
1057.338, 335.5938
1058.441, 316.1211
1059.544, 537.6562
1060.647, 484.2109
1061.749, 585.7734
1062.851, 959.3516
1063.954, 484.9453
1065.056, 499.6680
1066.158, 830.2852
1067.259, 629.5977
1068.361, 418.5586
1069.462, 650.2148
1070.564, 464.3633
1071.665, 1039.562
1072.766, 552.2539
1073.867, 340.9570
1074.967, 652.6758
1076.068, 460.3984
1077.168, 425.8125
1078.268, 507.8398
1079.368, 532.6016
1080.468, 508.3711
1081.568, 618.1602
1082.668, 666.1367
1083.767, 593.6797
1084.866, 591.4961
1085.966, 736.3242
1087.065, 684.1602
1088.163, 582.0117
1089.262, 478.8750
1090.361, 652.7422
1091.459, 373.6250
1092.557, 633.5078
1093.655, 602.4062
1094.753, 567.3203
1095.851, 493.2344
1096.949, 399.1602
1098.046, 687.1055
1099.143, 805.0586
1100.241, 382.0234
1101.338, 949.9922
1102.434, 384.3828
1103.531, 573.3711
1104.628, 802.0508
1105.724, 465.5117
1106.820, 777.4688
1107.916, 669.4844
1109.012, 711.1797
1110.108, 426.2930
1111.204, 624.7461
1112.299, 417.2422
1113.395, 535.4414
1114.490, 454.4570
1115.585, 651.3828
1116.680, 558.0898
1117.775, 512.7422
1118.869, 559.4727
1119.964, 694.5938
1121.058, 612.7188
1122.152, 742.8633
1123.246, 882.0039
1124.340, 667.1602
1125.434, 781.3203
1126.527, 679.5000
1127.620, 617.6836
1128.714, 517.8750
1129.807, 305.1055
1130.900, 523.3359
1131.992, 338.5781
1133.085, 525.8320
1134.178, 345.1133
1135.270, 137.6797
1136.362, 518.9766
1137.454, 249.2969
1138.546, 354.6016
1139.638, 119.9180
1140.729, 310.2383
1141.821, 361.5625
1142.912, 449.8945
1144.003, 281.2344
1145.094, 537.5859
1146.185, 516.9375
1147.276, 548.2930
1148.366, 251.4883
1149.456, 191.8555
1150.547, 268.7461
1151.637, 424.2969
1152.727, 187.6211
1153.816, 574.0508
1154.906, 272.4688
1155.995, 423.8984
1157.085, 213.0312
1158.174, 281.9688
1159.263, 219.4102
1160.352, 162.0195
1161.441, 303.4688
1162.529, 234.4336
1163.618, 142.3828
1164.706, 280.8398
1165.794, 179.3125
1166.882, 270.7812
1167.970, 451.2578
1169.058, 257.7344
1170.145, 237.2227
1171.232, 468.7109
1172.320, 688.2109
1173.407, 380.7109
1174.494, 313.2148
1175.580, 181.2812
1176.667, 160.3867
1177.754, 738.7969
1178.840, 441.2383
1179.926, 219.6562
1181.012, 11.22656
1182.098, 375.6406
1183.184, 269.0625
1184.269, 290.5469
1185.355, 358.3516
1186.440, 285.6211
1187.525, 308.7031
1188.610, 234.1367
1189.695, 180.5664
1190.780, 146.0000
1191.864, 159.4414
1192.949, 343.8789
1194.033, 239.3125
1195.117, 317.7500
1196.201, 562.1953
1197.285, 100.6484
1198.369, 208.0938
1199.452, 152.5430
1200.536, 443.0000
1201.619, 197.4531
1202.702, 333.9102
1203.785, 102.3633
1204.868, 249.8203
1205.950, 459.2734
1207.033, 20.73438
1208.115, 673.1836
1209.197, 269.6562
1210.279, 316.1289
1211.361, 324.6016
1212.443, 33.92578
1213.525, 4.417969
1214.606, 336.0234
1215.687, 428.4609
1216.769, 316.8984
1217.850, 117.3398
1218.930, 257.7773
1220.011, 180.2148
1221.092, 120.6523
1222.172, 261.0938
1223.252, 310.5312
1224.333, 284.9688
1225.413, 219.4141
1226.492, 102.8516
1227.572, 312.3203
1228.652, 788.7734
1229.731, 306.7305
1230.810, 341.1836
1231.889, 70.35938
1232.968, 316.0508
1234.047, 168.5156
1235.126, 83.16016
1236.204, 229.1445
1237.283, 266.4531
1238.361, 451.8398
1239.439, 167.1680
1240.517, 317.5039
1241.595, 196.1094
1242.673, 72.37891
1243.750, 88.71094
1244.827, 24.25000
1245.905, 29.63672
1246.982, 319.0117
1248.059, 193.3906
1249.135, 200.8438
1250.212, 236.2500
1251.288, 100.6562
1252.365, 224.0586
1253.441, 376.4766
1254.517, 214.8867
1255.593, 302.2031
1256.669, 447.6133
1257.744, 306.0195
1258.820, 235.8320
1259.895, 152.2266
1260.970, 281.6250
1262.045, 150.0195
1263.120, 161.1914
1264.195, 25.42578
1265.270, 331.9297
1266.344, 111.2773
1267.418, 290.6211
1268.492, 131.9609
1269.566, 312.2969
1270.640, 172.6250
1271.714, 222.9570
1272.788, 285.2773
1273.861, 246.5977
1274.934, 152.9141
1276.007, 209.2227
1277.080, 266.5352
1278.153, 241.8438
