##NAMES=Ferberite
##RRUFFID=R050632
##IDEAL CHEMISTRY=Fe^2+^W^6+^O_4_
##LOCALITY=Chance mine, Boulder, Colorado, USA
##OWNER=RRUFF
##SOURCE=University of Arizona Mineral Museum
##DESCRIPTION=Dark brown rectangular prismatic crystals
##STATUS=The identification of this mineral has been confirmed by X-ray diffraction and chemical analysis
##URL=rruff.info/R050632
##MEASURED CHEMISTRY=Fe^2+^_1.00_WO_4_
##PIN_ID=M00360
##ORIENTATION=Laser parallel to -a* (-1 0 0). Fiducial mark perpendicular to laser is parallel to b [0 1 0]
157.4550, 0.0000000E+00
158.6810, 76.87305
159.9080, 8.458984
161.1340, 283.3184
162.3590, 261.0898
163.5850, 665.5996
164.8110, 818.8457
166.0360, 655.8984
167.2610, 706.4355
168.4860, 786.7793
169.7110, 970.6562
170.9360, 1032.717
172.1610, 813.1152
173.3850, 817.3301
174.6100, 870.0703
175.8340, 997.1387
177.0580, 733.6191
178.2820, 1003.361
179.5050, 1004.109
180.7290, 908.7207
181.9520, 1133.809
183.1760, 1052.619
184.3990, 1222.357
185.6220, 1364.188
186.8450, 1545.238
188.0670, 1688.627
189.2900, 1860.438
190.5120, 1813.971
191.7340, 2243.051
192.9560, 2433.742
194.1780, 3019.098
195.4000, 3275.164
196.6220, 3821.262
197.8430, 4260.414
199.0640, 5143.959
200.2860, 6091.629
201.5070, 7384.545
202.7270, 8235.574
203.9480, 8807.164
205.1690, 8951.938
206.3890, 9113.893
207.6090, 8552.008
208.8290, 8097.281
210.0490, 7214.705
211.2690, 6293.277
212.4890, 4974.986
213.7080, 4479.824
214.9280, 3448.779
216.1470, 2809.836
217.3660, 2109.984
218.5850, 1546.221
219.8030, 1134.824
221.0220, 1051.959
222.2400, 587.7559
223.4590, 561.2676
224.6770, 605.8828
225.8950, 482.5938
227.1120, 294.3984
228.3300, 373.2852
229.5480, 44.35742
230.7650, 102.5312
231.9820, 90.77539
233.1990, 72.09766
234.4160, 10.49805
235.6330, 115.0039
236.8490, 129.3711
238.0660, 6.656250
239.2820, 157.7559
240.4980, 120.7676
241.7140, 39.70312
242.9300, 114.5625
244.1460, 90.35156
245.3610, 64.07422
246.5770, 32.73242
247.7920, 41.66797
249.0070, 47.58008
250.2220, 35.65039
251.4370, 67.21484
252.6510, 416.8145
253.8660, 325.6270
255.0800, 588.9473
256.2940, 805.2422
257.5080, 977.0469
258.7220, 970.9746
259.9360, 1194.670
261.1490, 1326.186
262.3630, 1454.105
263.5760, 1710.094
264.7890, 1729.934
266.0020, 1690.561
267.2150, 2085.561
268.4270, 1946.598
269.6400, 1853.602
270.8520, 1829.480
272.0640, 1619.230
273.2760, 1344.895
274.4880, 1084.471
275.7000, 948.0371
276.9120, 809.6562
278.1230, 643.3242
279.3340, 413.0449
280.5450, 306.6719
281.7560, 168.6328
282.9670, 39.50000
284.1780, 78.41602
285.3880, 48.11328
286.5980, 48.89258
287.8090, 74.49023
289.0190, 213.5879
290.2290, 382.4062
291.4380, 157.5938
292.6480, 527.8262
293.8570, 626.0879
295.0670, 805.2930
296.2760, 1024.635
297.4850, 1121.436
298.6930, 1189.488
299.9020, 1041.615
301.1110, 1140.475
302.3190, 1019.988
303.5270, 1204.447
304.7350, 1465.307
305.9430, 1538.139
307.1510, 1835.965
308.3580, 2000.004
309.5660, 2607.199
310.7730, 2790.523
311.9800, 3367.002
313.1870, 3903.562
314.3940, 4493.201
315.6010, 5359.891
316.8070, 6146.508
318.0130, 6850.967
319.2200, 8118.758
320.4260, 9331.111
321.6310, 10423.95
322.8370, 11580.80
324.0430, 12455.64
325.2480, 13051.46
326.4540, 13590.25
327.6590, 13267.01
328.8640, 12694.77
330.0680, 11736.51
331.2730, 10909.25
332.4780, 9594.979
333.6820, 8452.721
334.8860, 7762.467
336.0900, 6835.215
337.2940, 5928.967
338.4980, 5393.730
339.7010, 4940.496
340.9050, 4402.273
342.1080, 3988.896
343.3110, 3665.365
344.5140, 3346.566
345.7170, 2912.631
346.9200, 2806.574
348.1220, 2476.514
349.3240, 2431.490
350.5270, 2233.510
351.7290, 2177.564
352.9310, 1807.658
354.1320, 1684.787
355.3340, 1637.951
356.5350, 1569.152
357.7370, 1297.387
358.9380, 1170.656
360.1390, 1252.959
361.3400, 961.2949
362.5400, 996.6660
363.7410, 1116.066
364.9410, 840.5039
366.1410, 704.9688
367.3410, 608.4434
368.5410, 585.9492
369.7410, 737.4883
370.9400, 586.0586
372.1400, 474.6582
373.3390, 601.2891
374.5380, 457.9512
375.7370, 404.6445
376.9360, 335.3652
378.1350, 268.1172
379.3330, 128.0547
380.5310, 189.3379
381.7300, 188.2969
382.9280, 298.7168
384.1260, 286.8535
385.3230, 327.4082
386.5210, 272.1387
387.7180, 435.2676
388.9160, 243.0078
390.1130, 249.4824
391.3100, 485.9141
392.5060, 500.0117
393.7030, 535.1367
394.9000, 491.2871
396.0960, 470.4648
397.2920, 757.6758
398.4880, 815.9082
399.6840, 764.1719
400.8800, 697.4590
402.0750, 460.7754
403.2710, 449.1191
404.4660, 301.4902
405.6610, 335.8887
406.8560, 251.3105
408.0510, 98.76367
409.2450, 245.2441
410.4400, 86.74805
411.6340, 20.72266
412.8280, 293.8340
414.0220, 90.41797
415.2160, 21.97461
416.4100, 203.6582
417.6030, 95.32422
418.7970, 102.0156
419.9900, 132.7363
421.1830, 26.51367
422.3760, 98.25977
423.5690, 260.0625
424.7610, 94.67773
425.9540, 496.7559
427.1460, 33.35547
428.3380, 47.55664
429.5300, 123.1309
430.7220, 87.09180
431.9140, 18.08398
433.1050, 235.0996
434.2970, 0.1406250
435.4880, 155.2070
436.6790, 92.30078
437.8700, 154.4199
439.0610, 119.4375
440.2510, 56.71094
441.4420, 87.88672
442.6320, 72.91016
443.8220, 172.2871
445.0120, 52.52930
446.2020, 151.7969
447.3910, 22.08984
448.5810, 76.58594
449.7700, 34.75586
450.9600, 58.96875
452.1490, 172.3809
453.3370, 37.81836
454.5260, 7.273438
455.7150, 256.7559
456.9030, 286.5215
458.0910, 64.06641
459.2800, 76.61719
460.4670, 132.0000
461.6550, 19.58203
462.8430, 19.42188
464.0300, 34.07617
465.2180, 111.4473
466.4050, 93.10742
467.5920, 135.7891
468.7790, 122.4941
469.9650, 173.2168
471.1520, 190.1621
472.3380, 200.0645
473.5250, 269.8516
474.7110, 352.6602
475.8970, 458.2637
477.0820, 167.1152
478.2680, 232.9902
479.4540, 197.8828
480.6390, 411.8008
481.8240, 344.4082
483.0090, 361.0293
484.1940, 481.6797
485.3780, 218.6973
486.5630, 615.7422
487.7470, 401.8145
488.9320, 525.9121
490.1160, 575.0312
491.3000, 478.1758
492.4830, 599.3496
493.6670, 425.5469
494.8500, 689.7695
496.0340, 549.0215
497.2170, 633.3047
498.4000, 615.3203
499.5820, 873.9414
500.7650, 583.2949
501.9480, 742.6738
503.1300, 908.0820
504.3120, 716.5098
505.4940, 905.9805
506.6760, 853.4727
507.8580, 901.9902
509.0390, 612.5430
510.2210, 1065.143
511.4020, 863.8203
512.5830, 816.5469
513.7640, 959.3203
514.9450, 919.1230
516.1250, 852.3984
517.3060, 876.4277
518.4860, 778.6738
519.6660, 783.5762
520.8460, 1015.521
522.0260, 958.5527
523.2060, 936.6934
524.3850, 878.9355
525.5650, 892.6250
526.7440, 957.5957
527.9230, 964.0488
529.1020, 976.8418
530.2810, 1011.111
531.4590, 960.7188
532.6380, 929.3711
533.8160, 877.0566
534.9940, 1036.762
536.1720, 722.4883
537.3500, 822.2402
538.5270, 708.0098
539.7050, 846.8008
540.8820, 952.6133
542.0590, 919.4453
543.2360, 748.2969
544.4130, 772.1719
545.5900, 964.0625
546.7660, 797.9766
547.9430, 902.9102
549.1190, 856.8652
550.2950, 842.0977
551.4710, 934.8301
552.6470, 875.8418
553.8220, 802.4277
554.9980, 865.4785
556.1730, 726.5488
557.3480, 895.1543
558.5230, 944.2617
559.6980, 1117.389
560.8730, 873.5332
562.0470, 842.6992
563.2220, 868.2637
564.3960, 913.4668
565.5700, 1107.688
566.7440, 828.9238
567.9170, 1138.180
569.0910, 940.6133
570.2640, 990.9023
571.4380, 739.2246
572.6110, 763.5625
573.7840, 639.9199
574.9570, 832.2910
576.1290, 380.6504
577.3020, 640.0605
578.4740, 596.4824
579.6460, 558.9219
580.8180, 155.8086
581.9900, 352.2832
583.1620, 112.7734
584.3330, 54.92578
585.5040, 130.8750
586.6760, 143.4141
587.8470, 43.46680
589.0180, 37.03906
590.1880, 145.5332
591.3590, 35.93164
592.5290, 94.66992
593.7000, 124.2852
594.8700, 215.0801
596.0400, 6.464844
597.2090, 42.97852
598.3790, 122.3359
599.5490, 46.89648
600.7180, 8.136719
601.8870, 86.02148
603.0560, 57.60156
604.2250, 14.65820
605.3940, 86.26758
606.5620, 58.00000
607.7300, 129.6387
608.8990, 103.2871
610.0670, 131.9512
611.2350, 60.62891
612.4020, 1.607422
613.5700, 121.0918
614.7370, 10.80273
615.9050, 29.47266
617.0720, 114.2480
618.2390, 122.9844
619.4060, 159.2480
620.5720, 101.4883
621.7390, 175.2598
622.9050, 166.0430
624.0710, 58.83984
625.2370, 195.3750
626.4030, 314.5234
627.5690, 129.3555
628.7340, 19.19922
629.9000, 279.0586
631.0650, 351.9258
632.2300, 50.80469
633.3950, 272.6953
634.5600, 496.9785
635.7240, 226.9590
636.8890, 384.0801
638.0530, 200.0156
639.2170, 139.9629
640.3810, 372.9219
641.5450, 335.8887
642.7080, 328.1582
643.8720, 336.1484
645.0350, 342.3418
646.1980, 389.3477
647.3610, 431.3711
648.5240, 437.0059
649.6870, 469.7480
650.8490, 468.6484
652.0120, 462.2500
653.1740, 661.9785
654.3360, 811.4785
655.4980, 915.0078
656.6600, 840.6348
657.8210, 996.7676
658.9830, 1060.438
660.1440, 1124.893
661.3050, 1324.355
662.4660, 1288.098
663.6270, 1482.209
664.7870, 1574.279
665.9480, 1721.193
667.1080, 1763.598
668.2680, 1837.363
669.4280, 2213.568
670.5880, 2463.715
671.7480, 2664.861
672.9070, 2998.504
674.0670, 3102.203
675.2260, 3549.318
676.3850, 3511.475
677.5440, 3724.633
678.7030, 4281.793
679.8610, 4494.953
681.0200, 4621.117
682.1780, 5299.281
683.3360, 5409.449
684.4940, 5491.615
685.6520, 5482.785
686.8090, 5552.955
687.9670, 5617.125
689.1240, 5460.301
690.2810, 5072.475
691.4380, 5067.648
692.5950, 4380.824
693.7520, 4206.006
694.9080, 3741.186
696.0650, 3469.369
697.2210, 3289.557
698.3770, 3009.744
699.5330, 2701.281
700.6880, 2281.123
701.8440, 2141.312
702.9990, 1779.506
704.1550, 1715.701
705.3100, 1316.898
706.4650, 1452.094
707.6190, 1245.293
708.7740, 1088.496
709.9290, 1010.699
711.0830, 999.9062
712.2370, 734.1094
713.3910, 710.3164
714.5450, 654.5234
715.6980, 467.7305
716.8520, 507.6816
718.0050, 465.4688
719.1580, 559.3594
720.3110, 403.5898
721.4640, 557.8223
722.6170, 336.0547
723.7700, 58.70312
724.9220, 192.4863
726.0740, 62.67383
727.2260, 231.8574
728.3780, 31.04297
729.5300, 33.77344
730.6810, 356.5430
731.8330, 207.6836
732.9840, 162.8262
734.1350, 222.9746
735.2860, 135.1191
736.4370, 22.99414
737.5880, 81.88086
738.7380, 18.01953
739.8880, 26.47852
741.0390, 138.3184
742.1890, 203.0938
743.3380, 223.3320
744.4880, 65.68555
745.6380, 137.7656
746.7870, 117.7695
747.9360, 93.99609
749.0850, 198.3926
750.2340, 66.62500
751.3830, 168.6641
752.5310, 177.5586
753.6800, 229.2422
754.8280, 186.5195
755.9760, 174.1914
757.1240, 254.5039
758.2720, 327.4844
759.4190, 119.5723
760.5670, 267.6660
761.7140, 264.7598
762.8610, 14.14258
764.0080, 9.933594
765.1550, 215.9980
766.3020, 256.0664
767.4480, 269.0391
768.5950, 120.2129
769.7410, 237.2910
770.8870, 78.37500
772.0330, 34.45898
773.1780, 53.25586
774.3240, 8.632813
775.4690, 111.7109
776.6140, 100.7930
777.7590, 95.13867
778.9040, 117.9707
780.0490, 34.06641
781.1940, 75.16016
782.3380, 28.74023
783.4820, 102.3359
784.6260, 302.4141
785.7700, 23.50000
786.9140, 61.43750
788.0580, 187.4160
789.2010, 83.49219
790.3450, 56.62305
791.4880, 2.785156
792.6310, 82.03906
793.7730, 106.8711
794.9160, 6.708984
796.0590, 19.54297
797.2010, 66.62109
798.3430, 183.8242
799.4850, 192.1250
800.6270, 128.5254
801.7690, 45.01172
802.9100, 189.4492
804.0520, 18.99414
805.1930, 36.55859
806.3340, 227.8691
807.4750, 78.30469
808.6160, 275.7461
809.7560, 132.1953
810.8970, 71.65430
812.0370, 247.1172
813.1770, 47.59180
814.3170, 75.07227
815.4570, 218.5605
816.5960, 197.0586
817.7360, 270.5625
818.8750, 137.0781
820.0140, 299.6035
821.1530, 258.1367
822.2920, 294.6758
823.4310, 266.2285
824.5690, 372.7871
825.7070, 372.3574
826.8460, 283.9375
827.9840, 499.5254
829.1220, 524.1270
830.2590, 648.7363
831.3970, 566.3594
832.5340, 758.9883
833.6710, 726.6309
834.8080, 900.2832
835.9450, 1053.947
837.0820, 1133.031
838.2190, 1067.309
839.3550, 1386.006
840.4910, 1412.729
841.6270, 1522.451
842.7630, 1722.186
843.8990, 1778.932
845.0350, 1903.689
846.1700, 2289.461
847.3060, 2809.244
848.4410, 2845.041
849.5760, 3242.850
850.7100, 3642.674
851.8450, 3949.508
852.9800, 4457.359
854.1140, 4971.221
855.2480, 5476.100
856.3820, 6008.988
857.5160, 7041.895
858.6500, 7868.812
859.7830, 9016.746
860.9170, 10385.27
862.0500, 11568.23
863.1830, 13306.71
864.3160, 15285.71
865.4480, 17597.29
866.5810, 20248.38
867.7130, 23014.44
868.8460, 26245.50
869.9780, 29969.59
871.1100, 33533.75
872.2410, 36061.93
873.3730, 38247.36
874.5050, 39526.37
875.6360, 39351.26
876.7670, 38551.52
877.8980, 36241.81
879.0290, 33430.12
880.1590, 30405.45
881.2900, 26771.68
882.4200, 23794.05
883.5500, 20726.44
884.6800, 18046.86
885.8100, 15733.29
886.9400, 13956.68
888.0690, 12087.16
889.1990, 10668.65
890.3280, 9503.176
891.4570, 8261.727
892.5860, 7435.297
893.7140, 6337.893
894.8430, 5975.508
895.9710, 5460.145
897.1000, 4668.803
898.2280, 4398.500
899.3560, 3922.490
900.4830, 3690.916
901.6110, 3374.693
902.7380, 2995.508
903.8660, 2826.344
904.9930, 2646.205
906.1200, 2338.090
907.2460, 2327.016
908.3730, 2093.184
909.5000, 2046.506
910.6260, 1778.316
911.7520, 1587.350
912.8780, 1427.404
914.0040, 1383.486
915.1290, 1404.592
916.2550, 1215.432
917.3800, 1339.588
918.5050, 1146.873
919.6300, 1060.857
920.7550, 843.1367
921.8800, 839.6367
923.0040, 659.9824
924.1290, 865.0059
925.2530, 736.2051
926.3770, 583.0391
927.5010, 792.0801
928.6250, 748.5996
929.7480, 807.1465
930.8720, 568.8711
931.9950, 485.1191
933.1180, 597.7559
934.2410, 539.5918
935.3640, 676.0234
936.4860, 466.2715
937.6090, 707.0547
938.7310, 426.8926
939.8530, 426.5547
940.9750, 506.5098
942.0970, 365.4219
943.2180, 501.3691
944.3400, 515.3496
945.4610, 347.3613
946.5820, 430.4102
947.7030, 457.4902
948.8240, 157.6055
949.9450, 339.7539
951.0650, 404.9375
952.1860, 437.1523
953.3060, 340.4043
954.4260, 271.6875
955.5460, 271.0059
956.6650, 292.3594
957.7850, 256.6875
958.9040, 230.3223
960.0230, 224.6367
961.1420, 198.1348
962.2610, 151.6680
963.3800, 264.2363
964.4990, 211.8398
965.6170, 224.1348
966.7350, 184.1641
967.8530, 229.8809
968.9710, 216.6309
970.0890, 267.4180
971.2070, 97.23828
972.3240, 346.0977
973.4410, 75.99023
974.5580, 2.921875
975.6750, 183.8867
976.7920, 204.8848
977.9090, 126.9219
979.0250, 180.9961
980.1410, 41.10352
981.2580, 418.2480
982.3740, 163.4316
983.4890, 405.6523
984.6050, 206.9082
985.7200, 199.2012
986.8360, 325.5293
987.9510, 208.8945
989.0660, 308.0449
990.1810, 401.7344
991.2950, 399.2070
992.4100, 200.7168
993.5240, 204.2715
994.6390, 271.8789
995.7530, 245.5879
996.8660, 268.3340
997.9800, 292.1211
999.0940, 293.9473
1000.207, 311.8203
1001.320, 353.2227
1002.433, 353.7168
1003.546, 438.7207
1004.659, 408.7598
1005.772, 435.4336
1006.884, 411.8887
1007.996, 389.1328
1009.108, 326.3848
1010.220, 400.7070
1011.332, 356.0703
1012.444, 253.4688
1013.555, 119.9062
1014.666, 402.3750
1015.777, 222.8828
1016.888, 283.6426
1017.999, 238.9922
1019.110, 466.6074
1020.220, 314.2598
1021.331, 616.9453
1022.441, 270.6699
1023.551, 287.4277
1024.661, 178.2227
1025.770, 250.0508
1026.880, 329.3105
1027.989, 394.2090
1029.098, 240.1465
1030.207, 109.1211
1031.316, 264.0801
1032.425, 290.1270
1033.533, 209.3379
1034.642, 257.4746
1035.750, 407.2949
1036.858, 183.5215
1037.966, 571.7812
1039.073, 260.8535
1040.181, 367.9219
1041.288, 425.3496
1042.396, 437.1387
1043.503, 272.0488
1044.610, 335.7324
1045.716, 307.3926
1046.823, 275.3047
1047.929, 371.4355
1049.036, 231.4297
1050.142, 325.5996
1051.248, 332.2324
1052.353, 380.8320
1053.459, 331.7949
1054.564, 311.4121
1055.670, 387.2441
1056.775, 626.8340
1057.880, 508.8652
1058.985, 584.9473
1060.089, 573.0801
1061.194, 585.4316
1062.298, 594.6367
1063.402, 498.8711
1064.506, 675.1426
1065.610, 696.4453
1066.713, 672.8008
1067.817, 511.3848
1068.920, 586.9590
1070.023, 657.5469
1071.126, 665.1641
1072.229, 665.8613
1073.332, 648.8594
1074.435, 670.3613
1075.537, 578.1621
1076.639, 659.9922
1077.741, 670.8926
1078.843, 578.0059
1079.945, 511.9609
1081.046, 384.9453
1082.148, 566.9570
1083.249, 465.9980
1084.350, 593.0781
1085.451, 650.1875
1086.551, 622.3242
1087.652, 476.4883
1088.752, 482.6992
1089.853, 441.1992
1090.953, 425.1426
1092.053, 390.9238
1093.152, 504.2227
1094.252, 426.5508
1095.351, 479.9062
1096.451, 225.2871
1097.550, 248.3828
1098.649, 413.8164
1099.748, 344.2734
1100.846, 623.7578
1101.945, 486.2656
1103.043, 211.7988
1104.141, 370.3574
1105.239, 517.9375
1106.337, 307.5469
1107.434, 486.1641
1108.532, 186.8203
1109.629, 347.1797
1110.726, 489.8809
1111.823, 496.6074
1112.920, 294.3555
1114.017, 380.1270
1115.113, 596.5176
1116.210, 800.3379
1117.306, 904.8262
1118.402, 1027.043
1119.498, 1087.928
1120.593, 1195.842
1121.689, 1123.771
1122.784, 1340.729
1123.879, 1586.703
1124.974, 1477.400
1126.069, 1312.264
1127.164, 1378.258
1128.259, 738.3164
1129.353, 588.9863
1130.447, 487.9238
1131.541, 426.0020
1132.635, 274.1367
1133.729, 284.2891
1134.822, 84.45703
1135.916, 158.6484
1137.009, 301.9590
1138.102, 96.18555
1139.195, 101.2285
1140.288, 122.2402
1141.380, 94.13867
1142.473, 146.5781
1143.565, 168.8867
1144.657, 183.2109
1145.749, 214.5527
1146.841, 100.9043
1147.932, 46.72461
1149.024, 33.35352
1150.115, 23.02539
1151.206, 110.4199
1152.297, 112.7148
1153.388, 139.2461
1154.479, 143.6797
1155.569, 103.1289
1156.659, 88.58789
1157.750, 17.93750
1158.839, 198.5430
1159.929, 115.0391
1161.019, 45.81445
1162.108, 78.66406
1163.198, 17.84180
1164.287, 80.63867
1165.376, 118.8613
1166.465, 89.49609
1167.553, 22.45508
1168.642, 144.9570
1169.730, 6.429688
1170.818, 85.90820
1171.906, 32.41016
1172.994, 97.30273
1174.082, 27.19141
1175.170, 146.3145
1176.257, 185.8320
1177.344, 138.5059
1178.431, 272.3789
1179.518, 83.10742
1180.605, 168.6562
1181.691, 113.7891
1182.778, 98.27734
1183.864, 216.1934
1184.950, 127.0508
1186.036, 69.97852
1187.122, 212.4824
1188.207, 128.0488
1189.292, 27.36914
1190.378, 72.78906
1191.463, 0.2187500
1192.548, 131.6445
1193.632, 60.08008
1194.717, 146.5176
1195.801, 162.9609
1196.886, 146.4062
1197.970, 37.96875
1199.054, 70.53516
1200.137, 40.86523
1201.221, 185.2676
1202.305, 164.6738
1203.388, 164.0820
1204.471, 197.8887
1205.554, 60.17188
1206.637, 162.5820
1207.719, 80.24023
1208.802, 8.660156
1209.884, 111.0801
1210.966, 237.5020
1212.048, 133.9277
1213.130, 233.3730
1214.212, 371.7480
1215.293, 245.1719
1216.374, 218.6152
1217.456, 157.0605
1218.536, 109.5059
1219.617, 158.9492
1220.698, 115.3926
1221.778, 9.166016
1222.859, 249.2598
1223.939, 239.5039
1225.019, 104.9688
1226.099, 177.3926
1227.178, 9.187500
1228.258, 212.2109
1229.337, 248.6113
1230.417, 266.0059
1231.496, 92.39844
1232.574, 58.80469
1233.653, 84.34375
1234.732, 200.5801
1235.810, 129.9609
1236.888, 97.33984
1237.966, 45.24219
1239.044, 16.08203
1240.122, 67.43945
1241.199, 162.7930
1242.277, 129.1406
1243.354, 150.4863
1244.431, 21.82617
1245.508, 140.1543
1246.585, 138.4805
1247.661, 94.35352
1248.738, 156.8945
1249.814, 67.67578
1250.890, 175.9746
1251.966, 106.0547
1253.042, 305.5645
1254.117, 0.8457030
1255.193, 28.89648
1256.268, 113.6777
1257.343, 234.4570
1258.418, 31.58594
1259.493, 193.6992
1260.567, 26.80859
1261.642, 232.9023
1262.716, 125.9863
1263.790, 98.06445
1264.864, 192.0762
1265.938, 22.13867
1267.011, 218.1836
1268.085, 31.22070
1269.158, 4.242188
1270.231, 34.76367
1271.304, 70.18164
1272.377, 250.1172
1273.450, 370.0449
1274.522, 321.0625
1275.594, 197.8711
1276.666, 212.7715
1277.738, 125.4473
1278.810, 159.5586
1279.882, 123.0820
1280.953, 128.4531
1282.025, 95.14844
1283.096, 157.9941
1284.167, 172.8340
1285.238, 184.1426
1286.308, 176.5449
1287.379, 98.99414
1288.449, 174.8242
1289.519, 26.08398
1290.589, 109.8828
1291.659, 346.7246
1292.729, 111.5000
1293.798, 125.1504
1294.868, 72.90820
1295.937, 32.99609
1297.006, 106.6992
1298.075, 42.54297
1299.143, 169.9336
1300.212, 222.7441
1301.280, 1.255859
1302.348, 235.8340
1303.416, 249.4199
1304.484, 255.9785
1305.552, 68.52148
1306.620, 15.94336
1307.687, 65.54883
1308.754, 111.0254
1309.821, 212.4941
1310.888, 204.0508
1311.955, 158.4570
1313.021, 43.89062
1314.088, 39.73438
1315.154, 112.6172
1316.220, 92.12695
1317.286, 162.2754
1318.352, 164.6504
1319.417, 241.0117
1320.483, 262.1797
1321.548, 175.6797
1322.613, 139.9941
1323.678, 236.3047
1324.743, 333.6602
1325.807, 56.95117
1326.872, 179.0898
1327.936, 116.4902
1329.000, 91.75586
1330.064, 179.9688
