##NAMES=Ferberite
##RRUFFID=R040044
##IDEAL CHEMISTRY=Fe^2+^W^6+^O_4_
##LOCALITY=Chocote, Bolivia
##OWNER=RRUFF
##SOURCE=University of Arizona Mineral Museum
##DESCRIPTION=Black tabular single crystal
##STATUS=The identification of this mineral has been confirmed by X-ray diffraction and chemical analysis
##URL=rruff.info/R040044
##MEASURED CHEMISTRY=(Fe_0.82_Mn_0.08_Mg_0.07_Pb_0.03_)_Î£=1_W_1.00_O_4_
##PIN_ID=L01748
##ORIENTATION=Laser parallel to (1 0 1). Fiducial mark perpendicular to laser is parallel to b [0 1 0]
99.34400, 0.0000000E+00
100.5810, 202.3906
101.8190, 3.929688
103.0560, 174.8848
104.2930, 286.8965
105.5290, 924.2188
106.7660, 2827.805
108.0020, 2142.080
109.2390, 3547.387
110.4750, 1973.051
111.7110, 1639.141
112.9460, 2113.742
114.1820, 2300.947
115.4170, 2719.287
116.6530, 2824.891
117.8880, 2892.594
119.1230, 1788.314
120.3580, 1336.309
121.5920, 3303.605
122.8270, 2278.197
124.0610, 2755.916
125.2950, 2782.859
126.5290, 3272.998
127.7630, 4463.438
128.9970, 6014.969
130.2300, 8396.334
131.4640, 11201.00
132.6970, 13267.16
133.9300, 14157.07
135.1630, 13321.14
136.3950, 10642.46
137.6280, 7829.805
138.8600, 5294.861
140.0920, 3961.193
141.3240, 2403.363
142.5560, 1321.971
143.7880, 545.0391
145.0190, 349.5723
146.2510, 73.61914
147.4820, 288.2480
148.7130, 36.51562
149.9440, 49.66016
151.1750, 166.8379
152.4050, 34.99805
153.6360, 95.15234
154.8660, 183.4082
156.0960, 45.30078
157.3260, 66.25781
158.5560, 66.44531
159.7850, 144.8477
161.0150, 509.5488
162.2440, 185.7559
163.4730, 406.7852
164.7020, 313.7363
165.9310, 221.8340
167.1590, 128.8184
168.3880, 232.1133
169.6160, 429.2734
170.8440, 548.3672
172.0720, 435.6484
173.3000, 461.9570
174.5280, 524.2715
175.7550, 711.2617
176.9820, 792.8496
178.2100, 835.3477
179.4370, 938.3945
180.6630, 861.4902
181.8900, 858.1758
183.1170, 729.3125
184.3430, 881.1445
185.5690, 874.0000
186.7950, 1052.578
188.0210, 1202.072
189.2470, 1173.641
190.4720, 1343.273
191.6970, 1323.971
192.9230, 1582.729
194.1480, 1757.055
195.3730, 1858.531
196.5970, 2030.434
197.8220, 2389.357
199.0460, 2591.234
200.2700, 2669.107
201.4940, 3237.943
202.7180, 3032.684
203.9420, 2580.295
205.1660, 1927.959
206.3890, 1772.666
207.6120, 1782.418
208.8350, 2020.207
210.0580, 2392.027
211.2810, 2236.867
212.5040, 2296.723
213.7260, 2231.592
214.9480, 2016.480
216.1700, 1658.385
217.3920, 1533.303
218.6140, 1390.238
219.8360, 963.1914
221.0570, 1056.166
222.2790, 620.1582
223.5000, 381.1738
224.7210, 447.2090
225.9410, 254.2637
227.1620, 202.3379
228.3820, 50.43555
229.6030, 106.5586
230.8230, 29.29688
232.0430, 186.8711
233.2630, 381.0625
234.4820, 47.27734
235.7020, 24.51953
236.9210, 73.20898
238.1400, 36.07031
239.3590, 53.67773
240.5780, 44.59766
241.7970, 44.22070
243.0150, 75.96484
244.2340, 201.8027
245.4520, 95.76562
246.6700, 127.9316
247.8880, 250.1387
249.1060, 222.8594
250.3230, 14.25586
251.5400, 215.4238
252.7580, 159.4961
253.9750, 63.48242
255.1920, 84.88281
256.4080, 45.57031
257.6250, 293.6367
258.8410, 281.5430
260.0580, 178.5859
261.2740, 391.6738
262.4900, 12.54883
263.7050, 66.65430
264.9210, 134.0449
266.1360, 57.68750
267.3520, 157.2695
268.5670, 72.80273
269.7820, 99.27930
270.9960, 24.61133
272.2110, 170.7734
273.4250, 95.72266
274.6400, 163.5391
275.8540, 287.0801
277.0680, 154.3945
278.2810, 269.7109
279.4950, 125.0312
280.7090, 124.3496
281.9220, 134.6582
283.1350, 342.9492
284.3480, 406.2129
285.5610, 260.4414
286.7730, 218.6387
287.9860, 60.80859
289.1980, 53.94727
290.4100, 215.0566
291.6220, 302.1484
292.8340, 215.2188
294.0460, 261.2676
295.2570, 377.5605
296.4690, 457.9512
297.6800, 598.9570
298.8910, 487.9219
300.1020, 599.2871
301.3120, 506.2656
302.5230, 527.6934
303.7330, 646.7852
304.9440, 733.8477
306.1540, 824.9805
307.3630, 623.9355
308.5730, 1005.891
309.7830, 856.8555
310.9920, 1119.797
312.2010, 1052.684
313.4100, 1258.566
314.6190, 1222.355
315.8280, 1548.074
317.0370, 1586.750
318.2450, 1918.232
319.4530, 2275.561
320.6610, 2285.611
321.8690, 2722.518
323.0770, 3262.354
324.2850, 3685.205
325.4920, 4305.080
326.6990, 4414.994
327.9060, 4909.889
329.1130, 5030.814
330.3200, 5236.781
331.5270, 5096.758
332.7330, 5415.754
333.9390, 5037.773
335.1450, 4683.852
336.3510, 4576.949
337.5570, 4065.070
338.7630, 3922.215
339.9680, 3465.387
341.1740, 3008.611
342.3790, 2803.855
343.5840, 2529.123
344.7890, 2216.420
345.9930, 1944.738
347.1980, 1902.078
348.4020, 1774.445
349.6060, 1605.424
350.8100, 1456.246
352.0140, 1342.682
353.2180, 1196.141
354.4210, 1101.625
355.6250, 1095.133
356.8280, 1024.666
358.0310, 1172.238
359.2340, 958.8320
360.4360, 939.4531
361.6390, 793.0977
362.8410, 973.7695
364.0430, 923.5117
365.2450, 943.3047
366.4470, 759.1230
367.6490, 781.7168
368.8510, 675.8496
370.0520, 752.7891
371.2530, 706.7637
372.4540, 753.7656
373.6550, 660.2559
374.8560, 690.0117
376.0560, 635.4531
377.2570, 599.5977
378.4570, 758.8184
379.6570, 780.8086
380.8570, 878.0078
382.0570, 688.3809
383.2560, 824.2969
384.4560, 938.1367
385.6550, 1142.496
386.8540, 1057.172
388.0530, 993.9805
389.2520, 1087.498
390.4510, 1079.834
391.6490, 1308.695
392.8470, 1376.928
394.0450, 1798.896
395.2430, 1974.977
396.4410, 2377.443
397.6390, 2730.432
398.8360, 3233.605
400.0340, 3745.049
401.2310, 4173.891
402.4280, 4377.533
403.6250, 4066.188
404.8210, 4053.857
406.0180, 3683.537
407.2140, 2954.289
408.4100, 2797.211
409.6060, 2231.934
410.8020, 1876.098
411.9980, 1716.854
413.1930, 1217.279
414.3890, 848.9863
415.5840, 1090.387
416.7790, 888.2070
417.9740, 744.9492
419.1680, 648.8086
420.3630, 501.6895
421.5570, 543.5898
422.7510, 449.3457
423.9450, 570.4648
425.1390, 372.4316
426.3330, 421.4258
427.5270, 373.4414
428.7200, 396.4785
429.9130, 233.5391
431.1060, 383.6250
432.2990, 365.4023
433.4920, 501.1309
434.6840, 428.2871
435.8770, 487.4688
437.0690, 377.6758
438.2610, 429.9082
439.4530, 401.1816
440.6450, 228.5039
441.8360, 438.8496
443.0280, 374.2227
444.2190, 556.6562
445.4100, 318.1172
446.6010, 354.6250
447.7920, 353.1816
448.9820, 481.7949
450.1730, 495.4824
451.3630, 386.1953
452.5530, 508.3867
453.7430, 337.1602
454.9330, 339.9648
456.1230, 582.7676
457.3120, 427.6230
458.5010, 541.5078
459.6910, 607.6152
460.8800, 606.5781
462.0680, 320.5723
463.2570, 426.5938
464.4460, 361.6484
465.6340, 645.4102
466.8220, 523.5391
468.0100, 545.7031
469.1980, 919.9805
470.3860, 668.2793
471.5730, 580.3320
472.7600, 751.4824
473.9480, 602.8281
475.1350, 641.2012
476.3210, 569.6094
477.5080, 734.3262
478.6950, 807.7969
479.8810, 889.6250
481.0670, 771.1602
482.2530, 953.3184
483.4390, 1041.377
484.6250, 856.0039
485.8100, 1341.664
486.9960, 1097.521
488.1810, 938.2422
489.3660, 1247.996
490.5510, 1000.781
491.7360, 1188.594
492.9200, 1150.439
494.1050, 1097.314
495.2890, 1076.223
496.4730, 1393.160
497.6570, 1523.129
498.8400, 1366.129
500.0240, 1362.320
501.2070, 1310.381
502.3910, 1402.098
503.5740, 1623.221
504.7570, 1510.375
505.9400, 1808.980
507.1220, 1554.988
508.3050, 1675.232
509.4870, 1806.504
510.6690, 1951.459
511.8510, 2019.584
513.0330, 2017.752
514.2140, 2175.143
515.3960, 2119.559
516.5770, 2262.014
517.7580, 2358.688
518.9390, 2478.887
520.1200, 2545.727
521.3010, 2606.320
522.4810, 2609.947
523.6610, 2745.527
524.8420, 2846.104
526.0220, 2974.018
527.2010, 3184.838
528.3810, 3278.768
529.5610, 3516.590
530.7400, 3418.553
531.9190, 3480.611
533.0980, 3525.734
534.2770, 3669.934
535.4560, 3578.236
536.6340, 3692.637
537.8120, 3831.080
538.9910, 3682.623
540.1690, 3598.246
541.3460, 3649.896
542.5240, 3548.578
543.7020, 3370.289
544.8790, 3270.025
546.0560, 3183.791
547.2330, 3023.584
548.4100, 2980.943
549.5870, 2840.260
550.7630, 2819.174
551.9400, 2714.117
553.1160, 2539.088
554.2920, 2526.088
555.4680, 2325.117
556.6440, 2303.170
557.8190, 2187.262
558.9950, 2155.379
560.1700, 1846.523
561.3450, 1864.695
562.5200, 2067.895
563.6950, 2074.123
564.8690, 1817.377
566.0440, 1639.656
567.2180, 1706.967
568.3920, 1683.303
569.5660, 1598.666
570.7400, 1463.057
571.9130, 1434.475
573.0870, 1451.922
574.2600, 1134.396
575.4330, 1238.900
576.6060, 892.4336
577.7790, 913.9941
578.9520, 579.5801
580.1240, 777.1934
581.2960, 667.8340
582.4690, 468.5020
583.6410, 530.1973
584.8120, 315.9219
585.9840, 377.6699
587.1560, 383.4453
588.3270, 72.24805
589.4980, 67.07812
590.6690, 299.9355
591.8400, 256.8184
593.0110, 44.19141
594.1810, 99.73047
595.3510, 133.6797
596.5220, 32.34570
597.6920, 134.6445
598.8610, 122.6621
600.0310, 53.81641
601.2010, 310.2344
602.3700, 240.3086
603.5390, 751.4102
604.7080, 52.53711
605.8770, 60.19531
607.0460, 69.08008
608.2140, 68.25781
609.3830, 65.53516
610.5510, 138.3340
611.7190, 59.16992
612.8870, 76.01562
614.0550, 203.1387
615.2220, 319.3164
616.3900, 140.5195
617.5570, 137.2520
618.7240, 108.9355
619.8910, 4.851563
621.0580, 20.37891
622.2240, 30.36133
623.3910, 138.0977
624.5570, 51.12891
625.7230, 12.37891
626.8890, 20.34961
628.0550, 23.93750
629.2200, 102.2480
630.3860, 193.5820
631.5510, 184.1816
632.7160, 96.32617
633.8810, 117.7344
635.0460, 166.1660
636.2100, 13.62305
637.3750, 192.1035
638.5390, 62.61133
639.7030, 53.86133
640.8670, 191.6641
642.0310, 4.789063
643.1950, 81.77539
644.3580, 100.3672
645.5210, 181.0215
646.6850, 118.4746
647.8480, 53.03516
649.0100, 13.56836
650.1730, 59.87500
651.3350, 117.3301
652.4980, 43.81836
653.6600, 24.68750
654.8220, 110.2227
655.9840, 82.77539
657.1450, 185.6445
658.3070, 31.86523
659.4680, 209.6055
660.6300, 40.84375
661.7910, 356.3184
662.9510, 78.18555
664.1120, 305.2910
665.2730, 9.792969
666.4330, 176.3125
667.5930, 287.8574
668.7530, 394.4258
669.9130, 504.0156
671.0730, 531.6094
672.2320, 383.2637
673.3920, 591.9219
674.5510, 448.6016
675.7100, 521.3047
676.8690, 770.0273
678.0280, 609.7734
679.1860, 839.5391
680.3450, 924.3242
681.5030, 698.1348
682.6610, 915.9629
683.8190, 1166.811
684.9770, 1408.682
686.1340, 1441.574
687.2920, 1422.484
688.4490, 1285.420
689.6060, 1719.373
690.7630, 1639.348
691.9200, 1657.344
693.0760, 1903.359
694.2330, 1752.396
695.3890, 1833.455
696.5450, 1653.531
697.7010, 1606.631
698.8570, 1484.764
700.0130, 1529.922
701.1680, 1392.096
702.3230, 1218.295
703.4780, 1474.521
704.6330, 1117.768
705.7880, 913.0508
706.9430, 969.3516
708.0970, 1016.674
709.2520, 863.0156
710.4060, 941.3926
711.5600, 771.7871
712.7140, 717.2031
713.8670, 696.6445
715.0210, 697.1387
716.1740, 497.6465
717.3270, 299.1797
718.4800, 490.7324
719.6330, 238.3066
720.7860, 421.9004
721.9380, 356.5508
723.0910, 362.2422
724.2430, 236.9766
725.3950, 250.7656
726.5470, 211.5898
727.6980, 353.4648
728.8500, 155.3555
730.0010, 256.2695
731.1530, 25.79492
732.3040, 260.6992
733.4550, 107.6758
734.6050, 261.6816
735.7560, 35.74023
736.9060, 158.7910
738.0560, 71.13867
739.2060, 86.74219
740.3560, 114.8145
741.5060, 123.9102
742.6560, 125.0254
743.8050, 9.837891
744.9540, 11.36328
746.1030, 118.7910
747.2520, 41.96484
748.4010, 142.0820
749.5500, 223.2266
750.6980, 71.32617
751.8460, 42.05664
752.9950, 103.3008
754.1420, 182.5703
755.2900, 60.85938
756.4380, 307.8945
757.5850, 159.2324
758.7330, 258.2676
759.8800, 270.6504
761.0270, 333.4629
762.1730, 211.4316
763.3200, 241.8828
764.4670, 219.3574
765.6130, 153.6855
766.7590, 285.2070
767.9050, 473.7520
769.0510, 364.3184
770.1960, 450.9082
771.3420, 435.5215
772.4870, 525.1582
773.6320, 447.8203
774.7770, 281.5020
775.9220, 374.2070
777.0670, 307.9395
778.2110, 378.5293
779.3560, 430.3047
780.5000, 398.4805
781.6440, 537.3027
782.7880, 557.1504
783.9320, 294.5977
785.0750, 497.6973
786.2180, 532.6172
787.3620, 706.5605
788.5050, 815.8730
789.6480, 358.0723
790.7900, 377.2812
791.9330, 462.3242
793.0750, 685.3926
794.2170, 311.4844
795.3590, 508.7539
796.5010, 405.9004
797.6430, 598.7949
798.7850, 476.9941
799.9260, 472.2168
801.0670, 642.7031
802.2080, 444.9824
803.3490, 579.1348
804.4900, 606.4668
805.6310, 528.8242
806.7710, 496.2109
807.9110, 703.6230
809.0510, 888.0625
810.1910, 611.5293
811.3310, 634.0234
812.4710, 511.5449
813.6100, 723.0938
814.7490, 773.6680
815.8880, 696.2715
817.0270, 909.9004
818.1660, 880.5566
819.3050, 810.2402
820.4430, 724.9531
821.5820, 822.6914
822.7200, 800.1973
823.8580, 990.2500
824.9950, 948.0684
826.1330, 945.9160
827.2710, 1125.789
828.4080, 1147.172
829.5450, 1134.619
830.6820, 1303.574
831.8190, 1292.559
832.9560, 1245.938
834.0920, 1602.605
835.2280, 1423.988
836.3650, 1467.080
837.5010, 1726.201
838.6360, 1756.346
839.7720, 1918.604
840.9080, 2163.803
842.0430, 2124.799
843.1780, 2357.053
844.3130, 2636.334
845.4480, 2997.162
846.5830, 3151.393
847.7170, 3306.074
848.8520, 3480.273
849.9860, 3563.660
851.1200, 3653.543
852.2540, 3996.008
853.3870, 4382.502
854.5210, 4817.023
855.6540, 5315.691
856.7880, 5745.141
857.9210, 6378.258
859.0540, 7050.516
860.1860, 7514.512
861.3190, 8281.730
862.4510, 9113.398
863.5840, 10348.40
864.7160, 11403.28
865.8480, 12871.05
866.9790, 14544.86
868.1110, 15875.62
869.2420, 18134.99
870.3740, 20490.95
871.5050, 22696.61
872.6360, 24963.54
873.7660, 27558.51
874.8970, 29743.03
876.0280, 32113.05
877.1580, 34132.10
878.2880, 35311.17
879.4180, 35561.26
880.5480, 35344.28
881.6770, 34420.31
882.8070, 33065.50
883.9360, 31274.69
885.0650, 28971.94
886.1940, 26712.24
887.3230, 24331.58
888.4520, 21850.96
889.5800, 19821.37
890.7090, 17908.80
891.8370, 15461.25
892.9650, 13913.53
894.0930, 12345.06
895.2200, 10601.64
896.3480, 9496.238
897.4750, 8239.871
898.6020, 7128.562
899.7290, 6392.279
900.8560, 5527.020
901.9830, 4750.789
903.1090, 4285.582
904.2360, 3818.400
905.3620, 3376.242
906.4880, 2960.109
907.6140, 2951.996
908.7400, 2567.910
909.8650, 2198.848
910.9900, 1802.811
912.1160, 1577.793
913.2410, 1592.801
914.3660, 1437.848
915.4900, 1426.918
916.6150, 1270.018
917.7390, 1191.139
918.8640, 1046.283
919.9880, 1021.496
921.1120, 822.7637
922.2350, 829.0527
923.3590, 572.3691
924.4820, 581.7285
925.6060, 680.1367
926.7290, 515.5820
927.8520, 397.0547
928.9740, 741.5547
930.0970, 252.0781
931.2190, 296.6738
932.3420, 454.2910
933.4640, 229.0000
934.5860, 332.7344
935.7080, 287.4883
936.8290, 317.2891
937.9510, 408.1094
939.0720, 326.9551
940.1930, 341.8223
941.3140, 477.7148
942.4350, 139.6309
943.5560, 210.5645
944.6760, 288.5273
945.7960, 21.50977
946.9170, 244.5176
948.0370, 279.5469
949.1560, 114.5977
950.2760, 224.6699
951.3960, 225.7656
952.5150, 105.8809
953.6340, 243.0176
954.7530, 176.1738
955.8720, 262.3535
956.9910, 202.5547
958.1090, 308.7754
959.2280, 21.01758
960.3460, 166.3027
961.4640, 100.6094
962.5820, 177.9375
963.6990, 396.3008
964.8170, 68.68164
965.9340, 262.0859
967.0510, 172.5098
968.1690, 53.95508
969.2850, 63.58008
970.4020, 245.8750
971.5190, 16.34961
972.6350, 69.84375
973.7510, 39.64258
974.8670, 229.8730
975.9830, 51.59180
977.0990, 195.9355
978.2150, 52.48438
979.3300, 12.07031
980.4450, 46.32422
981.5600, 110.2793
982.6750, 98.90039
983.7900, 16.45703
984.9050, 113.8066
986.0190, 10.80664
987.1340, 386.4375
988.2480, 19.08984
989.3620, 86.76172
990.4750, 83.45312
991.5890, 142.8340
992.7020, 85.17773
993.8160, 75.54492
994.9290, 146.9355
996.0420, 50.37695
997.1550, 107.8301
998.2670, 2.695313
999.3800, 50.24219
1000.492, 103.1562
1001.604, 178.7402
1002.716, 75.63281
1003.828, 32.02930
1004.940, 7.427734
1006.051, 185.1816
1007.163, 167.8105
1008.274, 123.4805
1009.385, 112.1875
1010.496, 122.9121
1011.606, 181.6543
1012.717, 159.4121
1013.827, 119.1875
1014.937, 195.9863
1016.047, 16.80859
1017.157, 75.64648
1018.267, 15.50000
1019.377, 117.3730
1020.486, 242.2598
1021.595, 62.18164
1022.704, 213.1172
1023.813, 228.0703
1024.922, 179.0410
1026.030, 4.974609
1027.139, 207.0215
1028.247, 90.85742
1029.355, 168.8867
1030.463, 102.9297
1031.571, 258.9902
1032.678, 103.0645
1033.786, 75.15234
1034.893, 251.2520
1036.000, 154.3711
1037.107, 377.5020
1038.214, 219.6484
1039.321, 515.8066
1040.427, 235.9805
1041.533, 597.1680
1042.639, 288.3691
1043.745, 337.5859
1044.851, 275.8184
1045.957, 284.0586
1047.062, 391.3184
1048.168, 239.5879
1049.273, 326.8711
1050.378, 153.1680
1051.482, 331.4785
1052.587, 349.8008
1053.692, 233.1387
1054.796, 282.4863
1055.900, 445.2559
1057.004, 208.6289
1058.108, 486.0156
1059.212, 258.4160
1060.315, 549.8281
1061.418, 400.1855
1062.522, 513.6953
1063.625, 464.1426
1064.728, 475.5117
1065.830, 440.7715
1066.933, 573.2559
1068.035, 428.7500
1069.137, 549.2578
1070.239, 582.7734
1071.341, 515.2988
1072.443, 596.8359
1073.545, 326.8965
1074.646, 394.4531
1075.747, 613.0195
1076.848, 517.5957
1077.949, 297.9629
1079.050, 376.7070
1080.150, 401.3086
1081.251, 431.9219
1082.351, 426.5469
1083.451, 444.1934
1084.551, 714.8535
1085.651, 478.5195
1086.750, 679.1953
1087.850, 460.8828
1088.949, 355.5762
1090.048, 502.2793
1091.147, 518.9902
1092.246, 523.6953
1093.345, 599.8633
1094.443, 442.1602
1095.541, 649.2988
1096.639, 638.0527
1097.737, 609.8086
1098.835, 728.6191
1099.933, 524.3535
1101.030, 723.1367
1102.128, 442.6113
1103.225, 154.4121
1104.322, 360.2188
1105.419, 550.0332
1106.515, 634.7676
1107.612, 712.3789
1108.708, 668.6680
1109.804, 647.5137
1110.900, 700.8594
1111.996, 453.7188
1113.092, 573.0371
1114.187, 322.9707
1115.283, 537.9062
1116.378, 460.9961
1117.473, 525.5059
1118.568, 467.4668
1119.662, 487.9668
1120.757, 401.9414
1121.851, 417.9238
1122.946, 390.9121
1124.040, 727.6523
1125.134, 455.7598
1126.227, 540.4238
1127.321, 305.8984
1128.414, 321.9570
1129.508, 464.1211
1130.601, 250.5312
1131.693, 34.41602
1132.786, 391.6230
1133.879, 258.8281
1134.971, 79.37500
1136.064, 355.3633
1137.156, 399.6895
1138.248, 137.7695
1139.339, 225.3574
1140.431, 271.4531
1141.522, 254.5566
1142.614, 139.6680
1143.705, 146.7852
1144.796, 145.7422
1145.887, 238.0449
1146.977, 253.1836
1148.068, 280.3320
1149.158, 305.9570
1150.248, 377.6465
1151.338, 318.8145
1152.428, 221.9902
1153.518, 222.9414
1154.607, 390.3613
1155.696, 218.5586
1156.785, 163.7617
1157.874, 147.4434
1158.963, 57.33984
1160.052, 124.8496
1161.141, 65.04883
1162.229, 53.25000
1163.317, 217.4570
1164.405, 161.6738
1165.493, 340.8965
1166.581, 103.1211
1167.668, 192.3555
1168.756, 99.59570
1169.843, 96.83984
1170.930, 261.0938
1172.017, 54.34961
1173.103, 146.6152
1174.190, 307.8848
1175.276, 82.16211
1176.363, 163.4453
1177.449, 364.7324
1178.535, 279.0254
1179.620, 170.3242
1180.706, 228.6270
1181.791, 366.9355
1182.877, 161.2480
1183.962, 136.5684
1185.047, 274.8945
1186.131, 2.222656
1187.216, 192.5566
1188.300, 169.8906
1189.385, 120.4805
1190.469, 124.8262
1191.553, 23.69531
1192.637, 16.23828
1193.720, 65.00781
1194.804, 110.3516
1195.887, 53.46289
1196.970, 155.8574
1198.053, 224.1836
1199.136, 328.5137
1200.219, 105.8477
1201.301, 30.19141
1202.383, 232.5352
1203.465, 0.8828130
1204.547, 296.2285
1205.629, 117.5762
1206.711, 240.9336
1207.792, 3.707031
1208.874, 12.64648
1209.955, 150.0039
1211.036, 250.3613
1212.117, 142.7266
1213.198, 191.8770
1214.278, 94.24805
1215.359, 238.6250
1216.439, 237.7246
1217.519, 306.0273
1218.599, 303.7715
1219.678, 321.1641
1220.758, 264.5566
1221.837, 74.04688
1222.917, 38.30859
1223.996, 79.66992
1225.075, 46.96875
1226.153, 185.3672
1227.232, 267.7383
1228.310, 185.1270
1229.389, 137.5215
1230.467, 162.9277
1231.545, 296.3164
1232.622, 199.7324
1233.700, 263.1523
1234.777, 378.5742
1235.855, 384.0020
1236.932, 158.4434
1238.009, 162.8867
1239.086, 219.3438
1240.162, 66.19531
1241.239, 298.2285
1242.315, 48.65625
1243.391, 274.5664
1244.467, 293.0605
1245.543, 30.50977
1246.619, 324.9668
1247.694, 217.4531
1248.769, 7.941406
1249.844, 165.4277
1250.919, 98.91602
1251.994, 307.4160
1253.069, 99.91992
1254.144, 80.45898
1255.218, 170.0215
1256.292, 247.6074
1257.366, 209.2324
1258.440, 42.12891
1259.514, 9.490234
1260.587, 147.2734
1261.661, 300.5625
1262.734, 38.79883
1263.807, 161.8164
1264.880, 530.4512
1265.952, 165.0977
1267.025, 185.7520
1268.097, 78.59180
1269.170, 104.0176
1270.242, 73.62891
1271.314, 166.2422
1272.385, 81.86133
1273.457, 75.47656
1274.528, 459.0996
1275.600, 274.7188
1276.671, 274.3418
1277.742, 334.9688
1278.812, 130.5977
1279.883, 270.2285
