##NAMES=Ferro-actinolite
##RRUFFID=R060189
##IDEAL CHEMISTRY=[box]Ca_2_Mg_2.5-0_Fe^2+^_2.5-5_Si_8_O_22_(OH)_2_
##LOCALITY=Merry Widow mine, Vancouver Island, British Columbia, Canada
##OWNER=RRUFF
##SOURCE=Lloyd Twaites
##DESCRIPTION=Parallel aggregate of green fibers
##STATUS=The identification of this mineral has been confirmed by X-ray diffraction and chemical analysis
##URL=rruff.info/R060189
##MEASURED CHEMISTRY=[box](Ca_1.94_Na_0.06_)_Σ=2_(Fe^2+^_2.55_Mg_2.15_Fe^3+^_0.20_Al_0.05_Mn_0.05_)_Σ=5_(Si_0.98_Al_0.02_)_8_O_22_(OH)_2_
95.94800, 0.0000000E+00
97.18200, 254.6475
98.41600, 19.72168
99.64900, 193.7627
100.8830, 391.5254
102.1160, 1.041016
103.3490, 129.7988
104.5820, 332.9043
105.8150, 1355.514
107.0470, 2058.492
108.2800, 2139.172
109.5120, 2797.221
110.7440, 3224.576
111.9760, 1788.379
113.2080, 1206.930
114.4400, 1063.645
115.6710, 1486.025
116.9030, 1804.617
118.1340, 1489.021
119.3650, 1257.893
120.5960, 722.9297
121.8270, 636.8750
123.0580, 1067.502
124.2880, 1392.629
125.5190, 1134.094
126.7490, 1354.770
127.9790, 1465.529
129.2090, 1811.260
130.4390, 2029.855
131.6680, 2219.217
132.8980, 2159.248
134.1270, 1808.811
135.3560, 1912.768
136.5850, 2121.004
137.8140, 2645.432
139.0430, 3875.986
140.2710, 5317.604
141.5000, 6664.223
142.7280, 8143.801
143.9560, 10010.30
145.1840, 11560.67
146.4120, 12788.90
147.6390, 12578.93
148.8670, 11155.78
150.0940, 9106.441
151.3210, 6881.918
152.5490, 5443.227
153.7750, 4109.354
155.0020, 3163.295
156.2290, 2603.029
157.4550, 2190.529
158.6810, 1834.766
159.9080, 1944.707
161.1340, 1823.328
162.3590, 2131.600
163.5850, 2728.498
164.8110, 3558.998
166.0360, 4164.078
167.2610, 5121.719
168.4860, 6050.898
169.7110, 7240.453
170.9360, 7968.875
172.1610, 8256.250
173.3850, 7767.668
174.6100, 6787.184
175.8340, 5635.832
177.0580, 4630.652
178.2820, 3789.664
179.5050, 3288.887
180.7290, 2607.338
181.9520, 2304.150
183.1760, 2219.092
184.3990, 1922.289
185.6220, 1986.752
186.8450, 2210.484
188.0670, 2326.488
189.2900, 2650.766
190.5120, 2807.316
191.7340, 3130.145
192.9560, 3486.246
194.1780, 3542.621
195.4000, 3969.271
196.6220, 4485.195
197.8430, 4633.420
199.0640, 4973.023
200.2860, 5578.115
201.5070, 6193.863
202.7270, 6762.211
203.9480, 6924.164
205.1690, 6897.729
206.3890, 6913.932
207.6090, 7116.801
208.8290, 7388.266
210.0490, 8294.234
211.2690, 8980.662
212.4890, 9599.449
213.7080, 10027.63
214.9280, 10148.13
216.1470, 10426.82
217.3660, 10153.67
218.5850, 10068.74
219.8030, 9224.953
221.0220, 8700.301
222.2400, 8263.785
223.4590, 7364.402
224.6770, 7011.148
225.8950, 5988.025
227.1120, 5486.029
228.3300, 5164.158
229.5480, 4752.410
230.7650, 4395.781
231.9820, 4091.271
233.1990, 3627.877
234.4160, 3551.596
235.6330, 3494.424
236.8490, 2953.361
238.0660, 2830.404
239.2820, 2670.551
240.4980, 2512.799
241.7140, 2389.307
242.9300, 2153.969
244.1460, 2088.078
245.3610, 1999.080
246.5770, 1839.420
247.7920, 1319.893
249.0070, 1436.707
250.2220, 1139.344
251.4370, 977.7129
252.6510, 1080.752
253.8660, 894.4043
255.0800, 747.6270
256.2940, 722.3770
257.5080, 628.6211
258.7220, 763.3281
259.9360, 1009.475
261.1490, 1402.035
262.3630, 812.9844
263.5760, 457.3027
264.7890, 156.9766
266.0020, 283.9863
267.2150, 0.3203130
268.4270, 153.9590
269.6400, 159.8926
270.8520, 257.1113
272.0640, 82.60352
273.2760, 162.3574
274.4880, 350.3633
275.7000, 259.6152
276.9120, 470.1016
278.1230, 477.8125
279.3340, 268.7422
280.5450, 233.8828
281.7560, 336.2285
282.9670, 444.7734
284.1780, 388.5137
285.3880, 261.4395
286.5980, 331.5488
287.8090, 337.8359
289.0190, 586.2988
290.2290, 356.9297
291.4380, 554.7266
292.6480, 437.8047
293.8570, 548.8027
295.0670, 341.0703
296.2760, 416.4902
297.4850, 621.0566
298.6930, 393.2617
299.9020, 454.1094
301.1110, 283.3691
302.3190, 412.3066
303.5270, 434.8418
304.7350, 474.8594
305.9430, 441.3711
307.1510, 607.8848
308.3580, 344.4609
309.5660, 446.8867
310.7730, 698.7246
311.9800, 657.2910
313.1870, 414.3262
314.3940, 610.7773
315.6010, 537.4688
316.8070, 751.2715
318.0130, 744.2930
319.2200, 806.8555
320.4260, 956.3770
321.6310, 1103.953
322.8370, 1170.342
324.0430, 1354.787
325.2480, 1436.348
326.4540, 1554.822
327.6590, 1549.117
328.8640, 1798.625
330.0680, 1882.885
331.2730, 1793.123
332.4780, 1850.035
333.6820, 1997.641
334.8860, 1920.480
336.0900, 2236.328
337.2940, 2144.316
338.4980, 2200.973
339.7010, 2283.906
340.9050, 2153.900
342.1080, 2418.705
343.3110, 2612.066
344.5140, 2747.234
345.7170, 2729.457
346.9200, 2634.730
348.1220, 2883.049
349.3240, 3247.416
350.5270, 3299.822
351.7290, 3163.268
352.9310, 3462.750
354.1320, 3521.264
355.3340, 3506.811
356.5350, 3667.385
357.7370, 3767.984
358.9380, 3720.607
360.1390, 3444.254
361.3400, 3147.924
362.5400, 3285.613
363.7410, 2945.320
364.9410, 2943.051
366.1410, 2872.797
367.3410, 3107.559
368.5410, 2885.344
369.7410, 3075.139
370.9400, 3046.951
372.1400, 3145.779
373.3390, 3248.619
374.5380, 3466.475
375.7370, 3606.344
376.9360, 3964.225
378.1350, 4072.117
379.3330, 4239.020
380.5310, 4133.934
381.7300, 4473.857
382.9280, 4229.793
384.1260, 4195.736
385.3230, 4010.689
386.5210, 3923.654
387.7180, 3745.697
388.9160, 3550.834
390.1130, 3210.062
391.3100, 2893.369
392.5060, 2744.746
393.7030, 2484.193
394.9000, 2647.701
396.0960, 2489.273
397.2920, 2246.898
398.4880, 2182.578
399.6840, 2002.311
400.8800, 1836.092
402.0750, 1663.918
403.2710, 1715.785
404.4660, 1513.697
405.6610, 1189.648
406.8560, 1226.637
408.0510, 988.6582
409.2450, 844.7168
410.4400, 827.8047
411.6340, 909.8535
412.8280, 646.0020
414.0220, 716.1758
415.2160, 538.3750
416.4100, 487.5977
417.6030, 478.8418
418.7970, 235.1113
419.9900, 473.3965
421.1830, 542.7012
422.3760, 502.0215
423.5690, 785.3594
424.7610, 992.7090
425.9540, 1079.074
427.1460, 1456.453
428.3380, 1814.842
429.5300, 1545.238
430.7220, 1624.646
431.9140, 1586.062
433.1050, 1281.482
434.2970, 1248.912
435.4880, 863.3418
436.6790, 549.7793
437.8700, 364.2188
439.0610, 214.6582
440.2510, 179.0977
441.4420, 59.46289
442.6320, 89.92969
443.8220, 196.6816
445.0120, 56.40625
446.2020, 189.1836
447.3910, 328.0801
448.5810, 177.1621
449.7700, 205.3770
450.9600, 251.7715
452.1490, 209.2344
453.3370, 228.0332
454.5260, 235.0234
455.7150, 237.7402
456.9030, 274.0391
458.0910, 239.3262
459.2800, 286.7852
460.4670, 317.4375
461.6550, 240.6523
462.8430, 150.1953
464.0300, 215.3691
465.2180, 105.7109
466.4050, 188.1660
467.5920, 66.77734
468.7790, 27.48828
469.9650, 140.2812
471.1520, 106.2109
472.3380, 47.26562
473.5250, 9.414063
474.7110, 34.64258
475.8970, 181.0371
477.0820, 143.6934
478.2680, 105.3223
479.4540, 148.9102
480.6390, 14.52344
481.8240, 215.9512
483.0090, 395.4043
484.1940, 302.8320
485.3780, 483.2363
486.5630, 287.6172
487.7470, 217.9688
488.9320, 355.2949
490.1160, 572.5977
491.3000, 546.8770
492.4830, 819.1289
493.6670, 821.3555
494.8500, 769.5547
496.0340, 735.7305
497.2170, 1039.887
498.4000, 1046.014
499.5820, 1317.115
500.7650, 1137.186
501.9480, 1362.225
503.1300, 1404.236
504.3120, 1577.215
505.4940, 1675.166
506.6760, 1593.131
507.8580, 1771.074
509.0390, 1816.867
510.2210, 2143.943
511.4020, 2080.879
512.5830, 2265.793
513.7640, 2549.691
514.9450, 2531.598
516.1250, 2628.502
517.3060, 2856.379
518.4860, 3119.254
519.6660, 3172.145
520.8460, 3368.062
522.0260, 3116.971
523.2060, 3131.914
524.3850, 3069.848
525.5650, 3192.848
526.7440, 3045.908
527.9230, 2813.953
529.1020, 2871.963
530.2810, 2723.971
531.4590, 2737.947
532.6380, 2516.904
533.8160, 2699.861
534.9940, 2485.865
536.1720, 2241.867
537.3500, 2380.830
538.5270, 2370.758
539.7050, 2146.684
540.8820, 2151.623
542.0590, 1973.521
543.2360, 2151.387
544.4130, 2018.211
545.5900, 1839.020
546.7660, 1766.791
547.9430, 2015.537
549.1190, 1745.244
550.2950, 1564.898
551.4710, 1869.512
552.6470, 1608.117
553.8220, 1776.672
554.9980, 1721.184
556.1730, 1621.648
557.3480, 1481.074
558.5230, 1540.453
559.6980, 1597.781
560.8730, 1434.064
562.0470, 1713.289
563.2220, 1464.465
564.3960, 1591.627
565.5700, 1406.738
566.7440, 1356.797
567.9170, 1200.852
569.0910, 1004.854
570.2640, 1478.801
571.4380, 1301.693
572.6110, 1282.531
573.7840, 1258.312
574.9570, 1115.031
576.1290, 1107.693
577.3020, 966.2969
578.4740, 804.8418
579.6460, 654.3281
580.8180, 701.7559
581.9900, 577.1230
583.1620, 428.9355
584.3330, 592.1855
585.5040, 508.0898
586.6760, 483.7266
587.8470, 399.1504
589.0180, 397.4961
590.1880, 246.4004
591.3590, 199.3555
592.5290, 183.6641
593.7000, 266.3945
594.8700, 169.1387
596.0400, 177.1836
597.2090, 180.7910
598.3790, 323.0098
599.5490, 279.0273
600.7180, 296.9707
601.8870, 125.7305
603.0560, 117.9844
604.2250, 202.3066
605.3940, 382.6074
606.5620, 371.1348
607.7300, 426.6367
608.8990, 420.0605
610.0670, 243.6016
611.2350, 376.3555
612.4020, 225.9238
613.5700, 460.7734
614.7370, 524.6660
615.9050, 372.9160
617.0720, 469.4961
618.2390, 631.8652
619.4060, 721.2461
620.5720, 842.4902
621.7390, 944.8613
622.9050, 1052.332
624.0710, 1142.639
625.2370, 1240.236
626.4030, 1339.041
627.5690, 1581.209
628.7340, 1849.664
629.9000, 1644.770
631.0650, 1942.086
632.2300, 2118.857
633.3950, 2377.025
634.5600, 2461.885
635.7240, 2900.746
636.8890, 3019.617
638.0530, 3277.008
639.2170, 3536.480
640.3810, 3739.465
641.5450, 3956.217
642.7080, 4337.135
643.8720, 4628.428
645.0350, 5167.064
646.1980, 5285.596
647.3610, 5763.305
648.5240, 6632.498
649.6870, 7210.652
650.8490, 8265.551
652.0120, 9479.418
653.1740, 10296.35
654.3360, 11863.61
655.4980, 13699.61
656.6600, 15901.99
657.8210, 18455.63
658.9830, 21116.19
660.1440, 23815.92
661.3050, 26789.01
662.4660, 29531.93
663.6270, 31522.17
664.7870, 32561.35
665.9480, 32004.03
667.1080, 31059.13
668.2680, 28831.02
669.4280, 25340.92
670.5880, 22616.63
671.7480, 19346.75
672.9070, 16751.80
674.0670, 14250.76
675.2260, 12419.58
676.3850, 10528.93
677.5440, 9216.988
678.7030, 8155.553
679.8610, 7134.076
681.0200, 6103.049
682.1780, 5620.559
683.3360, 5239.479
684.4940, 4579.928
685.6520, 4128.754
686.8090, 4028.137
687.9670, 3497.123
689.1240, 2931.656
690.2810, 2901.613
691.4380, 2464.875
692.5950, 2243.133
693.7520, 2110.475
694.9080, 2000.361
696.0650, 1710.279
697.2210, 1816.129
698.3770, 1432.557
699.5330, 1680.945
700.6880, 1512.506
701.8440, 1271.914
702.9990, 1178.654
704.1550, 1297.273
705.3100, 1057.494
706.4650, 1222.850
707.6190, 1138.293
708.7740, 860.9844
709.9290, 977.0488
711.0830, 946.3848
712.2370, 1065.463
713.3910, 810.2734
714.5450, 852.0820
715.6980, 750.6699
716.8520, 823.5840
718.0050, 572.7266
719.1580, 868.3633
720.3110, 677.1738
721.4640, 805.5898
722.6170, 1202.783
723.7700, 672.9082
724.9220, 788.0195
726.0740, 1015.090
727.2260, 1068.145
728.3780, 954.2207
729.5300, 995.3008
730.6810, 1198.420
731.8330, 936.4551
732.9840, 1031.688
734.1350, 878.9570
735.2860, 1086.803
736.4370, 1105.076
737.5880, 983.1777
738.7380, 909.2891
739.8880, 778.4238
741.0390, 1035.941
742.1890, 892.6270
743.3380, 924.8027
744.4880, 922.9844
745.6380, 924.1504
746.7870, 666.3203
747.9360, 850.4629
749.0850, 471.5723
750.2340, 525.6738
751.3830, 684.7637
752.5310, 527.8262
753.6800, 669.8496
754.8280, 552.8438
755.9760, 557.7715
757.1240, 482.6406
758.2720, 207.4492
759.4190, 477.1875
760.5670, 290.8926
761.7140, 547.5293
762.8610, 181.1016
764.0080, 324.5957
765.1550, 534.0254
766.3020, 385.3887
767.4480, 218.6855
768.5950, 184.9121
769.7410, 276.0645
770.8870, 190.1465
772.0330, 232.1543
773.1780, 220.0898
774.3240, 51.95508
775.4690, 309.7324
776.6140, 277.4375
777.7590, 328.0762
778.9040, 242.6465
780.0490, 375.1484
781.1940, 272.5820
782.3380, 188.9512
783.4820, 95.75391
784.6260, 78.38086
785.7700, 247.4355
786.9140, 221.5820
788.0580, 56.17969
789.2010, 53.85547
790.3450, 0.4453130
791.4880, 86.07227
792.6310, 35.73828
793.7730, 62.47266
794.9160, 49.40039
796.0590, 113.4004
797.2010, 165.5625
798.3430, 29.91602
799.4850, 204.3848
800.6270, 20.06445
801.7690, 323.8516
802.9100, 317.9102
804.0520, 7.767578
805.1930, 39.35352
806.3340, 57.14062
807.4750, 37.24219
808.6160, 17.45508
809.7560, 82.25391
810.8970, 290.1875
812.0370, 83.36523
813.1770, 113.3242
814.3170, 37.94336
815.4570, 102.5078
816.5960, 168.1016
817.7360, 114.1309
818.8750, 2.300781
820.0140, 98.38477
821.1530, 81.59180
822.2920, 87.30859
823.4310, 53.85742
824.5690, 46.87109
825.7070, 307.5332
826.8460, 32.14258
827.9840, 110.3145
829.1220, 87.09766
830.2590, 65.44922
831.3970, 125.7383
832.5340, 20.02734
833.6710, 95.12695
834.8080, 13.22070
835.9450, 165.2559
837.0820, 343.2344
838.2190, 121.1680
839.3550, 128.9531
840.4910, 46.79492
841.6270, 106.4902
842.7630, 178.8691
843.8990, 251.6211
845.0350, 172.0625
846.1700, 62.45508
847.3060, 215.7949
848.4410, 258.0898
849.5760, 301.0801
850.7100, 281.4160
851.8450, 403.7129
852.9800, 215.8359
854.1140, 140.9160
855.2480, 241.9512
856.3820, 179.9453
857.5160, 253.8945
858.6500, 346.8027
859.7830, 421.6738
860.9170, 286.5078
862.0500, 524.3027
863.1830, 503.0605
864.3160, 534.7793
865.4480, 306.4629
866.5810, 450.1191
867.7130, 720.7520
868.8460, 446.3613
869.9780, 725.9375
871.1100, 823.4902
872.2410, 767.0176
873.3730, 741.5176
874.5050, 886.9805
875.6360, 645.4062
876.7670, 947.8027
877.8980, 858.1680
879.0290, 736.5098
880.1590, 995.8105
881.2900, 939.0801
882.4200, 856.3223
883.5500, 964.5273
884.6800, 1010.697
885.8100, 1260.830
886.9400, 1081.951
888.0690, 1211.039
889.1990, 1448.094
890.3280, 1452.109
891.4570, 1526.092
892.5860, 1689.039
893.7140, 1798.035
894.8430, 1858.883
895.9710, 1956.828
897.1000, 2037.051
898.2280, 1961.891
899.3560, 2134.424
900.4830, 2120.674
901.6110, 2026.484
902.7380, 2026.936
903.8660, 2020.662
904.9930, 2100.104
906.1200, 2327.010
907.2460, 2417.463
908.3730, 2639.150
909.5000, 2489.758
910.6260, 2756.279
911.7520, 2666.207
912.8780, 3102.979
914.0040, 2826.936
915.1290, 3148.512
916.2550, 3190.617
917.3800, 3216.271
918.5050, 3554.670
919.6300, 3711.355
920.7550, 3965.865
921.8800, 4183.359
923.0040, 4090.822
924.1290, 4043.484
925.2530, 4296.113
926.3770, 3748.631
927.5010, 3842.758
928.6250, 4013.104
929.7480, 3348.992
930.8720, 3274.578
931.9950, 3121.186
933.1180, 3036.557
934.2410, 2893.488
935.3640, 2801.531
936.4860, 2575.316
937.6090, 2682.090
938.7310, 2463.301
939.8530, 2540.021
940.9750, 2411.914
942.0970, 2282.734
943.2180, 2599.672
944.3400, 2433.133
945.4610, 2593.609
946.5820, 2381.119
947.7030, 2437.693
948.8240, 2326.688
949.9450, 2317.910
951.0650, 2456.564
952.1860, 2548.260
953.3060, 2452.438
954.4260, 2697.021
955.5460, 2685.131
956.6650, 2623.648
957.7850, 2406.730
958.9040, 2475.193
960.0230, 2421.986
961.1420, 2712.170
962.2610, 2407.898
963.3800, 2552.260
964.4990, 2426.594
965.6170, 2483.793
966.7350, 2600.389
967.8530, 2413.891
968.9710, 2227.404
970.0890, 2299.287
971.2070, 2335.213
972.3240, 2294.910
973.4410, 1941.703
974.5580, 2213.107
975.6750, 2255.572
976.7920, 2065.383
977.9090, 2264.000
979.0250, 2058.477
980.1410, 2060.646
981.2580, 2204.391
982.3740, 2099.807
983.4890, 2235.434
984.6050, 1967.268
985.7200, 1906.047
986.8360, 2035.998
987.9510, 2158.570
989.0660, 2331.859
990.1810, 2018.604
991.2950, 2240.121
992.4100, 2159.979
993.5240, 2464.027
994.6390, 2591.094
995.7530, 2583.176
996.8660, 2757.277
997.9800, 2764.393
999.0940, 2967.529
1000.207, 3182.680
1001.320, 3339.852
1002.433, 3476.045
1003.546, 3539.254
1004.659, 3865.480
1005.772, 3724.729
1006.884, 4029.992
1007.996, 4105.271
1009.108, 4233.520
1010.220, 4485.049
1011.332, 4595.445
1012.444, 4909.801
1013.555, 5149.180
1014.666, 5351.430
1015.777, 5539.311
1016.888, 5802.492
1017.999, 5893.947
1019.110, 6022.428
1020.220, 6358.943
1021.331, 6275.527
1022.441, 6428.062
1023.551, 6417.621
1024.661, 6131.211
1025.770, 6261.811
1026.880, 5842.684
1027.989, 5978.072
1029.098, 5823.736
1030.207, 5612.418
1031.316, 5416.125
1032.425, 5679.320
1033.533, 5765.070
1034.642, 5916.846
1035.750, 6303.217
1036.858, 6713.035
1037.966, 7086.875
1039.073, 7535.746
1040.181, 7795.934
1041.288, 8270.852
1042.396, 8624.793
1043.503, 9152.758
1044.610, 9235.766
1045.716, 9305.898
1046.823, 9041.949
1047.929, 9145.117
1049.036, 9031.219
1050.142, 8616.492
1051.248, 8467.852
1052.353, 8447.195
1053.459, 8043.445
1054.564, 8021.176
1055.670, 7905.020
1056.775, 7732.609
1057.880, 7707.441
1058.985, 7473.734
1060.089, 7213.305
1061.194, 7016.223
1062.298, 6411.922
1063.402, 6143.578
1064.506, 5199.312
1065.610, 4874.117
1066.713, 4275.270
1067.817, 3817.531
1068.920, 3349.055
1070.023, 3169.391
1071.126, 2751.723
1072.229, 2622.613
1073.332, 2286.855
1074.435, 1884.887
1075.537, 1934.883
1076.639, 1825.363
1077.741, 1927.668
1078.843, 1623.824
1079.945, 1676.527
1081.046, 1638.070
1082.148, 1449.648
1083.249, 1397.711
1084.350, 1403.250
1085.451, 1303.203
1086.551, 995.9062
1087.652, 1296.203
1088.752, 1403.852
1089.853, 1109.543
1090.953, 1125.656
1092.053, 1152.805
1093.152, 1013.324
1094.252, 907.1680
1095.351, 1083.391
1096.451, 934.5117
1097.550, 743.3008
1098.649, 841.0273
1099.748, 793.3711
1100.846, 694.0039
1101.945, 642.8789
1103.043, 702.7891
1104.141, 813.2188
1105.239, 889.5352
1106.337, 721.9922
1107.434, 616.8438
1108.532, 570.6289
1109.629, 690.4180
1110.726, 388.8008
1111.823, 393.4297
1112.920, 302.5039
1114.017, 514.5469
1115.113, 450.2188
1116.210, 368.9023
1117.306, 466.5977
1118.402, 863.7812
1119.498, 999.2969
1120.593, 671.2344
1121.689, 1003.504
1122.784, 811.5312
1123.879, 605.2969
1124.974, 751.0742
1126.069, 680.8594
1127.164, 715.6484
1128.259, 619.4531
1129.353, 446.2617
1130.447, 558.0820
1131.541, 122.0703
1132.635, 517.7734
1133.729, 174.8359
1134.822, 370.6914
1135.916, 274.5508
1137.009, 301.4180
1138.102, 248.2930
1139.195, 252.1797
1140.288, 280.2305
1141.380, 52.02734
1142.473, 254.8672
1143.565, 408.9883
1144.657, 211.8984
1145.749, 37.19141
1146.841, 45.28516
1147.932, 0.3867190
1149.024, 123.7031
1150.115, 256.8516
1151.206, 126.0586
1152.297, 2.804688
1153.388, 83.67188
1154.479, 369.5430
1155.569, 18.42188
1156.659, 87.31250
1157.750, 351.7891
1158.839, 71.05469
1159.929, 123.6562
1161.019, 155.3789
1162.108, 251.7500
1163.198, 119.1680
1164.287, 171.5078
1165.376, 154.2070
1166.465, 37.08984
1167.553, 180.5977
1168.642, 75.28906
1169.730, 275.0078
1170.818, 88.30078
1171.906, 240.3555
1172.994, 102.0156
1174.082, 169.6758
1175.170, 251.3438
1176.257, 64.01562
1177.344, 257.6953
1178.431, 74.37891
1179.518, 175.0664
1180.605, 67.76172
1181.691, 73.52344
1182.778, 71.18359
1183.864, 235.8945
1184.950, 39.35938
1186.036, 388.3555
1187.122, 54.93750
1188.207, 31.26562
1189.292, 38.62891
1190.378, 60.01953
1191.463, 81.45312
1192.548, 131.0898
1193.632, 105.3164
1194.717, 243.2266
1195.801, 394.7539
1196.886, 97.26953
1197.970, 264.2266
1199.054, 51.14062
1200.137, 212.5156
1201.221, 144.7305
1202.305, 43.96484
1203.388, 90.77344
1204.471, 32.43359
1205.554, 59.62109
1206.637, 283.7930
1207.719, 0.9648440
1208.802, 61.10156
1209.884, 393.2266
1210.966, 30.34766
1212.048, 13.55078
1213.130, 148.5078
1214.212, 201.4297
1215.293, 246.4805
1216.374, 50.37500
1217.456, 156.2461
1218.536, 83.09766
1219.617, 86.93359
1220.698, 357.7422
1221.778, 580.5352
1222.859, 162.3086
1223.939, 46.94141
1225.019, 365.7344
1226.099, 63.60938
1227.178, 6.957031
1228.258, 162.4844
1229.337, 262.9883
1230.417, 202.4648
1231.496, 33.91016
1232.574, 194.6758
1233.653, 418.5781
1234.732, 70.80469
1235.810, 474.9961
1236.888, 205.1562
1237.966, 171.2852
1239.044, 360.3906
1240.122, 110.4531
1241.199, 400.4922
1242.277, 197.4922
1243.354, 51.45703
1244.431, 373.3750
1245.508, 515.2734
1246.585, 484.1289
1247.661, 201.9531
1248.738, 128.0508
1249.814, 274.3672
1250.890, 200.0781
1251.966, 262.7539
1253.042, 413.3945
1254.117, 387.6484
1255.193, 427.7148
1256.268, 544.9023
1257.343, 402.4023
1258.418, 443.8633
1259.493, 425.0625
1260.567, 313.6484
1261.642, 147.9805
1262.716, 306.2617
1263.790, 487.7266
1264.864, 595.9141
1265.938, 534.9766
1267.011, 475.0781
1268.085, 394.1406
1269.158, 501.9922
1270.231, 589.9453
1271.304, 412.6406
1272.377, 331.2578
1273.450, 493.2266
1274.522, 437.5000
1275.594, 415.4648
