##NAMES=Ferro-actinolite
##RRUFFID=R060189
##IDEAL CHEMISTRY=[box]Ca_2_Mg_2.5-0_Fe^2+^_2.5-5_Si_8_O_22_(OH)_2_
##LOCALITY=Merry Widow mine, Vancouver Island, British Columbia, Canada
##OWNER=RRUFF
##SOURCE=Lloyd Twaites
##DESCRIPTION=Parallel aggregate of green fibers
##STATUS=The identification of this mineral has been confirmed by X-ray diffraction and chemical analysis
##URL=rruff.info/R060189
##MEASURED CHEMISTRY=[box](Ca_1.94_Na_0.06_)_Σ=2_(Fe^2+^_2.55_Mg_2.15_Fe^3+^_0.20_Al_0.05_Mn_0.05_)_Σ=5_(Si_0.98_Al_0.02_)_8_O_22_(OH)_2_
95.94800, 0.0000000E+00
97.18200, 167.2178
98.41600, 124.5298
99.64900, 85.85059
100.8830, 11.17871
102.1160, 148.0220
103.3490, 39.53955
104.5820, 157.1523
105.8150, 285.7607
107.0470, 882.2065
108.2800, 1180.605
109.5120, 1760.221
110.7440, 2045.454
111.9760, 1304.808
113.2080, 742.8711
114.4400, 540.2969
115.6710, 797.7808
116.9030, 1006.043
118.1340, 793.8325
119.3650, 438.9292
120.5960, 206.1426
121.8270, 140.3101
123.0580, 219.2891
124.2880, 134.9404
125.5190, 262.2275
126.7490, 257.9956
127.9790, 319.1846
129.2090, 551.7212
130.4390, 759.5337
131.6680, 995.5586
132.8980, 1010.731
134.1270, 1063.962
135.3560, 1320.150
136.5850, 1841.219
137.8140, 2703.378
139.0430, 3735.772
140.2710, 5188.162
141.5000, 6820.245
142.7280, 8698.000
143.9560, 11173.40
145.1840, 13986.42
146.4120, 16928.04
147.6390, 18998.22
148.8670, 18912.99
150.0940, 17345.35
151.3210, 14296.27
152.5490, 11402.77
153.7750, 8712.830
155.0020, 6825.435
156.2290, 5601.576
157.4550, 4674.234
158.6810, 3993.401
159.9080, 3919.060
161.1340, 4031.189
162.3590, 4370.284
163.5850, 5199.794
164.8110, 6108.234
166.0360, 7544.077
167.2610, 9362.311
168.4860, 11381.92
169.7110, 13679.80
170.9360, 15985.64
172.1610, 17320.43
173.3850, 17336.23
174.6100, 15982.08
175.8340, 13645.02
177.0580, 11555.07
178.2820, 9242.242
179.5050, 7716.565
180.7290, 6322.041
181.9520, 5268.679
183.1760, 4627.491
184.3990, 4143.476
185.6220, 3834.686
186.8450, 3947.120
188.0670, 3830.825
189.2900, 3787.774
190.5120, 3968.906
191.7340, 4080.224
192.9560, 4284.756
194.1780, 4682.413
195.4000, 4876.286
196.6220, 5285.344
197.8430, 5762.629
199.0640, 6202.239
200.2860, 6733.354
201.5070, 7414.957
202.7270, 8087.958
203.9480, 8738.322
205.1690, 9144.990
206.3890, 9438.947
207.6090, 10431.19
208.8290, 11559.73
210.0490, 12897.54
211.2690, 14438.61
212.4890, 16083.92
213.7080, 17579.45
214.9280, 18602.16
216.1470, 19771.03
217.3660, 20400.10
218.5850, 20469.38
219.8030, 20061.88
221.0220, 19146.54
222.2400, 18019.33
223.4590, 16165.21
224.6770, 14505.17
225.8950, 12851.23
227.1120, 11175.36
228.3300, 9600.592
229.5480, 8220.898
230.7650, 7000.637
231.9820, 5900.755
233.1990, 5069.301
234.4160, 4303.922
235.6330, 3808.617
236.8490, 3424.384
238.0660, 2996.223
239.2820, 2868.132
240.4980, 2490.107
241.7140, 2223.148
242.9300, 2146.638
244.1460, 1933.452
245.3610, 1946.580
246.5770, 1770.520
247.7920, 1636.485
249.0070, 1670.895
250.2220, 1658.950
251.4370, 1499.375
252.6510, 1408.247
253.8660, 1432.534
255.0800, 1368.207
256.2940, 1278.241
257.5080, 1152.615
258.7220, 1322.308
259.9360, 1457.302
261.1490, 1331.649
262.3630, 1360.132
263.5760, 1216.939
264.7890, 1145.993
266.0020, 1175.279
267.2150, 1060.791
268.4270, 1141.517
269.6400, 1141.449
270.8520, 1151.579
272.0640, 1006.898
273.2760, 1201.652
274.4880, 1103.408
275.7000, 1149.443
276.9120, 1251.904
278.1230, 1363.234
279.3340, 1445.013
280.5450, 1463.473
281.7560, 1362.083
282.9670, 1489.833
284.1780, 1480.715
285.3880, 1566.728
286.5980, 1615.868
287.8090, 1553.130
289.0190, 1582.513
290.2290, 1603.013
291.4380, 1360.625
292.6480, 1389.351
293.8570, 1406.184
295.0670, 1240.122
296.2760, 1194.163
297.4850, 1157.303
298.6930, 953.7900
299.9020, 941.2979
301.1110, 915.6157
302.3190, 959.3789
303.5270, 909.0176
304.7350, 892.6162
305.9430, 815.3047
307.1510, 781.2393
308.3580, 698.9175
309.5660, 581.6787
310.7730, 692.7842
311.9800, 765.2310
313.1870, 708.8027
314.3940, 679.6982
315.6010, 681.6758
316.8070, 831.0630
318.0130, 881.3516
319.2200, 960.1094
320.4260, 972.3110
321.6310, 1043.215
322.8370, 1038.628
324.0430, 1211.097
325.2480, 1239.357
326.4540, 1385.932
327.6590, 1397.432
328.8640, 1425.036
330.0680, 1354.229
331.2730, 1488.359
332.4780, 1482.968
333.6820, 1546.082
334.8860, 1607.265
336.0900, 1608.356
337.2940, 1636.854
338.4980, 1601.262
339.7010, 1689.101
340.9050, 1872.587
342.1080, 1902.542
343.3110, 2112.125
344.5140, 2012.185
345.7170, 2231.647
346.9200, 2274.234
348.1220, 2423.831
349.3240, 2472.454
350.5270, 2486.102
351.7290, 2553.773
352.9310, 2587.467
354.1320, 2692.181
355.3340, 2708.914
356.5350, 2695.665
357.7370, 2822.432
358.9380, 2744.215
360.1390, 2638.012
361.3400, 2659.822
362.5400, 2500.646
363.7410, 2315.479
364.9410, 2325.323
366.1410, 1999.177
367.3410, 1967.039
368.5410, 1862.908
369.7410, 1819.786
370.9400, 1771.670
372.1400, 1716.562
373.3390, 1827.459
374.5380, 1867.361
375.7370, 1876.270
376.9360, 1906.183
378.1350, 2004.102
379.3330, 2121.023
380.5310, 2072.949
381.7300, 2018.879
382.9280, 1916.811
384.1260, 1962.747
385.3230, 1964.685
386.5210, 1908.626
387.7180, 1709.615
388.9160, 1642.656
390.1130, 1513.753
391.3100, 1353.900
392.5060, 1179.103
393.7030, 1095.681
394.9000, 948.6406
396.0960, 928.9712
397.2920, 832.3384
398.4880, 775.1094
399.6840, 710.1748
400.8800, 616.6396
402.0750, 590.1333
403.2710, 520.6543
404.4660, 388.2007
405.6610, 425.7715
406.8560, 470.3652
408.0510, 356.9805
409.2450, 235.6167
410.4400, 204.2710
411.6340, 126.9434
412.8280, 151.6323
414.0220, 70.33594
415.2160, 105.0547
416.4100, 51.21338
417.6030, 71.48340
418.7970, 46.76514
419.9900, 21.04932
421.1830, 68.33154
422.3760, 132.6284
423.5690, 35.96924
424.7610, 12.68359
425.9540, 135.3413
427.1460, 99.00439
428.3380, 145.6709
429.5300, 123.3413
430.7220, 252.0142
431.9140, 231.6880
433.1050, 246.3638
434.2970, 187.0391
435.4880, 53.71436
436.6790, 94.38721
437.8700, 66.05957
439.0610, 10.72803
440.2510, 19.76074
441.4420, 106.9517
442.6320, 68.35596
443.8220, 112.8071
445.0120, 265.2871
446.2020, 225.9575
447.3910, 233.7578
448.5810, 144.5835
449.7700, 172.6133
450.9600, 113.5532
452.1490, 145.6777
453.3370, 96.77881
454.5260, 99.37646
455.7150, 47.15234
456.9030, 66.67480
458.0910, 116.2612
459.2800, 34.93896
460.4670, 115.6680
461.6550, 52.49072
462.8430, 91.37646
464.0300, 49.34570
465.2180, 72.37988
466.4050, 36.48975
467.5920, 97.66016
468.7790, 1.076660
469.9650, 29.23145
471.1520, 45.59863
472.3380, 19.03613
473.5250, 1.469727
474.7110, 63.92676
475.8970, 10.64160
477.0820, 111.7334
478.2680, 39.91016
479.4540, 27.62646
480.6390, 56.41211
481.8240, 79.71777
483.0090, 69.17871
484.1940, 10.16895
485.3780, 15.77686
486.5630, 28.67188
487.7470, 74.51953
488.9320, 126.3359
490.1160, 191.1294
491.3000, 175.9009
492.4830, 238.6509
493.6670, 212.3779
494.8500, 328.0830
496.0340, 293.7646
497.2170, 378.4238
498.4000, 384.0596
499.5820, 463.6724
500.7650, 500.2651
501.9480, 619.8350
503.1300, 702.3799
504.3120, 682.9019
505.4940, 721.3999
506.6760, 722.8809
507.8580, 825.3398
509.0390, 897.7783
510.2210, 849.1953
511.4020, 981.6064
512.5830, 891.0249
513.7640, 1099.450
514.9450, 1017.878
516.1250, 1117.312
517.3060, 1332.746
518.4860, 1487.177
519.6660, 1482.595
520.8460, 1557.997
522.0260, 1594.418
523.2060, 1677.828
524.3850, 1669.270
525.5650, 1709.731
526.7440, 1714.212
527.9230, 1721.709
529.1020, 1708.218
530.2810, 1603.725
531.4590, 1646.228
532.6380, 1455.731
533.8160, 1431.221
534.9940, 1418.715
536.1720, 1391.189
537.3500, 1374.639
538.5270, 1325.075
539.7050, 1277.480
540.8820, 1234.858
542.0590, 1225.208
543.2360, 1251.552
544.4130, 1123.882
545.5900, 1040.193
546.7660, 1087.492
547.9430, 1013.767
549.1190, 1054.022
550.2950, 977.2627
551.4710, 906.4727
552.6470, 934.6494
553.8220, 916.7944
554.9980, 838.9062
556.1730, 848.9839
557.3480, 852.0278
558.5230, 717.7881
559.6980, 672.6860
560.8730, 668.4414
562.0470, 716.9014
563.2220, 702.6128
564.3960, 740.9941
565.5700, 713.8076
566.7440, 692.5791
567.9170, 715.3154
569.0910, 620.0166
570.2640, 718.6826
571.4380, 686.3125
572.6110, 641.9072
573.7840, 588.4653
574.9570, 631.9883
576.1290, 554.4756
577.3020, 543.9268
578.4740, 545.3418
579.6460, 421.7192
580.8180, 313.0605
581.9900, 349.3652
583.1620, 287.3838
584.3330, 277.4390
585.5040, 251.7388
586.6760, 259.6455
587.8470, 244.9839
589.0180, 205.2886
590.1880, 250.0176
591.3590, 177.9385
592.5290, 184.1548
593.7000, 90.32764
594.8700, 253.1846
596.0400, 236.7358
597.2090, 266.1948
598.3790, 241.3623
599.5490, 313.4785
600.7180, 430.2144
601.8870, 399.0801
603.0560, 470.5078
604.2250, 417.5215
605.3940, 523.8633
606.5620, 538.7246
607.7300, 542.5601
608.8990, 568.6328
610.0670, 615.4175
611.2350, 668.3047
612.4020, 708.1133
613.5700, 774.3599
614.7370, 927.6904
615.9050, 895.5659
617.0720, 972.9590
618.2390, 1163.302
619.4060, 1134.757
620.5720, 1239.823
621.7390, 1427.997
622.9050, 1535.756
624.0710, 1612.884
625.2370, 1811.557
626.4030, 1939.801
627.5690, 2072.210
628.7340, 2296.411
629.9000, 2536.496
631.0650, 2751.577
632.2300, 3017.844
633.3950, 3382.668
634.5600, 3537.681
635.7240, 3828.670
636.8890, 4067.636
638.0530, 4538.579
639.2170, 4845.567
640.3810, 5343.175
641.5450, 5687.224
642.7080, 6120.076
643.8720, 6578.905
645.0350, 7264.999
646.1980, 7902.077
647.3610, 8566.359
648.5240, 9541.047
649.6870, 10659.49
650.8490, 11622.31
652.0120, 12961.30
653.1740, 14860.99
654.3360, 16866.27
655.4980, 19269.70
656.6600, 22412.98
657.8210, 26160.86
658.9830, 29935.71
660.1440, 34458.52
661.3050, 39077.37
662.4660, 43593.96
663.6270, 47016.16
664.7870, 50093.83
665.9480, 50255.06
667.1080, 48877.47
668.2680, 45663.24
669.4280, 41009.43
670.5880, 35608.02
671.7480, 30435.75
672.9070, 25228.91
674.0670, 21012.79
675.2260, 17489.79
676.3850, 14559.56
677.5440, 12349.29
678.7030, 10251.46
679.8610, 8946.990
681.0200, 7736.489
682.1780, 6826.315
683.3360, 6100.847
684.4940, 5328.651
685.6520, 4798.618
686.8090, 4360.230
687.9670, 3751.565
689.1240, 3445.440
690.2810, 3064.491
691.4380, 2582.425
692.5950, 2504.462
693.7520, 2290.105
694.9080, 2091.933
696.0650, 1950.587
697.2210, 1762.236
698.3770, 1647.851
699.5330, 1455.501
700.6880, 1344.188
701.8440, 1226.646
702.9990, 1198.235
704.1550, 1171.671
705.3100, 1003.642
706.4650, 916.0249
707.6190, 944.3784
708.7740, 795.7026
709.9290, 750.9976
711.0830, 731.2637
712.2370, 769.5010
713.3910, 682.7095
714.5450, 679.0210
715.6980, 667.1729
716.8520, 616.2954
718.0050, 611.3530
719.1580, 582.4580
720.3110, 578.4985
721.4640, 581.5122
722.6170, 587.5273
723.7700, 620.5356
724.9220, 552.5088
726.0740, 529.5664
727.2260, 664.6592
728.3780, 525.6787
729.5300, 654.8247
730.6810, 643.7969
731.8330, 579.8833
732.9840, 708.3799
734.1350, 599.5840
735.2860, 593.7949
736.4370, 620.0029
737.5880, 686.2119
738.7380, 710.4346
739.8880, 664.6519
741.0390, 650.8848
742.1890, 663.1177
743.3380, 585.3613
744.4880, 613.6055
745.6380, 597.8555
746.7870, 537.1045
747.9360, 544.3682
749.0850, 434.6216
750.2340, 508.8735
751.3830, 390.1279
752.5310, 459.3794
753.6800, 330.6235
754.8280, 305.8477
755.9760, 361.0669
757.1240, 322.2642
758.2720, 273.4663
759.4190, 250.6704
760.5670, 182.8848
761.7140, 284.0801
762.8610, 203.2900
764.0080, 294.5000
765.1550, 283.7036
766.3020, 239.8979
767.4480, 250.0767
768.5950, 208.2339
769.7410, 163.3711
770.8870, 322.4868
772.0330, 201.5815
773.1780, 249.6558
774.3240, 170.7100
775.4690, 152.7451
776.6140, 129.7593
777.7590, 49.75293
778.9040, 102.7207
780.0490, 153.6670
781.1940, 207.5942
782.3380, 83.50244
783.4820, 21.38916
784.6260, 57.24365
785.7700, 31.07471
786.9140, 40.87744
788.0580, 29.34473
789.2010, 80.62354
790.3450, 76.98486
791.4880, 71.42676
792.6310, 74.79980
793.7730, 57.54297
794.9160, 52.20850
796.0590, 4.939453
797.2010, 5.710938
798.3430, 134.5210
799.4850, 20.43896
800.6270, 190.4023
801.7690, 135.5010
802.9100, 145.7051
804.0520, 134.0190
805.1930, 109.1250
806.3340, 69.94385
807.4750, 61.51855
808.6160, 81.15625
809.7560, 25.86670
810.8970, 102.6196
812.0370, 10.45361
813.1770, 8.678223
814.3170, 41.21094
815.4570, 67.85254
816.5960, 11.90234
817.7360, 9.934082
818.8750, 81.05127
820.0140, 46.10254
821.1530, 36.19873
822.2920, 56.33496
823.4310, 20.52002
824.5690, 33.73438
825.7070, 59.98535
826.8460, 10.71484
827.9840, 18.40234
829.1220, 3.078125
830.2590, 69.74023
831.3970, 13.39355
832.5340, 44.72070
833.6710, 18.66797
834.8080, 54.29102
835.9450, 20.90576
837.0820, 5.511230
838.2190, 98.10645
839.3550, 11.69482
840.4910, 49.27441
841.6270, 14.15332
842.7630, 45.40625
843.8990, 99.95898
845.0350, 124.5054
846.1700, 156.0459
847.3060, 119.5815
848.4410, 93.11230
849.5760, 25.63721
850.7100, 0.1572270
851.8450, 46.67090
852.9800, 228.1807
854.1140, 232.6855
855.2480, 194.1865
856.3820, 93.68506
857.5160, 240.1792
858.6500, 153.6714
859.7830, 178.1597
860.9170, 230.6455
862.0500, 162.1299
863.1830, 216.6104
864.3160, 243.0884
865.4480, 222.5645
866.5810, 344.0371
867.7130, 328.5093
868.8460, 341.9785
869.9780, 384.4536
871.1100, 319.9263
872.2410, 398.3965
873.3730, 315.8638
874.5050, 429.3296
875.6360, 475.7930
876.7670, 457.2544
877.8980, 553.7139
879.0290, 554.1709
880.1590, 613.6270
881.2900, 689.0811
882.4200, 728.5332
883.5500, 805.9849
884.6800, 733.4341
885.8100, 812.8823
886.9400, 769.3311
888.0690, 910.7783
889.1990, 1016.226
890.3280, 1106.671
891.4570, 1168.118
892.5860, 1235.575
893.7140, 1321.064
894.8430, 1383.552
895.9710, 1514.041
897.1000, 1645.532
898.2280, 1648.024
899.3560, 1744.526
900.4830, 1632.056
901.6110, 1803.587
902.7380, 1819.128
903.8660, 1825.669
904.9930, 1973.230
906.1200, 2023.793
907.2460, 2234.358
908.3730, 2373.962
909.5000, 2351.605
910.6260, 2594.250
911.7520, 2721.897
912.8780, 2899.494
914.0040, 3056.461
915.1290, 3352.995
916.2550, 3557.224
917.3800, 3877.418
918.5050, 4130.848
919.6300, 4520.288
920.7550, 4955.506
921.8800, 5174.316
923.0040, 5292.351
924.1290, 5413.021
925.2530, 5504.508
926.3770, 5269.270
927.5010, 5202.427
928.6250, 5082.428
929.7480, 4572.562
930.8720, 4348.101
931.9950, 4116.662
933.1180, 3814.240
934.2410, 3649.800
935.3640, 3432.581
936.4860, 3238.754
937.6090, 3073.437
938.7310, 3115.573
939.8530, 2967.514
940.9750, 2947.106
942.0970, 2836.233
943.2180, 2782.000
944.3400, 2771.596
945.4610, 2704.764
946.5820, 2666.240
947.7030, 2683.586
948.8240, 2617.165
949.9450, 2544.570
951.0650, 2426.928
952.1860, 2385.710
953.3060, 2301.514
954.4260, 2284.977
955.5460, 2348.729
956.6650, 2202.195
957.7850, 2344.491
958.9040, 2202.132
960.0230, 2207.039
961.1420, 2286.410
962.2610, 2134.618
963.3800, 2312.931
964.4990, 2169.134
965.6170, 2051.719
966.7350, 2147.113
967.8530, 2190.668
968.9710, 2111.147
970.0890, 2177.807
971.2070, 2111.302
972.3240, 2317.903
973.4410, 1992.664
974.5580, 1945.297
975.6750, 1854.101
976.7920, 2011.370
977.9090, 1888.239
979.0250, 1949.134
980.1410, 1854.051
981.2580, 1947.990
982.3740, 1800.952
983.4890, 1994.937
984.6050, 1818.943
985.7200, 2006.840
986.8360, 2025.892
987.9510, 1918.966
989.0660, 1961.062
990.1810, 2077.183
991.2950, 1969.325
992.4100, 2143.491
993.5240, 2252.680
994.6390, 2201.892
995.7530, 2425.125
996.8660, 2490.383
997.9800, 2474.664
999.0940, 2588.968
1000.207, 2697.295
1001.320, 2766.646
1002.433, 2923.019
1003.546, 3061.416
1004.659, 3154.836
1005.772, 3308.589
1006.884, 3489.747
1007.996, 3617.239
1009.108, 3740.755
1010.220, 3985.295
1011.332, 4118.857
1012.444, 4215.444
1013.555, 4346.052
1014.666, 4569.685
1015.777, 4701.341
1016.888, 4850.020
1017.999, 5048.532
1019.110, 4998.450
1020.220, 5398.338
1021.331, 5442.110
1022.441, 5571.907
1023.551, 5941.744
1024.661, 6026.586
1025.770, 6115.880
1026.880, 6252.824
1027.989, 6435.738
1029.098, 6606.674
1030.207, 6927.967
1031.316, 7322.967
1032.425, 7681.074
1033.533, 8186.153
1034.642, 8676.203
1035.750, 9466.051
1036.858, 10441.15
1037.966, 11124.23
1039.073, 12141.37
1040.181, 13168.70
1041.288, 14236.35
1042.396, 15014.86
1043.503, 16164.08
1044.610, 16636.33
1045.716, 17428.37
1046.823, 17527.21
1047.929, 17572.11
1049.036, 17415.43
1050.142, 16945.78
1051.248, 16157.20
1052.353, 15192.46
1053.459, 14341.96
1054.564, 13532.76
1055.670, 12897.22
1056.775, 12643.07
1057.880, 12279.60
1058.985, 11867.22
1060.089, 11850.16
1061.194, 11554.55
1062.298, 10839.41
1063.402, 9826.793
1064.506, 8993.892
1065.610, 7977.967
1066.713, 7023.426
1067.817, 6176.660
1068.920, 5487.779
1070.023, 4754.851
1071.126, 4333.149
1072.229, 3864.517
1073.332, 3492.949
1074.435, 3273.400
1075.537, 2878.965
1076.639, 2656.319
1077.741, 2489.860
1078.843, 2288.200
1079.945, 2040.675
1081.046, 2102.669
1082.148, 1833.185
1083.249, 1809.732
1084.350, 1720.330
1085.451, 1535.921
1086.551, 1524.621
1087.652, 1483.661
1088.752, 1402.323
1089.853, 1329.072
1090.953, 1287.459
1092.053, 1154.205
1093.152, 1110.654
1094.252, 1169.012
1095.351, 1064.823
1096.451, 947.0459
1097.550, 1055.883
1098.649, 1092.911
1099.748, 1032.771
1100.846, 1032.182
1101.945, 848.5649
1103.043, 875.7026
1104.141, 834.8594
1105.239, 697.2056
1106.337, 657.1279
1107.434, 717.0591
1108.532, 780.1992
1109.629, 677.2754
1110.726, 726.4028
1111.823, 640.5132
1112.920, 559.4893
1114.017, 528.4722
1115.113, 592.4624
1116.210, 474.4653
1117.306, 574.4707
1118.402, 584.4834
1119.498, 529.5039
1120.593, 604.5303
1121.689, 625.5640
1122.784, 539.6025
1123.879, 560.6943
1124.974, 534.7437
1126.069, 527.7988
1127.164, 498.8594
1128.259, 453.9238
1129.353, 441.9937
1130.447, 354.1812
1131.541, 335.4629
1132.635, 334.3457
1133.729, 268.4346
1134.822, 243.5732
1135.916, 224.6704
1137.009, 185.7715
1138.102, 163.6533
1139.195, 133.6045
1140.288, 107.7148
1141.380, 114.8276
1142.473, 89.94385
1143.565, 46.06250
1144.657, 90.18311
1145.749, 84.30566
1146.841, 126.4302
1147.932, 10.55664
1149.024, 78.68457
1150.115, 9.812988
1151.206, 8.056641
1152.297, 23.11230
1153.388, 62.24219
1154.479, 2.371582
1155.569, 111.5015
1156.659, 61.36768
1157.750, 134.2622
1158.839, 46.78027
1159.929, 17.82178
1161.019, 14.13867
1162.108, 45.90137
1163.198, 49.05908
1164.287, 111.0415
1165.376, 21.91895
1166.465, 40.12305
1167.553, 44.82178
1168.642, 73.23682
1169.730, 9.665527
1170.818, 2.434570
1171.906, 141.5420
1172.994, 137.7266
1174.082, 58.01172
1175.170, 61.74658
1176.257, 46.52344
1177.344, 41.82422
1178.431, 89.15479
1179.518, 27.45996
1180.605, 76.06885
1181.691, 19.67627
1182.778, 41.72266
1183.864, 13.84619
1184.950, 47.59229
1186.036, 85.93213
1187.122, 93.54980
1188.207, 88.90527
1189.292, 33.35352
1190.378, 6.794434
1191.463, 15.77734
1192.548, 18.62646
1193.632, 59.97998
1194.717, 11.36523
1195.801, 20.30371
1196.886, 25.00391
1197.970, 14.26953
1199.054, 25.52930
1200.137, 57.77783
1201.221, 78.98438
1202.305, 23.18945
1203.388, 29.65088
1204.471, 31.46875
1205.554, 60.42432
1206.637, 99.62402
1207.719, 9.327148
1208.802, 132.3115
1209.884, 140.6060
1210.966, 44.48926
1212.048, 123.3623
1213.130, 104.2012
1214.212, 82.04297
1215.293, 88.87207
1216.374, 68.70166
1217.456, 9.517090
1218.536, 102.3047
1219.617, 85.07715
1220.698, 28.83643
1221.778, 101.5737
1222.859, 23.69189
1223.939, 37.00488
1225.019, 147.6260
1226.099, 43.37207
1227.178, 111.9868
1228.258, 68.79248
1229.337, 113.4717
1230.417, 111.0381
1231.496, 110.5879
1232.574, 5.121582
1233.653, 5.617676
1234.732, 51.07617
1235.810, 156.5142
1236.888, 157.9355
1237.966, 77.35254
1239.044, 37.25439
1240.122, 88.07910
1241.199, 95.39453
1242.277, 167.6968
1243.354, 168.9819
1244.431, 184.9282
1245.508, 133.5005
1246.585, 191.8672
1247.661, 185.0825
1248.738, 184.3281
1249.814, 174.6660
1250.890, 140.8262
1251.966, 146.9688
1253.042, 132.0933
1254.117, 162.1821
1255.193, 206.3247
1256.268, 238.4028
1257.343, 211.4526
1258.418, 241.4854
1259.493, 123.7368
1260.567, 161.7295
1261.642, 193.9341
1262.716, 269.1587
1263.790, 144.0938
1264.864, 234.0093
1265.938, 208.3096
1267.011, 97.18604
1268.085, 87.16748
1269.158, 178.0078
1270.231, 209.9019
1271.304, 235.9478
1272.377, 237.7729
1273.450, 192.6572
1274.522, 218.5669
1275.594, 197.7061
1276.666, 253.3296
