##NAMES=Fluoro-richterite
##RRUFFID=R040019
##IDEAL CHEMISTRY=Na(NaCa)Mg_5_Si_8_O_22_F_2_
##LOCALITY=Wilberforce, Ontario, Canada
##OWNER=RRUFF
##SOURCE=University of Arizona Mineral Museum
##DESCRIPTION=Brown prismatic crystals
##STATUS=The identification of this mineral has been confirmed by X-ray diffraction and chemical analysis
##URL=rruff.info/R040019
##MEASURED CHEMISTRY=(Na_0.59_K_0.27_[box]_0.14_)_Σ=1_(Ca_1.30_Na_0.70_)_Σ=2_(Mg_4.67_Fe_0.17_Fe^3+^_0.10_Ti_0.03_Mn_0.02_Al_0.01_)_Σ=5_(Si_7.67_Al_0.33_)_Σ=8_(F_1.12_(OH)_0.88_)_Σ=2_; OH estimated by charge balance
##PIN_ID=L00205
##ORIENTATION=Laser parallel to c [0 0 1]. Fiducial mark perpendicular to laser is parallel to -b* (0 -1 0)
142.0160, 0.0000000E+00
143.4010, 46.13184
144.7870, 83.45459
146.1720, 31.21191
147.5570, 8.951172
148.9420, 55.62744
150.3270, 272.1094
151.7110, 756.3076
153.0960, 1500.930
154.4800, 2421.084
155.8630, 3362.242
157.2470, 4311.186
158.6300, 5159.942
160.0130, 5808.104
161.3960, 5923.264
162.7790, 5645.670
164.1610, 5191.744
165.5440, 4629.011
166.9260, 4352.089
168.3080, 3953.658
169.6890, 4011.444
171.0700, 3900.223
172.4520, 4083.797
173.8330, 4300.001
175.2130, 4419.879
176.5940, 4393.269
177.9740, 4465.988
179.3540, 4436.983
180.7340, 4442.550
182.1140, 4087.728
183.4930, 3903.591
184.8720, 3784.113
186.2510, 3536.235
187.6300, 3446.923
189.0080, 3153.146
190.3870, 3157.865
191.7650, 3253.052
193.1430, 3325.677
194.5200, 3520.719
195.8980, 3721.977
197.2750, 3931.966
198.6520, 4289.135
200.0290, 4630.646
201.4050, 5042.691
202.7820, 5562.628
204.1580, 5933.072
205.5340, 6454.795
206.9090, 6978.791
208.2850, 7144.309
209.6600, 7737.382
211.0350, 8189.860
212.4100, 8419.635
213.7840, 9085.924
215.1590, 9596.796
216.5330, 10386.20
217.9070, 11128.86
219.2810, 11948.83
220.6540, 12773.60
222.0270, 13387.62
223.4000, 14126.54
224.7730, 14715.87
226.1460, 14979.18
227.5180, 15369.42
228.8910, 15427.70
230.2630, 15285.17
231.6340, 14891.80
233.0060, 14132.55
234.3770, 13167.39
235.7480, 11780.29
237.1190, 10386.25
238.4900, 9052.288
239.8600, 7987.395
241.2310, 6845.581
242.6010, 5898.848
243.9700, 5083.198
245.3400, 4557.631
246.7090, 3931.148
248.0790, 3449.747
249.4480, 3215.429
250.8160, 2698.192
252.1850, 2398.037
253.5530, 2339.961
254.9210, 2181.963
256.2890, 2117.042
257.6570, 1990.196
259.0240, 2028.418
260.3910, 1965.701
261.7580, 1847.041
263.1250, 1816.434
264.4920, 1657.882
265.8580, 1053.382
267.2240, 808.9331
268.5900, 505.5332
269.9560, 259.1812
271.3210, 136.8750
272.6870, 51.38672
274.0520, 112.6055
275.4160, 210.7842
276.7810, 212.9229
278.1460, 307.0225
279.5100, 294.0801
280.8740, 238.0996
282.2370, 222.0854
283.6010, 163.0396
284.9640, 145.9653
286.3270, 135.8628
287.6900, 63.26611
289.0530, 25.42041
290.4160, 204.5908
291.7780, 356.7534
293.1400, 392.9380
294.5020, 569.2305
295.8630, 668.0117
297.2250, 869.2305
298.5860, 1013.825
299.9470, 1224.392
301.3080, 1454.383
302.6680, 1802.585
304.0290, 2036.779
305.3890, 2466.676
306.7490, 2737.632
308.1080, 3183.582
309.4680, 3450.201
310.8270, 3644.932
312.1860, 3840.552
313.5450, 3917.609
314.9030, 3939.166
316.2620, 3677.591
317.6200, 3437.334
318.9780, 3306.337
320.3360, 2927.810
321.6930, 2723.042
323.0510, 2463.631
324.4080, 2281.215
325.7650, 1979.512
327.1210, 2070.019
328.4780, 1856.604
329.8340, 1794.130
331.1900, 1825.959
332.5460, 1986.818
333.9020, 1942.773
335.2570, 2096.860
336.6120, 2263.068
337.9670, 2446.389
339.3220, 2674.813
340.6770, 2842.326
342.0310, 3191.911
343.3850, 3383.560
344.7390, 3635.271
346.0930, 3806.042
347.4460, 3816.867
348.7990, 3757.744
350.1530, 3745.670
351.5050, 3815.642
352.8580, 3521.655
354.2100, 3572.711
355.5630, 3409.803
356.9150, 3381.931
358.2670, 3453.092
359.6180, 3422.285
360.9690, 3571.507
362.3210, 3730.755
363.6720, 3807.029
365.0220, 4040.326
366.3730, 4148.645
367.7230, 4340.983
369.0730, 4471.341
370.4230, 4636.717
371.7730, 4680.068
373.1220, 4579.313
374.4710, 4491.386
375.8210, 4392.946
377.1690, 4252.250
378.5180, 4107.138
379.8660, 3828.043
381.2150, 3666.966
382.5630, 3542.903
383.9100, 3319.852
385.2580, 3193.805
386.6050, 3124.757
387.9520, 3024.708
389.2990, 2816.657
390.6460, 2872.604
391.9920, 2764.549
393.3390, 2727.488
394.6850, 2742.425
396.0310, 2678.354
397.3760, 2634.279
398.7220, 2497.196
400.0670, 2470.104
401.4120, 2237.006
402.7570, 2080.898
404.1010, 2003.781
405.4460, 1790.655
406.7900, 1597.517
408.1340, 1429.367
409.4780, 1280.206
410.8210, 1138.032
412.1650, 949.0815
413.5080, 773.1313
414.8510, 759.2852
416.1930, 676.1035
417.5360, 646.0337
418.8780, 623.7681
420.2200, 691.4839
421.5620, 695.1821
422.9040, 691.8613
424.2450, 813.5205
425.5860, 964.1602
426.9270, 926.7798
428.2680, 1099.377
429.6090, 1066.954
430.9490, 1095.508
432.2890, 1055.039
433.6290, 1058.579
434.9690, 959.1162
436.3090, 831.1562
437.6480, 689.6128
438.9870, 524.3252
440.3260, 451.2861
441.6650, 316.0317
443.0030, 216.6294
444.3420, 121.3618
445.6800, 48.70264
447.0180, 19.22168
448.3550, 53.97168
449.6930, 69.34570
451.0300, 187.0859
452.3670, 176.1304
453.7040, 120.9189
455.0410, 209.1406
456.3770, 198.9263
457.7130, 183.9175
459.0490, 95.58838
460.3850, 119.7544
461.7210, 37.26807
463.0560, 35.30469
464.3910, 52.63135
465.7260, 13.05786
467.0610, 7.424316
468.3950, 9.123291
469.7300, 20.29297
471.0640, 21.59863
472.3980, 42.08887
473.7310, 28.46338
475.0650, 4.199707
476.3980, 24.91968
477.7310, 53.71118
479.0640, 33.40796
480.3970, 3.512451
481.7290, 47.49854
483.0620, 47.46460
484.3940, 56.38086
485.7250, 141.2495
487.0570, 146.0840
488.3890, 177.8833
489.7200, 238.6475
491.0510, 209.3770
492.3820, 243.0701
493.7120, 303.7266
495.0430, 388.3540
496.3730, 431.9436
497.7030, 473.4951
499.0320, 639.0090
500.3620, 686.5007
501.6910, 783.9678
503.0200, 947.4011
504.3490, 1029.804
505.6780, 1171.174
507.0070, 1234.510
508.3350, 1455.813
509.6630, 1466.081
510.9910, 1648.330
512.3190, 1727.551
513.6460, 1787.731
514.9730, 1985.888
516.3000, 2045.009
517.6270, 2217.094
518.9540, 2439.147
520.2800, 2384.157
521.6070, 2546.119
522.9330, 2619.038
524.2590, 2683.919
525.5840, 2702.771
526.9100, 2736.200
528.2350, 2678.343
529.5600, 2712.079
530.8850, 2698.770
532.2090, 2591.422
533.5340, 2599.033
534.8580, 2502.613
536.1820, 2419.144
537.5060, 2157.640
538.8290, 2022.084
540.1520, 1846.478
541.4760, 1670.820
542.7990, 1576.110
544.1210, 1318.347
545.4440, 1238.532
546.7660, 1181.664
548.0880, 1091.741
549.4100, 1079.765
550.7320, 1085.735
552.0530, 1031.651
553.3750, 1042.512
554.6960, 981.3184
556.0170, 916.0693
557.3370, 910.7627
558.6580, 860.3997
559.9780, 855.9788
561.2980, 757.5000
562.6180, 695.9639
563.9380, 645.3696
565.2570, 535.7166
566.5760, 537.0049
567.8950, 483.2341
569.2140, 475.4045
570.5330, 401.5156
571.8510, 400.5647
573.1700, 374.5520
574.4880, 453.4766
575.8050, 425.3401
577.1230, 473.1416
578.4400, 521.8828
579.7580, 542.5637
581.0750, 583.1843
582.3910, 616.7444
583.7080, 646.2087
585.0240, 739.6812
586.3410, 680.0581
587.6570, 703.3735
588.9720, 654.6277
590.2880, 525.8203
591.6030, 486.9514
592.9180, 302.0203
594.2330, 212.0254
595.5480, 181.9636
596.8630, 36.84375
598.1770, 18.62915
599.4910, 47.67407
600.8050, 69.10254
602.1190, 20.67627
603.4320, 113.3735
604.7460, 5.274414
606.0590, 5.382813
607.3720, 30.89771
608.6850, 68.18433
609.9970, 96.61475
611.3090, 75.50098
612.6210, 117.6145
613.9330, 183.3113
615.2450, 177.4431
616.5570, 217.4658
617.8680, 277.0408
619.1790, 302.8345
620.4900, 377.1394
621.8010, 428.4001
623.1110, 514.1079
624.4210, 642.2800
625.7310, 680.1528
627.0410, 671.5493
628.3510, 863.6453
629.6600, 879.4924
630.9700, 921.1230
632.2790, 1039.903
633.5880, 1025.828
634.8960, 1154.296
636.2050, 1238.874
637.5130, 1366.793
638.8210, 1448.309
640.1290, 1605.336
641.4370, 1666.119
642.7440, 1880.096
644.0510, 2021.480
645.3580, 2219.753
646.6650, 2387.180
647.9720, 2683.758
649.2780, 2977.218
650.5840, 3268.600
651.8900, 3600.463
653.1960, 4082.867
654.5020, 4521.268
655.8070, 5064.802
657.1130, 5467.836
658.4180, 6075.483
659.7220, 6996.006
661.0270, 7618.509
662.3310, 8510.244
663.6360, 9713.085
664.9400, 10805.28
666.2440, 12223.53
667.5470, 14173.18
668.8510, 16316.84
670.1540, 19621.15
671.4570, 23106.78
672.7600, 27501.58
674.0620, 33313.45
675.3650, 38876.94
676.6670, 45805.19
677.9690, 50599.59
679.2710, 55397.79
680.5720, 58146.56
681.8740, 56636.75
683.1750, 52550.68
684.4760, 47109.90
685.7770, 40136.39
687.0770, 33458.39
688.3780, 27579.51
689.6780, 22909.68
690.9780, 18541.36
692.2780, 15357.36
693.5770, 12388.99
694.8770, 10775.49
696.1760, 8889.913
697.4750, 7687.295
698.7740, 6617.430
700.0720, 5811.669
701.3710, 5213.890
702.6690, 4564.853
703.9670, 4088.722
705.2650, 3713.614
706.5620, 3510.573
707.8600, 3164.425
709.1570, 2869.052
710.4540, 2784.757
711.7510, 2561.124
713.0470, 2551.372
714.3440, 2380.581
715.6400, 2364.599
716.9360, 2226.593
718.2320, 2135.551
719.5270, 2259.412
720.8230, 2104.220
722.1180, 2040.978
723.4130, 2060.683
724.7080, 1992.337
726.0020, 1941.940
727.2970, 1945.255
728.5910, 1745.506
729.8850, 1908.586
731.1790, 1849.938
732.4720, 1686.112
733.7660, 1734.417
735.0590, 1625.673
736.3520, 1633.880
737.6450, 1576.039
738.9370, 1515.151
740.2300, 1467.216
741.5220, 1391.075
742.8140, 1345.500
744.1060, 1229.130
745.3970, 1207.009
746.6890, 1101.843
747.9800, 951.5996
749.2710, 963.5300
750.5620, 916.4619
751.8530, 868.8132
753.1430, 744.7512
754.4330, 777.7432
755.7230, 645.5881
757.0130, 617.0283
758.3030, 617.4512
759.5920, 495.0002
760.8810, 540.2830
762.1700, 438.6069
763.4590, 366.4541
764.7480, 349.5991
766.0360, 321.9805
767.3250, 268.0371
768.6130, 184.4600
769.9010, 188.3770
771.1880, 156.4102
772.4760, 112.9917
773.7630, 124.8682
775.0500, 31.90088
776.3370, 24.24902
777.6240, 47.27490
778.9100, 33.84033
780.1960, 4.549316
781.4820, 11.90967
782.7680, 24.74951
784.0540, 38.45410
785.3390, 7.211914
786.6250, 66.99170
787.9100, 32.54590
789.1950, 36.99023
790.4790, 24.49121
791.7640, 15.35498
793.0480, 11.76074
794.3320, 7.863281
795.6160, 34.93799
796.9000, 36.98926
798.1830, 50.01562
799.4670, 63.00928
800.7500, 39.97266
802.0330, 45.90283
803.3160, 26.80127
804.5980, 60.66602
805.8800, 22.50049
807.1630, 37.28516
808.4450, 24.03857
809.7260, 0.7592770
811.0080, 63.55566
812.2890, 58.93750
813.5700, 25.38281
814.8510, 43.87451
816.1320, 32.42090
817.4130, 36.01562
818.6930, 43.65918
819.9730, 28.35547
821.2530, 102.0967
822.5330, 71.91943
823.8130, 13.80859
825.0920, 90.73389
826.3710, 46.73389
827.6500, 49.78467
828.9290, 61.88623
830.2080, 21.04443
831.4860, 3.759766
832.7640, 23.46484
834.0420, 56.72656
835.3200, 82.03955
836.5980, 22.41748
837.8750, 51.83057
839.1520, 92.29004
840.4290, 29.81738
841.7060, 55.38135
842.9830, 57.99219
844.2590, 86.65088
845.5360, 10.37061
846.8120, 72.11963
848.0880, 21.08008
849.3630, 25.25586
850.6390, 19.41016
851.9140, 63.54102
853.1890, 23.65234
854.4640, 12.74121
855.7390, 59.80908
857.0130, 66.85645
858.2880, 46.88574
859.5620, 15.89453
860.8360, 26.79639
862.1100, 65.85498
863.3830, 32.80859
864.6560, 98.74756
865.9300, 112.6733
867.2030, 107.5879
868.4750, 156.4912
869.7480, 130.3877
871.0200, 124.2749
872.2920, 195.1558
873.5640, 248.0293
874.8360, 277.9028
876.1080, 304.7788
877.3790, 350.6694
878.6500, 424.1934
879.9220, 418.8218
881.1920, 453.0874
882.4630, 436.2988
883.7330, 476.2402
885.0040, 505.1948
886.2740, 528.1499
887.5440, 663.1211
888.8130, 834.1133
890.0830, 805.1108
891.3520, 958.1221
892.6210, 1097.145
893.8900, 1165.186
895.1590, 1398.241
896.4270, 1414.298
897.6950, 1595.366
898.9640, 1762.470
900.2320, 1862.020
901.4990, 2007.978
902.7670, 2162.882
904.0340, 2220.057
905.3010, 2412.282
906.5680, 2492.537
907.8350, 2652.838
909.1020, 2741.188
910.3680, 2873.597
911.6340, 3129.055
912.9000, 3294.596
914.1660, 3398.192
915.4320, 3704.838
916.6970, 3921.545
917.9620, 4097.276
919.2270, 4383.042
920.4920, 4733.828
921.7570, 4910.319
923.0210, 5201.843
924.2850, 5431.245
925.5500, 5744.479
926.8130, 6013.769
928.0770, 6216.680
929.3410, 6378.569
930.6040, 6554.789
931.8670, 6535.894
933.1300, 6323.451
934.3930, 6196.311
935.6550, 6271.109
936.9180, 5767.087
938.1800, 5851.071
939.4420, 5565.184
940.7030, 5467.158
941.9650, 5452.159
943.2260, 5414.116
944.4880, 5261.798
945.7490, 5319.707
947.0090, 5426.599
948.2700, 5310.610
949.5300, 5370.637
950.7910, 5362.724
952.0510, 5439.870
953.3110, 5265.922
954.5700, 5047.005
955.8300, 5060.010
957.0890, 4843.161
958.3480, 4614.817
959.6070, 4387.875
960.8660, 4252.880
962.1240, 4150.699
963.3830, 4086.960
964.6410, 4084.550
965.8990, 4080.209
967.1560, 4157.831
968.4140, 4128.166
969.6710, 4157.333
970.9280, 4342.093
972.1850, 4338.736
973.4420, 4382.919
974.6990, 4402.045
975.9550, 4460.440
977.2110, 4449.481
978.4680, 4324.285
979.7230, 4426.956
980.9790, 4281.958
982.2340, 4221.142
983.4900, 4352.103
984.7450, 4040.229
986.0000, 4125.710
987.2540, 4113.716
988.5090, 3947.943
989.7630, 3970.800
991.0170, 3826.325
992.2710, 3869.303
993.5250, 3779.081
994.7790, 3839.759
996.0320, 3702.865
997.2850, 3676.597
998.5380, 3753.631
999.7910, 3573.740
1001.044, 3665.870
1002.296, 3554.980
1003.548, 3721.278
1004.800, 3667.415
1006.052, 3659.509
1007.304, 3796.209
1008.555, 3770.839
1009.807, 3965.373
1011.058, 3914.654
1012.309, 3901.017
1013.559, 4100.597
1014.810, 4059.642
1016.060, 3950.880
1017.310, 4102.445
1018.560, 4100.958
1019.810, 4089.008
1021.060, 4129.989
1022.309, 4162.085
1023.558, 4220.307
1024.807, 4212.499
1026.056, 4170.209
1027.305, 4368.024
1028.553, 4328.687
1029.801, 4611.328
1031.049, 4739.233
1032.297, 4754.714
1033.545, 4975.480
1034.793, 5214.225
1036.040, 5358.151
1037.287, 5661.734
1038.534, 5907.226
1039.781, 6154.160
1041.027, 6455.050
1042.274, 6530.200
1043.520, 6777.824
1044.766, 7193.174
1046.012, 7227.721
1047.257, 7509.782
1048.503, 7736.597
1049.748, 8186.464
1050.993, 8355.249
1052.238, 9005.073
1053.483, 9444.051
1054.727, 9831.794
1055.971, 10321.09
1057.216, 11219.05
1058.459, 11837.03
1059.703, 12745.19
1060.947, 13506.64
1062.190, 14612.81
1063.433, 15620.10
1064.676, 16701.95
1065.919, 17688.44
1067.162, 18527.47
1068.404, 19722.60
1069.646, 19660.41
1070.888, 20076.41
1072.130, 20475.60
1073.372, 19970.19
1074.613, 19637.60
1075.855, 19001.25
1077.096, 18013.40
1078.337, 16698.58
1079.578, 16043.77
1080.818, 14570.59
1082.059, 13422.76
1083.299, 12290.21
1084.539, 11400.69
1085.779, 10259.04
1087.018, 9314.643
1088.258, 8449.319
1089.497, 7727.934
1090.736, 6891.928
1091.975, 6289.474
1093.213, 5559.502
1094.452, 5079.442
1095.690, 4739.279
1096.928, 4157.125
1098.166, 3922.279
1099.404, 3722.341
1100.642, 3524.807
1101.879, 3302.824
1103.116, 3037.867
1104.353, 2864.558
1105.590, 2673.979
1106.827, 2424.646
1108.063, 2416.342
1109.299, 2233.319
1110.536, 2271.519
1111.771, 2335.204
1113.007, 1979.885
1114.243, 1855.982
1115.478, 1855.569
1116.713, 1729.505
1117.948, 1670.958
1119.183, 1677.254
1120.418, 1558.982
1121.652, 1570.454
1122.886, 1586.104
1124.120, 1453.524
1125.354, 1486.532
1126.588, 1509.923
1127.821, 1364.228
1129.055, 1276.908
1130.288, 1374.815
1131.521, 1254.313
1132.753, 1210.100
1133.986, 1175.261
1135.218, 1144.474
1136.450, 1154.267
1137.682, 1004.137
1138.914, 1107.812
1140.146, 974.5054
1141.377, 932.1187
1142.609, 922.9600
1143.840, 839.5952
1145.071, 841.5112
1146.301, 792.9536
1147.532, 751.1719
1148.762, 760.0664
1149.992, 688.4551
1151.222, 636.8579
1152.452, 631.3413
1153.682, 543.6001
1154.911, 481.8042
1156.140, 453.5161
1157.369, 468.3081
1158.598, 385.7935
1159.827, 380.0557
1161.055, 369.2031
1162.284, 228.2686
1163.512, 250.3374
1164.740, 188.2954
1165.967, 198.0454
1167.195, 102.8755
1168.422, 114.0444
1169.650, 83.31055
1170.877, 64.89160
1172.103, 14.83447
1173.330, 23.59033
1174.557, 71.96191
1175.783, 20.83447
1177.009, 19.56934
1178.235, 102.4668
1179.461, 20.93652
1180.686, 82.77441
1181.912, 49.81250
1183.137, 3.568359
1184.362, 61.77832
1185.587, 75.51025
1186.811, 18.21484
1188.036, 48.79297
1189.260, 36.35791
1190.484, 59.30615
1191.708, 54.38965
1192.932, 12.73145
1194.155, 32.87842
1195.378, 123.9922
1196.602, 28.86572
1197.825, 90.88721
1199.047, 11.45410
1200.270, 29.45850
1201.492, 136.9761
1202.715, 32.44434
1203.937, 28.42285
1205.159, 67.24316
1206.380, 42.52051
1207.602, 3.793945
1208.823, 31.04199
1210.044, 32.87598
1211.265, 9.609863
1212.486, 35.85791
1213.707, 41.73779
1214.927, 45.90869
1216.147, 62.35547
1217.367, 59.63428
1218.587, 23.23633
1219.807, 79.69287
1221.027, 15.74561
1222.246, 65.94092
1223.465, 23.06201
1224.684, 0.8842770
1225.903, 21.06738
1227.121, 38.68848
1228.340, 22.22852
1229.558, 75.61035
1230.776, 71.08057
1231.994, 82.38037
1233.212, 64.77637
1234.429, 56.23535
1235.646, 59.78223
1236.864, 36.27100
1238.081, 60.59961
1239.297, 113.5254
1240.514, 121.0840
1241.730, 128.5747
1242.947, 122.7876
1244.163, 30.84326
1245.378, 96.43018
1246.594, 57.76758
1247.810, 124.2603
1249.025, 65.28271
1250.240, 123.9111
1251.455, 151.1416
1252.670, 116.2056
1253.885, 107.8091
1255.099, 222.0273
1256.313, 59.61377
1257.527, 92.14307
1258.741, 257.3164
1259.955, 153.5967
1261.168, 91.62988
1262.382, 167.8081
1263.595, 174.5483
1264.808, 159.3613
1266.021, 181.9663
1267.233, 229.9438
1268.446, 179.4595
1269.658, 223.2783
1270.870, 119.7920
1272.082, 207.8921
1273.294, 215.6035
1274.505, 142.9341
1275.716, 285.4839
1276.928, 151.8979
1278.139, 53.40576
1279.349, 177.1348
1280.560, 164.2305
1281.770, 238.5747
1282.981, 203.3228
1284.191, 235.0654
1285.401, 217.9092
1286.610, 220.3525
1287.820, 166.8330
1289.029, 184.1768
1290.239, 143.7373
1291.448, 197.4648
1292.656, 160.6191
1293.865, 170.4688
1295.073, 171.1592
1296.282, 159.9238
1297.490, 140.2197
1298.698, 157.2900
1299.906, 153.8789
1301.113, 187.8936
1302.320, 201.4834
1303.528, 224.1543
1304.735, 255.1348
1305.942, 259.9756
1307.148, 256.5342
1308.355, 231.9199
1309.561, 233.6328
1310.767, 258.1504
1311.973, 213.1689
1313.179, 151.5693
1314.384, 128.0723
1315.590, 195.0010
1316.795, 236.6650
1318.000, 212.1699
1319.205, 74.93945
1320.410, 179.8994
1321.614, 146.3291
1322.819, 74.58398
1324.023, 220.9082
1325.227, 217.9023
1326.431, 249.6084
1327.634, 162.1816
1328.838, 216.8906
1330.041, 119.3604
1331.244, 244.6611
1332.447, 177.9766
1333.650, 152.1270
1334.852, 183.1621
1336.055, 170.1797
1337.257, 120.2725
1338.459, 217.9658
1339.661, 109.9316
1340.862, 180.9482
1342.064, 174.6973
1343.265, 82.32227
1344.466, 112.7070
1345.667, 158.7344
1346.868, 123.7939
1348.068, 145.0850
1349.269, 213.5117
1350.469, 83.71094
1351.669, 139.5049
1352.869, 108.8027
1354.069, 179.1650
1355.268, 119.1914
1356.468, 49.46484
1357.667, 181.8779
1358.866, 203.7832
1360.065, 41.38477
1361.263, 50.03223
1362.462, 41.15527
1363.660, 61.83496
1364.858, 91.91504
1366.056, 57.07324
1367.254, 50.67773
1368.451, 61.65332
1369.649, 116.9668
1370.846, 49.21777
1372.043, 42.80469
1373.240, 12.30078
1374.436, 0.3476560
1375.633, 141.6074
1376.829, 130.2959
1378.025, 77.98633
1379.221, 7.846680
1380.417, 50.06250
1381.613, 51.51074
1382.808, 77.93457
1384.003, 22.32910
1385.199, 98.21680
1386.393, 115.3047
1387.588, 47.94336
1388.783, 10.82715
1389.977, 87.43652
1391.171, 97.17285
1392.365, 24.42676
1393.559, 85.02051
1394.753, 115.5918
1395.946, 27.47852
1397.140, 197.9326
1398.333, 63.74609
1399.526, 129.2100
1400.719, 110.9443
1401.911, 157.4355
1403.104, 105.1885
1404.296, 119.5146
1405.488, 5.899414
1406.680, 115.5742
1407.872, 86.26074
1409.063, 91.72266
1410.255, 184.6631
1411.446, 64.82520
1412.637, 148.9111
1413.828, 38.42285
1415.018, 57.69238
1416.209, 82.85938
1417.399, 110.3291
1418.589, 60.35547
1419.779, 246.4541
1420.969, 181.3047
1422.159, 95.41602
1423.348, 199.7627
1424.537, 100.6963
1425.726, 202.5869
1426.915, 164.7080
1428.104, 100.3867
1429.293, 155.6611
1430.481, 106.6396
1431.669, 155.9209
1432.857, 189.9482
1434.045, 166.7842
1435.233, 263.8027
1436.420, 297.2881
1437.608, 294.6104
1438.795, 235.9199
1439.982, 304.3701
1441.169, 239.9766
1442.355, 227.5820
